05/20/2022	16:47:03	Ver.	4.1	UNKNOWN
Optical Delay	639.982744	Delta X		0.078125	Sweeps	1	Scan Rate	0/0
Coordinates	Axis 1	NaN	Axis 2	NaN	Axis 3	NaN	Axis 4	NaN	Axis 5	NaN	Axis 6	0.000000
TX Power	0.000000	RX Power	0.000000

639.983	0.0145129
640.061	0.0144367
640.139	0.0145612
640.217	0.0146786
640.295	0.0145564
640.373	0.0147223
640.451	0.0145470
640.530	0.0145912
640.608	0.0145480
640.686	0.0144224
640.764	0.0146970
640.842	0.0147269
640.920	0.0147186
640.998	0.0146421
641.076	0.0146655
641.155	0.0148154
641.233	0.0146517
641.311	0.0147193
641.389	0.0148087
641.467	0.0147671
641.545	0.0146400
641.623	0.0146852
641.701	0.0145725
641.780	0.0146803
641.858	0.0147162
641.936	0.0146458
642.014	0.0147219
642.092	0.0146934
642.170	0.0145447
642.248	0.0145124
642.326	0.0148110
642.405	0.0147374
642.483	0.0147390
642.561	0.0146101
642.639	0.0146471
642.717	0.0148975
642.795	0.0147594
642.873	0.0146492
642.951	0.0147346
643.030	0.0145875
643.108	0.0146813
643.186	0.0147765
643.264	0.0147032
643.342	0.0147810
643.420	0.0147759
643.498	0.0146228
643.576	0.0145370
643.655	0.0146130
643.733	0.0146156
643.811	0.0146738
643.889	0.0147240
643.967	0.0146305
644.045	0.0145554
644.123	0.0145881
644.201	0.0146572
644.280	0.0145771
644.358	0.0146423
644.436	0.0146704
644.514	0.0146535
644.592	0.0147094
644.670	0.0145798
644.748	0.0146128
644.826	0.0146207
644.905	0.0146903
644.983	0.0146479
645.061	0.0147730
645.139	0.0146184
645.217	0.0146735
645.295	0.0147026
645.373	0.0146416
645.451	0.0146922
645.530	0.0146619
645.608	0.0146201
645.686	0.0145624
645.764	0.0146072
645.842	0.0144807
645.920	0.0144568
645.998	0.0146915
646.076	0.0145974
646.155	0.0145103
646.233	0.0147791
646.311	0.0146558
646.389	0.0146532
646.467	0.0146455
646.545	0.0146854
646.623	0.0147390
646.701	0.0146957
646.780	0.0145967
646.858	0.0146981
646.936	0.0147669
647.014	0.0146767
647.092	0.0146005
647.170	0.0147107
647.248	0.0146602
647.326	0.0146974
647.405	0.0145872
647.483	0.0148550
647.561	0.0147211
647.639	0.0146947
647.717	0.0146253
647.795	0.0146550
647.873	0.0147867
647.951	0.0146927
648.030	0.0146890
648.108	0.0145940
648.186	0.0148618
648.264	0.0147257
648.342	0.0147002
648.420	0.0147204
648.498	0.0145799
648.576	0.0146774
648.655	0.0145315
648.733	0.0147034
648.811	0.0148241
648.889	0.0148373
648.967	0.0147561
649.045	0.0145680
649.123	0.0146059
649.201	0.0146069
649.280	0.0146898
649.358	0.0145341
649.436	0.0146463
649.514	0.0147856
649.592	0.0147824
649.670	0.0146970
649.748	0.0147478
649.826	0.0146423
649.905	0.0146503
649.983	0.0146582
650.061	0.0147375
650.139	0.0146490
650.217	0.0146375
650.295	0.0146992
650.373	0.0148370
650.451	0.0145566
650.530	0.0146824
650.608	0.0146051
650.686	0.0146333
650.764	0.0146101
650.842	0.0145478
650.920	0.0145906
650.998	0.0146148
651.076	0.0144670
651.155	0.0145544
651.233	0.0146113
651.311	0.0146040
651.389	0.0146658
651.467	0.0147049
651.545	0.0145190
651.623	0.0145079
651.701	0.0147398
651.780	0.0146419
651.858	0.0145625
651.936	0.0144243
652.014	0.0145676
652.092	0.0146719
652.170	0.0148035
652.248	0.0146949
652.326	0.0146618
652.405	0.0145456
652.483	0.0145329
652.561	0.0145726
652.639	0.0145577
652.717	0.0147763
652.795	0.0146694
652.873	0.0146912
652.951	0.0146585
653.030	0.0147083
653.108	0.0146991
653.186	0.0148123
653.264	0.0145502
653.342	0.0146677
653.420	0.0147259
653.498	0.0147252
653.576	0.0146606
653.655	0.0145690
653.733	0.0145601
653.811	0.0145681
653.889	0.0146046
653.967	0.0144963
654.045	0.0146058
654.123	0.0144819
654.201	0.0146498
654.280	0.0143871
654.358	0.0145471
654.436	0.0144566
654.514	0.0144189
654.592	0.0145460
654.670	0.0145166
654.748	0.0143693
654.826	0.0145010
654.905	0.0145465
654.983	0.0144768
655.061	0.0144415
655.139	0.0145377
655.217	0.0145372
655.295	0.0145867
655.373	0.0145573
655.451	0.0145335
655.530	0.0145401
655.608	0.0143623
655.686	0.0144076
655.764	0.0144695
655.842	0.0144901
655.920	0.0147017
655.998	0.0143593
656.076	0.0143604
656.155	0.0143462
656.233	0.0144546
656.311	0.0144959
656.389	0.0143478
656.467	0.0143005
656.545	0.0144553
656.623	0.0143443
656.701	0.0143541
656.780	0.0143088
656.858	0.0144025
656.936	0.0143919
657.014	0.0142833
657.092	0.0143975
657.170	0.0144617
657.248	0.0143452
657.326	0.0143250
657.405	0.0145196
657.483	0.0145274
657.561	0.0144512
657.639	0.0144097
657.717	0.0145553
657.795	0.0144218
657.873	0.0144599
657.951	0.0144075
658.030	0.0144656
658.108	0.0144408
658.186	0.0146617
658.264	0.0145557
658.342	0.0144429
658.420	0.0145399
658.498	0.0145759
658.576	0.0144340
658.655	0.0144665
658.733	0.0145037
658.811	0.0144897
658.889	0.0145459
658.967	0.0144597
659.045	0.0144363
659.123	0.0143798
659.201	0.0145341
659.280	0.0146052
659.358	0.0145125
659.436	0.0144752
659.514	0.0145331
659.592	0.0144769
659.670	0.0145515
659.748	0.0145433
659.826	0.0145322
659.905	0.0146474
659.983	0.0147037
660.061	0.0146974
660.139	0.0146089
660.217	0.0147334
660.295	0.0147501
660.373	0.0147394
660.451	0.0146201
660.530	0.0147218
660.608	0.0146568
660.686	0.0145855
660.764	0.0145815
660.842	0.0145921
660.920	0.0146411
660.998	0.0146336
661.076	0.0145738
661.155	0.0144949
661.233	0.0144901
661.311	0.0144312
661.389	0.0144353
661.467	0.0144547
661.545	0.0144575
661.623	0.0144023
661.701	0.0143737
661.780	0.0143179
661.858	0.0144200
661.936	0.0143656
662.014	0.0143733
662.092	0.0145417
662.170	0.0145792
662.248	0.0144886
662.326	0.0144846
662.405	0.0146626
662.483	0.0146247
662.561	0.0146685
662.639	0.0144379
662.717	0.0145347
662.795	0.0146393
662.873	0.0145872
662.951	0.0144833
663.030	0.0145580
663.108	0.0146064
663.186	0.0145786
663.264	0.0146231
663.342	0.0145586
663.420	0.0146405
663.498	0.0146788
663.576	0.0146546
663.655	0.0147462
663.733	0.0148412
663.811	0.0149512
663.889	0.0149407
663.967	0.0149978
664.045	0.0150433
664.123	0.0149231
664.201	0.0149496
664.280	0.0150434
664.358	0.0150623
664.436	0.0150201
664.514	0.0150077
664.592	0.0150391
664.670	0.0150446
664.748	0.0149897
664.826	0.0148871
664.905	0.0149458
664.983	0.0149165
665.061	0.0150492
665.139	0.0149669
665.217	0.0149146
665.295	0.0149425
665.373	0.0149133
665.451	0.0151408
665.530	0.0150913
665.608	0.0148994
665.686	0.0147674
665.764	0.0148551
665.842	0.0148861
665.920	0.0147667
665.998	0.0147953
666.076	0.0147752
666.155	0.0146242
666.233	0.0146193
666.311	0.0144955
666.389	0.0145444
666.467	0.0144366
666.545	0.0144271
666.623	0.0142925
666.701	0.0144952
666.780	0.0144568
666.858	0.0142748
666.936	0.0144421
667.014	0.0144276
667.092	0.0143688
667.170	0.0144772
667.248	0.0145052
667.326	0.0146954
667.405	0.0145999
667.483	0.0147200
667.561	0.0146268
667.639	0.0148080
667.717	0.0148931
667.795	0.0149486
667.873	0.0149435
667.951	0.0148826
668.030	0.0148586
668.108	0.0148689
668.186	0.0151060
668.264	0.0149804
668.342	0.0149605
668.420	0.0149221
668.498	0.0148872
668.576	0.0150593
668.655	0.0150562
668.733	0.0148469
668.811	0.0149390
668.889	0.0148891
668.967	0.0149078
669.045	0.0147533
669.123	0.0147307
669.201	0.0146468
669.280	0.0146683
669.358	0.0145341
669.436	0.0143375
669.514	0.0142825
669.592	0.0142859
669.670	0.0141171
669.748	0.0139080
669.826	0.0137605
669.905	0.0137695
669.983	0.0138705
670.061	0.0138272
670.139	0.0137435
670.217	0.0137482
670.295	0.0136948
670.373	0.0138267
670.451	0.0139533
670.530	0.0138868
670.608	0.0140448
670.686	0.0140665
670.764	0.0141069
670.842	0.0142162
670.920	0.0143349
670.998	0.0145547
671.076	0.0144838
671.155	0.0147301
671.233	0.0147845
671.311	0.0149113
671.389	0.0150774
671.467	0.0151556
671.545	0.0152629
671.623	0.0154281
671.701	0.0153603
671.780	0.0154681
671.858	0.0154348
671.936	0.0153490
672.014	0.0154934
672.092	0.0155319
672.170	0.0153330
672.248	0.0152903
672.326	0.0152200
672.405	0.0151621
672.483	0.0149766
672.561	0.0148898
672.639	0.0147254
672.717	0.0146165
672.795	0.0144241
672.873	0.0143134
672.951	0.0142046
673.030	0.0139449
673.108	0.0137807
673.186	0.0136549
673.264	0.0136089
673.342	0.0135032
673.420	0.0133228
673.498	0.0134124
673.576	0.0136025
673.655	0.0133141
673.733	0.0133807
673.811	0.0134054
673.889	0.0135896
673.967	0.0135891
674.045	0.0138971
674.123	0.0139072
674.201	0.0139938
674.280	0.0141479
674.358	0.0142197
674.436	0.0143145
674.514	0.0146864
674.592	0.0146661
674.670	0.0149073
674.748	0.0152007
674.826	0.0152610
674.905	0.0154996
674.983	0.0156039
675.061	0.0156700
675.139	0.0157523
675.217	0.0158063
675.295	0.0158977
675.373	0.0159023
675.451	0.0157687
675.530	0.0158105
675.608	0.0158176
675.686	0.0156821
675.764	0.0155254
675.842	0.0154359
675.920	0.0153479
675.998	0.0152886
676.076	0.0153260
676.155	0.0149495
676.233	0.0148151
676.311	0.0147423
676.389	0.0146521
676.467	0.0144165
676.545	0.0141724
676.623	0.0141063
676.701	0.0140627
676.780	0.0139684
676.858	0.0139337
676.936	0.0138273
677.014	0.0137901
677.092	0.0136928
677.170	0.0137595
677.248	0.0137437
677.326	0.0137169
677.405	0.0137940
677.483	0.0139423
677.561	0.0140311
677.639	0.0141189
677.717	0.0140440
677.795	0.0141883
677.873	0.0142904
677.951	0.0143546
678.030	0.0144302
678.108	0.0145332
678.186	0.0145729
678.264	0.0145665
678.342	0.0146413
678.420	0.0147871
678.498	0.0147997
678.576	0.0149240
678.655	0.0148225
678.733	0.0148548
678.811	0.0149461
678.889	0.0148939
678.967	0.0149522
679.045	0.0150777
679.123	0.0150421
679.201	0.0150665
679.280	0.0149306
679.358	0.0150875
679.436	0.0151647
679.514	0.0151088
679.592	0.0150749
679.670	0.0150826
679.748	0.0152147
679.826	0.0151587
679.905	0.0150272
679.983	0.0151684
680.061	0.0151110
680.139	0.0152055
680.217	0.0152456
680.295	0.0152372
680.373	0.0151421
680.451	0.0150462
680.530	0.0151660
680.608	0.0152097
680.686	0.0150193
680.764	0.0149510
680.842	0.0150275
680.920	0.0150507
680.998	0.0148815
681.076	0.0147511
681.155	0.0145317
681.233	0.0146135
681.311	0.0145195
681.389	0.0144281
681.467	0.0143236
681.545	0.0141410
681.623	0.0140594
681.701	0.0139445
681.780	0.0138365
681.858	0.0137533
681.936	0.0135300
682.014	0.0134298
682.092	0.0134216
682.170	0.0135201
682.248	0.0134814
682.326	0.0135059
682.405	0.0136668
682.483	0.0137556
682.561	0.0140160
682.639	0.0141235
682.717	0.0141700
682.795	0.0142353
682.873	0.0144160
682.951	0.0146593
683.030	0.0148396
683.108	0.0149393
683.186	0.0150801
683.264	0.0152399
683.342	0.0153652
683.420	0.0154517
683.498	0.0156599
683.576	0.0158129
683.655	0.0158229
683.733	0.0159409
683.811	0.0159422
683.889	0.0158366
683.967	0.0158405
684.045	0.0160682
684.123	0.0159174
684.201	0.0158243
684.280	0.0157738
684.358	0.0157036
684.436	0.0154694
684.514	0.0154649
684.592	0.0152608
684.670	0.0151617
684.748	0.0150816
684.826	0.0149725
684.905	0.0147765
684.983	0.0146820
685.061	0.0147972
685.139	0.0144561
685.217	0.0142807
685.295	0.0142433
685.373	0.0140724
685.451	0.0141267
685.530	0.0140352
685.608	0.0140042
685.686	0.0139367
685.764	0.0137774
685.842	0.0138968
685.920	0.0139487
685.998	0.0140294
686.076	0.0139245
686.155	0.0141224
686.233	0.0141704
686.311	0.0142396
686.389	0.0142207
686.467	0.0141994
686.545	0.0142279
686.623	0.0142317
686.701	0.0144126
686.780	0.0144560
686.858	0.0145139
686.936	0.0144991
687.014	0.0144926
687.092	0.0146421
687.170	0.0146358
687.248	0.0147865
687.326	0.0147916
687.405	0.0150498
687.483	0.0150749
687.561	0.0151077
687.639	0.0152225
687.717	0.0152828
687.795	0.0154382
687.873	0.0153903
687.951	0.0154205
688.030	0.0155367
688.108	0.0155676
688.186	0.0154500
688.264	0.0155196
688.342	0.0154704
688.420	0.0154243
688.498	0.0152471
688.576	0.0151717
688.655	0.0152778
688.733	0.0152766
688.811	0.0151236
688.889	0.0149041
688.967	0.0148699
689.045	0.0150394
689.123	0.0148318
689.201	0.0146469
689.280	0.0143495
689.358	0.0144520
689.436	0.0142371
689.514	0.0140089
689.592	0.0139770
689.670	0.0137982
689.748	0.0136948
689.826	0.0135145
689.905	0.0134305
689.983	0.0135661
690.061	0.0135197
690.139	0.0133703
690.217	0.0134135
690.295	0.0133958
690.373	0.0133856
690.451	0.0134167
690.530	0.0135419
690.608	0.0136127
690.686	0.0135726
690.764	0.0136271
690.842	0.0139366
690.920	0.0141123
690.998	0.0141904
691.076	0.0143536
691.155	0.0145069
691.233	0.0147442
691.311	0.0149435
691.389	0.0150929
691.467	0.0154117
691.545	0.0154607
691.623	0.0156273
691.701	0.0160329
691.780	0.0160262
691.858	0.0160709
691.936	0.0160384
692.014	0.0160503
692.092	0.0162179
692.170	0.0162074
692.248	0.0160654
692.326	0.0158235
692.405	0.0157938
692.483	0.0156828
692.561	0.0154767
692.639	0.0152903
692.717	0.0151598
692.795	0.0150611
692.873	0.0149409
692.951	0.0148476
693.030	0.0146105
693.108	0.0144565
693.186	0.0142599
693.264	0.0142535
693.342	0.0142290
693.420	0.0141552
693.498	0.0138302
693.576	0.0138995
693.655	0.0139291
693.733	0.0137235
693.811	0.0137799
693.889	0.0137501
693.967	0.0139030
694.045	0.0140261
694.123	0.0139883
694.201	0.0139443
694.280	0.0141114
694.358	0.0142857
694.436	0.0144485
694.514	0.0143876
694.592	0.0145231
694.670	0.0147042
694.748	0.0146664
694.826	0.0146758
694.905	0.0147247
694.983	0.0146893
695.061	0.0145818
695.139	0.0146327
695.217	0.0146037
695.295	0.0146786
695.373	0.0146354
695.451	0.0147822
695.530	0.0150062
695.608	0.0148481
695.686	0.0148190
695.764	0.0149310
695.842	0.0150450
695.920	0.0149303
695.998	0.0150097
696.076	0.0149786
696.155	0.0150014
696.233	0.0149577
696.311	0.0149902
696.389	0.0150816
696.467	0.0149807
696.545	0.0149423
696.623	0.0147981
696.701	0.0148813
696.780	0.0149128
696.858	0.0147195
696.936	0.0147385
697.014	0.0148384
697.092	0.0149345
697.170	0.0149358
697.248	0.0148835
697.326	0.0148649
697.405	0.0148533
697.483	0.0148536
697.561	0.0146755
697.639	0.0145576
697.717	0.0145365
697.795	0.0145783
697.873	0.0144633
697.951	0.0143709
698.030	0.0143329
698.108	0.0143565
698.186	0.0141459
698.264	0.0143255
698.342	0.0140533
698.420	0.0139443
698.498	0.0140805
698.576	0.0140691
698.655	0.0138060
698.733	0.0141270
698.811	0.0142011
698.889	0.0140543
698.967	0.0141821
699.045	0.0143716
699.123	0.0143700
699.201	0.0144952
699.280	0.0145747
699.358	0.0146548
699.436	0.0148914
699.514	0.0148702
699.592	0.0150480
699.670	0.0153008
699.748	0.0153094
699.826	0.0154102
699.905	0.0154070
699.983	0.0155640
700.061	0.0156614
700.139	0.0156607
700.217	0.0158144
700.295	0.0157388
700.373	0.0157555
700.451	0.0157563
700.530	0.0158302
700.608	0.0158745
700.686	0.0158141
700.764	0.0155329
700.842	0.0153471
700.920	0.0153841
700.998	0.0152045
701.076	0.0147311
701.155	0.0146970
701.233	0.0144096
701.311	0.0140700
701.389	0.0136981
701.467	0.0135473
701.545	0.0134497
701.623	0.0131857
701.701	0.0131004
701.780	0.0128853
701.858	0.0128999
701.936	0.0128523
702.014	0.0126833
702.092	0.0126275
702.170	0.0126497
702.248	0.0126502
702.326	0.0127397
702.405	0.0128928
702.483	0.0130937
702.561	0.0131343
702.639	0.0132499
702.717	0.0134666
702.795	0.0135909
702.873	0.0138282
702.951	0.0140331
703.030	0.0144347
703.108	0.0145265
703.186	0.0148914
703.264	0.0152332
703.342	0.0154166
703.420	0.0156328
703.498	0.0159216
703.576	0.0160532
703.655	0.0161433
703.733	0.0164414
703.811	0.0164433
703.889	0.0165680
703.967	0.0167374
704.045	0.0166681
704.123	0.0166753
704.201	0.0166255
704.280	0.0165456
704.358	0.0163346
704.436	0.0162519
704.514	0.0160136
704.592	0.0158695
704.670	0.0156932
704.748	0.0156845
704.826	0.0152229
704.905	0.0149985
704.983	0.0148364
705.061	0.0146815
705.139	0.0144717
705.217	0.0142495
705.295	0.0140365
705.373	0.0138904
705.451	0.0138577
705.530	0.0139095
705.608	0.0137320
705.686	0.0137577
705.764	0.0134910
705.842	0.0135716
705.920	0.0134705
705.998	0.0134737
706.076	0.0134233
706.155	0.0134621
706.233	0.0133990
706.311	0.0135378
706.389	0.0136470
706.467	0.0137485
706.545	0.0138125
706.623	0.0139228
706.701	0.0140296
706.780	0.0142639
706.858	0.0143917
706.936	0.0144671
707.014	0.0143770
707.092	0.0144478
707.170	0.0146241
707.248	0.0146544
707.326	0.0148686
707.405	0.0149595
707.483	0.0149395
707.561	0.0149133
707.639	0.0148995
707.717	0.0149538
707.795	0.0149407
707.873	0.0147604
707.951	0.0149239
708.030	0.0148898
708.108	0.0150258
708.186	0.0148653
708.264	0.0147273
708.342	0.0148527
708.420	0.0149090
708.498	0.0150081
708.576	0.0150531
708.655	0.0150161
708.733	0.0149993
708.811	0.0150599
708.889	0.0150201
708.967	0.0151283
709.045	0.0149399
709.123	0.0150617
709.201	0.0150204
709.280	0.0151542
709.358	0.0150050
709.436	0.0148796
709.514	0.0148649
709.592	0.0147580
709.670	0.0148031
709.748	0.0147139
709.826	0.0144839
709.905	0.0146046
709.983	0.0146765
710.061	0.0145000
710.139	0.0145822
710.217	0.0143821
710.295	0.0143347
710.373	0.0144498
710.451	0.0146411
710.530	0.0144261
710.608	0.0143952
710.686	0.0145203
710.764	0.0144680
710.842	0.0146154
710.920	0.0144912
710.998	0.0144718
711.076	0.0145596
711.155	0.0145554
711.233	0.0146424
711.311	0.0145721
711.389	0.0145493
711.467	0.0145657
711.545	0.0146301
711.623	0.0145637
711.701	0.0147135
711.780	0.0149490
711.858	0.0150134
711.936	0.0147826
712.014	0.0149212
712.092	0.0151543
712.170	0.0153040
712.248	0.0151694
712.326	0.0152248
712.405	0.0153158
712.483	0.0154906
712.561	0.0155334
712.639	0.0153992
712.717	0.0153288
712.795	0.0152152
712.873	0.0152032
712.951	0.0151431
713.030	0.0151270
713.108	0.0149231
713.186	0.0149696
713.264	0.0148167
713.342	0.0147186
713.420	0.0145973
713.498	0.0143092
713.576	0.0143678
713.655	0.0141893
713.733	0.0140228
713.811	0.0137582
713.889	0.0136896
713.967	0.0136048
714.045	0.0134971
714.123	0.0133015
714.201	0.0133584
714.280	0.0134120
714.358	0.0132730
714.436	0.0133008
714.514	0.0131447
714.592	0.0131498
714.670	0.0133824
714.748	0.0133881
714.826	0.0134182
714.905	0.0136027
714.983	0.0134370
715.061	0.0136616
715.139	0.0137588
715.217	0.0138775
715.295	0.0140422
715.373	0.0141926
715.451	0.0143537
715.530	0.0144061
715.608	0.0146382
715.686	0.0148302
715.764	0.0150016
715.842	0.0150229
715.920	0.0151880
715.998	0.0153914
716.076	0.0153976
716.155	0.0154553
716.233	0.0156438
716.311	0.0158024
716.389	0.0157178
716.467	0.0158503
716.545	0.0158269
716.623	0.0157188
716.701	0.0156266
716.780	0.0155863
716.858	0.0155620
716.936	0.0154364
717.014	0.0153947
717.092	0.0153233
717.170	0.0151611
717.248	0.0152180
717.326	0.0151675
717.405	0.0152565
717.483	0.0151110
717.561	0.0149628
717.639	0.0148856
717.717	0.0147861
717.795	0.0147751
717.873	0.0148915
717.951	0.0147327
718.030	0.0145947
718.108	0.0147533
718.186	0.0147793
718.264	0.0146961
718.342	0.0146176
718.420	0.0148572
718.498	0.0148079
718.576	0.0146056
718.655	0.0146323
718.733	0.0146455
718.811	0.0144038
718.889	0.0144504
718.967	0.0146104
719.045	0.0142958
719.123	0.0141971
719.201	0.0140723
719.280	0.0140402
719.358	0.0140569
719.436	0.0139742
719.514	0.0138185
719.592	0.0138689
719.670	0.0139618
719.748	0.0138125
719.826	0.0139326
719.905	0.0139493
719.983	0.0139201
720.061	0.0141541
720.139	0.0140822
720.217	0.0142716
720.295	0.0142279
720.373	0.0142348
720.451	0.0143426
720.530	0.0142857
720.608	0.0144364
720.686	0.0145581
720.764	0.0146306
720.842	0.0145310
720.920	0.0146219
720.998	0.0146324
721.076	0.0148455
721.155	0.0147493
721.233	0.0148823
721.311	0.0149043
721.389	0.0149842
721.467	0.0150377
721.545	0.0149409
721.623	0.0151326
721.701	0.0151256
721.780	0.0150824
721.858	0.0151917
721.936	0.0150643
722.014	0.0149968
722.092	0.0149993
722.170	0.0149458
722.248	0.0150526
722.326	0.0149873
722.405	0.0152002
722.483	0.0149847
722.561	0.0151063
722.639	0.0150272
722.717	0.0149417
722.795	0.0149521
722.873	0.0148910
722.951	0.0149362
723.030	0.0147480
723.108	0.0149374
723.186	0.0148900
723.264	0.0148752
723.342	0.0148157
723.420	0.0146146
723.498	0.0147696
723.576	0.0147225
723.655	0.0146374
723.733	0.0146891
723.811	0.0146103
723.889	0.0145099
723.967	0.0143471
724.045	0.0144164
724.123	0.0144454
724.201	0.0144069
724.280	0.0144421
724.358	0.0144030
724.436	0.0144144
724.514	0.0144735
724.592	0.0143895
724.670	0.0143987
724.748	0.0143388
724.826	0.0145037
724.905	0.0144894
724.983	0.0145025
725.061	0.0144254
725.139	0.0145034
725.217	0.0146294
725.295	0.0145017
725.373	0.0147082
725.451	0.0146950
725.530	0.0148100
725.608	0.0150976
725.686	0.0149739
