05/20/2022	17:14:04	Ver.	4.1	UNKNOWN
Optical Delay	639.982744	Delta X		0.078125	Sweeps	1	Scan Rate	0/0
Coordinates	Axis 1	NaN	Axis 2	NaN	Axis 3	NaN	Axis 4	NaN	Axis 5	NaN	Axis 6	0.000000
TX Power	0.000000	RX Power	0.000000

639.983	0.0148437
640.061	0.0147112
640.139	0.0147673
640.217	0.0147444
640.295	0.0147836
640.373	0.0146516
640.451	0.0148038
640.530	0.0146716
640.608	0.0147945
640.686	0.0147730
640.764	0.0147465
640.842	0.0148804
640.920	0.0147257
640.998	0.0146471
641.076	0.0147531
641.155	0.0148383
641.233	0.0146519
641.311	0.0145309
641.389	0.0147414
641.467	0.0148401
641.545	0.0146619
641.623	0.0147666
641.701	0.0148565
641.780	0.0146882
641.858	0.0145647
641.936	0.0144892
642.014	0.0146100
642.092	0.0146101
642.170	0.0147179
642.248	0.0146593
642.326	0.0147472
642.405	0.0147752
642.483	0.0147443
642.561	0.0146490
642.639	0.0147089
642.717	0.0146788
642.795	0.0147300
642.873	0.0147051
642.951	0.0148036
643.030	0.0148171
643.108	0.0148505
643.186	0.0148635
643.264	0.0149841
643.342	0.0147694
643.420	0.0148549
643.498	0.0148232
643.576	0.0149036
643.655	0.0149859
643.733	0.0148843
643.811	0.0150073
643.889	0.0148637
643.967	0.0149261
644.045	0.0148994
644.123	0.0149911
644.201	0.0148654
644.280	0.0150066
644.358	0.0149137
644.436	0.0148523
644.514	0.0149398
644.592	0.0148822
644.670	0.0149161
644.748	0.0148082
644.826	0.0149200
644.905	0.0147674
644.983	0.0148209
645.061	0.0150266
645.139	0.0147837
645.217	0.0149226
645.295	0.0148092
645.373	0.0147093
645.451	0.0150057
645.530	0.0149796
645.608	0.0147565
645.686	0.0147908
645.764	0.0147742
645.842	0.0148503
645.920	0.0146217
645.998	0.0146854
646.076	0.0146700
646.155	0.0146363
646.233	0.0146680
646.311	0.0147993
646.389	0.0146799
646.467	0.0146552
646.545	0.0147883
646.623	0.0148820
646.701	0.0148478
646.780	0.0148622
646.858	0.0147719
646.936	0.0149884
647.014	0.0148132
647.092	0.0148492
647.170	0.0149500
647.248	0.0148964
647.326	0.0149424
647.405	0.0149002
647.483	0.0148572
647.561	0.0148311
647.639	0.0147834
647.717	0.0147609
647.795	0.0149216
647.873	0.0148004
647.951	0.0147754
648.030	0.0147324
648.108	0.0146628
648.186	0.0146560
648.264	0.0145667
648.342	0.0147997
648.420	0.0148286
648.498	0.0146654
648.576	0.0147060
648.655	0.0147839
648.733	0.0147984
648.811	0.0147557
648.889	0.0146823
648.967	0.0147533
649.045	0.0146937
649.123	0.0148071
649.201	0.0146370
649.280	0.0147271
649.358	0.0147444
649.436	0.0147417
649.514	0.0148135
649.592	0.0147326
649.670	0.0146766
649.748	0.0147823
649.826	0.0148508
649.905	0.0147747
649.983	0.0148510
650.061	0.0148362
650.139	0.0148089
650.217	0.0147299
650.295	0.0148296
650.373	0.0149026
650.451	0.0148222
650.530	0.0147845
650.608	0.0148568
650.686	0.0148687
650.764	0.0148603
650.842	0.0147431
650.920	0.0148355
650.998	0.0146752
651.076	0.0147333
651.155	0.0147771
651.233	0.0146617
651.311	0.0147916
651.389	0.0147722
651.467	0.0147207
651.545	0.0146712
651.623	0.0147318
651.701	0.0145142
651.780	0.0145776
651.858	0.0143961
651.936	0.0145136
652.014	0.0146763
652.092	0.0146609
652.170	0.0145580
652.248	0.0146046
652.326	0.0145830
652.405	0.0146046
652.483	0.0147926
652.561	0.0146348
652.639	0.0145920
652.717	0.0146923
652.795	0.0148269
652.873	0.0146616
652.951	0.0148055
653.030	0.0148002
653.108	0.0147634
653.186	0.0149070
653.264	0.0149772
653.342	0.0148171
653.420	0.0148270
653.498	0.0150841
653.576	0.0150041
653.655	0.0149962
653.733	0.0149281
653.811	0.0149578
653.889	0.0149079
653.967	0.0147628
654.045	0.0149453
654.123	0.0148291
654.201	0.0148652
654.280	0.0149332
654.358	0.0147831
654.436	0.0147077
654.514	0.0146513
654.592	0.0146888
654.670	0.0147079
654.748	0.0147542
654.826	0.0145998
654.905	0.0147355
654.983	0.0147576
655.061	0.0146741
655.139	0.0148061
655.217	0.0147705
655.295	0.0148248
655.373	0.0149042
655.451	0.0148650
655.530	0.0149435
655.608	0.0149808
655.686	0.0148913
655.764	0.0149702
655.842	0.0149209
655.920	0.0148993
655.998	0.0149603
656.076	0.0149781
656.155	0.0149316
656.233	0.0150074
656.311	0.0148690
656.389	0.0148679
656.467	0.0148610
656.545	0.0149031
656.623	0.0148258
656.701	0.0147565
656.780	0.0146732
656.858	0.0145860
656.936	0.0146788
657.014	0.0146883
657.092	0.0148032
657.170	0.0145733
657.248	0.0145895
657.326	0.0146716
657.405	0.0146413
657.483	0.0145850
657.561	0.0146394
657.639	0.0147040
657.717	0.0148662
657.795	0.0148062
657.873	0.0147064
657.951	0.0147726
658.030	0.0148803
658.108	0.0148991
658.186	0.0148895
658.264	0.0147660
658.342	0.0149433
658.420	0.0149277
658.498	0.0149224
658.576	0.0148799
658.655	0.0148795
658.733	0.0150167
658.811	0.0149062
658.889	0.0147569
658.967	0.0146947
659.045	0.0149251
659.123	0.0148382
659.201	0.0147137
659.280	0.0146971
659.358	0.0148252
659.436	0.0147032
659.514	0.0145992
659.592	0.0147518
659.670	0.0146949
659.748	0.0147004
659.826	0.0147369
659.905	0.0146912
659.983	0.0148272
660.061	0.0147832
660.139	0.0148480
660.217	0.0148397
660.295	0.0148537
660.373	0.0148440
660.451	0.0149076
660.530	0.0149222
660.608	0.0147540
660.686	0.0148428
660.764	0.0149230
660.842	0.0149216
660.920	0.0150706
660.998	0.0149094
661.076	0.0147742
661.155	0.0147875
661.233	0.0148420
661.311	0.0146525
661.389	0.0146712
661.467	0.0147543
661.545	0.0145529
661.623	0.0146071
661.701	0.0146420
661.780	0.0146494
661.858	0.0144449
661.936	0.0144701
662.014	0.0143937
662.092	0.0144386
662.170	0.0143238
662.248	0.0143253
662.326	0.0143537
662.405	0.0142215
662.483	0.0142322
662.561	0.0144134
662.639	0.0142266
662.717	0.0143404
662.795	0.0143877
662.873	0.0142923
662.951	0.0142747
663.030	0.0142881
663.108	0.0143422
663.186	0.0143438
663.264	0.0143774
663.342	0.0144146
663.420	0.0144766
663.498	0.0144353
663.576	0.0145266
663.655	0.0145699
663.733	0.0146998
663.811	0.0146375
663.889	0.0145443
663.967	0.0145509
664.045	0.0145570
664.123	0.0146963
664.201	0.0146186
664.280	0.0147795
664.358	0.0146227
664.436	0.0146490
664.514	0.0147653
664.592	0.0146788
664.670	0.0147827
664.748	0.0148227
664.826	0.0149249
664.905	0.0151060
664.983	0.0150872
665.061	0.0151667
665.139	0.0152367
665.217	0.0150407
665.295	0.0151030
665.373	0.0150554
665.451	0.0151224
665.530	0.0152770
665.608	0.0151154
665.686	0.0151360
665.764	0.0151359
665.842	0.0151440
665.920	0.0150703
665.998	0.0149337
666.076	0.0150519
666.155	0.0149619
666.233	0.0149834
666.311	0.0148554
666.389	0.0146605
666.467	0.0148135
666.545	0.0148662
666.623	0.0146393
666.701	0.0144659
666.780	0.0144340
666.858	0.0142311
666.936	0.0142815
667.014	0.0142188
667.092	0.0141129
667.170	0.0142495
667.248	0.0140720
667.326	0.0139198
667.405	0.0140565
667.483	0.0141926
667.561	0.0140928
667.639	0.0140756
667.717	0.0142200
667.795	0.0143115
667.873	0.0142355
667.951	0.0143973
668.030	0.0143545
668.108	0.0144498
668.186	0.0145417
668.264	0.0149312
668.342	0.0149547
668.420	0.0148829
668.498	0.0152383
668.576	0.0152642
668.655	0.0153837
668.733	0.0154427
668.811	0.0154400
668.889	0.0156232
668.967	0.0156876
669.045	0.0157909
669.123	0.0156974
669.201	0.0156609
669.280	0.0156665
669.358	0.0158112
669.436	0.0157352
669.514	0.0156615
669.592	0.0156814
669.670	0.0157497
669.748	0.0154890
669.826	0.0153786
669.905	0.0155454
669.983	0.0155087
670.061	0.0153723
670.139	0.0154594
670.217	0.0155472
670.295	0.0153125
670.373	0.0152582
670.451	0.0152354
670.530	0.0151724
670.608	0.0151048
670.686	0.0148847
670.764	0.0148042
670.842	0.0147910
670.920	0.0148203
670.998	0.0145302
671.076	0.0143961
671.155	0.0144693
671.233	0.0145337
671.311	0.0142904
671.389	0.0141588
671.467	0.0143836
671.545	0.0143597
671.623	0.0140971
671.701	0.0140535
671.780	0.0139503
671.858	0.0139299
671.936	0.0140729
672.014	0.0138345
672.092	0.0139901
672.170	0.0138259
672.248	0.0138107
672.326	0.0136183
672.405	0.0137202
672.483	0.0136818
672.561	0.0137564
672.639	0.0136906
672.717	0.0137091
672.795	0.0138698
672.873	0.0140726
672.951	0.0140868
673.030	0.0140817
673.108	0.0142941
673.186	0.0142715
673.264	0.0144718
673.342	0.0146019
673.420	0.0147561
673.498	0.0147047
673.576	0.0148682
673.655	0.0151058
673.733	0.0150979
673.811	0.0151375
673.889	0.0152946
673.967	0.0155560
674.045	0.0155022
674.123	0.0156140
674.201	0.0157051
674.280	0.0157580
674.358	0.0157244
674.436	0.0158173
674.514	0.0158591
674.592	0.0160668
674.670	0.0159036
674.748	0.0160059
674.826	0.0160859
674.905	0.0160260
674.983	0.0157822
675.061	0.0157919
675.139	0.0157681
675.217	0.0157599
675.295	0.0155296
675.373	0.0153490
675.451	0.0153261
675.530	0.0152049
675.608	0.0150204
675.686	0.0148729
675.764	0.0147557
675.842	0.0145869
675.920	0.0146519
675.998	0.0143336
676.076	0.0141820
676.155	0.0141843
676.233	0.0140548
676.311	0.0139220
676.389	0.0137799
676.467	0.0137936
676.545	0.0136886
676.623	0.0135818
676.701	0.0136613
676.780	0.0135389
676.858	0.0135531
676.936	0.0136543
677.014	0.0136828
677.092	0.0137488
677.170	0.0136733
677.248	0.0138375
677.326	0.0140897
677.405	0.0141086
677.483	0.0143398
677.561	0.0143695
677.639	0.0142738
677.717	0.0147598
677.795	0.0147995
677.873	0.0148025
677.951	0.0150496
678.030	0.0151883
678.108	0.0151407
678.186	0.0152907
678.264	0.0153362
678.342	0.0155199
678.420	0.0155464
678.498	0.0153858
678.576	0.0154852
678.655	0.0154173
678.733	0.0155031
678.811	0.0154938
678.889	0.0154165
678.967	0.0155528
679.045	0.0154587
679.123	0.0152595
679.201	0.0154357
679.280	0.0153016
679.358	0.0152533
679.436	0.0151949
679.514	0.0151591
679.592	0.0151334
679.670	0.0149922
679.748	0.0149299
679.826	0.0148061
679.905	0.0148579
679.983	0.0148419
680.061	0.0147436
680.139	0.0144991
680.217	0.0146483
680.295	0.0145967
680.373	0.0146437
680.451	0.0145666
680.530	0.0145896
680.608	0.0144691
680.686	0.0144308
680.764	0.0144747
680.842	0.0145010
680.920	0.0145484
680.998	0.0146451
681.076	0.0147691
681.155	0.0147496
681.233	0.0147837
681.311	0.0146470
681.389	0.0149625
681.467	0.0147385
681.545	0.0147505
681.623	0.0147118
681.701	0.0147730
681.780	0.0149342
681.858	0.0149500
681.936	0.0148572
682.014	0.0147510
682.092	0.0147034
682.170	0.0148314
682.248	0.0146851
682.326	0.0147282
682.405	0.0146848
682.483	0.0146047
682.561	0.0145576
682.639	0.0145158
682.717	0.0143992
682.795	0.0144094
682.873	0.0142768
682.951	0.0143306
683.030	0.0143406
683.108	0.0142020
683.186	0.0143208
683.264	0.0142342
683.342	0.0142295
683.420	0.0141870
683.498	0.0141867
683.576	0.0141544
683.655	0.0141545
683.733	0.0141915
683.811	0.0140976
683.889	0.0141740
683.967	0.0142808
684.045	0.0144502
684.123	0.0144434
684.201	0.0145198
684.280	0.0144608
684.358	0.0144642
684.436	0.0147291
684.514	0.0146367
684.592	0.0146900
684.670	0.0147533
684.748	0.0148697
684.826	0.0150000
684.905	0.0149413
684.983	0.0150620
685.061	0.0150164
685.139	0.0149570
685.217	0.0150989
685.295	0.0151907
685.373	0.0151871
685.451	0.0151647
685.530	0.0152186
685.608	0.0151689
685.686	0.0151265
685.764	0.0152920
685.842	0.0152703
685.920	0.0150871
685.998	0.0151431
686.076	0.0152035
686.155	0.0151775
686.233	0.0152012
686.311	0.0150440
686.389	0.0152380
686.467	0.0151897
686.545	0.0153127
686.623	0.0151344
686.701	0.0151472
686.780	0.0151067
686.858	0.0151426
686.936	0.0149763
687.014	0.0149471
687.092	0.0148648
687.170	0.0147704
687.248	0.0146612
687.326	0.0144970
687.405	0.0146093
687.483	0.0144652
687.561	0.0144055
687.639	0.0144254
687.717	0.0143527
687.795	0.0144660
687.873	0.0145444
687.951	0.0146229
688.030	0.0145648
688.108	0.0147861
688.186	0.0148339
688.264	0.0148544
688.342	0.0148853
688.420	0.0148387
688.498	0.0149380
688.576	0.0148779
688.655	0.0149551
688.733	0.0148189
688.811	0.0149930
688.889	0.0149819
688.967	0.0149901
689.045	0.0148445
689.123	0.0146940
689.201	0.0149160
689.280	0.0147707
689.358	0.0147202
689.436	0.0147731
689.514	0.0147606
689.592	0.0145782
689.670	0.0145216
689.748	0.0145284
689.826	0.0145822
689.905	0.0144472
689.983	0.0141633
690.061	0.0143213
690.139	0.0142947
690.217	0.0140860
690.295	0.0141483
690.373	0.0139828
690.451	0.0141301
690.530	0.0140590
690.608	0.0140903
690.686	0.0142144
690.764	0.0141273
690.842	0.0142952
690.920	0.0143671
690.998	0.0143792
691.076	0.0145079
691.155	0.0145734
691.233	0.0147567
691.311	0.0146957
691.389	0.0148676
691.467	0.0150218
691.545	0.0150692
691.623	0.0152177
691.701	0.0151938
691.780	0.0153278
691.858	0.0154539
691.936	0.0155451
692.014	0.0155675
692.092	0.0156923
692.170	0.0156110
692.248	0.0156803
692.326	0.0156882
692.405	0.0157523
692.483	0.0157098
692.561	0.0157795
692.639	0.0156047
692.717	0.0156685
692.795	0.0156773
692.873	0.0155292
692.951	0.0155030
693.030	0.0153201
693.108	0.0152159
693.186	0.0151227
693.264	0.0149154
693.342	0.0148082
693.420	0.0147248
693.498	0.0145571
693.576	0.0144038
693.655	0.0143965
693.733	0.0142667
693.811	0.0140814
693.889	0.0140364
693.967	0.0140160
694.045	0.0141038
694.123	0.0140447
694.201	0.0139341
694.280	0.0139554
694.358	0.0138597
694.436	0.0139520
694.514	0.0138595
694.592	0.0140588
694.670	0.0141425
694.748	0.0140721
694.826	0.0140434
694.905	0.0139507
694.983	0.0141909
695.061	0.0142467
695.139	0.0141557
695.217	0.0143274
695.295	0.0142914
695.373	0.0143765
695.451	0.0144032
695.530	0.0143941
695.608	0.0143102
695.686	0.0145477
695.764	0.0146822
695.842	0.0146749
695.920	0.0149010
695.998	0.0148112
696.076	0.0148753
696.155	0.0151285
696.233	0.0151215
696.311	0.0150921
696.389	0.0151788
696.467	0.0153742
696.545	0.0152097
696.623	0.0152415
696.701	0.0153860
696.780	0.0153783
696.858	0.0154311
696.936	0.0154724
697.014	0.0153121
697.092	0.0153266
697.170	0.0154393
697.248	0.0155266
697.326	0.0154856
697.405	0.0154794
697.483	0.0155027
697.561	0.0154846
697.639	0.0154038
697.717	0.0154009
697.795	0.0155553
697.873	0.0153509
697.951	0.0154317
698.030	0.0154453
698.108	0.0155090
698.186	0.0154133
698.264	0.0152883
698.342	0.0151842
698.420	0.0150989
698.498	0.0150042
698.576	0.0149219
698.655	0.0146656
698.733	0.0145894
698.811	0.0145425
698.889	0.0144402
698.967	0.0143201
699.045	0.0143324
699.123	0.0143436
699.201	0.0141503
699.280	0.0142748
699.358	0.0141928
699.436	0.0140748
699.514	0.0140453
699.592	0.0140123
699.670	0.0140798
699.748	0.0141123
699.826	0.0140707
699.905	0.0142944
699.983	0.0142612
700.061	0.0142974
700.139	0.0143458
700.217	0.0144001
700.295	0.0145577
700.373	0.0145444
700.451	0.0146540
700.530	0.0147246
700.608	0.0147204
700.686	0.0147757
700.764	0.0150001
700.842	0.0148930
700.920	0.0149278
700.998	0.0150064
701.076	0.0149088
701.155	0.0148265
701.233	0.0149352
701.311	0.0150876
701.389	0.0148669
701.467	0.0149926
701.545	0.0150394
701.623	0.0151270
701.701	0.0150214
701.780	0.0150297
701.858	0.0151006
701.936	0.0150606
702.014	0.0151217
702.092	0.0149728
702.170	0.0150210
702.248	0.0152551
702.326	0.0150903
702.405	0.0151772
702.483	0.0151714
702.561	0.0153015
702.639	0.0152237
702.717	0.0152997
702.795	0.0153323
702.873	0.0152874
702.951	0.0153647
703.030	0.0154764
703.108	0.0154002
703.186	0.0153948
703.264	0.0154813
703.342	0.0154752
703.420	0.0154218
703.498	0.0152392
703.576	0.0152463
703.655	0.0153094
703.733	0.0150266
703.811	0.0149341
703.889	0.0146219
703.967	0.0146028
704.045	0.0145180
704.123	0.0143675
704.201	0.0143699
704.280	0.0141010
704.358	0.0140343
704.436	0.0141204
704.514	0.0140997
704.592	0.0139988
704.670	0.0139463
704.748	0.0138214
704.826	0.0139098
704.905	0.0139953
704.983	0.0140627
705.061	0.0140877
705.139	0.0140639
705.217	0.0141657
705.295	0.0140923
705.373	0.0141589
705.451	0.0142869
705.530	0.0144236
705.608	0.0144514
705.686	0.0144820
705.764	0.0145973
705.842	0.0145316
705.920	0.0145391
705.998	0.0145496
706.076	0.0147614
706.155	0.0148569
706.233	0.0149094
706.311	0.0150108
706.389	0.0150440
706.467	0.0150005
706.545	0.0151630
706.623	0.0149951
706.701	0.0150227
706.780	0.0151328
706.858	0.0150355
706.936	0.0148165
707.014	0.0148283
707.092	0.0149939
707.170	0.0148533
707.248	0.0147766
707.326	0.0147731
707.405	0.0147637
707.483	0.0147106
707.561	0.0147723
707.639	0.0148476
707.717	0.0146628
707.795	0.0147482
707.873	0.0148532
707.951	0.0147854
708.030	0.0146848
708.108	0.0147366
708.186	0.0146906
708.264	0.0150124
708.342	0.0148700
708.420	0.0148519
708.498	0.0147926
708.576	0.0148990
708.655	0.0149397
708.733	0.0147804
708.811	0.0149837
708.889	0.0151154
708.967	0.0150063
709.045	0.0150602
709.123	0.0151746
709.201	0.0151176
709.280	0.0150375
709.358	0.0151829
709.436	0.0148167
709.514	0.0150703
709.592	0.0150145
709.670	0.0150893
709.748	0.0151404
709.826	0.0148733
709.905	0.0149646
709.983	0.0150838
710.061	0.0149213
710.139	0.0149555
710.217	0.0148585
710.295	0.0148666
710.373	0.0148698
710.451	0.0147363
710.530	0.0147389
710.608	0.0147504
710.686	0.0146060
710.764	0.0145656
710.842	0.0146004
710.920	0.0146645
710.998	0.0145981
711.076	0.0145578
711.155	0.0146414
711.233	0.0145118
711.311	0.0145099
711.389	0.0145892
711.467	0.0146497
711.545	0.0145581
711.623	0.0143647
711.701	0.0144740
711.780	0.0144685
711.858	0.0144625
711.936	0.0145329
712.014	0.0145406
712.092	0.0144625
712.170	0.0145800
712.248	0.0145967
712.326	0.0146268
712.405	0.0146147
712.483	0.0146155
712.561	0.0146628
712.639	0.0149041
712.717	0.0148479
712.795	0.0149891
712.873	0.0148951
712.951	0.0151321
713.030	0.0152730
713.108	0.0152724
713.186	0.0153825
713.264	0.0153243
713.342	0.0153691
713.420	0.0153829
713.498	0.0154089
713.576	0.0155307
713.655	0.0155180
713.733	0.0156405
713.811	0.0154896
713.889	0.0154429
713.967	0.0154038
714.045	0.0153777
714.123	0.0152047
714.201	0.0151231
714.280	0.0150471
714.358	0.0149385
714.436	0.0149011
714.514	0.0147575
714.592	0.0145669
714.670	0.0144618
714.748	0.0144810
714.826	0.0145267
714.905	0.0143365
714.983	0.0144999
715.061	0.0144764
715.139	0.0144307
715.217	0.0143587
715.295	0.0145432
715.373	0.0144501
715.451	0.0142281
715.530	0.0143359
715.608	0.0144312
715.686	0.0143266
715.764	0.0143243
715.842	0.0143707
715.920	0.0142714
715.998	0.0144035
716.076	0.0145444
716.155	0.0144645
716.233	0.0145100
716.311	0.0143511
716.389	0.0145347
716.467	0.0144958
716.545	0.0146071
716.623	0.0145876
716.701	0.0146211
716.780	0.0145610
716.858	0.0146555
716.936	0.0146588
717.014	0.0145300
717.092	0.0145015
717.170	0.0147239
717.248	0.0146191
717.326	0.0145282
717.405	0.0146560
717.483	0.0144536
717.561	0.0143835
717.639	0.0143699
717.717	0.0144446
717.795	0.0146210
717.873	0.0145760
717.951	0.0145082
718.030	0.0144641
718.108	0.0146108
718.186	0.0146800
718.264	0.0146785
718.342	0.0147461
718.420	0.0147164
718.498	0.0147832
718.576	0.0149095
718.655	0.0149683
718.733	0.0150637
718.811	0.0149097
718.889	0.0149405
718.967	0.0149473
719.045	0.0151884
719.123	0.0153125
719.201	0.0152042
719.280	0.0156068
719.358	0.0153921
719.436	0.0153891
719.514	0.0154684
719.592	0.0155479
719.670	0.0155767
719.748	0.0156415
719.826	0.0155870
719.905	0.0155236
719.983	0.0155952
720.061	0.0155737
720.139	0.0154519
720.217	0.0154318
720.295	0.0152841
720.373	0.0151316
720.451	0.0151978
720.530	0.0149870
720.608	0.0149938
720.686	0.0148911
720.764	0.0147255
720.842	0.0145226
720.920	0.0144905
720.998	0.0144293
721.076	0.0142989
721.155	0.0142783
721.233	0.0141257
721.311	0.0140510
721.389	0.0138294
721.467	0.0137968
721.545	0.0139442
721.623	0.0137770
721.701	0.0136928
721.780	0.0139439
721.858	0.0138878
721.936	0.0138351
722.014	0.0138140
722.092	0.0138436
722.170	0.0139596
722.248	0.0141274
722.326	0.0140302
722.405	0.0141196
722.483	0.0143054
722.561	0.0143561
722.639	0.0145127
722.717	0.0146599
722.795	0.0147834
722.873	0.0146767
722.951	0.0148911
723.030	0.0150668
723.108	0.0151653
723.186	0.0152607
723.264	0.0154540
723.342	0.0154842
723.420	0.0155175
723.498	0.0155723
723.576	0.0155303
723.655	0.0154846
723.733	0.0155573
723.811	0.0156716
723.889	0.0154218
723.967	0.0154077
724.045	0.0153229
724.123	0.0153534
724.201	0.0151610
724.280	0.0150220
724.358	0.0150927
724.436	0.0149084
724.514	0.0147971
724.592	0.0146745
724.670	0.0144671
724.748	0.0143933
724.826	0.0142585
724.905	0.0141965
724.983	0.0140015
725.061	0.0139164
725.139	0.0139777
725.217	0.0138727
725.295	0.0136321
725.373	0.0138586
725.451	0.0139516
725.530	0.0139819
725.608	0.0140652
725.686	0.0141560
