05/20/2022	17:15:35	Ver.	4.1	UNKNOWN
Optical Delay	639.982744	Delta X		0.078125	Sweeps	1	Scan Rate	0/0
Coordinates	Axis 1	NaN	Axis 2	NaN	Axis 3	NaN	Axis 4	NaN	Axis 5	NaN	Axis 6	0.000000
TX Power	0.000000	RX Power	0.000000

639.983	0.0147969
640.061	0.0147711
640.139	0.0148674
640.217	0.0148740
640.295	0.0147429
640.373	0.0147160
640.451	0.0147300
640.530	0.0147220
640.608	0.0146918
640.686	0.0147139
640.764	0.0147810
640.842	0.0148172
640.920	0.0149859
640.998	0.0147051
641.076	0.0148247
641.155	0.0148501
641.233	0.0149405
641.311	0.0148102
641.389	0.0149112
641.467	0.0148774
641.545	0.0149279
641.623	0.0149154
641.701	0.0148994
641.780	0.0148518
641.858	0.0148811
641.936	0.0148663
642.014	0.0147192
642.092	0.0148156
642.170	0.0148718
642.248	0.0147761
642.326	0.0148930
642.405	0.0147810
642.483	0.0147744
642.561	0.0146514
642.639	0.0147049
642.717	0.0147511
642.795	0.0146677
642.873	0.0146613
642.951	0.0147466
643.030	0.0148930
643.108	0.0148108
643.186	0.0146173
643.264	0.0148302
643.342	0.0147128
643.420	0.0147484
643.498	0.0147823
643.576	0.0148072
643.655	0.0147052
643.733	0.0148080
643.811	0.0147431
643.889	0.0147479
643.967	0.0147871
644.045	0.0147836
644.123	0.0147211
644.201	0.0149432
644.280	0.0148418
644.358	0.0147410
644.436	0.0148945
644.514	0.0148129
644.592	0.0148413
644.670	0.0147100
644.748	0.0147975
644.826	0.0148409
644.905	0.0147736
644.983	0.0148079
645.061	0.0147864
645.139	0.0148507
645.217	0.0147419
645.295	0.0148279
645.373	0.0148197
645.451	0.0150185
645.530	0.0148553
645.608	0.0148655
645.686	0.0148475
645.764	0.0148372
645.842	0.0148373
645.920	0.0149072
645.998	0.0147664
646.076	0.0147546
646.155	0.0147959
646.233	0.0148002
646.311	0.0150315
646.389	0.0148009
646.467	0.0148420
646.545	0.0148293
646.623	0.0147517
646.701	0.0148268
646.780	0.0148212
646.858	0.0148235
646.936	0.0146606
647.014	0.0147643
647.092	0.0147590
647.170	0.0147678
647.248	0.0147111
647.326	0.0145975
647.405	0.0147760
647.483	0.0148088
647.561	0.0147514
647.639	0.0147057
647.717	0.0148478
647.795	0.0147125
647.873	0.0147316
647.951	0.0146898
648.030	0.0147488
648.108	0.0148063
648.186	0.0148928
648.264	0.0148301
648.342	0.0149129
648.420	0.0148757
648.498	0.0149358
648.576	0.0148428
648.655	0.0148238
648.733	0.0148457
648.811	0.0148001
648.889	0.0147853
648.967	0.0149632
649.045	0.0149398
649.123	0.0148678
649.201	0.0148718
649.280	0.0147126
649.358	0.0148662
649.436	0.0147502
649.514	0.0147047
649.592	0.0147788
649.670	0.0147889
649.748	0.0145956
649.826	0.0147680
649.905	0.0146786
649.983	0.0147451
650.061	0.0147439
650.139	0.0147037
650.217	0.0146017
650.295	0.0145527
650.373	0.0146069
650.451	0.0146259
650.530	0.0145431
650.608	0.0146181
650.686	0.0146784
650.764	0.0143649
650.842	0.0144292
650.920	0.0145084
650.998	0.0146449
651.076	0.0146265
651.155	0.0145442
651.233	0.0145480
651.311	0.0145637
651.389	0.0145525
651.467	0.0146590
651.545	0.0146362
651.623	0.0146607
651.701	0.0147224
651.780	0.0146972
651.858	0.0146929
651.936	0.0148280
652.014	0.0146176
652.092	0.0148604
652.170	0.0149263
652.248	0.0148382
652.326	0.0146851
652.405	0.0148300
652.483	0.0148679
652.561	0.0147923
652.639	0.0147292
652.717	0.0146976
652.795	0.0146310
652.873	0.0145493
652.951	0.0144984
653.030	0.0145961
653.108	0.0144440
653.186	0.0143780
653.264	0.0142860
653.342	0.0144563
653.420	0.0145357
653.498	0.0145326
653.576	0.0144278
653.655	0.0145683
653.733	0.0145512
653.811	0.0146285
653.889	0.0146672
653.967	0.0146033
654.045	0.0146502
654.123	0.0147675
654.201	0.0148132
654.280	0.0147292
654.358	0.0149400
654.436	0.0147629
654.514	0.0147008
654.592	0.0147910
654.670	0.0147876
654.748	0.0148403
654.826	0.0147015
654.905	0.0149710
654.983	0.0148072
655.061	0.0148004
655.139	0.0148532
655.217	0.0146387
655.295	0.0146931
655.373	0.0148055
655.451	0.0146220
655.530	0.0146355
655.608	0.0148490
655.686	0.0146951
655.764	0.0146265
655.842	0.0146742
655.920	0.0147738
655.998	0.0146706
656.076	0.0147583
656.155	0.0149028
656.233	0.0147076
656.311	0.0147687
656.389	0.0148166
656.467	0.0148547
656.545	0.0148539
656.623	0.0147290
656.701	0.0147645
656.780	0.0148547
656.858	0.0150142
656.936	0.0150106
657.014	0.0150027
657.092	0.0150724
657.170	0.0150788
657.248	0.0149425
657.326	0.0149711
657.405	0.0149683
657.483	0.0150996
657.561	0.0151309
657.639	0.0150845
657.717	0.0149413
657.795	0.0149392
657.873	0.0148660
657.951	0.0149204
658.030	0.0147349
658.108	0.0149012
658.186	0.0147435
658.264	0.0146795
658.342	0.0147379
658.420	0.0146795
658.498	0.0146436
658.576	0.0147195
658.655	0.0146499
658.733	0.0145621
658.811	0.0147205
658.889	0.0147993
658.967	0.0148120
659.045	0.0148325
659.123	0.0148365
659.201	0.0148497
659.280	0.0148415
659.358	0.0148108
659.436	0.0149128
659.514	0.0149057
659.592	0.0149018
659.670	0.0149261
659.748	0.0149960
659.826	0.0149081
659.905	0.0148374
659.983	0.0149760
660.061	0.0148159
660.139	0.0148554
660.217	0.0149207
660.295	0.0148503
660.373	0.0148183
660.451	0.0147992
660.530	0.0147876
660.608	0.0146245
660.686	0.0146476
660.764	0.0146326
660.842	0.0145804
660.920	0.0145286
660.998	0.0145348
661.076	0.0146775
661.155	0.0144628
661.233	0.0146265
661.311	0.0144528
661.389	0.0145415
661.467	0.0146094
661.545	0.0146109
661.623	0.0144978
661.701	0.0145113
661.780	0.0146697
661.858	0.0147099
661.936	0.0145905
662.014	0.0147866
662.092	0.0148122
662.170	0.0148186
662.248	0.0148110
662.326	0.0148466
662.405	0.0149234
662.483	0.0149210
662.561	0.0149787
662.639	0.0149564
662.717	0.0148540
662.795	0.0148029
662.873	0.0149507
662.951	0.0148876
663.030	0.0148061
663.108	0.0148560
663.186	0.0149436
663.264	0.0149677
663.342	0.0149095
663.420	0.0149037
663.498	0.0150011
663.576	0.0150012
663.655	0.0150365
663.733	0.0148753
663.811	0.0150568
663.889	0.0151605
663.967	0.0150504
664.045	0.0150787
664.123	0.0150639
664.201	0.0151571
664.280	0.0151575
664.358	0.0151387
664.436	0.0150853
664.514	0.0149303
664.592	0.0149323
664.670	0.0150923
664.748	0.0150087
664.826	0.0149358
664.905	0.0149229
664.983	0.0147836
665.061	0.0148924
665.139	0.0150279
665.217	0.0148295
665.295	0.0145743
665.373	0.0146044
665.451	0.0145182
665.530	0.0144962
665.608	0.0145222
665.686	0.0143893
665.764	0.0143117
665.842	0.0143639
665.920	0.0143109
665.998	0.0142466
666.076	0.0141887
666.155	0.0142355
666.233	0.0142292
666.311	0.0142542
666.389	0.0141933
666.467	0.0142401
666.545	0.0143465
666.623	0.0144742
666.701	0.0144660
666.780	0.0144062
666.858	0.0145210
666.936	0.0145670
667.014	0.0146202
667.092	0.0147544
667.170	0.0150033
667.248	0.0149787
667.326	0.0149098
667.405	0.0150678
667.483	0.0152361
667.561	0.0152151
667.639	0.0152722
667.717	0.0154575
667.795	0.0154739
667.873	0.0154652
667.951	0.0156996
668.030	0.0155147
668.108	0.0155691
668.186	0.0154903
668.264	0.0154848
668.342	0.0153735
668.420	0.0153326
668.498	0.0153936
668.576	0.0153627
668.655	0.0153197
668.733	0.0151405
668.811	0.0151149
668.889	0.0150031
668.967	0.0151225
669.045	0.0150288
669.123	0.0151252
669.201	0.0151077
669.280	0.0149268
669.358	0.0148962
669.436	0.0148551
669.514	0.0146953
669.592	0.0147572
669.670	0.0146112
669.748	0.0144228
669.826	0.0144412
669.905	0.0144482
669.983	0.0142757
670.061	0.0143385
670.139	0.0143090
670.217	0.0142507
670.295	0.0142252
670.373	0.0141182
670.451	0.0141856
670.530	0.0140627
670.608	0.0140573
670.686	0.0141364
670.764	0.0141240
670.842	0.0141011
670.920	0.0139393
670.998	0.0140142
671.076	0.0140364
671.155	0.0139017
671.233	0.0140046
671.311	0.0140076
671.389	0.0140550
671.467	0.0140191
671.545	0.0140218
671.623	0.0140788
671.701	0.0141541
671.780	0.0142145
671.858	0.0142573
671.936	0.0143752
672.014	0.0145010
672.092	0.0148111
672.170	0.0146024
672.248	0.0146741
672.326	0.0146159
672.405	0.0148617
672.483	0.0150490
672.561	0.0149616
672.639	0.0151249
672.717	0.0151577
672.795	0.0151573
672.873	0.0152972
672.951	0.0154610
673.030	0.0154602
673.108	0.0154678
673.186	0.0155805
673.264	0.0156087
673.342	0.0157830
673.420	0.0157065
673.498	0.0156672
673.576	0.0158178
673.655	0.0158563
673.733	0.0158635
673.811	0.0157868
673.889	0.0157379
673.967	0.0158610
674.045	0.0157333
674.123	0.0156132
674.201	0.0155597
674.280	0.0156862
674.358	0.0152762
674.436	0.0151946
674.514	0.0149853
674.592	0.0150005
674.670	0.0149653
674.748	0.0147248
674.826	0.0146613
674.905	0.0144868
674.983	0.0144456
675.061	0.0141738
675.139	0.0141261
675.217	0.0138343
675.295	0.0137082
675.373	0.0137637
675.451	0.0135646
675.530	0.0135391
675.608	0.0134392
675.686	0.0134743
675.764	0.0133009
675.842	0.0134457
675.920	0.0135825
675.998	0.0135525
676.076	0.0135968
676.155	0.0136644
676.233	0.0137183
676.311	0.0138417
676.389	0.0139832
676.467	0.0140532
676.545	0.0142261
676.623	0.0145139
676.701	0.0146139
676.780	0.0148289
676.858	0.0148491
676.936	0.0152007
677.014	0.0152029
677.092	0.0152531
677.170	0.0154025
677.248	0.0155187
677.326	0.0156261
677.405	0.0156654
677.483	0.0157253
677.561	0.0156415
677.639	0.0156690
677.717	0.0157258
677.795	0.0156672
677.873	0.0155183
677.951	0.0155650
678.030	0.0154388
678.108	0.0154724
678.186	0.0153556
678.264	0.0152567
678.342	0.0153294
678.420	0.0152319
678.498	0.0151797
678.576	0.0150397
678.655	0.0152251
678.733	0.0150658
678.811	0.0148714
678.889	0.0149839
678.967	0.0149197
679.045	0.0147588
679.123	0.0147887
679.201	0.0146250
679.280	0.0145660
679.358	0.0145808
679.436	0.0145493
679.514	0.0145026
679.592	0.0143353
679.670	0.0143340
679.748	0.0142645
679.826	0.0143922
679.905	0.0143073
679.983	0.0143516
680.061	0.0143356
680.139	0.0142592
680.217	0.0144970
680.295	0.0144595
680.373	0.0143587
680.451	0.0145288
680.530	0.0143906
680.608	0.0144745
680.686	0.0143777
680.764	0.0145912
680.842	0.0143989
680.920	0.0143948
680.998	0.0145082
681.076	0.0145721
681.155	0.0145935
681.233	0.0144933
681.311	0.0145444
681.389	0.0145886
681.467	0.0144627
681.545	0.0145395
681.623	0.0146761
681.701	0.0145892
681.780	0.0146816
681.858	0.0147391
681.936	0.0146938
682.014	0.0146658
682.092	0.0147978
682.170	0.0146745
682.248	0.0147855
682.326	0.0147408
682.405	0.0147726
682.483	0.0147996
682.561	0.0146504
682.639	0.0148780
682.717	0.0147581
682.795	0.0147585
682.873	0.0146189
682.951	0.0148018
683.030	0.0146449
683.108	0.0144824
683.186	0.0146443
683.264	0.0146490
683.342	0.0146246
683.420	0.0146471
683.498	0.0146020
683.576	0.0147802
683.655	0.0147298
683.733	0.0146448
683.811	0.0147561
683.889	0.0147810
683.967	0.0148961
684.045	0.0149869
684.123	0.0149244
684.201	0.0150884
684.280	0.0152121
684.358	0.0152795
684.436	0.0150919
684.514	0.0152164
684.592	0.0151498
684.670	0.0153365
684.748	0.0151959
684.826	0.0152139
684.905	0.0153221
684.983	0.0152200
685.061	0.0153064
685.139	0.0151482
685.217	0.0151728
685.295	0.0152274
685.373	0.0151487
685.451	0.0150926
685.530	0.0150468
685.608	0.0149563
685.686	0.0149007
685.764	0.0147915
685.842	0.0145975
685.920	0.0146000
685.998	0.0146177
686.076	0.0145556
686.155	0.0145532
686.233	0.0145569
686.311	0.0144354
686.389	0.0145565
686.467	0.0144658
686.545	0.0144369
686.623	0.0144792
686.701	0.0144727
686.780	0.0144376
686.858	0.0143364
686.936	0.0144159
687.014	0.0144962
687.092	0.0144347
687.170	0.0143320
687.248	0.0144102
687.326	0.0144859
687.405	0.0144137
687.483	0.0144764
687.561	0.0145125
687.639	0.0144123
687.717	0.0145148
687.795	0.0146299
687.873	0.0145414
687.951	0.0146285
688.030	0.0145137
688.108	0.0144765
688.186	0.0146005
688.264	0.0146979
688.342	0.0148014
688.420	0.0145683
688.498	0.0147603
688.576	0.0149779
688.655	0.0148312
688.733	0.0149689
688.811	0.0147976
688.889	0.0148792
688.967	0.0148274
689.045	0.0147697
689.123	0.0149995
689.201	0.0151367
689.280	0.0151089
689.358	0.0149767
689.436	0.0149690
689.514	0.0149640
689.592	0.0149582
689.670	0.0148129
689.748	0.0149006
689.826	0.0149552
689.905	0.0149601
689.983	0.0148444
690.061	0.0146567
690.139	0.0146870
690.217	0.0148405
690.295	0.0148046
690.373	0.0148846
690.451	0.0147791
690.530	0.0148733
690.608	0.0149085
690.686	0.0149620
690.764	0.0149530
690.842	0.0149194
690.920	0.0150833
690.998	0.0151941
691.076	0.0152258
691.155	0.0150826
691.233	0.0151565
691.311	0.0152411
691.389	0.0151671
691.467	0.0151417
691.545	0.0151816
691.623	0.0151012
691.701	0.0149971
691.780	0.0149532
691.858	0.0149483
691.936	0.0149469
692.014	0.0149963
692.092	0.0149967
692.170	0.0149919
692.248	0.0148101
692.326	0.0148981
692.405	0.0148719
692.483	0.0147630
692.561	0.0148213
692.639	0.0150196
692.717	0.0149471
692.795	0.0148167
692.873	0.0148110
692.951	0.0145986
693.030	0.0145183
693.108	0.0146252
693.186	0.0144100
693.264	0.0143693
693.342	0.0143703
693.420	0.0143496
693.498	0.0143316
693.576	0.0142081
693.655	0.0140363
693.733	0.0140707
693.811	0.0140452
693.889	0.0141805
693.967	0.0141053
694.045	0.0138857
694.123	0.0140575
694.201	0.0140649
694.280	0.0140129
694.358	0.0140168
694.436	0.0140232
694.514	0.0140720
694.592	0.0141811
694.670	0.0142352
694.748	0.0144718
694.826	0.0143025
694.905	0.0143171
694.983	0.0145103
695.061	0.0144868
695.139	0.0146187
695.217	0.0146357
695.295	0.0145946
695.373	0.0147564
695.451	0.0147411
695.530	0.0146794
695.608	0.0147159
695.686	0.0150084
695.764	0.0149495
695.842	0.0150302
695.920	0.0150738
695.998	0.0150138
696.076	0.0150401
696.155	0.0150301
696.233	0.0151516
696.311	0.0151156
696.389	0.0150224
696.467	0.0152109
696.545	0.0153286
696.623	0.0152767
696.701	0.0153477
696.780	0.0153843
696.858	0.0154010
696.936	0.0153094
697.014	0.0153838
697.092	0.0155364
697.170	0.0155936
697.248	0.0157141
697.326	0.0154501
697.405	0.0155188
697.483	0.0153723
697.561	0.0154695
697.639	0.0154781
697.717	0.0154108
697.795	0.0153369
697.873	0.0151516
697.951	0.0151631
698.030	0.0151051
698.108	0.0148586
698.186	0.0147715
698.264	0.0146162
698.342	0.0146174
698.420	0.0144018
698.498	0.0142348
698.576	0.0143192
698.655	0.0140472
698.733	0.0138910
698.811	0.0139113
698.889	0.0137556
698.967	0.0136928
699.045	0.0138477
699.123	0.0136759
699.201	0.0137270
699.280	0.0137872
699.358	0.0137929
699.436	0.0138818
699.514	0.0139486
699.592	0.0141187
699.670	0.0140580
699.748	0.0143480
699.826	0.0144791
699.905	0.0144467
699.983	0.0145612
700.061	0.0146004
700.139	0.0148033
700.217	0.0149371
700.295	0.0149105
700.373	0.0148969
700.451	0.0149955
700.530	0.0151303
700.608	0.0150313
700.686	0.0150657
700.764	0.0151229
700.842	0.0151144
700.920	0.0152392
700.998	0.0152526
701.076	0.0152554
701.155	0.0152494
701.233	0.0152277
701.311	0.0151870
701.389	0.0151431
701.467	0.0150483
701.545	0.0151988
701.623	0.0152046
701.701	0.0151180
701.780	0.0151752
701.858	0.0151968
701.936	0.0152619
702.014	0.0150499
702.092	0.0150490
702.170	0.0149922
702.248	0.0150429
702.326	0.0150979
702.405	0.0147760
702.483	0.0148124
702.561	0.0148544
702.639	0.0147982
702.717	0.0147901
702.795	0.0147983
702.873	0.0145699
702.951	0.0145992
703.030	0.0147811
703.108	0.0147324
703.186	0.0147643
703.264	0.0147954
703.342	0.0146922
703.420	0.0146266
703.498	0.0147973
703.576	0.0146153
703.655	0.0145042
703.733	0.0145647
703.811	0.0144534
703.889	0.0144852
703.967	0.0144715
704.045	0.0142901
704.123	0.0141158
704.201	0.0141456
704.280	0.0142175
704.358	0.0139380
704.436	0.0139410
704.514	0.0140636
704.592	0.0140154
704.670	0.0140108
704.748	0.0139989
704.826	0.0140362
704.905	0.0142129
704.983	0.0141590
705.061	0.0141787
705.139	0.0140423
705.217	0.0143246
705.295	0.0144136
705.373	0.0144302
705.451	0.0144030
705.530	0.0144787
705.608	0.0146426
705.686	0.0147424
705.764	0.0147596
705.842	0.0148479
705.920	0.0149605
705.998	0.0150700
706.076	0.0150766
706.155	0.0150425
706.233	0.0151289
706.311	0.0151643
706.389	0.0153159
706.467	0.0153079
706.545	0.0153819
706.623	0.0154105
706.701	0.0151749
706.780	0.0152562
706.858	0.0151406
706.936	0.0151060
707.014	0.0150658
707.092	0.0149074
707.170	0.0149911
707.248	0.0149319
707.326	0.0148599
707.405	0.0146149
707.483	0.0146298
707.561	0.0147309
707.639	0.0146320
707.717	0.0145594
707.795	0.0146512
707.873	0.0145941
707.951	0.0145902
708.030	0.0145861
708.108	0.0145983
708.186	0.0144815
708.264	0.0145710
708.342	0.0147318
708.420	0.0145329
708.498	0.0146961
708.576	0.0147174
708.655	0.0146855
708.733	0.0146046
708.811	0.0147678
708.889	0.0147880
708.967	0.0147913
709.045	0.0148106
709.123	0.0149921
709.201	0.0148954
709.280	0.0149062
709.358	0.0148708
709.436	0.0150593
709.514	0.0149189
709.592	0.0149557
709.670	0.0149413
709.748	0.0149689
709.826	0.0148288
709.905	0.0148261
709.983	0.0149538
710.061	0.0146780
710.139	0.0146586
710.217	0.0145518
710.295	0.0144626
710.373	0.0145954
710.451	0.0144917
710.530	0.0142490
710.608	0.0144174
710.686	0.0143893
710.764	0.0142314
710.842	0.0142417
710.920	0.0143401
710.998	0.0145237
711.076	0.0143517
711.155	0.0144427
711.233	0.0143211
711.311	0.0142993
711.389	0.0143920
711.467	0.0146036
711.545	0.0144904
711.623	0.0143527
711.701	0.0144440
711.780	0.0145374
711.858	0.0146273
711.936	0.0146639
712.014	0.0146449
712.092	0.0148043
712.170	0.0147939
712.248	0.0148055
712.326	0.0148999
712.405	0.0150584
712.483	0.0147762
712.561	0.0148383
712.639	0.0149299
712.717	0.0148109
712.795	0.0147704
712.873	0.0149056
712.951	0.0147763
713.030	0.0147637
713.108	0.0147897
713.186	0.0148569
713.264	0.0148235
713.342	0.0148833
713.420	0.0150645
713.498	0.0148763
713.576	0.0150613
713.655	0.0151295
713.733	0.0149116
713.811	0.0150233
713.889	0.0148740
713.967	0.0150476
714.045	0.0150749
714.123	0.0150212
714.201	0.0149396
714.280	0.0150094
714.358	0.0150481
714.436	0.0147692
714.514	0.0149728
714.592	0.0149014
714.670	0.0148099
714.748	0.0148226
714.826	0.0147536
714.905	0.0148151
714.983	0.0147464
715.061	0.0145863
715.139	0.0146748
715.217	0.0145516
715.295	0.0147613
715.373	0.0147039
715.451	0.0146428
715.530	0.0148500
715.608	0.0146028
715.686	0.0145367
715.764	0.0147250
715.842	0.0145544
715.920	0.0145291
715.998	0.0145592
716.076	0.0145691
716.155	0.0145217
716.233	0.0143335
716.311	0.0142916
716.389	0.0143035
716.467	0.0143894
716.545	0.0144559
716.623	0.0145015
716.701	0.0146140
716.780	0.0144458
716.858	0.0145374
716.936	0.0146045
717.014	0.0146600
717.092	0.0148434
717.170	0.0148560
717.248	0.0147607
717.326	0.0149218
717.405	0.0148657
717.483	0.0151514
717.561	0.0149990
717.639	0.0150457
717.717	0.0151422
717.795	0.0152131
717.873	0.0151083
717.951	0.0152288
718.030	0.0150733
718.108	0.0151121
718.186	0.0151970
718.264	0.0152351
718.342	0.0152347
718.420	0.0151495
718.498	0.0152862
718.576	0.0151756
718.655	0.0152257
718.733	0.0152931
718.811	0.0152975
718.889	0.0152451
718.967	0.0152991
719.045	0.0153070
719.123	0.0152472
719.201	0.0153697
719.280	0.0152476
719.358	0.0152847
719.436	0.0152050
719.514	0.0151231
719.592	0.0150428
719.670	0.0150954
719.748	0.0150072
719.826	0.0150781
719.905	0.0149923
719.983	0.0148605
720.061	0.0147953
720.139	0.0148938
720.217	0.0148138
720.295	0.0146394
720.373	0.0146456
720.451	0.0146605
720.530	0.0146587
720.608	0.0144749
720.686	0.0144504
720.764	0.0144540
720.842	0.0144459
720.920	0.0144579
720.998	0.0143246
721.076	0.0143468
721.155	0.0143535
721.233	0.0142545
721.311	0.0140711
721.389	0.0142631
721.467	0.0143160
721.545	0.0141871
721.623	0.0142702
721.701	0.0142139
721.780	0.0141859
721.858	0.0143434
721.936	0.0142989
722.014	0.0142088
722.092	0.0143108
722.170	0.0142825
722.248	0.0143350
722.326	0.0143028
722.405	0.0143604
722.483	0.0144299
722.561	0.0145198
722.639	0.0145675
722.717	0.0146007
722.795	0.0146900
722.873	0.0147838
722.951	0.0146206
723.030	0.0147896
723.108	0.0148138
723.186	0.0149847
723.264	0.0149541
723.342	0.0149919
723.420	0.0150011
723.498	0.0151366
723.576	0.0150134
723.655	0.0150730
723.733	0.0150703
723.811	0.0151862
723.889	0.0150610
723.967	0.0149195
724.045	0.0149457
724.123	0.0148724
724.201	0.0150148
724.280	0.0148654
724.358	0.0148919
724.436	0.0148920
724.514	0.0148457
724.592	0.0148642
724.670	0.0147079
724.748	0.0147845
724.826	0.0149270
724.905	0.0149127
724.983	0.0149207
725.061	0.0147707
725.139	0.0148217
725.217	0.0147640
725.295	0.0147128
725.373	0.0148158
725.451	0.0147013
725.530	0.0146252
725.608	0.0148499
725.686	0.0146292
