05/20/2022	16:07:26	Ver.	4.1	UNKNOWN
Optical Delay	639.982744	Delta X		0.078125	Sweeps	1	Scan Rate	0/0
Coordinates	Axis 1	NaN	Axis 2	NaN	Axis 3	NaN	Axis 4	NaN	Axis 5	NaN	Axis 6	0.000000
TX Power	0.000000	RX Power	0.000000

639.983	0.0148922
640.061	0.0149731
640.139	0.0148803
640.217	0.0148466
640.295	0.0148544
640.373	0.0148611
640.451	0.0148416
640.530	0.0148819
640.608	0.0148338
640.686	0.0147770
640.764	0.0148587
640.842	0.0149722
640.920	0.0148794
640.998	0.0147498
641.076	0.0148589
641.155	0.0148602
641.233	0.0148542
641.311	0.0148289
641.389	0.0148867
641.467	0.0147920
641.545	0.0147905
641.623	0.0149071
641.701	0.0147579
641.780	0.0149339
641.858	0.0148959
641.936	0.0148561
642.014	0.0147533
642.092	0.0148081
642.170	0.0148213
642.248	0.0148682
642.326	0.0148522
642.405	0.0149395
642.483	0.0148419
642.561	0.0148750
642.639	0.0147611
642.717	0.0148367
642.795	0.0148386
642.873	0.0148176
642.951	0.0148813
643.030	0.0148582
643.108	0.0149110
643.186	0.0148270
643.264	0.0149016
643.342	0.0147822
643.420	0.0148055
643.498	0.0147961
643.576	0.0148535
643.655	0.0150442
643.733	0.0149239
643.811	0.0147768
643.889	0.0149673
643.967	0.0149210
644.045	0.0149242
644.123	0.0148853
644.201	0.0148737
644.280	0.0149567
644.358	0.0149861
644.436	0.0148379
644.514	0.0149488
644.592	0.0149482
644.670	0.0148310
644.748	0.0148020
644.826	0.0147157
644.905	0.0147987
644.983	0.0149541
645.061	0.0149123
645.139	0.0148885
645.217	0.0149836
645.295	0.0148751
645.373	0.0148594
645.451	0.0148439
645.530	0.0148802
645.608	0.0149709
645.686	0.0148763
645.764	0.0149413
645.842	0.0147750
645.920	0.0149176
645.998	0.0147987
646.076	0.0147925
646.155	0.0149734
646.233	0.0148901
646.311	0.0147879
646.389	0.0149107
646.467	0.0149641
646.545	0.0149361
646.623	0.0149445
646.701	0.0148640
646.780	0.0150661
646.858	0.0148576
646.936	0.0148679
647.014	0.0148749
647.092	0.0148529
647.170	0.0149033
647.248	0.0148488
647.326	0.0148740
647.405	0.0148038
647.483	0.0147850
647.561	0.0148391
647.639	0.0148718
647.717	0.0147995
647.795	0.0149127
647.873	0.0148782
647.951	0.0149027
648.030	0.0149009
648.108	0.0149627
648.186	0.0148788
648.264	0.0149345
648.342	0.0148660
648.420	0.0148815
648.498	0.0149010
648.576	0.0150006
648.655	0.0148221
648.733	0.0149347
648.811	0.0148575
648.889	0.0150027
648.967	0.0150132
649.045	0.0149174
649.123	0.0147617
649.201	0.0149294
649.280	0.0149815
649.358	0.0148106
649.436	0.0148940
649.514	0.0149902
649.592	0.0147954
649.670	0.0147650
649.748	0.0150146
649.826	0.0148638
649.905	0.0148744
649.983	0.0147411
650.061	0.0149148
650.139	0.0149680
650.217	0.0148403
650.295	0.0147997
650.373	0.0148962
650.451	0.0147870
650.530	0.0148430
650.608	0.0147739
650.686	0.0148151
650.764	0.0149281
650.842	0.0148962
650.920	0.0148598
650.998	0.0148570
651.076	0.0149289
651.155	0.0150237
651.233	0.0149061
651.311	0.0148030
651.389	0.0148438
651.467	0.0149374
651.545	0.0150061
651.623	0.0149532
651.701	0.0148454
651.780	0.0148915
651.858	0.0147484
651.936	0.0149254
652.014	0.0150354
652.092	0.0149152
652.170	0.0149343
652.248	0.0150541
652.326	0.0149355
652.405	0.0149414
652.483	0.0148984
652.561	0.0148860
652.639	0.0148242
652.717	0.0147224
652.795	0.0148283
652.873	0.0148885
652.951	0.0147653
653.030	0.0148184
653.108	0.0149488
653.186	0.0149138
653.264	0.0149010
653.342	0.0149146
653.420	0.0149322
653.498	0.0148393
653.576	0.0149721
653.655	0.0149274
653.733	0.0148573
653.811	0.0148669
653.889	0.0148740
653.967	0.0148647
654.045	0.0148496
654.123	0.0149326
654.201	0.0148249
654.280	0.0148766
654.358	0.0148478
654.436	0.0148789
654.514	0.0148744
654.592	0.0148698
654.670	0.0148730
654.748	0.0149632
654.826	0.0148884
654.905	0.0148847
654.983	0.0148743
655.061	0.0148854
655.139	0.0148840
655.217	0.0149478
655.295	0.0148183
655.373	0.0149111
655.451	0.0148777
655.530	0.0148281
655.608	0.0149485
655.686	0.0149864
655.764	0.0149390
655.842	0.0149341
655.920	0.0150157
655.998	0.0148867
656.076	0.0148315
656.155	0.0149023
656.233	0.0149015
656.311	0.0148829
656.389	0.0149178
656.467	0.0148474
656.545	0.0148907
656.623	0.0148690
656.701	0.0148990
656.780	0.0148998
656.858	0.0149527
656.936	0.0148949
657.014	0.0150040
657.092	0.0149008
657.170	0.0148421
657.248	0.0148577
657.326	0.0149184
657.405	0.0149374
657.483	0.0149603
657.561	0.0149767
657.639	0.0148164
657.717	0.0149166
657.795	0.0148681
657.873	0.0149043
657.951	0.0148887
658.030	0.0147569
658.108	0.0148327
658.186	0.0149364
658.264	0.0148428
658.342	0.0149531
658.420	0.0149646
658.498	0.0148371
658.576	0.0150003
658.655	0.0148482
658.733	0.0147832
658.811	0.0148783
658.889	0.0149188
658.967	0.0149142
659.045	0.0149621
659.123	0.0148775
659.201	0.0148118
659.280	0.0148880
659.358	0.0148735
659.436	0.0149059
659.514	0.0149078
659.592	0.0148711
659.670	0.0148348
659.748	0.0150521
659.826	0.0148940
659.905	0.0148650
659.983	0.0148759
660.061	0.0149183
660.139	0.0148845
660.217	0.0147676
660.295	0.0148968
660.373	0.0148308
660.451	0.0148801
660.530	0.0149404
660.608	0.0149878
660.686	0.0149807
660.764	0.0148597
660.842	0.0147198
660.920	0.0150637
660.998	0.0148947
661.076	0.0149598
661.155	0.0149017
661.233	0.0149440
661.311	0.0148553
661.389	0.0148485
661.467	0.0149805
661.545	0.0148782
661.623	0.0148463
661.701	0.0149957
661.780	0.0150368
661.858	0.0148305
661.936	0.0149005
662.014	0.0147663
662.092	0.0148391
662.170	0.0149467
662.248	0.0148768
662.326	0.0149306
662.405	0.0149368
662.483	0.0148785
662.561	0.0149304
662.639	0.0148780
662.717	0.0148037
662.795	0.0149287
662.873	0.0149689
662.951	0.0149168
663.030	0.0149270
663.108	0.0149294
663.186	0.0149148
663.264	0.0148729
663.342	0.0148916
663.420	0.0149350
663.498	0.0149055
663.576	0.0148820
663.655	0.0149902
663.733	0.0149226
663.811	0.0147335
663.889	0.0148022
663.967	0.0149254
664.045	0.0148724
664.123	0.0148524
664.201	0.0148526
664.280	0.0149010
664.358	0.0147897
664.436	0.0148664
664.514	0.0148222
664.592	0.0148583
664.670	0.0149329
664.748	0.0149644
664.826	0.0148755
664.905	0.0148322
664.983	0.0148118
665.061	0.0149390
665.139	0.0149335
665.217	0.0148829
665.295	0.0149223
665.373	0.0148511
665.451	0.0149645
665.530	0.0147097
665.608	0.0148277
665.686	0.0147523
665.764	0.0149272
665.842	0.0148713
665.920	0.0147946
665.998	0.0148572
666.076	0.0149591
666.155	0.0149060
666.233	0.0149451
666.311	0.0148571
666.389	0.0149376
666.467	0.0146714
666.545	0.0148888
666.623	0.0149616
666.701	0.0148482
666.780	0.0147298
666.858	0.0148365
666.936	0.0150110
667.014	0.0149601
667.092	0.0149397
667.170	0.0148559
667.248	0.0148229
667.326	0.0148634
667.405	0.0149305
667.483	0.0149663
667.561	0.0148183
667.639	0.0148326
667.717	0.0147124
667.795	0.0148236
667.873	0.0148636
667.951	0.0148341
668.030	0.0148679
668.108	0.0147456
668.186	0.0148401
668.264	0.0148901
668.342	0.0148643
668.420	0.0148772
668.498	0.0148225
668.576	0.0147816
668.655	0.0148804
668.733	0.0148460
668.811	0.0149467
668.889	0.0148208
668.967	0.0148732
669.045	0.0148953
669.123	0.0148808
669.201	0.0148225
669.280	0.0148371
669.358	0.0149062
669.436	0.0148611
669.514	0.0148153
669.592	0.0147019
669.670	0.0148689
669.748	0.0147691
669.826	0.0149397
669.905	0.0150056
669.983	0.0149602
670.061	0.0149747
670.139	0.0149482
670.217	0.0146725
670.295	0.0148737
670.373	0.0148561
670.451	0.0149525
670.530	0.0149696
670.608	0.0149029
670.686	0.0149049
670.764	0.0150995
670.842	0.0149088
670.920	0.0149392
670.998	0.0147233
671.076	0.0147977
671.155	0.0149715
671.233	0.0149207
671.311	0.0148016
671.389	0.0150348
671.467	0.0150327
671.545	0.0149275
671.623	0.0149315
671.701	0.0150336
671.780	0.0150688
671.858	0.0148272
671.936	0.0148544
672.014	0.0148467
672.092	0.0148992
672.170	0.0150067
672.248	0.0149475
672.326	0.0149029
672.405	0.0149100
672.483	0.0150050
672.561	0.0149103
672.639	0.0150517
672.717	0.0149731
672.795	0.0148646
672.873	0.0149203
672.951	0.0150380
673.030	0.0149134
673.108	0.0152133
673.186	0.0149990
673.264	0.0149852
673.342	0.0148804
673.420	0.0149859
673.498	0.0150553
673.576	0.0150401
673.655	0.0150576
673.733	0.0149960
673.811	0.0150144
673.889	0.0150059
673.967	0.0150086
674.045	0.0148961
674.123	0.0150359
674.201	0.0149184
674.280	0.0151103
674.358	0.0151616
674.436	0.0149385
674.514	0.0148864
674.592	0.0150850
674.670	0.0151030
674.748	0.0149854
674.826	0.0149160
674.905	0.0149927
674.983	0.0150196
675.061	0.0149250
675.139	0.0148887
675.217	0.0150723
675.295	0.0149357
675.373	0.0149811
675.451	0.0148392
675.530	0.0150489
675.608	0.0150150
675.686	0.0150343
675.764	0.0149184
675.842	0.0149682
675.920	0.0150245
675.998	0.0149167
676.076	0.0150110
676.155	0.0150163
676.233	0.0149931
676.311	0.0149294
676.389	0.0149812
676.467	0.0148959
676.545	0.0149922
676.623	0.0149022
676.701	0.0149669
676.780	0.0149654
676.858	0.0148633
676.936	0.0149123
677.014	0.0148322
677.092	0.0149831
677.170	0.0149432
677.248	0.0148151
677.326	0.0148985
677.405	0.0149379
677.483	0.0148233
677.561	0.0147802
677.639	0.0148786
677.717	0.0149541
677.795	0.0149338
677.873	0.0147126
677.951	0.0149278
678.030	0.0148499
678.108	0.0147696
678.186	0.0148521
678.264	0.0148077
678.342	0.0149052
678.420	0.0148211
678.498	0.0148331
678.576	0.0149437
678.655	0.0149158
678.733	0.0147897
678.811	0.0148779
678.889	0.0147264
678.967	0.0147839
679.045	0.0149656
679.123	0.0147979
679.201	0.0147417
679.280	0.0148795
679.358	0.0148878
679.436	0.0148417
679.514	0.0146972
679.592	0.0148702
679.670	0.0148634
679.748	0.0148687
679.826	0.0146825
679.905	0.0148248
679.983	0.0147932
680.061	0.0147706
680.139	0.0148196
680.217	0.0148717
680.295	0.0147672
680.373	0.0148376
680.451	0.0148000
680.530	0.0148765
680.608	0.0148454
680.686	0.0148257
680.764	0.0147179
680.842	0.0147695
680.920	0.0147818
680.998	0.0147303
681.076	0.0148412
681.155	0.0147960
681.233	0.0147174
681.311	0.0147395
681.389	0.0146053
681.467	0.0148331
681.545	0.0148800
681.623	0.0147861
681.701	0.0147379
681.780	0.0147716
681.858	0.0148353
681.936	0.0149945
682.014	0.0148238
682.092	0.0147791
682.170	0.0148786
682.248	0.0148164
682.326	0.0149452
682.405	0.0148605
682.483	0.0148134
682.561	0.0148923
682.639	0.0150263
682.717	0.0147631
682.795	0.0148044
682.873	0.0148302
682.951	0.0147829
683.030	0.0148251
683.108	0.0148258
683.186	0.0148432
683.264	0.0148707
683.342	0.0148835
683.420	0.0147895
683.498	0.0147594
683.576	0.0148388
683.655	0.0149607
683.733	0.0149102
683.811	0.0147773
683.889	0.0148362
683.967	0.0148626
684.045	0.0148080
684.123	0.0148355
684.201	0.0148255
684.280	0.0149978
684.358	0.0149883
684.436	0.0149593
684.514	0.0149211
684.592	0.0149132
684.670	0.0147221
684.748	0.0149988
684.826	0.0149728
684.905	0.0149343
684.983	0.0147740
685.061	0.0150164
685.139	0.0149889
685.217	0.0150117
685.295	0.0149854
685.373	0.0148354
685.451	0.0148675
685.530	0.0150144
685.608	0.0149409
685.686	0.0149539
685.764	0.0149552
685.842	0.0148523
685.920	0.0149723
685.998	0.0148874
686.076	0.0149905
686.155	0.0149327
686.233	0.0147305
686.311	0.0148967
686.389	0.0147453
686.467	0.0147910
686.545	0.0148969
686.623	0.0150603
686.701	0.0147417
686.780	0.0148587
686.858	0.0149083
686.936	0.0148736
687.014	0.0147645
687.092	0.0149288
687.170	0.0149369
687.248	0.0148324
687.326	0.0149113
687.405	0.0149512
687.483	0.0149506
687.561	0.0149741
687.639	0.0149879
687.717	0.0148660
687.795	0.0148266
687.873	0.0149175
687.951	0.0147952
688.030	0.0145808
688.108	0.0145850
688.186	0.0146579
688.264	0.0145387
688.342	0.0144872
688.420	0.0144874
688.498	0.0145329
688.576	0.0146645
688.655	0.0148972
688.733	0.0149343
688.811	0.0151144
688.889	0.0154250
688.967	0.0158670
689.045	0.0159929
689.123	0.0162623
689.201	0.0163671
689.280	0.0164544
689.358	0.0162714
689.436	0.0159688
689.514	0.0156637
689.592	0.0153114
689.670	0.0148366
689.748	0.0142297
689.826	0.0136680
689.905	0.0131250
689.983	0.0123927
690.061	0.0121317
690.139	0.0117505
690.217	0.0116505
690.295	0.0117624
690.373	0.0120259
690.451	0.0123510
690.530	0.0129138
690.608	0.0138342
690.686	0.0146709
690.764	0.0157671
690.842	0.0166744
690.920	0.0176566
690.998	0.0185324
691.076	0.0191584
691.155	0.0198394
691.233	0.0202632
691.311	0.0203697
691.389	0.0200896
691.467	0.0196414
691.545	0.0190218
691.623	0.0184056
691.701	0.0173464
691.780	0.0163922
691.858	0.0152528
691.936	0.0140445
692.014	0.0129774
692.092	0.0118037
692.170	0.0107568
692.248	0.00979401
692.326	0.00894295
692.405	0.00809929
692.483	0.00741814
692.561	0.00714462
692.639	0.00698654
692.717	0.00699814
692.795	0.00731018
692.873	0.00807434
692.951	0.00910072
693.030	0.0103316
693.108	0.0119698
693.186	0.0135506
693.264	0.0155214
693.342	0.0175834
693.420	0.0195843
693.498	0.0214462
693.576	0.0232533
693.655	0.0246993
693.733	0.0257318
693.811	0.0263328
693.889	0.0265235
693.967	0.0261384
694.045	0.0255565
694.123	0.0246816
694.201	0.0232207
694.280	0.0216100
694.358	0.0199113
694.436	0.0180974
694.514	0.0162883
694.592	0.0143095
694.670	0.0125292
694.748	0.0106974
694.826	0.00906296
694.905	0.00748047
694.983	0.00627922
695.061	0.00496315
695.139	0.00430267
695.217	0.00350296
695.295	0.00307755
695.373	0.00291725
695.451	0.00302483
695.530	0.00330269
695.608	0.00390556
695.686	0.00482445
695.764	0.00609695
695.842	0.00767891
695.920	0.00957870
695.998	0.0115990
696.076	0.0136107
696.155	0.0157801
696.233	0.0180375
696.311	0.0203313
696.389	0.0222792
696.467	0.0244093
696.545	0.0261315
696.623	0.0276015
696.701	0.0288765
696.780	0.0296532
696.858	0.0299361
696.936	0.0297462
697.014	0.0290726
697.092	0.0280318
697.170	0.0266567
697.248	0.0248600
697.326	0.0227058
697.405	0.0203295
697.483	0.0180301
697.561	0.0157526
697.639	0.0130040
697.717	0.0105865
697.795	0.00845001
697.873	0.00661804
697.951	0.00518593
698.030	0.00417656
698.108	0.00336548
698.186	0.00290176
698.264	0.00306824
698.342	0.00330872
698.420	0.00386505
698.498	0.00470848
698.576	0.00578560
698.655	0.00691887
698.733	0.00794098
698.811	0.00913933
698.889	0.0104159
698.967	0.0117382
699.045	0.0128819
699.123	0.0139297
699.201	0.0150344
699.280	0.0162526
699.358	0.0174435
699.436	0.0183276
699.514	0.0191794
699.592	0.0199188
699.670	0.0207377
699.748	0.0214934
699.826	0.0217911
699.905	0.0221645
699.983	0.0224406
700.061	0.0223154
700.139	0.0220752
700.217	0.0218538
700.295	0.0213058
700.373	0.0208636
700.451	0.0200726
700.530	0.0192503
700.608	0.0184464
700.686	0.0174168
700.764	0.0162919
700.842	0.0154552
700.920	0.0144772
700.998	0.0135737
701.076	0.0128415
701.155	0.0122692
701.233	0.0116057
701.311	0.0113116
701.389	0.0111448
701.467	0.0110207
701.545	0.0110218
701.623	0.0112643
701.701	0.0115218
701.780	0.0119318
701.858	0.0122821
701.936	0.0126843
702.014	0.0131271
702.092	0.0134052
702.170	0.0137335
702.248	0.0140806
702.326	0.0142600
702.405	0.0141836
702.483	0.0142502
702.561	0.0142589
702.639	0.0142753
702.717	0.0143829
702.795	0.0142849
702.873	0.0142084
702.951	0.0140851
703.030	0.0140874
703.108	0.0141138
703.186	0.0141753
703.264	0.0143816
703.342	0.0144067
703.420	0.0143787
703.498	0.0146365
703.576	0.0148215
703.655	0.0149281
703.733	0.0150878
703.811	0.0149892
703.889	0.0153281
703.967	0.0154992
704.045	0.0159248
704.123	0.0158273
704.201	0.0159607
704.280	0.0161488
704.358	0.0163784
704.436	0.0166331
704.514	0.0167354
704.592	0.0169215
704.670	0.0168523
704.748	0.0168218
704.826	0.0169163
704.905	0.0169027
704.983	0.0167894
705.061	0.0166422
705.139	0.0165595
705.217	0.0163154
705.295	0.0160640
705.373	0.0158586
705.451	0.0153745
705.530	0.0149482
705.608	0.0147416
705.686	0.0145981
705.764	0.0141214
705.842	0.0136272
705.920	0.0134608
705.998	0.0133019
706.076	0.0128528
706.155	0.0127981
706.233	0.0128158
706.311	0.0127088
706.389	0.0127283
706.467	0.0128302
706.545	0.0129089
706.623	0.0131337
706.701	0.0133556
706.780	0.0136005
706.858	0.0137990
706.936	0.0140075
707.014	0.0142963
707.092	0.0144394
707.170	0.0147775
707.248	0.0151193
707.326	0.0152516
707.405	0.0154179
707.483	0.0156337
707.561	0.0159282
707.639	0.0162197
707.717	0.0160866
707.795	0.0162867
707.873	0.0163963
707.951	0.0163888
708.030	0.0164307
708.108	0.0161260
708.186	0.0160430
708.264	0.0157943
708.342	0.0156031
708.420	0.0154733
708.498	0.0151566
708.576	0.0149094
708.655	0.0146542
708.733	0.0146689
708.811	0.0145104
708.889	0.0143835
708.967	0.0143854
709.045	0.0143142
709.123	0.0143323
709.201	0.0143425
709.280	0.0144002
709.358	0.0144452
709.436	0.0143922
709.514	0.0144135
709.592	0.0144073
709.670	0.0143565
709.748	0.0144078
709.826	0.0144124
709.905	0.0143964
709.983	0.0142329
710.061	0.0141652
710.139	0.0143399
710.217	0.0141765
710.295	0.0141972
710.373	0.0141478
710.451	0.0142036
710.530	0.0144321
710.608	0.0146455
710.686	0.0146918
710.764	0.0148732
710.842	0.0150136
710.920	0.0154076
710.998	0.0156017
711.076	0.0159543
711.155	0.0160287
711.233	0.0159840
711.311	0.0161073
711.389	0.0163213
711.467	0.0163073
711.545	0.0160897
711.623	0.0161137
711.701	0.0161777
711.780	0.0158420
711.858	0.0158108
711.936	0.0157235
712.014	0.0155428
712.092	0.0153322
712.170	0.0152895
712.248	0.0150676
712.326	0.0149246
712.405	0.0147390
712.483	0.0146529
712.561	0.0144360
712.639	0.0142845
712.717	0.0141277
712.795	0.0139970
712.873	0.0139343
712.951	0.0139442
713.030	0.0138381
713.108	0.0136499
713.186	0.0136754
713.264	0.0137025
713.342	0.0136436
713.420	0.0135867
713.498	0.0137247
713.576	0.0137894
713.655	0.0140511
713.733	0.0141628
713.811	0.0142442
713.889	0.0142706
713.967	0.0146285
714.045	0.0146912
714.123	0.0148972
714.201	0.0150294
714.280	0.0151159
714.358	0.0151289
714.436	0.0152418
714.514	0.0153070
714.592	0.0153350
714.670	0.0153498
714.748	0.0154124
714.826	0.0154579
714.905	0.0153815
714.983	0.0154964
715.061	0.0154158
715.139	0.0153458
715.217	0.0152920
715.295	0.0153117
715.373	0.0154343
715.451	0.0153117
715.530	0.0153462
715.608	0.0153836
715.686	0.0152124
715.764	0.0153202
715.842	0.0151356
715.920	0.0151284
715.998	0.0150925
716.076	0.0151081
716.155	0.0149259
716.233	0.0149325
716.311	0.0148893
716.389	0.0147159
716.467	0.0147671
716.545	0.0145885
716.623	0.0146499
716.701	0.0146057
716.780	0.0145654
716.858	0.0144955
716.936	0.0145388
717.014	0.0145264
717.092	0.0144867
717.170	0.0147152
717.248	0.0147180
717.326	0.0147758
717.405	0.0146763
717.483	0.0147549
717.561	0.0148711
717.639	0.0148475
717.717	0.0149556
717.795	0.0149529
717.873	0.0150774
717.951	0.0149880
718.030	0.0149922
718.108	0.0151402
718.186	0.0149579
718.264	0.0150779
718.342	0.0150716
718.420	0.0149792
718.498	0.0149805
718.576	0.0150471
718.655	0.0150000
718.733	0.0151536
718.811	0.0150985
718.889	0.0151141
718.967	0.0151031
719.045	0.0151523
719.123	0.0152122
719.201	0.0153724
719.280	0.0153295
719.358	0.0152438
719.436	0.0151427
719.514	0.0149506
719.592	0.0148065
719.670	0.0146688
719.748	0.0144817
719.826	0.0143744
719.905	0.0143420
719.983	0.0141451
720.061	0.0141666
720.139	0.0140100
720.217	0.0139679
720.295	0.0139706
720.373	0.0140157
720.451	0.0141862
720.530	0.0141405
720.608	0.0143256
720.686	0.0144342
720.764	0.0144336
720.842	0.0145245
720.920	0.0144996
720.998	0.0146857
721.076	0.0149101
721.155	0.0148587
721.233	0.0150803
721.311	0.0153141
721.389	0.0151986
721.467	0.0153863
721.545	0.0155180
721.623	0.0156965
721.701	0.0156667
721.780	0.0157910
721.858	0.0157545
721.936	0.0158834
722.014	0.0157063
722.092	0.0156298
722.170	0.0156306
722.248	0.0154137
722.326	0.0153237
722.405	0.0152205
722.483	0.0151392
722.561	0.0150490
722.639	0.0148798
722.717	0.0150050
722.795	0.0147956
722.873	0.0148006
722.951	0.0147005
723.030	0.0146087
723.108	0.0145841
723.186	0.0145023
723.264	0.0143745
723.342	0.0142298
723.420	0.0143310
723.498	0.0143018
723.576	0.0142461
723.655	0.0142082
723.733	0.0143655
723.811	0.0145364
723.889	0.0144270
723.967	0.0145065
724.045	0.0147138
724.123	0.0148764
724.201	0.0149150
724.280	0.0151012
724.358	0.0151792
724.436	0.0153392
724.514	0.0153967
724.592	0.0154118
724.670	0.0156629
724.748	0.0157016
724.826	0.0155311
724.905	0.0154704
724.983	0.0153371
725.061	0.0152457
725.139	0.0153146
725.217	0.0151868
725.295	0.0149913
725.373	0.0147860
725.451	0.0147497
725.530	0.0145786
