05/20/2022	16:08:16	Ver.	4.1	UNKNOWN
Optical Delay	639.982744	Delta X		0.078125	Sweeps	1	Scan Rate	0/0
Coordinates	Axis 1	NaN	Axis 2	NaN	Axis 3	NaN	Axis 4	NaN	Axis 5	NaN	Axis 6	0.000000
TX Power	0.000000	RX Power	0.000000

639.983	0.0145141
640.061	0.0143647
640.139	0.0146387
640.217	0.0145527
640.295	0.0145232
640.373	0.0143778
640.451	0.0145067
640.530	0.0146085
640.608	0.0144778
640.686	0.0143951
640.764	0.0145216
640.842	0.0145247
640.920	0.0144776
640.998	0.0144191
641.076	0.0144437
641.155	0.0144804
641.233	0.0145507
641.311	0.0143201
641.389	0.0144872
641.467	0.0145524
641.545	0.0145087
641.623	0.0145660
641.701	0.0145586
641.780	0.0143989
641.858	0.0145901
641.936	0.0145398
642.014	0.0144328
642.092	0.0145350
642.170	0.0145646
642.248	0.0144188
642.326	0.0145910
642.405	0.0144584
642.483	0.0144601
642.561	0.0144325
642.639	0.0145176
642.717	0.0145531
642.795	0.0144867
642.873	0.0145354
642.951	0.0144407
643.030	0.0144944
643.108	0.0145117
643.186	0.0145387
643.264	0.0145528
643.342	0.0144917
643.420	0.0144978
643.498	0.0145938
643.576	0.0144772
643.655	0.0145512
643.733	0.0144584
643.811	0.0144753
643.889	0.0144289
643.967	0.0143146
644.045	0.0144993
644.123	0.0144488
644.201	0.0144967
644.280	0.0144444
644.358	0.0144682
644.436	0.0143314
644.514	0.0145094
644.592	0.0145497
644.670	0.0144473
644.748	0.0143156
644.826	0.0144947
644.905	0.0146521
644.983	0.0144886
645.061	0.0145613
645.139	0.0144865
645.217	0.0144868
645.295	0.0144196
645.373	0.0144724
645.451	0.0144422
645.530	0.0146310
645.608	0.0144836
645.686	0.0145365
645.764	0.0145865
645.842	0.0146111
645.920	0.0146101
645.998	0.0144595
646.076	0.0145271
646.155	0.0144218
646.233	0.0145079
646.311	0.0145805
646.389	0.0144287
646.467	0.0144274
646.545	0.0145776
646.623	0.0144598
646.701	0.0143581
646.780	0.0145420
646.858	0.0143574
646.936	0.0145512
647.014	0.0145596
647.092	0.0145100
647.170	0.0146419
647.248	0.0145249
647.326	0.0145722
647.405	0.0144180
647.483	0.0144845
647.561	0.0145387
647.639	0.0144917
647.717	0.0144565
647.795	0.0144257
647.873	0.0144589
647.951	0.0145608
648.030	0.0144974
648.108	0.0144417
648.186	0.0144713
648.264	0.0145122
648.342	0.0143609
648.420	0.0144996
648.498	0.0144074
648.576	0.0144189
648.655	0.0146335
648.733	0.0144659
648.811	0.0145367
648.889	0.0144676
648.967	0.0144957
649.045	0.0144744
649.123	0.0144801
649.201	0.0144642
649.280	0.0145713
649.358	0.0144699
649.436	0.0143526
649.514	0.0146008
649.592	0.0145565
649.670	0.0145877
649.748	0.0144852
649.826	0.0144903
649.905	0.0145651
649.983	0.0144627
650.061	0.0145813
650.139	0.0145790
650.217	0.0145014
650.295	0.0144386
650.373	0.0144391
650.451	0.0144768
650.530	0.0144838
650.608	0.0143173
650.686	0.0144687
650.764	0.0145116
650.842	0.0145633
650.920	0.0144549
650.998	0.0144542
651.076	0.0144822
651.155	0.0145124
651.233	0.0145055
651.311	0.0146357
651.389	0.0144637
651.467	0.0144184
651.545	0.0145475
651.623	0.0145364
651.701	0.0144238
651.780	0.0145614
651.858	0.0144688
651.936	0.0146363
652.014	0.0144466
652.092	0.0145338
652.170	0.0144292
652.248	0.0146703
652.326	0.0145734
652.405	0.0144122
652.483	0.0143800
652.561	0.0144578
652.639	0.0144821
652.717	0.0144336
652.795	0.0144125
652.873	0.0145223
652.951	0.0143684
653.030	0.0146116
653.108	0.0144543
653.186	0.0144266
653.264	0.0144828
653.342	0.0145318
653.420	0.0144612
653.498	0.0144634
653.576	0.0144806
653.655	0.0145278
653.733	0.0143709
653.811	0.0144708
653.889	0.0144839
653.967	0.0145563
654.045	0.0144858
654.123	0.0144519
654.201	0.0145576
654.280	0.0145183
654.358	0.0145525
654.436	0.0144488
654.514	0.0146006
654.592	0.0145756
654.670	0.0144135
654.748	0.0145090
654.826	0.0145483
654.905	0.0144765
654.983	0.0143843
655.061	0.0144604
655.139	0.0144362
655.217	0.0145133
655.295	0.0144388
655.373	0.0144456
655.451	0.0145387
655.530	0.0143961
655.608	0.0145258
655.686	0.0145324
655.764	0.0144553
655.842	0.0144893
655.920	0.0145366
655.998	0.0143970
656.076	0.0145699
656.155	0.0145144
656.233	0.0145591
656.311	0.0143747
656.389	0.0143909
656.467	0.0145432
656.545	0.0145176
656.623	0.0144126
656.701	0.0143426
656.780	0.0144521
656.858	0.0146226
656.936	0.0145444
657.014	0.0144852
657.092	0.0144363
657.170	0.0145547
657.248	0.0144395
657.326	0.0145182
657.405	0.0144852
657.483	0.0145325
657.561	0.0144726
657.639	0.0143353
657.717	0.0144756
657.795	0.0145876
657.873	0.0144650
657.951	0.0144012
658.030	0.0144481
658.108	0.0145731
658.186	0.0143643
658.264	0.0144732
658.342	0.0145482
658.420	0.0144920
658.498	0.0145957
658.576	0.0145267
658.655	0.0143899
658.733	0.0145207
658.811	0.0145963
658.889	0.0144486
658.967	0.0143871
659.045	0.0144720
659.123	0.0145875
659.201	0.0145133
659.280	0.0144484
659.358	0.0144415
659.436	0.0144321
659.514	0.0144112
659.592	0.0145148
659.670	0.0142862
659.748	0.0146043
659.826	0.0145348
659.905	0.0144953
659.983	0.0144099
660.061	0.0144103
660.139	0.0144862
660.217	0.0144746
660.295	0.0143959
660.373	0.0145483
660.451	0.0145454
660.530	0.0145559
660.608	0.0145163
660.686	0.0145248
660.764	0.0145359
660.842	0.0145393
660.920	0.0145322
660.998	0.0145365
661.076	0.0144976
661.155	0.0145010
661.233	0.0145924
661.311	0.0144659
661.389	0.0144666
661.467	0.0144186
661.545	0.0145139
661.623	0.0145160
661.701	0.0143156
661.780	0.0145203
661.858	0.0144737
661.936	0.0145377
662.014	0.0144657
662.092	0.0145110
662.170	0.0144834
662.248	0.0144927
662.326	0.0145164
662.405	0.0144440
662.483	0.0143894
662.561	0.0144115
662.639	0.0145619
662.717	0.0145168
662.795	0.0145183
662.873	0.0144099
662.951	0.0144080
663.030	0.0145314
663.108	0.0143979
663.186	0.0145394
663.264	0.0144804
663.342	0.0145106
663.420	0.0143356
663.498	0.0145052
663.576	0.0144621
663.655	0.0145560
663.733	0.0144368
663.811	0.0144855
663.889	0.0145144
663.967	0.0144619
664.045	0.0145255
664.123	0.0145233
664.201	0.0144357
664.280	0.0145317
664.358	0.0144215
664.436	0.0142801
664.514	0.0143961
664.592	0.0145588
664.670	0.0145528
664.748	0.0144122
664.826	0.0145263
664.905	0.0144888
664.983	0.0145132
665.061	0.0145348
665.139	0.0145498
665.217	0.0144367
665.295	0.0144497
665.373	0.0142896
665.451	0.0145226
665.530	0.0145908
665.608	0.0144421
665.686	0.0144438
665.764	0.0143076
665.842	0.0145044
665.920	0.0145386
665.998	0.0146051
666.076	0.0145278
666.155	0.0145560
666.233	0.0144709
666.311	0.0143901
666.389	0.0144003
666.467	0.0145447
666.545	0.0144944
666.623	0.0145095
666.701	0.0144331
666.780	0.0146145
666.858	0.0144975
666.936	0.0144887
667.014	0.0144860
667.092	0.0143976
667.170	0.0144186
667.248	0.0144176
667.326	0.0144698
667.405	0.0144888
667.483	0.0145464
667.561	0.0145068
667.639	0.0144788
667.717	0.0144855
667.795	0.0145449
667.873	0.0144926
667.951	0.0144895
668.030	0.0145831
668.108	0.0144806
668.186	0.0145186
668.264	0.0146048
668.342	0.0144151
668.420	0.0144895
668.498	0.0145937
668.576	0.0145555
668.655	0.0143924
668.733	0.0146017
668.811	0.0145414
668.889	0.0146224
668.967	0.0143970
669.045	0.0144708
669.123	0.0144395
669.201	0.0144735
669.280	0.0145114
669.358	0.0144786
669.436	0.0144608
669.514	0.0144699
669.592	0.0145332
669.670	0.0146245
669.748	0.0145936
669.826	0.0144817
669.905	0.0143793
669.983	0.0145649
670.061	0.0144563
670.139	0.0145922
670.217	0.0144540
670.295	0.0145775
670.373	0.0145569
670.451	0.0145657
670.530	0.0144855
670.608	0.0144797
670.686	0.0145633
670.764	0.0146328
670.842	0.0145922
670.920	0.0144585
670.998	0.0146221
671.076	0.0145141
671.155	0.0145557
671.233	0.0145043
671.311	0.0145739
671.389	0.0145864
671.467	0.0146587
671.545	0.0145764
671.623	0.0144621
671.701	0.0145829
671.780	0.0144924
671.858	0.0144872
671.936	0.0146548
672.014	0.0146031
672.092	0.0144028
672.170	0.0145274
672.248	0.0146147
672.326	0.0144773
672.405	0.0144690
672.483	0.0145800
672.561	0.0147075
672.639	0.0146593
672.717	0.0146274
672.795	0.0145734
672.873	0.0145405
672.951	0.0146252
673.030	0.0145301
673.108	0.0145708
673.186	0.0145822
673.264	0.0146272
673.342	0.0144247
673.420	0.0145360
673.498	0.0146328
673.576	0.0144524
673.655	0.0145173
673.733	0.0144333
673.811	0.0146294
673.889	0.0145724
673.967	0.0145354
674.045	0.0146030
674.123	0.0146066
674.201	0.0145933
674.280	0.0146145
674.358	0.0146541
674.436	0.0146632
674.514	0.0145744
674.592	0.0146152
674.670	0.0145699
674.748	0.0145000
674.826	0.0146217
674.905	0.0146425
674.983	0.0144299
675.061	0.0144958
675.139	0.0144431
675.217	0.0145374
675.295	0.0145106
675.373	0.0144623
675.451	0.0145926
675.530	0.0146153
675.608	0.0144749
675.686	0.0145447
675.764	0.0146407
675.842	0.0144235
675.920	0.0145877
675.998	0.0144067
676.076	0.0145158
676.155	0.0144131
676.233	0.0144217
676.311	0.0145187
676.389	0.0146134
676.467	0.0144190
676.545	0.0144594
676.623	0.0145752
676.701	0.0146012
676.780	0.0143661
676.858	0.0144920
676.936	0.0144047
677.014	0.0144561
677.092	0.0145780
677.170	0.0144650
677.248	0.0144896
677.326	0.0145641
677.405	0.0144906
677.483	0.0144525
677.561	0.0143929
677.639	0.0145384
677.717	0.0143642
677.795	0.0144720
677.873	0.0144534
677.951	0.0144751
678.030	0.0144153
678.108	0.0143605
678.186	0.0143990
678.264	0.0143562
678.342	0.0144565
678.420	0.0143892
678.498	0.0144952
678.576	0.0144927
678.655	0.0143197
678.733	0.0144307
678.811	0.0143685
678.889	0.0145206
678.967	0.0145107
679.045	0.0143977
679.123	0.0143983
679.201	0.0145202
679.280	0.0146166
679.358	0.0144470
679.436	0.0143305
679.514	0.0145422
679.592	0.0142329
679.670	0.0144725
679.748	0.0144735
679.826	0.0143120
679.905	0.0144798
679.983	0.0143811
680.061	0.0143511
680.139	0.0144296
680.217	0.0144280
680.295	0.0143610
680.373	0.0143159
680.451	0.0143932
680.530	0.0144009
680.608	0.0144133
680.686	0.0145023
680.764	0.0143996
680.842	0.0143285
680.920	0.0144395
680.998	0.0144317
681.076	0.0145019
681.155	0.0143703
681.233	0.0143859
681.311	0.0144201
681.389	0.0144867
681.467	0.0144820
681.545	0.0144576
681.623	0.0144534
681.701	0.0146143
681.780	0.0144146
681.858	0.0144984
681.936	0.0146397
682.014	0.0145039
682.092	0.0144427
682.170	0.0144734
682.248	0.0145415
682.326	0.0145700
682.405	0.0145286
682.483	0.0143604
682.561	0.0144225
682.639	0.0145848
682.717	0.0146326
682.795	0.0144878
682.873	0.0144394
682.951	0.0144636
683.030	0.0144692
683.108	0.0144221
683.186	0.0145005
683.264	0.0145769
683.342	0.0143581
683.420	0.0146032
683.498	0.0145538
683.576	0.0144218
683.655	0.0143898
683.733	0.0144297
683.811	0.0145757
683.889	0.0144504
683.967	0.0145881
684.045	0.0144979
684.123	0.0144599
684.201	0.0144495
684.280	0.0146112
684.358	0.0145594
684.436	0.0146458
684.514	0.0144769
684.592	0.0145578
684.670	0.0145097
684.748	0.0144939
684.826	0.0145534
684.905	0.0144657
684.983	0.0145682
685.061	0.0145763
685.139	0.0144820
685.217	0.0145874
685.295	0.0146796
685.373	0.0146054
685.451	0.0144998
685.530	0.0145705
685.608	0.0146076
685.686	0.0144737
685.764	0.0146970
685.842	0.0146548
685.920	0.0145615
685.998	0.0145892
686.076	0.0143293
686.155	0.0145118
686.233	0.0146468
686.311	0.0144459
686.389	0.0145271
686.467	0.0144990
686.545	0.0144939
686.623	0.0143886
686.701	0.0143471
686.780	0.0144608
686.858	0.0145033
686.936	0.0144682
687.014	0.0144985
687.092	0.0144863
687.170	0.0142794
687.248	0.0145210
687.326	0.0144171
687.405	0.0142738
687.483	0.0144521
687.561	0.0144135
687.639	0.0144745
687.717	0.0143056
687.795	0.0142320
687.873	0.0141463
687.951	0.0141188
688.030	0.0142557
688.108	0.0143468
688.186	0.0144624
688.264	0.0145304
688.342	0.0148469
688.420	0.0149097
688.498	0.0150316
688.576	0.0152508
688.655	0.0154657
688.733	0.0155909
688.811	0.0157761
688.889	0.0157310
688.967	0.0155681
689.045	0.0154495
689.123	0.0151598
689.201	0.0147639
689.280	0.0142515
689.358	0.0137333
689.436	0.0130750
689.514	0.0125775
689.592	0.0121291
689.670	0.0119255
689.748	0.0117108
689.826	0.0116538
689.905	0.0118182
689.983	0.0121885
690.061	0.0125378
690.139	0.0133429
690.217	0.0141089
690.295	0.0146772
690.373	0.0155710
690.451	0.0162201
690.530	0.0168855
690.608	0.0173820
690.686	0.0179328
690.764	0.0181992
690.842	0.0184537
690.920	0.0187287
690.998	0.0185320
691.076	0.0182954
691.155	0.0180093
691.233	0.0175602
691.311	0.0168660
691.389	0.0161543
691.467	0.0153368
691.545	0.0144344
691.623	0.0135629
691.701	0.0126514
691.780	0.0115429
691.858	0.0105230
691.936	0.00970688
692.014	0.00888710
692.092	0.00827209
692.170	0.00792412
692.248	0.00749809
692.326	0.00769508
692.405	0.00795723
692.483	0.00829010
692.561	0.00911514
692.639	0.0100483
692.717	0.0110847
692.795	0.0123626
692.873	0.0138453
692.951	0.0153877
693.030	0.0168636
693.108	0.0185589
693.186	0.0201285
693.264	0.0214671
693.342	0.0227049
693.420	0.0236649
693.498	0.0243378
693.576	0.0244389
693.655	0.0243789
693.733	0.0240659
693.811	0.0233352
693.889	0.0222186
693.967	0.0212924
694.045	0.0200681
694.123	0.0185408
694.201	0.0168784
694.280	0.0151274
694.358	0.0135885
694.436	0.0119714
694.514	0.0107011
694.592	0.00917267
694.670	0.00760101
694.748	0.00636078
694.826	0.00539818
694.905	0.00459457
694.983	0.00395630
695.061	0.00347939
695.139	0.00327805
695.217	0.00346123
695.295	0.00360771
695.373	0.00410019
695.451	0.00515388
695.530	0.00628777
695.608	0.00769363
695.686	0.00939270
695.764	0.0112402
695.842	0.0130607
695.920	0.0150222
695.998	0.0170692
696.076	0.0188438
696.155	0.0205690
696.233	0.0222392
696.311	0.0237162
696.389	0.0249170
696.467	0.0260882
696.545	0.0270557
696.623	0.0277467
696.701	0.0279955
696.780	0.0281956
696.858	0.0279105
696.936	0.0271722
697.014	0.0261552
697.092	0.0248238
697.170	0.0231355
697.248	0.0211718
697.326	0.0189275
697.405	0.0168487
697.483	0.0145068
697.561	0.0121194
697.639	0.00989433
697.717	0.00810219
697.795	0.00640343
697.873	0.00500771
697.951	0.00415260
698.030	0.00331291
698.108	0.00290741
698.186	0.00300880
698.264	0.00308586
698.342	0.00331474
698.420	0.00373878
698.498	0.00453720
698.576	0.00530426
698.655	0.00590363
698.733	0.00695107
698.811	0.00789696
698.889	0.00883423
698.967	0.0100257
699.045	0.0111931
699.123	0.0125432
699.201	0.0137181
699.280	0.0150223
699.358	0.0164455
699.436	0.0179218
699.514	0.0191405
699.592	0.0202650
699.670	0.0212249
699.748	0.0222690
699.826	0.0228129
699.905	0.0233930
699.983	0.0237801
700.061	0.0238794
700.139	0.0239755
700.217	0.0237724
700.295	0.0235359
700.373	0.0230546
700.451	0.0225147
700.530	0.0219099
700.608	0.0211549
700.686	0.0201556
700.764	0.0191101
700.842	0.0178689
700.920	0.0166905
700.998	0.0153848
701.076	0.0140798
701.155	0.0128485
701.233	0.0114455
701.311	0.0104981
701.389	0.00964516
701.467	0.00862305
701.545	0.00821358
701.623	0.00800407
701.701	0.00778313
701.780	0.00775383
701.858	0.00800079
701.936	0.00840355
702.014	0.00892288
702.092	0.00934372
702.170	0.00977203
702.248	0.0103329
702.326	0.0107535
702.405	0.0111008
702.483	0.0115237
702.561	0.0118815
702.639	0.0121329
702.717	0.0122395
702.795	0.0123798
702.873	0.0125721
702.951	0.0127953
703.030	0.0132913
703.108	0.0136823
703.186	0.0139980
703.264	0.0143280
703.342	0.0148749
703.420	0.0155117
703.498	0.0159978
703.576	0.0165311
703.655	0.0171240
703.733	0.0177273
703.811	0.0183670
703.889	0.0188098
703.967	0.0192326
704.045	0.0195203
704.123	0.0197923
704.201	0.0199535
704.280	0.0198549
704.358	0.0197529
704.436	0.0194720
704.514	0.0192400
704.592	0.0187730
704.670	0.0178340
704.748	0.0172179
704.826	0.0166335
704.905	0.0160029
704.983	0.0151965
705.061	0.0145200
705.139	0.0138524
705.217	0.0133937
705.295	0.0128518
705.373	0.0124091
705.451	0.0120640
705.530	0.0118807
705.608	0.0118005
705.686	0.0115831
705.764	0.0114993
705.842	0.0115345
705.920	0.0117014
705.998	0.0115254
706.076	0.0114081
706.155	0.0115836
706.233	0.0116898
706.311	0.0116441
706.389	0.0116772
706.467	0.0116741
706.545	0.0118430
706.623	0.0119477
706.701	0.0121582
706.780	0.0123350
706.858	0.0126176
706.936	0.0130036
707.014	0.0132584
707.092	0.0136951
707.170	0.0141070
707.248	0.0146168
707.326	0.0151733
707.405	0.0156625
707.483	0.0161282
707.561	0.0167480
707.639	0.0172934
707.717	0.0175475
707.795	0.0179407
707.873	0.0180759
707.951	0.0181139
708.030	0.0181020
708.108	0.0178363
708.186	0.0177176
708.264	0.0173203
708.342	0.0168668
708.420	0.0165119
708.498	0.0160368
708.576	0.0153207
708.655	0.0148795
708.733	0.0145013
708.811	0.0139893
708.889	0.0136831
708.967	0.0133958
709.045	0.0133514
709.123	0.0130247
709.201	0.0129034
709.280	0.0129396
709.358	0.0130181
709.436	0.0127909
709.514	0.0128426
709.592	0.0129523
709.670	0.0128481
709.748	0.0129349
709.826	0.0130461
709.905	0.0130101
709.983	0.0131846
710.061	0.0132404
710.139	0.0133319
710.217	0.0134887
710.295	0.0136705
710.373	0.0137415
710.451	0.0139240
710.530	0.0140050
710.608	0.0144273
710.686	0.0145308
710.764	0.0145995
710.842	0.0151430
710.920	0.0152374
710.998	0.0154264
711.076	0.0155393
711.155	0.0159348
711.233	0.0160383
711.311	0.0161073
711.389	0.0161145
711.467	0.0163480
711.545	0.0161897
711.623	0.0162659
711.701	0.0162534
711.780	0.0161202
711.858	0.0161474
711.936	0.0160247
712.014	0.0158319
712.092	0.0155929
712.170	0.0153397
712.248	0.0151215
712.326	0.0148165
712.405	0.0147060
712.483	0.0143300
712.561	0.0142004
712.639	0.0141162
712.717	0.0137242
712.795	0.0135154
712.873	0.0133159
712.951	0.0130943
713.030	0.0130600
713.108	0.0126315
713.186	0.0127006
713.264	0.0127212
713.342	0.0125193
713.420	0.0126605
713.498	0.0126620
713.576	0.0127158
713.655	0.0127299
713.733	0.0130155
713.811	0.0132268
713.889	0.0133041
713.967	0.0134660
714.045	0.0137732
714.123	0.0140300
714.201	0.0142356
714.280	0.0145207
714.358	0.0145946
714.436	0.0150407
714.514	0.0153846
714.592	0.0155565
714.670	0.0156512
714.748	0.0158009
714.826	0.0158283
714.905	0.0159180
714.983	0.0157425
715.061	0.0156018
715.139	0.0156417
715.217	0.0154630
715.295	0.0152277
715.373	0.0152356
715.451	0.0150101
715.530	0.0149612
715.608	0.0149638
715.686	0.0148495
715.764	0.0148299
715.842	0.0147542
715.920	0.0149592
715.998	0.0148735
716.076	0.0147428
716.155	0.0149345
716.233	0.0148498
716.311	0.0148405
716.389	0.0148186
716.467	0.0147002
716.545	0.0147020
716.623	0.0145840
716.701	0.0142344
716.780	0.0141277
716.858	0.0140272
716.936	0.0140652
717.014	0.0137472
717.092	0.0138036
717.170	0.0138717
717.248	0.0139017
717.326	0.0139655
717.405	0.0138171
717.483	0.0139205
717.561	0.0138309
717.639	0.0139381
717.717	0.0140096
717.795	0.0140928
717.873	0.0141049
717.951	0.0141521
718.030	0.0142023
718.108	0.0143171
718.186	0.0144823
718.264	0.0144505
718.342	0.0145428
718.420	0.0145925
718.498	0.0147562
718.576	0.0148147
718.655	0.0148451
718.733	0.0149762
718.811	0.0150365
718.889	0.0150278
718.967	0.0148206
719.045	0.0149963
719.123	0.0148583
719.201	0.0146999
719.280	0.0146182
719.358	0.0144373
719.436	0.0143956
719.514	0.0142764
719.592	0.0141354
719.670	0.0141413
719.748	0.0141339
719.826	0.0139092
719.905	0.0139375
719.983	0.0140622
720.061	0.0140839
720.139	0.0140334
720.217	0.0139594
720.295	0.0141103
720.373	0.0142170
720.451	0.0140218
720.530	0.0140253
720.608	0.0140327
720.686	0.0140352
720.764	0.0140935
720.842	0.0140646
720.920	0.0141884
720.998	0.0141753
721.076	0.0144475
721.155	0.0143562
721.233	0.0145814
721.311	0.0147169
721.389	0.0148637
721.467	0.0151156
721.545	0.0151865
721.623	0.0153826
721.701	0.0154657
721.780	0.0154031
721.858	0.0153342
721.936	0.0155109
722.014	0.0153935
722.092	0.0153191
722.170	0.0152769
722.248	0.0151531
722.326	0.0151256
722.405	0.0148977
722.483	0.0149252
722.561	0.0148869
722.639	0.0146680
722.717	0.0145592
722.795	0.0143493
722.873	0.0142657
722.951	0.0141492
723.030	0.0140540
723.108	0.0140268
723.186	0.0139228
723.264	0.0137808
723.342	0.0136891
723.420	0.0137462
723.498	0.0136523
723.576	0.0138735
723.655	0.0138551
723.733	0.0137923
723.811	0.0140017
723.889	0.0141112
723.967	0.0143577
724.045	0.0144558
724.123	0.0145255
724.201	0.0147359
724.280	0.0148080
724.358	0.0147643
724.436	0.0149036
724.514	0.0151213
724.592	0.0150004
724.670	0.0149245
724.748	0.0148998
724.826	0.0149780
724.905	0.0147659
724.983	0.0147760
725.061	0.0147737
725.139	0.0145775
725.217	0.0145290
725.295	0.0144825
725.373	0.0144910
725.451	0.0144247
