05/20/2022	16:09:26	Ver.	4.1	UNKNOWN
Optical Delay	639.982744	Delta X		0.078125	Sweeps	1	Scan Rate	0/0
Coordinates	Axis 1	NaN	Axis 2	NaN	Axis 3	NaN	Axis 4	NaN	Axis 5	NaN	Axis 6	0.000000
TX Power	0.000000	RX Power	0.000000

639.983	0.0148363
640.061	0.0147375
640.139	0.0147775
640.217	0.0149309
640.295	0.0148501
640.373	0.0147153
640.451	0.0147867
640.530	0.0147975
640.608	0.0149475
640.686	0.0147888
640.764	0.0148883
640.842	0.0148563
640.920	0.0146517
640.998	0.0148257
641.076	0.0148809
641.155	0.0147664
641.233	0.0147922
641.311	0.0147234
641.389	0.0148935
641.467	0.0148026
641.545	0.0147898
641.623	0.0146787
641.701	0.0148091
641.780	0.0149140
641.858	0.0148613
641.936	0.0149107
642.014	0.0148425
642.092	0.0148267
642.170	0.0147793
642.248	0.0147284
642.326	0.0149532
642.405	0.0148105
642.483	0.0148743
642.561	0.0147061
642.639	0.0148109
642.717	0.0149699
642.795	0.0148852
642.873	0.0148302
642.951	0.0147586
643.030	0.0148926
643.108	0.0149301
643.186	0.0148756
643.264	0.0148065
643.342	0.0148858
643.420	0.0149965
643.498	0.0148589
643.576	0.0148255
643.655	0.0148466
643.733	0.0149052
643.811	0.0147820
643.889	0.0149474
643.967	0.0147891
644.045	0.0149024
644.123	0.0149075
644.201	0.0148338
644.280	0.0148264
644.358	0.0147652
644.436	0.0147276
644.514	0.0147813
644.592	0.0148724
644.670	0.0147234
644.748	0.0148826
644.826	0.0148491
644.905	0.0148297
644.983	0.0148109
645.061	0.0147776
645.139	0.0149224
645.217	0.0148565
645.295	0.0150027
645.373	0.0148120
645.451	0.0148126
645.530	0.0148343
645.608	0.0148245
645.686	0.0147575
645.764	0.0147858
645.842	0.0147344
645.920	0.0147434
645.998	0.0148461
646.076	0.0147698
646.155	0.0148737
646.233	0.0148265
646.311	0.0146863
646.389	0.0148779
646.467	0.0149262
646.545	0.0149179
646.623	0.0147906
646.701	0.0147006
646.780	0.0147664
646.858	0.0147491
646.936	0.0148186
647.014	0.0148273
647.092	0.0148083
647.170	0.0147234
647.248	0.0148590
647.326	0.0148647
647.405	0.0147369
647.483	0.0147533
647.561	0.0148759
647.639	0.0148433
647.717	0.0147443
647.795	0.0148767
647.873	0.0148631
647.951	0.0148017
648.030	0.0148605
648.108	0.0147910
648.186	0.0146672
648.264	0.0147191
648.342	0.0149321
648.420	0.0148760
648.498	0.0147301
648.576	0.0147446
648.655	0.0148378
648.733	0.0147831
648.811	0.0147373
648.889	0.0148440
648.967	0.0148323
649.045	0.0148201
649.123	0.0149463
649.201	0.0148074
649.280	0.0147605
649.358	0.0145901
649.436	0.0148112
649.514	0.0148728
649.592	0.0148171
649.670	0.0146802
649.748	0.0147515
649.826	0.0147879
649.905	0.0148293
649.983	0.0148689
650.061	0.0148710
650.139	0.0148031
650.217	0.0147406
650.295	0.0148162
650.373	0.0148654
650.451	0.0148290
650.530	0.0147585
650.608	0.0148314
650.686	0.0148203
650.764	0.0148199
650.842	0.0147169
650.920	0.0146817
650.998	0.0147202
651.076	0.0148109
651.155	0.0147789
651.233	0.0149425
651.311	0.0148724
651.389	0.0147834
651.467	0.0148963
651.545	0.0148856
651.623	0.0147676
651.701	0.0147955
651.780	0.0149207
651.858	0.0146735
651.936	0.0149319
652.014	0.0148544
652.092	0.0148959
652.170	0.0148804
652.248	0.0148937
652.326	0.0147717
652.405	0.0148624
652.483	0.0149308
652.561	0.0148876
652.639	0.0147852
652.717	0.0149321
652.795	0.0148246
652.873	0.0148141
652.951	0.0148545
653.030	0.0148686
653.108	0.0147367
653.186	0.0148725
653.264	0.0147076
653.342	0.0149563
653.420	0.0148479
653.498	0.0147270
653.576	0.0148006
653.655	0.0147292
653.733	0.0149004
653.811	0.0148634
653.889	0.0147906
653.967	0.0147977
654.045	0.0148202
654.123	0.0148061
654.201	0.0148446
654.280	0.0149284
654.358	0.0147968
654.436	0.0148547
654.514	0.0146671
654.592	0.0149287
654.670	0.0148511
654.748	0.0148150
654.826	0.0148985
654.905	0.0147466
654.983	0.0146584
655.061	0.0147975
655.139	0.0147601
655.217	0.0148756
655.295	0.0146546
655.373	0.0147929
655.451	0.0148592
655.530	0.0149149
655.608	0.0148184
655.686	0.0148290
655.764	0.0146807
655.842	0.0149374
655.920	0.0148679
655.998	0.0148135
656.076	0.0149324
656.155	0.0148511
656.233	0.0149130
656.311	0.0149014
656.389	0.0148804
656.467	0.0146733
656.545	0.0147330
656.623	0.0147079
656.701	0.0148865
656.780	0.0149841
656.858	0.0147832
656.936	0.0148725
657.014	0.0149033
657.092	0.0146703
657.170	0.0147592
657.248	0.0149053
657.326	0.0145982
657.405	0.0147270
657.483	0.0148571
657.561	0.0147894
657.639	0.0148228
657.717	0.0147607
657.795	0.0147299
657.873	0.0147682
657.951	0.0149207
658.030	0.0148667
658.108	0.0148554
658.186	0.0148344
658.264	0.0147950
658.342	0.0148569
658.420	0.0149286
658.498	0.0148361
658.576	0.0146696
658.655	0.0149311
658.733	0.0149371
658.811	0.0147789
658.889	0.0147157
658.967	0.0148024
659.045	0.0148912
659.123	0.0148158
659.201	0.0148409
659.280	0.0148638
659.358	0.0147506
659.436	0.0147647
659.514	0.0147915
659.592	0.0148345
659.670	0.0147782
659.748	0.0149097
659.826	0.0147433
659.905	0.0147742
659.983	0.0149747
660.061	0.0148055
660.139	0.0147769
660.217	0.0148320
660.295	0.0148420
660.373	0.0148240
660.451	0.0147521
660.530	0.0148801
660.608	0.0148855
660.686	0.0147580
660.764	0.0147412
660.842	0.0148184
660.920	0.0148643
660.998	0.0148030
661.076	0.0146813
661.155	0.0148636
661.233	0.0148194
661.311	0.0148685
661.389	0.0147363
661.467	0.0149235
661.545	0.0148327
661.623	0.0148539
661.701	0.0147598
661.780	0.0147211
661.858	0.0147803
661.936	0.0148858
662.014	0.0149010
662.092	0.0147951
662.170	0.0148582
662.248	0.0147811
662.326	0.0149586
662.405	0.0148515
662.483	0.0148330
662.561	0.0148385
662.639	0.0148079
662.717	0.0148024
662.795	0.0148467
662.873	0.0149311
662.951	0.0147887
663.030	0.0147728
663.108	0.0148138
663.186	0.0149377
663.264	0.0148890
663.342	0.0149139
663.420	0.0147343
663.498	0.0147428
663.576	0.0148560
663.655	0.0147760
663.733	0.0147540
663.811	0.0147853
663.889	0.0147322
663.967	0.0148589
664.045	0.0147425
664.123	0.0147997
664.201	0.0147594
664.280	0.0147410
664.358	0.0148410
664.436	0.0148725
664.514	0.0147182
664.592	0.0147675
664.670	0.0148444
664.748	0.0148586
664.826	0.0147105
664.905	0.0147012
664.983	0.0146800
665.061	0.0148313
665.139	0.0149126
665.217	0.0148511
665.295	0.0148713
665.373	0.0147593
665.451	0.0148454
665.530	0.0147791
665.608	0.0147997
665.686	0.0147614
665.764	0.0148612
665.842	0.0147546
665.920	0.0148048
665.998	0.0148500
666.076	0.0147086
666.155	0.0147776
666.233	0.0148112
666.311	0.0148344
666.389	0.0148780
666.467	0.0147230
666.545	0.0146501
666.623	0.0149054
666.701	0.0148782
666.780	0.0147517
666.858	0.0148436
666.936	0.0147668
667.014	0.0147480
667.092	0.0148640
667.170	0.0148943
667.248	0.0148026
667.326	0.0148799
667.405	0.0148678
667.483	0.0148754
667.561	0.0147938
667.639	0.0148322
667.717	0.0149628
667.795	0.0150061
667.873	0.0148254
667.951	0.0148634
668.030	0.0149055
668.108	0.0147765
668.186	0.0147918
668.264	0.0149361
668.342	0.0148891
668.420	0.0149343
668.498	0.0148694
668.576	0.0148814
668.655	0.0148428
668.733	0.0146974
668.811	0.0148294
668.889	0.0148872
668.967	0.0147807
669.045	0.0148872
669.123	0.0147933
669.201	0.0148343
669.280	0.0147675
669.358	0.0147839
669.436	0.0149832
669.514	0.0150468
669.592	0.0147591
669.670	0.0148575
669.748	0.0148201
669.826	0.0150346
669.905	0.0148540
669.983	0.0148164
670.061	0.0147510
670.139	0.0148967
670.217	0.0148864
670.295	0.0148669
670.373	0.0148708
670.451	0.0148712
670.530	0.0148109
670.608	0.0150060
670.686	0.0148458
670.764	0.0147777
670.842	0.0149208
670.920	0.0148518
670.998	0.0147746
671.076	0.0148486
671.155	0.0149506
671.233	0.0148711
671.311	0.0148504
671.389	0.0149831
671.467	0.0150850
671.545	0.0148812
671.623	0.0148746
671.701	0.0148338
671.780	0.0149329
671.858	0.0149098
671.936	0.0148260
672.014	0.0148146
672.092	0.0149232
672.170	0.0150016
672.248	0.0148864
672.326	0.0149009
672.405	0.0149406
672.483	0.0149158
672.561	0.0149936
672.639	0.0149155
672.717	0.0149901
672.795	0.0148672
672.873	0.0148348
672.951	0.0147838
673.030	0.0149501
673.108	0.0147639
673.186	0.0148943
673.264	0.0148814
673.342	0.0149353
673.420	0.0147772
673.498	0.0148758
673.576	0.0149075
673.655	0.0149068
673.733	0.0148786
673.811	0.0149384
673.889	0.0148038
673.967	0.0148325
674.045	0.0149358
674.123	0.0149117
674.201	0.0147617
674.280	0.0148595
674.358	0.0147765
674.436	0.0149349
674.514	0.0148536
674.592	0.0148836
674.670	0.0147965
674.748	0.0147823
674.826	0.0148961
674.905	0.0149084
674.983	0.0147179
675.061	0.0148199
675.139	0.0147755
675.217	0.0148648
675.295	0.0147729
675.373	0.0147953
675.451	0.0147280
675.530	0.0147598
675.608	0.0148653
675.686	0.0148401
675.764	0.0148263
675.842	0.0148058
675.920	0.0148875
675.998	0.0147034
676.076	0.0148899
676.155	0.0147314
676.233	0.0148410
676.311	0.0148048
676.389	0.0147770
676.467	0.0148772
676.545	0.0149806
676.623	0.0148520
676.701	0.0147150
676.780	0.0148441
676.858	0.0149769
676.936	0.0148338
677.014	0.0148679
677.092	0.0148626
677.170	0.0146753
677.248	0.0148579
677.326	0.0148319
677.405	0.0146972
677.483	0.0147604
677.561	0.0147337
677.639	0.0148952
677.717	0.0148926
677.795	0.0148875
677.873	0.0147952
677.951	0.0148804
678.030	0.0147183
678.108	0.0147929
678.186	0.0147805
678.264	0.0147784
678.342	0.0147678
678.420	0.0149159
678.498	0.0146776
678.576	0.0147650
678.655	0.0147511
678.733	0.0147443
678.811	0.0148422
678.889	0.0148645
678.967	0.0147507
679.045	0.0148013
679.123	0.0149109
679.201	0.0149716
679.280	0.0149613
679.358	0.0146705
679.436	0.0148751
679.514	0.0147993
679.592	0.0146172
679.670	0.0149009
679.748	0.0147556
679.826	0.0147398
679.905	0.0149176
679.983	0.0148462
680.061	0.0147575
680.139	0.0147818
680.217	0.0148460
680.295	0.0147662
680.373	0.0147881
680.451	0.0148100
680.530	0.0148138
680.608	0.0148475
680.686	0.0148179
680.764	0.0148378
680.842	0.0148557
680.920	0.0148505
680.998	0.0148455
681.076	0.0147551
681.155	0.0148631
681.233	0.0149917
681.311	0.0149513
681.389	0.0146478
681.467	0.0147984
681.545	0.0150116
681.623	0.0149181
681.701	0.0149696
681.780	0.0147253
681.858	0.0147915
681.936	0.0148690
682.014	0.0149707
682.092	0.0147687
682.170	0.0147760
682.248	0.0149287
682.326	0.0149907
682.405	0.0149376
682.483	0.0148448
682.561	0.0149023
682.639	0.0147479
682.717	0.0148965
682.795	0.0148151
682.873	0.0148251
682.951	0.0147707
683.030	0.0147112
683.108	0.0148532
683.186	0.0147433
683.264	0.0147891
683.342	0.0147594
683.420	0.0147973
683.498	0.0146944
683.576	0.0148646
683.655	0.0148055
683.733	0.0148107
683.811	0.0148721
683.889	0.0149148
683.967	0.0148389
684.045	0.0149133
684.123	0.0148803
684.201	0.0148145
684.280	0.0148273
684.358	0.0148244
684.436	0.0148257
684.514	0.0148659
684.592	0.0149364
684.670	0.0148690
684.748	0.0147937
684.826	0.0148213
684.905	0.0149067
684.983	0.0147807
685.061	0.0149541
685.139	0.0148351
685.217	0.0149169
685.295	0.0148840
685.373	0.0148847
685.451	0.0148569
685.530	0.0148323
685.608	0.0148776
685.686	0.0147861
685.764	0.0149165
685.842	0.0148380
685.920	0.0148241
685.998	0.0149760
686.076	0.0148119
686.155	0.0147299
686.233	0.0148404
686.311	0.0148907
686.389	0.0149363
686.467	0.0148279
686.545	0.0147334
686.623	0.0147842
686.701	0.0148785
686.780	0.0147731
686.858	0.0146471
686.936	0.0146745
687.014	0.0148952
687.092	0.0146825
687.170	0.0146155
687.248	0.0147318
687.326	0.0146220
687.405	0.0146404
687.483	0.0147572
687.561	0.0146861
687.639	0.0147415
687.717	0.0147831
687.795	0.0146946
687.873	0.0147594
687.951	0.0149506
688.030	0.0149186
688.108	0.0151945
688.186	0.0151434
688.264	0.0152588
688.342	0.0153611
688.420	0.0154715
688.498	0.0155533
688.576	0.0155832
688.655	0.0155759
688.733	0.0155128
688.811	0.0153391
688.889	0.0153571
688.967	0.0149143
689.045	0.0147008
689.123	0.0142547
689.201	0.0139415
689.280	0.0135741
689.358	0.0131978
689.436	0.0127463
689.514	0.0126180
689.592	0.0125434
689.670	0.0126573
689.748	0.0130105
689.826	0.0132838
689.905	0.0138779
689.983	0.0144983
690.061	0.0151269
690.139	0.0159602
690.217	0.0165886
690.295	0.0171734
690.373	0.0178762
690.451	0.0179867
690.530	0.0181615
690.608	0.0182617
690.686	0.0182265
690.764	0.0178824
690.842	0.0176289
690.920	0.0171384
690.998	0.0165826
691.076	0.0160029
691.155	0.0156440
691.233	0.0150088
691.311	0.0146244
691.389	0.0141900
691.467	0.0135999
691.545	0.0130865
691.623	0.0125538
691.701	0.0120364
691.780	0.0115506
691.858	0.0108836
691.936	0.0102917
692.014	0.00973679
692.092	0.00961197
692.170	0.00939804
692.248	0.00925591
692.326	0.00972771
692.405	0.0100164
692.483	0.0108052
692.561	0.0117944
692.639	0.0129095
692.717	0.0142937
692.795	0.0155980
692.873	0.0170976
692.951	0.0185699
693.030	0.0199256
693.108	0.0211510
693.186	0.0220883
693.264	0.0231171
693.342	0.0236465
693.420	0.0236926
693.498	0.0235431
693.576	0.0230559
693.655	0.0222775
693.733	0.0214751
693.811	0.0204044
693.889	0.0189389
693.967	0.0174859
694.045	0.0163242
694.123	0.0150035
694.201	0.0136120
694.280	0.0123714
694.358	0.0112128
694.436	0.0101879
694.514	0.00951897
694.592	0.00867050
694.670	0.00812073
694.748	0.00764290
694.826	0.00714317
694.905	0.00677643
694.983	0.00670204
695.061	0.00656929
695.139	0.00643829
695.217	0.00663795
695.295	0.00679405
695.373	0.00723495
695.451	0.00798988
695.530	0.00868317
695.608	0.00980766
695.686	0.0110761
695.764	0.0124516
695.842	0.0140371
695.920	0.0156657
695.998	0.0173752
696.076	0.0190156
696.155	0.0204494
696.233	0.0221092
696.311	0.0234241
696.389	0.0245281
696.467	0.0256770
696.545	0.0264433
696.623	0.0271093
696.701	0.0275201
696.780	0.0276539
696.858	0.0275274
696.936	0.0268810
697.014	0.0259805
697.092	0.0247044
697.170	0.0232096
697.248	0.0212411
697.326	0.0190213
697.405	0.0168192
697.483	0.0145555
697.561	0.0124635
697.639	0.0103071
697.717	0.00834267
697.795	0.00688660
697.873	0.00575966
697.951	0.00455795
698.030	0.00405334
698.108	0.00390656
698.186	0.00392105
698.264	0.00393242
698.342	0.00442627
698.420	0.00489601
698.498	0.00551468
698.576	0.00604698
698.655	0.00670006
698.733	0.00755638
698.811	0.00817650
698.889	0.00881371
698.967	0.00959465
699.045	0.0102917
699.123	0.0112177
699.201	0.0121743
699.280	0.0134567
699.358	0.0144930
699.436	0.0156989
699.514	0.0169469
699.592	0.0181803
699.670	0.0194878
699.748	0.0206597
699.826	0.0214929
699.905	0.0224443
699.983	0.0231814
700.061	0.0235728
700.139	0.0241373
700.217	0.0244884
700.295	0.0246512
700.373	0.0247479
700.451	0.0246558
700.530	0.0244862
700.608	0.0241384
700.686	0.0237188
700.764	0.0231159
700.842	0.0223562
700.920	0.0213620
700.998	0.0202165
701.076	0.0188914
701.155	0.0174088
701.233	0.0159004
701.311	0.0143494
701.389	0.0127986
701.467	0.0109401
701.545	0.00957230
701.623	0.00835228
701.701	0.00709702
701.780	0.00642891
701.858	0.00598671
701.936	0.00565948
702.014	0.00543938
702.092	0.00569679
702.170	0.00615082
702.248	0.00655991
702.326	0.00710045
702.405	0.00772278
702.483	0.00835426
702.561	0.00886490
702.639	0.00945862
702.717	0.0100275
702.795	0.0105633
702.873	0.0109908
702.951	0.0114377
703.030	0.0118327
703.108	0.0123586
703.186	0.0128346
703.264	0.0133891
703.342	0.0139219
703.420	0.0146718
703.498	0.0155246
703.576	0.0163367
703.655	0.0172638
703.733	0.0183421
703.811	0.0193141
703.889	0.0201215
703.967	0.0209905
704.045	0.0217992
704.123	0.0225462
704.201	0.0232781
704.280	0.0237537
704.358	0.0238342
704.436	0.0238406
704.514	0.0237028
704.592	0.0234789
704.670	0.0227876
704.748	0.0222018
704.826	0.0214744
704.905	0.0204580
704.983	0.0194795
705.061	0.0182932
705.139	0.0171559
705.217	0.0158298
705.295	0.0146725
705.373	0.0135532
705.451	0.0124176
705.530	0.0110928
705.608	0.00990997
705.686	0.00905876
705.764	0.00831352
705.842	0.00778099
705.920	0.00745621
705.998	0.00717812
706.076	0.00758575
706.155	0.00763130
706.233	0.00803421
706.311	0.00861145
706.389	0.00922050
706.467	0.0100494
706.545	0.0106638
706.623	0.0112535
706.701	0.0118813
706.780	0.0124677
706.858	0.0129250
706.936	0.0133525
707.014	0.0136585
707.092	0.0140676
707.170	0.0144240
707.248	0.0146311
707.326	0.0150124
707.405	0.0153452
707.483	0.0157036
707.561	0.0162563
707.639	0.0165059
707.717	0.0169749
707.795	0.0175387
707.873	0.0178291
707.951	0.0181448
708.030	0.0184745
708.108	0.0188725
708.186	0.0189861
708.264	0.0192196
708.342	0.0192634
708.420	0.0193944
708.498	0.0194124
708.576	0.0189999
708.655	0.0186596
708.733	0.0182262
708.811	0.0179239
708.889	0.0174500
708.967	0.0169173
709.045	0.0163391
709.123	0.0159085
709.201	0.0153770
709.280	0.0148138
709.358	0.0142162
709.436	0.0136767
709.514	0.0131143
709.592	0.0125684
709.670	0.0119836
709.748	0.0114869
709.826	0.0113277
709.905	0.0110993
709.983	0.0109277
710.061	0.0109220
710.139	0.0110276
710.217	0.0114746
710.295	0.0116673
710.373	0.0120708
710.451	0.0125994
710.530	0.0132505
710.608	0.0137457
710.686	0.0142133
710.764	0.0146212
710.842	0.0150180
710.920	0.0154643
710.998	0.0158011
711.076	0.0159572
711.155	0.0160942
711.233	0.0161485
711.311	0.0159534
711.389	0.0160529
711.467	0.0158960
711.545	0.0158994
711.623	0.0158305
711.701	0.0158133
711.780	0.0159335
711.858	0.0160033
711.936	0.0160877
712.014	0.0162158
712.092	0.0163320
712.170	0.0162508
712.248	0.0162689
712.326	0.0163078
712.405	0.0161539
712.483	0.0160427
712.561	0.0158930
712.639	0.0156602
712.717	0.0155437
712.795	0.0153701
712.873	0.0150974
712.951	0.0148849
713.030	0.0146609
713.108	0.0144550
713.186	0.0140664
713.264	0.0139017
713.342	0.0137479
713.420	0.0136839
713.498	0.0133015
713.576	0.0131590
713.655	0.0131949
713.733	0.0131211
713.811	0.0128513
713.889	0.0128830
713.967	0.0127769
714.045	0.0129074
714.123	0.0129255
714.201	0.0129095
714.280	0.0132389
714.358	0.0134462
714.436	0.0138934
714.514	0.0140601
714.592	0.0143519
714.670	0.0147987
714.748	0.0153617
714.826	0.0155445
714.905	0.0156242
714.983	0.0159010
715.061	0.0160625
715.139	0.0160160
715.217	0.0160968
715.295	0.0161005
715.373	0.0160363
715.451	0.0160677
715.530	0.0158698
715.608	0.0158332
715.686	0.0157912
715.764	0.0157787
715.842	0.0158582
715.920	0.0159304
715.998	0.0157520
716.076	0.0158367
716.155	0.0158076
716.233	0.0157428
716.311	0.0158883
716.389	0.0156951
716.467	0.0154649
716.545	0.0153300
716.623	0.0152937
716.701	0.0150410
716.780	0.0149174
716.858	0.0146934
716.936	0.0146098
717.014	0.0144489
717.092	0.0141738
717.170	0.0142306
717.248	0.0141445
717.326	0.0141862
717.405	0.0140363
717.483	0.0140066
717.561	0.0140536
717.639	0.0141361
717.717	0.0141274
717.795	0.0141328
717.873	0.0140260
717.951	0.0141852
718.030	0.0141610
718.108	0.0141740
718.186	0.0141362
718.264	0.0143269
718.342	0.0144939
718.420	0.0146161
718.498	0.0147668
718.576	0.0148026
718.655	0.0150482
718.733	0.0153876
718.811	0.0154905
718.889	0.0153477
718.967	0.0154483
719.045	0.0154535
719.123	0.0154218
719.201	0.0152855
719.280	0.0150768
719.358	0.0150916
719.436	0.0148658
719.514	0.0147876
719.592	0.0147860
719.670	0.0145856
719.748	0.0146017
719.826	0.0145198
719.905	0.0142056
719.983	0.0142248
720.061	0.0143757
720.139	0.0142085
720.217	0.0143602
720.295	0.0142761
720.373	0.0143715
720.451	0.0145104
720.530	0.0145464
720.608	0.0145653
720.686	0.0145855
720.764	0.0145818
720.842	0.0146596
720.920	0.0148471
720.998	0.0149111
721.076	0.0148553
721.155	0.0149650
721.233	0.0150441
721.311	0.0151540
721.389	0.0152353
721.467	0.0153538
721.545	0.0154266
721.623	0.0154912
721.701	0.0155175
721.780	0.0155914
721.858	0.0156345
721.936	0.0156484
722.014	0.0156419
722.092	0.0156831
722.170	0.0155767
722.248	0.0155453
722.326	0.0155149
722.405	0.0156896
722.483	0.0156097
722.561	0.0153918
722.639	0.0151739
722.717	0.0152753
722.795	0.0151367
722.873	0.0149342
722.951	0.0147123
723.030	0.0145729
723.108	0.0143290
723.186	0.0142974
723.264	0.0141515
723.342	0.0138612
723.420	0.0137701
723.498	0.0137572
723.576	0.0138931
723.655	0.0137673
723.733	0.0138362
723.811	0.0140339
723.889	0.0141321
723.967	0.0142033
724.045	0.0143656
724.123	0.0146297
724.201	0.0150343
724.280	0.0150746
724.358	0.0152352
724.436	0.0152751
724.514	0.0154271
724.592	0.0153703
724.670	0.0154552
724.748	0.0153973
724.826	0.0153288
724.905	0.0150257
724.983	0.0149057
725.061	0.0148787
725.139	0.0147196
725.217	0.0145843
725.295	0.0143624
725.373	0.0144678
725.451	0.0142285
