05/20/2022	16:10:26	Ver.	4.1	UNKNOWN
Optical Delay	639.982744	Delta X		0.078125	Sweeps	1	Scan Rate	0/0
Coordinates	Axis 1	NaN	Axis 2	NaN	Axis 3	NaN	Axis 4	NaN	Axis 5	NaN	Axis 6	0.000000
TX Power	0.000000	RX Power	0.000000

639.983	0.0144588
640.061	0.0144704
640.139	0.0144530
640.217	0.0144796
640.295	0.0144357
640.373	0.0145256
640.451	0.0145282
640.530	0.0144037
640.608	0.0143784
640.686	0.0144355
640.764	0.0145032
640.842	0.0144776
640.920	0.0144669
640.998	0.0144700
641.076	0.0144417
641.155	0.0145686
641.233	0.0144977
641.311	0.0145356
641.389	0.0144669
641.467	0.0144521
641.545	0.0144814
641.623	0.0144450
641.701	0.0145946
641.780	0.0146367
641.858	0.0145976
641.936	0.0146017
642.014	0.0143420
642.092	0.0144926
642.170	0.0146216
642.248	0.0144627
642.326	0.0143904
642.405	0.0145895
642.483	0.0144695
642.561	0.0145537
642.639	0.0145197
642.717	0.0144246
642.795	0.0143883
642.873	0.0145575
642.951	0.0144401
643.030	0.0145779
643.108	0.0144788
643.186	0.0144048
643.264	0.0145205
643.342	0.0145133
643.420	0.0143913
643.498	0.0144524
643.576	0.0145753
643.655	0.0143147
643.733	0.0145090
643.811	0.0145168
643.889	0.0144926
643.967	0.0145192
644.045	0.0144585
644.123	0.0144977
644.201	0.0144157
644.280	0.0144800
644.358	0.0144867
644.436	0.0145502
644.514	0.0145087
644.592	0.0144753
644.670	0.0144369
644.748	0.0143703
644.826	0.0144283
644.905	0.0144775
644.983	0.0143920
645.061	0.0146252
645.139	0.0145171
645.217	0.0144653
645.295	0.0145436
645.373	0.0144363
645.451	0.0145676
645.530	0.0144632
645.608	0.0144798
645.686	0.0144324
645.764	0.0145042
645.842	0.0144965
645.920	0.0145164
645.998	0.0145502
646.076	0.0145108
646.155	0.0144851
646.233	0.0145101
646.311	0.0145378
646.389	0.0144411
646.467	0.0145135
646.545	0.0145148
646.623	0.0144199
646.701	0.0144093
646.780	0.0144910
646.858	0.0143699
646.936	0.0144891
647.014	0.0144678
647.092	0.0144260
647.170	0.0145219
647.248	0.0145441
647.326	0.0144144
647.405	0.0144436
647.483	0.0145036
647.561	0.0144908
647.639	0.0144179
647.717	0.0146591
647.795	0.0143811
647.873	0.0145470
647.951	0.0144005
648.030	0.0145097
648.108	0.0144099
648.186	0.0145988
648.264	0.0144668
648.342	0.0144818
648.420	0.0145392
648.498	0.0144521
648.576	0.0145174
648.655	0.0145814
648.733	0.0145694
648.811	0.0146591
648.889	0.0145555
648.967	0.0143156
649.045	0.0144453
649.123	0.0146449
649.201	0.0144343
649.280	0.0144720
649.358	0.0144149
649.436	0.0145177
649.514	0.0144476
649.592	0.0145231
649.670	0.0146922
649.748	0.0145370
649.826	0.0144411
649.905	0.0145037
649.983	0.0145608
650.061	0.0145159
650.139	0.0145456
650.217	0.0145628
650.295	0.0144648
650.373	0.0144921
650.451	0.0145025
650.530	0.0145934
650.608	0.0145506
650.686	0.0146016
650.764	0.0145011
650.842	0.0144163
650.920	0.0143639
650.998	0.0145249
651.076	0.0144606
651.155	0.0145590
651.233	0.0145082
651.311	0.0146007
651.389	0.0144507
651.467	0.0145512
651.545	0.0144619
651.623	0.0143723
651.701	0.0146135
651.780	0.0146651
651.858	0.0144628
651.936	0.0145883
652.014	0.0146285
652.092	0.0144966
652.170	0.0145673
652.248	0.0144202
652.326	0.0144777
652.405	0.0144741
652.483	0.0144570
652.561	0.0145161
652.639	0.0144133
652.717	0.0144725
652.795	0.0145423
652.873	0.0144033
652.951	0.0144987
653.030	0.0145431
653.108	0.0145325
653.186	0.0144040
653.264	0.0144960
653.342	0.0144891
653.420	0.0144579
653.498	0.0144688
653.576	0.0144812
653.655	0.0144134
653.733	0.0145463
653.811	0.0145024
653.889	0.0142577
653.967	0.0144929
654.045	0.0146086
654.123	0.0144313
654.201	0.0145805
654.280	0.0145434
654.358	0.0144904
654.436	0.0145910
654.514	0.0144919
654.592	0.0145123
654.670	0.0143920
654.748	0.0144880
654.826	0.0145966
654.905	0.0145452
654.983	0.0144309
655.061	0.0146021
655.139	0.0145177
655.217	0.0144890
655.295	0.0145287
655.373	0.0144781
655.451	0.0145317
655.530	0.0144843
655.608	0.0144456
655.686	0.0145615
655.764	0.0144735
655.842	0.0143376
655.920	0.0144254
655.998	0.0144938
656.076	0.0144049
656.155	0.0144874
656.233	0.0145071
656.311	0.0144674
656.389	0.0144118
656.467	0.0144199
656.545	0.0146664
656.623	0.0144597
656.701	0.0145348
656.780	0.0144555
656.858	0.0143991
656.936	0.0144639
657.014	0.0144304
657.092	0.0144960
657.170	0.0145427
657.248	0.0145238
657.326	0.0143974
657.405	0.0143729
657.483	0.0145903
657.561	0.0143739
657.639	0.0145126
657.717	0.0144464
657.795	0.0145100
657.873	0.0144624
657.951	0.0144492
658.030	0.0145930
658.108	0.0144615
658.186	0.0144245
658.264	0.0145747
658.342	0.0144902
658.420	0.0144835
658.498	0.0144662
658.576	0.0146516
658.655	0.0145340
658.733	0.0144310
658.811	0.0145049
658.889	0.0145840
658.967	0.0144080
659.045	0.0144153
659.123	0.0144366
659.201	0.0145852
659.280	0.0145979
659.358	0.0146286
659.436	0.0145580
659.514	0.0145155
659.592	0.0144154
659.670	0.0145566
659.748	0.0145211
659.826	0.0144637
659.905	0.0146142
659.983	0.0143718
660.061	0.0144956
660.139	0.0145886
660.217	0.0145317
660.295	0.0144370
660.373	0.0145507
660.451	0.0144443
660.530	0.0143883
660.608	0.0144933
660.686	0.0145967
660.764	0.0144236
660.842	0.0144140
660.920	0.0144265
660.998	0.0145478
661.076	0.0144296
661.155	0.0144502
661.233	0.0145720
661.311	0.0143796
661.389	0.0145223
661.467	0.0145004
661.545	0.0144388
661.623	0.0144128
661.701	0.0144086
661.780	0.0144254
661.858	0.0144342
661.936	0.0144202
662.014	0.0143181
662.092	0.0144569
662.170	0.0144490
662.248	0.0144591
662.326	0.0144561
662.405	0.0144526
662.483	0.0144954
662.561	0.0144705
662.639	0.0144305
662.717	0.0143937
662.795	0.0144867
662.873	0.0144180
662.951	0.0145564
663.030	0.0145061
663.108	0.0144776
663.186	0.0145694
663.264	0.0145618
663.342	0.0144328
663.420	0.0144335
663.498	0.0143221
663.576	0.0144653
663.655	0.0145174
663.733	0.0144743
663.811	0.0145486
663.889	0.0143809
663.967	0.0144846
664.045	0.0145059
664.123	0.0144020
664.201	0.0143494
664.280	0.0144668
664.358	0.0143913
664.436	0.0145203
664.514	0.0144144
664.592	0.0145022
664.670	0.0144979
664.748	0.0144571
664.826	0.0144903
664.905	0.0144215
664.983	0.0144031
665.061	0.0144226
665.139	0.0145541
665.217	0.0144665
665.295	0.0144537
665.373	0.0144477
665.451	0.0143839
665.530	0.0144969
665.608	0.0144991
665.686	0.0145630
665.764	0.0144387
665.842	0.0144822
665.920	0.0144683
665.998	0.0143880
666.076	0.0145242
666.155	0.0145065
666.233	0.0145818
666.311	0.0145480
666.389	0.0143877
666.467	0.0144915
666.545	0.0144534
666.623	0.0145029
666.701	0.0144675
666.780	0.0144044
666.858	0.0144084
666.936	0.0146198
667.014	0.0144349
667.092	0.0144689
667.170	0.0144666
667.248	0.0146027
667.326	0.0144051
667.405	0.0145112
667.483	0.0145564
667.561	0.0145485
667.639	0.0145045
667.717	0.0144096
667.795	0.0145200
667.873	0.0145366
667.951	0.0143880
668.030	0.0144167
668.108	0.0145463
668.186	0.0144974
668.264	0.0145265
668.342	0.0145554
668.420	0.0145001
668.498	0.0144881
668.576	0.0144511
668.655	0.0146046
668.733	0.0145686
668.811	0.0144068
668.889	0.0146011
668.967	0.0144328
669.045	0.0144015
669.123	0.0144271
669.201	0.0144137
669.280	0.0146245
669.358	0.0145686
669.436	0.0144221
669.514	0.0143806
669.592	0.0144279
669.670	0.0143727
669.748	0.0146152
669.826	0.0145757
669.905	0.0144341
669.983	0.0145301
670.061	0.0145695
670.139	0.0144015
670.217	0.0146185
670.295	0.0145905
670.373	0.0144661
670.451	0.0145219
670.530	0.0145325
670.608	0.0144827
670.686	0.0144726
670.764	0.0145637
670.842	0.0144762
670.920	0.0144888
670.998	0.0146169
671.076	0.0147228
671.155	0.0145363
671.233	0.0144556
671.311	0.0146164
671.389	0.0144923
671.467	0.0144994
671.545	0.0144711
671.623	0.0145718
671.701	0.0144543
671.780	0.0144906
671.858	0.0145859
671.936	0.0144955
672.014	0.0144920
672.092	0.0144655
672.170	0.0145810
672.248	0.0146088
672.326	0.0145380
672.405	0.0145512
672.483	0.0145071
672.561	0.0144839
672.639	0.0146344
672.717	0.0145487
672.795	0.0145575
672.873	0.0145222
672.951	0.0145338
673.030	0.0146331
673.108	0.0145145
673.186	0.0144669
673.264	0.0145490
673.342	0.0145675
673.420	0.0145734
673.498	0.0145542
673.576	0.0145696
673.655	0.0144134
673.733	0.0144511
673.811	0.0143848
673.889	0.0146900
673.967	0.0146786
674.045	0.0143758
674.123	0.0144437
674.201	0.0145708
674.280	0.0144614
674.358	0.0144151
674.436	0.0145278
674.514	0.0145510
674.592	0.0145692
674.670	0.0144971
674.748	0.0145998
674.826	0.0144350
674.905	0.0146216
674.983	0.0145045
675.061	0.0145745
675.139	0.0145177
675.217	0.0145082
675.295	0.0145274
675.373	0.0146522
675.451	0.0144993
675.530	0.0145515
675.608	0.0144564
675.686	0.0144975
675.764	0.0145102
675.842	0.0144662
675.920	0.0144485
675.998	0.0143998
676.076	0.0144865
676.155	0.0144431
676.233	0.0142784
676.311	0.0144386
676.389	0.0146343
676.467	0.0144373
676.545	0.0143429
676.623	0.0142937
676.701	0.0145122
676.780	0.0145584
676.858	0.0144651
676.936	0.0144659
677.014	0.0144882
677.092	0.0144656
677.170	0.0144559
677.248	0.0145081
677.326	0.0144230
677.405	0.0144190
677.483	0.0143674
677.561	0.0145251
677.639	0.0145326
677.717	0.0143736
677.795	0.0143676
677.873	0.0144833
677.951	0.0145692
678.030	0.0145897
678.108	0.0145513
678.186	0.0143796
678.264	0.0145014
678.342	0.0144609
678.420	0.0143638
678.498	0.0145171
678.576	0.0143827
678.655	0.0144694
678.733	0.0145762
678.811	0.0146152
678.889	0.0145094
678.967	0.0144175
679.045	0.0144652
679.123	0.0144595
679.201	0.0147195
679.280	0.0145712
679.358	0.0144469
679.436	0.0144555
679.514	0.0144855
679.592	0.0144511
679.670	0.0144332
679.748	0.0143845
679.826	0.0144517
679.905	0.0144727
679.983	0.0144943
680.061	0.0144750
680.139	0.0143939
680.217	0.0145786
680.295	0.0145190
680.373	0.0144143
680.451	0.0144315
680.530	0.0144484
680.608	0.0143719
680.686	0.0144279
680.764	0.0144491
680.842	0.0143948
680.920	0.0144777
680.998	0.0145257
681.076	0.0145412
681.155	0.0144105
681.233	0.0145443
681.311	0.0144149
681.389	0.0145541
681.467	0.0144541
681.545	0.0144949
681.623	0.0145538
681.701	0.0144931
681.780	0.0144601
681.858	0.0145806
681.936	0.0145169
682.014	0.0144453
682.092	0.0144145
682.170	0.0145760
682.248	0.0144557
682.326	0.0144744
682.405	0.0143380
682.483	0.0143526
682.561	0.0143556
682.639	0.0143808
682.717	0.0145019
682.795	0.0144155
682.873	0.0145274
682.951	0.0144616
683.030	0.0143800
683.108	0.0144477
683.186	0.0144490
683.264	0.0144214
683.342	0.0145419
683.420	0.0144571
683.498	0.0144563
683.576	0.0144302
683.655	0.0143169
683.733	0.0144455
683.811	0.0145173
683.889	0.0144485
683.967	0.0143372
684.045	0.0144416
684.123	0.0145497
684.201	0.0145555
684.280	0.0146102
684.358	0.0146171
684.436	0.0144681
684.514	0.0145103
684.592	0.0144182
684.670	0.0144281
684.748	0.0144877
684.826	0.0145818
684.905	0.0144485
684.983	0.0145710
685.061	0.0144813
685.139	0.0143594
685.217	0.0144892
685.295	0.0145581
685.373	0.0146644
685.451	0.0144414
685.530	0.0144759
685.608	0.0145201
685.686	0.0143703
685.764	0.0143670
685.842	0.0145539
685.920	0.0145124
685.998	0.0145061
686.076	0.0145908
686.155	0.0143571
686.233	0.0143182
686.311	0.0144424
686.389	0.0145435
686.467	0.0144056
686.545	0.0143987
686.623	0.0144929
686.701	0.0145557
686.780	0.0144799
686.858	0.0143920
686.936	0.0143596
687.014	0.0144388
687.092	0.0145471
687.170	0.0144411
687.248	0.0143925
687.326	0.0144700
687.405	0.0145042
687.483	0.0146172
687.561	0.0146684
687.639	0.0146929
687.717	0.0147582
687.795	0.0148245
687.873	0.0149170
687.951	0.0146696
688.030	0.0148561
688.108	0.0149185
688.186	0.0148200
688.264	0.0147025
688.342	0.0146236
688.420	0.0145427
688.498	0.0144491
688.576	0.0143987
688.655	0.0141853
688.733	0.0139342
688.811	0.0137769
688.889	0.0136587
688.967	0.0136370
689.045	0.0134623
689.123	0.0133943
689.201	0.0134724
689.280	0.0135538
689.358	0.0135818
689.436	0.0137140
689.514	0.0138857
689.592	0.0142612
689.670	0.0145884
689.748	0.0149702
689.826	0.0153850
689.905	0.0156289
689.983	0.0161356
690.061	0.0163954
690.139	0.0166662
690.217	0.0169184
690.295	0.0172444
690.373	0.0171315
690.451	0.0169800
690.530	0.0167380
690.608	0.0165122
690.686	0.0159842
690.764	0.0153751
690.842	0.0148242
690.920	0.0142823
690.998	0.0135947
691.076	0.0129536
691.155	0.0124463
691.233	0.0118536
691.311	0.0114287
691.389	0.0111979
691.467	0.0109135
691.545	0.0108949
691.623	0.0108787
691.701	0.0109057
691.780	0.0110443
691.858	0.0111730
691.936	0.0114083
692.014	0.0117941
692.092	0.0121520
692.170	0.0127158
692.248	0.0132518
692.326	0.0137124
692.405	0.0145069
692.483	0.0155012
692.561	0.0163995
692.639	0.0171613
692.717	0.0182134
692.795	0.0189580
692.873	0.0195089
692.951	0.0201691
693.030	0.0204707
693.108	0.0207912
693.186	0.0205210
693.264	0.0202982
693.342	0.0199407
693.420	0.0194393
693.498	0.0185891
693.576	0.0176234
693.655	0.0170787
693.733	0.0160128
693.811	0.0150651
693.889	0.0143492
693.967	0.0135271
694.045	0.0127527
694.123	0.0120183
694.201	0.0112292
694.280	0.0105070
694.358	0.00977760
694.436	0.00922424
694.514	0.00870186
694.592	0.00819298
694.670	0.00777481
694.748	0.00765793
694.826	0.00750008
694.905	0.00742668
694.983	0.00769348
695.061	0.00796959
695.139	0.00858490
695.217	0.00942001
695.295	0.0103202
695.373	0.0111426
695.451	0.0123618
695.530	0.0134528
695.608	0.0146362
695.686	0.0158247
695.764	0.0169939
695.842	0.0180343
695.920	0.0189503
695.998	0.0195837
696.076	0.0204450
696.155	0.0209490
696.233	0.0216444
696.311	0.0223461
696.389	0.0228152
696.467	0.0233018
696.545	0.0235252
696.623	0.0237730
696.701	0.0238622
696.780	0.0235100
696.858	0.0229555
696.936	0.0222797
697.014	0.0213475
697.092	0.0200159
697.170	0.0184680
697.248	0.0167225
697.326	0.0150523
697.405	0.0132406
697.483	0.0116273
697.561	0.0100021
697.639	0.00869057
697.717	0.00766846
697.795	0.00695137
697.873	0.00630333
697.951	0.00614281
698.030	0.00630333
698.108	0.00636993
698.186	0.00663216
698.264	0.00713615
698.342	0.00758263
698.420	0.00812439
698.498	0.00851524
698.576	0.00872704
698.655	0.00896126
698.733	0.00916985
698.811	0.00925827
698.889	0.00923492
698.967	0.00944199
699.045	0.00972923
699.123	0.0101230
699.201	0.0108024
699.280	0.0114104
699.358	0.0123170
699.436	0.0132687
699.514	0.0144967
699.592	0.0154929
699.670	0.0169852
699.748	0.0182854
699.826	0.0194068
699.905	0.0205329
699.983	0.0216151
700.061	0.0226346
700.139	0.0233891
700.217	0.0242080
700.295	0.0247919
700.373	0.0253298
700.451	0.0255327
700.530	0.0257864
700.608	0.0257553
700.686	0.0255668
700.764	0.0249647
700.842	0.0244850
700.920	0.0236019
700.998	0.0224165
701.076	0.0211158
701.155	0.0195351
701.233	0.0178204
701.311	0.0159600
701.389	0.0142771
701.467	0.0121103
701.545	0.0102252
701.623	0.00827278
701.701	0.00666016
701.780	0.00517906
701.858	0.00426155
701.936	0.00343216
702.014	0.00283058
702.092	0.00273102
702.170	0.00291191
702.248	0.00328957
702.326	0.00386978
702.405	0.00454086
702.483	0.00538467
702.561	0.00635483
702.639	0.00725639
702.717	0.00826637
702.795	0.00920074
702.873	0.0100011
702.951	0.0108919
703.030	0.0115114
703.108	0.0119584
703.186	0.0126626
703.264	0.0131555
703.342	0.0134666
703.420	0.0141134
703.498	0.0146166
703.576	0.0152105
703.655	0.0159647
703.733	0.0168008
703.811	0.0177085
703.889	0.0184874
703.967	0.0194779
704.045	0.0205350
704.123	0.0213834
704.201	0.0221933
704.280	0.0228840
704.358	0.0234643
704.436	0.0237136
704.514	0.0239991
704.592	0.0240974
704.670	0.0240018
704.748	0.0237788
704.826	0.0234371
704.905	0.0229502
704.983	0.0223859
705.061	0.0217796
705.139	0.0210326
705.217	0.0201723
705.295	0.0193729
705.373	0.0182355
705.451	0.0169924
705.530	0.0156979
705.608	0.0144072
705.686	0.0129699
705.764	0.0113280
705.842	0.0100542
705.920	0.00862541
705.998	0.00717766
706.076	0.00621239
706.155	0.00537636
706.233	0.00460991
706.311	0.00421341
706.389	0.00382027
706.467	0.00392250
706.545	0.00424149
706.623	0.00477356
706.701	0.00545120
706.780	0.00626450
706.858	0.00757874
706.936	0.00864571
707.014	0.00972237
707.092	0.0108890
707.170	0.0121214
707.248	0.0129922
707.326	0.0137094
707.405	0.0145065
707.483	0.0152982
707.561	0.0156144
707.639	0.0159583
707.717	0.0164257
707.795	0.0164050
707.873	0.0165629
707.951	0.0169500
708.030	0.0169985
708.108	0.0172900
708.186	0.0176862
708.264	0.0178365
708.342	0.0183002
708.420	0.0185345
708.498	0.0187927
708.576	0.0189600
708.655	0.0191183
708.733	0.0195030
708.811	0.0195586
708.889	0.0197555
708.967	0.0197201
709.045	0.0196292
709.123	0.0194111
709.201	0.0190765
709.280	0.0188760
709.358	0.0185758
709.436	0.0181884
709.514	0.0175992
709.592	0.0170698
709.670	0.0164078
709.748	0.0157912
709.826	0.0151936
709.905	0.0144482
709.983	0.0137858
710.061	0.0128354
710.139	0.0121938
710.217	0.0115279
710.295	0.0111185
710.373	0.0105893
710.451	0.0102786
710.530	0.00986618
710.608	0.00974350
710.686	0.00969933
710.764	0.00960976
710.842	0.00984238
710.920	0.00988869
710.998	0.00999947
711.076	0.0105196
711.155	0.0110309
711.233	0.0114925
711.311	0.0118122
711.389	0.0123019
711.467	0.0129764
711.545	0.0136593
711.623	0.0142341
711.701	0.0147590
711.780	0.0152074
711.858	0.0156326
711.936	0.0157867
712.014	0.0161679
712.092	0.0161189
712.170	0.0161065
712.248	0.0158621
712.326	0.0157322
712.405	0.0157520
712.483	0.0153514
712.561	0.0151927
712.639	0.0150542
712.717	0.0148497
712.795	0.0149358
712.873	0.0151380
712.951	0.0151218
713.030	0.0151895
713.108	0.0152822
713.186	0.0156726
713.264	0.0158956
713.342	0.0160165
713.420	0.0161101
713.498	0.0161143
713.576	0.0161507
713.655	0.0159592
713.733	0.0158242
713.811	0.0155253
713.889	0.0154202
713.967	0.0151012
714.045	0.0148162
714.123	0.0147356
714.201	0.0143732
714.280	0.0140634
714.358	0.0140608
714.436	0.0139633
714.514	0.0137078
714.592	0.0135813
714.670	0.0135857
714.748	0.0136051
714.826	0.0136263
714.905	0.0134444
714.983	0.0136160
715.061	0.0136332
715.139	0.0135838
715.217	0.0136102
715.295	0.0138013
715.373	0.0138283
715.451	0.0136932
715.530	0.0139102
715.608	0.0140247
715.686	0.0139362
715.764	0.0141113
715.842	0.0142513
715.920	0.0145220
715.998	0.0147180
716.076	0.0148267
716.155	0.0149563
716.233	0.0151821
716.311	0.0152548
716.389	0.0155089
716.467	0.0153938
716.545	0.0153697
716.623	0.0152465
716.701	0.0150912
716.780	0.0149563
716.858	0.0147873
716.936	0.0145866
717.014	0.0142678
717.092	0.0140853
717.170	0.0139388
717.248	0.0138123
717.326	0.0140509
717.405	0.0139736
717.483	0.0141733
717.561	0.0143189
717.639	0.0145127
717.717	0.0147774
717.795	0.0150796
717.873	0.0150247
717.951	0.0151524
718.030	0.0151715
718.108	0.0151994
718.186	0.0150834
718.264	0.0149934
718.342	0.0150624
718.420	0.0148634
718.498	0.0146708
718.576	0.0145512
718.655	0.0144675
718.733	0.0144707
718.811	0.0144775
718.889	0.0144415
718.967	0.0143903
719.045	0.0143612
719.123	0.0142574
719.201	0.0141912
719.280	0.0142185
719.358	0.0142003
719.436	0.0140853
719.514	0.0141267
719.592	0.0138387
719.670	0.0138797
719.748	0.0135767
719.826	0.0136879
719.905	0.0136704
719.983	0.0134120
720.061	0.0134290
720.139	0.0133128
720.217	0.0135222
720.295	0.0136317
720.373	0.0136858
720.451	0.0138493
720.530	0.0140165
720.608	0.0142705
720.686	0.0144716
720.764	0.0146542
720.842	0.0148902
720.920	0.0151324
720.998	0.0151497
721.076	0.0149709
721.155	0.0153316
721.233	0.0152499
721.311	0.0152422
721.389	0.0150822
721.467	0.0150906
721.545	0.0149851
721.623	0.0149154
721.701	0.0149671
721.780	0.0149688
721.858	0.0149347
721.936	0.0150250
722.014	0.0150481
722.092	0.0150793
722.170	0.0150799
722.248	0.0153586
722.326	0.0153185
722.405	0.0151958
722.483	0.0153002
722.561	0.0153622
722.639	0.0151835
722.717	0.0152170
722.795	0.0150999
722.873	0.0149399
722.951	0.0147365
723.030	0.0145786
723.108	0.0145614
723.186	0.0142800
723.264	0.0141841
723.342	0.0140607
723.420	0.0140242
723.498	0.0136292
723.576	0.0137068
723.655	0.0136712
723.733	0.0136102
723.811	0.0137728
723.889	0.0137823
723.967	0.0139378
724.045	0.0140463
724.123	0.0141282
724.201	0.0142459
724.280	0.0142358
724.358	0.0143303
724.436	0.0144128
724.514	0.0143274
724.592	0.0143076
724.670	0.0144660
724.748	0.0144501
724.826	0.0144405
724.905	0.0143622
724.983	0.0144070
725.061	0.0143360
725.139	0.0143745
725.217	0.0143534
725.295	0.0143516
725.373	0.0143731
