05/20/2022	16:12:36	Ver.	4.1	UNKNOWN
Optical Delay	639.982744	Delta X		0.078125	Sweeps	1	Scan Rate	0/0
Coordinates	Axis 1	NaN	Axis 2	NaN	Axis 3	NaN	Axis 4	NaN	Axis 5	NaN	Axis 6	0.000000
TX Power	0.000000	RX Power	0.000000

639.983	0.0146483
640.061	0.0146985
640.139	0.0146902
640.217	0.0145716
640.295	0.0146935
640.373	0.0145729
640.451	0.0145460
640.530	0.0146821
640.608	0.0145712
640.686	0.0147378
640.764	0.0146657
640.842	0.0145522
640.920	0.0146671
640.998	0.0145280
641.076	0.0146742
641.155	0.0147549
641.233	0.0146239
641.311	0.0146964
641.389	0.0145495
641.467	0.0146259
641.545	0.0147160
641.623	0.0147031
641.701	0.0146368
641.780	0.0146334
641.858	0.0145426
641.936	0.0147108
642.014	0.0146502
642.092	0.0145368
642.170	0.0146293
642.248	0.0146268
642.326	0.0145069
642.405	0.0145478
642.483	0.0147588
642.561	0.0146834
642.639	0.0146492
642.717	0.0145844
642.795	0.0146665
642.873	0.0146502
642.951	0.0146453
643.030	0.0146306
643.108	0.0145807
643.186	0.0145757
643.264	0.0146987
643.342	0.0145870
643.420	0.0148450
643.498	0.0146676
643.576	0.0146455
643.655	0.0144831
643.733	0.0144921
643.811	0.0144698
643.889	0.0144501
643.967	0.0146552
644.045	0.0146834
644.123	0.0144778
644.201	0.0145001
644.280	0.0147083
644.358	0.0147960
644.436	0.0146461
644.514	0.0145344
644.592	0.0145660
644.670	0.0147711
644.748	0.0147392
644.826	0.0147551
644.905	0.0145348
644.983	0.0145435
645.061	0.0146558
645.139	0.0145979
645.217	0.0145902
645.295	0.0146883
645.373	0.0146886
645.451	0.0146692
645.530	0.0147198
645.608	0.0146098
645.686	0.0146101
645.764	0.0146369
645.842	0.0145317
645.920	0.0145446
645.998	0.0146302
646.076	0.0145304
646.155	0.0147334
646.233	0.0146525
646.311	0.0146500
646.389	0.0146589
646.467	0.0146270
646.545	0.0145371
646.623	0.0147033
646.701	0.0145712
646.780	0.0146082
646.858	0.0146664
646.936	0.0145494
647.014	0.0146809
647.092	0.0146206
647.170	0.0145599
647.248	0.0145102
647.326	0.0145219
647.405	0.0146329
647.483	0.0145621
647.561	0.0145671
647.639	0.0146883
647.717	0.0145863
647.795	0.0146516
647.873	0.0145625
647.951	0.0145788
648.030	0.0146355
648.108	0.0145280
648.186	0.0147248
648.264	0.0146980
648.342	0.0145830
648.420	0.0145680
648.498	0.0146044
648.576	0.0147078
648.655	0.0145563
648.733	0.0146851
648.811	0.0146706
648.889	0.0146983
648.967	0.0146912
649.045	0.0146841
649.123	0.0146623
649.201	0.0147048
649.280	0.0146441
649.358	0.0146382
649.436	0.0145589
649.514	0.0147251
649.592	0.0146626
649.670	0.0146605
649.748	0.0147257
649.826	0.0146383
649.905	0.0147027
649.983	0.0146467
650.061	0.0147098
650.139	0.0145992
650.217	0.0145642
650.295	0.0146443
650.373	0.0147464
650.451	0.0147076
650.530	0.0146964
650.608	0.0147195
650.686	0.0146589
650.764	0.0147174
650.842	0.0147139
650.920	0.0147106
650.998	0.0145832
651.076	0.0147194
651.155	0.0148724
651.233	0.0146156
651.311	0.0145920
651.389	0.0145937
651.467	0.0146259
651.545	0.0146146
651.623	0.0146817
651.701	0.0145859
651.780	0.0145868
651.858	0.0146458
651.936	0.0146151
652.014	0.0146499
652.092	0.0145377
652.170	0.0147990
652.248	0.0147122
652.326	0.0148159
652.405	0.0146063
652.483	0.0146863
652.561	0.0146231
652.639	0.0146321
652.717	0.0146635
652.795	0.0146645
652.873	0.0145962
652.951	0.0146392
653.030	0.0147366
653.108	0.0146321
653.186	0.0144582
653.264	0.0146016
653.342	0.0145696
653.420	0.0146809
653.498	0.0146156
653.576	0.0145757
653.655	0.0146008
653.733	0.0147162
653.811	0.0145392
653.889	0.0147675
653.967	0.0147152
654.045	0.0147639
654.123	0.0145285
654.201	0.0146754
654.280	0.0144947
654.358	0.0147034
654.436	0.0146383
654.514	0.0146522
654.592	0.0146843
654.670	0.0146910
654.748	0.0145494
654.826	0.0146529
654.905	0.0147083
654.983	0.0147417
655.061	0.0146523
655.139	0.0146934
655.217	0.0146330
655.295	0.0145905
655.373	0.0146456
655.451	0.0147571
655.530	0.0147418
655.608	0.0146600
655.686	0.0146754
655.764	0.0146109
655.842	0.0147557
655.920	0.0146367
655.998	0.0146967
656.076	0.0147892
656.155	0.0146352
656.233	0.0146296
656.311	0.0146545
656.389	0.0146959
656.467	0.0146711
656.545	0.0146926
656.623	0.0146046
656.701	0.0147733
656.780	0.0146069
656.858	0.0146446
656.936	0.0146078
657.014	0.0146949
657.092	0.0146750
657.170	0.0146597
657.248	0.0147005
657.326	0.0146314
657.405	0.0146787
657.483	0.0146890
657.561	0.0145430
657.639	0.0146715
657.717	0.0146338
657.795	0.0146434
657.873	0.0147488
657.951	0.0147405
658.030	0.0145508
658.108	0.0146346
658.186	0.0147579
658.264	0.0147331
658.342	0.0146889
658.420	0.0146628
658.498	0.0146272
658.576	0.0146284
658.655	0.0146918
658.733	0.0147543
658.811	0.0146168
658.889	0.0146011
658.967	0.0146917
659.045	0.0146330
659.123	0.0146130
659.201	0.0146322
659.280	0.0146232
659.358	0.0146658
659.436	0.0146790
659.514	0.0146233
659.592	0.0146478
659.670	0.0146889
659.748	0.0146923
659.826	0.0146556
659.905	0.0145883
659.983	0.0145183
660.061	0.0146495
660.139	0.0145846
660.217	0.0147440
660.295	0.0147094
660.373	0.0147183
660.451	0.0146020
660.530	0.0147112
660.608	0.0147443
660.686	0.0145502
660.764	0.0146600
660.842	0.0146095
660.920	0.0146204
660.998	0.0146088
661.076	0.0147471
661.155	0.0147271
661.233	0.0146574
661.311	0.0147272
661.389	0.0147984
661.467	0.0146439
661.545	0.0146657
661.623	0.0146593
661.701	0.0147230
661.780	0.0147237
661.858	0.0146803
661.936	0.0147978
662.014	0.0147187
662.092	0.0146780
662.170	0.0144229
662.248	0.0147997
662.326	0.0146208
662.405	0.0145510
662.483	0.0146497
662.561	0.0146455
662.639	0.0147391
662.717	0.0146569
662.795	0.0146634
662.873	0.0148781
662.951	0.0145866
663.030	0.0146526
663.108	0.0145934
663.186	0.0145936
663.264	0.0146686
663.342	0.0147338
663.420	0.0146229
663.498	0.0145507
663.576	0.0146117
663.655	0.0146020
663.733	0.0147310
663.811	0.0146407
663.889	0.0147253
663.967	0.0147263
664.045	0.0146135
664.123	0.0146754
664.201	0.0145945
664.280	0.0147138
664.358	0.0146004
664.436	0.0146763
664.514	0.0146902
664.592	0.0147121
664.670	0.0145423
664.748	0.0146707
664.826	0.0147237
664.905	0.0147050
664.983	0.0146549
665.061	0.0146410
665.139	0.0146003
665.217	0.0148002
665.295	0.0147163
665.373	0.0145643
665.451	0.0147207
665.530	0.0148051
665.608	0.0146054
665.686	0.0147370
665.764	0.0147650
665.842	0.0146745
665.920	0.0146926
665.998	0.0148055
666.076	0.0147039
666.155	0.0147268
666.233	0.0146719
666.311	0.0145405
666.389	0.0146539
666.467	0.0147325
666.545	0.0147001
666.623	0.0145747
666.701	0.0145831
666.780	0.0146683
666.858	0.0145290
666.936	0.0146658
667.014	0.0147230
667.092	0.0148406
667.170	0.0146078
667.248	0.0146800
667.326	0.0146053
667.405	0.0146569
667.483	0.0146709
667.561	0.0146432
667.639	0.0146813
667.717	0.0147269
667.795	0.0144592
667.873	0.0147104
667.951	0.0148103
668.030	0.0147260
668.108	0.0145617
668.186	0.0145944
668.264	0.0144915
668.342	0.0145709
668.420	0.0145415
668.498	0.0146622
668.576	0.0145167
668.655	0.0146481
668.733	0.0146134
668.811	0.0146160
668.889	0.0147415
668.967	0.0146460
669.045	0.0145819
669.123	0.0146463
669.201	0.0147247
669.280	0.0147504
669.358	0.0145127
669.436	0.0147400
669.514	0.0146870
669.592	0.0146500
669.670	0.0145393
669.748	0.0146278
669.826	0.0146510
669.905	0.0145466
669.983	0.0146495
670.061	0.0146964
670.139	0.0147124
670.217	0.0146184
670.295	0.0146465
670.373	0.0147166
670.451	0.0146352
670.530	0.0148033
670.608	0.0146826
670.686	0.0145113
670.764	0.0146696
670.842	0.0146429
670.920	0.0146720
670.998	0.0145686
671.076	0.0145801
671.155	0.0146337
671.233	0.0145018
671.311	0.0146946
671.389	0.0146265
671.467	0.0146690
671.545	0.0145989
671.623	0.0145824
671.701	0.0145552
671.780	0.0146938
671.858	0.0146714
671.936	0.0144219
672.014	0.0147029
672.092	0.0146986
672.170	0.0147332
672.248	0.0147037
672.326	0.0146515
672.405	0.0147220
672.483	0.0147683
672.561	0.0146352
672.639	0.0147778
672.717	0.0146181
672.795	0.0147363
672.873	0.0146555
672.951	0.0145455
673.030	0.0146008
673.108	0.0145854
673.186	0.0145751
673.264	0.0146198
673.342	0.0146554
673.420	0.0147436
673.498	0.0145953
673.576	0.0147421
673.655	0.0148029
673.733	0.0145921
673.811	0.0147099
673.889	0.0147434
673.967	0.0146539
674.045	0.0147453
674.123	0.0147503
674.201	0.0146941
674.280	0.0146075
674.358	0.0146594
674.436	0.0146648
674.514	0.0147163
674.592	0.0147889
674.670	0.0146700
674.748	0.0147926
674.826	0.0146590
674.905	0.0146241
674.983	0.0147148
675.061	0.0148013
675.139	0.0147355
675.217	0.0146809
675.295	0.0147839
675.373	0.0146815
675.451	0.0147266
675.530	0.0146329
675.608	0.0148255
675.686	0.0147296
675.764	0.0145671
675.842	0.0147194
675.920	0.0147331
675.998	0.0146274
676.076	0.0146512
676.155	0.0147823
676.233	0.0147663
676.311	0.0146371
676.389	0.0145122
676.467	0.0146985
676.545	0.0148221
676.623	0.0147051
676.701	0.0146534
676.780	0.0147104
676.858	0.0147323
676.936	0.0144883
677.014	0.0147268
677.092	0.0147141
677.170	0.0145973
677.248	0.0147979
677.326	0.0146660
677.405	0.0146389
677.483	0.0146103
677.561	0.0146572
677.639	0.0145316
677.717	0.0145995
677.795	0.0147289
677.873	0.0147347
677.951	0.0146393
678.030	0.0147086
678.108	0.0146780
678.186	0.0147481
678.264	0.0146899
678.342	0.0146376
678.420	0.0145753
678.498	0.0145821
678.576	0.0147928
678.655	0.0146688
678.733	0.0145291
678.811	0.0147237
678.889	0.0147260
678.967	0.0145992
679.045	0.0146790
679.123	0.0146736
679.201	0.0146461
679.280	0.0145087
679.358	0.0146724
679.436	0.0147674
679.514	0.0146867
679.592	0.0146317
679.670	0.0146487
679.748	0.0146237
679.826	0.0147067
679.905	0.0146590
679.983	0.0144483
680.061	0.0146506
680.139	0.0147877
680.217	0.0146481
680.295	0.0145884
680.373	0.0145738
680.451	0.0146008
680.530	0.0144489
680.608	0.0146019
680.686	0.0146770
680.764	0.0145627
680.842	0.0146096
680.920	0.0146069
680.998	0.0145547
681.076	0.0146277
681.155	0.0145258
681.233	0.0146504
681.311	0.0148383
681.389	0.0146047
681.467	0.0145836
681.545	0.0146632
681.623	0.0146950
681.701	0.0145379
681.780	0.0145638
681.858	0.0144920
681.936	0.0145757
682.014	0.0146481
682.092	0.0145653
682.170	0.0146298
682.248	0.0146297
682.326	0.0147221
682.405	0.0146804
682.483	0.0145805
682.561	0.0145933
682.639	0.0146786
682.717	0.0146854
682.795	0.0146727
682.873	0.0146998
682.951	0.0147310
683.030	0.0147308
683.108	0.0145425
683.186	0.0147054
683.264	0.0146138
683.342	0.0147133
683.420	0.0146298
683.498	0.0146342
683.576	0.0147729
683.655	0.0146178
683.733	0.0147118
683.811	0.0147056
683.889	0.0148573
683.967	0.0147776
684.045	0.0148080
684.123	0.0147462
684.201	0.0147508
684.280	0.0145634
684.358	0.0146841
684.436	0.0146795
684.514	0.0146675
684.592	0.0146072
684.670	0.0144708
684.748	0.0144582
684.826	0.0146731
684.905	0.0145698
684.983	0.0146230
685.061	0.0147256
685.139	0.0146086
685.217	0.0146465
685.295	0.0147117
685.373	0.0148762
685.451	0.0146754
685.530	0.0147134
685.608	0.0147593
685.686	0.0148471
685.764	0.0148425
685.842	0.0146588
685.920	0.0147784
685.998	0.0147249
686.076	0.0146181
686.155	0.0148038
686.233	0.0147990
686.311	0.0147497
686.389	0.0145949
686.467	0.0146968
686.545	0.0146227
686.623	0.0145721
686.701	0.0145509
686.780	0.0146992
686.858	0.0146645
686.936	0.0144984
687.014	0.0145923
687.092	0.0146175
687.170	0.0144576
687.248	0.0145846
687.326	0.0145762
687.405	0.0145335
687.483	0.0145479
687.561	0.0145182
687.639	0.0145460
687.717	0.0144748
687.795	0.0145335
687.873	0.0144137
687.951	0.0143871
688.030	0.0143909
688.108	0.0145055
688.186	0.0146873
688.264	0.0146015
688.342	0.0147787
688.420	0.0149609
688.498	0.0152889
688.576	0.0152863
688.655	0.0152251
688.733	0.0154319
688.811	0.0155431
688.889	0.0156621
688.967	0.0155579
689.045	0.0153072
689.123	0.0151501
689.201	0.0151050
689.280	0.0149590
689.358	0.0146821
689.436	0.0145444
689.514	0.0143144
689.592	0.0140311
689.670	0.0139193
689.748	0.0137793
689.826	0.0138258
689.905	0.0138189
689.983	0.0137204
690.061	0.0138883
690.139	0.0139034
690.217	0.0139070
690.295	0.0140625
690.373	0.0139288
690.451	0.0140117
690.530	0.0142128
690.608	0.0141444
690.686	0.0141651
690.764	0.0142013
690.842	0.0142848
690.920	0.0143484
690.998	0.0142434
691.076	0.0143295
691.155	0.0144161
691.233	0.0146133
691.311	0.0148042
691.389	0.0149693
691.467	0.0149846
691.545	0.0153451
691.623	0.0156213
691.701	0.0158000
691.780	0.0158746
691.858	0.0161475
691.936	0.0162600
692.014	0.0163070
692.092	0.0164165
692.170	0.0165158
692.248	0.0164468
692.326	0.0164132
692.405	0.0165211
692.483	0.0164714
692.561	0.0162189
692.639	0.0158810
692.717	0.0159457
692.795	0.0156535
692.873	0.0153918
692.951	0.0149712
693.030	0.0147591
693.108	0.0143578
693.186	0.0139638
693.264	0.0138964
693.342	0.0133033
693.420	0.0128493
693.498	0.0127233
693.576	0.0122067
693.655	0.0117519
693.733	0.0114049
693.811	0.0111579
693.889	0.0109148
693.967	0.0107767
694.045	0.0105171
694.123	0.0106364
694.201	0.0107898
694.280	0.0109151
694.358	0.0114165
694.436	0.0118884
694.514	0.0125053
694.592	0.0134224
694.670	0.0139248
694.748	0.0148495
694.826	0.0155801
694.905	0.0164914
694.983	0.0171525
695.061	0.0178496
695.139	0.0185263
695.217	0.0190161
695.295	0.0195309
695.373	0.0196808
695.451	0.0198444
695.530	0.0199995
695.608	0.0201095
695.686	0.0200096
695.764	0.0200629
695.842	0.0196909
695.920	0.0193333
695.998	0.0191064
696.076	0.0183572
696.155	0.0177889
696.233	0.0171304
696.311	0.0164159
696.389	0.0155446
696.467	0.0148137
696.545	0.0138382
696.623	0.0129192
696.701	0.0121964
696.780	0.0115319
696.858	0.0109384
696.936	0.0104993
697.014	0.0101963
697.092	0.0100032
697.170	0.00993492
697.248	0.00990578
697.326	0.0102113
697.405	0.0103616
697.483	0.0106351
697.561	0.0110626
697.639	0.0114249
697.717	0.0117792
697.795	0.0119129
697.873	0.0121954
697.951	0.0124124
698.030	0.0125533
698.108	0.0123925
698.186	0.0122993
698.264	0.0123102
698.342	0.0123863
698.420	0.0123984
698.498	0.0125864
698.576	0.0128477
698.655	0.0132901
698.733	0.0136955
698.811	0.0141801
698.889	0.0149121
698.967	0.0154666
699.045	0.0162733
699.123	0.0170121
699.201	0.0177402
699.280	0.0184655
699.358	0.0188290
699.436	0.0193307
699.514	0.0197809
699.592	0.0201963
699.670	0.0203997
699.748	0.0205912
699.826	0.0205779
699.905	0.0206950
699.983	0.0205822
700.061	0.0204886
700.139	0.0203772
700.217	0.0202146
700.295	0.0198033
700.373	0.0192804
700.451	0.0188753
700.530	0.0180843
700.608	0.0174684
700.686	0.0167598
700.764	0.0157281
700.842	0.0148242
700.920	0.0139469
700.998	0.0129357
701.076	0.0121857
701.155	0.0115772
701.233	0.0107990
701.311	0.0102055
701.389	0.00964806
701.467	0.00947876
701.545	0.00907288
701.623	0.00880661
701.701	0.00862373
701.780	0.00866676
701.858	0.00870293
701.936	0.00860863
702.014	0.00871414
702.092	0.00888451
702.170	0.00913666
702.248	0.00960266
702.326	0.00979233
702.405	0.0100208
702.483	0.0103133
702.561	0.0108580
702.639	0.0114500
702.717	0.0117387
702.795	0.0121895
702.873	0.0125986
702.951	0.0128992
703.030	0.0133440
703.108	0.0139845
703.186	0.0144753
703.264	0.0148690
703.342	0.0154354
703.420	0.0159217
703.498	0.0166364
703.576	0.0172182
703.655	0.0177048
703.733	0.0182393
703.811	0.0188124
703.889	0.0194541
703.967	0.0197611
704.045	0.0200227
704.123	0.0205037
704.201	0.0207832
704.280	0.0210598
704.358	0.0213380
704.436	0.0217314
704.514	0.0219009
704.592	0.0219547
704.670	0.0221581
704.748	0.0221337
704.826	0.0218626
704.905	0.0215871
704.983	0.0210929
705.061	0.0202837
705.139	0.0196098
705.217	0.0186320
705.295	0.0173369
705.373	0.0160917
705.451	0.0149912
705.530	0.0136757
705.608	0.0124619
705.686	0.0112146
705.764	0.0103401
705.842	0.00940170
705.920	0.00840797
705.998	0.00789642
706.076	0.00734901
706.155	0.00696022
706.233	0.00694801
706.311	0.00674118
706.389	0.00687119
706.467	0.00729477
706.545	0.00748703
706.623	0.00803467
706.701	0.00822632
706.780	0.00879761
706.858	0.00940628
706.936	0.00994698
707.014	0.0103710
707.092	0.0109657
707.170	0.0116461
707.248	0.0120586
707.326	0.0125121
707.405	0.0132144
707.483	0.0134425
707.561	0.0139186
707.639	0.0141539
707.717	0.0144150
707.795	0.0146328
707.873	0.0147373
707.951	0.0148739
708.030	0.0150968
708.108	0.0153294
708.186	0.0154935
708.264	0.0155548
708.342	0.0159513
708.420	0.0164692
708.498	0.0169279
708.576	0.0176030
708.655	0.0182061
708.733	0.0190587
708.811	0.0195638
708.889	0.0202451
708.967	0.0207971
709.045	0.0211317
709.123	0.0214162
709.201	0.0214311
709.280	0.0213839
709.358	0.0213319
709.436	0.0210892
709.514	0.0207588
709.592	0.0204129
709.670	0.0198363
709.748	0.0194344
709.826	0.0191219
709.905	0.0186654
709.983	0.0182050
710.061	0.0177800
710.139	0.0175433
710.217	0.0170303
710.295	0.0164066
710.373	0.0158198
710.451	0.0151625
710.530	0.0144850
710.608	0.0134759
710.686	0.0123758
710.764	0.0112353
710.842	0.0103455
710.920	0.00950851
710.998	0.00867729
711.076	0.00800156
711.155	0.00734032
711.233	0.00694481
711.311	0.00688194
711.389	0.00683090
711.467	0.00704338
711.545	0.00738655
711.623	0.00781921
711.701	0.00849556
711.780	0.00911873
711.858	0.00981049
711.936	0.0104494
712.014	0.0112654
712.092	0.0119360
712.170	0.0126202
712.248	0.0131223
712.326	0.0138182
712.405	0.0144323
712.483	0.0149459
712.561	0.0154540
712.639	0.0156368
712.717	0.0159625
712.795	0.0162473
712.873	0.0162360
712.951	0.0163908
713.030	0.0165115
713.108	0.0164135
713.186	0.0162688
713.264	0.0162316
713.342	0.0160741
713.420	0.0160063
713.498	0.0158047
713.576	0.0158362
713.655	0.0156846
713.733	0.0157331
713.811	0.0159064
713.889	0.0159996
713.967	0.0164034
714.045	0.0166862
714.123	0.0171635
714.201	0.0175816
714.280	0.0177901
714.358	0.0185020
714.436	0.0186884
714.514	0.0190789
714.592	0.0193627
714.670	0.0193184
714.748	0.0195322
714.826	0.0195135
714.905	0.0193046
714.983	0.0189355
715.061	0.0185868
715.139	0.0180147
715.217	0.0174474
715.295	0.0169851
715.373	0.0164103
715.451	0.0156982
715.530	0.0150732
715.608	0.0145843
715.686	0.0141695
715.764	0.0135557
715.842	0.0131353
715.920	0.0127055
715.998	0.0122021
716.076	0.0118218
716.155	0.0112836
716.233	0.0110844
716.311	0.0104879
716.389	0.0104536
716.467	0.0101804
716.545	0.0100108
716.623	0.00986732
716.701	0.00999611
716.780	0.0101853
716.858	0.0104235
716.936	0.0106287
717.014	0.0110677
717.092	0.0115230
717.170	0.0119664
717.248	0.0125385
717.326	0.0128605
717.405	0.0135763
717.483	0.0138544
717.561	0.0143699
717.639	0.0146047
717.717	0.0148325
717.795	0.0150627
717.873	0.0153571
717.951	0.0153907
718.030	0.0155873
718.108	0.0154906
718.186	0.0156321
718.264	0.0156277
718.342	0.0157372
718.420	0.0157096
718.498	0.0156623
718.576	0.0153786
718.655	0.0151835
718.733	0.0152699
718.811	0.0150797
718.889	0.0151867
718.967	0.0148550
719.045	0.0147942
719.123	0.0145903
719.201	0.0144983
719.280	0.0147129
719.358	0.0147502
719.436	0.0149623
719.514	0.0151412
719.592	0.0154564
719.670	0.0157565
719.748	0.0161421
719.826	0.0166776
719.905	0.0170203
719.983	0.0172633
720.061	0.0176221
720.139	0.0176028
720.217	0.0176738
720.295	0.0174457
720.373	0.0172864
720.451	0.0169492
720.530	0.0166151
720.608	0.0161581
720.686	0.0156401
720.764	0.0153827
720.842	0.0151746
720.920	0.0148582
720.998	0.0144039
721.076	0.0143650
721.155	0.0144084
721.233	0.0140704
721.311	0.0140882
721.389	0.0140613
721.467	0.0139373
721.545	0.0138836
721.623	0.0137874
721.701	0.0136082
721.780	0.0136121
721.858	0.0133072
721.936	0.0131065
722.014	0.0130733
722.092	0.0129558
722.170	0.0128994
722.248	0.0127728
722.326	0.0126648
722.405	0.0127003
722.483	0.0127971
722.561	0.0127309
722.639	0.0129762
722.717	0.0131375
722.795	0.0132204
722.873	0.0134153
722.951	0.0138049
723.030	0.0138300
723.108	0.0139943
723.186	0.0143829
723.264	0.0145199
723.342	0.0146471
723.420	0.0149667
723.498	0.0151123
723.576	0.0151936
723.655	0.0152676
723.733	0.0152961
723.811	0.0152500
723.889	0.0152252
723.967	0.0151550
724.045	0.0149751
724.123	0.0149088
724.201	0.0147508
724.280	0.0145283
724.358	0.0144650
724.436	0.0142695
724.514	0.0142542
724.592	0.0140051
724.670	0.0141676
724.748	0.0143314
724.826	0.0145675
724.905	0.0147025
724.983	0.0149995
725.061	0.0151482
725.139	0.0155199
725.217	0.0156830
725.295	0.0160112
725.373	0.0158121
725.451	0.0160848
725.530	0.0162617
