05/20/2022	16:13:21	Ver.	4.1	UNKNOWN
Optical Delay	639.982744	Delta X		0.078125	Sweeps	1	Scan Rate	0/0
Coordinates	Axis 1	NaN	Axis 2	NaN	Axis 3	NaN	Axis 4	NaN	Axis 5	NaN	Axis 6	0.000000
TX Power	0.000000	RX Power	0.000000

639.983	0.0146474
640.061	0.0147081
640.139	0.0147678
640.217	0.0147175
640.295	0.0146935
640.373	0.0145036
640.451	0.0145594
640.530	0.0146757
640.608	0.0145528
640.686	0.0145362
640.764	0.0148239
640.842	0.0147341
640.920	0.0146705
640.998	0.0147115
641.076	0.0146455
641.155	0.0145892
641.233	0.0147485
641.311	0.0147349
641.389	0.0146719
641.467	0.0146899
641.545	0.0146820
641.623	0.0147298
641.701	0.0145496
641.780	0.0146014
641.858	0.0147483
641.936	0.0147437
642.014	0.0146722
642.092	0.0146851
642.170	0.0146104
642.248	0.0147418
642.326	0.0148985
642.405	0.0146603
642.483	0.0146320
642.561	0.0147292
642.639	0.0147406
642.717	0.0146440
642.795	0.0145831
642.873	0.0146017
642.951	0.0146963
643.030	0.0145837
643.108	0.0147059
643.186	0.0147375
643.264	0.0146455
643.342	0.0146128
643.420	0.0146659
643.498	0.0147003
643.576	0.0147617
643.655	0.0147679
643.733	0.0145667
643.811	0.0148305
643.889	0.0147439
643.967	0.0147647
644.045	0.0146070
644.123	0.0146553
644.201	0.0146679
644.280	0.0146636
644.358	0.0147604
644.436	0.0146970
644.514	0.0146391
644.592	0.0145940
644.670	0.0147626
644.748	0.0148597
644.826	0.0146691
644.905	0.0146629
644.983	0.0147696
645.061	0.0147143
645.139	0.0145776
645.217	0.0146182
645.295	0.0146889
645.373	0.0146724
645.451	0.0147128
645.530	0.0144997
645.608	0.0145380
645.686	0.0147669
645.764	0.0146427
645.842	0.0146632
645.920	0.0146518
645.998	0.0146257
646.076	0.0146605
646.155	0.0147227
646.233	0.0147334
646.311	0.0145735
646.389	0.0146574
646.467	0.0146120
646.545	0.0147231
646.623	0.0145679
646.701	0.0145715
646.780	0.0147412
646.858	0.0147219
646.936	0.0147173
647.014	0.0147389
647.092	0.0146028
647.170	0.0147488
647.248	0.0146963
647.326	0.0146914
647.405	0.0146785
647.483	0.0145177
647.561	0.0145572
647.639	0.0146578
647.717	0.0147704
647.795	0.0145921
647.873	0.0146986
647.951	0.0147709
648.030	0.0147086
648.108	0.0146924
648.186	0.0146666
648.264	0.0146239
648.342	0.0147890
648.420	0.0146344
648.498	0.0147060
648.576	0.0146597
648.655	0.0146032
648.733	0.0146165
648.811	0.0147389
648.889	0.0146540
648.967	0.0145033
649.045	0.0146090
649.123	0.0147936
649.201	0.0146235
649.280	0.0146241
649.358	0.0146559
649.436	0.0146864
649.514	0.0145744
649.592	0.0147818
649.670	0.0146670
649.748	0.0145979
649.826	0.0146402
649.905	0.0147302
649.983	0.0146194
650.061	0.0145975
650.139	0.0147398
650.217	0.0146577
650.295	0.0145310
650.373	0.0145316
650.451	0.0146434
650.530	0.0146423
650.608	0.0146209
650.686	0.0147492
650.764	0.0146638
650.842	0.0148406
650.920	0.0146717
650.998	0.0147573
651.076	0.0147066
651.155	0.0146761
651.233	0.0146866
651.311	0.0145222
651.389	0.0146581
651.467	0.0146784
651.545	0.0146004
651.623	0.0147771
651.701	0.0146006
651.780	0.0145456
651.858	0.0147028
651.936	0.0145422
652.014	0.0146078
652.092	0.0147045
652.170	0.0146689
652.248	0.0146660
652.326	0.0146178
652.405	0.0146377
652.483	0.0147312
652.561	0.0147243
652.639	0.0147050
652.717	0.0148070
652.795	0.0146565
652.873	0.0146246
652.951	0.0146977
653.030	0.0147307
653.108	0.0145883
653.186	0.0146613
653.264	0.0146902
653.342	0.0146715
653.420	0.0146828
653.498	0.0145798
653.576	0.0146156
653.655	0.0146415
653.733	0.0145046
653.811	0.0146790
653.889	0.0144381
653.967	0.0145956
654.045	0.0145943
654.123	0.0146420
654.201	0.0147475
654.280	0.0146451
654.358	0.0146007
654.436	0.0147299
654.514	0.0145635
654.592	0.0146117
654.670	0.0145077
654.748	0.0146252
654.826	0.0146780
654.905	0.0146663
654.983	0.0145519
655.061	0.0146832
655.139	0.0145368
655.217	0.0146988
655.295	0.0146554
655.373	0.0145484
655.451	0.0146449
655.530	0.0147074
655.608	0.0145641
655.686	0.0145083
655.764	0.0145357
655.842	0.0145119
655.920	0.0145076
655.998	0.0146527
656.076	0.0146303
656.155	0.0146680
656.233	0.0145900
656.311	0.0145143
656.389	0.0146158
656.467	0.0146552
656.545	0.0146477
656.623	0.0146704
656.701	0.0145321
656.780	0.0146793
656.858	0.0146836
656.936	0.0145966
657.014	0.0146269
657.092	0.0146267
657.170	0.0147289
657.248	0.0146715
657.326	0.0147137
657.405	0.0147496
657.483	0.0147254
657.561	0.0146848
657.639	0.0147063
657.717	0.0145340
657.795	0.0147305
657.873	0.0145872
657.951	0.0146691
658.030	0.0145670
658.108	0.0146716
658.186	0.0146414
658.264	0.0145950
658.342	0.0147062
658.420	0.0147245
658.498	0.0146574
658.576	0.0147508
658.655	0.0146812
658.733	0.0146296
658.811	0.0147002
658.889	0.0144843
658.967	0.0147504
659.045	0.0146352
659.123	0.0146683
659.201	0.0146076
659.280	0.0147101
659.358	0.0147100
659.436	0.0148236
659.514	0.0146598
659.592	0.0146795
659.670	0.0145888
659.748	0.0147204
659.826	0.0146633
659.905	0.0146059
659.983	0.0146523
660.061	0.0147452
660.139	0.0145645
660.217	0.0147354
660.295	0.0147029
660.373	0.0147882
660.451	0.0147752
660.530	0.0146574
660.608	0.0147303
660.686	0.0145804
660.764	0.0147321
660.842	0.0147233
660.920	0.0147025
660.998	0.0147293
661.076	0.0146612
661.155	0.0146597
661.233	0.0146333
661.311	0.0146098
661.389	0.0146399
661.467	0.0145872
661.545	0.0145421
661.623	0.0147321
661.701	0.0147889
661.780	0.0146405
661.858	0.0147014
661.936	0.0147355
662.014	0.0145763
662.092	0.0147332
662.170	0.0147498
662.248	0.0146659
662.326	0.0146778
662.405	0.0146014
662.483	0.0147823
662.561	0.0148378
662.639	0.0147215
662.717	0.0147891
662.795	0.0146643
662.873	0.0147556
662.951	0.0147788
663.030	0.0147549
663.108	0.0146270
663.186	0.0147648
663.264	0.0146894
663.342	0.0148255
663.420	0.0147426
663.498	0.0146526
663.576	0.0146935
663.655	0.0146214
663.733	0.0148547
663.811	0.0147231
663.889	0.0146066
663.967	0.0147147
664.045	0.0148357
664.123	0.0147170
664.201	0.0146882
664.280	0.0147180
664.358	0.0147299
664.436	0.0146895
664.514	0.0146702
664.592	0.0147211
664.670	0.0146038
664.748	0.0147625
664.826	0.0147748
664.905	0.0145917
664.983	0.0146756
665.061	0.0147620
665.139	0.0147668
665.217	0.0146076
665.295	0.0146859
665.373	0.0147835
665.451	0.0148231
665.530	0.0146878
665.608	0.0145705
665.686	0.0146432
665.764	0.0146918
665.842	0.0146577
665.920	0.0147022
665.998	0.0148135
666.076	0.0146152
666.155	0.0146827
666.233	0.0148579
666.311	0.0146822
666.389	0.0147765
666.467	0.0147430
666.545	0.0147175
666.623	0.0146645
666.701	0.0145741
666.780	0.0147671
666.858	0.0148166
666.936	0.0147689
667.014	0.0147515
667.092	0.0146622
667.170	0.0146389
667.248	0.0146124
667.326	0.0146841
667.405	0.0146481
667.483	0.0147018
667.561	0.0147058
667.639	0.0146496
667.717	0.0145694
667.795	0.0146957
667.873	0.0146461
667.951	0.0146479
668.030	0.0147398
668.108	0.0147510
668.186	0.0147495
668.264	0.0147726
668.342	0.0145918
668.420	0.0146004
668.498	0.0145835
668.576	0.0146838
668.655	0.0146712
668.733	0.0145265
668.811	0.0144660
668.889	0.0146198
668.967	0.0145967
669.045	0.0146904
669.123	0.0146314
669.201	0.0145796
669.280	0.0145420
669.358	0.0147304
669.436	0.0147477
669.514	0.0146710
669.592	0.0146774
669.670	0.0148238
669.748	0.0145757
669.826	0.0145656
669.905	0.0147361
669.983	0.0146957
670.061	0.0145938
670.139	0.0147075
670.217	0.0145895
670.295	0.0144716
670.373	0.0146706
670.451	0.0146748
670.530	0.0146204
670.608	0.0146490
670.686	0.0146812
670.764	0.0146870
670.842	0.0146737
670.920	0.0145824
670.998	0.0146732
671.076	0.0145764
671.155	0.0147094
671.233	0.0147782
671.311	0.0146706
671.389	0.0146026
671.467	0.0146354
671.545	0.0146816
671.623	0.0146618
671.701	0.0144717
671.780	0.0147021
671.858	0.0148235
671.936	0.0147270
672.014	0.0145349
672.092	0.0146091
672.170	0.0146609
672.248	0.0146722
672.326	0.0147559
672.405	0.0147382
672.483	0.0145618
672.561	0.0146146
672.639	0.0147269
672.717	0.0147392
672.795	0.0145222
672.873	0.0146786
672.951	0.0146976
673.030	0.0146342
673.108	0.0146196
673.186	0.0146238
673.264	0.0146485
673.342	0.0147663
673.420	0.0146935
673.498	0.0146704
673.576	0.0146613
673.655	0.0146806
673.733	0.0146832
673.811	0.0145954
673.889	0.0146602
673.967	0.0145174
674.045	0.0145300
674.123	0.0146929
674.201	0.0147646
674.280	0.0146951
674.358	0.0147261
674.436	0.0147332
674.514	0.0147719
674.592	0.0147556
674.670	0.0146138
674.748	0.0146134
674.826	0.0145282
674.905	0.0146122
674.983	0.0146033
675.061	0.0146165
675.139	0.0146455
675.217	0.0147034
675.295	0.0146189
675.373	0.0147686
675.451	0.0144371
675.530	0.0145137
675.608	0.0145162
675.686	0.0146052
675.764	0.0146765
675.842	0.0146595
675.920	0.0146667
675.998	0.0145496
676.076	0.0146674
676.155	0.0147171
676.233	0.0147710
676.311	0.0146915
676.389	0.0146645
676.467	0.0147225
676.545	0.0147205
676.623	0.0145484
676.701	0.0146695
676.780	0.0145486
676.858	0.0146270
676.936	0.0146796
677.014	0.0146998
677.092	0.0143741
677.170	0.0145903
677.248	0.0147388
677.326	0.0144529
677.405	0.0145576
677.483	0.0146500
677.561	0.0145920
677.639	0.0146661
677.717	0.0145890
677.795	0.0146275
677.873	0.0146541
677.951	0.0145716
678.030	0.0144534
678.108	0.0146682
678.186	0.0146408
678.264	0.0145399
678.342	0.0146312
678.420	0.0146835
678.498	0.0144732
678.576	0.0144730
678.655	0.0146646
678.733	0.0145786
678.811	0.0146216
678.889	0.0146561
678.967	0.0146949
679.045	0.0144682
679.123	0.0146851
679.201	0.0146291
679.280	0.0145665
679.358	0.0146698
679.436	0.0145547
679.514	0.0145637
679.592	0.0147064
679.670	0.0146329
679.748	0.0146853
679.826	0.0146641
679.905	0.0144530
679.983	0.0145156
680.061	0.0146371
680.139	0.0145339
680.217	0.0145356
680.295	0.0145424
680.373	0.0146107
680.451	0.0145577
680.530	0.0146177
680.608	0.0146298
680.686	0.0145873
680.764	0.0146080
680.842	0.0145139
680.920	0.0146042
680.998	0.0146050
681.076	0.0145037
681.155	0.0145724
681.233	0.0146680
681.311	0.0145222
681.389	0.0145460
681.467	0.0145056
681.545	0.0146654
681.623	0.0146355
681.701	0.0145638
681.780	0.0145649
681.858	0.0146133
681.936	0.0145188
682.014	0.0146724
682.092	0.0146854
682.170	0.0145315
682.248	0.0146811
682.326	0.0146392
682.405	0.0145412
682.483	0.0145364
682.561	0.0146518
682.639	0.0146081
682.717	0.0145339
682.795	0.0146023
682.873	0.0147828
682.951	0.0146088
683.030	0.0146547
683.108	0.0146523
683.186	0.0145305
683.264	0.0145224
683.342	0.0146143
683.420	0.0145740
683.498	0.0144592
683.576	0.0146310
683.655	0.0145569
683.733	0.0144947
683.811	0.0146287
683.889	0.0147116
683.967	0.0145612
684.045	0.0146902
684.123	0.0147076
684.201	0.0146796
684.280	0.0146298
684.358	0.0146362
684.436	0.0146489
684.514	0.0147739
684.592	0.0146252
684.670	0.0148617
684.748	0.0146965
684.826	0.0147165
684.905	0.0147411
684.983	0.0146799
685.061	0.0146113
685.139	0.0148659
685.217	0.0147482
685.295	0.0146422
685.373	0.0148535
685.451	0.0146597
685.530	0.0146404
685.608	0.0147999
685.686	0.0146290
685.764	0.0145757
685.842	0.0145483
685.920	0.0146145
685.998	0.0146437
686.076	0.0145683
686.155	0.0145940
686.233	0.0144212
686.311	0.0143343
686.389	0.0143356
686.467	0.0144871
686.545	0.0144869
686.623	0.0144048
686.701	0.0145575
686.780	0.0145606
686.858	0.0145556
686.936	0.0147182
687.014	0.0147498
687.092	0.0148395
687.170	0.0149144
687.248	0.0148552
687.326	0.0148087
687.405	0.0147319
687.483	0.0147795
687.561	0.0147356
687.639	0.0148566
687.717	0.0147856
687.795	0.0145908
687.873	0.0145383
687.951	0.0146786
688.030	0.0147591
688.108	0.0146864
688.186	0.0145766
688.264	0.0146719
688.342	0.0147850
688.420	0.0148392
688.498	0.0148966
688.576	0.0150251
688.655	0.0149419
688.733	0.0150359
688.811	0.0151521
688.889	0.0151366
688.967	0.0148727
689.045	0.0150468
689.123	0.0149459
689.201	0.0148112
689.280	0.0146003
689.358	0.0145846
689.436	0.0143507
689.514	0.0141851
689.592	0.0141531
689.670	0.0138379
689.748	0.0137225
689.826	0.0137280
689.905	0.0136860
689.983	0.0138807
690.061	0.0139466
690.139	0.0139182
690.217	0.0141397
690.295	0.0142139
690.373	0.0145609
690.451	0.0146574
690.530	0.0145418
690.608	0.0147913
690.686	0.0148325
690.764	0.0150056
690.842	0.0149705
690.920	0.0149419
690.998	0.0148343
691.076	0.0148819
691.155	0.0148700
691.233	0.0149595
691.311	0.0151031
691.389	0.0152224
691.467	0.0151999
691.545	0.0153522
691.623	0.0154732
691.701	0.0155014
691.780	0.0156792
691.858	0.0158208
691.936	0.0157308
692.014	0.0155009
692.092	0.0154305
692.170	0.0153535
692.248	0.0150851
692.326	0.0149743
692.405	0.0148881
692.483	0.0146515
692.561	0.0146088
692.639	0.0146471
692.717	0.0145403
692.795	0.0147526
692.873	0.0148048
692.951	0.0147917
693.030	0.0148467
693.108	0.0147359
693.186	0.0146131
693.264	0.0145183
693.342	0.0141821
693.420	0.0138570
693.498	0.0134748
693.576	0.0131512
693.655	0.0128011
693.733	0.0125659
693.811	0.0120965
693.889	0.0120949
693.967	0.0118102
694.045	0.0117826
694.123	0.0115092
694.201	0.0115762
694.280	0.0119566
694.358	0.0122785
694.436	0.0126128
694.514	0.0129993
694.592	0.0134759
694.670	0.0140032
694.748	0.0147570
694.826	0.0153757
694.905	0.0159998
694.983	0.0168071
695.061	0.0173816
695.139	0.0179745
695.217	0.0184792
695.295	0.0189316
695.373	0.0192714
695.451	0.0196746
695.530	0.0197763
695.608	0.0198066
695.686	0.0196487
695.764	0.0193917
695.842	0.0191481
695.920	0.0187938
695.998	0.0182140
696.076	0.0176187
696.155	0.0168500
696.233	0.0161543
696.311	0.0156715
696.389	0.0149285
696.467	0.0139691
696.545	0.0133501
696.623	0.0127216
696.701	0.0119794
696.780	0.0112766
696.858	0.0107280
696.936	0.0102444
697.014	0.00984398
697.092	0.00965744
697.170	0.00955032
697.248	0.00961624
697.326	0.00994492
697.405	0.0102194
697.483	0.0106284
697.561	0.0110600
697.639	0.0115249
697.717	0.0120101
697.795	0.0123226
697.873	0.0127224
697.951	0.0130357
698.030	0.0132857
698.108	0.0136192
698.186	0.0136153
698.264	0.0135354
698.342	0.0137412
698.420	0.0141357
698.498	0.0144050
698.576	0.0147189
698.655	0.0150234
698.733	0.0154861
698.811	0.0158156
698.889	0.0161443
698.967	0.0168179
699.045	0.0172364
699.123	0.0176785
699.201	0.0181141
699.280	0.0185075
699.358	0.0188790
699.436	0.0190550
699.514	0.0192810
699.592	0.0194160
699.670	0.0195010
699.748	0.0193875
699.826	0.0193051
699.905	0.0191911
699.983	0.0188603
700.061	0.0186226
700.139	0.0183196
700.217	0.0178118
700.295	0.0172730
700.373	0.0170423
700.451	0.0165134
700.530	0.0160480
700.608	0.0154031
700.686	0.0147900
700.764	0.0142447
700.842	0.0136880
700.920	0.0131588
700.998	0.0126759
701.076	0.0120373
701.155	0.0116946
701.233	0.0113442
701.311	0.0110191
701.389	0.0107288
701.467	0.0104297
701.545	0.0104040
701.623	0.0102190
701.701	0.0102318
701.780	0.0102120
701.858	0.0103300
701.936	0.0106777
702.014	0.0106643
702.092	0.0110361
702.170	0.0111736
702.248	0.0115228
702.326	0.0114907
702.405	0.0117208
702.483	0.0118810
702.561	0.0119776
702.639	0.0119543
702.717	0.0120414
702.795	0.0120569
702.873	0.0122776
702.951	0.0123866
703.030	0.0124658
703.108	0.0129124
703.186	0.0133315
703.264	0.0139812
703.342	0.0145579
703.420	0.0153599
703.498	0.0162209
703.576	0.0170592
703.655	0.0180921
703.733	0.0186429
703.811	0.0193629
703.889	0.0199248
703.967	0.0202766
704.045	0.0203923
704.123	0.0205949
704.201	0.0206738
704.280	0.0205643
704.358	0.0203593
704.436	0.0202069
704.514	0.0200136
704.592	0.0197688
704.670	0.0197030
704.748	0.0196251
704.826	0.0194663
704.905	0.0192906
704.983	0.0189190
705.061	0.0187074
705.139	0.0182627
705.217	0.0175613
705.295	0.0168498
705.373	0.0161908
705.451	0.0151895
705.530	0.0141846
705.608	0.0133835
705.686	0.0124464
705.764	0.0116950
705.842	0.0109505
705.920	0.0102951
705.998	0.00975296
706.076	0.00935799
706.155	0.00909683
706.233	0.00896347
706.311	0.00878311
706.389	0.00876198
706.467	0.00902092
706.545	0.00922852
706.623	0.00927269
706.701	0.00957390
706.780	0.00985909
706.858	0.0100198
706.936	0.0103557
707.014	0.0107425
707.092	0.0108331
707.170	0.0112340
707.248	0.0115766
707.326	0.0117645
707.405	0.0121636
707.483	0.0124409
707.561	0.0127225
707.639	0.0132660
707.717	0.0133866
707.795	0.0135778
707.873	0.0137413
707.951	0.0139661
708.030	0.0141124
708.108	0.0144186
708.186	0.0146685
708.264	0.0150083
708.342	0.0152316
708.420	0.0157492
708.498	0.0160308
708.576	0.0164635
708.655	0.0170330
708.733	0.0174689
708.811	0.0181583
708.889	0.0187704
708.967	0.0194559
709.045	0.0198961
709.123	0.0203609
709.201	0.0208665
709.280	0.0210543
709.358	0.0212565
709.436	0.0211724
709.514	0.0210850
709.592	0.0209022
709.670	0.0206877
709.748	0.0203497
709.826	0.0197758
709.905	0.0193362
709.983	0.0189685
710.061	0.0182618
710.139	0.0177017
710.217	0.0173556
710.295	0.0167671
710.373	0.0162676
710.451	0.0159409
710.530	0.0152818
710.608	0.0147743
710.686	0.0141646
710.764	0.0134016
710.842	0.0125865
710.920	0.0117660
710.998	0.0110934
711.076	0.0101449
711.155	0.00942924
711.233	0.00886337
711.311	0.00815956
711.389	0.00784470
711.467	0.00764259
711.545	0.00750259
711.623	0.00750450
711.701	0.00750008
711.780	0.00796577
711.858	0.00842087
711.936	0.00886040
712.014	0.00958038
712.092	0.0102456
712.170	0.0108953
712.248	0.0114906
712.326	0.0120994
712.405	0.0126591
712.483	0.0131697
712.561	0.0138571
712.639	0.0144436
712.717	0.0146731
712.795	0.0151616
712.873	0.0155361
712.951	0.0158580
713.030	0.0159390
713.108	0.0161420
713.186	0.0161308
713.264	0.0160770
713.342	0.0158795
713.420	0.0157877
713.498	0.0157252
713.576	0.0157671
713.655	0.0154894
713.733	0.0152647
713.811	0.0153220
713.889	0.0152957
713.967	0.0154789
714.045	0.0157215
714.123	0.0160838
714.201	0.0166557
714.280	0.0170457
714.358	0.0176541
714.436	0.0181779
714.514	0.0187682
714.592	0.0192161
714.670	0.0196730
714.748	0.0198292
714.826	0.0202323
714.905	0.0201748
714.983	0.0199815
715.061	0.0198473
715.139	0.0193797
715.217	0.0187649
715.295	0.0182460
715.373	0.0176778
715.451	0.0169743
715.530	0.0162981
715.608	0.0156123
715.686	0.0152425
715.764	0.0147672
715.842	0.0143829
715.920	0.0142094
715.998	0.0138261
716.076	0.0134483
716.155	0.0131176
716.233	0.0129317
716.311	0.0126511
716.389	0.0121143
716.467	0.0117612
716.545	0.0113770
716.623	0.0110663
716.701	0.0107206
716.780	0.0103878
716.858	0.0101659
716.936	0.00992081
717.014	0.00986946
717.092	0.00968552
717.170	0.00980545
717.248	0.00994209
717.326	0.0101521
717.405	0.0103983
717.483	0.0108929
717.561	0.0111951
717.639	0.0116321
717.717	0.0120173
717.795	0.0124527
717.873	0.0128342
717.951	0.0133421
718.030	0.0138033
718.108	0.0143520
718.186	0.0149420
718.264	0.0152541
718.342	0.0157749
718.420	0.0163253
718.498	0.0164568
718.576	0.0168596
718.655	0.0169463
718.733	0.0169273
718.811	0.0170081
718.889	0.0169257
718.967	0.0167171
719.045	0.0164333
719.123	0.0159654
719.201	0.0156174
719.280	0.0151128
719.358	0.0147426
719.436	0.0144937
719.514	0.0140399
719.592	0.0140170
719.670	0.0140295
719.748	0.0142401
719.826	0.0144804
719.905	0.0148881
719.983	0.0154331
720.061	0.0158291
720.139	0.0166077
720.217	0.0172275
720.295	0.0176427
720.373	0.0181177
720.451	0.0183882
720.530	0.0184882
720.608	0.0185381
720.686	0.0184414
720.764	0.0182216
720.842	0.0178094
720.920	0.0173417
720.998	0.0170512
721.076	0.0164828
721.155	0.0161816
721.233	0.0157357
721.311	0.0153344
721.389	0.0149682
721.467	0.0146012
721.545	0.0143844
721.623	0.0141781
721.701	0.0141174
721.780	0.0140553
721.858	0.0140723
721.936	0.0136731
722.014	0.0134086
722.092	0.0133898
722.170	0.0132704
722.248	0.0131938
722.326	0.0129020
722.405	0.0126859
722.483	0.0124911
722.561	0.0122137
722.639	0.0121408
722.717	0.0119450
722.795	0.0118914
722.873	0.0117355
722.951	0.0117334
723.030	0.0119271
723.108	0.0120107
723.186	0.0119439
723.264	0.0121312
723.342	0.0125226
723.420	0.0127126
723.498	0.0129709
723.576	0.0133557
723.655	0.0139049
723.733	0.0142026
723.811	0.0146368
723.889	0.0149261
723.967	0.0153003
724.045	0.0155968
724.123	0.0158340
724.201	0.0160436
724.280	0.0161374
724.358	0.0162725
724.436	0.0162483
724.514	0.0161314
724.592	0.0161991
724.670	0.0159202
724.748	0.0157660
724.826	0.0154732
724.905	0.0152525
724.983	0.0148069
725.061	0.0146099
725.139	0.0143281
725.217	0.0143137
725.295	0.0141264
725.373	0.0139307
725.451	0.0140710
725.530	0.0140197
