05/20/2022	16:14:56	Ver.	4.1	UNKNOWN
Optical Delay	639.982744	Delta X		0.078125	Sweeps	1	Scan Rate	0/0
Coordinates	Axis 1	NaN	Axis 2	NaN	Axis 3	NaN	Axis 4	NaN	Axis 5	NaN	Axis 6	0.000000
TX Power	0.000000	RX Power	0.000000

639.983	0.0143626
640.061	0.0144441
640.139	0.0143932
640.217	0.0144566
640.295	0.0142617
640.373	0.0143211
640.451	0.0143861
640.530	0.0144129
640.608	0.0145409
640.686	0.0143594
640.764	0.0142592
640.842	0.0143761
640.920	0.0144749
640.998	0.0142256
641.076	0.0144255
641.155	0.0144993
641.233	0.0145369
641.311	0.0143478
641.389	0.0144992
641.467	0.0144440
641.545	0.0144351
641.623	0.0144102
641.701	0.0143462
641.780	0.0144336
641.858	0.0143633
641.936	0.0143406
642.014	0.0144222
642.092	0.0143167
642.170	0.0142226
642.248	0.0143656
642.326	0.0142846
642.405	0.0143557
642.483	0.0143444
642.561	0.0142310
642.639	0.0141818
642.717	0.0143575
642.795	0.0143127
642.873	0.0143176
642.951	0.0144186
643.030	0.0143277
643.108	0.0143510
643.186	0.0144315
643.264	0.0143228
643.342	0.0141508
643.420	0.0143156
643.498	0.0142949
643.576	0.0142860
643.655	0.0142174
643.733	0.0143705
643.811	0.0143404
643.889	0.0142673
643.967	0.0141596
644.045	0.0142649
644.123	0.0143629
644.201	0.0142036
644.280	0.0144529
644.358	0.0142475
644.436	0.0144185
644.514	0.0143554
644.592	0.0142710
644.670	0.0144482
644.748	0.0144147
644.826	0.0142446
644.905	0.0142549
644.983	0.0142714
645.061	0.0143613
645.139	0.0144321
645.217	0.0142859
645.295	0.0143921
645.373	0.0143414
645.451	0.0142202
645.530	0.0143127
645.608	0.0141449
645.686	0.0144653
645.764	0.0143475
645.842	0.0142908
645.920	0.0144267
645.998	0.0143957
646.076	0.0143345
646.155	0.0142863
646.233	0.0142721
646.311	0.0143437
646.389	0.0143060
646.467	0.0145277
646.545	0.0143423
646.623	0.0143385
646.701	0.0143430
646.780	0.0143395
646.858	0.0143450
646.936	0.0144913
647.014	0.0144647
647.092	0.0142899
647.170	0.0144563
647.248	0.0142070
647.326	0.0143687
647.405	0.0144349
647.483	0.0143713
647.561	0.0142881
647.639	0.0143438
647.717	0.0143954
647.795	0.0143578
647.873	0.0142876
647.951	0.0143452
648.030	0.0143419
648.108	0.0143452
648.186	0.0144526
648.264	0.0144586
648.342	0.0144979
648.420	0.0142907
648.498	0.0142529
648.576	0.0142648
648.655	0.0144214
648.733	0.0142963
648.811	0.0142823
648.889	0.0143209
648.967	0.0142908
649.045	0.0143270
649.123	0.0142447
649.201	0.0144218
649.280	0.0144489
649.358	0.0143964
649.436	0.0143291
649.514	0.0143369
649.592	0.0144141
649.670	0.0143122
649.748	0.0143998
649.826	0.0144141
649.905	0.0142052
649.983	0.0143127
650.061	0.0144093
650.139	0.0143971
650.217	0.0143332
650.295	0.0142715
650.373	0.0143410
650.451	0.0143278
650.530	0.0142752
650.608	0.0144342
650.686	0.0143338
650.764	0.0143655
650.842	0.0143762
650.920	0.0143635
650.998	0.0142700
651.076	0.0143568
651.155	0.0143507
651.233	0.0144233
651.311	0.0142116
651.389	0.0143121
651.467	0.0144392
651.545	0.0144472
651.623	0.0143938
651.701	0.0143577
651.780	0.0143096
651.858	0.0143073
651.936	0.0144289
652.014	0.0144432
652.092	0.0143304
652.170	0.0142827
652.248	0.0143516
652.326	0.0144511
652.405	0.0144236
652.483	0.0142902
652.561	0.0143634
652.639	0.0143654
652.717	0.0143760
652.795	0.0142671
652.873	0.0143941
652.951	0.0143517
653.030	0.0144875
653.108	0.0143697
653.186	0.0143806
653.264	0.0143121
653.342	0.0145033
653.420	0.0143528
653.498	0.0143572
653.576	0.0145519
653.655	0.0142958
653.733	0.0143500
653.811	0.0143797
653.889	0.0144666
653.967	0.0143803
654.045	0.0145483
654.123	0.0145039
654.201	0.0143595
654.280	0.0145023
654.358	0.0144751
654.436	0.0142310
654.514	0.0144896
654.592	0.0143725
654.670	0.0144547
654.748	0.0144920
654.826	0.0144031
654.905	0.0143322
654.983	0.0144869
655.061	0.0144699
655.139	0.0142010
655.217	0.0143211
655.295	0.0142552
655.373	0.0144273
655.451	0.0144930
655.530	0.0143890
655.608	0.0143071
655.686	0.0144810
655.764	0.0143382
655.842	0.0142967
655.920	0.0143221
655.998	0.0143941
656.076	0.0144647
656.155	0.0143429
656.233	0.0144453
656.311	0.0143499
656.389	0.0143545
656.467	0.0144498
656.545	0.0143092
656.623	0.0143774
656.701	0.0143707
656.780	0.0143581
656.858	0.0144628
656.936	0.0145265
657.014	0.0144090
657.092	0.0143397
657.170	0.0145303
657.248	0.0145064
657.326	0.0143980
657.405	0.0144382
657.483	0.0143463
657.561	0.0145216
657.639	0.0145702
657.717	0.0144501
657.795	0.0144828
657.873	0.0145337
657.951	0.0144938
658.030	0.0144279
658.108	0.0143822
658.186	0.0143550
658.264	0.0144545
658.342	0.0145395
658.420	0.0144653
658.498	0.0144475
658.576	0.0142997
658.655	0.0144833
658.733	0.0145848
658.811	0.0144352
658.889	0.0143393
658.967	0.0144324
659.045	0.0144517
659.123	0.0143496
659.201	0.0143710
659.280	0.0143573
659.358	0.0144339
659.436	0.0144362
659.514	0.0145161
659.592	0.0144332
659.670	0.0145339
659.748	0.0143805
659.826	0.0143442
659.905	0.0143726
659.983	0.0144550
660.061	0.0144049
660.139	0.0143977
660.217	0.0144180
660.295	0.0143974
660.373	0.0143605
660.451	0.0144182
660.530	0.0144362
660.608	0.0144951
660.686	0.0142481
660.764	0.0143511
660.842	0.0142924
660.920	0.0142922
660.998	0.0143068
661.076	0.0144747
661.155	0.0143291
661.233	0.0143095
661.311	0.0142899
661.389	0.0143829
661.467	0.0143932
661.545	0.0144718
661.623	0.0143006
661.701	0.0143921
661.780	0.0143356
661.858	0.0143520
661.936	0.0145545
662.014	0.0143125
662.092	0.0143529
662.170	0.0143752
662.248	0.0142554
662.326	0.0144574
662.405	0.0143932
662.483	0.0144147
662.561	0.0143819
662.639	0.0142908
662.717	0.0142570
662.795	0.0142406
662.873	0.0144469
662.951	0.0142206
663.030	0.0143443
663.108	0.0143740
663.186	0.0143710
663.264	0.0143527
663.342	0.0143256
663.420	0.0143703
663.498	0.0142919
663.576	0.0142201
663.655	0.0143285
663.733	0.0144375
663.811	0.0144102
663.889	0.0143053
663.967	0.0142316
664.045	0.0143262
664.123	0.0142971
664.201	0.0142973
664.280	0.0144635
664.358	0.0143454
664.436	0.0143121
664.514	0.0143259
664.592	0.0142925
664.670	0.0142997
664.748	0.0143212
664.826	0.0142755
664.905	0.0143091
664.983	0.0143942
665.061	0.0143999
665.139	0.0144415
665.217	0.0144421
665.295	0.0142545
665.373	0.0144017
665.451	0.0143172
665.530	0.0143149
665.608	0.0144032
665.686	0.0141424
665.764	0.0143435
665.842	0.0143884
665.920	0.0141887
665.998	0.0143739
666.076	0.0142792
666.155	0.0142088
666.233	0.0142840
666.311	0.0143929
666.389	0.0143377
666.467	0.0143847
666.545	0.0142207
666.623	0.0142719
666.701	0.0143501
666.780	0.0143778
666.858	0.0143542
666.936	0.0143279
667.014	0.0143358
667.092	0.0141853
667.170	0.0141879
667.248	0.0142332
667.326	0.0142765
667.405	0.0143605
667.483	0.0142654
667.561	0.0144807
667.639	0.0142735
667.717	0.0142376
667.795	0.0143801
667.873	0.0143855
667.951	0.0142709
668.030	0.0143623
668.108	0.0142892
668.186	0.0143231
668.264	0.0141624
668.342	0.0142245
668.420	0.0144058
668.498	0.0143111
668.576	0.0143255
668.655	0.0143858
668.733	0.0143870
668.811	0.0143196
668.889	0.0143488
668.967	0.0142738
669.045	0.0144196
669.123	0.0144668
669.201	0.0144626
669.280	0.0141924
669.358	0.0143809
669.436	0.0143750
669.514	0.0143259
669.592	0.0144221
669.670	0.0142586
669.748	0.0142948
669.826	0.0143871
669.905	0.0143646
669.983	0.0144456
670.061	0.0144286
670.139	0.0144147
670.217	0.0143433
670.295	0.0145157
670.373	0.0143284
670.451	0.0143476
670.530	0.0143845
670.608	0.0143554
670.686	0.0144127
670.764	0.0143561
670.842	0.0143319
670.920	0.0143118
670.998	0.0144216
671.076	0.0144113
671.155	0.0143396
671.233	0.0143773
671.311	0.0143695
671.389	0.0143309
671.467	0.0144121
671.545	0.0143407
671.623	0.0142638
671.701	0.0143599
671.780	0.0143848
671.858	0.0143402
671.936	0.0144787
672.014	0.0143927
672.092	0.0144581
672.170	0.0142802
672.248	0.0143037
672.326	0.0144247
672.405	0.0142931
672.483	0.0143347
672.561	0.0143713
672.639	0.0142790
672.717	0.0143051
672.795	0.0143463
672.873	0.0143445
672.951	0.0143591
673.030	0.0144498
673.108	0.0143542
673.186	0.0144901
673.264	0.0143045
673.342	0.0143969
673.420	0.0143277
673.498	0.0142725
673.576	0.0143680
673.655	0.0144612
673.733	0.0144379
673.811	0.0144367
673.889	0.0143134
673.967	0.0143248
674.045	0.0143848
674.123	0.0142474
674.201	0.0143709
674.280	0.0142919
674.358	0.0143293
674.436	0.0143437
674.514	0.0143452
674.592	0.0144975
674.670	0.0143618
674.748	0.0142690
674.826	0.0143056
674.905	0.0143921
674.983	0.0143916
675.061	0.0143484
675.139	0.0143285
675.217	0.0142844
675.295	0.0143727
675.373	0.0144006
675.451	0.0143367
675.530	0.0144161
675.608	0.0143378
675.686	0.0143272
675.764	0.0143191
675.842	0.0142709
675.920	0.0143020
675.998	0.0143679
676.076	0.0142716
676.155	0.0144165
676.233	0.0143156
676.311	0.0141928
676.389	0.0143384
676.467	0.0143201
676.545	0.0143497
676.623	0.0143721
676.701	0.0143436
676.780	0.0144809
676.858	0.0143550
676.936	0.0142906
677.014	0.0143169
677.092	0.0142911
677.170	0.0143176
677.248	0.0143236
677.326	0.0142342
677.405	0.0142129
677.483	0.0142640
677.561	0.0143866
677.639	0.0143774
677.717	0.0143456
677.795	0.0142980
677.873	0.0143195
677.951	0.0143459
678.030	0.0143608
678.108	0.0142984
678.186	0.0142847
678.264	0.0142680
678.342	0.0143172
678.420	0.0143465
678.498	0.0144427
678.576	0.0144322
678.655	0.0143875
678.733	0.0143955
678.811	0.0142953
678.889	0.0144093
678.967	0.0144376
679.045	0.0143748
679.123	0.0144254
679.201	0.0143721
679.280	0.0142821
679.358	0.0143058
679.436	0.0143433
679.514	0.0143668
679.592	0.0141895
679.670	0.0142664
679.748	0.0143520
679.826	0.0143823
679.905	0.0142890
679.983	0.0143449
680.061	0.0141122
680.139	0.0142609
680.217	0.0143529
680.295	0.0142298
680.373	0.0142688
680.451	0.0142635
680.530	0.0142861
680.608	0.0145509
680.686	0.0144360
680.764	0.0143852
680.842	0.0143958
680.920	0.0143799
680.998	0.0143784
681.076	0.0143180
681.155	0.0142381
681.233	0.0142358
681.311	0.0144882
681.389	0.0143224
681.467	0.0144275
681.545	0.0144286
681.623	0.0143963
681.701	0.0144307
681.780	0.0143645
681.858	0.0143578
681.936	0.0144749
682.014	0.0144002
682.092	0.0143278
682.170	0.0143304
682.248	0.0145026
682.326	0.0144269
682.405	0.0143849
682.483	0.0142754
682.561	0.0143418
682.639	0.0142883
682.717	0.0144178
682.795	0.0143135
682.873	0.0143633
682.951	0.0143063
683.030	0.0143256
683.108	0.0142749
683.186	0.0142359
683.264	0.0143149
683.342	0.0143024
683.420	0.0141970
683.498	0.0144460
683.576	0.0144381
683.655	0.0145640
683.733	0.0143726
683.811	0.0143414
683.889	0.0144390
683.967	0.0145313
684.045	0.0146656
684.123	0.0145896
684.201	0.0145739
684.280	0.0146673
684.358	0.0146500
684.436	0.0146249
684.514	0.0145261
684.592	0.0144814
684.670	0.0145124
684.748	0.0144151
684.826	0.0143764
684.905	0.0144538
684.983	0.0143732
685.061	0.0141692
685.139	0.0142088
685.217	0.0142799
685.295	0.0141343
685.373	0.0140800
685.451	0.0141001
685.530	0.0142749
685.608	0.0141937
685.686	0.0140450
685.764	0.0141966
685.842	0.0142391
685.920	0.0144496
685.998	0.0144468
686.076	0.0144547
686.155	0.0146349
686.233	0.0148919
686.311	0.0148486
686.389	0.0147860
686.467	0.0149020
686.545	0.0148782
686.623	0.0148047
686.701	0.0146503
686.780	0.0145605
686.858	0.0146219
686.936	0.0143556
687.014	0.0145924
687.092	0.0144852
687.170	0.0143883
687.248	0.0145035
687.326	0.0144643
687.405	0.0143494
687.483	0.0144410
687.561	0.0144353
687.639	0.0145461
687.717	0.0145185
687.795	0.0144273
687.873	0.0143251
687.951	0.0143650
688.030	0.0144305
688.108	0.0143522
688.186	0.0143589
688.264	0.0143216
688.342	0.0141418
688.420	0.0143865
688.498	0.0144309
688.576	0.0143421
688.655	0.0142429
688.733	0.0141597
688.811	0.0141595
688.889	0.0141692
688.967	0.0141933
689.045	0.0141297
689.123	0.0141649
689.201	0.0140206
689.280	0.0141297
689.358	0.0142611
689.436	0.0141438
689.514	0.0143634
689.592	0.0143954
689.670	0.0145717
689.748	0.0145612
689.826	0.0145408
689.905	0.0148376
689.983	0.0149789
690.061	0.0148147
690.139	0.0150009
690.217	0.0151071
690.295	0.0152297
690.373	0.0150262
690.451	0.0151610
690.530	0.0150655
690.608	0.0148938
690.686	0.0149715
690.764	0.0148086
690.842	0.0147089
690.920	0.0147015
690.998	0.0145470
691.076	0.0145097
691.155	0.0143797
691.233	0.0142245
691.311	0.0143363
691.389	0.0142338
691.467	0.0139921
691.545	0.0140493
691.623	0.0140787
691.701	0.0138412
691.780	0.0138590
691.858	0.0138184
691.936	0.0136442
692.014	0.0139133
692.092	0.0139191
692.170	0.0140049
692.248	0.0138824
692.326	0.0141678
692.405	0.0142124
692.483	0.0141506
692.561	0.0142261
692.639	0.0142164
692.717	0.0142300
692.795	0.0139889
692.873	0.0140579
692.951	0.0138893
693.030	0.0140404
693.108	0.0140144
693.186	0.0139999
693.264	0.0140427
693.342	0.0139768
693.420	0.0140942
693.498	0.0143021
693.576	0.0144531
693.655	0.0143709
693.733	0.0146458
693.811	0.0148223
693.889	0.0148816
693.967	0.0149113
694.045	0.0149139
694.123	0.0149979
694.201	0.0150177
694.280	0.0149935
694.358	0.0151371
694.436	0.0150999
694.514	0.0150468
694.592	0.0150908
694.670	0.0151998
694.748	0.0153038
694.826	0.0153037
694.905	0.0152676
694.983	0.0154340
695.061	0.0152876
695.139	0.0152400
695.217	0.0151190
695.295	0.0152261
695.373	0.0151366
695.451	0.0151836
695.530	0.0153239
695.608	0.0151866
695.686	0.0151669
695.764	0.0149739
695.842	0.0150424
695.920	0.0148600
695.998	0.0147246
696.076	0.0145534
696.155	0.0144977
696.233	0.0142215
696.311	0.0140673
696.389	0.0138036
696.467	0.0135350
696.545	0.0133321
696.623	0.0130344
696.701	0.0127853
696.780	0.0124706
696.858	0.0122520
696.936	0.0119273
697.014	0.0117802
697.092	0.0114462
697.170	0.0112089
697.248	0.0109374
697.326	0.0109809
697.405	0.0109547
697.483	0.0112032
697.561	0.0114770
697.639	0.0117280
697.717	0.0120249
697.795	0.0124856
697.873	0.0131558
697.951	0.0136971
698.030	0.0142668
698.108	0.0149953
698.186	0.0153952
698.264	0.0158082
698.342	0.0165456
698.420	0.0171214
698.498	0.0174893
698.576	0.0180303
698.655	0.0183997
698.733	0.0188248
698.811	0.0190602
698.889	0.0191336
698.967	0.0192365
699.045	0.0194598
699.123	0.0193255
699.201	0.0189780
699.280	0.0189601
699.358	0.0185054
699.436	0.0180936
699.514	0.0175156
699.592	0.0168528
699.670	0.0161485
699.748	0.0155717
699.826	0.0148559
699.905	0.0142289
699.983	0.0134440
700.061	0.0127807
700.139	0.0122666
700.217	0.0116759
700.295	0.0112874
700.373	0.0108929
700.451	0.0106528
700.530	0.0104626
700.608	0.0103457
700.686	0.0102106
700.764	0.0101878
700.842	0.0102171
700.920	0.0104370
700.998	0.0105488
701.076	0.0108289
701.155	0.0111579
701.233	0.0113118
701.311	0.0116740
701.389	0.0119212
701.467	0.0121906
701.545	0.0124767
701.623	0.0127471
701.701	0.0128327
701.780	0.0129961
701.858	0.0131090
701.936	0.0132084
702.014	0.0135339
702.092	0.0136237
702.170	0.0136768
702.248	0.0137839
702.326	0.0140603
702.405	0.0143383
702.483	0.0146812
702.561	0.0149173
702.639	0.0153000
702.717	0.0157890
702.795	0.0161632
702.873	0.0164516
702.951	0.0168542
703.030	0.0171798
703.108	0.0174561
703.186	0.0175944
703.264	0.0176339
703.342	0.0177997
703.420	0.0178329
703.498	0.0179180
703.576	0.0177921
703.655	0.0177872
703.733	0.0175292
703.811	0.0173130
703.889	0.0173402
703.967	0.0173098
704.045	0.0172189
704.123	0.0170225
704.201	0.0169234
704.280	0.0169815
704.358	0.0169505
704.436	0.0167746
704.514	0.0166689
704.592	0.0164170
704.670	0.0159146
704.748	0.0153454
704.826	0.0147815
704.905	0.0142583
704.983	0.0134737
705.061	0.0128472
705.139	0.0122359
705.217	0.0116068
705.295	0.0110786
705.373	0.0105143
705.451	0.0101740
705.530	0.0100549
705.608	0.00991920
705.686	0.0100511
705.764	0.0102271
705.842	0.0103392
705.920	0.0107336
705.998	0.0111172
706.076	0.0113937
706.155	0.0118097
706.233	0.0122585
706.311	0.0124877
706.389	0.0129114
706.467	0.0131534
706.545	0.0134182
706.623	0.0136668
706.701	0.0138854
706.780	0.0138454
706.858	0.0139153
706.936	0.0141728
707.014	0.0140950
707.092	0.0141048
707.170	0.0139973
707.248	0.0137452
707.326	0.0138781
707.405	0.0135557
707.483	0.0136134
707.561	0.0133959
707.639	0.0132995
707.717	0.0131529
707.795	0.0130303
707.873	0.0131796
707.951	0.0133346
708.030	0.0136969
708.108	0.0140791
708.186	0.0146150
708.264	0.0152923
708.342	0.0159665
708.420	0.0167588
708.498	0.0174570
708.576	0.0182818
708.655	0.0187753
708.733	0.0192877
708.811	0.0197661
708.889	0.0198396
708.967	0.0199870
709.045	0.0200653
709.123	0.0198181
709.201	0.0195124
709.280	0.0191265
709.358	0.0186843
709.436	0.0183339
709.514	0.0176495
709.592	0.0173474
709.670	0.0169879
709.748	0.0164516
709.826	0.0162185
709.905	0.0158360
709.983	0.0157991
710.061	0.0154708
710.139	0.0148273
710.217	0.0146526
710.295	0.0142580
710.373	0.0138420
710.451	0.0130244
710.530	0.0126077
710.608	0.0119884
710.686	0.0114808
710.764	0.0108147
710.842	0.0105178
710.920	0.0101724
710.998	0.00980431
711.076	0.00957329
711.155	0.00944267
711.233	0.00947678
711.311	0.00930626
711.389	0.00945419
711.467	0.00947762
711.545	0.00971184
711.623	0.00988800
711.701	0.0102985
711.780	0.0104556
711.858	0.0108197
711.936	0.0111692
712.014	0.0116637
712.092	0.0122836
712.170	0.0129160
712.248	0.0134209
712.326	0.0140513
712.405	0.0150687
712.483	0.0152817
712.561	0.0155203
712.639	0.0159895
712.717	0.0161434
712.795	0.0162565
712.873	0.0161225
712.951	0.0160205
713.030	0.0156528
713.108	0.0154424
713.186	0.0150979
713.264	0.0147448
713.342	0.0145045
713.420	0.0143259
713.498	0.0140490
713.576	0.0140961
713.655	0.0142574
713.733	0.0144654
713.811	0.0149950
713.889	0.0155002
713.967	0.0159867
714.045	0.0166512
714.123	0.0172816
714.201	0.0178568
714.280	0.0184456
714.358	0.0188412
714.436	0.0191737
714.514	0.0196107
714.592	0.0195467
714.670	0.0196213
714.748	0.0193705
714.826	0.0190860
714.905	0.0188573
714.983	0.0184243
715.061	0.0180440
715.139	0.0174401
715.217	0.0166600
715.295	0.0161817
715.373	0.0157496
715.451	0.0150763
715.530	0.0146358
715.608	0.0141763
715.686	0.0137328
715.764	0.0133791
715.842	0.0130289
715.920	0.0129071
715.998	0.0127598
716.076	0.0123681
716.155	0.0122631
716.233	0.0120733
716.311	0.0118910
716.389	0.0115813
716.467	0.0114395
716.545	0.0112322
716.623	0.0110900
716.701	0.0108316
716.780	0.0106461
716.858	0.0104083
716.936	0.0102874
717.014	0.0102590
717.092	0.0102142
717.170	0.0101815
717.248	0.0102622
717.326	0.0103319
717.405	0.0104685
717.483	0.0107332
717.561	0.0112643
717.639	0.0116632
717.717	0.0121487
717.795	0.0126193
717.873	0.0133202
717.951	0.0138686
718.030	0.0143913
718.108	0.0148485
718.186	0.0154273
718.264	0.0160822
718.342	0.0164044
718.420	0.0165968
718.498	0.0167937
718.576	0.0168875
718.655	0.0169224
718.733	0.0168192
718.811	0.0166415
718.889	0.0162407
718.967	0.0158062
719.045	0.0153745
719.123	0.0147997
719.201	0.0143388
719.280	0.0139757
719.358	0.0137891
719.436	0.0135777
719.514	0.0135011
719.592	0.0135483
719.670	0.0137560
719.748	0.0139620
719.826	0.0143822
719.905	0.0148089
719.983	0.0154017
720.061	0.0159174
720.139	0.0164056
720.217	0.0167711
720.295	0.0171765
720.373	0.0175473
720.451	0.0178902
720.530	0.0182998
720.608	0.0184093
720.686	0.0184496
720.764	0.0184944
720.842	0.0184274
720.920	0.0182782
720.998	0.0180392
721.076	0.0178218
721.155	0.0174902
721.233	0.0169094
721.311	0.0163000
721.389	0.0159209
721.467	0.0153415
721.545	0.0147839
721.623	0.0143011
721.701	0.0140232
721.780	0.0135285
721.858	0.0132605
721.936	0.0131178
722.014	0.0127004
722.092	0.0127595
722.170	0.0125590
722.248	0.0124022
722.326	0.0123812
722.405	0.0121156
722.483	0.0120034
722.561	0.0116578
722.639	0.0113326
722.717	0.0109606
722.795	0.0106417
722.873	0.0102180
722.951	0.00985794
723.030	0.00981789
723.108	0.00965927
723.186	0.00967278
723.264	0.00979813
723.342	0.0101331
723.420	0.0106178
723.498	0.0110391
723.576	0.0115281
723.655	0.0121333
723.733	0.0127663
723.811	0.0133615
723.889	0.0139697
723.967	0.0141878
724.045	0.0147289
724.123	0.0151024
724.201	0.0154190
724.280	0.0157062
724.358	0.0160036
724.436	0.0162440
724.514	0.0164801
724.592	0.0166740
724.670	0.0167773
724.748	0.0168562
724.826	0.0169328
724.905	0.0167361
724.983	0.0165942
725.061	0.0164531
725.139	0.0160758
725.217	0.0156852
725.295	0.0152618
725.373	0.0149019
725.451	0.0144234
725.530	0.0141225
725.608	0.0138205
