05/20/2022	16:16:21	Ver.	4.1	UNKNOWN
Optical Delay	639.982744	Delta X		0.078125	Sweeps	1	Scan Rate	0/0
Coordinates	Axis 1	NaN	Axis 2	NaN	Axis 3	NaN	Axis 4	NaN	Axis 5	NaN	Axis 6	0.000000
TX Power	0.000000	RX Power	0.000000

639.983	0.0142645
640.061	0.0143008
640.139	0.0142778
640.217	0.0142583
640.295	0.0142964
640.373	0.0141800
640.451	0.0142488
640.530	0.0142796
640.608	0.0142870
640.686	0.0142103
640.764	0.0142266
640.842	0.0143309
640.920	0.0142847
640.998	0.0142469
641.076	0.0141315
641.155	0.0142187
641.233	0.0142768
641.311	0.0142357
641.389	0.0142277
641.467	0.0142896
641.545	0.0143267
641.623	0.0142646
641.701	0.0141693
641.780	0.0142883
641.858	0.0142596
641.936	0.0143607
642.014	0.0141901
642.092	0.0141928
642.170	0.0142208
642.248	0.0142013
642.326	0.0142206
642.405	0.0142075
642.483	0.0143021
642.561	0.0142815
642.639	0.0142509
642.717	0.0142730
642.795	0.0141901
642.873	0.0142446
642.951	0.0141691
643.030	0.0142903
643.108	0.0140493
643.186	0.0140923
643.264	0.0142059
643.342	0.0140421
643.420	0.0141780
643.498	0.0141523
643.576	0.0143979
643.655	0.0141698
643.733	0.0143249
643.811	0.0141296
643.889	0.0141839
643.967	0.0142377
644.045	0.0142365
644.123	0.0141046
644.201	0.0141042
644.280	0.0142313
644.358	0.0141559
644.436	0.0141531
644.514	0.0142126
644.592	0.0141733
644.670	0.0142278
644.748	0.0142876
644.826	0.0142488
644.905	0.0142236
644.983	0.0140984
645.061	0.0141003
645.139	0.0142130
645.217	0.0142652
645.295	0.0142388
645.373	0.0141032
645.451	0.0141783
645.530	0.0141166
645.608	0.0142943
645.686	0.0143320
645.764	0.0142454
645.842	0.0141307
645.920	0.0142896
645.998	0.0142542
646.076	0.0142292
646.155	0.0141691
646.233	0.0142211
646.311	0.0141668
646.389	0.0141863
646.467	0.0141531
646.545	0.0142522
646.623	0.0142390
646.701	0.0143164
646.780	0.0142075
646.858	0.0141611
646.936	0.0141822
647.014	0.0142894
647.092	0.0141548
647.170	0.0141417
647.248	0.0141111
647.326	0.0142209
647.405	0.0141461
647.483	0.0140875
647.561	0.0142103
647.639	0.0141289
647.717	0.0142902
647.795	0.0140708
647.873	0.0141797
647.951	0.0142439
648.030	0.0142035
648.108	0.0142108
648.186	0.0140936
648.264	0.0143195
648.342	0.0140870
648.420	0.0141801
648.498	0.0142751
648.576	0.0140898
648.655	0.0141940
648.733	0.0140960
648.811	0.0141387
648.889	0.0142590
648.967	0.0142346
649.045	0.0142457
649.123	0.0142465
649.201	0.0141292
649.280	0.0140570
649.358	0.0141051
649.436	0.0142627
649.514	0.0141936
649.592	0.0141843
649.670	0.0142410
649.748	0.0140539
649.826	0.0142302
649.905	0.0142630
649.983	0.0141129
650.061	0.0142704
650.139	0.0141209
650.217	0.0140550
650.295	0.0141167
650.373	0.0142194
650.451	0.0141958
650.530	0.0141872
650.608	0.0142911
650.686	0.0142318
650.764	0.0141709
650.842	0.0140929
650.920	0.0143917
650.998	0.0142986
651.076	0.0141460
651.155	0.0142845
651.233	0.0142822
651.311	0.0142271
651.389	0.0143010
651.467	0.0142995
651.545	0.0142724
651.623	0.0141606
651.701	0.0142236
651.780	0.0142587
651.858	0.0142657
651.936	0.0142789
652.014	0.0141137
652.092	0.0142205
652.170	0.0143124
652.248	0.0143144
652.326	0.0140773
652.405	0.0141728
652.483	0.0142074
652.561	0.0141454
652.639	0.0142924
652.717	0.0142541
652.795	0.0143807
652.873	0.0141282
652.951	0.0142326
653.030	0.0141329
653.108	0.0143495
653.186	0.0142506
653.264	0.0141124
653.342	0.0140881
653.420	0.0143044
653.498	0.0141725
653.576	0.0141325
653.655	0.0141370
653.733	0.0141471
653.811	0.0143289
653.889	0.0141753
653.967	0.0142408
654.045	0.0142262
654.123	0.0142440
654.201	0.0142212
654.280	0.0141497
654.358	0.0142609
654.436	0.0142862
654.514	0.0140733
654.592	0.0143278
654.670	0.0142635
654.748	0.0141858
654.826	0.0143187
654.905	0.0142637
654.983	0.0141711
655.061	0.0142338
655.139	0.0142363
655.217	0.0141764
655.295	0.0142836
655.373	0.0142378
655.451	0.0141879
655.530	0.0144089
655.608	0.0141518
655.686	0.0140997
655.764	0.0142540
655.842	0.0141898
655.920	0.0143237
655.998	0.0142347
656.076	0.0141842
656.155	0.0141534
656.233	0.0141922
656.311	0.0142343
656.389	0.0143222
656.467	0.0141828
656.545	0.0141367
656.623	0.0141927
656.701	0.0141362
656.780	0.0143692
656.858	0.0144067
656.936	0.0141718
657.014	0.0141700
657.092	0.0141161
657.170	0.0142113
657.248	0.0143906
657.326	0.0143243
657.405	0.0141014
657.483	0.0141444
657.561	0.0141978
657.639	0.0141589
657.717	0.0142030
657.795	0.0142404
657.873	0.0142304
657.951	0.0141440
658.030	0.0142056
658.108	0.0141013
658.186	0.0141767
658.264	0.0141173
658.342	0.0141184
658.420	0.0142461
658.498	0.0142276
658.576	0.0142039
658.655	0.0142656
658.733	0.0141988
658.811	0.0142213
658.889	0.0142184
658.967	0.0140450
659.045	0.0141195
659.123	0.0141559
659.201	0.0141998
659.280	0.0142829
659.358	0.0142393
659.436	0.0142247
659.514	0.0142198
659.592	0.0142004
659.670	0.0141526
659.748	0.0140656
659.826	0.0141687
659.905	0.0142551
659.983	0.0142931
660.061	0.0141624
660.139	0.0142039
660.217	0.0141695
660.295	0.0142393
660.373	0.0141599
660.451	0.0142224
660.530	0.0143054
660.608	0.0141173
660.686	0.0140984
660.764	0.0141689
660.842	0.0142345
660.920	0.0140922
660.998	0.0142864
661.076	0.0142196
661.155	0.0141721
661.233	0.0141605
661.311	0.0142249
661.389	0.0141920
661.467	0.0142825
661.545	0.0141441
661.623	0.0142242
661.701	0.0142236
661.780	0.0142341
661.858	0.0141354
661.936	0.0142095
662.014	0.0142386
662.092	0.0141604
662.170	0.0141054
662.248	0.0142136
662.326	0.0142792
662.405	0.0141927
662.483	0.0141080
662.561	0.0142284
662.639	0.0143853
662.717	0.0142181
662.795	0.0141855
662.873	0.0141511
662.951	0.0142719
663.030	0.0141379
663.108	0.0141862
663.186	0.0142133
663.264	0.0140809
663.342	0.0140970
663.420	0.0142319
663.498	0.0142013
663.576	0.0141879
663.655	0.0142185
663.733	0.0142379
663.811	0.0141898
663.889	0.0142764
663.967	0.0141759
664.045	0.0142093
664.123	0.0143035
664.201	0.0141611
664.280	0.0142168
664.358	0.0141972
664.436	0.0141404
664.514	0.0141928
664.592	0.0141784
664.670	0.0141751
664.748	0.0142548
664.826	0.0142419
664.905	0.0141278
664.983	0.0142718
665.061	0.0141720
665.139	0.0142204
665.217	0.0142189
665.295	0.0141732
665.373	0.0142143
665.451	0.0141506
665.530	0.0142701
665.608	0.0141297
665.686	0.0142987
665.764	0.0141803
665.842	0.0141332
665.920	0.0142153
665.998	0.0140765
666.076	0.0142583
666.155	0.0141294
666.233	0.0142344
666.311	0.0141169
666.389	0.0142319
666.467	0.0141937
666.545	0.0142533
666.623	0.0141357
666.701	0.0142032
666.780	0.0141170
666.858	0.0141980
666.936	0.0141935
667.014	0.0142002
667.092	0.0141781
667.170	0.0142703
667.248	0.0141390
667.326	0.0140557
667.405	0.0141692
667.483	0.0141142
667.561	0.0141010
667.639	0.0142313
667.717	0.0142095
667.795	0.0141917
667.873	0.0141959
667.951	0.0142294
668.030	0.0140707
668.108	0.0142682
668.186	0.0143028
668.264	0.0142673
668.342	0.0142088
668.420	0.0142906
668.498	0.0142414
668.576	0.0142487
668.655	0.0140168
668.733	0.0141322
668.811	0.0142049
668.889	0.0142421
668.967	0.0143192
669.045	0.0142931
669.123	0.0142644
669.201	0.0143046
669.280	0.0142796
669.358	0.0141750
669.436	0.0142638
669.514	0.0141025
669.592	0.0142107
669.670	0.0141832
669.748	0.0142788
669.826	0.0140916
669.905	0.0141473
669.983	0.0142660
670.061	0.0142098
670.139	0.0142509
670.217	0.0142457
670.295	0.0142637
670.373	0.0141926
670.451	0.0142621
670.530	0.0141178
670.608	0.0141810
670.686	0.0140987
670.764	0.0141999
670.842	0.0142513
670.920	0.0141838
670.998	0.0142286
671.076	0.0142262
671.155	0.0141811
671.233	0.0141250
671.311	0.0143497
671.389	0.0142654
671.467	0.0142849
671.545	0.0142677
671.623	0.0141864
671.701	0.0142287
671.780	0.0143146
671.858	0.0142992
671.936	0.0143058
672.014	0.0141644
672.092	0.0141472
672.170	0.0142010
672.248	0.0141712
672.326	0.0141497
672.405	0.0143158
672.483	0.0141958
672.561	0.0141544
672.639	0.0141418
672.717	0.0143525
672.795	0.0141392
672.873	0.0141285
672.951	0.0142461
673.030	0.0142143
673.108	0.0142760
673.186	0.0142873
673.264	0.0142349
673.342	0.0142297
673.420	0.0141852
673.498	0.0141680
673.576	0.0143047
673.655	0.0141501
673.733	0.0142594
673.811	0.0142044
673.889	0.0142892
673.967	0.0142287
674.045	0.0142348
674.123	0.0142129
674.201	0.0141915
674.280	0.0143510
674.358	0.0141670
674.436	0.0142780
674.514	0.0141277
674.592	0.0142799
674.670	0.0142113
674.748	0.0142127
674.826	0.0142297
674.905	0.0142347
674.983	0.0143446
675.061	0.0142749
675.139	0.0141883
675.217	0.0142910
675.295	0.0142581
675.373	0.0142774
675.451	0.0142666
675.530	0.0142770
675.608	0.0141482
675.686	0.0142554
675.764	0.0141289
675.842	0.0143110
675.920	0.0142746
675.998	0.0142386
676.076	0.0142087
676.155	0.0142256
676.233	0.0142143
676.311	0.0141308
676.389	0.0141696
676.467	0.0141978
676.545	0.0140870
676.623	0.0143273
676.701	0.0141721
676.780	0.0143402
676.858	0.0142516
676.936	0.0143086
677.014	0.0142086
677.092	0.0142197
677.170	0.0140756
677.248	0.0141827
677.326	0.0143320
677.405	0.0143012
677.483	0.0142816
677.561	0.0142534
677.639	0.0142654
677.717	0.0142722
677.795	0.0142311
677.873	0.0142916
677.951	0.0142719
678.030	0.0142784
678.108	0.0141210
678.186	0.0141892
678.264	0.0141900
678.342	0.0142974
678.420	0.0143179
678.498	0.0142526
678.576	0.0140842
678.655	0.0141197
678.733	0.0141733
678.811	0.0141686
678.889	0.0141785
678.967	0.0140198
679.045	0.0141451
679.123	0.0140047
679.201	0.0140922
679.280	0.0141412
679.358	0.0140620
679.436	0.0140237
679.514	0.0141972
679.592	0.0142635
679.670	0.0142796
679.748	0.0142331
679.826	0.0142201
679.905	0.0143515
679.983	0.0142588
680.061	0.0142780
680.139	0.0145061
680.217	0.0143308
680.295	0.0144145
680.373	0.0142041
680.451	0.0141583
680.530	0.0141528
680.608	0.0142103
680.686	0.0142191
680.764	0.0141885
680.842	0.0140862
680.920	0.0141724
680.998	0.0140506
681.076	0.0140961
681.155	0.0140681
681.233	0.0141342
681.311	0.0140555
681.389	0.0140447
681.467	0.0140730
681.545	0.0140800
681.623	0.0140147
681.701	0.0141737
681.780	0.0141204
681.858	0.0140434
681.936	0.0142492
682.014	0.0142274
682.092	0.0142466
682.170	0.0143168
682.248	0.0143179
682.326	0.0142773
682.405	0.0144804
682.483	0.0141893
682.561	0.0143074
682.639	0.0142086
682.717	0.0143082
682.795	0.0142835
682.873	0.0143044
682.951	0.0142480
683.030	0.0141390
683.108	0.0141903
683.186	0.0141666
683.264	0.0141063
683.342	0.0140577
683.420	0.0142692
683.498	0.0142171
683.576	0.0141656
683.655	0.0141307
683.733	0.0140629
683.811	0.0141576
683.889	0.0141508
683.967	0.0140009
684.045	0.0141268
684.123	0.0140924
684.201	0.0140428
684.280	0.0138922
684.358	0.0140576
684.436	0.0141549
684.514	0.0141428
684.592	0.0142429
684.670	0.0141784
684.748	0.0143373
684.826	0.0144805
684.905	0.0144310
684.983	0.0143912
685.061	0.0144034
685.139	0.0144587
685.217	0.0145389
685.295	0.0145119
685.373	0.0144480
685.451	0.0143833
685.530	0.0142655
685.608	0.0141288
685.686	0.0140849
685.764	0.0140455
685.842	0.0138226
685.920	0.0137566
685.998	0.0137234
686.076	0.0137062
686.155	0.0138309
686.233	0.0138333
686.311	0.0137689
686.389	0.0139527
686.467	0.0141132
686.545	0.0141713
686.623	0.0141493
686.701	0.0143102
686.780	0.0142847
686.858	0.0142751
686.936	0.0142719
687.014	0.0142556
687.092	0.0139875
687.170	0.0139650
687.248	0.0139267
687.326	0.0139031
687.405	0.0139843
687.483	0.0139175
687.561	0.0139320
687.639	0.0141918
687.717	0.0143192
687.795	0.0143478
687.873	0.0144473
687.951	0.0146080
688.030	0.0146705
688.108	0.0148137
688.186	0.0148456
688.264	0.0146989
688.342	0.0147140
688.420	0.0144526
688.498	0.0143306
688.576	0.0143419
688.655	0.0140859
688.733	0.0140787
688.811	0.0139912
688.889	0.0139671
688.967	0.0139851
689.045	0.0139915
689.123	0.0140337
689.201	0.0141272
689.280	0.0141495
689.358	0.0141600
689.436	0.0141711
689.514	0.0143741
689.592	0.0143137
689.670	0.0143394
689.748	0.0142663
689.826	0.0142531
689.905	0.0141202
689.983	0.0141975
690.061	0.0142069
690.139	0.0142381
690.217	0.0141902
690.295	0.0143134
690.373	0.0143179
690.451	0.0142150
690.530	0.0141739
690.608	0.0141687
690.686	0.0141700
690.764	0.0140270
690.842	0.0140054
690.920	0.0138077
690.998	0.0136511
691.076	0.0135365
691.155	0.0134322
691.233	0.0130116
691.311	0.0133074
691.389	0.0133403
691.467	0.0132952
691.545	0.0134924
691.623	0.0138493
691.701	0.0141406
691.780	0.0145992
691.858	0.0148097
691.936	0.0150404
692.014	0.0152335
692.092	0.0153935
692.170	0.0156659
692.248	0.0157020
692.326	0.0155772
692.405	0.0155442
692.483	0.0155950
692.561	0.0155384
692.639	0.0153047
692.717	0.0150330
692.795	0.0149856
692.873	0.0147142
692.951	0.0146204
693.030	0.0144041
693.108	0.0141818
693.186	0.0140838
693.264	0.0140809
693.342	0.0138897
693.420	0.0136794
693.498	0.0138226
693.576	0.0137382
693.655	0.0137708
693.733	0.0137018
693.811	0.0137460
693.889	0.0138027
693.967	0.0139505
694.045	0.0139785
694.123	0.0139755
694.201	0.0140046
694.280	0.0138486
694.358	0.0139502
694.436	0.0135963
694.514	0.0137930
694.592	0.0137486
694.670	0.0137939
694.748	0.0137030
694.826	0.0137906
694.905	0.0137904
694.983	0.0140211
695.061	0.0140939
695.139	0.0143038
695.217	0.0142511
695.295	0.0145268
695.373	0.0148445
695.451	0.0148605
695.530	0.0146841
695.608	0.0148329
695.686	0.0147887
695.764	0.0146523
695.842	0.0144479
695.920	0.0143243
695.998	0.0142524
696.076	0.0139046
696.155	0.0137630
696.233	0.0137398
696.311	0.0135026
696.389	0.0134560
696.467	0.0136688
696.545	0.0135397
696.623	0.0137099
696.701	0.0139300
696.780	0.0140197
696.858	0.0142525
696.936	0.0144575
697.014	0.0145978
697.092	0.0148903
697.170	0.0150180
697.248	0.0152353
697.326	0.0152486
697.405	0.0151028
697.483	0.0153558
697.561	0.0154501
697.639	0.0152094
697.717	0.0151373
697.795	0.0151373
697.873	0.0150620
697.951	0.0149898
698.030	0.0149327
698.108	0.0148788
698.186	0.0147923
698.264	0.0147398
698.342	0.0146520
698.420	0.0147098
698.498	0.0147366
698.576	0.0148698
698.655	0.0148724
698.733	0.0149760
698.811	0.0150870
698.889	0.0152707
698.967	0.0153864
699.045	0.0153722
699.123	0.0154300
699.201	0.0152531
699.280	0.0154331
699.358	0.0150258
699.436	0.0148693
699.514	0.0145306
699.592	0.0141325
699.670	0.0137428
699.748	0.0133369
699.826	0.0127912
699.905	0.0122112
699.983	0.0118980
700.061	0.0114588
700.139	0.0113017
700.217	0.0112405
700.295	0.0109678
700.373	0.0107835
700.451	0.0107305
700.530	0.0109098
700.608	0.0110162
700.686	0.0110555
700.764	0.0110621
700.842	0.0113519
700.920	0.0115987
700.998	0.0119532
701.076	0.0122448
701.155	0.0126309
701.233	0.0131261
701.311	0.0137662
701.389	0.0142506
701.467	0.0147657
701.545	0.0152055
701.623	0.0158424
701.701	0.0163114
701.780	0.0170649
701.858	0.0173798
701.936	0.0177657
702.014	0.0180621
702.092	0.0180952
702.170	0.0181657
702.248	0.0181750
702.326	0.0181820
702.405	0.0181112
702.483	0.0179260
702.561	0.0179490
702.639	0.0178133
702.717	0.0178181
702.795	0.0176815
702.873	0.0175076
702.951	0.0173835
703.030	0.0169994
703.108	0.0167818
703.186	0.0165902
703.264	0.0161540
703.342	0.0156698
703.420	0.0151379
703.498	0.0145729
703.576	0.0141163
703.655	0.0134631
703.733	0.0128542
703.811	0.0122464
703.889	0.0116068
703.967	0.0112688
704.045	0.0107030
704.123	0.0106246
704.201	0.0102992
704.280	0.00996811
704.358	0.00980606
704.436	0.00989471
704.514	0.00982468
704.592	0.0101876
704.670	0.0103898
704.748	0.0106186
704.826	0.0108058
704.905	0.0111738
704.983	0.0116380
705.061	0.0119764
705.139	0.0124438
705.217	0.0127985
705.295	0.0131594
705.373	0.0133003
705.451	0.0136604
705.530	0.0137829
705.608	0.0139556
705.686	0.0139297
705.764	0.0141105
705.842	0.0141118
705.920	0.0140683
705.998	0.0139935
706.076	0.0140134
706.155	0.0141242
706.233	0.0140621
706.311	0.0141875
706.389	0.0143597
706.467	0.0143991
706.545	0.0146700
706.623	0.0149490
706.701	0.0152631
706.780	0.0154098
706.858	0.0155728
706.936	0.0158405
707.014	0.0162395
707.092	0.0164895
707.170	0.0168438
707.248	0.0170415
707.326	0.0172058
707.405	0.0176264
707.483	0.0176628
707.561	0.0178333
707.639	0.0177991
707.717	0.0177255
707.795	0.0175422
707.873	0.0173312
707.951	0.0170489
708.030	0.0167527
708.108	0.0162875
708.186	0.0160315
708.264	0.0155699
708.342	0.0152536
708.420	0.0147794
708.498	0.0145203
708.576	0.0142388
708.655	0.0140134
708.733	0.0139828
708.811	0.0136820
708.889	0.0135873
708.967	0.0135494
709.045	0.0134103
709.123	0.0131648
709.201	0.0130132
709.280	0.0127291
709.358	0.0124060
709.436	0.0122175
709.514	0.0117574
709.592	0.0114600
709.670	0.0112465
709.748	0.0108681
709.826	0.0107235
709.905	0.0106506
709.983	0.0105878
710.061	0.0105120
710.139	0.0106128
710.217	0.0107865
710.295	0.0110548
710.373	0.0112983
710.451	0.0116512
710.530	0.0121569
710.608	0.0126595
710.686	0.0132481
710.764	0.0134747
710.842	0.0139388
710.920	0.0144330
710.998	0.0149073
711.076	0.0152531
711.155	0.0157530
711.233	0.0158929
711.311	0.0160455
711.389	0.0162435
711.467	0.0161401
711.545	0.0160634
711.623	0.0158343
711.701	0.0153485
711.780	0.0150150
711.858	0.0144350
711.936	0.0141297
712.014	0.0136517
712.092	0.0131342
712.170	0.0128803
712.248	0.0126881
712.326	0.0125230
712.405	0.0125890
712.483	0.0126034
712.561	0.0126793
712.639	0.0131254
712.717	0.0134842
712.795	0.0139624
712.873	0.0144537
712.951	0.0150513
713.030	0.0153961
713.108	0.0159030
713.186	0.0164320
713.264	0.0167155
713.342	0.0171555
713.420	0.0173602
713.498	0.0177321
713.576	0.0179025
713.655	0.0181159
713.733	0.0181464
713.811	0.0180869
713.889	0.0178024
713.967	0.0178243
714.045	0.0174616
714.123	0.0172391
714.201	0.0167951
714.280	0.0163686
714.358	0.0160261
714.436	0.0156957
714.514	0.0153413
714.592	0.0150095
714.670	0.0147437
714.748	0.0145947
714.826	0.0141164
714.905	0.0139658
714.983	0.0139558
715.061	0.0136768
715.139	0.0134337
715.217	0.0132790
715.295	0.0128749
715.373	0.0125012
715.451	0.0122105
715.530	0.0119586
715.608	0.0116130
715.686	0.0110307
715.764	0.0106083
715.842	0.0104964
715.920	0.0102122
715.998	0.0100086
716.076	0.0100513
716.155	0.0101245
716.233	0.0104342
716.311	0.0106051
716.389	0.0109350
716.467	0.0112828
716.545	0.0116547
716.623	0.0120275
716.701	0.0126088
716.780	0.0129626
716.858	0.0134746
716.936	0.0139084
717.014	0.0142890
717.092	0.0145426
717.170	0.0148991
717.248	0.0152341
717.326	0.0153669
717.405	0.0156167
717.483	0.0159702
717.561	0.0159484
717.639	0.0161518
717.717	0.0161618
717.795	0.0159931
717.873	0.0158590
717.951	0.0156448
718.030	0.0153080
718.108	0.0149828
718.186	0.0146011
718.264	0.0140407
718.342	0.0137618
718.420	0.0136336
718.498	0.0134960
718.576	0.0133675
718.655	0.0135329
718.733	0.0136092
718.811	0.0138206
718.889	0.0142436
718.967	0.0146169
719.045	0.0151098
719.123	0.0154494
719.201	0.0158125
719.280	0.0163988
719.358	0.0169736
719.436	0.0172228
719.514	0.0175533
719.592	0.0176723
719.670	0.0177547
719.748	0.0177582
719.826	0.0178744
719.905	0.0176766
719.983	0.0175974
720.061	0.0173079
720.139	0.0169144
720.217	0.0164414
720.295	0.0163263
720.373	0.0159547
720.451	0.0156087
720.530	0.0154295
720.608	0.0152058
720.686	0.0149435
720.764	0.0145904
720.842	0.0144422
720.920	0.0143198
720.998	0.0140491
721.076	0.0137912
721.155	0.0136576
721.233	0.0133772
721.311	0.0131158
721.389	0.0128171
721.467	0.0125471
721.545	0.0120898
721.623	0.0118376
721.701	0.0114944
721.780	0.0112351
721.858	0.0109658
721.936	0.0105471
722.014	0.0102867
722.092	0.0100357
722.170	0.0100291
722.248	0.00990784
722.326	0.0100152
722.405	0.0102306
722.483	0.0104648
722.561	0.0106532
722.639	0.0110178
722.717	0.0113792
722.795	0.0119730
722.873	0.0123193
722.951	0.0128259
723.030	0.0131857
723.108	0.0137635
723.186	0.0141923
723.264	0.0145065
723.342	0.0148956
723.420	0.0152097
723.498	0.0155431
723.576	0.0158689
723.655	0.0162733
723.733	0.0162376
723.811	0.0163597
723.889	0.0164704
723.967	0.0165620
724.045	0.0165296
724.123	0.0162786
724.201	0.0161114
724.280	0.0159771
724.358	0.0156828
724.436	0.0154079
724.514	0.0150568
724.592	0.0149135
724.670	0.0146259
724.748	0.0142068
724.826	0.0140690
724.905	0.0140614
724.983	0.0139072
725.061	0.0137363
725.139	0.0139070
725.217	0.0140222
725.295	0.0141644
725.373	0.0142986
725.451	0.0143831
725.530	0.0147137
725.608	0.0150947
725.686	0.0152714
