05/20/2022	16:16:41	Ver.	4.1	UNKNOWN
Optical Delay	639.982744	Delta X		0.078125	Sweeps	1	Scan Rate	0/0
Coordinates	Axis 1	NaN	Axis 2	NaN	Axis 3	NaN	Axis 4	NaN	Axis 5	NaN	Axis 6	0.000000
TX Power	0.000000	RX Power	0.000000

639.983	0.0140243
640.061	0.0140380
640.139	0.0140654
640.217	0.0139458
640.295	0.0139407
640.373	0.0138999
640.451	0.0141847
640.530	0.0140084
640.608	0.0139825
640.686	0.0140656
640.764	0.0140310
640.842	0.0139566
640.920	0.0140318
640.998	0.0140556
641.076	0.0140676
641.155	0.0140099
641.233	0.0139868
641.311	0.0139543
641.389	0.0139295
641.467	0.0139480
641.545	0.0140275
641.623	0.0140405
641.701	0.0140122
641.780	0.0139472
641.858	0.0140336
641.936	0.0140715
642.014	0.0140176
642.092	0.0139655
642.170	0.0139249
642.248	0.0139405
642.326	0.0139151
642.405	0.0140166
642.483	0.0140231
642.561	0.0139392
642.639	0.0140498
642.717	0.0140327
642.795	0.0139649
642.873	0.0139702
642.951	0.0141231
643.030	0.0140276
643.108	0.0139442
643.186	0.0139876
643.264	0.0139857
643.342	0.0139834
643.420	0.0139558
643.498	0.0139137
643.576	0.0139750
643.655	0.0140197
643.733	0.0140451
643.811	0.0139084
643.889	0.0139379
643.967	0.0139800
644.045	0.0140479
644.123	0.0139542
644.201	0.0139111
644.280	0.0139645
644.358	0.0140566
644.436	0.0139852
644.514	0.0140041
644.592	0.0139827
644.670	0.0139510
644.748	0.0140388
644.826	0.0139330
644.905	0.0139704
644.983	0.0139895
645.061	0.0141564
645.139	0.0139804
645.217	0.0140051
645.295	0.0139927
645.373	0.0139832
645.451	0.0140099
645.530	0.0139240
645.608	0.0139120
645.686	0.0140160
645.764	0.0140868
645.842	0.0140724
645.920	0.0139116
645.998	0.0139748
646.076	0.0140997
646.155	0.0140154
646.233	0.0139838
646.311	0.0139672
646.389	0.0141171
646.467	0.0139757
646.545	0.0140436
646.623	0.0140602
646.701	0.0139159
646.780	0.0140779
646.858	0.0138943
646.936	0.0140286
647.014	0.0139359
647.092	0.0140936
647.170	0.0140655
647.248	0.0140667
647.326	0.0140529
647.405	0.0139010
647.483	0.0139844
647.561	0.0141114
647.639	0.0141306
647.717	0.0139870
647.795	0.0140914
647.873	0.0140427
647.951	0.0140953
648.030	0.0140662
648.108	0.0139449
648.186	0.0140865
648.264	0.0140613
648.342	0.0140897
648.420	0.0141004
648.498	0.0140723
648.576	0.0139998
648.655	0.0140031
648.733	0.0140668
648.811	0.0139685
648.889	0.0139620
648.967	0.0140657
649.045	0.0140068
649.123	0.0140335
649.201	0.0139900
649.280	0.0138543
649.358	0.0139108
649.436	0.0140435
649.514	0.0140731
649.592	0.0138035
649.670	0.0138733
649.748	0.0139848
649.826	0.0140862
649.905	0.0139461
649.983	0.0139262
650.061	0.0140670
650.139	0.0138430
650.217	0.0138653
650.295	0.0139957
650.373	0.0139251
650.451	0.0139469
650.530	0.0141058
650.608	0.0140271
650.686	0.0138730
650.764	0.0138762
650.842	0.0139969
650.920	0.0139825
650.998	0.0140813
651.076	0.0139731
651.155	0.0140075
651.233	0.0138638
651.311	0.0139422
651.389	0.0140885
651.467	0.0140465
651.545	0.0139473
651.623	0.0140245
651.701	0.0140337
651.780	0.0140060
651.858	0.0140143
651.936	0.0139349
652.014	0.0139530
652.092	0.0140246
652.170	0.0139589
652.248	0.0139450
652.326	0.0139818
652.405	0.0139284
652.483	0.0140528
652.561	0.0139919
652.639	0.0140708
652.717	0.0141283
652.795	0.0139267
652.873	0.0140252
652.951	0.0140003
653.030	0.0140055
653.108	0.0139568
653.186	0.0140620
653.264	0.0138565
653.342	0.0139236
653.420	0.0139421
653.498	0.0139729
653.576	0.0138869
653.655	0.0139436
653.733	0.0140331
653.811	0.0140263
653.889	0.0140722
653.967	0.0141273
654.045	0.0139893
654.123	0.0139919
654.201	0.0140111
654.280	0.0140323
654.358	0.0140680
654.436	0.0140292
654.514	0.0140298
654.592	0.0140038
654.670	0.0140085
654.748	0.0140201
654.826	0.0138777
654.905	0.0138062
654.983	0.0140174
655.061	0.0141079
655.139	0.0140095
655.217	0.0139593
655.295	0.0139670
655.373	0.0138010
655.451	0.0140545
655.530	0.0139761
655.608	0.0140482
655.686	0.0137949
655.764	0.0139667
655.842	0.0140018
655.920	0.0139777
655.998	0.0140176
656.076	0.0139554
656.155	0.0140385
656.233	0.0140453
656.311	0.0139440
656.389	0.0138472
656.467	0.0139890
656.545	0.0139474
656.623	0.0140593
656.701	0.0140410
656.780	0.0141351
656.858	0.0140952
656.936	0.0140498
657.014	0.0139240
657.092	0.0142133
657.170	0.0139523
657.248	0.0138999
657.326	0.0139375
657.405	0.0140943
657.483	0.0140722
657.561	0.0140654
657.639	0.0139348
657.717	0.0140079
657.795	0.0139780
657.873	0.0140159
657.951	0.0138268
658.030	0.0140350
658.108	0.0140659
658.186	0.0141414
658.264	0.0139581
658.342	0.0138158
658.420	0.0140882
658.498	0.0138956
658.576	0.0139483
658.655	0.0139658
658.733	0.0140457
658.811	0.0138797
658.889	0.0140174
658.967	0.0140526
659.045	0.0139965
659.123	0.0139956
659.201	0.0139922
659.280	0.0139043
659.358	0.0140141
659.436	0.0140244
659.514	0.0140067
659.592	0.0140981
659.670	0.0138177
659.748	0.0139420
659.826	0.0140126
659.905	0.0140035
659.983	0.0139883
660.061	0.0141286
660.139	0.0139618
660.217	0.0139333
660.295	0.0139712
660.373	0.0138265
660.451	0.0138848
660.530	0.0139252
660.608	0.0141188
660.686	0.0139529
660.764	0.0138272
660.842	0.0139452
660.920	0.0140987
660.998	0.0138297
661.076	0.0139892
661.155	0.0139596
661.233	0.0138711
661.311	0.0140252
661.389	0.0140842
661.467	0.0140053
661.545	0.0139725
661.623	0.0141450
661.701	0.0140080
661.780	0.0139307
661.858	0.0141263
661.936	0.0139446
662.014	0.0138468
662.092	0.0139815
662.170	0.0139885
662.248	0.0140722
662.326	0.0140430
662.405	0.0139498
662.483	0.0139059
662.561	0.0138336
662.639	0.0138399
662.717	0.0139286
662.795	0.0140142
662.873	0.0139414
662.951	0.0139423
663.030	0.0139996
663.108	0.0140387
663.186	0.0139941
663.264	0.0138673
663.342	0.0140183
663.420	0.0139807
663.498	0.0139609
663.576	0.0140870
663.655	0.0139855
663.733	0.0139529
663.811	0.0140310
663.889	0.0140412
663.967	0.0140156
664.045	0.0139433
664.123	0.0138409
664.201	0.0140183
664.280	0.0140022
664.358	0.0139467
664.436	0.0139820
664.514	0.0139689
664.592	0.0139817
664.670	0.0139737
664.748	0.0140303
664.826	0.0140302
664.905	0.0139654
664.983	0.0139394
665.061	0.0138637
665.139	0.0139394
665.217	0.0140984
665.295	0.0138821
665.373	0.0140569
665.451	0.0139969
665.530	0.0139111
665.608	0.0139510
665.686	0.0140111
665.764	0.0140285
665.842	0.0141425
665.920	0.0139392
665.998	0.0140523
666.076	0.0140910
666.155	0.0140099
666.233	0.0139245
666.311	0.0140586
666.389	0.0139053
666.467	0.0141293
666.545	0.0140421
666.623	0.0139127
666.701	0.0140327
666.780	0.0140989
666.858	0.0141080
666.936	0.0138652
667.014	0.0140383
667.092	0.0139858
667.170	0.0139746
667.248	0.0139904
667.326	0.0139958
667.405	0.0139379
667.483	0.0141348
667.561	0.0140094
667.639	0.0139951
667.717	0.0141444
667.795	0.0141454
667.873	0.0141014
667.951	0.0139950
668.030	0.0140915
668.108	0.0140637
668.186	0.0139801
668.264	0.0140095
668.342	0.0141685
668.420	0.0140818
668.498	0.0141343
668.576	0.0140951
668.655	0.0140252
668.733	0.0139719
668.811	0.0140053
668.889	0.0140310
668.967	0.0141077
669.045	0.0139734
669.123	0.0140163
669.201	0.0139627
669.280	0.0140432
669.358	0.0141778
669.436	0.0139357
669.514	0.0139439
669.592	0.0140193
669.670	0.0141484
669.748	0.0140652
669.826	0.0139294
669.905	0.0140531
669.983	0.0139990
670.061	0.0140257
670.139	0.0141010
670.217	0.0140808
670.295	0.0140418
670.373	0.0140653
670.451	0.0141537
670.530	0.0141529
670.608	0.0140995
670.686	0.0141058
670.764	0.0141142
670.842	0.0140529
670.920	0.0140779
670.998	0.0141219
671.076	0.0140289
671.155	0.0139449
671.233	0.0138994
671.311	0.0140883
671.389	0.0141527
671.467	0.0139511
671.545	0.0141389
671.623	0.0141415
671.701	0.0140422
671.780	0.0140862
671.858	0.0140501
671.936	0.0140911
672.014	0.0140700
672.092	0.0141055
672.170	0.0139347
672.248	0.0142032
672.326	0.0141681
672.405	0.0139128
672.483	0.0139109
672.561	0.0140170
672.639	0.0140793
672.717	0.0140976
672.795	0.0140189
672.873	0.0140591
672.951	0.0139990
673.030	0.0139995
673.108	0.0141786
673.186	0.0140910
673.264	0.0140289
673.342	0.0140163
673.420	0.0140205
673.498	0.0139723
673.576	0.0140466
673.655	0.0139862
673.733	0.0141331
673.811	0.0139393
673.889	0.0139779
673.967	0.0139838
674.045	0.0140139
674.123	0.0140780
674.201	0.0139899
674.280	0.0140461
674.358	0.0141214
674.436	0.0140111
674.514	0.0139097
674.592	0.0140208
674.670	0.0140137
674.748	0.0141681
674.826	0.0140228
674.905	0.0139601
674.983	0.0140398
675.061	0.0139008
675.139	0.0140046
675.217	0.0140289
675.295	0.0139868
675.373	0.0139697
675.451	0.0139809
675.530	0.0139425
675.608	0.0139201
675.686	0.0138607
675.764	0.0139496
675.842	0.0140427
675.920	0.0139259
675.998	0.0140649
676.076	0.0139257
676.155	0.0139664
676.233	0.0141577
676.311	0.0138364
676.389	0.0139919
676.467	0.0140274
676.545	0.0140785
676.623	0.0140052
676.701	0.0139056
676.780	0.0139540
676.858	0.0140033
676.936	0.0139758
677.014	0.0140799
677.092	0.0139256
677.170	0.0140797
677.248	0.0140720
677.326	0.0140472
677.405	0.0140900
677.483	0.0138694
677.561	0.0139890
677.639	0.0139849
677.717	0.0140110
677.795	0.0139326
677.873	0.0139999
677.951	0.0138704
678.030	0.0140234
678.108	0.0138516
678.186	0.0138598
678.264	0.0138167
678.342	0.0140212
678.420	0.0138351
678.498	0.0138912
678.576	0.0139855
678.655	0.0138371
678.733	0.0137566
678.811	0.0137256
678.889	0.0139408
678.967	0.0138572
679.045	0.0140529
679.123	0.0140576
679.201	0.0141740
679.280	0.0140158
679.358	0.0140945
679.436	0.0141138
679.514	0.0139811
679.592	0.0139561
679.670	0.0140160
679.748	0.0141095
679.826	0.0139822
679.905	0.0138738
679.983	0.0141454
680.061	0.0138779
680.139	0.0139083
680.217	0.0139103
680.295	0.0139785
680.373	0.0139766
680.451	0.0139182
680.530	0.0139169
680.608	0.0138042
680.686	0.0138207
680.764	0.0137614
680.842	0.0136938
680.920	0.0138376
680.998	0.0137234
681.076	0.0139861
681.155	0.0139522
681.233	0.0140533
681.311	0.0140020
681.389	0.0141344
681.467	0.0139543
681.545	0.0139254
681.623	0.0139706
681.701	0.0141560
681.780	0.0140269
681.858	0.0139389
681.936	0.0140769
682.014	0.0140504
682.092	0.0140595
682.170	0.0140636
682.248	0.0139620
682.326	0.0139438
682.405	0.0140369
682.483	0.0141486
682.561	0.0139949
682.639	0.0139991
682.717	0.0140325
682.795	0.0139622
682.873	0.0139893
682.951	0.0139616
683.030	0.0138499
683.108	0.0138831
683.186	0.0140105
683.264	0.0140565
683.342	0.0139944
683.420	0.0139854
683.498	0.0139123
683.576	0.0139085
683.655	0.0139532
683.733	0.0139299
683.811	0.0140057
683.889	0.0138460
683.967	0.0138139
684.045	0.0138107
684.123	0.0138464
684.201	0.0139740
684.280	0.0139532
684.358	0.0139499
684.436	0.0139983
684.514	0.0140418
684.592	0.0140949
684.670	0.0141251
684.748	0.0141300
684.826	0.0145262
684.905	0.0144560
684.983	0.0142238
685.061	0.0143413
685.139	0.0142754
685.217	0.0142516
685.295	0.0142847
685.373	0.0140706
685.451	0.0139939
685.530	0.0138218
685.608	0.0136609
685.686	0.0135651
685.764	0.0135493
685.842	0.0135365
685.920	0.0133188
685.998	0.0133949
686.076	0.0132851
686.155	0.0134777
686.233	0.0135464
686.311	0.0137160
686.389	0.0137352
686.467	0.0137706
686.545	0.0139342
686.623	0.0140932
686.701	0.0141785
686.780	0.0141930
686.858	0.0142323
686.936	0.0142413
687.014	0.0141202
687.092	0.0142044
687.170	0.0143784
687.248	0.0143915
687.326	0.0141061
687.405	0.0140804
687.483	0.0139562
687.561	0.0140939
687.639	0.0141091
687.717	0.0140172
687.795	0.0141116
687.873	0.0142504
687.951	0.0143158
688.030	0.0142200
688.108	0.0141602
688.186	0.0141859
688.264	0.0139780
688.342	0.0138789
688.420	0.0138824
688.498	0.0138480
688.576	0.0137991
688.655	0.0136784
688.733	0.0135821
688.811	0.0135207
688.889	0.0136031
688.967	0.0138889
689.045	0.0139786
689.123	0.0139632
689.201	0.0142030
689.280	0.0143215
689.358	0.0144079
689.436	0.0144442
689.514	0.0145490
689.592	0.0144750
689.670	0.0144355
689.748	0.0143168
689.826	0.0142851
689.905	0.0139658
689.983	0.0139291
690.061	0.0136745
690.139	0.0136947
690.217	0.0134480
690.295	0.0136562
690.373	0.0136647
690.451	0.0135079
690.530	0.0134479
690.608	0.0135863
690.686	0.0136440
690.764	0.0134612
690.842	0.0135732
690.920	0.0135995
690.998	0.0135473
691.076	0.0135750
691.155	0.0135571
691.233	0.0135671
691.311	0.0136055
691.389	0.0137438
691.467	0.0137105
691.545	0.0137789
691.623	0.0141210
691.701	0.0142092
691.780	0.0144128
691.858	0.0146494
691.936	0.0149442
692.014	0.0151375
692.092	0.0153481
692.170	0.0153479
692.248	0.0154623
692.326	0.0155008
692.405	0.0153519
692.483	0.0153925
692.561	0.0152218
692.639	0.0149383
692.717	0.0145117
692.795	0.0145879
692.873	0.0142029
692.951	0.0141312
693.030	0.0139403
693.108	0.0136327
693.186	0.0136188
693.264	0.0136273
693.342	0.0135931
693.420	0.0134597
693.498	0.0134349
693.576	0.0134019
693.655	0.0134503
693.733	0.0134673
693.811	0.0133872
693.889	0.0135359
693.967	0.0134737
694.045	0.0135564
694.123	0.0135324
694.201	0.0135511
694.280	0.0137511
694.358	0.0139602
694.436	0.0138730
694.514	0.0137209
694.592	0.0137860
694.670	0.0139410
694.748	0.0138754
694.826	0.0137754
694.905	0.0137029
694.983	0.0136279
695.061	0.0137148
695.139	0.0135601
695.217	0.0136265
695.295	0.0137900
695.373	0.0138882
695.451	0.0141122
695.530	0.0143793
695.608	0.0145914
695.686	0.0147129
695.764	0.0147353
695.842	0.0147355
695.920	0.0146790
695.998	0.0144846
696.076	0.0143014
696.155	0.0143111
696.233	0.0138799
696.311	0.0139845
696.389	0.0139202
696.467	0.0137814
696.545	0.0138005
696.623	0.0139046
696.701	0.0139958
696.780	0.0139705
696.858	0.0141758
696.936	0.0141840
697.014	0.0144305
697.092	0.0143001
697.170	0.0145581
697.248	0.0146877
697.326	0.0144878
697.405	0.0143415
697.483	0.0144462
697.561	0.0143771
697.639	0.0143623
697.717	0.0143941
697.795	0.0143355
697.873	0.0144280
697.951	0.0145695
698.030	0.0145788
698.108	0.0146059
698.186	0.0145135
698.264	0.0144571
698.342	0.0145174
698.420	0.0144138
698.498	0.0142741
698.576	0.0143799
698.655	0.0143278
698.733	0.0143045
698.811	0.0144193
698.889	0.0143105
698.967	0.0142819
699.045	0.0142417
699.123	0.0144043
699.201	0.0142706
699.280	0.0142201
699.358	0.0142705
699.436	0.0142059
699.514	0.0139532
699.592	0.0139541
699.670	0.0136989
699.748	0.0134294
699.826	0.0131308
699.905	0.0128854
699.983	0.0126664
700.061	0.0123756
700.139	0.0121538
700.217	0.0116409
700.295	0.0117319
700.373	0.0115062
700.451	0.0112730
700.530	0.0112748
700.608	0.0114021
700.686	0.0114962
700.764	0.0115363
700.842	0.0115594
700.920	0.0119730
700.998	0.0122500
701.076	0.0123708
701.155	0.0126302
701.233	0.0130104
701.311	0.0134078
701.389	0.0134840
701.467	0.0140630
701.545	0.0143141
701.623	0.0145740
701.701	0.0151314
701.780	0.0154351
701.858	0.0158311
701.936	0.0162545
702.014	0.0166557
702.092	0.0170807
702.170	0.0171490
702.248	0.0173072
702.326	0.0175403
702.405	0.0175450
702.483	0.0173125
702.561	0.0175046
702.639	0.0173815
702.717	0.0174032
702.795	0.0170884
702.873	0.0170443
702.951	0.0169317
703.030	0.0166639
703.108	0.0163548
703.186	0.0161591
703.264	0.0158833
703.342	0.0154774
703.420	0.0150184
703.498	0.0145413
703.576	0.0139855
703.655	0.0134105
703.733	0.0129458
703.811	0.0124847
703.889	0.0119085
703.967	0.0113882
704.045	0.0109689
704.123	0.0107230
704.201	0.0104676
704.280	0.0103082
704.358	0.0102943
704.436	0.0100135
704.514	0.0100654
704.592	0.0101574
704.670	0.0102037
704.748	0.0104495
704.826	0.0105119
704.905	0.0104977
704.983	0.0109550
705.061	0.0112308
705.139	0.0114996
705.217	0.0115801
705.295	0.0119147
705.373	0.0123673
705.451	0.0124524
705.530	0.0127535
705.608	0.0130202
705.686	0.0132487
705.764	0.0134905
705.842	0.0136830
705.920	0.0138982
705.998	0.0140189
706.076	0.0141205
706.155	0.0144804
706.233	0.0145687
706.311	0.0145810
706.389	0.0147768
706.467	0.0150990
706.545	0.0151959
706.623	0.0154578
706.701	0.0156472
706.780	0.0158406
706.858	0.0161243
706.936	0.0163507
707.014	0.0165799
707.092	0.0167734
707.170	0.0170713
707.248	0.0172404
707.326	0.0173802
707.405	0.0174120
707.483	0.0174152
707.561	0.0175127
707.639	0.0173862
707.717	0.0173378
707.795	0.0171773
707.873	0.0169010
707.951	0.0165240
708.030	0.0163224
708.108	0.0157175
708.186	0.0153706
708.264	0.0149402
708.342	0.0145912
708.420	0.0143454
708.498	0.0139561
708.576	0.0138819
708.655	0.0134399
708.733	0.0133054
708.811	0.0131668
708.889	0.0128214
708.967	0.0128060
709.045	0.0125893
709.123	0.0123678
709.201	0.0121594
709.280	0.0119106
709.358	0.0117342
709.436	0.0114206
709.514	0.0111505
709.592	0.0109317
709.670	0.0106437
709.748	0.0105415
709.826	0.0104594
709.905	0.0105022
709.983	0.0105120
710.061	0.0105795
710.139	0.0106490
710.217	0.0108868
710.295	0.0112710
710.373	0.0114079
710.451	0.0120466
710.530	0.0125008
710.608	0.0128510
710.686	0.0135763
710.764	0.0139423
710.842	0.0143835
710.920	0.0147459
710.998	0.0154628
711.076	0.0156779
711.155	0.0158921
711.233	0.0161620
711.311	0.0163093
711.389	0.0165053
711.467	0.0163002
711.545	0.0160354
711.623	0.0159123
711.701	0.0154290
711.780	0.0150114
711.858	0.0145753
711.936	0.0140205
712.014	0.0136118
712.092	0.0131524
712.170	0.0129736
712.248	0.0126407
712.326	0.0125218
712.405	0.0124467
712.483	0.0125443
712.561	0.0127472
712.639	0.0131716
712.717	0.0135532
712.795	0.0140319
712.873	0.0143493
712.951	0.0147702
713.030	0.0151541
713.108	0.0156025
713.186	0.0161412
713.264	0.0163985
713.342	0.0163971
713.420	0.0167778
713.498	0.0170313
713.576	0.0171455
713.655	0.0170223
713.733	0.0171410
713.811	0.0169298
713.889	0.0168682
713.967	0.0166959
714.045	0.0164214
714.123	0.0161362
714.201	0.0158367
714.280	0.0156010
714.358	0.0152715
714.436	0.0149695
714.514	0.0146895
714.592	0.0145381
714.670	0.0142698
714.748	0.0142078
714.826	0.0139448
714.905	0.0137400
714.983	0.0135770
715.061	0.0133936
715.139	0.0131300
715.217	0.0129036
715.295	0.0126234
715.373	0.0122694
715.451	0.0119285
715.530	0.0117335
715.608	0.0113104
715.686	0.0110857
715.764	0.0109535
715.842	0.0107729
715.920	0.0105042
715.998	0.0104895
716.076	0.0105473
716.155	0.0105746
716.233	0.0108461
716.311	0.0110638
716.389	0.0114716
716.467	0.0118689
716.545	0.0122268
716.623	0.0123661
716.701	0.0128084
716.780	0.0131819
716.858	0.0135316
716.936	0.0138629
717.014	0.0142161
717.092	0.0144485
717.170	0.0147767
717.248	0.0148887
717.326	0.0151196
717.405	0.0152442
717.483	0.0153242
717.561	0.0153590
717.639	0.0152802
717.717	0.0152578
717.795	0.0150270
717.873	0.0148122
717.951	0.0146739
718.030	0.0141332
718.108	0.0137745
718.186	0.0137211
718.264	0.0133280
718.342	0.0130169
718.420	0.0131346
718.498	0.0131181
718.576	0.0132491
718.655	0.0134288
718.733	0.0136181
718.811	0.0139384
718.889	0.0143909
718.967	0.0147285
719.045	0.0150963
719.123	0.0156577
719.201	0.0160458
719.280	0.0162757
719.358	0.0167004
719.436	0.0170711
719.514	0.0173182
719.592	0.0175758
719.670	0.0176677
719.748	0.0175166
719.826	0.0176128
719.905	0.0173843
719.983	0.0172345
720.061	0.0168307
720.139	0.0165162
720.217	0.0161395
720.295	0.0158165
720.373	0.0155108
720.451	0.0151294
720.530	0.0148994
720.608	0.0144812
720.686	0.0141019
720.764	0.0140979
720.842	0.0138314
720.920	0.0137573
720.998	0.0135801
721.076	0.0136781
721.155	0.0134267
721.233	0.0133590
721.311	0.0131923
721.389	0.0130055
721.467	0.0127308
721.545	0.0122694
721.623	0.0118998
721.701	0.0116099
721.780	0.0110503
721.858	0.0108095
721.936	0.0104042
722.014	0.0101569
722.092	0.00980789
722.170	0.00954712
722.248	0.00942635
722.326	0.00960289
722.405	0.00970955
722.483	0.00971970
722.561	0.0102615
722.639	0.0104811
722.717	0.0111014
722.795	0.0115060
722.873	0.0121427
722.951	0.0126746
723.030	0.0133201
723.108	0.0138958
723.186	0.0143797
723.264	0.0148234
723.342	0.0151083
723.420	0.0154310
723.498	0.0155974
723.576	0.0159386
723.655	0.0159551
723.733	0.0160014
723.811	0.0161546
723.889	0.0161080
723.967	0.0160674
724.045	0.0158981
724.123	0.0158560
724.201	0.0157421
724.280	0.0154895
724.358	0.0152119
724.436	0.0148915
724.514	0.0144968
724.592	0.0142538
724.670	0.0140694
724.748	0.0137478
724.826	0.0136328
724.905	0.0135397
724.983	0.0134520
725.061	0.0135162
725.139	0.0135943
725.217	0.0137596
725.295	0.0140242
725.373	0.0144187
725.451	0.0145702
725.530	0.0149389
725.608	0.0151697
725.686	0.0154599
