05/20/2022	16:18:42	Ver.	4.1	UNKNOWN
Optical Delay	639.982744	Delta X		0.078125	Sweeps	1	Scan Rate	0/0
Coordinates	Axis 1	NaN	Axis 2	NaN	Axis 3	NaN	Axis 4	NaN	Axis 5	NaN	Axis 6	0.000000
TX Power	0.000000	RX Power	0.000000

639.983	0.0145575
640.061	0.0146539
640.139	0.0146588
640.217	0.0145156
640.295	0.0146257
640.373	0.0147150
640.451	0.0145086
640.530	0.0146638
640.608	0.0146561
640.686	0.0146195
640.764	0.0145367
640.842	0.0147115
640.920	0.0146655
640.998	0.0145611
641.076	0.0144598
641.155	0.0146653
641.233	0.0146534
641.311	0.0146080
641.389	0.0146667
641.467	0.0145102
641.545	0.0145625
641.623	0.0145829
641.701	0.0145152
641.780	0.0145525
641.858	0.0145815
641.936	0.0146274
642.014	0.0145398
642.092	0.0145341
642.170	0.0145372
642.248	0.0145193
642.326	0.0145652
642.405	0.0146066
642.483	0.0145890
642.561	0.0146036
642.639	0.0143931
642.717	0.0146124
642.795	0.0145852
642.873	0.0146180
642.951	0.0146686
643.030	0.0145663
643.108	0.0146319
643.186	0.0145982
643.264	0.0145660
643.342	0.0145995
643.420	0.0146750
643.498	0.0145425
643.576	0.0145711
643.655	0.0146358
643.733	0.0144881
643.811	0.0144538
643.889	0.0144725
643.967	0.0145544
644.045	0.0147046
644.123	0.0143739
644.201	0.0146011
644.280	0.0146632
644.358	0.0145055
644.436	0.0145570
644.514	0.0146461
644.592	0.0146227
644.670	0.0146636
644.748	0.0147527
644.826	0.0145673
644.905	0.0147166
644.983	0.0145139
645.061	0.0147888
645.139	0.0147028
645.217	0.0146624
645.295	0.0147088
645.373	0.0146162
645.451	0.0147213
645.530	0.0147372
645.608	0.0146381
645.686	0.0146569
645.764	0.0144402
645.842	0.0146220
645.920	0.0147144
645.998	0.0147160
646.076	0.0147438
646.155	0.0146230
646.233	0.0146513
646.311	0.0147383
646.389	0.0146635
646.467	0.0146249
646.545	0.0147050
646.623	0.0148138
646.701	0.0147226
646.780	0.0147007
646.858	0.0146404
646.936	0.0145970
647.014	0.0147472
647.092	0.0149086
647.170	0.0146361
647.248	0.0146890
647.326	0.0146934
647.405	0.0146432
647.483	0.0147241
647.561	0.0146441
647.639	0.0146347
647.717	0.0145481
647.795	0.0145985
647.873	0.0146786
647.951	0.0147141
648.030	0.0145444
648.108	0.0145147
648.186	0.0146703
648.264	0.0146193
648.342	0.0147571
648.420	0.0146200
648.498	0.0145370
648.576	0.0146843
648.655	0.0146687
648.733	0.0145652
648.811	0.0146731
648.889	0.0145911
648.967	0.0145947
649.045	0.0146928
649.123	0.0146885
649.201	0.0146990
649.280	0.0146376
649.358	0.0146825
649.436	0.0147354
649.514	0.0147395
649.592	0.0144919
649.670	0.0146232
649.748	0.0146120
649.826	0.0147458
649.905	0.0148231
649.983	0.0146294
650.061	0.0146511
650.139	0.0146607
650.217	0.0147540
650.295	0.0146476
650.373	0.0146739
650.451	0.0146672
650.530	0.0147169
650.608	0.0147041
650.686	0.0147686
650.764	0.0146824
650.842	0.0146493
650.920	0.0146781
650.998	0.0146397
651.076	0.0146404
651.155	0.0147055
651.233	0.0146952
651.311	0.0147525
651.389	0.0146858
651.467	0.0147009
651.545	0.0146349
651.623	0.0147076
651.701	0.0147338
651.780	0.0144927
651.858	0.0146015
651.936	0.0146620
652.014	0.0147372
652.092	0.0146410
652.170	0.0146529
652.248	0.0147809
652.326	0.0146793
652.405	0.0145286
652.483	0.0147094
652.561	0.0146723
652.639	0.0145682
652.717	0.0146609
652.795	0.0146828
652.873	0.0146909
652.951	0.0145993
653.030	0.0146713
653.108	0.0146499
653.186	0.0145656
653.264	0.0146323
653.342	0.0145670
653.420	0.0146412
653.498	0.0146479
653.576	0.0145476
653.655	0.0144920
653.733	0.0144787
653.811	0.0144801
653.889	0.0146914
653.967	0.0146808
654.045	0.0146382
654.123	0.0145887
654.201	0.0145248
654.280	0.0145971
654.358	0.0146412
654.436	0.0145532
654.514	0.0145348
654.592	0.0145914
654.670	0.0145026
654.748	0.0145529
654.826	0.0145901
654.905	0.0144370
654.983	0.0146173
655.061	0.0145687
655.139	0.0145889
655.217	0.0145786
655.295	0.0145894
655.373	0.0145586
655.451	0.0145155
655.530	0.0145090
655.608	0.0146027
655.686	0.0146001
655.764	0.0145164
655.842	0.0144217
655.920	0.0145087
655.998	0.0146585
656.076	0.0146320
656.155	0.0145251
656.233	0.0145508
656.311	0.0145623
656.389	0.0145576
656.467	0.0144894
656.545	0.0144424
656.623	0.0145845
656.701	0.0145663
656.780	0.0146723
656.858	0.0145080
656.936	0.0145000
657.014	0.0145820
657.092	0.0145586
657.170	0.0145176
657.248	0.0145839
657.326	0.0145635
657.405	0.0146006
657.483	0.0144991
657.561	0.0144675
657.639	0.0145151
657.717	0.0143752
657.795	0.0143977
657.873	0.0145550
657.951	0.0145001
658.030	0.0143726
658.108	0.0145258
658.186	0.0145496
658.264	0.0144910
658.342	0.0145679
658.420	0.0144930
658.498	0.0144888
658.576	0.0145164
658.655	0.0145098
658.733	0.0144446
658.811	0.0144798
658.889	0.0143948
658.967	0.0145542
659.045	0.0145766
659.123	0.0144595
659.201	0.0143766
659.280	0.0145461
659.358	0.0145899
659.436	0.0145235
659.514	0.0144348
659.592	0.0145911
659.670	0.0145432
659.748	0.0145524
659.826	0.0144930
659.905	0.0144524
659.983	0.0145984
660.061	0.0145969
660.139	0.0144628
660.217	0.0145217
660.295	0.0145013
660.373	0.0146142
660.451	0.0146791
660.530	0.0145302
660.608	0.0144610
660.686	0.0144905
660.764	0.0145858
660.842	0.0146311
660.920	0.0145886
660.998	0.0145097
661.076	0.0145197
661.155	0.0145168
661.233	0.0144537
661.311	0.0145119
661.389	0.0145248
661.467	0.0145498
661.545	0.0145692
661.623	0.0145490
661.701	0.0146889
661.780	0.0145683
661.858	0.0146009
661.936	0.0145905
662.014	0.0144418
662.092	0.0145745
662.170	0.0145067
662.248	0.0145163
662.326	0.0146526
662.405	0.0145097
662.483	0.0146100
662.561	0.0146233
662.639	0.0146104
662.717	0.0144534
662.795	0.0145592
662.873	0.0145608
662.951	0.0144399
663.030	0.0146216
663.108	0.0146232
663.186	0.0144450
663.264	0.0145034
663.342	0.0145992
663.420	0.0146045
663.498	0.0145523
663.576	0.0145500
663.655	0.0145254
663.733	0.0146008
663.811	0.0145338
663.889	0.0145817
663.967	0.0145980
664.045	0.0145639
664.123	0.0146072
664.201	0.0145614
664.280	0.0144944
664.358	0.0146307
664.436	0.0147251
664.514	0.0146385
664.592	0.0146709
664.670	0.0146159
664.748	0.0146932
664.826	0.0146009
664.905	0.0145858
664.983	0.0146288
665.061	0.0146059
665.139	0.0145346
665.217	0.0146815
665.295	0.0146510
665.373	0.0146748
665.451	0.0144951
665.530	0.0146758
665.608	0.0146877
665.686	0.0145830
665.764	0.0146407
665.842	0.0145472
665.920	0.0146365
665.998	0.0147095
666.076	0.0146093
666.155	0.0146014
666.233	0.0145854
666.311	0.0147425
666.389	0.0147032
666.467	0.0146581
666.545	0.0146097
666.623	0.0147417
666.701	0.0146745
666.780	0.0145902
666.858	0.0146509
666.936	0.0147415
667.014	0.0147270
667.092	0.0147353
667.170	0.0146835
667.248	0.0147476
667.326	0.0146895
667.405	0.0145476
667.483	0.0145750
667.561	0.0144915
667.639	0.0146207
667.717	0.0146504
667.795	0.0146655
667.873	0.0147422
667.951	0.0146834
668.030	0.0145937
668.108	0.0145203
668.186	0.0146413
668.264	0.0146593
668.342	0.0146413
668.420	0.0146935
668.498	0.0147572
668.576	0.0145557
668.655	0.0146687
668.733	0.0146609
668.811	0.0147343
668.889	0.0146266
668.967	0.0147122
669.045	0.0146012
669.123	0.0146409
669.201	0.0146843
669.280	0.0145512
669.358	0.0146196
669.436	0.0145778
669.514	0.0146877
669.592	0.0145186
669.670	0.0147610
669.748	0.0146869
669.826	0.0147192
669.905	0.0146331
669.983	0.0145564
670.061	0.0146367
670.139	0.0146446
670.217	0.0146670
670.295	0.0146670
670.373	0.0146675
670.451	0.0147230
670.530	0.0147249
670.608	0.0147244
670.686	0.0147054
670.764	0.0145654
670.842	0.0147720
670.920	0.0147851
670.998	0.0147742
671.076	0.0148149
671.155	0.0146281
671.233	0.0147847
671.311	0.0147709
671.389	0.0147976
671.467	0.0147427
671.545	0.0145895
671.623	0.0146574
671.701	0.0145884
671.780	0.0147360
671.858	0.0146401
671.936	0.0146307
672.014	0.0146806
672.092	0.0146706
672.170	0.0146951
672.248	0.0145716
672.326	0.0147206
672.405	0.0146299
672.483	0.0145411
672.561	0.0146719
672.639	0.0147237
672.717	0.0146031
672.795	0.0147469
672.873	0.0147036
672.951	0.0148691
673.030	0.0147540
673.108	0.0147639
673.186	0.0148057
673.264	0.0148115
673.342	0.0148545
673.420	0.0149186
673.498	0.0147372
673.576	0.0147872
673.655	0.0148486
673.733	0.0146812
673.811	0.0146815
673.889	0.0147278
673.967	0.0146671
674.045	0.0146877
674.123	0.0145486
674.201	0.0145812
674.280	0.0146626
674.358	0.0146797
674.436	0.0146497
674.514	0.0145220
674.592	0.0145303
674.670	0.0146011
674.748	0.0147012
674.826	0.0146392
674.905	0.0146399
674.983	0.0146441
675.061	0.0146354
675.139	0.0146712
675.217	0.0146231
675.295	0.0146196
675.373	0.0147479
675.451	0.0146339
675.530	0.0145620
675.608	0.0146342
675.686	0.0147517
675.764	0.0146419
675.842	0.0146569
675.920	0.0146870
675.998	0.0146852
676.076	0.0145406
676.155	0.0146485
676.233	0.0145954
676.311	0.0145910
676.389	0.0146591
676.467	0.0147488
676.545	0.0146618
676.623	0.0145531
676.701	0.0145959
676.780	0.0147319
676.858	0.0145462
676.936	0.0146600
677.014	0.0145584
677.092	0.0145610
677.170	0.0145094
677.248	0.0144563
677.326	0.0145968
677.405	0.0146048
677.483	0.0146519
677.561	0.0143986
677.639	0.0145831
677.717	0.0145688
677.795	0.0143404
677.873	0.0145439
677.951	0.0145826
678.030	0.0146185
678.108	0.0145203
678.186	0.0144657
678.264	0.0145238
678.342	0.0145870
678.420	0.0145930
678.498	0.0145340
678.576	0.0145580
678.655	0.0146447
678.733	0.0145857
678.811	0.0145196
678.889	0.0145487
678.967	0.0147525
679.045	0.0146946
679.123	0.0145151
679.201	0.0146067
679.280	0.0145341
679.358	0.0145255
679.436	0.0145413
679.514	0.0145789
679.592	0.0146440
679.670	0.0145370
679.748	0.0144596
679.826	0.0145164
679.905	0.0144178
679.983	0.0143250
680.061	0.0143317
680.139	0.0144551
680.217	0.0142861
680.295	0.0143933
680.373	0.0143974
680.451	0.0142323
680.530	0.0142076
680.608	0.0144364
680.686	0.0144485
680.764	0.0144017
680.842	0.0144139
680.920	0.0145111
680.998	0.0144430
681.076	0.0146272
681.155	0.0146278
681.233	0.0146990
681.311	0.0145672
681.389	0.0147929
681.467	0.0147675
681.545	0.0147427
681.623	0.0145794
681.701	0.0146982
681.780	0.0146816
681.858	0.0145634
681.936	0.0143504
682.014	0.0144098
682.092	0.0143672
682.170	0.0141030
682.248	0.0141755
682.326	0.0141563
682.405	0.0140917
682.483	0.0140932
682.561	0.0140389
682.639	0.0142420
682.717	0.0144888
682.795	0.0144057
682.873	0.0146188
682.951	0.0146235
683.030	0.0146220
683.108	0.0147044
683.186	0.0147054
683.264	0.0146136
683.342	0.0147192
683.420	0.0146307
683.498	0.0146740
683.576	0.0146184
683.655	0.0144800
683.733	0.0144678
683.811	0.0144904
683.889	0.0142559
683.967	0.0142245
684.045	0.0142451
684.123	0.0141341
684.201	0.0141533
684.280	0.0139427
684.358	0.0141238
684.436	0.0142889
684.514	0.0142889
684.592	0.0143217
684.670	0.0143427
684.748	0.0144946
684.826	0.0145283
684.905	0.0146420
684.983	0.0147620
685.061	0.0148730
685.139	0.0150164
685.217	0.0151236
685.295	0.0150137
685.373	0.0151962
685.451	0.0153667
685.530	0.0152003
685.608	0.0150413
685.686	0.0150623
685.764	0.0149295
685.842	0.0147807
685.920	0.0145892
685.998	0.0143932
686.076	0.0143114
686.155	0.0140294
686.233	0.0140272
686.311	0.0140408
686.389	0.0138761
686.467	0.0137486
686.545	0.0138657
686.623	0.0139129
686.701	0.0139407
686.780	0.0139477
686.858	0.0142113
686.936	0.0143453
687.014	0.0143562
687.092	0.0144360
687.170	0.0145210
687.248	0.0145390
687.326	0.0146510
687.405	0.0147546
687.483	0.0145940
687.561	0.0147167
687.639	0.0148164
687.717	0.0148714
687.795	0.0148753
687.873	0.0150018
687.951	0.0149496
688.030	0.0149261
688.108	0.0150032
688.186	0.0148338
688.264	0.0147897
688.342	0.0147282
688.420	0.0146680
688.498	0.0146108
688.576	0.0145121
688.655	0.0144813
688.733	0.0140970
688.811	0.0142966
688.889	0.0142728
688.967	0.0142602
689.045	0.0140477
689.123	0.0140875
689.201	0.0142385
689.280	0.0144152
689.358	0.0144314
689.436	0.0145347
689.514	0.0145784
689.592	0.0148891
689.670	0.0148225
689.748	0.0150246
689.826	0.0151480
689.905	0.0152743
689.983	0.0153341
690.061	0.0153783
690.139	0.0153130
690.217	0.0153181
690.295	0.0151561
690.373	0.0150618
690.451	0.0149636
690.530	0.0147121
690.608	0.0145959
690.686	0.0144138
690.764	0.0142839
690.842	0.0141016
690.920	0.0139577
690.998	0.0140958
691.076	0.0139971
691.155	0.0140279
691.233	0.0141032
691.311	0.0142404
691.389	0.0143860
691.467	0.0145708
691.545	0.0146669
691.623	0.0145884
691.701	0.0146094
691.780	0.0144962
691.858	0.0144537
691.936	0.0145979
692.014	0.0145497
692.092	0.0142937
692.170	0.0143458
692.248	0.0144218
692.326	0.0145620
692.405	0.0145396
692.483	0.0146797
692.561	0.0148482
692.639	0.0148232
692.717	0.0148211
692.795	0.0149422
692.873	0.0147026
692.951	0.0146305
693.030	0.0145683
693.108	0.0143734
693.186	0.0142826
693.264	0.0142481
693.342	0.0142485
693.420	0.0142381
693.498	0.0141615
693.576	0.0144488
693.655	0.0144612
693.733	0.0145523
693.811	0.0145684
693.889	0.0147913
693.967	0.0148597
694.045	0.0150272
694.123	0.0149234
694.201	0.0148798
694.280	0.0148929
694.358	0.0148351
694.436	0.0148193
694.514	0.0146180
694.592	0.0146495
694.670	0.0147671
694.748	0.0149094
694.826	0.0150874
694.905	0.0150330
694.983	0.0152335
695.061	0.0152991
695.139	0.0153252
695.217	0.0154810
695.295	0.0155717
695.373	0.0153333
695.451	0.0150684
695.530	0.0151542
695.608	0.0149030
695.686	0.0147296
695.764	0.0144238
695.842	0.0142535
695.920	0.0142659
695.998	0.0141576
696.076	0.0139375
696.155	0.0139806
696.233	0.0139183
696.311	0.0138792
696.389	0.0137482
696.467	0.0139326
696.545	0.0138927
696.623	0.0139153
696.701	0.0140248
696.780	0.0140108
696.858	0.0141285
696.936	0.0141707
697.014	0.0141918
697.092	0.0142045
697.170	0.0143074
697.248	0.0144833
697.326	0.0145263
697.405	0.0146683
697.483	0.0146703
697.561	0.0147126
697.639	0.0146150
697.717	0.0143888
697.795	0.0143118
697.873	0.0142566
697.951	0.0142584
698.030	0.0142786
698.108	0.0142651
698.186	0.0141924
698.264	0.0144023
698.342	0.0145972
698.420	0.0148058
698.498	0.0150205
698.576	0.0150959
698.655	0.0152662
698.733	0.0154930
698.811	0.0155637
698.889	0.0154091
698.967	0.0153223
699.045	0.0153979
699.123	0.0150951
699.201	0.0149103
699.280	0.0148295
699.358	0.0147481
699.436	0.0148567
699.514	0.0147878
699.592	0.0147455
699.670	0.0147624
699.748	0.0149838
699.826	0.0150071
699.905	0.0150601
699.983	0.0150815
700.061	0.0151734
700.139	0.0153262
700.217	0.0152173
700.295	0.0150668
700.373	0.0148921
700.451	0.0146732
700.530	0.0145523
700.608	0.0142485
700.686	0.0139912
700.764	0.0141483
700.842	0.0138735
700.920	0.0138120
700.998	0.0137471
701.076	0.0137923
701.155	0.0138924
701.233	0.0141336
701.311	0.0143000
701.389	0.0144064
701.467	0.0145486
701.545	0.0144846
701.623	0.0146648
701.701	0.0147356
701.780	0.0147057
701.858	0.0146544
701.936	0.0147007
702.014	0.0146175
702.092	0.0146776
702.170	0.0146920
702.248	0.0145861
702.326	0.0146298
702.405	0.0145164
702.483	0.0143822
702.561	0.0144904
702.639	0.0142741
702.717	0.0141491
702.795	0.0141845
702.873	0.0143022
702.951	0.0143800
703.030	0.0146099
703.108	0.0147402
703.186	0.0149021
703.264	0.0151241
703.342	0.0151504
703.420	0.0151279
703.498	0.0151700
703.576	0.0149232
703.655	0.0148232
703.733	0.0148194
703.811	0.0146770
703.889	0.0142791
703.967	0.0140594
704.045	0.0137782
704.123	0.0136378
704.201	0.0133533
704.280	0.0133918
704.358	0.0134480
704.436	0.0132393
704.514	0.0133477
704.592	0.0133157
704.670	0.0135186
704.748	0.0134763
704.826	0.0137454
704.905	0.0138180
704.983	0.0138419
705.061	0.0138387
705.139	0.0138357
705.217	0.0139489
705.295	0.0140533
705.373	0.0141915
705.451	0.0142890
705.530	0.0144145
705.608	0.0147392
705.686	0.0151525
705.764	0.0151437
705.842	0.0154772
705.920	0.0157856
705.998	0.0160027
706.076	0.0160101
706.155	0.0163127
706.233	0.0163338
706.311	0.0164147
706.389	0.0164730
706.467	0.0166684
706.545	0.0166118
706.623	0.0165281
706.701	0.0165585
706.780	0.0163828
706.858	0.0165048
706.936	0.0163734
707.014	0.0162305
707.092	0.0160347
707.170	0.0159165
707.248	0.0157650
707.326	0.0153754
707.405	0.0153349
707.483	0.0151031
707.561	0.0147713
707.639	0.0143901
707.717	0.0140462
707.795	0.0138707
707.873	0.0135063
707.951	0.0134106
708.030	0.0131187
708.108	0.0129661
708.186	0.0127488
708.264	0.0124856
708.342	0.0122085
708.420	0.0121394
708.498	0.0119640
708.576	0.0118706
708.655	0.0119604
708.733	0.0117725
708.811	0.0118772
708.889	0.0121464
708.967	0.0123350
709.045	0.0125545
709.123	0.0126573
709.201	0.0129333
709.280	0.0131738
709.358	0.0132771
709.436	0.0134901
709.514	0.0135720
709.592	0.0136044
709.670	0.0138537
709.748	0.0139699
709.826	0.0137455
709.905	0.0138399
709.983	0.0139949
710.061	0.0143385
710.139	0.0143359
710.217	0.0144509
710.295	0.0146950
710.373	0.0151529
710.451	0.0152841
710.530	0.0155671
710.608	0.0156261
710.686	0.0158137
710.764	0.0160045
710.842	0.0162105
710.920	0.0163709
710.998	0.0164521
711.076	0.0164200
711.155	0.0166912
711.233	0.0166982
711.311	0.0167275
711.389	0.0168702
711.467	0.0166094
711.545	0.0168081
711.623	0.0167670
711.701	0.0168165
711.780	0.0166239
711.858	0.0167004
711.936	0.0167658
712.014	0.0166466
712.092	0.0163412
712.170	0.0164589
712.248	0.0162405
712.326	0.0159164
712.405	0.0159767
712.483	0.0158178
712.561	0.0155430
712.639	0.0152915
712.717	0.0151274
712.795	0.0148727
712.873	0.0146952
712.951	0.0143728
713.030	0.0140281
713.108	0.0137850
713.186	0.0133728
713.264	0.0129436
713.342	0.0127264
713.420	0.0125512
713.498	0.0122617
713.576	0.0120203
713.655	0.0118043
713.733	0.0116914
713.811	0.0115152
713.889	0.0114985
713.967	0.0115256
714.045	0.0115388
714.123	0.0116743
714.201	0.0118950
714.280	0.0122246
714.358	0.0123217
714.436	0.0125780
714.514	0.0128527
714.592	0.0132284
714.670	0.0134278
714.748	0.0137479
714.826	0.0139590
714.905	0.0141166
714.983	0.0143503
715.061	0.0144022
715.139	0.0145946
715.217	0.0146921
715.295	0.0147541
715.373	0.0149606
715.451	0.0149652
715.530	0.0149994
715.608	0.0151804
715.686	0.0154267
715.764	0.0153455
715.842	0.0155314
715.920	0.0155672
715.998	0.0155960
716.076	0.0156207
716.155	0.0157459
716.233	0.0158144
716.311	0.0158609
716.389	0.0158315
716.467	0.0159399
716.545	0.0158136
716.623	0.0160515
716.701	0.0159764
716.780	0.0158826
716.858	0.0159953
716.936	0.0162166
717.014	0.0161901
717.092	0.0161767
717.170	0.0161008
717.248	0.0161044
717.326	0.0159978
717.405	0.0158353
717.483	0.0156271
717.561	0.0155128
717.639	0.0151746
717.717	0.0149811
717.795	0.0148778
717.873	0.0147937
717.951	0.0145039
718.030	0.0144377
718.108	0.0145034
718.186	0.0142216
718.264	0.0141489
718.342	0.0140858
718.420	0.0140151
718.498	0.0139828
718.576	0.0140498
718.655	0.0140942
718.733	0.0141167
718.811	0.0143734
718.889	0.0143621
718.967	0.0144075
719.045	0.0146409
719.123	0.0147917
719.201	0.0149850
719.280	0.0150835
719.358	0.0152015
719.436	0.0152312
719.514	0.0153674
719.592	0.0153207
719.670	0.0152741
719.748	0.0151079
719.826	0.0149138
719.905	0.0147063
719.983	0.0144951
720.061	0.0141937
720.139	0.0138602
720.217	0.0136186
720.295	0.0131659
720.373	0.0128420
720.451	0.0126763
720.530	0.0125095
720.608	0.0123338
720.686	0.0122780
720.764	0.0123712
720.842	0.0124695
720.920	0.0124599
720.998	0.0127106
721.076	0.0130566
721.155	0.0132014
721.233	0.0134367
721.311	0.0138141
721.389	0.0142526
721.467	0.0143846
721.545	0.0146214
721.623	0.0150112
721.701	0.0151907
721.780	0.0154493
721.858	0.0157380
721.936	0.0159356
722.014	0.0159422
722.092	0.0160690
722.170	0.0160393
722.248	0.0159793
722.326	0.0158056
722.405	0.0157326
722.483	0.0155170
722.561	0.0153801
722.639	0.0149892
722.717	0.0147442
722.795	0.0145954
722.873	0.0145303
722.951	0.0143395
723.030	0.0140476
723.108	0.0139140
723.186	0.0138590
723.264	0.0137620
723.342	0.0140165
723.420	0.0139408
723.498	0.0140360
723.576	0.0142269
723.655	0.0142760
723.733	0.0145280
723.811	0.0144977
723.889	0.0147554
723.967	0.0149030
724.045	0.0149792
724.123	0.0150093
724.201	0.0153013
724.280	0.0153653
724.358	0.0155216
724.436	0.0157765
724.514	0.0159663
724.592	0.0160932
724.670	0.0162093
724.748	0.0163519
724.826	0.0163419
724.905	0.0161889
724.983	0.0163129
725.061	0.0160287
725.139	0.0159758
725.217	0.0158070
725.295	0.0154707
725.373	0.0152293
725.451	0.0150536
725.530	0.0150614
725.608	0.0147562
725.686	0.0146770
