05/20/2022	16:19:57	Ver.	4.1	UNKNOWN
Optical Delay	639.982744	Delta X		0.078125	Sweeps	1	Scan Rate	0/0
Coordinates	Axis 1	NaN	Axis 2	NaN	Axis 3	NaN	Axis 4	NaN	Axis 5	NaN	Axis 6	0.000000
TX Power	0.000000	RX Power	0.000000

639.983	0.0148676
640.061	0.0148978
640.139	0.0148351
640.217	0.0147617
640.295	0.0147945
640.373	0.0147570
640.451	0.0147260
640.530	0.0149621
640.608	0.0146938
640.686	0.0148465
640.764	0.0149174
640.842	0.0147599
640.920	0.0146418
640.998	0.0148422
641.076	0.0148387
641.155	0.0147073
641.233	0.0147533
641.311	0.0145888
641.389	0.0147981
641.467	0.0147986
641.545	0.0146706
641.623	0.0146487
641.701	0.0146916
641.780	0.0146931
641.858	0.0148367
641.936	0.0146342
642.014	0.0147148
642.092	0.0148731
642.170	0.0147817
642.248	0.0147833
642.326	0.0147478
642.405	0.0146320
642.483	0.0147165
642.561	0.0145802
642.639	0.0147324
642.717	0.0148314
642.795	0.0148945
642.873	0.0146542
642.951	0.0148506
643.030	0.0147186
643.108	0.0147520
643.186	0.0147291
643.264	0.0146648
643.342	0.0147336
643.420	0.0147767
643.498	0.0147980
643.576	0.0148139
643.655	0.0146014
643.733	0.0147138
643.811	0.0148651
643.889	0.0147040
643.967	0.0147318
644.045	0.0147730
644.123	0.0147441
644.201	0.0148150
644.280	0.0148241
644.358	0.0147900
644.436	0.0147985
644.514	0.0148164
644.592	0.0148029
644.670	0.0147902
644.748	0.0146716
644.826	0.0147136
644.905	0.0148507
644.983	0.0148367
645.061	0.0147878
645.139	0.0147302
645.217	0.0148086
645.295	0.0147193
645.373	0.0147672
645.451	0.0149583
645.530	0.0147670
645.608	0.0148429
645.686	0.0146179
645.764	0.0147814
645.842	0.0148459
645.920	0.0148065
645.998	0.0147693
646.076	0.0148638
646.155	0.0148125
646.233	0.0146964
646.311	0.0149856
646.389	0.0148933
646.467	0.0149316
646.545	0.0149134
646.623	0.0148998
646.701	0.0147787
646.780	0.0147366
646.858	0.0148467
646.936	0.0146489
647.014	0.0148141
647.092	0.0147692
647.170	0.0148375
647.248	0.0149649
647.326	0.0149145
647.405	0.0148479
647.483	0.0147753
647.561	0.0147818
647.639	0.0148560
647.717	0.0147544
647.795	0.0148045
647.873	0.0149105
647.951	0.0147973
648.030	0.0147766
648.108	0.0147693
648.186	0.0148918
648.264	0.0148844
648.342	0.0148128
648.420	0.0147829
648.498	0.0146948
648.576	0.0148890
648.655	0.0148752
648.733	0.0147560
648.811	0.0147941
648.889	0.0148879
648.967	0.0148712
649.045	0.0148763
649.123	0.0149059
649.201	0.0148198
649.280	0.0147429
649.358	0.0148647
649.436	0.0148398
649.514	0.0149129
649.592	0.0149551
649.670	0.0150510
649.748	0.0148301
649.826	0.0148353
649.905	0.0148303
649.983	0.0147840
650.061	0.0148846
650.139	0.0148899
650.217	0.0149094
650.295	0.0149821
650.373	0.0149666
650.451	0.0148420
650.530	0.0149631
650.608	0.0148994
650.686	0.0148942
650.764	0.0148810
650.842	0.0149294
650.920	0.0148974
650.998	0.0150216
651.076	0.0148840
651.155	0.0147685
651.233	0.0150364
651.311	0.0148781
651.389	0.0148838
651.467	0.0148919
651.545	0.0148823
651.623	0.0148997
651.701	0.0149908
651.780	0.0150253
651.858	0.0148627
651.936	0.0148401
652.014	0.0150333
652.092	0.0149738
652.170	0.0148940
652.248	0.0150256
652.326	0.0149912
652.405	0.0147992
652.483	0.0147746
652.561	0.0148446
652.639	0.0150014
652.717	0.0150035
652.795	0.0149893
652.873	0.0149301
652.951	0.0149628
653.030	0.0149136
653.108	0.0147818
653.186	0.0148435
653.264	0.0148642
653.342	0.0149206
653.420	0.0149490
653.498	0.0149540
653.576	0.0149101
653.655	0.0149477
653.733	0.0149355
653.811	0.0148824
653.889	0.0148532
653.967	0.0150068
654.045	0.0150436
654.123	0.0151299
654.201	0.0148664
654.280	0.0148379
654.358	0.0149689
654.436	0.0151009
654.514	0.0149754
654.592	0.0151415
654.670	0.0149921
654.748	0.0149514
654.826	0.0149667
654.905	0.0150520
654.983	0.0150998
655.061	0.0148490
655.139	0.0149278
655.217	0.0150486
655.295	0.0148922
655.373	0.0150539
655.451	0.0151563
655.530	0.0149509
655.608	0.0149197
655.686	0.0150621
655.764	0.0149394
655.842	0.0149812
655.920	0.0150108
655.998	0.0151328
656.076	0.0150277
656.155	0.0149858
656.233	0.0150696
656.311	0.0150783
656.389	0.0149720
656.467	0.0150470
656.545	0.0150610
656.623	0.0151203
656.701	0.0148565
656.780	0.0150578
656.858	0.0148832
656.936	0.0148837
657.014	0.0149902
657.092	0.0150677
657.170	0.0148494
657.248	0.0149860
657.326	0.0149854
657.405	0.0149789
657.483	0.0148610
657.561	0.0150546
657.639	0.0152345
657.717	0.0150896
657.795	0.0149387
657.873	0.0150469
657.951	0.0150080
658.030	0.0150030
658.108	0.0150402
658.186	0.0149004
658.264	0.0149238
658.342	0.0149167
658.420	0.0150788
658.498	0.0149386
658.576	0.0150142
658.655	0.0150385
658.733	0.0149264
658.811	0.0149451
658.889	0.0149415
658.967	0.0149319
659.045	0.0149575
659.123	0.0149367
659.201	0.0149012
659.280	0.0148692
659.358	0.0149792
659.436	0.0149494
659.514	0.0149331
659.592	0.0149092
659.670	0.0148158
659.748	0.0148655
659.826	0.0148873
659.905	0.0149162
659.983	0.0148892
660.061	0.0148534
660.139	0.0148093
660.217	0.0148454
660.295	0.0148116
660.373	0.0149102
660.451	0.0147783
660.530	0.0148288
660.608	0.0147845
660.686	0.0147514
660.764	0.0147846
660.842	0.0147565
660.920	0.0146793
660.998	0.0147524
661.076	0.0148057
661.155	0.0147296
661.233	0.0149357
661.311	0.0148022
661.389	0.0146870
661.467	0.0148320
661.545	0.0147900
661.623	0.0148100
661.701	0.0147782
661.780	0.0146355
661.858	0.0147539
661.936	0.0146765
662.014	0.0146809
662.092	0.0149264
662.170	0.0147099
662.248	0.0146812
662.326	0.0148145
662.405	0.0147157
662.483	0.0147127
662.561	0.0148357
662.639	0.0147997
662.717	0.0148466
662.795	0.0147724
662.873	0.0147841
662.951	0.0147116
663.030	0.0147968
663.108	0.0148026
663.186	0.0147087
663.264	0.0147538
663.342	0.0148367
663.420	0.0146631
663.498	0.0148307
663.576	0.0147790
663.655	0.0147202
663.733	0.0147294
663.811	0.0147507
663.889	0.0146785
663.967	0.0147208
664.045	0.0148926
664.123	0.0147077
664.201	0.0145666
664.280	0.0147713
664.358	0.0147186
664.436	0.0147418
664.514	0.0146536
664.592	0.0146719
664.670	0.0147330
664.748	0.0148190
664.826	0.0147169
664.905	0.0146051
664.983	0.0146225
665.061	0.0146433
665.139	0.0147337
665.217	0.0146949
665.295	0.0147483
665.373	0.0146095
665.451	0.0147467
665.530	0.0146925
665.608	0.0147411
665.686	0.0147591
665.764	0.0147817
665.842	0.0147825
665.920	0.0147735
665.998	0.0147291
666.076	0.0148474
666.155	0.0147282
666.233	0.0146461
666.311	0.0146783
666.389	0.0146494
666.467	0.0148747
666.545	0.0147462
666.623	0.0148156
666.701	0.0147429
666.780	0.0147277
666.858	0.0147485
666.936	0.0146195
667.014	0.0146999
667.092	0.0146040
667.170	0.0147752
667.248	0.0147745
667.326	0.0147937
667.405	0.0147350
667.483	0.0147201
667.561	0.0147900
667.639	0.0148263
667.717	0.0146868
667.795	0.0148177
667.873	0.0146915
667.951	0.0147102
668.030	0.0146860
668.108	0.0146857
668.186	0.0147319
668.264	0.0147261
668.342	0.0147803
668.420	0.0148015
668.498	0.0146947
668.576	0.0149078
668.655	0.0148213
668.733	0.0149299
668.811	0.0147810
668.889	0.0149143
668.967	0.0149572
669.045	0.0148766
669.123	0.0147433
669.201	0.0148031
669.280	0.0148026
669.358	0.0148080
669.436	0.0149433
669.514	0.0148277
669.592	0.0147453
669.670	0.0146234
669.748	0.0148212
669.826	0.0148761
669.905	0.0147887
669.983	0.0148646
670.061	0.0148347
670.139	0.0148677
670.217	0.0147746
670.295	0.0146999
670.373	0.0147528
670.451	0.0149995
670.530	0.0146713
670.608	0.0146939
670.686	0.0148300
670.764	0.0148012
670.842	0.0148359
670.920	0.0147769
670.998	0.0147895
671.076	0.0148239
671.155	0.0149317
671.233	0.0149819
671.311	0.0149146
671.389	0.0148690
671.467	0.0148487
671.545	0.0148866
671.623	0.0149008
671.701	0.0149382
671.780	0.0149624
671.858	0.0148665
671.936	0.0148041
672.014	0.0149657
672.092	0.0149258
672.170	0.0149401
672.248	0.0149546
672.326	0.0148250
672.405	0.0147872
672.483	0.0146611
672.561	0.0147918
672.639	0.0147504
672.717	0.0148364
672.795	0.0149559
672.873	0.0148507
672.951	0.0149710
673.030	0.0149068
673.108	0.0149000
673.186	0.0147627
673.264	0.0148230
673.342	0.0150200
673.420	0.0148853
673.498	0.0149007
673.576	0.0149239
673.655	0.0148505
673.733	0.0149094
673.811	0.0148552
673.889	0.0149026
673.967	0.0149488
674.045	0.0149564
674.123	0.0148884
674.201	0.0149216
674.280	0.0149236
674.358	0.0148620
674.436	0.0149180
674.514	0.0147580
674.592	0.0148869
674.670	0.0149187
674.748	0.0150412
674.826	0.0150154
674.905	0.0149909
674.983	0.0149373
675.061	0.0149125
675.139	0.0149986
675.217	0.0150438
675.295	0.0149789
675.373	0.0148306
675.451	0.0148396
675.530	0.0149226
675.608	0.0149664
675.686	0.0147974
675.764	0.0149213
675.842	0.0148286
675.920	0.0148006
675.998	0.0147917
676.076	0.0146389
676.155	0.0148383
676.233	0.0148589
676.311	0.0147483
676.389	0.0147723
676.467	0.0148277
676.545	0.0148985
676.623	0.0149627
676.701	0.0150378
676.780	0.0149994
676.858	0.0151407
676.936	0.0152068
677.014	0.0151456
677.092	0.0150661
677.170	0.0152140
677.248	0.0151485
677.326	0.0150425
677.405	0.0149932
677.483	0.0150034
677.561	0.0148609
677.639	0.0148831
677.717	0.0149425
677.795	0.0148372
677.873	0.0146991
677.951	0.0147355
678.030	0.0147249
678.108	0.0147829
678.186	0.0147278
678.264	0.0147134
678.342	0.0147015
678.420	0.0146091
678.498	0.0147184
678.576	0.0148425
678.655	0.0148054
678.733	0.0148515
678.811	0.0147443
678.889	0.0149430
678.967	0.0149507
679.045	0.0149499
679.123	0.0150699
679.201	0.0149709
679.280	0.0150000
679.358	0.0152794
679.436	0.0149905
679.514	0.0150388
679.592	0.0150311
679.670	0.0149652
679.748	0.0150148
679.826	0.0150201
679.905	0.0147953
679.983	0.0147005
680.061	0.0145540
680.139	0.0147077
680.217	0.0146211
680.295	0.0147477
680.373	0.0146227
680.451	0.0146510
680.530	0.0147102
680.608	0.0146373
680.686	0.0147741
680.764	0.0148197
680.842	0.0147345
680.920	0.0147437
680.998	0.0148007
681.076	0.0147657
681.155	0.0148891
681.233	0.0148755
681.311	0.0148873
681.389	0.0151702
681.467	0.0150718
681.545	0.0150455
681.623	0.0151325
681.701	0.0152502
681.780	0.0151936
681.858	0.0150723
681.936	0.0152222
682.014	0.0150137
682.092	0.0147527
682.170	0.0147486
682.248	0.0147572
682.326	0.0145262
682.405	0.0143478
682.483	0.0143832
682.561	0.0143131
682.639	0.0143423
682.717	0.0143611
682.795	0.0142309
682.873	0.0144462
682.951	0.0146545
683.030	0.0146944
683.108	0.0147623
683.186	0.0149889
683.264	0.0148292
683.342	0.0151015
683.420	0.0153183
683.498	0.0151368
683.576	0.0152226
683.655	0.0151611
683.733	0.0150586
683.811	0.0153150
683.889	0.0152930
683.967	0.0152454
684.045	0.0150666
684.123	0.0151200
684.201	0.0151730
684.280	0.0150399
684.358	0.0150599
684.436	0.0151109
684.514	0.0151213
684.592	0.0150689
684.670	0.0149126
684.748	0.0147086
684.826	0.0146918
684.905	0.0146963
684.983	0.0142063
685.061	0.0142950
685.139	0.0140707
685.217	0.0140185
685.295	0.0138359
685.373	0.0138607
685.451	0.0137661
685.530	0.0138219
685.608	0.0139050
685.686	0.0141604
685.764	0.0142597
685.842	0.0144876
685.920	0.0146412
685.998	0.0149494
686.076	0.0152474
686.155	0.0152940
686.233	0.0155246
686.311	0.0155902
686.389	0.0157671
686.467	0.0157372
686.545	0.0156844
686.623	0.0157484
686.701	0.0155952
686.780	0.0153674
686.858	0.0154496
686.936	0.0151807
687.014	0.0152739
687.092	0.0151359
687.170	0.0151220
687.248	0.0149994
687.326	0.0148334
687.405	0.0147307
687.483	0.0147219
687.561	0.0145121
687.639	0.0144368
687.717	0.0142777
687.795	0.0141773
687.873	0.0141679
687.951	0.0141656
688.030	0.0141674
688.108	0.0142072
688.186	0.0142780
688.264	0.0145256
688.342	0.0145639
688.420	0.0146959
688.498	0.0147728
688.576	0.0150929
688.655	0.0149828
688.733	0.0151357
688.811	0.0153864
688.889	0.0155869
688.967	0.0154630
689.045	0.0153700
689.123	0.0152952
689.201	0.0152966
689.280	0.0151311
689.358	0.0148758
689.436	0.0148061
689.514	0.0146782
689.592	0.0145874
689.670	0.0144576
689.748	0.0145699
689.826	0.0145850
689.905	0.0145210
689.983	0.0147369
690.061	0.0147215
690.139	0.0146272
690.217	0.0148254
690.295	0.0147942
690.373	0.0147620
690.451	0.0146263
690.530	0.0145316
690.608	0.0143169
690.686	0.0141388
690.764	0.0138898
690.842	0.0138920
690.920	0.0135722
690.998	0.0137017
691.076	0.0138195
691.155	0.0137908
691.233	0.0141037
691.311	0.0142532
691.389	0.0147441
691.467	0.0152402
691.545	0.0155255
691.623	0.0156846
691.701	0.0161429
691.780	0.0162984
691.858	0.0164085
691.936	0.0163715
692.014	0.0163054
692.092	0.0161462
692.170	0.0159201
692.248	0.0158058
692.326	0.0156953
692.405	0.0155143
692.483	0.0152880
692.561	0.0148431
692.639	0.0147703
692.717	0.0146220
692.795	0.0145927
692.873	0.0145340
692.951	0.0142933
693.030	0.0141483
693.108	0.0141688
693.186	0.0140062
693.264	0.0137982
693.342	0.0138328
693.420	0.0136571
693.498	0.0136523
693.576	0.0138214
693.655	0.0138437
693.733	0.0137845
693.811	0.0140926
693.889	0.0142190
693.967	0.0145120
694.045	0.0147398
694.123	0.0150938
694.201	0.0152290
694.280	0.0151765
694.358	0.0154961
694.436	0.0155558
694.514	0.0156601
694.592	0.0156513
694.670	0.0155133
694.748	0.0154893
694.826	0.0156329
694.905	0.0155928
694.983	0.0154773
695.061	0.0153117
695.139	0.0152499
695.217	0.0151412
695.295	0.0151528
695.373	0.0150867
695.451	0.0148454
695.530	0.0146577
695.608	0.0147165
695.686	0.0146046
695.764	0.0144348
695.842	0.0142789
695.920	0.0142544
695.998	0.0141429
696.076	0.0140771
696.155	0.0140511
696.233	0.0138799
696.311	0.0139079
696.389	0.0138793
696.467	0.0137368
696.545	0.0138582
696.623	0.0137428
696.701	0.0138242
696.780	0.0139702
696.858	0.0141038
696.936	0.0141715
697.014	0.0146161
697.092	0.0147267
697.170	0.0150333
697.248	0.0152088
697.326	0.0156204
697.405	0.0158425
697.483	0.0161128
697.561	0.0163287
697.639	0.0163799
697.717	0.0164566
697.795	0.0164716
697.873	0.0164077
697.951	0.0161732
698.030	0.0161035
698.108	0.0158225
698.186	0.0156112
698.264	0.0154238
698.342	0.0153214
698.420	0.0153399
698.498	0.0152612
698.576	0.0152446
698.655	0.0152908
698.733	0.0151588
698.811	0.0149963
698.889	0.0149222
698.967	0.0149454
699.045	0.0145746
699.123	0.0143461
699.201	0.0143011
699.280	0.0140536
699.358	0.0138506
699.436	0.0137099
699.514	0.0136006
699.592	0.0134313
699.670	0.0133884
699.748	0.0135915
699.826	0.0136028
699.905	0.0136217
699.983	0.0138907
700.061	0.0140995
700.139	0.0143283
700.217	0.0143447
700.295	0.0144180
700.373	0.0145142
700.451	0.0146190
700.530	0.0146597
700.608	0.0147043
700.686	0.0148317
700.764	0.0148616
700.842	0.0148290
700.920	0.0150135
700.998	0.0152509
701.076	0.0156167
701.155	0.0155264
701.233	0.0159341
701.311	0.0161690
701.389	0.0162006
701.467	0.0162193
701.545	0.0161017
701.623	0.0161472
701.701	0.0157835
701.780	0.0153999
701.858	0.0150208
701.936	0.0147666
702.014	0.0144492
702.092	0.0139671
702.170	0.0138184
702.248	0.0135828
702.326	0.0134644
702.405	0.0134091
702.483	0.0137011
702.561	0.0137331
702.639	0.0139275
702.717	0.0143620
702.795	0.0143890
702.873	0.0146372
702.951	0.0153495
703.030	0.0154465
703.108	0.0154772
703.186	0.0154862
703.264	0.0156604
703.342	0.0155818
703.420	0.0155087
703.498	0.0153479
703.576	0.0153665
703.655	0.0152897
703.733	0.0152584
703.811	0.0152255
703.889	0.0154521
703.967	0.0153274
704.045	0.0153323
704.123	0.0155033
704.201	0.0157253
704.280	0.0157298
704.358	0.0158417
704.436	0.0158229
704.514	0.0156719
704.592	0.0155362
704.670	0.0154669
704.748	0.0151320
704.826	0.0149210
704.905	0.0146586
704.983	0.0145588
705.061	0.0143645
705.139	0.0141442
705.217	0.0141793
705.295	0.0140615
705.373	0.0139719
705.451	0.0140778
705.530	0.0139668
705.608	0.0139801
705.686	0.0141357
705.764	0.0143272
705.842	0.0143575
705.920	0.0143312
705.998	0.0143834
706.076	0.0145743
706.155	0.0146489
706.233	0.0146149
706.311	0.0144998
706.389	0.0147424
706.467	0.0146266
706.545	0.0147052
706.623	0.0147731
706.701	0.0148691
706.780	0.0148657
706.858	0.0146505
706.936	0.0147335
707.014	0.0147840
707.092	0.0146416
707.170	0.0147733
707.248	0.0147232
707.326	0.0146452
707.405	0.0149857
707.483	0.0149424
707.561	0.0147746
707.639	0.0149161
707.717	0.0149822
707.795	0.0149174
707.873	0.0150704
707.951	0.0151614
708.030	0.0151785
708.108	0.0151618
708.186	0.0151546
708.264	0.0151219
708.342	0.0151052
708.420	0.0150426
708.498	0.0149857
708.576	0.0149076
708.655	0.0146885
708.733	0.0145444
708.811	0.0145027
708.889	0.0144575
708.967	0.0144111
709.045	0.0143694
709.123	0.0144511
709.201	0.0145296
709.280	0.0144695
709.358	0.0145023
709.436	0.0145235
709.514	0.0146389
709.592	0.0146748
709.670	0.0146139
709.748	0.0145351
709.826	0.0146837
709.905	0.0146954
709.983	0.0146707
710.061	0.0145890
710.139	0.0146122
710.217	0.0147289
710.295	0.0148723
710.373	0.0149413
710.451	0.0149493
710.530	0.0151467
710.608	0.0154005
710.686	0.0154450
710.764	0.0156698
710.842	0.0157758
710.920	0.0158817
710.998	0.0159351
711.076	0.0160029
711.155	0.0158045
711.233	0.0158134
711.311	0.0156818
711.389	0.0154896
711.467	0.0153124
711.545	0.0151913
711.623	0.0150156
711.701	0.0149950
711.780	0.0149083
711.858	0.0150475
711.936	0.0149521
712.014	0.0151341
712.092	0.0152349
712.170	0.0152737
712.248	0.0152988
712.326	0.0152307
712.405	0.0153539
712.483	0.0151082
712.561	0.0150699
712.639	0.0149322
712.717	0.0147761
712.795	0.0146421
712.873	0.0145547
712.951	0.0143408
713.030	0.0140784
713.108	0.0140160
713.186	0.0138525
713.264	0.0136181
713.342	0.0135021
713.420	0.0133457
713.498	0.0132786
713.576	0.0130219
713.655	0.0129610
713.733	0.0129247
713.811	0.0130322
713.889	0.0130267
713.967	0.0129745
714.045	0.0132237
714.123	0.0131673
714.201	0.0133494
714.280	0.0136533
714.358	0.0136918
714.436	0.0138838
714.514	0.0141666
714.592	0.0144515
714.670	0.0145782
714.748	0.0147739
714.826	0.0149038
714.905	0.0151080
714.983	0.0153881
715.061	0.0154703
715.139	0.0155412
715.217	0.0157171
715.295	0.0158454
715.373	0.0157823
715.451	0.0158913
715.530	0.0160208
715.608	0.0159117
715.686	0.0160042
715.764	0.0160833
715.842	0.0158878
715.920	0.0158771
715.998	0.0159132
716.076	0.0158197
716.155	0.0158238
716.233	0.0158012
716.311	0.0159917
716.389	0.0158851
716.467	0.0160434
716.545	0.0161974
716.623	0.0162502
716.701	0.0164291
716.780	0.0162629
716.858	0.0161815
716.936	0.0161646
717.014	0.0160526
717.092	0.0157036
717.170	0.0154047
717.248	0.0152528
717.326	0.0152513
717.405	0.0149020
717.483	0.0146456
717.561	0.0146716
717.639	0.0146080
717.717	0.0144973
717.795	0.0145927
717.873	0.0147559
717.951	0.0148400
718.030	0.0147380
718.108	0.0146761
718.186	0.0147602
718.264	0.0146908
718.342	0.0145605
718.420	0.0144959
718.498	0.0142065
718.576	0.0141155
718.655	0.0139384
718.733	0.0137469
718.811	0.0135266
718.889	0.0135010
718.967	0.0134100
719.045	0.0131578
719.123	0.0130537
719.201	0.0130137
719.280	0.0130835
719.358	0.0131630
719.436	0.0131525
719.514	0.0133640
719.592	0.0133459
719.670	0.0135866
719.748	0.0137285
719.826	0.0139608
719.905	0.0141014
719.983	0.0142452
720.061	0.0145189
720.139	0.0146791
720.217	0.0147437
720.295	0.0149902
720.373	0.0151308
720.451	0.0150445
720.530	0.0151755
720.608	0.0151720
720.686	0.0153101
720.764	0.0152763
720.842	0.0151667
720.920	0.0150497
720.998	0.0150047
721.076	0.0150925
721.155	0.0150694
721.233	0.0149629
721.311	0.0148433
721.389	0.0150353
721.467	0.0150695
721.545	0.0150024
721.623	0.0150521
721.701	0.0152028
721.780	0.0153215
721.858	0.0154443
721.936	0.0155044
722.014	0.0156120
722.092	0.0156850
722.170	0.0157910
722.248	0.0159240
722.326	0.0158845
722.405	0.0158715
722.483	0.0159921
722.561	0.0161768
722.639	0.0159763
722.717	0.0159495
722.795	0.0159330
722.873	0.0158899
722.951	0.0158167
723.030	0.0157465
723.108	0.0155370
723.186	0.0152993
723.264	0.0152515
723.342	0.0150745
723.420	0.0149643
723.498	0.0147438
723.576	0.0147973
723.655	0.0147401
723.733	0.0147177
723.811	0.0144282
723.889	0.0145193
723.967	0.0145963
724.045	0.0144501
724.123	0.0144128
724.201	0.0143707
724.280	0.0145078
724.358	0.0145333
724.436	0.0143629
724.514	0.0143772
724.592	0.0145119
724.670	0.0147008
724.748	0.0145084
724.826	0.0147628
724.905	0.0147433
724.983	0.0147531
725.061	0.0147345
725.139	0.0148103
725.217	0.0148133
725.295	0.0145752
725.373	0.0145477
725.451	0.0143140
725.530	0.0144056
725.608	0.0141965
725.686	0.0141488
