05/20/2022	16:21:32	Ver.	4.1	UNKNOWN
Optical Delay	639.982744	Delta X		0.078125	Sweeps	1	Scan Rate	0/0
Coordinates	Axis 1	NaN	Axis 2	NaN	Axis 3	NaN	Axis 4	NaN	Axis 5	NaN	Axis 6	0.000000
TX Power	0.000000	RX Power	0.000000

639.983	0.0145888
640.061	0.0144356
640.139	0.0145758
640.217	0.0145241
640.295	0.0145393
640.373	0.0143974
640.451	0.0144697
640.530	0.0145487
640.608	0.0144252
640.686	0.0143604
640.764	0.0144685
640.842	0.0144473
640.920	0.0144540
640.998	0.0144627
641.076	0.0143208
641.155	0.0143722
641.233	0.0143288
641.311	0.0142951
641.389	0.0143467
641.467	0.0143335
641.545	0.0143085
641.623	0.0143959
641.701	0.0144534
641.780	0.0143626
641.858	0.0143533
641.936	0.0143211
642.014	0.0142879
642.092	0.0142255
642.170	0.0143185
642.248	0.0144246
642.326	0.0144282
642.405	0.0145327
642.483	0.0143487
642.561	0.0143134
642.639	0.0143438
642.717	0.0142496
642.795	0.0142980
642.873	0.0142056
642.951	0.0143534
643.030	0.0144057
643.108	0.0143040
643.186	0.0142709
643.264	0.0142725
643.342	0.0142799
643.420	0.0141602
643.498	0.0142869
643.576	0.0143550
643.655	0.0142939
643.733	0.0142252
643.811	0.0142423
643.889	0.0143198
643.967	0.0142079
644.045	0.0143568
644.123	0.0143083
644.201	0.0141753
644.280	0.0142593
644.358	0.0144018
644.436	0.0144593
644.514	0.0144257
644.592	0.0143143
644.670	0.0141934
644.748	0.0141523
644.826	0.0142680
644.905	0.0143362
644.983	0.0142790
645.061	0.0143858
645.139	0.0143785
645.217	0.0142165
645.295	0.0142744
645.373	0.0140928
645.451	0.0143333
645.530	0.0143914
645.608	0.0141630
645.686	0.0142369
645.764	0.0144983
645.842	0.0144767
645.920	0.0141779
645.998	0.0143532
646.076	0.0143472
646.155	0.0143201
646.233	0.0143219
646.311	0.0143152
646.389	0.0143441
646.467	0.0143726
646.545	0.0142548
646.623	0.0143864
646.701	0.0143661
646.780	0.0144247
646.858	0.0143032
646.936	0.0143435
647.014	0.0142290
647.092	0.0142817
647.170	0.0143144
647.248	0.0143446
647.326	0.0143889
647.405	0.0143596
647.483	0.0142211
647.561	0.0143718
647.639	0.0143361
647.717	0.0143978
647.795	0.0143781
647.873	0.0144051
647.951	0.0144657
648.030	0.0144013
648.108	0.0143240
648.186	0.0143882
648.264	0.0143721
648.342	0.0143678
648.420	0.0144537
648.498	0.0143818
648.576	0.0143535
648.655	0.0144868
648.733	0.0145139
648.811	0.0143640
648.889	0.0144695
648.967	0.0143843
649.045	0.0143359
649.123	0.0144588
649.201	0.0143587
649.280	0.0143874
649.358	0.0143508
649.436	0.0142812
649.514	0.0143817
649.592	0.0143813
649.670	0.0144141
649.748	0.0144293
649.826	0.0145609
649.905	0.0144604
649.983	0.0143655
650.061	0.0143604
650.139	0.0145351
650.217	0.0143358
650.295	0.0145509
650.373	0.0145609
650.451	0.0144254
650.530	0.0143321
650.608	0.0144646
650.686	0.0145433
650.764	0.0144460
650.842	0.0141468
650.920	0.0143712
650.998	0.0145130
651.076	0.0145040
651.155	0.0144318
651.233	0.0144170
651.311	0.0144923
651.389	0.0143982
651.467	0.0144399
651.545	0.0144437
651.623	0.0145424
651.701	0.0144569
651.780	0.0145507
651.858	0.0142941
651.936	0.0144484
652.014	0.0144737
652.092	0.0144776
652.170	0.0145519
652.248	0.0144399
652.326	0.0143793
652.405	0.0145126
652.483	0.0144099
652.561	0.0145535
652.639	0.0144711
652.717	0.0145215
652.795	0.0144749
652.873	0.0144782
652.951	0.0145751
653.030	0.0143977
653.108	0.0145336
653.186	0.0143857
653.264	0.0145831
653.342	0.0145811
653.420	0.0144878
653.498	0.0145610
653.576	0.0145076
653.655	0.0144630
653.733	0.0145186
653.811	0.0144562
653.889	0.0144778
653.967	0.0147611
654.045	0.0145525
654.123	0.0145435
654.201	0.0145090
654.280	0.0145471
654.358	0.0146395
654.436	0.0145994
654.514	0.0144092
654.592	0.0145708
654.670	0.0145426
654.748	0.0145818
654.826	0.0144556
654.905	0.0144869
654.983	0.0146297
655.061	0.0146175
655.139	0.0145638
655.217	0.0146679
655.295	0.0145506
655.373	0.0145171
655.451	0.0145779
655.530	0.0145460
655.608	0.0144716
655.686	0.0146313
655.764	0.0145080
655.842	0.0146456
655.920	0.0146976
655.998	0.0144453
656.076	0.0145511
656.155	0.0146482
656.233	0.0145424
656.311	0.0144201
656.389	0.0145197
656.467	0.0145332
656.545	0.0144640
656.623	0.0144906
656.701	0.0145358
656.780	0.0144271
656.858	0.0144570
656.936	0.0145534
657.014	0.0145447
657.092	0.0145316
657.170	0.0145644
657.248	0.0145102
657.326	0.0144611
657.405	0.0145444
657.483	0.0144703
657.561	0.0143742
657.639	0.0144872
657.717	0.0145892
657.795	0.0146820
657.873	0.0144852
657.951	0.0143313
658.030	0.0146418
658.108	0.0144311
658.186	0.0145228
658.264	0.0146186
658.342	0.0144922
658.420	0.0145321
658.498	0.0145076
658.576	0.0144337
658.655	0.0146030
658.733	0.0146587
658.811	0.0144694
658.889	0.0144701
658.967	0.0144576
659.045	0.0144279
659.123	0.0145677
659.201	0.0145029
659.280	0.0145553
659.358	0.0143771
659.436	0.0145059
659.514	0.0144370
659.592	0.0144547
659.670	0.0143993
659.748	0.0143140
659.826	0.0144103
659.905	0.0144651
659.983	0.0144912
660.061	0.0144913
660.139	0.0144753
660.217	0.0144583
660.295	0.0146201
660.373	0.0145177
660.451	0.0145303
660.530	0.0145177
660.608	0.0144237
660.686	0.0144015
660.764	0.0145172
660.842	0.0143310
660.920	0.0145020
660.998	0.0145470
661.076	0.0144753
661.155	0.0145485
661.233	0.0144894
661.311	0.0145697
661.389	0.0145007
661.467	0.0145877
661.545	0.0146300
661.623	0.0144115
661.701	0.0145468
661.780	0.0145794
661.858	0.0144628
661.936	0.0144689
662.014	0.0145621
662.092	0.0144749
662.170	0.0144249
662.248	0.0144702
662.326	0.0143718
662.405	0.0143375
662.483	0.0144451
662.561	0.0144684
662.639	0.0144241
662.717	0.0145270
662.795	0.0143970
662.873	0.0145002
662.951	0.0145090
663.030	0.0144086
663.108	0.0144332
663.186	0.0145866
663.264	0.0145250
663.342	0.0144433
663.420	0.0145621
663.498	0.0145018
663.576	0.0145200
663.655	0.0145382
663.733	0.0145476
663.811	0.0144527
663.889	0.0144868
663.967	0.0143681
664.045	0.0143555
664.123	0.0144765
664.201	0.0145641
664.280	0.0144243
664.358	0.0143688
664.436	0.0142466
664.514	0.0144724
664.592	0.0145288
664.670	0.0144637
664.748	0.0143137
664.826	0.0142575
664.905	0.0143562
664.983	0.0145076
665.061	0.0143418
665.139	0.0143665
665.217	0.0144100
665.295	0.0144211
665.373	0.0145255
665.451	0.0144603
665.530	0.0143998
665.608	0.0143938
665.686	0.0144807
665.764	0.0145055
665.842	0.0144103
665.920	0.0144020
665.998	0.0144862
666.076	0.0144086
666.155	0.0144708
666.233	0.0143456
666.311	0.0143940
666.389	0.0144030
666.467	0.0143433
666.545	0.0144027
666.623	0.0144968
666.701	0.0143217
666.780	0.0144834
666.858	0.0144195
666.936	0.0142318
667.014	0.0144626
667.092	0.0145234
667.170	0.0143091
667.248	0.0143285
667.326	0.0143855
667.405	0.0143951
667.483	0.0143493
667.561	0.0144495
667.639	0.0144688
667.717	0.0144454
667.795	0.0143693
667.873	0.0144330
667.951	0.0144440
668.030	0.0143104
668.108	0.0144944
668.186	0.0144427
668.264	0.0144757
668.342	0.0143864
668.420	0.0145181
668.498	0.0143780
668.576	0.0143784
668.655	0.0144353
668.733	0.0144666
668.811	0.0144451
668.889	0.0144473
668.967	0.0143925
669.045	0.0142746
669.123	0.0144958
669.201	0.0144635
669.280	0.0143636
669.358	0.0144160
669.436	0.0144772
669.514	0.0144827
669.592	0.0144110
669.670	0.0142930
669.748	0.0142828
669.826	0.0144314
669.905	0.0145315
669.983	0.0143224
670.061	0.0142677
670.139	0.0143842
670.217	0.0143906
670.295	0.0142838
670.373	0.0143105
670.451	0.0142289
670.530	0.0142384
670.608	0.0143608
670.686	0.0145567
670.764	0.0143555
670.842	0.0143644
670.920	0.0142822
670.998	0.0143375
671.076	0.0143232
671.155	0.0143882
671.233	0.0145288
671.311	0.0145235
671.389	0.0145631
671.467	0.0144630
671.545	0.0144637
671.623	0.0143874
671.701	0.0145338
671.780	0.0145877
671.858	0.0144359
671.936	0.0143420
672.014	0.0144164
672.092	0.0143565
672.170	0.0143164
672.248	0.0142241
672.326	0.0142443
672.405	0.0142268
672.483	0.0143011
672.561	0.0143713
672.639	0.0143239
672.717	0.0141879
672.795	0.0142638
672.873	0.0143625
672.951	0.0143932
673.030	0.0143974
673.108	0.0145511
673.186	0.0145022
673.264	0.0146040
673.342	0.0145032
673.420	0.0145226
673.498	0.0145804
673.576	0.0145780
673.655	0.0146588
673.733	0.0146735
673.811	0.0145795
673.889	0.0146197
673.967	0.0145390
674.045	0.0145617
674.123	0.0144632
674.201	0.0145082
674.280	0.0143797
674.358	0.0141191
674.436	0.0141907
674.514	0.0142889
674.592	0.0142834
674.670	0.0142124
674.748	0.0143107
674.826	0.0141747
674.905	0.0143466
674.983	0.0143699
675.061	0.0143371
675.139	0.0144510
675.217	0.0143750
675.295	0.0142339
675.373	0.0143858
675.451	0.0146906
675.530	0.0144501
675.608	0.0144669
675.686	0.0144559
675.764	0.0146014
675.842	0.0144604
675.920	0.0145099
675.998	0.0145007
676.076	0.0146313
676.155	0.0145313
676.233	0.0144164
676.311	0.0146841
676.389	0.0146158
676.467	0.0144028
676.545	0.0143456
676.623	0.0142894
676.701	0.0143326
676.780	0.0142106
676.858	0.0142371
676.936	0.0144188
677.014	0.0144318
677.092	0.0143377
677.170	0.0142977
677.248	0.0144579
677.326	0.0143729
677.405	0.0142476
677.483	0.0143961
677.561	0.0146072
677.639	0.0143691
677.717	0.0145340
677.795	0.0145428
677.873	0.0145912
677.951	0.0145100
678.030	0.0147141
678.108	0.0146597
678.186	0.0147813
678.264	0.0145743
678.342	0.0145255
678.420	0.0144789
678.498	0.0145699
678.576	0.0144692
678.655	0.0144087
678.733	0.0143596
678.811	0.0142879
678.889	0.0143806
678.967	0.0142503
679.045	0.0141807
679.123	0.0143281
679.201	0.0141352
679.280	0.0141822
679.358	0.0141703
679.436	0.0142789
679.514	0.0143130
679.592	0.0142506
679.670	0.0144918
679.748	0.0144623
679.826	0.0146748
679.905	0.0146873
679.983	0.0146500
680.061	0.0149604
680.139	0.0149244
680.217	0.0150856
680.295	0.0148547
680.373	0.0148139
680.451	0.0148274
680.530	0.0147161
680.608	0.0145375
680.686	0.0144646
680.764	0.0144051
680.842	0.0140957
680.920	0.0141299
680.998	0.0140547
681.076	0.0140014
681.155	0.0141180
681.233	0.0140837
681.311	0.0140706
681.389	0.0142401
681.467	0.0143777
681.545	0.0144899
681.623	0.0146677
681.701	0.0148321
681.780	0.0148151
681.858	0.0149192
681.936	0.0151151
682.014	0.0150811
682.092	0.0151132
682.170	0.0148915
682.248	0.0148405
682.326	0.0148071
682.405	0.0147695
682.483	0.0144950
682.561	0.0143732
682.639	0.0144595
682.717	0.0144253
682.795	0.0143258
682.873	0.0144013
682.951	0.0143826
683.030	0.0143233
683.108	0.0143671
683.186	0.0144630
683.264	0.0144839
683.342	0.0143242
683.420	0.0142210
683.498	0.0142132
683.576	0.0142876
683.655	0.0142635
683.733	0.0142140
683.811	0.0140362
683.889	0.0140968
683.967	0.0141434
684.045	0.0139655
684.123	0.0139037
684.201	0.0140314
684.280	0.0141457
684.358	0.0142283
684.436	0.0143628
684.514	0.0145244
684.592	0.0146607
684.670	0.0147321
684.748	0.0148503
684.826	0.0150063
684.905	0.0151324
684.983	0.0152335
685.061	0.0152840
685.139	0.0153873
685.217	0.0153915
685.295	0.0153616
685.373	0.0153327
685.451	0.0152309
685.530	0.0151927
685.608	0.0150807
685.686	0.0148736
685.764	0.0148473
685.842	0.0146353
685.920	0.0144096
685.998	0.0143491
686.076	0.0143819
686.155	0.0141959
686.233	0.0139429
686.311	0.0140858
686.389	0.0139242
686.467	0.0137237
686.545	0.0136129
686.623	0.0134738
686.701	0.0134510
686.780	0.0135186
686.858	0.0133730
686.936	0.0132829
687.014	0.0132344
687.092	0.0132301
687.170	0.0135177
687.248	0.0134945
687.326	0.0137531
687.405	0.0140440
687.483	0.0141353
687.561	0.0145909
687.639	0.0148661
687.717	0.0153193
687.795	0.0155138
687.873	0.0159386
687.951	0.0158960
688.030	0.0160086
688.108	0.0158926
688.186	0.0158119
688.264	0.0156981
688.342	0.0155660
688.420	0.0153273
688.498	0.0150301
688.576	0.0148267
688.655	0.0145090
688.733	0.0144081
688.811	0.0142282
688.889	0.0140150
688.967	0.0139661
689.045	0.0138647
689.123	0.0138185
689.201	0.0138836
689.280	0.0139072
689.358	0.0139156
689.436	0.0137711
689.514	0.0138506
689.592	0.0137170
689.670	0.0136854
689.748	0.0136509
689.826	0.0137075
689.905	0.0138417
689.983	0.0137763
690.061	0.0141229
690.139	0.0141164
690.217	0.0141562
690.295	0.0144357
690.373	0.0146478
690.451	0.0148981
690.530	0.0149135
690.608	0.0151622
690.686	0.0152804
690.764	0.0152618
690.842	0.0152409
690.920	0.0153442
690.998	0.0152354
691.076	0.0151058
691.155	0.0151822
691.233	0.0149443
691.311	0.0148409
691.389	0.0148841
691.467	0.0147115
691.545	0.0146889
691.623	0.0146377
691.701	0.0146313
691.780	0.0146849
691.858	0.0145172
691.936	0.0145067
692.014	0.0143578
692.092	0.0139937
692.170	0.0137846
692.248	0.0134983
692.326	0.0131684
692.405	0.0130372
692.483	0.0126869
692.561	0.0126194
692.639	0.0127404
692.717	0.0127222
692.795	0.0129783
692.873	0.0131669
692.951	0.0134537
693.030	0.0138356
693.108	0.0142746
693.186	0.0144543
693.264	0.0147902
693.342	0.0149969
693.420	0.0151612
693.498	0.0152886
693.576	0.0152081
693.655	0.0151686
693.733	0.0153839
693.811	0.0151848
693.889	0.0151852
693.967	0.0153053
694.045	0.0152813
694.123	0.0152670
694.201	0.0152423
694.280	0.0152615
694.358	0.0153094
694.436	0.0154027
694.514	0.0153214
694.592	0.0153728
694.670	0.0152789
694.748	0.0150780
694.826	0.0151418
694.905	0.0149731
694.983	0.0150433
695.061	0.0149688
695.139	0.0148296
695.217	0.0146268
695.295	0.0144109
695.373	0.0144104
695.451	0.0143096
695.530	0.0141551
695.608	0.0140229
695.686	0.0137034
695.764	0.0134076
695.842	0.0133292
695.920	0.0131023
695.998	0.0128609
696.076	0.0127542
696.155	0.0127398
696.233	0.0125478
696.311	0.0128590
696.389	0.0130201
696.467	0.0132935
696.545	0.0135511
696.623	0.0139425
696.701	0.0142878
696.780	0.0144920
696.858	0.0149635
696.936	0.0151830
697.014	0.0152619
697.092	0.0152988
697.170	0.0155865
697.248	0.0157372
697.326	0.0156661
697.405	0.0156910
697.483	0.0158407
697.561	0.0156831
697.639	0.0156541
697.717	0.0157587
697.795	0.0156286
697.873	0.0155341
697.951	0.0153414
698.030	0.0151989
698.108	0.0150353
698.186	0.0146523
698.264	0.0145084
698.342	0.0144044
698.420	0.0141680
698.498	0.0140409
698.576	0.0138793
698.655	0.0140134
698.733	0.0140128
698.811	0.0138829
698.889	0.0138158
698.967	0.0138220
699.045	0.0138083
699.123	0.0138043
699.201	0.0136160
699.280	0.0134724
699.358	0.0134203
699.436	0.0132400
699.514	0.0132976
699.592	0.0133067
699.670	0.0132398
699.748	0.0133747
699.826	0.0135101
699.905	0.0136688
699.983	0.0138419
700.061	0.0140269
700.139	0.0144084
700.217	0.0144870
700.295	0.0146212
700.373	0.0148072
700.451	0.0151115
700.530	0.0152151
700.608	0.0152896
700.686	0.0154170
700.764	0.0155457
700.842	0.0156955
700.920	0.0155947
700.998	0.0156783
701.076	0.0156741
701.155	0.0155463
701.233	0.0154714
701.311	0.0155341
701.389	0.0154221
701.467	0.0152322
701.545	0.0151385
701.623	0.0150584
701.701	0.0147869
701.780	0.0146223
701.858	0.0145491
701.936	0.0143174
702.014	0.0140595
702.092	0.0140656
702.170	0.0139417
702.248	0.0138879
702.326	0.0139698
702.405	0.0140993
702.483	0.0140092
702.561	0.0140632
702.639	0.0139748
702.717	0.0139561
702.795	0.0140070
702.873	0.0138985
702.951	0.0138694
703.030	0.0137934
703.108	0.0138784
703.186	0.0136985
703.264	0.0137862
703.342	0.0137874
703.420	0.0138165
703.498	0.0140839
703.576	0.0140398
703.655	0.0141132
703.733	0.0143402
703.811	0.0141874
703.889	0.0143927
703.967	0.0143319
704.045	0.0144772
704.123	0.0144334
704.201	0.0145490
704.280	0.0145399
704.358	0.0145051
704.436	0.0145158
704.514	0.0146732
704.592	0.0146245
704.670	0.0147536
704.748	0.0148492
704.826	0.0149333
704.905	0.0151994
704.983	0.0152885
705.061	0.0154732
705.139	0.0152560
705.217	0.0153710
705.295	0.0151904
705.373	0.0149098
705.451	0.0148921
705.530	0.0146494
705.608	0.0142575
705.686	0.0138933
705.764	0.0136269
705.842	0.0132094
705.920	0.0131391
705.998	0.0130715
706.076	0.0127899
706.155	0.0130771
706.233	0.0130573
706.311	0.0132213
706.389	0.0132316
706.467	0.0134845
706.545	0.0138106
706.623	0.0140257
706.701	0.0144534
706.780	0.0147380
706.858	0.0149385
706.936	0.0150610
707.014	0.0152982
707.092	0.0154238
707.170	0.0154362
707.248	0.0155316
707.326	0.0154883
707.405	0.0155672
707.483	0.0153687
707.561	0.0151088
707.639	0.0152644
707.717	0.0151083
707.795	0.0149442
707.873	0.0150752
707.951	0.0152339
708.030	0.0152514
708.108	0.0151265
708.186	0.0152214
708.264	0.0154089
708.342	0.0154402
708.420	0.0152696
708.498	0.0154322
708.576	0.0153939
708.655	0.0152589
708.733	0.0149546
708.811	0.0149716
708.889	0.0147755
708.967	0.0146106
709.045	0.0144830
709.123	0.0142384
709.201	0.0141296
709.280	0.0138656
709.358	0.0136751
709.436	0.0135893
709.514	0.0135423
709.592	0.0135244
709.670	0.0136009
709.748	0.0134693
709.826	0.0134138
709.905	0.0134615
709.983	0.0134945
710.061	0.0134885
710.139	0.0134914
710.217	0.0137408
710.295	0.0137401
710.373	0.0137887
710.451	0.0137607
710.530	0.0138142
710.608	0.0138306
710.686	0.0138818
710.764	0.0139370
710.842	0.0140051
710.920	0.0138956
710.998	0.0140899
711.076	0.0140193
711.155	0.0140676
711.233	0.0142059
711.311	0.0142346
711.389	0.0142251
711.467	0.0142257
711.545	0.0142722
711.623	0.0142476
711.701	0.0144312
711.780	0.0145565
711.858	0.0145599
711.936	0.0147066
712.014	0.0149310
712.092	0.0148788
712.170	0.0151602
712.248	0.0153436
712.326	0.0153391
712.405	0.0156114
712.483	0.0158056
712.561	0.0158495
712.639	0.0158682
712.717	0.0159863
712.795	0.0161327
712.873	0.0160513
712.951	0.0159891
713.030	0.0159548
713.108	0.0158028
713.186	0.0159178
713.264	0.0155518
713.342	0.0151997
713.420	0.0150883
713.498	0.0148574
713.576	0.0144334
713.655	0.0142651
713.733	0.0140749
713.811	0.0140257
713.889	0.0136289
713.967	0.0134409
714.045	0.0134335
714.123	0.0132883
714.201	0.0132083
714.280	0.0131499
714.358	0.0132623
714.436	0.0134181
714.514	0.0133916
714.592	0.0134561
714.670	0.0136509
714.748	0.0135305
714.826	0.0137485
714.905	0.0139912
714.983	0.0139837
715.061	0.0141138
715.139	0.0141543
715.217	0.0142130
715.295	0.0142895
715.373	0.0144453
715.451	0.0144942
715.530	0.0145178
715.608	0.0147426
715.686	0.0147762
715.764	0.0148612
715.842	0.0147674
715.920	0.0147680
715.998	0.0147990
716.076	0.0147356
716.155	0.0145699
716.233	0.0144896
716.311	0.0146645
716.389	0.0143693
716.467	0.0143506
716.545	0.0143900
716.623	0.0144415
716.701	0.0143285
716.780	0.0144873
716.858	0.0144946
716.936	0.0145174
717.014	0.0145583
717.092	0.0146568
717.170	0.0148435
717.248	0.0149349
717.326	0.0149627
717.405	0.0149331
717.483	0.0148374
717.561	0.0148696
717.639	0.0148109
717.717	0.0148823
717.795	0.0148812
717.873	0.0148348
717.951	0.0145821
718.030	0.0146127
718.108	0.0147275
718.186	0.0147259
718.264	0.0147614
718.342	0.0148675
718.420	0.0147404
718.498	0.0147164
718.576	0.0148005
718.655	0.0146378
718.733	0.0144370
718.811	0.0143049
718.889	0.0143279
718.967	0.0142711
719.045	0.0140889
719.123	0.0139902
719.201	0.0138052
719.280	0.0138898
719.358	0.0138346
719.436	0.0138232
719.514	0.0137402
719.592	0.0139772
719.670	0.0139190
719.748	0.0139426
719.826	0.0140215
719.905	0.0140889
719.983	0.0141264
720.061	0.0141550
720.139	0.0142614
720.217	0.0142625
720.295	0.0141716
720.373	0.0141241
720.451	0.0141183
720.530	0.0143240
720.608	0.0142130
720.686	0.0143581
720.764	0.0144968
720.842	0.0145330
720.920	0.0145598
720.998	0.0147220
721.076	0.0148276
721.155	0.0148145
721.233	0.0148280
721.311	0.0149659
721.389	0.0149508
721.467	0.0149684
721.545	0.0151411
721.623	0.0149459
721.701	0.0149258
721.780	0.0149243
721.858	0.0149379
721.936	0.0149718
722.014	0.0148857
722.092	0.0148177
722.170	0.0148770
722.248	0.0148410
722.326	0.0148531
722.405	0.0147437
722.483	0.0148958
722.561	0.0149245
722.639	0.0148859
722.717	0.0149519
722.795	0.0148060
722.873	0.0149419
722.951	0.0149005
723.030	0.0148347
723.108	0.0147915
723.186	0.0147552
723.264	0.0148233
723.342	0.0146968
723.420	0.0146503
723.498	0.0145716
723.576	0.0144778
723.655	0.0143376
723.733	0.0144308
723.811	0.0141874
723.889	0.0142178
723.967	0.0141291
724.045	0.0140630
724.123	0.0137479
724.201	0.0137767
724.280	0.0136407
724.358	0.0136370
724.436	0.0138143
724.514	0.0137300
724.592	0.0136217
724.670	0.0134683
724.748	0.0136151
724.826	0.0135300
724.905	0.0136048
724.983	0.0135675
725.061	0.0136459
725.139	0.0135127
725.217	0.0136058
725.295	0.0137750
725.373	0.0136451
725.451	0.0137844
725.530	0.0139526
725.608	0.0139478
725.686	0.0141433
