05/20/2022	16:21:52	Ver.	4.1	UNKNOWN
Optical Delay	639.982744	Delta X		0.078125	Sweeps	1	Scan Rate	0/0
Coordinates	Axis 1	NaN	Axis 2	NaN	Axis 3	NaN	Axis 4	NaN	Axis 5	NaN	Axis 6	0.000000
TX Power	0.000000	RX Power	0.000000

639.983	0.0143917
640.061	0.0143102
640.139	0.0143330
640.217	0.0143552
640.295	0.0143702
640.373	0.0142160
640.451	0.0143422
640.530	0.0143340
640.608	0.0141719
640.686	0.0143484
640.764	0.0142268
640.842	0.0143769
640.920	0.0144640
640.998	0.0143107
641.076	0.0143282
641.155	0.0143821
641.233	0.0143465
641.311	0.0141358
641.389	0.0142842
641.467	0.0145100
641.545	0.0143375
641.623	0.0143362
641.701	0.0143190
641.780	0.0143602
641.858	0.0143094
641.936	0.0144035
642.014	0.0143549
642.092	0.0142914
642.170	0.0143746
642.248	0.0142459
642.326	0.0141618
642.405	0.0143868
642.483	0.0146093
642.561	0.0143809
642.639	0.0142540
642.717	0.0143408
642.795	0.0143610
642.873	0.0142391
642.951	0.0142988
643.030	0.0143456
643.108	0.0143849
643.186	0.0143671
643.264	0.0143036
643.342	0.0144031
643.420	0.0144568
643.498	0.0144031
643.576	0.0142323
643.655	0.0144216
643.733	0.0143960
643.811	0.0143138
643.889	0.0143960
643.967	0.0144517
644.045	0.0143921
644.123	0.0142818
644.201	0.0143659
644.280	0.0143786
644.358	0.0143376
644.436	0.0144220
644.514	0.0145218
644.592	0.0144509
644.670	0.0144501
644.748	0.0144833
644.826	0.0144505
644.905	0.0144117
644.983	0.0144498
645.061	0.0144528
645.139	0.0143082
645.217	0.0145512
645.295	0.0146058
645.373	0.0144015
645.451	0.0144057
645.530	0.0145200
645.608	0.0146786
645.686	0.0145142
645.764	0.0145675
645.842	0.0144491
645.920	0.0143938
645.998	0.0144051
646.076	0.0145058
646.155	0.0146208
646.233	0.0144657
646.311	0.0143782
646.389	0.0144553
646.467	0.0143906
646.545	0.0144956
646.623	0.0146549
646.701	0.0146044
646.780	0.0144827
646.858	0.0146455
646.936	0.0145615
647.014	0.0145858
647.092	0.0143891
647.170	0.0143333
647.248	0.0144897
647.326	0.0146311
647.405	0.0147190
647.483	0.0144035
647.561	0.0144704
647.639	0.0145915
647.717	0.0145249
647.795	0.0144472
647.873	0.0144902
647.951	0.0145572
648.030	0.0143945
648.108	0.0146012
648.186	0.0145625
648.264	0.0145857
648.342	0.0145718
648.420	0.0146883
648.498	0.0146029
648.576	0.0146503
648.655	0.0145464
648.733	0.0144983
648.811	0.0145936
648.889	0.0145658
648.967	0.0145153
649.045	0.0145512
649.123	0.0146090
649.201	0.0145135
649.280	0.0145411
649.358	0.0144253
649.436	0.0144481
649.514	0.0144872
649.592	0.0145267
649.670	0.0144531
649.748	0.0145457
649.826	0.0144874
649.905	0.0145805
649.983	0.0145428
650.061	0.0145415
650.139	0.0144712
650.217	0.0146936
650.295	0.0145895
650.373	0.0145421
650.451	0.0145245
650.530	0.0145562
650.608	0.0145572
650.686	0.0145545
650.764	0.0145040
650.842	0.0146028
650.920	0.0145103
650.998	0.0146149
651.076	0.0145892
651.155	0.0146091
651.233	0.0146379
651.311	0.0145500
651.389	0.0146503
651.467	0.0145515
651.545	0.0144843
651.623	0.0145790
651.701	0.0146239
651.780	0.0146149
651.858	0.0144601
651.936	0.0144379
652.014	0.0147234
652.092	0.0145345
652.170	0.0145335
652.248	0.0145848
652.326	0.0144661
652.405	0.0146542
652.483	0.0146468
652.561	0.0147903
652.639	0.0145266
652.717	0.0145088
652.795	0.0145290
652.873	0.0145217
652.951	0.0146147
653.030	0.0146976
653.108	0.0145554
653.186	0.0145166
653.264	0.0145457
653.342	0.0146927
653.420	0.0145921
653.498	0.0145016
653.576	0.0145658
653.655	0.0146121
653.733	0.0143947
653.811	0.0144291
653.889	0.0145945
653.967	0.0144806
654.045	0.0144410
654.123	0.0145511
654.201	0.0146662
654.280	0.0145963
654.358	0.0145681
654.436	0.0144852
654.514	0.0143664
654.592	0.0145494
654.670	0.0145321
654.748	0.0144930
654.826	0.0144425
654.905	0.0145982
654.983	0.0146222
655.061	0.0147038
655.139	0.0144749
655.217	0.0144528
655.295	0.0144221
655.373	0.0146004
655.451	0.0145663
655.530	0.0145761
655.608	0.0145210
655.686	0.0145425
655.764	0.0144892
655.842	0.0144143
655.920	0.0145203
655.998	0.0145031
656.076	0.0146371
656.155	0.0144357
656.233	0.0145474
656.311	0.0144671
656.389	0.0145128
656.467	0.0146444
656.545	0.0145903
656.623	0.0145338
656.701	0.0145395
656.780	0.0146222
656.858	0.0145334
656.936	0.0144526
657.014	0.0146050
657.092	0.0145248
657.170	0.0145273
657.248	0.0145586
657.326	0.0145586
657.405	0.0144693
657.483	0.0146230
657.561	0.0146497
657.639	0.0146928
657.717	0.0146394
657.795	0.0145199
657.873	0.0146127
657.951	0.0144544
658.030	0.0145654
658.108	0.0145826
658.186	0.0146188
658.264	0.0145317
658.342	0.0144389
658.420	0.0144949
658.498	0.0145255
658.576	0.0146644
658.655	0.0145051
658.733	0.0144166
658.811	0.0145576
658.889	0.0146603
658.967	0.0145361
659.045	0.0144611
659.123	0.0146386
659.201	0.0145299
659.280	0.0145655
659.358	0.0144726
659.436	0.0144652
659.514	0.0144318
659.592	0.0146117
659.670	0.0146316
659.748	0.0145376
659.826	0.0143805
659.905	0.0146110
659.983	0.0145909
660.061	0.0145988
660.139	0.0143774
660.217	0.0145188
660.295	0.0145032
660.373	0.0144979
660.451	0.0145133
660.530	0.0143846
660.608	0.0144929
660.686	0.0144932
660.764	0.0144690
660.842	0.0143820
660.920	0.0144362
660.998	0.0144123
661.076	0.0144156
661.155	0.0144170
661.233	0.0143917
661.311	0.0144671
661.389	0.0144650
661.467	0.0144344
661.545	0.0144064
661.623	0.0145007
661.701	0.0143852
661.780	0.0144289
661.858	0.0144002
661.936	0.0144450
662.014	0.0144775
662.092	0.0145305
662.170	0.0146366
662.248	0.0144748
662.326	0.0145637
662.405	0.0145200
662.483	0.0144839
662.561	0.0145005
662.639	0.0144603
662.717	0.0144181
662.795	0.0143762
662.873	0.0144861
662.951	0.0143089
663.030	0.0142580
663.108	0.0144213
663.186	0.0143732
663.264	0.0144179
663.342	0.0143326
663.420	0.0142188
663.498	0.0143673
663.576	0.0144504
663.655	0.0144161
663.733	0.0145562
663.811	0.0144263
663.889	0.0144596
663.967	0.0144860
664.045	0.0144154
664.123	0.0144175
664.201	0.0144788
664.280	0.0145441
664.358	0.0145591
664.436	0.0144525
664.514	0.0143868
664.592	0.0145076
664.670	0.0144030
664.748	0.0143682
664.826	0.0145687
664.905	0.0144817
664.983	0.0143938
665.061	0.0143674
665.139	0.0145290
665.217	0.0143863
665.295	0.0142777
665.373	0.0145306
665.451	0.0144511
665.530	0.0144484
665.608	0.0144990
665.686	0.0143941
665.764	0.0143951
665.842	0.0143694
665.920	0.0144891
665.998	0.0144964
666.076	0.0143478
666.155	0.0144749
666.233	0.0146769
666.311	0.0144910
666.389	0.0143584
666.467	0.0143884
666.545	0.0144914
666.623	0.0143485
666.701	0.0144297
666.780	0.0143294
666.858	0.0144696
666.936	0.0143974
667.014	0.0144808
667.092	0.0143445
667.170	0.0144216
667.248	0.0144660
667.326	0.0143839
667.405	0.0144262
667.483	0.0143285
667.561	0.0143578
667.639	0.0145881
667.717	0.0145598
667.795	0.0144977
667.873	0.0143349
667.951	0.0144313
668.030	0.0145795
668.108	0.0145132
668.186	0.0144280
668.264	0.0143813
668.342	0.0143343
668.420	0.0144514
668.498	0.0145588
668.576	0.0146237
668.655	0.0145818
668.733	0.0145380
668.811	0.0144381
668.889	0.0145280
668.967	0.0144743
669.045	0.0144617
669.123	0.0144179
669.201	0.0143697
669.280	0.0144252
669.358	0.0142986
669.436	0.0145791
669.514	0.0144972
669.592	0.0145250
669.670	0.0144116
669.748	0.0144801
669.826	0.0145406
669.905	0.0146506
669.983	0.0145132
670.061	0.0145671
670.139	0.0146745
670.217	0.0146754
670.295	0.0145985
670.373	0.0146596
670.451	0.0147224
670.530	0.0145592
670.608	0.0145215
670.686	0.0145791
670.764	0.0145870
670.842	0.0145136
670.920	0.0144310
670.998	0.0143990
671.076	0.0144481
671.155	0.0144366
671.233	0.0142895
671.311	0.0143167
671.389	0.0144427
671.467	0.0143196
671.545	0.0143829
671.623	0.0143980
671.701	0.0144828
671.780	0.0145220
671.858	0.0145863
671.936	0.0144220
672.014	0.0143823
672.092	0.0145602
672.170	0.0145868
672.248	0.0146214
672.326	0.0146800
672.405	0.0147318
672.483	0.0146169
672.561	0.0146211
672.639	0.0146330
672.717	0.0146216
672.795	0.0145929
672.873	0.0144791
672.951	0.0145329
673.030	0.0144171
673.108	0.0143892
673.186	0.0143814
673.264	0.0142999
673.342	0.0144016
673.420	0.0144830
673.498	0.0143154
673.576	0.0144481
673.655	0.0143220
673.733	0.0143782
673.811	0.0144875
673.889	0.0144740
673.967	0.0144749
674.045	0.0143887
674.123	0.0144939
674.201	0.0146050
674.280	0.0146080
674.358	0.0146323
674.436	0.0147162
674.514	0.0146878
674.592	0.0146693
674.670	0.0146525
674.748	0.0145522
674.826	0.0147280
674.905	0.0146762
674.983	0.0146488
675.061	0.0144445
675.139	0.0145282
675.217	0.0144819
675.295	0.0144470
675.373	0.0144819
675.451	0.0145406
675.530	0.0145287
675.608	0.0144833
675.686	0.0144527
675.764	0.0143868
675.842	0.0143196
675.920	0.0143575
675.998	0.0143166
676.076	0.0145412
676.155	0.0143683
676.233	0.0144167
676.311	0.0145077
676.389	0.0145547
676.467	0.0145588
676.545	0.0146429
676.623	0.0147413
676.701	0.0146555
676.780	0.0145893
676.858	0.0148252
676.936	0.0147759
677.014	0.0147270
677.092	0.0146417
677.170	0.0146084
677.248	0.0147103
677.326	0.0145465
677.405	0.0145637
677.483	0.0145042
677.561	0.0144678
677.639	0.0144965
677.717	0.0143432
677.795	0.0143658
677.873	0.0142611
677.951	0.0142232
678.030	0.0142973
678.108	0.0142981
678.186	0.0144214
678.264	0.0142807
678.342	0.0144433
678.420	0.0146236
678.498	0.0144298
678.576	0.0145288
678.655	0.0144765
678.733	0.0145550
678.811	0.0146602
678.889	0.0146396
678.967	0.0146084
679.045	0.0147514
679.123	0.0146429
679.201	0.0147397
679.280	0.0147883
679.358	0.0146089
679.436	0.0147066
679.514	0.0145895
679.592	0.0146541
679.670	0.0146031
679.748	0.0146613
679.826	0.0146631
679.905	0.0146443
679.983	0.0145601
680.061	0.0143651
680.139	0.0142673
680.217	0.0143423
680.295	0.0141656
680.373	0.0142018
680.451	0.0140507
680.530	0.0141282
680.608	0.0141146
680.686	0.0139880
680.764	0.0142789
680.842	0.0143388
680.920	0.0142429
680.998	0.0145660
681.076	0.0147141
681.155	0.0147665
681.233	0.0149447
681.311	0.0151237
681.389	0.0151591
681.467	0.0151762
681.545	0.0152460
681.623	0.0151009
681.701	0.0150636
681.780	0.0149702
681.858	0.0147696
681.936	0.0146967
682.014	0.0145779
682.092	0.0143445
682.170	0.0142908
682.248	0.0140886
682.326	0.0143532
682.405	0.0142231
682.483	0.0141480
682.561	0.0141847
682.639	0.0142716
682.717	0.0142189
682.795	0.0143816
682.873	0.0143693
682.951	0.0143714
683.030	0.0143682
683.108	0.0142868
683.186	0.0144836
683.264	0.0143665
683.342	0.0142572
683.420	0.0143154
683.498	0.0143099
683.576	0.0142681
683.655	0.0141862
683.733	0.0141254
683.811	0.0142902
683.889	0.0142424
683.967	0.0142353
684.045	0.0144184
684.123	0.0144238
684.201	0.0146500
684.280	0.0147383
684.358	0.0148096
684.436	0.0149979
684.514	0.0150118
684.592	0.0150410
684.670	0.0151072
684.748	0.0152074
684.826	0.0151706
684.905	0.0150774
684.983	0.0152325
685.061	0.0150315
685.139	0.0151678
685.217	0.0150092
685.295	0.0148987
685.373	0.0148312
685.451	0.0145948
685.530	0.0146178
685.608	0.0144368
685.686	0.0143492
685.764	0.0142245
685.842	0.0140063
685.920	0.0140167
685.998	0.0138263
686.076	0.0137220
686.155	0.0135397
686.233	0.0134447
686.311	0.0134374
686.389	0.0133517
686.467	0.0133269
686.545	0.0133280
686.623	0.0133624
686.701	0.0133848
686.780	0.0136057
686.858	0.0135174
686.936	0.0137755
687.014	0.0139476
687.092	0.0142133
687.170	0.0143787
687.248	0.0145077
687.326	0.0148460
687.405	0.0150693
687.483	0.0152585
687.561	0.0153728
687.639	0.0156660
687.717	0.0157864
687.795	0.0156277
687.873	0.0156913
687.951	0.0157306
688.030	0.0157500
688.108	0.0155622
688.186	0.0152542
688.264	0.0151193
688.342	0.0150295
688.420	0.0148146
688.498	0.0145223
688.576	0.0144147
688.655	0.0143082
688.733	0.0142396
688.811	0.0141792
688.889	0.0141283
688.967	0.0140358
689.045	0.0139804
689.123	0.0138494
689.201	0.0138227
689.280	0.0138652
689.358	0.0137511
689.436	0.0137747
689.514	0.0139069
689.592	0.0138889
689.670	0.0137817
689.748	0.0138786
689.826	0.0138583
689.905	0.0138656
689.983	0.0140681
690.061	0.0143012
690.139	0.0145799
690.217	0.0146110
690.295	0.0148829
690.373	0.0151797
690.451	0.0152802
690.530	0.0154377
690.608	0.0155975
690.686	0.0157516
690.764	0.0155485
690.842	0.0154713
690.920	0.0154266
690.998	0.0151051
691.076	0.0152234
691.155	0.0149761
691.233	0.0147279
691.311	0.0146114
691.389	0.0147422
691.467	0.0146562
691.545	0.0147241
691.623	0.0145927
691.701	0.0145419
691.780	0.0143079
691.858	0.0143816
691.936	0.0141103
692.014	0.0139680
692.092	0.0138241
692.170	0.0134754
692.248	0.0132145
692.326	0.0128674
692.405	0.0127943
692.483	0.0128789
692.561	0.0127992
692.639	0.0129202
692.717	0.0130222
692.795	0.0134142
692.873	0.0137521
692.951	0.0141043
693.030	0.0144324
693.108	0.0147334
693.186	0.0150072
693.264	0.0152715
693.342	0.0155370
693.420	0.0158434
693.498	0.0158593
693.576	0.0156906
693.655	0.0157693
693.733	0.0158853
693.811	0.0155772
693.889	0.0155462
693.967	0.0153721
694.045	0.0152691
694.123	0.0153792
694.201	0.0153800
694.280	0.0153154
694.358	0.0153164
694.436	0.0153306
694.514	0.0149277
694.592	0.0149345
694.670	0.0149197
694.748	0.0150110
694.826	0.0148648
694.905	0.0146394
694.983	0.0146304
695.061	0.0143484
695.139	0.0143434
695.217	0.0142084
695.295	0.0142487
695.373	0.0142186
695.451	0.0140308
695.530	0.0138981
695.608	0.0136935
695.686	0.0135461
695.764	0.0132835
695.842	0.0132576
695.920	0.0131557
695.998	0.0130743
696.076	0.0128333
696.155	0.0129044
696.233	0.0130689
696.311	0.0131627
696.389	0.0133588
696.467	0.0135822
696.545	0.0139156
696.623	0.0143024
696.701	0.0145454
696.780	0.0147622
696.858	0.0149412
696.936	0.0152396
697.014	0.0154118
697.092	0.0155508
697.170	0.0156490
697.248	0.0159499
697.326	0.0159167
697.405	0.0160574
697.483	0.0161675
697.561	0.0160206
697.639	0.0160557
697.717	0.0157563
697.795	0.0155766
697.873	0.0153214
697.951	0.0151921
698.030	0.0149316
698.108	0.0145583
698.186	0.0143618
698.264	0.0141959
698.342	0.0141400
698.420	0.0138956
698.498	0.0140070
698.576	0.0137605
698.655	0.0137846
698.733	0.0137437
698.811	0.0138528
698.889	0.0139409
698.967	0.0137923
699.045	0.0139156
699.123	0.0138773
699.201	0.0139067
699.280	0.0137710
699.358	0.0138047
699.436	0.0136400
699.514	0.0134912
699.592	0.0135375
699.670	0.0134505
699.748	0.0137444
699.826	0.0138638
699.905	0.0140651
699.983	0.0142273
700.061	0.0144270
700.139	0.0146284
700.217	0.0146854
700.295	0.0148689
700.373	0.0150475
700.451	0.0151152
700.530	0.0149335
700.608	0.0150401
700.686	0.0150220
700.764	0.0148949
700.842	0.0148451
700.920	0.0148749
700.998	0.0149579
701.076	0.0151626
701.155	0.0152829
701.233	0.0152244
701.311	0.0154631
701.389	0.0155625
701.467	0.0155183
701.545	0.0155593
701.623	0.0155054
701.701	0.0152901
701.780	0.0153074
701.858	0.0151670
701.936	0.0149672
702.014	0.0147771
702.092	0.0146045
702.170	0.0143892
702.248	0.0143208
702.326	0.0142419
702.405	0.0141971
702.483	0.0139177
702.561	0.0139111
702.639	0.0139459
702.717	0.0138053
702.795	0.0135163
702.873	0.0135897
702.951	0.0133700
703.030	0.0134068
703.108	0.0133618
703.186	0.0134525
703.264	0.0135368
703.342	0.0136485
703.420	0.0138736
703.498	0.0139185
703.576	0.0142249
703.655	0.0143618
703.733	0.0145970
703.811	0.0147016
703.889	0.0148712
703.967	0.0148505
704.045	0.0149518
704.123	0.0149496
704.201	0.0148128
704.280	0.0148448
704.358	0.0147083
704.436	0.0145235
704.514	0.0146471
704.592	0.0145421
704.670	0.0147155
704.748	0.0145474
704.826	0.0147708
704.905	0.0148133
704.983	0.0149096
705.061	0.0148898
705.139	0.0149788
705.217	0.0151205
705.295	0.0150661
705.373	0.0151015
705.451	0.0151080
705.530	0.0150877
705.608	0.0150372
705.686	0.0148750
705.764	0.0147590
705.842	0.0145680
705.920	0.0145364
705.998	0.0142686
706.076	0.0142747
706.155	0.0139600
706.233	0.0138832
706.311	0.0139059
706.389	0.0137028
706.467	0.0135387
706.545	0.0136369
706.623	0.0135131
706.701	0.0139492
706.780	0.0139179
706.858	0.0141597
706.936	0.0143276
707.014	0.0145913
707.092	0.0149444
707.170	0.0149940
707.248	0.0152235
707.326	0.0155377
707.405	0.0156520
707.483	0.0157305
707.561	0.0157442
707.639	0.0159235
707.717	0.0157178
707.795	0.0158157
707.873	0.0156890
707.951	0.0154930
708.030	0.0154171
708.108	0.0151825
708.186	0.0148238
708.264	0.0146961
708.342	0.0146056
708.420	0.0143932
708.498	0.0143863
708.576	0.0144086
708.655	0.0143095
708.733	0.0143296
708.811	0.0144014
708.889	0.0143733
708.967	0.0144131
709.045	0.0144105
709.123	0.0144057
709.201	0.0145126
709.280	0.0145037
709.358	0.0144175
709.436	0.0142489
709.514	0.0141290
709.592	0.0140626
709.670	0.0139315
709.748	0.0138647
709.826	0.0138017
709.905	0.0137383
709.983	0.0135996
710.061	0.0135288
710.139	0.0135330
710.217	0.0134368
710.295	0.0133585
710.373	0.0133788
710.451	0.0134660
710.530	0.0135648
710.608	0.0135137
710.686	0.0135384
710.764	0.0136187
710.842	0.0138423
710.920	0.0139127
710.998	0.0139605
711.076	0.0141905
711.155	0.0142838
711.233	0.0143030
711.311	0.0144928
711.389	0.0146581
711.467	0.0148200
711.545	0.0147018
711.623	0.0149577
711.701	0.0150471
711.780	0.0151640
711.858	0.0151823
711.936	0.0152842
712.014	0.0153111
712.092	0.0154230
712.170	0.0155490
712.248	0.0155972
712.326	0.0157006
712.405	0.0157288
712.483	0.0157701
712.561	0.0157018
712.639	0.0158886
712.717	0.0158274
712.795	0.0157527
712.873	0.0158878
712.951	0.0157199
713.030	0.0155125
713.108	0.0155806
713.186	0.0155252
713.264	0.0153935
713.342	0.0153295
713.420	0.0150461
713.498	0.0148899
713.576	0.0147885
713.655	0.0146812
713.733	0.0142937
713.811	0.0142194
713.889	0.0140504
713.967	0.0137579
714.045	0.0135107
714.123	0.0133842
714.201	0.0133910
714.280	0.0133385
714.358	0.0132496
714.436	0.0130888
714.514	0.0130851
714.592	0.0131921
714.670	0.0132820
714.748	0.0134566
714.826	0.0135081
714.905	0.0136997
714.983	0.0140446
715.061	0.0140326
715.139	0.0141358
715.217	0.0142264
715.295	0.0143870
715.373	0.0143839
715.451	0.0146541
715.530	0.0145334
715.608	0.0147752
715.686	0.0146953
715.764	0.0147414
715.842	0.0146313
715.920	0.0146399
715.998	0.0145364
716.076	0.0145598
716.155	0.0144637
716.233	0.0144368
716.311	0.0142746
716.389	0.0143551
716.467	0.0145386
716.545	0.0144875
716.623	0.0146674
716.701	0.0145847
716.780	0.0145913
716.858	0.0147691
716.936	0.0148334
717.014	0.0148479
717.092	0.0148480
717.170	0.0149299
717.248	0.0149508
717.326	0.0148704
717.405	0.0149236
717.483	0.0150227
717.561	0.0149610
717.639	0.0149455
717.717	0.0148827
717.795	0.0149078
717.873	0.0148951
717.951	0.0149816
718.030	0.0149758
718.108	0.0148566
718.186	0.0149662
718.264	0.0148230
718.342	0.0149808
718.420	0.0149262
718.498	0.0149097
718.576	0.0147416
718.655	0.0147103
718.733	0.0146850
718.811	0.0145013
718.889	0.0143326
718.967	0.0142509
719.045	0.0141418
719.123	0.0139653
719.201	0.0138943
719.280	0.0138031
719.358	0.0138438
719.436	0.0136168
719.514	0.0137061
719.592	0.0136462
719.670	0.0136732
719.748	0.0137115
719.826	0.0139592
719.905	0.0138818
719.983	0.0138527
720.061	0.0139318
720.139	0.0139059
720.217	0.0139878
720.295	0.0140174
720.373	0.0139864
720.451	0.0140870
720.530	0.0141652
720.608	0.0142792
720.686	0.0142085
720.764	0.0142408
720.842	0.0142382
720.920	0.0145658
720.998	0.0146638
721.076	0.0146098
721.155	0.0146621
721.233	0.0146481
721.311	0.0147820
721.389	0.0148423
721.467	0.0148032
721.545	0.0148923
721.623	0.0149234
721.701	0.0148759
721.780	0.0147607
721.858	0.0149099
721.936	0.0149259
722.014	0.0148243
722.092	0.0148235
722.170	0.0149187
722.248	0.0148515
722.326	0.0148681
722.405	0.0149124
722.483	0.0149329
722.561	0.0148837
722.639	0.0150172
722.717	0.0150456
722.795	0.0150877
722.873	0.0151504
722.951	0.0151131
723.030	0.0150289
723.108	0.0152187
723.186	0.0151437
723.264	0.0151632
723.342	0.0150319
723.420	0.0148437
723.498	0.0147714
723.576	0.0147366
723.655	0.0146869
723.733	0.0145996
723.811	0.0144508
723.889	0.0142785
723.967	0.0140325
724.045	0.0140639
724.123	0.0139033
724.201	0.0137117
724.280	0.0137054
724.358	0.0133922
724.436	0.0134066
724.514	0.0135279
724.592	0.0135439
724.670	0.0135353
724.748	0.0135158
724.826	0.0135899
724.905	0.0137008
724.983	0.0138078
725.061	0.0140459
725.139	0.0141743
725.217	0.0141044
725.295	0.0139951
725.373	0.0142653
725.451	0.0141338
725.530	0.0142568
725.608	0.0143581
725.686	0.0144102
