05/20/2022	16:23:32	Ver.	4.1	UNKNOWN
Optical Delay	639.982744	Delta X		0.078125	Sweeps	1	Scan Rate	0/0
Coordinates	Axis 1	NaN	Axis 2	NaN	Axis 3	NaN	Axis 4	NaN	Axis 5	NaN	Axis 6	0.000000
TX Power	0.000000	RX Power	0.000000

639.983	0.0145852
640.061	0.0145799
640.139	0.0144946
640.217	0.0146493
640.295	0.0146413
640.373	0.0145837
640.451	0.0145280
640.530	0.0146933
640.608	0.0146674
640.686	0.0146059
640.764	0.0146683
640.842	0.0146639
640.920	0.0147015
640.998	0.0145687
641.076	0.0145239
641.155	0.0145992
641.233	0.0145127
641.311	0.0145764
641.389	0.0146851
641.467	0.0145406
641.545	0.0145293
641.623	0.0145618
641.701	0.0144021
641.780	0.0145610
641.858	0.0145033
641.936	0.0145108
642.014	0.0146380
642.092	0.0146418
642.170	0.0144727
642.248	0.0144633
642.326	0.0145866
642.405	0.0144825
642.483	0.0145770
642.561	0.0145150
642.639	0.0145696
642.717	0.0145116
642.795	0.0145423
642.873	0.0145653
642.951	0.0145577
643.030	0.0145422
643.108	0.0145995
643.186	0.0145506
643.264	0.0146259
643.342	0.0145244
643.420	0.0147313
643.498	0.0145927
643.576	0.0145341
643.655	0.0145920
643.733	0.0146043
643.811	0.0144138
643.889	0.0145226
643.967	0.0145011
644.045	0.0145580
644.123	0.0144994
644.201	0.0144587
644.280	0.0143938
644.358	0.0144296
644.436	0.0145400
644.514	0.0144953
644.592	0.0146335
644.670	0.0144859
644.748	0.0144417
644.826	0.0144855
644.905	0.0145478
644.983	0.0146002
645.061	0.0145900
645.139	0.0144275
645.217	0.0144393
645.295	0.0146322
645.373	0.0145660
645.451	0.0144490
645.530	0.0145876
645.608	0.0145930
645.686	0.0146294
645.764	0.0144498
645.842	0.0144976
645.920	0.0144304
645.998	0.0145618
646.076	0.0143867
646.155	0.0144785
646.233	0.0145706
646.311	0.0145361
646.389	0.0145113
646.467	0.0143847
646.545	0.0145122
646.623	0.0144765
646.701	0.0145487
646.780	0.0146123
646.858	0.0145690
646.936	0.0144602
647.014	0.0145784
647.092	0.0144944
647.170	0.0145086
647.248	0.0144884
647.326	0.0142931
647.405	0.0144308
647.483	0.0146826
647.561	0.0145702
647.639	0.0145477
647.717	0.0144696
647.795	0.0144640
647.873	0.0144456
647.951	0.0144162
648.030	0.0145926
648.108	0.0146233
648.186	0.0144801
648.264	0.0145143
648.342	0.0143827
648.420	0.0145087
648.498	0.0145487
648.576	0.0143845
648.655	0.0144656
648.733	0.0145221
648.811	0.0144644
648.889	0.0144480
648.967	0.0146536
649.045	0.0144434
649.123	0.0145509
649.201	0.0145741
649.280	0.0144605
649.358	0.0145217
649.436	0.0145788
649.514	0.0145765
649.592	0.0144086
649.670	0.0145319
649.748	0.0144206
649.826	0.0145031
649.905	0.0145311
649.983	0.0144833
650.061	0.0144642
650.139	0.0145599
650.217	0.0145731
650.295	0.0145012
650.373	0.0144469
650.451	0.0144762
650.530	0.0146075
650.608	0.0145631
650.686	0.0145258
650.764	0.0144865
650.842	0.0146133
650.920	0.0144569
650.998	0.0144382
651.076	0.0144716
651.155	0.0144790
651.233	0.0146463
651.311	0.0144704
651.389	0.0146027
651.467	0.0145293
651.545	0.0145061
651.623	0.0145084
651.701	0.0145296
651.780	0.0145300
651.858	0.0145063
651.936	0.0146262
652.014	0.0144698
652.092	0.0144462
652.170	0.0144376
652.248	0.0144057
652.326	0.0146443
652.405	0.0145496
652.483	0.0145204
652.561	0.0145900
652.639	0.0144370
652.717	0.0145390
652.795	0.0147585
652.873	0.0144787
652.951	0.0145528
653.030	0.0144668
653.108	0.0146050
653.186	0.0145068
653.264	0.0145636
653.342	0.0145190
653.420	0.0146085
653.498	0.0145652
653.576	0.0145673
653.655	0.0144787
653.733	0.0145773
653.811	0.0145283
653.889	0.0144923
653.967	0.0147438
654.045	0.0146377
654.123	0.0144690
654.201	0.0145961
654.280	0.0146098
654.358	0.0145636
654.436	0.0146989
654.514	0.0145726
654.592	0.0146126
654.670	0.0146613
654.748	0.0145382
654.826	0.0145759
654.905	0.0146891
654.983	0.0145970
655.061	0.0145213
655.139	0.0146268
655.217	0.0146621
655.295	0.0146471
655.373	0.0146809
655.451	0.0145012
655.530	0.0145573
655.608	0.0147295
655.686	0.0147253
655.764	0.0145297
655.842	0.0147019
655.920	0.0146799
655.998	0.0144989
656.076	0.0147725
656.155	0.0147929
656.233	0.0146877
656.311	0.0145561
656.389	0.0144791
656.467	0.0146847
656.545	0.0145132
656.623	0.0146416
656.701	0.0145484
656.780	0.0146378
656.858	0.0145720
656.936	0.0144704
657.014	0.0145728
657.092	0.0147337
657.170	0.0146541
657.248	0.0145826
657.326	0.0145058
657.405	0.0147057
657.483	0.0147086
657.561	0.0146628
657.639	0.0146852
657.717	0.0147175
657.795	0.0146255
657.873	0.0147105
657.951	0.0146623
658.030	0.0146181
658.108	0.0146251
658.186	0.0147109
658.264	0.0146472
658.342	0.0146410
658.420	0.0146467
658.498	0.0146939
658.576	0.0145892
658.655	0.0146562
658.733	0.0147076
658.811	0.0145499
658.889	0.0144319
658.967	0.0147192
659.045	0.0146678
659.123	0.0146329
659.201	0.0146593
659.280	0.0146230
659.358	0.0146364
659.436	0.0146041
659.514	0.0147034
659.592	0.0148110
659.670	0.0146426
659.748	0.0146358
659.826	0.0146716
659.905	0.0146192
659.983	0.0145892
660.061	0.0147483
660.139	0.0147523
660.217	0.0148249
660.295	0.0146952
660.373	0.0145729
660.451	0.0146769
660.530	0.0146718
660.608	0.0146059
660.686	0.0145679
660.764	0.0146858
660.842	0.0146992
660.920	0.0146782
660.998	0.0145792
661.076	0.0145979
661.155	0.0145979
661.233	0.0145850
661.311	0.0146397
661.389	0.0144963
661.467	0.0146022
661.545	0.0145109
661.623	0.0145734
661.701	0.0145503
661.780	0.0145465
661.858	0.0144483
661.936	0.0144841
662.014	0.0144495
662.092	0.0146255
662.170	0.0145722
662.248	0.0145416
662.326	0.0145985
662.405	0.0145795
662.483	0.0144665
662.561	0.0145104
662.639	0.0145049
662.717	0.0146114
662.795	0.0145752
662.873	0.0146112
662.951	0.0143634
663.030	0.0145125
663.108	0.0147039
663.186	0.0146301
663.264	0.0145596
663.342	0.0146349
663.420	0.0145606
663.498	0.0145889
663.576	0.0147264
663.655	0.0146519
663.733	0.0146387
663.811	0.0146171
663.889	0.0145690
663.967	0.0146007
664.045	0.0146555
664.123	0.0144970
664.201	0.0146228
664.280	0.0146487
664.358	0.0146082
664.436	0.0144728
664.514	0.0146652
664.592	0.0145694
664.670	0.0146080
664.748	0.0145658
664.826	0.0145260
664.905	0.0144971
664.983	0.0146014
665.061	0.0145496
665.139	0.0145758
665.217	0.0146452
665.295	0.0147028
665.373	0.0146797
665.451	0.0146491
665.530	0.0145934
665.608	0.0147501
665.686	0.0147928
665.764	0.0148278
665.842	0.0146308
665.920	0.0147192
665.998	0.0148324
666.076	0.0146761
666.155	0.0145870
666.233	0.0146140
666.311	0.0145604
666.389	0.0144678
666.467	0.0143138
666.545	0.0142571
666.623	0.0144958
666.701	0.0145491
666.780	0.0143704
666.858	0.0142530
666.936	0.0142748
667.014	0.0145065
667.092	0.0144337
667.170	0.0144680
667.248	0.0144392
667.326	0.0144374
667.405	0.0145647
667.483	0.0147226
667.561	0.0146554
667.639	0.0145502
667.717	0.0145837
667.795	0.0147052
667.873	0.0146743
667.951	0.0147010
668.030	0.0145969
668.108	0.0146492
668.186	0.0146001
668.264	0.0145453
668.342	0.0144891
668.420	0.0144473
668.498	0.0144924
668.576	0.0143956
668.655	0.0143983
668.733	0.0144179
668.811	0.0144183
668.889	0.0144441
668.967	0.0142368
669.045	0.0143128
669.123	0.0144389
669.201	0.0144588
669.280	0.0145441
669.358	0.0143851
669.436	0.0145291
669.514	0.0145111
669.592	0.0144865
669.670	0.0147329
669.748	0.0145349
669.826	0.0146564
669.905	0.0146151
669.983	0.0146331
670.061	0.0147387
670.139	0.0147311
670.217	0.0146187
670.295	0.0146655
670.373	0.0148598
670.451	0.0147610
670.530	0.0145486
670.608	0.0146316
670.686	0.0145927
670.764	0.0144790
670.842	0.0145358
670.920	0.0145429
670.998	0.0145789
671.076	0.0145683
671.155	0.0143588
671.233	0.0143570
671.311	0.0143700
671.389	0.0143825
671.467	0.0143473
671.545	0.0144582
671.623	0.0145338
671.701	0.0145985
671.780	0.0145461
671.858	0.0144998
671.936	0.0145470
672.014	0.0146106
672.092	0.0146257
672.170	0.0147122
672.248	0.0147708
672.326	0.0147115
672.405	0.0148571
672.483	0.0146619
672.561	0.0147528
672.639	0.0147704
672.717	0.0147500
672.795	0.0146754
672.873	0.0145113
672.951	0.0144960
673.030	0.0145710
673.108	0.0145344
673.186	0.0144415
673.264	0.0144228
673.342	0.0144213
673.420	0.0144466
673.498	0.0144160
673.576	0.0143659
673.655	0.0143617
673.733	0.0142374
673.811	0.0144392
673.889	0.0145160
673.967	0.0144533
674.045	0.0145466
674.123	0.0143654
674.201	0.0145416
674.280	0.0147265
674.358	0.0147662
674.436	0.0146301
674.514	0.0147045
674.592	0.0148766
674.670	0.0146714
674.748	0.0147528
674.826	0.0148501
674.905	0.0146595
674.983	0.0147530
675.061	0.0146195
675.139	0.0145307
675.217	0.0146144
675.295	0.0146095
675.373	0.0143739
675.451	0.0145725
675.530	0.0143940
675.608	0.0145181
675.686	0.0142655
675.764	0.0143531
675.842	0.0144775
675.920	0.0144698
675.998	0.0142828
676.076	0.0144352
676.155	0.0144009
676.233	0.0145353
676.311	0.0145096
676.389	0.0145936
676.467	0.0145415
676.545	0.0146662
676.623	0.0146888
676.701	0.0146848
676.780	0.0146329
676.858	0.0148972
676.936	0.0148275
677.014	0.0147401
677.092	0.0147003
677.170	0.0146422
677.248	0.0146572
677.326	0.0145939
677.405	0.0145244
677.483	0.0145618
677.561	0.0145206
677.639	0.0145997
677.717	0.0143723
677.795	0.0143532
677.873	0.0144702
677.951	0.0143997
678.030	0.0144028
678.108	0.0145544
678.186	0.0145423
678.264	0.0145625
678.342	0.0145260
678.420	0.0146021
678.498	0.0148061
678.576	0.0145132
678.655	0.0146641
678.733	0.0147611
678.811	0.0147717
678.889	0.0147059
678.967	0.0146818
679.045	0.0146140
679.123	0.0145216
679.201	0.0144066
679.280	0.0142954
679.358	0.0143838
679.436	0.0141958
679.514	0.0142405
679.592	0.0141481
679.670	0.0142706
679.748	0.0141452
679.826	0.0142856
679.905	0.0143964
679.983	0.0144225
680.061	0.0146878
680.139	0.0149306
680.217	0.0148486
680.295	0.0150497
680.373	0.0151540
680.451	0.0151967
680.530	0.0151295
680.608	0.0150330
680.686	0.0148869
680.764	0.0148527
680.842	0.0148177
680.920	0.0145817
680.998	0.0146159
681.076	0.0142630
681.155	0.0141418
681.233	0.0140786
681.311	0.0140038
681.389	0.0140403
681.467	0.0139245
681.545	0.0138685
681.623	0.0139937
681.701	0.0141662
681.780	0.0142340
681.858	0.0143418
681.936	0.0143621
682.014	0.0145604
682.092	0.0145843
682.170	0.0145562
682.248	0.0146404
682.326	0.0145167
682.405	0.0146348
682.483	0.0147243
682.561	0.0145782
682.639	0.0146667
682.717	0.0147157
682.795	0.0146180
682.873	0.0147667
682.951	0.0147206
683.030	0.0147525
683.108	0.0147935
683.186	0.0149768
683.264	0.0149318
683.342	0.0150376
683.420	0.0147870
683.498	0.0148973
683.576	0.0149210
683.655	0.0148801
683.733	0.0147984
683.811	0.0147142
683.889	0.0146739
683.967	0.0146260
684.045	0.0146928
684.123	0.0145206
684.201	0.0148335
684.280	0.0147712
684.358	0.0147902
684.436	0.0147450
684.514	0.0149908
684.592	0.0150068
684.670	0.0149937
684.748	0.0148734
684.826	0.0147367
684.905	0.0147475
684.983	0.0147082
685.061	0.0144401
685.139	0.0142110
685.217	0.0138412
685.295	0.0137004
685.373	0.0135311
685.451	0.0134999
685.530	0.0133323
685.608	0.0132330
685.686	0.0133469
685.764	0.0133555
685.842	0.0134267
685.920	0.0134840
685.998	0.0137289
686.076	0.0140385
686.155	0.0142339
686.233	0.0145057
686.311	0.0147836
686.389	0.0149825
686.467	0.0150734
686.545	0.0151627
686.623	0.0154420
686.701	0.0156081
686.780	0.0157893
686.858	0.0158237
686.936	0.0157472
687.014	0.0159271
687.092	0.0156969
687.170	0.0158006
687.248	0.0158752
687.326	0.0157664
687.405	0.0156956
687.483	0.0157053
687.561	0.0155438
687.639	0.0156008
687.717	0.0154562
687.795	0.0150755
687.873	0.0150801
687.951	0.0148005
688.030	0.0148122
688.108	0.0143055
688.186	0.0139598
688.264	0.0139706
688.342	0.0137597
688.420	0.0134474
688.498	0.0133878
688.576	0.0131992
688.655	0.0132404
688.733	0.0131371
688.811	0.0131415
688.889	0.0131631
688.967	0.0132093
689.045	0.0132138
689.123	0.0133281
689.201	0.0134872
689.280	0.0136741
689.358	0.0139163
689.436	0.0139485
689.514	0.0142521
689.592	0.0144833
689.670	0.0147133
689.748	0.0148611
689.826	0.0150562
689.905	0.0153319
689.983	0.0156149
690.061	0.0159946
690.139	0.0160791
690.217	0.0163718
690.295	0.0164263
690.373	0.0162381
690.451	0.0163317
690.530	0.0160795
690.608	0.0157822
690.686	0.0156014
690.764	0.0153947
690.842	0.0149905
690.920	0.0147373
690.998	0.0145551
691.076	0.0141325
691.155	0.0140102
691.233	0.0138551
691.311	0.0137275
691.389	0.0136191
691.467	0.0135863
691.545	0.0138097
691.623	0.0138740
691.701	0.0139912
691.780	0.0138689
691.858	0.0139072
691.936	0.0139059
692.014	0.0141068
692.092	0.0141365
692.170	0.0140515
692.248	0.0141372
692.326	0.0142239
692.405	0.0141424
692.483	0.0141572
692.561	0.0142667
692.639	0.0143027
692.717	0.0144481
692.795	0.0145012
692.873	0.0146505
692.951	0.0146955
693.030	0.0147691
693.108	0.0148551
693.186	0.0151002
693.264	0.0150800
693.342	0.0152209
693.420	0.0153999
693.498	0.0155040
693.576	0.0156966
693.655	0.0157574
693.733	0.0156191
693.811	0.0156917
693.889	0.0158350
693.967	0.0157076
694.045	0.0157220
694.123	0.0157497
694.201	0.0155845
694.280	0.0154724
694.358	0.0152930
694.436	0.0149758
694.514	0.0144735
694.592	0.0142551
694.670	0.0140154
694.748	0.0137355
694.826	0.0134346
694.905	0.0134354
694.983	0.0133470
695.061	0.0131117
695.139	0.0130852
695.217	0.0131390
695.295	0.0132984
695.373	0.0134928
695.451	0.0134157
695.530	0.0136164
695.608	0.0134641
695.686	0.0134961
695.764	0.0134550
695.842	0.0134536
695.920	0.0135559
695.998	0.0134786
696.076	0.0135454
696.155	0.0139870
696.233	0.0139680
696.311	0.0142184
696.389	0.0146111
696.467	0.0147730
696.545	0.0151208
696.623	0.0154807
696.701	0.0156322
696.780	0.0157146
696.858	0.0158459
696.936	0.0159461
697.014	0.0159251
697.092	0.0160415
697.170	0.0159295
697.248	0.0159653
697.326	0.0159383
697.405	0.0157141
697.483	0.0155981
697.561	0.0156998
697.639	0.0154539
697.717	0.0155447
697.795	0.0155628
697.873	0.0154108
697.951	0.0154347
698.030	0.0153214
698.108	0.0153028
698.186	0.0150500
698.264	0.0149817
698.342	0.0147632
698.420	0.0146886
698.498	0.0145274
698.576	0.0142745
698.655	0.0141307
698.733	0.0139133
698.811	0.0139870
698.889	0.0137309
698.967	0.0137466
699.045	0.0137220
699.123	0.0135447
699.201	0.0135023
699.280	0.0135234
699.358	0.0134356
699.436	0.0133184
699.514	0.0131894
699.592	0.0131779
699.670	0.0131264
699.748	0.0131755
699.826	0.0132830
699.905	0.0132771
699.983	0.0133807
700.061	0.0134636
700.139	0.0137345
700.217	0.0139262
700.295	0.0140928
700.373	0.0143665
700.451	0.0147385
700.530	0.0151259
700.608	0.0151963
700.686	0.0152663
700.764	0.0155277
700.842	0.0157440
700.920	0.0157703
700.998	0.0156638
701.076	0.0156248
701.155	0.0155106
701.233	0.0155356
701.311	0.0153448
701.389	0.0152320
701.467	0.0152299
701.545	0.0152570
701.623	0.0152418
701.701	0.0152650
701.780	0.0152348
701.858	0.0151971
701.936	0.0151250
702.014	0.0153075
702.092	0.0151666
702.170	0.0150026
702.248	0.0149866
702.326	0.0147617
702.405	0.0147043
702.483	0.0145529
702.561	0.0144283
702.639	0.0141406
702.717	0.0139652
702.795	0.0136886
702.873	0.0135921
702.951	0.0133704
703.030	0.0132983
703.108	0.0133292
703.186	0.0134293
703.264	0.0134052
703.342	0.0134048
703.420	0.0136078
703.498	0.0137006
703.576	0.0135931
703.655	0.0136678
703.733	0.0137992
703.811	0.0136594
703.889	0.0136745
703.967	0.0137465
704.045	0.0137627
704.123	0.0139227
704.201	0.0140400
704.280	0.0142206
704.358	0.0142838
704.436	0.0144356
704.514	0.0146005
704.592	0.0149055
704.670	0.0150187
704.748	0.0151374
704.826	0.0153177
704.905	0.0154865
704.983	0.0154417
705.061	0.0153195
705.139	0.0154758
705.217	0.0153233
705.295	0.0153231
705.373	0.0153757
705.451	0.0152489
705.530	0.0151314
705.608	0.0151548
705.686	0.0153088
705.764	0.0149733
705.842	0.0151447
705.920	0.0151328
705.998	0.0149234
706.076	0.0150988
706.155	0.0150188
706.233	0.0150954
706.311	0.0149899
706.389	0.0149839
706.467	0.0150140
706.545	0.0148560
706.623	0.0149195
706.701	0.0147646
706.780	0.0147613
706.858	0.0147417
706.936	0.0146297
707.014	0.0146672
707.092	0.0147235
707.170	0.0145615
707.248	0.0143911
707.326	0.0144191
707.405	0.0143228
707.483	0.0142396
707.561	0.0142812
707.639	0.0140567
707.717	0.0138250
707.795	0.0136697
707.873	0.0134742
707.951	0.0131772
708.030	0.0132893
708.108	0.0131335
708.186	0.0130228
708.264	0.0129725
708.342	0.0130566
708.420	0.0131319
708.498	0.0134249
708.576	0.0134682
708.655	0.0138675
708.733	0.0142755
708.811	0.0144145
708.889	0.0147932
708.967	0.0149970
709.045	0.0152198
709.123	0.0155319
709.201	0.0156135
709.280	0.0158607
709.358	0.0158013
709.436	0.0157990
709.514	0.0160489
709.592	0.0157690
709.670	0.0155405
709.748	0.0156059
709.826	0.0153648
709.905	0.0151920
709.983	0.0150513
710.061	0.0148537
710.139	0.0148130
710.217	0.0147368
710.295	0.0146416
710.373	0.0146371
710.451	0.0145557
710.530	0.0144232
710.608	0.0145721
710.686	0.0145404
710.764	0.0144905
710.842	0.0142550
710.920	0.0142929
710.998	0.0142265
711.076	0.0141713
711.155	0.0141449
711.233	0.0142864
711.311	0.0141693
711.389	0.0141549
711.467	0.0142014
711.545	0.0141865
711.623	0.0143208
711.701	0.0143066
711.780	0.0144927
711.858	0.0144972
711.936	0.0143816
712.014	0.0146236
712.092	0.0146793
712.170	0.0147924
712.248	0.0148028
712.326	0.0150429
712.405	0.0150711
712.483	0.0150576
712.561	0.0151691
712.639	0.0152741
712.717	0.0152454
712.795	0.0154180
712.873	0.0153914
712.951	0.0155882
713.030	0.0154527
713.108	0.0154683
713.186	0.0155231
713.264	0.0155260
713.342	0.0153838
713.420	0.0150317
713.498	0.0151121
713.576	0.0148159
713.655	0.0144506
713.733	0.0143660
713.811	0.0141106
713.889	0.0138840
713.967	0.0138165
714.045	0.0135899
714.123	0.0135083
714.201	0.0136797
714.280	0.0136962
714.358	0.0137075
714.436	0.0139647
714.514	0.0140602
714.592	0.0141084
714.670	0.0142941
714.748	0.0142910
714.826	0.0142706
714.905	0.0141778
714.983	0.0140487
715.061	0.0140067
715.139	0.0138815
715.217	0.0136872
715.295	0.0135867
715.373	0.0137357
715.451	0.0135419
715.530	0.0136425
715.608	0.0137595
715.686	0.0138703
715.764	0.0139962
715.842	0.0141974
715.920	0.0142138
715.998	0.0145272
716.076	0.0144443
716.155	0.0147693
716.233	0.0148987
716.311	0.0149979
716.389	0.0148897
716.467	0.0148119
716.545	0.0150632
716.623	0.0151472
716.701	0.0152570
716.780	0.0153761
716.858	0.0153750
716.936	0.0155437
717.014	0.0156483
717.092	0.0158056
717.170	0.0159045
717.248	0.0159441
717.326	0.0159927
717.405	0.0160111
717.483	0.0158999
717.561	0.0157574
717.639	0.0155617
717.717	0.0153065
717.795	0.0149432
717.873	0.0149376
717.951	0.0147596
718.030	0.0145652
718.108	0.0143934
718.186	0.0143508
718.264	0.0144508
718.342	0.0144406
718.420	0.0146431
718.498	0.0147163
718.576	0.0146668
718.655	0.0147128
718.733	0.0147449
718.811	0.0147822
718.889	0.0147587
718.967	0.0146207
719.045	0.0144520
719.123	0.0144324
719.201	0.0142986
719.280	0.0140111
719.358	0.0138757
719.436	0.0135660
719.514	0.0134622
719.592	0.0131856
719.670	0.0131548
719.748	0.0130063
719.826	0.0129136
719.905	0.0128016
719.983	0.0130193
720.061	0.0130073
720.139	0.0133247
720.217	0.0134371
720.295	0.0136665
720.373	0.0138931
720.451	0.0141153
720.530	0.0144629
720.608	0.0144582
720.686	0.0144899
720.764	0.0147697
720.842	0.0147815
720.920	0.0148190
720.998	0.0146895
721.076	0.0148892
721.155	0.0147843
721.233	0.0147364
721.311	0.0145248
721.389	0.0147252
721.467	0.0148179
721.545	0.0148027
721.623	0.0147144
721.701	0.0148345
721.780	0.0147959
721.858	0.0148292
721.936	0.0149527
722.014	0.0149781
722.092	0.0148052
722.170	0.0149567
722.248	0.0148955
722.326	0.0148997
722.405	0.0146452
722.483	0.0146706
722.561	0.0148110
722.639	0.0148144
722.717	0.0147001
722.795	0.0146936
722.873	0.0148208
722.951	0.0148727
723.030	0.0148172
723.108	0.0147710
723.186	0.0149043
723.264	0.0147425
723.342	0.0148144
723.420	0.0147160
723.498	0.0146655
723.576	0.0145816
723.655	0.0144250
723.733	0.0144589
723.811	0.0146273
723.889	0.0145393
723.967	0.0144487
724.045	0.0143912
724.123	0.0145793
724.201	0.0146148
724.280	0.0145322
724.358	0.0145679
724.436	0.0144804
724.514	0.0147053
724.592	0.0145770
724.670	0.0144085
724.748	0.0144299
724.826	0.0145110
724.905	0.0144068
724.983	0.0142358
725.061	0.0142346
725.139	0.0141938
725.217	0.0140200
725.295	0.0140794
725.373	0.0140316
725.451	0.0138968
725.530	0.0138627
725.608	0.0138703
725.686	0.0138148
