05/20/2022	16:27:22	Ver.	4.1	UNKNOWN
Optical Delay	639.982744	Delta X		0.078125	Sweeps	1	Scan Rate	0/0
Coordinates	Axis 1	NaN	Axis 2	NaN	Axis 3	NaN	Axis 4	NaN	Axis 5	NaN	Axis 6	0.000000
TX Power	0.000000	RX Power	0.000000

639.983	0.0144288
640.061	0.0143450
640.139	0.0143874
640.217	0.0143861
640.295	0.0143992
640.373	0.0144428
640.451	0.0142648
640.530	0.0143881
640.608	0.0143185
640.686	0.0144308
640.764	0.0143973
640.842	0.0144235
640.920	0.0143983
640.998	0.0144510
641.076	0.0143513
641.155	0.0144402
641.233	0.0143031
641.311	0.0144382
641.389	0.0142471
641.467	0.0143508
641.545	0.0144273
641.623	0.0145710
641.701	0.0144614
641.780	0.0143724
641.858	0.0144991
641.936	0.0143455
642.014	0.0142245
642.092	0.0144009
642.170	0.0143571
642.248	0.0143419
642.326	0.0143134
642.405	0.0143446
642.483	0.0144273
642.561	0.0144520
642.639	0.0144228
642.717	0.0144260
642.795	0.0143926
642.873	0.0144336
642.951	0.0144154
643.030	0.0144570
643.108	0.0143983
643.186	0.0143219
643.264	0.0143788
643.342	0.0144055
643.420	0.0144885
643.498	0.0145211
643.576	0.0143065
643.655	0.0144556
643.733	0.0145057
643.811	0.0143413
643.889	0.0146434
643.967	0.0145704
644.045	0.0143742
644.123	0.0143662
644.201	0.0144969
644.280	0.0145653
644.358	0.0144495
644.436	0.0143454
644.514	0.0143570
644.592	0.0145014
644.670	0.0143741
644.748	0.0142709
644.826	0.0143618
644.905	0.0143153
644.983	0.0143897
645.061	0.0144471
645.139	0.0142509
645.217	0.0143922
645.295	0.0143959
645.373	0.0143243
645.451	0.0144572
645.530	0.0144485
645.608	0.0145082
645.686	0.0144160
645.764	0.0143941
645.842	0.0144990
645.920	0.0143961
645.998	0.0143850
646.076	0.0145233
646.155	0.0144160
646.233	0.0143143
646.311	0.0143046
646.389	0.0143552
646.467	0.0143787
646.545	0.0143522
646.623	0.0144324
646.701	0.0142796
646.780	0.0144005
646.858	0.0143079
646.936	0.0142495
647.014	0.0143480
647.092	0.0144144
647.170	0.0145521
647.248	0.0144135
647.326	0.0145089
647.405	0.0145323
647.483	0.0144616
647.561	0.0145390
647.639	0.0144473
647.717	0.0144648
647.795	0.0144057
647.873	0.0145719
647.951	0.0145966
648.030	0.0145438
648.108	0.0144810
648.186	0.0145274
648.264	0.0144577
648.342	0.0145303
648.420	0.0144840
648.498	0.0144786
648.576	0.0146045
648.655	0.0145352
648.733	0.0144914
648.811	0.0145139
648.889	0.0144340
648.967	0.0143812
649.045	0.0143401
649.123	0.0145481
649.201	0.0144457
649.280	0.0144847
649.358	0.0143896
649.436	0.0143813
649.514	0.0143996
649.592	0.0144665
649.670	0.0144228
649.748	0.0143957
649.826	0.0143806
649.905	0.0144861
649.983	0.0144839
650.061	0.0144305
650.139	0.0143766
650.217	0.0145435
650.295	0.0143509
650.373	0.0143382
650.451	0.0144753
650.530	0.0144118
650.608	0.0144823
650.686	0.0144634
650.764	0.0145339
650.842	0.0145328
650.920	0.0144094
650.998	0.0143554
651.076	0.0143630
651.155	0.0144598
651.233	0.0144949
651.311	0.0144664
651.389	0.0145544
651.467	0.0145554
651.545	0.0144875
651.623	0.0144179
651.701	0.0143796
651.780	0.0144101
651.858	0.0145483
651.936	0.0143529
652.014	0.0145049
652.092	0.0144633
652.170	0.0143861
652.248	0.0143678
652.326	0.0142921
652.405	0.0143974
652.483	0.0143860
652.561	0.0142336
652.639	0.0143662
652.717	0.0143826
652.795	0.0143979
652.873	0.0144699
652.951	0.0143610
653.030	0.0144199
653.108	0.0144053
653.186	0.0144366
653.264	0.0144506
653.342	0.0143866
653.420	0.0144431
653.498	0.0145885
653.576	0.0144707
653.655	0.0143796
653.733	0.0146579
653.811	0.0145131
653.889	0.0145187
653.967	0.0146409
654.045	0.0145231
654.123	0.0145930
654.201	0.0147116
654.280	0.0145087
654.358	0.0144420
654.436	0.0145335
654.514	0.0144971
654.592	0.0143434
654.670	0.0144376
654.748	0.0144388
654.826	0.0142854
654.905	0.0143581
654.983	0.0144721
655.061	0.0143160
655.139	0.0144227
655.217	0.0144231
655.295	0.0144371
655.373	0.0144835
655.451	0.0144897
655.530	0.0143947
655.608	0.0145015
655.686	0.0146634
655.764	0.0144996
655.842	0.0146050
655.920	0.0145097
655.998	0.0145864
656.076	0.0147109
656.155	0.0146131
656.233	0.0145926
656.311	0.0145120
656.389	0.0145850
656.467	0.0145085
656.545	0.0143324
656.623	0.0144006
656.701	0.0144257
656.780	0.0144138
656.858	0.0143171
656.936	0.0144512
657.014	0.0144299
657.092	0.0144089
657.170	0.0142950
657.248	0.0144526
657.326	0.0143720
657.405	0.0144289
657.483	0.0143549
657.561	0.0145466
657.639	0.0144357
657.717	0.0144003
657.795	0.0144007
657.873	0.0145896
657.951	0.0145668
658.030	0.0145367
658.108	0.0145546
658.186	0.0145717
658.264	0.0144821
658.342	0.0146204
658.420	0.0146375
658.498	0.0146892
658.576	0.0146708
658.655	0.0144266
658.733	0.0144495
658.811	0.0145026
658.889	0.0144560
658.967	0.0144238
659.045	0.0142665
659.123	0.0143435
659.201	0.0144182
659.280	0.0143356
659.358	0.0143319
659.436	0.0143143
659.514	0.0143269
659.592	0.0142668
659.670	0.0141441
659.748	0.0143367
659.826	0.0143967
659.905	0.0142760
659.983	0.0142848
660.061	0.0143208
660.139	0.0142355
660.217	0.0143290
660.295	0.0144630
660.373	0.0145178
660.451	0.0144939
660.530	0.0144803
660.608	0.0145389
660.686	0.0143552
660.764	0.0142320
660.842	0.0144439
660.920	0.0144826
660.998	0.0143277
661.076	0.0143785
661.155	0.0143035
661.233	0.0143207
661.311	0.0143178
661.389	0.0143379
661.467	0.0141866
661.545	0.0142263
661.623	0.0141651
661.701	0.0142809
661.780	0.0143600
661.858	0.0141963
661.936	0.0141553
662.014	0.0142077
662.092	0.0142890
662.170	0.0143045
662.248	0.0142940
662.326	0.0144892
662.405	0.0143008
662.483	0.0143400
662.561	0.0143571
662.639	0.0143018
662.717	0.0143698
662.795	0.0143329
662.873	0.0145520
662.951	0.0144450
663.030	0.0144032
663.108	0.0144283
663.186	0.0143449
663.264	0.0144456
663.342	0.0142249
663.420	0.0141293
663.498	0.0141599
663.576	0.0141438
663.655	0.0142173
663.733	0.0141531
663.811	0.0140627
663.889	0.0141984
663.967	0.0141777
664.045	0.0142901
664.123	0.0142845
664.201	0.0142950
664.280	0.0143089
664.358	0.0143918
664.436	0.0146062
664.514	0.0144437
664.592	0.0145017
664.670	0.0145245
664.748	0.0145216
664.826	0.0144928
664.905	0.0144943
664.983	0.0146378
665.061	0.0146168
665.139	0.0145931
665.217	0.0144881
665.295	0.0144973
665.373	0.0144061
665.451	0.0144994
665.530	0.0143886
665.608	0.0143414
665.686	0.0143622
665.764	0.0143035
665.842	0.0144209
665.920	0.0144656
665.998	0.0143925
666.076	0.0145631
666.155	0.0144363
666.233	0.0144241
666.311	0.0144503
666.389	0.0144630
666.467	0.0145728
666.545	0.0145825
666.623	0.0145273
666.701	0.0144664
666.780	0.0144997
666.858	0.0145274
666.936	0.0143883
667.014	0.0145163
667.092	0.0145053
667.170	0.0144197
667.248	0.0145075
667.326	0.0144931
667.405	0.0146200
667.483	0.0145461
667.561	0.0146012
667.639	0.0146110
667.717	0.0145366
667.795	0.0144851
667.873	0.0146279
667.951	0.0146244
668.030	0.0144674
668.108	0.0146075
668.186	0.0144748
668.264	0.0145132
668.342	0.0146001
668.420	0.0145287
668.498	0.0145238
668.576	0.0144259
668.655	0.0146217
668.733	0.0146280
668.811	0.0144623
668.889	0.0143827
668.967	0.0145746
669.045	0.0144368
669.123	0.0142742
669.201	0.0144506
669.280	0.0144915
669.358	0.0144983
669.436	0.0143074
669.514	0.0144228
669.592	0.0143934
669.670	0.0144633
669.748	0.0145215
669.826	0.0143217
669.905	0.0144632
669.983	0.0145255
670.061	0.0145812
670.139	0.0145048
670.217	0.0145506
670.295	0.0146078
670.373	0.0143410
670.451	0.0144197
670.530	0.0145335
670.608	0.0144369
670.686	0.0144362
670.764	0.0143874
670.842	0.0143516
670.920	0.0144395
670.998	0.0142863
671.076	0.0144032
671.155	0.0143024
671.233	0.0143262
671.311	0.0143050
671.389	0.0143020
671.467	0.0143014
671.545	0.0143270
671.623	0.0143296
671.701	0.0142522
671.780	0.0143253
671.858	0.0144199
671.936	0.0143784
672.014	0.0143644
672.092	0.0143224
672.170	0.0143773
672.248	0.0144906
672.326	0.0145181
672.405	0.0145383
672.483	0.0145264
672.561	0.0146057
672.639	0.0146091
672.717	0.0145924
672.795	0.0145676
672.873	0.0144427
672.951	0.0144732
673.030	0.0145975
673.108	0.0145139
673.186	0.0142764
673.264	0.0144585
673.342	0.0144466
673.420	0.0143047
673.498	0.0141211
673.576	0.0144286
673.655	0.0143477
673.733	0.0141202
673.811	0.0141917
673.889	0.0144084
673.967	0.0142470
674.045	0.0143068
674.123	0.0143933
674.201	0.0144332
674.280	0.0143815
674.358	0.0145287
674.436	0.0143055
674.514	0.0144691
674.592	0.0146931
674.670	0.0146466
674.748	0.0147691
674.826	0.0146619
674.905	0.0146151
674.983	0.0146133
675.061	0.0144984
675.139	0.0144818
675.217	0.0145635
675.295	0.0145506
675.373	0.0143070
675.451	0.0142227
675.530	0.0141932
675.608	0.0141841
675.686	0.0141549
675.764	0.0140821
675.842	0.0141200
675.920	0.0140232
675.998	0.0140822
676.076	0.0141525
676.155	0.0141286
676.233	0.0143902
676.311	0.0143782
676.389	0.0144960
676.467	0.0146111
676.545	0.0147517
676.623	0.0147593
676.701	0.0149245
676.780	0.0149726
676.858	0.0150790
676.936	0.0149670
677.014	0.0149670
677.092	0.0148288
677.170	0.0148922
677.248	0.0148589
677.326	0.0147193
677.405	0.0145132
677.483	0.0141877
677.561	0.0141852
677.639	0.0139433
677.717	0.0137726
677.795	0.0138612
677.873	0.0136551
677.951	0.0135181
678.030	0.0136153
678.108	0.0136146
678.186	0.0135716
678.264	0.0136069
678.342	0.0137436
678.420	0.0138214
678.498	0.0139533
678.576	0.0141446
678.655	0.0141528
678.733	0.0143661
678.811	0.0145039
678.889	0.0147218
678.967	0.0147363
679.045	0.0149269
679.123	0.0149930
679.201	0.0150419
679.280	0.0150387
679.358	0.0150715
679.436	0.0150645
679.514	0.0150861
679.592	0.0149655
679.670	0.0150027
679.748	0.0148225
679.826	0.0147584
679.905	0.0143999
679.983	0.0143723
680.061	0.0142491
680.139	0.0143631
680.217	0.0140742
680.295	0.0139847
680.373	0.0139195
680.451	0.0139705
680.530	0.0138959
680.608	0.0138092
680.686	0.0138685
680.764	0.0138676
680.842	0.0137936
680.920	0.0138556
680.998	0.0139011
681.076	0.0140057
681.155	0.0140570
681.233	0.0141949
681.311	0.0142485
681.389	0.0142929
681.467	0.0143001
681.545	0.0142903
681.623	0.0143885
681.701	0.0145607
681.780	0.0145606
681.858	0.0145399
681.936	0.0146051
682.014	0.0145748
682.092	0.0146030
682.170	0.0145821
682.248	0.0145343
682.326	0.0145905
682.405	0.0144633
682.483	0.0144395
682.561	0.0145171
682.639	0.0144777
682.717	0.0145260
682.795	0.0144852
682.873	0.0142995
682.951	0.0144136
683.030	0.0143459
683.108	0.0143785
683.186	0.0145203
683.264	0.0144759
683.342	0.0144980
683.420	0.0143928
683.498	0.0143878
683.576	0.0143569
683.655	0.0144910
683.733	0.0142636
683.811	0.0142547
683.889	0.0142970
683.967	0.0142076
684.045	0.0141346
684.123	0.0142031
684.201	0.0143222
684.280	0.0143976
684.358	0.0143124
684.436	0.0144042
684.514	0.0143642
684.592	0.0144843
684.670	0.0146523
684.748	0.0147423
684.826	0.0147284
684.905	0.0147409
684.983	0.0149336
685.061	0.0147979
685.139	0.0146808
685.217	0.0146921
685.295	0.0144885
685.373	0.0142521
685.451	0.0141666
685.530	0.0139154
685.608	0.0136129
685.686	0.0135143
685.764	0.0131227
685.842	0.0128647
685.920	0.0127881
685.998	0.0126871
686.076	0.0125793
686.155	0.0128105
686.233	0.0126804
686.311	0.0128510
686.389	0.0130772
686.467	0.0132140
686.545	0.0135070
686.623	0.0137800
686.701	0.0141049
686.780	0.0143880
686.858	0.0146954
686.936	0.0151128
687.014	0.0153741
687.092	0.0154486
687.170	0.0157140
687.248	0.0158082
687.326	0.0159598
687.405	0.0161432
687.483	0.0162154
687.561	0.0162433
687.639	0.0162327
687.717	0.0161653
687.795	0.0162510
687.873	0.0161882
687.951	0.0160557
688.030	0.0159094
688.108	0.0158247
688.186	0.0155875
688.264	0.0153569
688.342	0.0153204
688.420	0.0150970
688.498	0.0148239
688.576	0.0145459
688.655	0.0141679
688.733	0.0140379
688.811	0.0138072
688.889	0.0134644
688.967	0.0131196
689.045	0.0130177
689.123	0.0129469
689.201	0.0126997
689.280	0.0125985
689.358	0.0125175
689.436	0.0125069
689.514	0.0125808
689.592	0.0126435
689.670	0.0127319
689.748	0.0128487
689.826	0.0129646
689.905	0.0132265
689.983	0.0133267
690.061	0.0134151
690.139	0.0135222
690.217	0.0136838
690.295	0.0139194
690.373	0.0138867
690.451	0.0140863
690.530	0.0141707
690.608	0.0142314
690.686	0.0142921
690.764	0.0143946
690.842	0.0146830
690.920	0.0147440
690.998	0.0150645
691.076	0.0152312
691.155	0.0154996
691.233	0.0156350
691.311	0.0159389
691.389	0.0162425
691.467	0.0164568
691.545	0.0165302
691.623	0.0164689
691.701	0.0165395
691.780	0.0165315
691.858	0.0164137
691.936	0.0162261
692.014	0.0161066
692.092	0.0157264
692.170	0.0155208
692.248	0.0151604
692.326	0.0148798
692.405	0.0145233
692.483	0.0141058
692.561	0.0139179
692.639	0.0137008
692.717	0.0133431
692.795	0.0132227
692.873	0.0130893
692.951	0.0130241
693.030	0.0127583
693.108	0.0127626
693.186	0.0129631
693.264	0.0128869
693.342	0.0129033
693.420	0.0129324
693.498	0.0131115
693.576	0.0131413
693.655	0.0134302
693.733	0.0136134
693.811	0.0137587
693.889	0.0138165
693.967	0.0139566
694.045	0.0141430
694.123	0.0142400
694.201	0.0142632
694.280	0.0143018
694.358	0.0146148
694.436	0.0145868
694.514	0.0145722
694.592	0.0146162
694.670	0.0146369
694.748	0.0146676
694.826	0.0146792
694.905	0.0147439
694.983	0.0148458
695.061	0.0148620
695.139	0.0149100
695.217	0.0150868
695.295	0.0151359
695.373	0.0152685
695.451	0.0155250
695.530	0.0155287
695.608	0.0157111
695.686	0.0157539
695.764	0.0157585
695.842	0.0156866
695.920	0.0157512
695.998	0.0155965
696.076	0.0153983
696.155	0.0153349
696.233	0.0152972
696.311	0.0151305
696.389	0.0148743
696.467	0.0146204
696.545	0.0145441
696.623	0.0144298
696.701	0.0141455
696.780	0.0139029
696.858	0.0136839
696.936	0.0136188
697.014	0.0133726
697.092	0.0133120
697.170	0.0133592
697.248	0.0130546
697.326	0.0129899
697.405	0.0128809
697.483	0.0127920
697.561	0.0128841
697.639	0.0128498
697.717	0.0127707
697.795	0.0128479
697.873	0.0129373
697.951	0.0130217
698.030	0.0132728
698.108	0.0134879
698.186	0.0137727
698.264	0.0140118
698.342	0.0143729
698.420	0.0146334
698.498	0.0150311
698.576	0.0153107
698.655	0.0157257
698.733	0.0160252
698.811	0.0161820
698.889	0.0163972
698.967	0.0167207
699.045	0.0167802
699.123	0.0167709
699.201	0.0169035
699.280	0.0166203
699.358	0.0166957
699.436	0.0165562
699.514	0.0162360
699.592	0.0160257
699.670	0.0159806
699.748	0.0155872
699.826	0.0153426
699.905	0.0151901
699.983	0.0148847
700.061	0.0146862
700.139	0.0144643
700.217	0.0141516
700.295	0.0140365
700.373	0.0138571
700.451	0.0137720
700.530	0.0135571
700.608	0.0134711
700.686	0.0132825
700.764	0.0131937
700.842	0.0132366
700.920	0.0131908
700.998	0.0131569
701.076	0.0129559
701.155	0.0130866
701.233	0.0129007
701.311	0.0129922
701.389	0.0129994
701.467	0.0128602
701.545	0.0130541
701.623	0.0128992
701.701	0.0129838
701.780	0.0131844
701.858	0.0132053
701.936	0.0132390
702.014	0.0134682
702.092	0.0138330
702.170	0.0138538
702.248	0.0142039
702.326	0.0145274
702.405	0.0146614
702.483	0.0149349
702.561	0.0151723
702.639	0.0153265
702.717	0.0153207
702.795	0.0153717
702.873	0.0154475
702.951	0.0155078
703.030	0.0153434
703.108	0.0152332
703.186	0.0151644
703.264	0.0148378
703.342	0.0146354
703.420	0.0143740
703.498	0.0143224
703.576	0.0142678
703.655	0.0141507
703.733	0.0141879
703.811	0.0140379
703.889	0.0142308
703.967	0.0143081
704.045	0.0145855
704.123	0.0147414
704.201	0.0150826
704.280	0.0152824
704.358	0.0153522
704.436	0.0157289
704.514	0.0158913
704.592	0.0159365
704.670	0.0159494
704.748	0.0157380
704.826	0.0157074
704.905	0.0155293
704.983	0.0153073
705.061	0.0148257
705.139	0.0146375
705.217	0.0143310
705.295	0.0138490
705.373	0.0136123
705.451	0.0131891
705.530	0.0128435
705.608	0.0128521
705.686	0.0126208
705.764	0.0125990
705.842	0.0124477
705.920	0.0124524
705.998	0.0127424
706.076	0.0128789
706.155	0.0127883
706.233	0.0130969
706.311	0.0132737
706.389	0.0134608
706.467	0.0136874
706.545	0.0138910
706.623	0.0139755
706.701	0.0142544
706.780	0.0145396
706.858	0.0146671
706.936	0.0149497
707.014	0.0149808
707.092	0.0151221
707.170	0.0153745
707.248	0.0155443
707.326	0.0155973
707.405	0.0155257
707.483	0.0155717
707.561	0.0155648
707.639	0.0154857
707.717	0.0153771
707.795	0.0150725
707.873	0.0148232
707.951	0.0146770
708.030	0.0143394
708.108	0.0140411
708.186	0.0140040
708.264	0.0138982
708.342	0.0138548
708.420	0.0138110
708.498	0.0137418
708.576	0.0136679
708.655	0.0138596
708.733	0.0141589
708.811	0.0141257
708.889	0.0141556
708.967	0.0144017
709.045	0.0144987
709.123	0.0144570
709.201	0.0143747
709.280	0.0145440
709.358	0.0143222
709.436	0.0143281
709.514	0.0143500
709.592	0.0142822
709.670	0.0143976
709.748	0.0144067
709.826	0.0144790
709.905	0.0144561
709.983	0.0146558
710.061	0.0147718
710.139	0.0147549
710.217	0.0150423
710.295	0.0150990
710.373	0.0151009
710.451	0.0150476
710.530	0.0150613
710.608	0.0150650
710.686	0.0150748
710.764	0.0150063
710.842	0.0148922
710.920	0.0148158
710.998	0.0146516
711.076	0.0145719
711.155	0.0144776
711.233	0.0141927
711.311	0.0140619
711.389	0.0139574
711.467	0.0137222
711.545	0.0137784
711.623	0.0136202
711.701	0.0137257
711.780	0.0137877
711.858	0.0136935
711.936	0.0137419
712.014	0.0137781
712.092	0.0138494
712.170	0.0139998
712.248	0.0141326
712.326	0.0140706
712.405	0.0143736
712.483	0.0145723
712.561	0.0145619
712.639	0.0146442
712.717	0.0146638
712.795	0.0146004
712.873	0.0147492
712.951	0.0148164
713.030	0.0145299
713.108	0.0145634
713.186	0.0145382
713.264	0.0144994
713.342	0.0145148
713.420	0.0144965
713.498	0.0145271
713.576	0.0144385
713.655	0.0146209
713.733	0.0147178
713.811	0.0146864
713.889	0.0148009
713.967	0.0148895
714.045	0.0149422
714.123	0.0150752
714.201	0.0151382
714.280	0.0151106
714.358	0.0150397
714.436	0.0150323
714.514	0.0148806
714.592	0.0146649
714.670	0.0146761
714.748	0.0143825
714.826	0.0142946
714.905	0.0141246
714.983	0.0141512
715.061	0.0140143
715.139	0.0140361
715.217	0.0139389
715.295	0.0140068
715.373	0.0142071
715.451	0.0143459
715.530	0.0144827
715.608	0.0144910
715.686	0.0146583
715.764	0.0147764
715.842	0.0148447
715.920	0.0148086
715.998	0.0147659
716.076	0.0147647
716.155	0.0147778
716.233	0.0146452
716.311	0.0147789
716.389	0.0144791
716.467	0.0144643
716.545	0.0141825
716.623	0.0140997
716.701	0.0141067
716.780	0.0140293
716.858	0.0138684
716.936	0.0137841
717.014	0.0138050
717.092	0.0137567
717.170	0.0136847
717.248	0.0136754
717.326	0.0136450
717.405	0.0135313
717.483	0.0136833
717.561	0.0137055
717.639	0.0138379
717.717	0.0138275
717.795	0.0140639
717.873	0.0140746
717.951	0.0139808
718.030	0.0142988
718.108	0.0144860
718.186	0.0143797
718.264	0.0145652
718.342	0.0145358
718.420	0.0145195
718.498	0.0146034
718.576	0.0146306
718.655	0.0146133
718.733	0.0145390
718.811	0.0146478
718.889	0.0146233
718.967	0.0145612
719.045	0.0144910
719.123	0.0146029
719.201	0.0145650
719.280	0.0146481
719.358	0.0146470
719.436	0.0148073
719.514	0.0147955
719.592	0.0147167
719.670	0.0148020
719.748	0.0149189
719.826	0.0149982
719.905	0.0150596
719.983	0.0149156
720.061	0.0150516
720.139	0.0151250
720.217	0.0150280
720.295	0.0150679
720.373	0.0150978
720.451	0.0149213
720.530	0.0148722
720.608	0.0146493
720.686	0.0146672
720.764	0.0145374
720.842	0.0144841
720.920	0.0143861
720.998	0.0143589
721.076	0.0143003
721.155	0.0141752
721.233	0.0141762
721.311	0.0141164
721.389	0.0139981
721.467	0.0139854
721.545	0.0138790
721.623	0.0139378
721.701	0.0137843
721.780	0.0138859
721.858	0.0136742
721.936	0.0138087
722.014	0.0139568
722.092	0.0138342
722.170	0.0138347
722.248	0.0137849
722.326	0.0139819
722.405	0.0140807
722.483	0.0140869
722.561	0.0138314
722.639	0.0142704
722.717	0.0141162
722.795	0.0142010
722.873	0.0144711
722.951	0.0144135
723.030	0.0146184
723.108	0.0147508
723.186	0.0149368
723.264	0.0148440
723.342	0.0148193
723.420	0.0148457
723.498	0.0148519
723.576	0.0148948
723.655	0.0148309
723.733	0.0147113
723.811	0.0146491
723.889	0.0146011
723.967	0.0145124
724.045	0.0145189
724.123	0.0144336
724.201	0.0142738
724.280	0.0141712
724.358	0.0141194
724.436	0.0140583
724.514	0.0141213
724.592	0.0140933
724.670	0.0140273
724.748	0.0139263
724.826	0.0140654
724.905	0.0140099
724.983	0.0140593
725.061	0.0140285
725.139	0.0140451
725.217	0.0141885
725.295	0.0142676
725.373	0.0139516
725.451	0.0140531
725.530	0.0142101
725.608	0.0144009
725.686	0.0143892
