05/20/2022	16:28:07	Ver.	4.1	UNKNOWN
Optical Delay	639.982744	Delta X		0.078125	Sweeps	1	Scan Rate	0/0
Coordinates	Axis 1	NaN	Axis 2	NaN	Axis 3	NaN	Axis 4	NaN	Axis 5	NaN	Axis 6	0.000000
TX Power	0.000000	RX Power	0.000000

639.983	0.0149750
640.061	0.0148743
640.139	0.0148911
640.217	0.0150374
640.295	0.0149953
640.373	0.0150050
640.451	0.0150780
640.530	0.0149217
640.608	0.0149191
640.686	0.0149817
640.764	0.0149293
640.842	0.0148730
640.920	0.0150327
640.998	0.0150483
641.076	0.0151039
641.155	0.0149021
641.233	0.0149687
641.311	0.0150614
641.389	0.0150706
641.467	0.0149947
641.545	0.0149291
641.623	0.0149466
641.701	0.0151891
641.780	0.0149479
641.858	0.0149773
641.936	0.0151092
642.014	0.0149813
642.092	0.0149799
642.170	0.0150459
642.248	0.0151194
642.326	0.0149078
642.405	0.0150018
642.483	0.0149124
642.561	0.0149228
642.639	0.0150047
642.717	0.0150394
642.795	0.0150526
642.873	0.0149982
642.951	0.0149595
643.030	0.0151029
643.108	0.0150297
643.186	0.0150821
643.264	0.0151392
643.342	0.0150258
643.420	0.0150646
643.498	0.0149910
643.576	0.0149763
643.655	0.0150894
643.733	0.0150160
643.811	0.0149977
643.889	0.0151410
643.967	0.0150491
644.045	0.0149460
644.123	0.0150684
644.201	0.0149377
644.280	0.0148870
644.358	0.0149503
644.436	0.0149611
644.514	0.0150126
644.592	0.0148920
644.670	0.0150051
644.748	0.0149471
644.826	0.0149906
644.905	0.0149147
644.983	0.0151221
645.061	0.0150801
645.139	0.0150117
645.217	0.0150121
645.295	0.0149913
645.373	0.0150505
645.451	0.0149960
645.530	0.0150466
645.608	0.0149489
645.686	0.0149432
645.764	0.0150218
645.842	0.0149845
645.920	0.0149370
645.998	0.0149367
646.076	0.0150498
646.155	0.0150919
646.233	0.0149847
646.311	0.0149503
646.389	0.0150968
646.467	0.0150709
646.545	0.0148423
646.623	0.0150393
646.701	0.0150712
646.780	0.0150164
646.858	0.0148963
646.936	0.0149230
647.014	0.0149473
647.092	0.0149783
647.170	0.0150207
647.248	0.0150211
647.326	0.0149883
647.405	0.0149475
647.483	0.0149203
647.561	0.0150118
647.639	0.0150161
647.717	0.0150263
647.795	0.0148962
647.873	0.0150034
647.951	0.0151179
648.030	0.0150830
648.108	0.0150832
648.186	0.0149185
648.264	0.0149355
648.342	0.0150703
648.420	0.0148650
648.498	0.0149111
648.576	0.0150282
648.655	0.0150183
648.733	0.0151408
648.811	0.0149212
648.889	0.0150529
648.967	0.0149963
649.045	0.0149877
649.123	0.0149731
649.201	0.0150022
649.280	0.0151305
649.358	0.0149901
649.436	0.0149382
649.514	0.0149712
649.592	0.0149858
649.670	0.0148858
649.748	0.0150311
649.826	0.0149290
649.905	0.0150139
649.983	0.0148690
650.061	0.0149317
650.139	0.0149342
650.217	0.0148802
650.295	0.0149885
650.373	0.0149796
650.451	0.0149017
650.530	0.0150211
650.608	0.0148168
650.686	0.0149972
650.764	0.0149801
650.842	0.0149327
650.920	0.0150343
650.998	0.0148708
651.076	0.0150237
651.155	0.0150912
651.233	0.0148153
651.311	0.0149732
651.389	0.0151759
651.467	0.0149808
651.545	0.0149205
651.623	0.0149593
651.701	0.0148888
651.780	0.0147853
651.858	0.0149469
651.936	0.0149284
652.014	0.0147237
652.092	0.0148387
652.170	0.0149554
652.248	0.0149094
652.326	0.0146701
652.405	0.0147578
652.483	0.0147830
652.561	0.0147557
652.639	0.0147770
652.717	0.0148953
652.795	0.0146908
652.873	0.0146276
652.951	0.0148505
653.030	0.0147269
653.108	0.0147599
653.186	0.0149242
653.264	0.0148934
653.342	0.0150302
653.420	0.0150465
653.498	0.0149530
653.576	0.0150504
653.655	0.0149078
653.733	0.0149375
653.811	0.0150829
653.889	0.0149253
653.967	0.0148569
654.045	0.0147781
654.123	0.0149562
654.201	0.0149429
654.280	0.0146960
654.358	0.0148303
654.436	0.0147883
654.514	0.0147405
654.592	0.0147598
654.670	0.0147483
654.748	0.0147027
654.826	0.0147043
654.905	0.0147868
654.983	0.0147424
655.061	0.0148539
655.139	0.0148220
655.217	0.0149431
655.295	0.0148897
655.373	0.0149746
655.451	0.0149321
655.530	0.0148350
655.608	0.0149218
655.686	0.0150805
655.764	0.0150388
655.842	0.0149759
655.920	0.0149583
655.998	0.0150850
656.076	0.0151224
656.155	0.0151041
656.233	0.0150780
656.311	0.0148883
656.389	0.0150175
656.467	0.0151186
656.545	0.0149671
656.623	0.0148961
656.701	0.0149521
656.780	0.0149911
656.858	0.0150161
656.936	0.0149268
657.014	0.0148531
657.092	0.0147164
657.170	0.0148823
657.248	0.0148270
657.326	0.0149561
657.405	0.0148158
657.483	0.0149187
657.561	0.0148075
657.639	0.0149854
657.717	0.0150874
657.795	0.0149391
657.873	0.0151147
657.951	0.0151956
658.030	0.0150329
658.108	0.0150525
658.186	0.0151895
658.264	0.0150014
658.342	0.0151495
658.420	0.0151395
658.498	0.0151068
658.576	0.0149780
658.655	0.0150283
658.733	0.0150423
658.811	0.0150712
658.889	0.0148601
658.967	0.0149351
659.045	0.0149651
659.123	0.0147900
659.201	0.0148195
659.280	0.0148215
659.358	0.0147594
659.436	0.0148031
659.514	0.0149399
659.592	0.0148650
659.670	0.0148650
659.748	0.0149385
659.826	0.0149332
659.905	0.0149664
659.983	0.0150311
660.061	0.0150090
660.139	0.0150766
660.217	0.0150177
660.295	0.0150341
660.373	0.0150127
660.451	0.0152220
660.530	0.0151082
660.608	0.0151836
660.686	0.0150967
660.764	0.0151708
660.842	0.0149894
660.920	0.0149670
660.998	0.0149860
661.076	0.0150147
661.155	0.0149743
661.233	0.0148193
661.311	0.0147580
661.389	0.0148299
661.467	0.0148338
661.545	0.0148792
661.623	0.0150532
661.701	0.0147720
661.780	0.0148773
661.858	0.0149381
661.936	0.0148722
662.014	0.0151237
662.092	0.0150523
662.170	0.0150766
662.248	0.0150879
662.326	0.0152277
662.405	0.0151902
662.483	0.0151998
662.561	0.0152927
662.639	0.0150172
662.717	0.0151277
662.795	0.0151999
662.873	0.0150762
662.951	0.0150590
663.030	0.0149284
663.108	0.0150295
663.186	0.0150439
663.264	0.0149088
663.342	0.0149232
663.420	0.0149094
663.498	0.0149315
663.576	0.0147791
663.655	0.0147258
663.733	0.0148991
663.811	0.0148367
663.889	0.0150616
663.967	0.0149995
664.045	0.0149568
664.123	0.0147974
664.201	0.0147999
664.280	0.0149991
664.358	0.0149637
664.436	0.0150655
664.514	0.0151300
664.592	0.0151197
664.670	0.0150478
664.748	0.0151579
664.826	0.0150454
664.905	0.0149876
664.983	0.0149103
665.061	0.0150893
665.139	0.0149139
665.217	0.0148013
665.295	0.0149774
665.373	0.0150221
665.451	0.0150108
665.530	0.0148460
665.608	0.0150188
665.686	0.0150796
665.764	0.0149911
665.842	0.0150417
665.920	0.0148360
665.998	0.0148730
666.076	0.0149831
666.155	0.0148542
666.233	0.0149213
666.311	0.0148782
666.389	0.0148698
666.467	0.0148748
666.545	0.0150001
666.623	0.0149139
666.701	0.0148924
666.780	0.0148389
666.858	0.0148615
666.936	0.0150178
667.014	0.0149937
667.092	0.0149729
667.170	0.0149329
667.248	0.0149203
667.326	0.0150571
667.405	0.0149905
667.483	0.0149478
667.561	0.0150052
667.639	0.0150090
667.717	0.0149990
667.795	0.0149533
667.873	0.0150617
667.951	0.0150593
668.030	0.0149703
668.108	0.0149282
668.186	0.0148918
668.264	0.0149234
668.342	0.0150006
668.420	0.0149023
668.498	0.0147987
668.576	0.0149828
668.655	0.0148377
668.733	0.0148418
668.811	0.0148817
668.889	0.0146991
668.967	0.0147643
669.045	0.0147814
669.123	0.0148396
669.201	0.0148893
669.280	0.0148784
669.358	0.0148205
669.436	0.0146517
669.514	0.0147166
669.592	0.0147633
669.670	0.0148843
669.748	0.0149232
669.826	0.0148735
669.905	0.0149521
669.983	0.0148922
670.061	0.0149302
670.139	0.0149084
670.217	0.0149911
670.295	0.0150115
670.373	0.0148338
670.451	0.0150047
670.530	0.0151476
670.608	0.0150380
670.686	0.0149932
670.764	0.0150392
670.842	0.0149839
670.920	0.0148331
670.998	0.0147382
671.076	0.0148608
671.155	0.0147908
671.233	0.0148816
671.311	0.0148666
671.389	0.0147823
671.467	0.0147644
671.545	0.0148049
671.623	0.0149296
671.701	0.0148103
671.780	0.0149333
671.858	0.0149908
671.936	0.0149754
672.014	0.0150583
672.092	0.0151316
672.170	0.0149570
672.248	0.0151493
672.326	0.0151295
672.405	0.0151440
672.483	0.0150436
672.561	0.0151289
672.639	0.0150664
672.717	0.0149910
672.795	0.0151123
672.873	0.0149281
672.951	0.0149783
673.030	0.0148935
673.108	0.0149521
673.186	0.0148418
673.264	0.0147979
673.342	0.0147138
673.420	0.0148518
673.498	0.0147434
673.576	0.0146045
673.655	0.0147754
673.733	0.0146642
673.811	0.0147723
673.889	0.0146728
673.967	0.0148169
674.045	0.0148641
674.123	0.0150063
674.201	0.0148737
674.280	0.0150115
674.358	0.0148286
674.436	0.0147513
674.514	0.0150288
674.592	0.0150537
674.670	0.0148995
674.748	0.0148189
674.826	0.0148118
674.905	0.0147627
674.983	0.0147680
675.061	0.0146807
675.139	0.0145997
675.217	0.0145441
675.295	0.0145178
675.373	0.0145352
675.451	0.0146130
675.530	0.0145886
675.608	0.0145256
675.686	0.0146013
675.764	0.0147173
675.842	0.0147161
675.920	0.0148885
675.998	0.0149546
676.076	0.0151382
676.155	0.0152443
676.233	0.0151476
676.311	0.0150823
676.389	0.0154120
676.467	0.0153719
676.545	0.0152871
676.623	0.0154149
676.701	0.0151017
676.780	0.0152210
676.858	0.0151408
676.936	0.0151105
677.014	0.0149965
677.092	0.0148163
677.170	0.0145525
677.248	0.0146108
677.326	0.0144230
677.405	0.0143774
677.483	0.0144025
677.561	0.0142621
677.639	0.0141454
677.717	0.0141741
677.795	0.0142410
677.873	0.0142742
677.951	0.0144407
678.030	0.0143954
678.108	0.0146791
678.186	0.0149632
678.264	0.0150748
678.342	0.0151698
678.420	0.0152064
678.498	0.0153446
678.576	0.0154546
678.655	0.0156739
678.733	0.0158084
678.811	0.0157467
678.889	0.0157010
678.967	0.0156241
679.045	0.0157236
679.123	0.0155995
679.201	0.0154013
679.280	0.0154008
679.358	0.0151954
679.436	0.0150903
679.514	0.0148880
679.592	0.0148248
679.670	0.0147195
679.748	0.0145251
679.826	0.0143754
679.905	0.0145100
679.983	0.0143121
680.061	0.0142737
680.139	0.0143661
680.217	0.0142384
680.295	0.0142522
680.373	0.0142735
680.451	0.0142354
680.530	0.0144216
680.608	0.0145221
680.686	0.0144723
680.764	0.0146646
680.842	0.0147421
680.920	0.0148254
680.998	0.0148978
681.076	0.0149355
681.155	0.0149104
681.233	0.0149195
681.311	0.0150099
681.389	0.0150697
681.467	0.0152273
681.545	0.0152937
681.623	0.0150996
681.701	0.0153468
681.780	0.0152919
681.858	0.0154864
681.936	0.0153971
682.014	0.0153207
682.092	0.0153899
682.170	0.0155157
682.248	0.0155887
682.326	0.0154670
682.405	0.0153423
682.483	0.0152641
682.561	0.0153732
682.639	0.0152305
682.717	0.0151428
682.795	0.0151434
682.873	0.0150422
682.951	0.0148652
683.030	0.0149327
683.108	0.0147823
683.186	0.0148645
683.264	0.0147246
683.342	0.0144850
683.420	0.0146593
683.498	0.0146690
683.576	0.0144787
683.655	0.0145447
683.733	0.0147289
683.811	0.0147963
683.889	0.0148156
683.967	0.0148096
684.045	0.0149072
684.123	0.0150043
684.201	0.0150507
684.280	0.0151916
684.358	0.0152919
684.436	0.0152904
684.514	0.0155759
684.592	0.0155078
684.670	0.0153889
684.748	0.0154476
684.826	0.0153683
684.905	0.0153788
684.983	0.0152168
685.061	0.0150360
685.139	0.0149640
685.217	0.0145746
685.295	0.0143300
685.373	0.0141541
685.451	0.0139507
685.530	0.0137724
685.608	0.0135178
685.686	0.0133562
685.764	0.0131457
685.842	0.0131604
685.920	0.0133297
685.998	0.0135634
686.076	0.0135867
686.155	0.0139375
686.233	0.0141198
686.311	0.0145560
686.389	0.0149103
686.467	0.0152754
686.545	0.0155003
686.623	0.0156815
686.701	0.0160222
686.780	0.0162540
686.858	0.0164059
686.936	0.0164864
687.014	0.0166409
687.092	0.0168336
687.170	0.0168879
687.248	0.0167586
687.326	0.0165086
687.405	0.0164717
687.483	0.0164525
687.561	0.0162498
687.639	0.0161984
687.717	0.0160147
687.795	0.0159193
687.873	0.0156940
687.951	0.0155369
688.030	0.0153556
688.108	0.0150557
688.186	0.0150969
688.264	0.0149398
688.342	0.0148207
688.420	0.0145978
688.498	0.0145854
688.576	0.0142489
688.655	0.0140586
688.733	0.0140806
688.811	0.0137437
688.889	0.0136711
688.967	0.0137337
689.045	0.0134550
689.123	0.0135310
689.201	0.0135317
689.280	0.0135899
689.358	0.0135622
689.436	0.0136106
689.514	0.0137300
689.592	0.0137599
689.670	0.0139725
689.748	0.0140359
689.826	0.0141016
689.905	0.0141830
689.983	0.0142588
690.061	0.0145242
690.139	0.0146915
690.217	0.0148267
690.295	0.0149078
690.373	0.0149633
690.451	0.0151802
690.530	0.0153543
690.608	0.0154848
690.686	0.0156532
690.764	0.0157286
690.842	0.0158454
690.920	0.0160489
690.998	0.0161444
691.076	0.0163268
691.155	0.0165014
691.233	0.0165131
691.311	0.0165765
691.389	0.0167036
691.467	0.0167671
691.545	0.0166386
691.623	0.0166425
691.701	0.0164758
691.780	0.0165051
691.858	0.0163059
691.936	0.0161674
692.014	0.0161292
692.092	0.0159303
692.170	0.0156336
692.248	0.0152225
692.326	0.0151880
692.405	0.0150853
692.483	0.0148018
692.561	0.0144307
692.639	0.0140758
692.717	0.0139432
692.795	0.0135528
692.873	0.0133607
692.951	0.0131611
693.030	0.0128355
693.108	0.0127035
693.186	0.0126506
693.264	0.0126352
693.342	0.0124580
693.420	0.0127586
693.498	0.0129362
693.576	0.0130116
693.655	0.0132869
693.733	0.0135788
693.811	0.0138992
693.889	0.0142189
693.967	0.0146258
694.045	0.0148637
694.123	0.0151191
694.201	0.0155038
694.280	0.0156197
694.358	0.0157607
694.436	0.0158752
694.514	0.0158721
694.592	0.0158915
694.670	0.0158505
694.748	0.0158032
694.826	0.0157049
694.905	0.0156187
694.983	0.0155150
695.061	0.0155809
695.139	0.0155029
695.217	0.0155579
695.295	0.0154428
695.373	0.0154645
695.451	0.0155553
695.530	0.0155791
695.608	0.0157271
695.686	0.0156168
695.764	0.0156016
695.842	0.0155444
695.920	0.0155132
695.998	0.0155804
696.076	0.0156071
696.155	0.0153922
696.233	0.0153036
696.311	0.0151506
696.389	0.0148247
696.467	0.0147884
696.545	0.0148377
696.623	0.0146565
696.701	0.0147260
696.780	0.0145695
696.858	0.0143058
696.936	0.0142652
697.014	0.0141523
697.092	0.0141980
697.170	0.0140652
697.248	0.0140634
697.326	0.0137821
697.405	0.0134637
697.483	0.0135543
697.561	0.0133307
697.639	0.0133263
697.717	0.0133008
697.795	0.0133133
697.873	0.0133604
697.951	0.0135657
698.030	0.0137318
698.108	0.0139991
698.186	0.0142475
698.264	0.0145738
698.342	0.0149207
698.420	0.0151704
698.498	0.0154811
698.576	0.0158018
698.655	0.0159254
698.733	0.0162009
698.811	0.0163434
698.889	0.0165588
698.967	0.0167066
699.045	0.0166195
699.123	0.0167206
699.201	0.0168059
699.280	0.0166592
699.358	0.0166823
699.436	0.0167021
699.514	0.0169208
699.592	0.0168024
699.670	0.0166645
699.748	0.0164384
699.826	0.0162597
699.905	0.0160980
699.983	0.0158649
700.061	0.0156103
700.139	0.0152657
700.217	0.0150924
700.295	0.0145756
700.373	0.0141209
700.451	0.0139558
700.530	0.0135753
700.608	0.0133366
700.686	0.0131125
700.764	0.0130489
700.842	0.0130444
700.920	0.0128761
700.998	0.0130446
701.076	0.0129439
701.155	0.0133559
701.233	0.0134975
701.311	0.0135000
701.389	0.0136843
701.467	0.0138863
701.545	0.0138850
701.623	0.0139249
701.701	0.0142752
701.780	0.0143648
701.858	0.0143855
701.936	0.0145420
702.014	0.0148479
702.092	0.0149131
702.170	0.0149828
702.248	0.0152412
702.326	0.0154709
702.405	0.0156895
702.483	0.0159243
702.561	0.0161928
702.639	0.0161676
702.717	0.0164148
702.795	0.0166979
702.873	0.0166946
702.951	0.0167157
703.030	0.0167425
703.108	0.0165993
703.186	0.0164658
703.264	0.0162634
703.342	0.0162312
703.420	0.0161240
703.498	0.0156625
703.576	0.0155616
703.655	0.0153481
703.733	0.0150866
703.811	0.0150206
703.889	0.0148561
703.967	0.0146355
704.045	0.0146117
704.123	0.0147195
704.201	0.0147763
704.280	0.0146929
704.358	0.0147379
704.436	0.0147503
704.514	0.0148143
704.592	0.0146453
704.670	0.0150079
704.748	0.0150321
704.826	0.0151644
704.905	0.0151807
704.983	0.0152347
705.061	0.0151519
705.139	0.0152008
705.217	0.0152282
705.295	0.0151228
705.373	0.0151575
705.451	0.0150591
705.530	0.0151830
705.608	0.0149393
705.686	0.0148560
705.764	0.0146815
705.842	0.0144727
705.920	0.0143726
705.998	0.0143311
706.076	0.0143044
706.155	0.0141637
706.233	0.0140920
706.311	0.0140411
706.389	0.0137856
706.467	0.0139811
706.545	0.0139853
706.623	0.0139564
706.701	0.0139230
706.780	0.0141339
706.858	0.0141563
706.936	0.0143272
707.014	0.0145916
707.092	0.0146376
707.170	0.0148288
707.248	0.0150156
707.326	0.0152063
707.405	0.0152400
707.483	0.0154904
707.561	0.0155878
707.639	0.0156867
707.717	0.0157983
707.795	0.0159073
707.873	0.0159340
707.951	0.0158343
708.030	0.0158236
708.108	0.0158237
708.186	0.0157692
708.264	0.0156583
708.342	0.0155592
708.420	0.0155879
708.498	0.0154763
708.576	0.0152204
708.655	0.0152473
708.733	0.0150653
708.811	0.0149339
708.889	0.0147459
708.967	0.0149673
709.045	0.0147086
709.123	0.0145972
709.201	0.0145734
709.280	0.0147259
709.358	0.0146075
709.436	0.0145763
709.514	0.0146378
709.592	0.0145879
709.670	0.0146499
709.748	0.0146468
709.826	0.0147657
709.905	0.0147397
709.983	0.0147352
710.061	0.0148181
710.139	0.0148814
710.217	0.0148357
710.295	0.0148668
710.373	0.0148627
710.451	0.0147550
710.530	0.0147578
710.608	0.0146688
710.686	0.0147290
710.764	0.0146735
710.842	0.0146116
710.920	0.0145949
710.998	0.0146663
711.076	0.0143754
711.155	0.0144747
711.233	0.0145447
711.311	0.0145712
711.389	0.0146484
711.467	0.0148800
711.545	0.0148198
711.623	0.0150378
711.701	0.0152419
711.780	0.0153486
711.858	0.0154017
711.936	0.0156175
712.014	0.0155962
712.092	0.0156126
712.170	0.0155726
712.248	0.0156250
712.326	0.0155679
712.405	0.0154562
712.483	0.0153201
712.561	0.0152423
712.639	0.0151876
712.717	0.0149865
712.795	0.0149781
712.873	0.0148653
712.951	0.0147803
713.030	0.0146539
713.108	0.0146634
713.186	0.0147987
713.264	0.0146059
713.342	0.0145005
713.420	0.0144071
713.498	0.0143182
713.576	0.0142930
713.655	0.0143359
713.733	0.0144241
713.811	0.0144827
713.889	0.0144817
713.967	0.0144934
714.045	0.0145208
714.123	0.0146720
714.201	0.0147996
714.280	0.0150060
714.358	0.0150036
714.436	0.0151092
714.514	0.0152612
714.592	0.0151407
714.670	0.0152656
714.748	0.0151860
714.826	0.0151978
714.905	0.0151717
714.983	0.0153437
715.061	0.0152162
715.139	0.0151464
715.217	0.0151493
715.295	0.0150191
715.373	0.0149197
715.451	0.0149348
715.530	0.0149609
715.608	0.0149337
715.686	0.0149001
715.764	0.0148801
715.842	0.0151212
715.920	0.0150274
715.998	0.0151433
716.076	0.0151508
716.155	0.0150799
716.233	0.0150669
716.311	0.0150590
716.389	0.0149496
716.467	0.0150006
716.545	0.0149131
716.623	0.0149282
716.701	0.0149386
716.780	0.0148917
716.858	0.0147984
716.936	0.0148042
717.014	0.0147790
717.092	0.0147614
717.170	0.0148971
717.248	0.0149664
717.326	0.0149453
717.405	0.0151974
717.483	0.0152920
717.561	0.0153531
717.639	0.0153563
717.717	0.0153677
717.795	0.0153036
717.873	0.0152991
717.951	0.0152257
718.030	0.0148824
718.108	0.0147957
718.186	0.0146422
718.264	0.0145863
718.342	0.0144083
718.420	0.0143272
718.498	0.0143195
718.576	0.0141896
718.655	0.0142633
718.733	0.0142535
718.811	0.0143293
718.889	0.0142350
718.967	0.0144199
719.045	0.0147009
719.123	0.0146668
719.201	0.0147462
719.280	0.0150016
719.358	0.0150114
719.436	0.0150594
719.514	0.0151019
719.592	0.0152219
719.670	0.0154066
719.748	0.0154246
719.826	0.0153895
719.905	0.0155053
719.983	0.0155441
720.061	0.0156887
720.139	0.0156466
720.217	0.0156536
720.295	0.0158147
720.373	0.0160285
720.451	0.0160251
720.530	0.0158305
720.608	0.0157777
720.686	0.0157795
720.764	0.0158083
720.842	0.0156698
720.920	0.0156425
720.998	0.0153972
721.076	0.0151679
721.155	0.0152191
721.233	0.0150462
721.311	0.0150578
721.389	0.0149957
721.467	0.0147337
721.545	0.0147633
721.623	0.0147754
721.701	0.0146219
721.780	0.0146941
721.858	0.0145303
721.936	0.0145908
722.014	0.0145834
722.092	0.0143768
722.170	0.0144439
722.248	0.0144236
722.326	0.0145467
722.405	0.0144794
722.483	0.0144971
722.561	0.0145596
722.639	0.0144153
722.717	0.0145799
722.795	0.0145933
722.873	0.0145852
722.951	0.0145042
723.030	0.0144817
723.108	0.0146751
723.186	0.0147468
723.264	0.0146863
723.342	0.0147498
723.420	0.0148571
723.498	0.0149219
723.576	0.0150121
723.655	0.0150685
723.733	0.0151689
723.811	0.0151780
723.889	0.0152152
723.967	0.0154214
724.045	0.0153635
724.123	0.0152968
724.201	0.0153529
724.280	0.0153367
724.358	0.0152943
724.436	0.0152308
724.514	0.0152756
724.592	0.0151871
724.670	0.0152187
724.748	0.0151569
724.826	0.0151172
724.905	0.0150188
724.983	0.0150388
725.061	0.0150103
725.139	0.0150522
725.217	0.0150228
725.295	0.0148904
725.373	0.0149265
725.451	0.0150188
725.530	0.0149872
725.608	0.0151086
725.686	0.0152317
