05/20/2022	16:29:37	Ver.	4.1	UNKNOWN
Optical Delay	639.982744	Delta X		0.078125	Sweeps	1	Scan Rate	0/0
Coordinates	Axis 1	NaN	Axis 2	NaN	Axis 3	NaN	Axis 4	NaN	Axis 5	NaN	Axis 6	0.000000
TX Power	0.000000	RX Power	0.000000

639.983	0.0147990
640.061	0.0146609
640.139	0.0146584
640.217	0.0148286
640.295	0.0147523
640.373	0.0147400
640.451	0.0147614
640.530	0.0148731
640.608	0.0148599
640.686	0.0147341
640.764	0.0148289
640.842	0.0149492
640.920	0.0149456
640.998	0.0148587
641.076	0.0149443
641.155	0.0149284
641.233	0.0148371
641.311	0.0149501
641.389	0.0149195
641.467	0.0148810
641.545	0.0149095
641.623	0.0150031
641.701	0.0149488
641.780	0.0148751
641.858	0.0148891
641.936	0.0149191
642.014	0.0150002
642.092	0.0147731
642.170	0.0150739
642.248	0.0149339
642.326	0.0149951
642.405	0.0149046
642.483	0.0148879
642.561	0.0149104
642.639	0.0148946
642.717	0.0149507
642.795	0.0149449
642.873	0.0149403
642.951	0.0150456
643.030	0.0150048
643.108	0.0149593
643.186	0.0149102
643.264	0.0147884
643.342	0.0147768
643.420	0.0148611
643.498	0.0149377
643.576	0.0148238
643.655	0.0149480
643.733	0.0148697
643.811	0.0148396
643.889	0.0148461
643.967	0.0149099
644.045	0.0149089
644.123	0.0151023
644.201	0.0149317
644.280	0.0148425
644.358	0.0149155
644.436	0.0149384
644.514	0.0148344
644.592	0.0148623
644.670	0.0149355
644.748	0.0149122
644.826	0.0148653
644.905	0.0148579
644.983	0.0149699
645.061	0.0149126
645.139	0.0148862
645.217	0.0149891
645.295	0.0149798
645.373	0.0149595
645.451	0.0150075
645.530	0.0150344
645.608	0.0148031
645.686	0.0149905
645.764	0.0149841
645.842	0.0148286
645.920	0.0150028
645.998	0.0148858
646.076	0.0149251
646.155	0.0148747
646.233	0.0148906
646.311	0.0148420
646.389	0.0150377
646.467	0.0149322
646.545	0.0150098
646.623	0.0149042
646.701	0.0148960
646.780	0.0150413
646.858	0.0149842
646.936	0.0150448
647.014	0.0150482
647.092	0.0150132
647.170	0.0149451
647.248	0.0150562
647.326	0.0149649
647.405	0.0149889
647.483	0.0149731
647.561	0.0151212
647.639	0.0149568
647.717	0.0149575
647.795	0.0149204
647.873	0.0151185
647.951	0.0149998
648.030	0.0148653
648.108	0.0148977
648.186	0.0149083
648.264	0.0148150
648.342	0.0148344
648.420	0.0148378
648.498	0.0148714
648.576	0.0147950
648.655	0.0147133
648.733	0.0147948
648.811	0.0148238
648.889	0.0149735
648.967	0.0149628
649.045	0.0148127
649.123	0.0149404
649.201	0.0150453
649.280	0.0149564
649.358	0.0149899
649.436	0.0148667
649.514	0.0149899
649.592	0.0149221
649.670	0.0148673
649.748	0.0150243
649.826	0.0150885
649.905	0.0149431
649.983	0.0151182
650.061	0.0149615
650.139	0.0148662
650.217	0.0148785
650.295	0.0148340
650.373	0.0147635
650.451	0.0149040
650.530	0.0148559
650.608	0.0148568
650.686	0.0149255
650.764	0.0147746
650.842	0.0149590
650.920	0.0149527
650.998	0.0147950
651.076	0.0149144
651.155	0.0149065
651.233	0.0148924
651.311	0.0147505
651.389	0.0148775
651.467	0.0148364
651.545	0.0150523
651.623	0.0149657
651.701	0.0149042
651.780	0.0149271
651.858	0.0149413
651.936	0.0149433
652.014	0.0149023
652.092	0.0150557
652.170	0.0149904
652.248	0.0149364
652.326	0.0148674
652.405	0.0149472
652.483	0.0148480
652.561	0.0149615
652.639	0.0149151
652.717	0.0147699
652.795	0.0147607
652.873	0.0149408
652.951	0.0149902
653.030	0.0147520
653.108	0.0147809
653.186	0.0146584
653.264	0.0148058
653.342	0.0148502
653.420	0.0147340
653.498	0.0146649
653.576	0.0148342
653.655	0.0149503
653.733	0.0148109
653.811	0.0148729
653.889	0.0147505
653.967	0.0149841
654.045	0.0150163
654.123	0.0148931
654.201	0.0149664
654.280	0.0149885
654.358	0.0148912
654.436	0.0148644
654.514	0.0149683
654.592	0.0149046
654.670	0.0148771
654.748	0.0147919
654.826	0.0147810
654.905	0.0148446
654.983	0.0149007
655.061	0.0148566
655.139	0.0148617
655.217	0.0147912
655.295	0.0147683
655.373	0.0146922
655.451	0.0148386
655.530	0.0147150
655.608	0.0147282
655.686	0.0147813
655.764	0.0147807
655.842	0.0147809
655.920	0.0147777
655.998	0.0149334
656.076	0.0149687
656.155	0.0148743
656.233	0.0148775
656.311	0.0149183
656.389	0.0148857
656.467	0.0148993
656.545	0.0148173
656.623	0.0148648
656.701	0.0149485
656.780	0.0148689
656.858	0.0149544
656.936	0.0148227
657.014	0.0148503
657.092	0.0148648
657.170	0.0147882
657.248	0.0148894
657.326	0.0148923
657.405	0.0147147
657.483	0.0146555
657.561	0.0147189
657.639	0.0147906
657.717	0.0147466
657.795	0.0147014
657.873	0.0147057
657.951	0.0148622
658.030	0.0148072
658.108	0.0147620
658.186	0.0147469
658.264	0.0148451
658.342	0.0148264
658.420	0.0148717
658.498	0.0148793
658.576	0.0149473
658.655	0.0149595
658.733	0.0150061
658.811	0.0149386
658.889	0.0149646
658.967	0.0149860
659.045	0.0149297
659.123	0.0147918
659.201	0.0148904
659.280	0.0149007
659.358	0.0149314
659.436	0.0148802
659.514	0.0147656
659.592	0.0147095
659.670	0.0147085
659.748	0.0145959
659.826	0.0147020
659.905	0.0145764
659.983	0.0147261
660.061	0.0146550
660.139	0.0146296
660.217	0.0147307
660.295	0.0146445
660.373	0.0147114
660.451	0.0147526
660.530	0.0146518
660.608	0.0147285
660.686	0.0146743
660.764	0.0147143
660.842	0.0148230
660.920	0.0147439
660.998	0.0148956
661.076	0.0148040
661.155	0.0148040
661.233	0.0149178
661.311	0.0147084
661.389	0.0149363
661.467	0.0147764
661.545	0.0147941
661.623	0.0146436
661.701	0.0148415
661.780	0.0149175
661.858	0.0148705
661.936	0.0147423
662.014	0.0149980
662.092	0.0150581
662.170	0.0150424
662.248	0.0148385
662.326	0.0148328
662.405	0.0146983
662.483	0.0147706
662.561	0.0148093
662.639	0.0147829
662.717	0.0147586
662.795	0.0147149
662.873	0.0147276
662.951	0.0148386
663.030	0.0147704
663.108	0.0147880
663.186	0.0146090
663.264	0.0148094
663.342	0.0147755
663.420	0.0148385
663.498	0.0148199
663.576	0.0148563
663.655	0.0148051
663.733	0.0147988
663.811	0.0147034
663.889	0.0149101
663.967	0.0148779
664.045	0.0148467
664.123	0.0147514
664.201	0.0147150
664.280	0.0148817
664.358	0.0149532
664.436	0.0147221
664.514	0.0148808
664.592	0.0148551
664.670	0.0147926
664.748	0.0147392
664.826	0.0149164
664.905	0.0148164
664.983	0.0149079
665.061	0.0149277
665.139	0.0149898
665.217	0.0149836
665.295	0.0148753
665.373	0.0149100
665.451	0.0148552
665.530	0.0149063
665.608	0.0149932
665.686	0.0149419
665.764	0.0147575
665.842	0.0148728
665.920	0.0149369
665.998	0.0148911
666.076	0.0148969
666.155	0.0149629
666.233	0.0150542
666.311	0.0148482
666.389	0.0149564
666.467	0.0148542
666.545	0.0150502
666.623	0.0149072
666.701	0.0150002
666.780	0.0149434
666.858	0.0149001
666.936	0.0149299
667.014	0.0149371
667.092	0.0147514
667.170	0.0147990
667.248	0.0148144
667.326	0.0148502
667.405	0.0148332
667.483	0.0148238
667.561	0.0147658
667.639	0.0148126
667.717	0.0147370
667.795	0.0147755
667.873	0.0150047
667.951	0.0148535
668.030	0.0148924
668.108	0.0147675
668.186	0.0147621
668.264	0.0149577
668.342	0.0148640
668.420	0.0150314
668.498	0.0149192
668.576	0.0150853
668.655	0.0149986
668.733	0.0149763
668.811	0.0151215
668.889	0.0149738
668.967	0.0150889
669.045	0.0151197
669.123	0.0149492
669.201	0.0150435
669.280	0.0149862
669.358	0.0148861
669.436	0.0148676
669.514	0.0147768
669.592	0.0149027
669.670	0.0148470
669.748	0.0148122
669.826	0.0147392
669.905	0.0146771
669.983	0.0148802
670.061	0.0149962
670.139	0.0148264
670.217	0.0150030
670.295	0.0147717
670.373	0.0148832
670.451	0.0149705
670.530	0.0149174
670.608	0.0149684
670.686	0.0151241
670.764	0.0150385
670.842	0.0151393
670.920	0.0150945
670.998	0.0149187
671.076	0.0149745
671.155	0.0150002
671.233	0.0149087
671.311	0.0147597
671.389	0.0148633
671.467	0.0147967
671.545	0.0148029
671.623	0.0147687
671.701	0.0148544
671.780	0.0148608
671.858	0.0148282
671.936	0.0148370
672.014	0.0147122
672.092	0.0148172
672.170	0.0147769
672.248	0.0146828
672.326	0.0148614
672.405	0.0146494
672.483	0.0146672
672.561	0.0148105
672.639	0.0148633
672.717	0.0149015
672.795	0.0150245
672.873	0.0150803
672.951	0.0151089
673.030	0.0151343
673.108	0.0151472
673.186	0.0150510
673.264	0.0151236
673.342	0.0150861
673.420	0.0151987
673.498	0.0151895
673.576	0.0150237
673.655	0.0150358
673.733	0.0150992
673.811	0.0149467
673.889	0.0149648
673.967	0.0148579
674.045	0.0147641
674.123	0.0148037
674.201	0.0148208
674.280	0.0147305
674.358	0.0146541
674.436	0.0147712
674.514	0.0147162
674.592	0.0148381
674.670	0.0149097
674.748	0.0149618
674.826	0.0150024
674.905	0.0150187
674.983	0.0151629
675.061	0.0153485
675.139	0.0152895
675.217	0.0152345
675.295	0.0153823
675.373	0.0154177
675.451	0.0154202
675.530	0.0153204
675.608	0.0153069
675.686	0.0152520
675.764	0.0151841
675.842	0.0149548
675.920	0.0149495
675.998	0.0149913
676.076	0.0146955
676.155	0.0145538
676.233	0.0144945
676.311	0.0144098
676.389	0.0143575
676.467	0.0142269
676.545	0.0142492
676.623	0.0139368
676.701	0.0139462
676.780	0.0140857
676.858	0.0142271
676.936	0.0143983
677.014	0.0144765
677.092	0.0144966
677.170	0.0147195
677.248	0.0149351
677.326	0.0149442
677.405	0.0151009
677.483	0.0153061
677.561	0.0154903
677.639	0.0155859
677.717	0.0156988
677.795	0.0156861
677.873	0.0156541
677.951	0.0156836
678.030	0.0155756
678.108	0.0157242
678.186	0.0156401
678.264	0.0154813
678.342	0.0152161
678.420	0.0150932
678.498	0.0148524
678.576	0.0147305
678.655	0.0147473
678.733	0.0145207
678.811	0.0143507
678.889	0.0144059
678.967	0.0142379
679.045	0.0141257
679.123	0.0140115
679.201	0.0140677
679.280	0.0141079
679.358	0.0141797
679.436	0.0140694
679.514	0.0142051
679.592	0.0142686
679.670	0.0144100
679.748	0.0145156
679.826	0.0147272
679.905	0.0146904
679.983	0.0147912
680.061	0.0147916
680.139	0.0147575
680.217	0.0149661
680.295	0.0149242
680.373	0.0151243
680.451	0.0150186
680.530	0.0151746
680.608	0.0151141
680.686	0.0153164
680.764	0.0152180
680.842	0.0152235
680.920	0.0153348
680.998	0.0154138
681.076	0.0152564
681.155	0.0154067
681.233	0.0154108
681.311	0.0153944
681.389	0.0153642
681.467	0.0153467
681.545	0.0153725
681.623	0.0153019
681.701	0.0151997
681.780	0.0150378
681.858	0.0149719
681.936	0.0149656
682.014	0.0148335
682.092	0.0146304
682.170	0.0144490
682.248	0.0143947
682.326	0.0143738
682.405	0.0141747
682.483	0.0141575
682.561	0.0141670
682.639	0.0140437
682.717	0.0141067
682.795	0.0142164
682.873	0.0142065
682.951	0.0142802
683.030	0.0144415
683.108	0.0145422
683.186	0.0147540
683.264	0.0147686
683.342	0.0149738
683.420	0.0149915
683.498	0.0151016
683.576	0.0153522
683.655	0.0155637
683.733	0.0154911
683.811	0.0156266
683.889	0.0154885
683.967	0.0155147
684.045	0.0154778
684.123	0.0153622
684.201	0.0153400
684.280	0.0150842
684.358	0.0150325
684.436	0.0149290
684.514	0.0147531
684.592	0.0145548
684.670	0.0144481
684.748	0.0142375
684.826	0.0142298
684.905	0.0139951
684.983	0.0139085
685.061	0.0139295
685.139	0.0138717
685.217	0.0139632
685.295	0.0140698
685.373	0.0142199
685.451	0.0141045
685.530	0.0145289
685.608	0.0146496
685.686	0.0148710
685.764	0.0150077
685.842	0.0154282
685.920	0.0156682
685.998	0.0158144
686.076	0.0159169
686.155	0.0161950
686.233	0.0162598
686.311	0.0164205
686.389	0.0163535
686.467	0.0164335
686.545	0.0162606
686.623	0.0163021
686.701	0.0162055
686.780	0.0160438
686.858	0.0158958
686.936	0.0157812
687.014	0.0155635
687.092	0.0153082
687.170	0.0152436
687.248	0.0151229
687.326	0.0149359
687.405	0.0147681
687.483	0.0145240
687.561	0.0144643
687.639	0.0142907
687.717	0.0142661
687.795	0.0140567
687.873	0.0140672
687.951	0.0139336
688.030	0.0139307
688.108	0.0140089
688.186	0.0139028
688.264	0.0138174
688.342	0.0139307
688.420	0.0138466
688.498	0.0139561
688.576	0.0138804
688.655	0.0139513
688.733	0.0138580
688.811	0.0140108
688.889	0.0141386
688.967	0.0142277
689.045	0.0142833
689.123	0.0143672
689.201	0.0145306
689.280	0.0146790
689.358	0.0147651
689.436	0.0147557
689.514	0.0149458
689.592	0.0150634
689.670	0.0151536
689.748	0.0153527
689.826	0.0154536
689.905	0.0155189
689.983	0.0156143
690.061	0.0156586
690.139	0.0158282
690.217	0.0158847
690.295	0.0159272
690.373	0.0162458
690.451	0.0161272
690.530	0.0162503
690.608	0.0161161
690.686	0.0161959
690.764	0.0162007
690.842	0.0161071
690.920	0.0160954
690.998	0.0161436
691.076	0.0160756
691.155	0.0158851
691.233	0.0156579
691.311	0.0157092
691.389	0.0157192
691.467	0.0157946
691.545	0.0156936
691.623	0.0155181
691.701	0.0154601
691.780	0.0154539
691.858	0.0152859
691.936	0.0150722
692.014	0.0149559
692.092	0.0149076
692.170	0.0147067
692.248	0.0143633
692.326	0.0142188
692.405	0.0138314
692.483	0.0134983
692.561	0.0133398
692.639	0.0131359
692.717	0.0131329
692.795	0.0128445
692.873	0.0128559
692.951	0.0127378
693.030	0.0127833
693.108	0.0128490
693.186	0.0128710
693.264	0.0130765
693.342	0.0132280
693.420	0.0135363
693.498	0.0137190
693.576	0.0139251
693.655	0.0140569
693.733	0.0142225
693.811	0.0143871
693.889	0.0146815
693.967	0.0148714
694.045	0.0152032
694.123	0.0151881
694.201	0.0154608
694.280	0.0157260
694.358	0.0161302
694.436	0.0161215
694.514	0.0164450
694.592	0.0167576
694.670	0.0167471
694.748	0.0169710
694.826	0.0168832
694.905	0.0169215
694.983	0.0169812
695.061	0.0170950
695.139	0.0168572
695.217	0.0166557
695.295	0.0164935
695.373	0.0162109
695.451	0.0161017
695.530	0.0156245
695.608	0.0155514
695.686	0.0151855
695.764	0.0147540
695.842	0.0143491
695.920	0.0143398
695.998	0.0140751
696.076	0.0136268
696.155	0.0136041
696.233	0.0134299
696.311	0.0133902
696.389	0.0133397
696.467	0.0133218
696.545	0.0132029
696.623	0.0134480
696.701	0.0134389
696.780	0.0135668
696.858	0.0136408
696.936	0.0137273
697.014	0.0138318
697.092	0.0139991
697.170	0.0142235
697.248	0.0142465
697.326	0.0145092
697.405	0.0146342
697.483	0.0148265
697.561	0.0147401
697.639	0.0149484
697.717	0.0148815
697.795	0.0150203
697.873	0.0151018
697.951	0.0151179
698.030	0.0152947
698.108	0.0153152
698.186	0.0154296
698.264	0.0153000
698.342	0.0155428
698.420	0.0154775
698.498	0.0155471
698.576	0.0156445
698.655	0.0156446
698.733	0.0157800
698.811	0.0155985
698.889	0.0156327
698.967	0.0157377
699.045	0.0157502
699.123	0.0156894
699.201	0.0157738
699.280	0.0157224
699.358	0.0155804
699.436	0.0157136
699.514	0.0155946
699.592	0.0156661
699.670	0.0156539
699.748	0.0152404
699.826	0.0151606
699.905	0.0150876
699.983	0.0149039
700.061	0.0145422
700.139	0.0141908
700.217	0.0139396
700.295	0.0137901
700.373	0.0135871
700.451	0.0135380
700.530	0.0133694
700.608	0.0134092
700.686	0.0134090
700.764	0.0133726
700.842	0.0134835
700.920	0.0135951
700.998	0.0137217
701.076	0.0138109
701.155	0.0139828
701.233	0.0141798
701.311	0.0143889
701.389	0.0143674
701.467	0.0145818
701.545	0.0147076
701.623	0.0148135
701.701	0.0148031
701.780	0.0148399
701.858	0.0147599
701.936	0.0151505
702.014	0.0151360
702.092	0.0151438
702.170	0.0154855
702.248	0.0154459
702.326	0.0155884
702.405	0.0157740
702.483	0.0159746
702.561	0.0162143
702.639	0.0162336
702.717	0.0164986
702.795	0.0166179
702.873	0.0166701
702.951	0.0167027
703.030	0.0166034
703.108	0.0165031
703.186	0.0165479
703.264	0.0164102
703.342	0.0162179
703.420	0.0161121
703.498	0.0158405
703.576	0.0158211
703.655	0.0154977
703.733	0.0152550
703.811	0.0151566
703.889	0.0148498
703.967	0.0146722
704.045	0.0144043
704.123	0.0142007
704.201	0.0140656
704.280	0.0138741
704.358	0.0136628
704.436	0.0135711
704.514	0.0135661
704.592	0.0134613
704.670	0.0133251
704.748	0.0134634
704.826	0.0134933
704.905	0.0134991
704.983	0.0135515
705.061	0.0135750
705.139	0.0137886
705.217	0.0139980
705.295	0.0142670
705.373	0.0145758
705.451	0.0147952
705.530	0.0148491
705.608	0.0148730
705.686	0.0152998
705.764	0.0154170
705.842	0.0157214
705.920	0.0158105
705.998	0.0159608
706.076	0.0159544
706.155	0.0161355
706.233	0.0157908
706.311	0.0157898
706.389	0.0156699
706.467	0.0153085
706.545	0.0152982
706.623	0.0150472
706.701	0.0150230
706.780	0.0147330
706.858	0.0143951
706.936	0.0145252
707.014	0.0144275
707.092	0.0143379
707.170	0.0144873
707.248	0.0145763
707.326	0.0145564
707.405	0.0146277
707.483	0.0147210
707.561	0.0147930
707.639	0.0148527
707.717	0.0149853
707.795	0.0150814
707.873	0.0151050
707.951	0.0152142
708.030	0.0152510
708.108	0.0152189
708.186	0.0153043
708.264	0.0153537
708.342	0.0154354
708.420	0.0154687
708.498	0.0153757
708.576	0.0154488
708.655	0.0155331
708.733	0.0153835
708.811	0.0155814
708.889	0.0155759
708.967	0.0156459
709.045	0.0154804
709.123	0.0154880
709.201	0.0156081
709.280	0.0156490
709.358	0.0155430
709.436	0.0154391
709.514	0.0152858
709.592	0.0152977
709.670	0.0152636
709.748	0.0149715
709.826	0.0149406
709.905	0.0146894
709.983	0.0144173
710.061	0.0141953
710.139	0.0140306
710.217	0.0137479
710.295	0.0136043
710.373	0.0135792
710.451	0.0136393
710.530	0.0135779
710.608	0.0135339
710.686	0.0135999
710.764	0.0138193
710.842	0.0138616
710.920	0.0141045
710.998	0.0142857
711.076	0.0144804
711.155	0.0145294
711.233	0.0147603
711.311	0.0151328
711.389	0.0150670
711.467	0.0151675
711.545	0.0154082
711.623	0.0155679
711.701	0.0156540
711.780	0.0157549
711.858	0.0158676
711.936	0.0158919
712.014	0.0159669
712.092	0.0160441
712.170	0.0158224
712.248	0.0159492
712.326	0.0159637
712.405	0.0159413
712.483	0.0157689
712.561	0.0158154
712.639	0.0158008
712.717	0.0157142
712.795	0.0155977
712.873	0.0154127
712.951	0.0155096
713.030	0.0153823
713.108	0.0153142
713.186	0.0152732
713.264	0.0150758
713.342	0.0151440
713.420	0.0149786
713.498	0.0148450
713.576	0.0148170
713.655	0.0147559
713.733	0.0145409
713.811	0.0143618
713.889	0.0142246
713.967	0.0143571
714.045	0.0142247
714.123	0.0140384
714.201	0.0138876
714.280	0.0136844
714.358	0.0137602
714.436	0.0136552
714.514	0.0135456
714.592	0.0135406
714.670	0.0134462
714.748	0.0135368
714.826	0.0137125
714.905	0.0139359
714.983	0.0140511
715.061	0.0143921
715.139	0.0144493
715.217	0.0148658
715.295	0.0152325
715.373	0.0153146
715.451	0.0153389
715.530	0.0156585
715.608	0.0157812
715.686	0.0158339
715.764	0.0159449
715.842	0.0160881
715.920	0.0160767
715.998	0.0159440
716.076	0.0158482
716.155	0.0157583
716.233	0.0157745
716.311	0.0157813
716.389	0.0155775
716.467	0.0154711
716.545	0.0155341
716.623	0.0154572
716.701	0.0153561
716.780	0.0154356
716.858	0.0153009
716.936	0.0152275
717.014	0.0151173
717.092	0.0150981
717.170	0.0150484
717.248	0.0147726
717.326	0.0145992
717.405	0.0146268
717.483	0.0144900
717.561	0.0142588
717.639	0.0140740
717.717	0.0141736
717.795	0.0142184
717.873	0.0141203
717.951	0.0139342
718.030	0.0141309
718.108	0.0141349
718.186	0.0143218
718.264	0.0143405
718.342	0.0142813
718.420	0.0144968
718.498	0.0145773
718.576	0.0145055
718.655	0.0145900
718.733	0.0145387
718.811	0.0145071
718.889	0.0145246
718.967	0.0144717
719.045	0.0146592
719.123	0.0146516
719.201	0.0144886
719.280	0.0147446
719.358	0.0147187
719.436	0.0149235
719.514	0.0149997
719.592	0.0152001
719.670	0.0151356
719.748	0.0150509
719.826	0.0151447
719.905	0.0150700
719.983	0.0150180
720.061	0.0151725
720.139	0.0148796
720.217	0.0148635
720.295	0.0148337
720.373	0.0149618
720.451	0.0149880
720.530	0.0150396
720.608	0.0149509
720.686	0.0151756
720.764	0.0151065
720.842	0.0150663
720.920	0.0152602
720.998	0.0152859
721.076	0.0153262
721.155	0.0154611
721.233	0.0153564
721.311	0.0154677
721.389	0.0155183
721.467	0.0154303
721.545	0.0151996
721.623	0.0154004
721.701	0.0153990
721.780	0.0152711
721.858	0.0153108
721.936	0.0151448
722.014	0.0151623
722.092	0.0151281
722.170	0.0153286
722.248	0.0150257
722.326	0.0149796
722.405	0.0150245
722.483	0.0149622
722.561	0.0147422
722.639	0.0148062
722.717	0.0146172
722.795	0.0144849
722.873	0.0145189
722.951	0.0143764
723.030	0.0141759
723.108	0.0141418
723.186	0.0141040
723.264	0.0141087
723.342	0.0140804
723.420	0.0140661
723.498	0.0141082
723.576	0.0141846
723.655	0.0141804
723.733	0.0140974
723.811	0.0141712
723.889	0.0142735
723.967	0.0142736
724.045	0.0143214
724.123	0.0146279
724.201	0.0144693
724.280	0.0145862
724.358	0.0145525
724.436	0.0148630
724.514	0.0149405
724.592	0.0150510
724.670	0.0149730
724.748	0.0151121
724.826	0.0152357
724.905	0.0152340
724.983	0.0152566
725.061	0.0152302
725.139	0.0151070
725.217	0.0152468
725.295	0.0153026
725.373	0.0150471
725.451	0.0149329
725.530	0.0151147
725.608	0.0151646
725.686	0.0150842
