05/20/2022	16:31:32	Ver.	4.1	UNKNOWN
Optical Delay	639.982744	Delta X		0.078125	Sweeps	1	Scan Rate	0/0
Coordinates	Axis 1	NaN	Axis 2	NaN	Axis 3	NaN	Axis 4	NaN	Axis 5	NaN	Axis 6	0.000000
TX Power	0.000000	RX Power	0.000000

639.983	0.0148393
640.061	0.0148952
640.139	0.0148996
640.217	0.0147590
640.295	0.0147570
640.373	0.0147738
640.451	0.0149001
640.530	0.0147701
640.608	0.0149126
640.686	0.0148753
640.764	0.0147575
640.842	0.0148768
640.920	0.0147429
640.998	0.0148196
641.076	0.0147428
641.155	0.0148162
641.233	0.0148383
641.311	0.0148043
641.389	0.0149964
641.467	0.0149104
641.545	0.0147953
641.623	0.0149090
641.701	0.0149118
641.780	0.0149564
641.858	0.0149448
641.936	0.0149062
642.014	0.0148010
642.092	0.0149086
642.170	0.0149504
642.248	0.0148948
642.326	0.0149818
642.405	0.0150217
642.483	0.0148949
642.561	0.0149802
642.639	0.0149242
642.717	0.0150386
642.795	0.0151198
642.873	0.0149998
642.951	0.0149750
643.030	0.0149799
643.108	0.0151186
643.186	0.0150517
643.264	0.0148621
643.342	0.0149342
643.420	0.0149833
643.498	0.0149181
643.576	0.0149403
643.655	0.0150181
643.733	0.0147583
643.811	0.0148640
643.889	0.0149064
643.967	0.0148287
644.045	0.0148483
644.123	0.0148193
644.201	0.0148280
644.280	0.0147910
644.358	0.0148364
644.436	0.0149438
644.514	0.0147506
644.592	0.0149238
644.670	0.0148708
644.748	0.0148501
644.826	0.0147687
644.905	0.0148912
644.983	0.0149185
645.061	0.0150124
645.139	0.0149471
645.217	0.0150046
645.295	0.0149284
645.373	0.0149918
645.451	0.0149569
645.530	0.0149469
645.608	0.0151297
645.686	0.0148869
645.764	0.0149647
645.842	0.0150257
645.920	0.0149712
645.998	0.0149226
646.076	0.0148901
646.155	0.0150021
646.233	0.0149260
646.311	0.0148779
646.389	0.0148386
646.467	0.0149768
646.545	0.0148285
646.623	0.0149625
646.701	0.0148193
646.780	0.0148548
646.858	0.0148838
646.936	0.0150124
647.014	0.0149410
647.092	0.0148399
647.170	0.0149268
647.248	0.0149872
647.326	0.0148602
647.405	0.0148834
647.483	0.0150201
647.561	0.0148808
647.639	0.0149306
647.717	0.0149094
647.795	0.0150696
647.873	0.0149103
647.951	0.0149786
648.030	0.0149279
648.108	0.0149032
648.186	0.0148987
648.264	0.0148679
648.342	0.0149641
648.420	0.0149286
648.498	0.0148314
648.576	0.0148303
648.655	0.0148936
648.733	0.0148856
648.811	0.0149850
648.889	0.0149435
648.967	0.0149426
649.045	0.0149163
649.123	0.0148627
649.201	0.0149289
649.280	0.0147926
649.358	0.0148809
649.436	0.0149459
649.514	0.0149993
649.592	0.0148305
649.670	0.0149817
649.748	0.0149330
649.826	0.0149332
649.905	0.0147795
649.983	0.0149728
650.061	0.0150156
650.139	0.0150044
650.217	0.0149789
650.295	0.0149945
650.373	0.0149157
650.451	0.0149359
650.530	0.0150105
650.608	0.0148499
650.686	0.0148406
650.764	0.0148335
650.842	0.0149229
650.920	0.0148725
650.998	0.0148228
651.076	0.0149683
651.155	0.0149352
651.233	0.0148995
651.311	0.0147951
651.389	0.0148478
651.467	0.0147472
651.545	0.0148756
651.623	0.0148485
651.701	0.0147896
651.780	0.0147469
651.858	0.0148262
651.936	0.0148605
652.014	0.0149148
652.092	0.0147920
652.170	0.0147966
652.248	0.0149601
652.326	0.0148503
652.405	0.0148428
652.483	0.0149608
652.561	0.0149230
652.639	0.0149099
652.717	0.0149546
652.795	0.0149946
652.873	0.0148828
652.951	0.0149187
653.030	0.0148943
653.108	0.0150121
653.186	0.0149660
653.264	0.0148154
653.342	0.0150031
653.420	0.0148625
653.498	0.0148553
653.576	0.0148273
653.655	0.0147337
653.733	0.0148933
653.811	0.0148276
653.889	0.0148730
653.967	0.0146739
654.045	0.0147400
654.123	0.0148958
654.201	0.0149168
654.280	0.0150875
654.358	0.0148625
654.436	0.0147958
654.514	0.0150182
654.592	0.0149168
654.670	0.0148891
654.748	0.0149995
654.826	0.0149858
654.905	0.0148584
654.983	0.0148849
655.061	0.0149665
655.139	0.0148479
655.217	0.0148415
655.295	0.0147787
655.373	0.0149200
655.451	0.0149186
655.530	0.0147658
655.608	0.0148416
655.686	0.0148659
655.764	0.0147415
655.842	0.0148904
655.920	0.0149625
655.998	0.0148054
656.076	0.0148580
656.155	0.0148262
656.233	0.0148666
656.311	0.0149717
656.389	0.0147970
656.467	0.0149226
656.545	0.0148561
656.623	0.0147990
656.701	0.0147018
656.780	0.0148244
656.858	0.0148251
656.936	0.0147686
657.014	0.0148493
657.092	0.0148427
657.170	0.0147592
657.248	0.0148135
657.326	0.0149001
657.405	0.0149399
657.483	0.0148613
657.561	0.0147560
657.639	0.0148901
657.717	0.0148228
657.795	0.0148470
657.873	0.0148090
657.951	0.0146735
658.030	0.0148763
658.108	0.0148441
658.186	0.0146642
658.264	0.0148403
658.342	0.0147487
658.420	0.0147247
658.498	0.0149078
658.576	0.0148060
658.655	0.0147546
658.733	0.0148267
658.811	0.0148934
658.889	0.0148283
658.967	0.0150359
659.045	0.0149401
659.123	0.0150456
659.201	0.0148783
659.280	0.0148260
659.358	0.0149646
659.436	0.0149051
659.514	0.0148502
659.592	0.0147264
659.670	0.0148582
659.748	0.0148293
659.826	0.0148512
659.905	0.0147766
659.983	0.0147020
660.061	0.0148457
660.139	0.0148498
660.217	0.0149448
660.295	0.0148512
660.373	0.0148559
660.451	0.0150120
660.530	0.0150314
660.608	0.0148926
660.686	0.0149638
660.764	0.0149308
660.842	0.0150258
660.920	0.0149497
660.998	0.0150458
661.076	0.0149467
661.155	0.0149435
661.233	0.0149760
661.311	0.0149898
661.389	0.0149702
661.467	0.0149761
661.545	0.0149901
661.623	0.0149971
661.701	0.0148567
661.780	0.0148987
661.858	0.0148542
661.936	0.0149905
662.014	0.0149387
662.092	0.0148109
662.170	0.0149191
662.248	0.0149416
662.326	0.0150174
662.405	0.0149617
662.483	0.0149959
662.561	0.0150727
662.639	0.0151313
662.717	0.0151850
662.795	0.0151955
662.873	0.0151283
662.951	0.0151117
663.030	0.0150624
663.108	0.0148925
663.186	0.0150029
663.264	0.0150342
663.342	0.0149059
663.420	0.0149447
663.498	0.0149590
663.576	0.0147878
663.655	0.0147881
663.733	0.0148275
663.811	0.0149519
663.889	0.0149842
663.967	0.0147874
664.045	0.0148598
664.123	0.0149491
664.201	0.0149134
664.280	0.0149666
664.358	0.0149744
664.436	0.0150303
664.514	0.0149712
664.592	0.0149986
664.670	0.0150076
664.748	0.0149580
664.826	0.0149258
664.905	0.0149671
664.983	0.0150294
665.061	0.0150049
665.139	0.0149258
665.217	0.0150832
665.295	0.0149387
665.373	0.0149244
665.451	0.0150767
665.530	0.0149999
665.608	0.0149923
665.686	0.0150394
665.764	0.0149297
665.842	0.0148753
665.920	0.0149030
665.998	0.0149949
666.076	0.0150699
666.155	0.0149187
666.233	0.0149857
666.311	0.0149440
666.389	0.0149049
666.467	0.0147630
666.545	0.0148955
666.623	0.0150214
666.701	0.0149530
666.780	0.0150187
666.858	0.0148674
666.936	0.0148467
667.014	0.0149943
667.092	0.0149102
667.170	0.0150852
667.248	0.0150204
667.326	0.0149359
667.405	0.0151336
667.483	0.0151509
667.561	0.0149896
667.639	0.0150738
667.717	0.0151218
667.795	0.0149902
667.873	0.0149871
667.951	0.0150292
668.030	0.0150255
668.108	0.0149608
668.186	0.0149332
668.264	0.0149839
668.342	0.0148873
668.420	0.0148615
668.498	0.0149053
668.576	0.0147769
668.655	0.0147978
668.733	0.0148638
668.811	0.0148180
668.889	0.0146957
668.967	0.0147443
669.045	0.0147083
669.123	0.0148029
669.201	0.0147587
669.280	0.0148742
669.358	0.0148190
669.436	0.0148548
669.514	0.0148154
669.592	0.0149318
669.670	0.0149804
669.748	0.0149724
669.826	0.0149660
669.905	0.0149211
669.983	0.0148640
670.061	0.0150716
670.139	0.0149498
670.217	0.0149252
670.295	0.0149720
670.373	0.0149563
670.451	0.0150146
670.530	0.0149185
670.608	0.0149071
670.686	0.0149564
670.764	0.0147857
670.842	0.0149403
670.920	0.0149495
670.998	0.0149751
671.076	0.0149861
671.155	0.0148174
671.233	0.0148856
671.311	0.0149689
671.389	0.0148851
671.467	0.0148167
671.545	0.0149027
671.623	0.0149196
671.701	0.0147293
671.780	0.0147762
671.858	0.0147182
671.936	0.0147983
672.014	0.0147768
672.092	0.0147259
672.170	0.0148598
672.248	0.0147189
672.326	0.0147275
672.405	0.0147800
672.483	0.0148768
672.561	0.0148235
672.639	0.0148299
672.717	0.0150196
672.795	0.0150217
672.873	0.0150861
672.951	0.0151695
673.030	0.0151201
673.108	0.0150449
673.186	0.0151402
673.264	0.0151968
673.342	0.0151424
673.420	0.0150604
673.498	0.0151418
673.576	0.0150045
673.655	0.0150757
673.733	0.0147913
673.811	0.0148904
673.889	0.0148892
673.967	0.0146926
674.045	0.0145172
674.123	0.0146197
674.201	0.0146770
674.280	0.0144881
674.358	0.0144061
674.436	0.0142681
674.514	0.0142573
674.592	0.0143858
674.670	0.0143428
674.748	0.0142908
674.826	0.0145489
674.905	0.0144897
674.983	0.0145467
675.061	0.0147510
675.139	0.0147591
675.217	0.0151646
675.295	0.0150013
675.373	0.0151994
675.451	0.0153473
675.530	0.0154263
675.608	0.0156008
675.686	0.0157426
675.764	0.0156741
675.842	0.0156911
675.920	0.0156747
675.998	0.0157104
676.076	0.0156377
676.155	0.0155738
676.233	0.0155392
676.311	0.0154583
676.389	0.0151652
676.467	0.0151283
676.545	0.0149819
676.623	0.0149181
676.701	0.0147411
676.780	0.0145258
676.858	0.0144167
676.936	0.0144519
677.014	0.0143385
677.092	0.0141946
677.170	0.0142512
677.248	0.0142493
677.326	0.0141708
677.405	0.0142382
677.483	0.0143614
677.561	0.0142339
677.639	0.0143946
677.717	0.0144044
677.795	0.0144016
677.873	0.0148167
677.951	0.0147760
678.030	0.0148425
678.108	0.0150468
678.186	0.0152374
678.264	0.0152052
678.342	0.0152964
678.420	0.0154702
678.498	0.0155933
678.576	0.0156506
678.655	0.0157386
678.733	0.0157529
678.811	0.0157902
678.889	0.0156709
678.967	0.0156563
679.045	0.0157797
679.123	0.0158142
679.201	0.0156828
679.280	0.0155719
679.358	0.0153532
679.436	0.0153694
679.514	0.0153081
679.592	0.0151762
679.670	0.0151674
679.748	0.0151906
679.826	0.0147123
679.905	0.0148903
679.983	0.0147990
680.061	0.0146096
680.139	0.0146262
680.217	0.0145509
680.295	0.0143817
680.373	0.0143913
680.451	0.0143305
680.530	0.0143192
680.608	0.0144036
680.686	0.0144077
680.764	0.0143331
680.842	0.0142893
680.920	0.0141949
680.998	0.0144495
681.076	0.0146721
681.155	0.0146750
681.233	0.0146112
681.311	0.0149466
681.389	0.0148642
681.467	0.0149836
681.545	0.0152509
681.623	0.0152802
681.701	0.0152546
681.780	0.0153262
681.858	0.0153458
681.936	0.0153309
682.014	0.0155482
682.092	0.0155000
682.170	0.0153701
682.248	0.0154742
682.326	0.0153768
682.405	0.0153169
682.483	0.0153981
682.561	0.0153234
682.639	0.0153710
682.717	0.0153123
682.795	0.0152036
682.873	0.0151384
682.951	0.0151691
683.030	0.0149903
683.108	0.0150066
683.186	0.0149104
683.264	0.0147821
683.342	0.0148420
683.420	0.0147667
683.498	0.0147697
683.576	0.0145444
683.655	0.0147817
683.733	0.0147151
683.811	0.0146529
683.889	0.0145956
683.967	0.0145525
684.045	0.0145697
684.123	0.0144631
684.201	0.0145686
684.280	0.0145222
684.358	0.0147264
684.436	0.0146468
684.514	0.0146785
684.592	0.0145142
684.670	0.0147295
684.748	0.0146983
684.826	0.0148399
684.905	0.0149252
684.983	0.0150327
685.061	0.0152905
685.139	0.0152483
685.217	0.0153164
685.295	0.0155680
685.373	0.0155385
685.451	0.0154789
685.530	0.0154757
685.608	0.0155324
685.686	0.0154894
685.764	0.0154680
685.842	0.0154564
685.920	0.0153306
685.998	0.0152094
686.076	0.0150896
686.155	0.0150539
686.233	0.0149628
686.311	0.0148111
686.389	0.0145019
686.467	0.0145153
686.545	0.0143939
686.623	0.0142989
686.701	0.0140406
686.780	0.0139474
686.858	0.0139231
686.936	0.0140308
687.014	0.0140014
687.092	0.0138663
687.170	0.0139023
687.248	0.0141669
687.326	0.0143568
687.405	0.0144686
687.483	0.0148262
687.561	0.0149629
687.639	0.0151292
687.717	0.0153738
687.795	0.0152739
687.873	0.0155168
687.951	0.0158692
688.030	0.0155643
688.108	0.0155842
688.186	0.0156877
688.264	0.0156318
688.342	0.0157000
688.420	0.0157108
688.498	0.0154538
688.576	0.0153947
688.655	0.0154669
688.733	0.0154154
688.811	0.0153685
688.889	0.0155930
688.967	0.0156264
689.045	0.0155154
689.123	0.0156924
689.201	0.0155897
689.280	0.0157543
689.358	0.0156275
689.436	0.0156548
689.514	0.0155836
689.592	0.0157005
689.670	0.0154191
689.748	0.0153325
689.826	0.0152990
689.905	0.0151631
689.983	0.0151475
690.061	0.0149171
690.139	0.0149580
690.217	0.0148345
690.295	0.0147031
690.373	0.0146571
690.451	0.0146232
690.530	0.0146686
690.608	0.0146528
690.686	0.0146720
690.764	0.0145963
690.842	0.0145682
690.920	0.0146507
690.998	0.0145801
691.076	0.0146662
691.155	0.0145031
691.233	0.0143677
691.311	0.0140919
691.389	0.0140052
691.467	0.0140575
691.545	0.0140202
691.623	0.0137408
691.701	0.0138486
691.780	0.0137775
691.858	0.0137003
691.936	0.0135144
692.014	0.0135347
692.092	0.0134579
692.170	0.0135403
692.248	0.0135310
692.326	0.0137186
692.405	0.0138798
692.483	0.0138557
692.561	0.0141584
692.639	0.0141405
692.717	0.0145236
692.795	0.0147259
692.873	0.0148236
692.951	0.0152330
693.030	0.0154344
693.108	0.0158684
693.186	0.0161363
693.264	0.0164209
693.342	0.0165842
693.420	0.0170306
693.498	0.0172045
693.576	0.0173631
693.655	0.0175299
693.733	0.0175328
693.811	0.0175726
693.889	0.0175852
693.967	0.0175905
694.045	0.0173661
694.123	0.0172868
694.201	0.0170503
694.280	0.0166978
694.358	0.0166115
694.436	0.0162289
694.514	0.0158211
694.592	0.0155167
694.670	0.0152341
694.748	0.0149001
694.826	0.0145888
694.905	0.0142713
694.983	0.0137595
695.061	0.0135102
695.139	0.0132544
695.217	0.0129183
695.295	0.0126088
695.373	0.0122424
695.451	0.0120771
695.530	0.0117992
695.608	0.0115244
695.686	0.0115059
695.764	0.0116255
695.842	0.0115504
695.920	0.0117255
695.998	0.0121321
696.076	0.0123010
696.155	0.0126329
696.233	0.0130664
696.311	0.0134957
696.389	0.0141124
696.467	0.0146105
696.545	0.0151855
696.623	0.0158192
696.701	0.0161881
696.780	0.0167716
696.858	0.0171817
696.936	0.0173911
697.014	0.0177635
697.092	0.0178654
697.170	0.0181139
697.248	0.0180002
697.326	0.0179381
697.405	0.0176814
697.483	0.0175193
697.561	0.0171535
697.639	0.0166746
697.717	0.0162858
697.795	0.0159151
697.873	0.0153776
697.951	0.0149564
698.030	0.0146288
698.108	0.0141560
698.186	0.0138029
698.264	0.0137285
698.342	0.0135162
698.420	0.0134266
698.498	0.0134973
698.576	0.0134898
698.655	0.0136152
698.733	0.0137197
698.811	0.0139399
698.889	0.0141707
698.967	0.0142887
699.045	0.0143630
699.123	0.0145220
699.201	0.0147893
699.280	0.0148153
699.358	0.0148320
699.436	0.0150393
699.514	0.0149651
699.592	0.0149622
699.670	0.0151382
699.748	0.0151248
699.826	0.0150957
699.905	0.0151655
699.983	0.0151726
700.061	0.0152022
700.139	0.0153641
700.217	0.0151105
700.295	0.0152254
700.373	0.0154296
700.451	0.0151702
700.530	0.0150307
700.608	0.0151892
700.686	0.0151356
700.764	0.0150636
700.842	0.0149639
700.920	0.0149018
700.998	0.0149052
701.076	0.0147720
701.155	0.0147094
701.233	0.0148105
701.311	0.0146707
701.389	0.0147415
701.467	0.0148735
701.545	0.0146651
701.623	0.0147992
701.701	0.0148400
701.780	0.0149023
701.858	0.0148486
701.936	0.0147311
702.014	0.0147406
702.092	0.0147586
702.170	0.0146506
702.248	0.0148104
702.326	0.0148650
702.405	0.0147646
702.483	0.0148334
702.561	0.0149726
702.639	0.0150037
702.717	0.0150993
702.795	0.0150570
702.873	0.0151857
702.951	0.0152295
703.030	0.0152394
703.108	0.0152507
703.186	0.0152493
703.264	0.0150381
703.342	0.0151038
703.420	0.0151357
703.498	0.0149278
703.576	0.0149080
703.655	0.0148310
703.733	0.0145329
703.811	0.0145798
703.889	0.0144333
703.967	0.0142115
704.045	0.0142632
704.123	0.0140578
704.201	0.0140578
704.280	0.0141092
704.358	0.0139574
704.436	0.0141177
704.514	0.0141750
704.592	0.0141780
704.670	0.0143803
704.748	0.0144882
704.826	0.0146835
704.905	0.0145860
704.983	0.0147636
705.061	0.0149345
705.139	0.0150196
705.217	0.0151621
705.295	0.0153502
705.373	0.0152266
705.451	0.0152882
705.530	0.0153899
705.608	0.0153232
705.686	0.0153748
705.764	0.0153182
705.842	0.0153857
705.920	0.0154360
705.998	0.0156049
706.076	0.0155024
706.155	0.0155627
706.233	0.0155090
706.311	0.0156341
706.389	0.0154642
706.467	0.0155344
706.545	0.0155659
706.623	0.0153777
706.701	0.0154326
706.780	0.0153234
706.858	0.0153859
706.936	0.0154461
707.014	0.0153938
707.092	0.0154221
707.170	0.0152596
707.248	0.0153375
707.326	0.0154634
707.405	0.0152055
707.483	0.0152261
707.561	0.0150697
707.639	0.0148316
707.717	0.0147760
707.795	0.0146220
707.873	0.0143695
707.951	0.0140375
708.030	0.0139252
708.108	0.0138467
708.186	0.0137406
708.264	0.0135769
708.342	0.0134785
708.420	0.0135781
708.498	0.0136282
708.576	0.0135448
708.655	0.0137476
708.733	0.0136723
708.811	0.0139371
708.889	0.0141110
708.967	0.0142541
709.045	0.0143868
709.123	0.0145634
709.201	0.0148046
709.280	0.0149034
709.358	0.0151076
709.436	0.0152654
709.514	0.0153444
709.592	0.0155337
709.670	0.0155249
709.748	0.0158549
709.826	0.0158437
709.905	0.0158491
709.983	0.0158989
710.061	0.0158765
710.139	0.0159678
710.217	0.0159285
710.295	0.0157464
710.373	0.0158009
710.451	0.0157853
710.530	0.0155947
710.608	0.0156197
710.686	0.0152914
710.764	0.0152079
710.842	0.0151077
710.920	0.0149850
710.998	0.0149788
711.076	0.0149897
711.155	0.0148241
711.233	0.0148148
711.311	0.0148579
711.389	0.0147263
711.467	0.0148489
711.545	0.0147491
711.623	0.0148308
711.701	0.0148862
711.780	0.0148218
711.858	0.0149003
711.936	0.0147520
712.014	0.0147871
712.092	0.0148207
712.170	0.0147530
712.248	0.0146188
712.326	0.0145596
712.405	0.0145697
712.483	0.0145351
712.561	0.0145358
712.639	0.0145567
712.717	0.0145506
712.795	0.0146794
712.873	0.0146754
712.951	0.0145622
713.030	0.0145834
713.108	0.0145027
713.186	0.0146666
713.264	0.0146142
713.342	0.0145572
713.420	0.0146793
713.498	0.0147607
713.576	0.0148656
713.655	0.0147134
713.733	0.0148196
713.811	0.0148428
713.889	0.0148611
713.967	0.0150214
714.045	0.0151133
714.123	0.0150831
714.201	0.0150432
714.280	0.0150851
714.358	0.0150934
714.436	0.0150569
714.514	0.0150642
714.592	0.0151344
714.670	0.0149758
714.748	0.0149409
714.826	0.0150024
714.905	0.0148318
714.983	0.0148600
715.061	0.0150606
715.139	0.0148372
715.217	0.0149271
715.295	0.0149484
715.373	0.0149408
715.451	0.0149781
715.530	0.0150503
715.608	0.0150195
715.686	0.0149290
715.764	0.0150619
715.842	0.0149364
715.920	0.0149439
715.998	0.0148904
716.076	0.0148944
716.155	0.0148359
716.233	0.0148969
716.311	0.0148925
716.389	0.0149271
716.467	0.0150678
716.545	0.0150182
716.623	0.0150409
716.701	0.0151943
716.780	0.0153321
716.858	0.0153151
716.936	0.0152811
717.014	0.0154135
717.092	0.0155331
717.170	0.0154494
717.248	0.0154177
717.326	0.0153379
717.405	0.0154034
717.483	0.0153087
717.561	0.0150833
717.639	0.0150529
717.717	0.0149379
717.795	0.0147943
717.873	0.0146492
717.951	0.0146069
718.030	0.0145134
718.108	0.0143051
718.186	0.0143685
718.264	0.0141666
718.342	0.0141690
718.420	0.0141789
718.498	0.0143095
718.576	0.0140453
718.655	0.0141738
718.733	0.0142698
718.811	0.0141888
718.889	0.0142458
718.967	0.0142054
719.045	0.0143044
719.123	0.0143285
719.201	0.0145139
719.280	0.0144453
719.358	0.0145864
719.436	0.0147563
719.514	0.0147231
719.592	0.0150490
719.670	0.0152251
719.748	0.0152583
719.826	0.0154530
719.905	0.0154768
719.983	0.0156078
720.061	0.0154530
720.139	0.0154170
720.217	0.0157570
720.295	0.0157138
720.373	0.0157200
720.451	0.0156576
720.530	0.0155598
720.608	0.0156129
720.686	0.0156202
720.764	0.0155472
720.842	0.0154787
720.920	0.0153301
720.998	0.0151878
721.076	0.0152338
721.155	0.0151746
721.233	0.0151904
721.311	0.0151254
721.389	0.0150690
721.467	0.0150795
721.545	0.0149799
721.623	0.0150140
721.701	0.0148717
721.780	0.0149791
721.858	0.0151093
721.936	0.0150660
722.014	0.0150413
722.092	0.0149464
722.170	0.0150087
722.248	0.0149438
722.326	0.0147156
722.405	0.0148491
722.483	0.0147954
722.561	0.0149039
722.639	0.0147373
722.717	0.0144583
722.795	0.0143589
722.873	0.0145001
722.951	0.0145126
723.030	0.0143446
723.108	0.0143016
723.186	0.0142268
723.264	0.0142670
723.342	0.0142766
723.420	0.0142229
723.498	0.0141885
723.576	0.0141488
723.655	0.0144112
723.733	0.0143204
723.811	0.0144118
723.889	0.0144260
723.967	0.0146198
724.045	0.0146200
724.123	0.0146459
724.201	0.0148280
724.280	0.0148735
724.358	0.0149684
724.436	0.0151523
724.514	0.0151224
724.592	0.0151791
724.670	0.0153930
724.748	0.0153461
724.826	0.0154360
724.905	0.0153542
724.983	0.0152142
725.061	0.0154018
725.139	0.0151507
725.217	0.0151820
725.295	0.0151640
725.373	0.0149673
725.451	0.0150077
725.530	0.0149174
725.608	0.0147611
725.686	0.0150163
