05/20/2022	16:44:13	Ver.	4.1	UNKNOWN
Optical Delay	639.982744	Delta X		0.078125	Sweeps	1	Scan Rate	0/0
Coordinates	Axis 1	NaN	Axis 2	NaN	Axis 3	NaN	Axis 4	NaN	Axis 5	NaN	Axis 6	0.000000
TX Power	0.000000	RX Power	0.000000

639.983	0.0148815
640.061	0.0149992
640.139	0.0149290
640.217	0.0150245
640.295	0.0150125
640.373	0.0148796
640.451	0.0151069
640.530	0.0150636
640.608	0.0151306
640.686	0.0152294
640.764	0.0151413
640.842	0.0150907
640.920	0.0151718
640.998	0.0151092
641.076	0.0149938
641.155	0.0151379
641.233	0.0150668
641.311	0.0150769
641.389	0.0151573
641.467	0.0150480
641.545	0.0151747
641.623	0.0152624
641.701	0.0154027
641.780	0.0152357
641.858	0.0151838
641.936	0.0151319
642.014	0.0152769
642.092	0.0153220
642.170	0.0153625
642.248	0.0152122
642.326	0.0150834
642.405	0.0150818
642.483	0.0153102
642.561	0.0150835
642.639	0.0151315
642.717	0.0152390
642.795	0.0151136
642.873	0.0151215
642.951	0.0151477
643.030	0.0151224
643.108	0.0150955
643.186	0.0149055
643.264	0.0150207
643.342	0.0150687
643.420	0.0150460
643.498	0.0151469
643.576	0.0151846
643.655	0.0150199
643.733	0.0149792
643.811	0.0150346
643.889	0.0150879
643.967	0.0150156
644.045	0.0150172
644.123	0.0151283
644.201	0.0150780
644.280	0.0150000
644.358	0.0150546
644.436	0.0149392
644.514	0.0150549
644.592	0.0150072
644.670	0.0149606
644.748	0.0149033
644.826	0.0149045
644.905	0.0148817
644.983	0.0149084
645.061	0.0150021
645.139	0.0149268
645.217	0.0149494
645.295	0.0148793
645.373	0.0147981
645.451	0.0148737
645.530	0.0147621
645.608	0.0150029
645.686	0.0149658
645.764	0.0149685
645.842	0.0150083
645.920	0.0149892
645.998	0.0150333
646.076	0.0150878
646.155	0.0148598
646.233	0.0148868
646.311	0.0149666
646.389	0.0150533
646.467	0.0148075
646.545	0.0148312
646.623	0.0148880
646.701	0.0148017
646.780	0.0146230
646.858	0.0146492
646.936	0.0147417
647.014	0.0146388
647.092	0.0147083
647.170	0.0147971
647.248	0.0147290
647.326	0.0147197
647.405	0.0146532
647.483	0.0147295
647.561	0.0147808
647.639	0.0146722
647.717	0.0147998
647.795	0.0146957
647.873	0.0147682
647.951	0.0147555
648.030	0.0146526
648.108	0.0146954
648.186	0.0147460
648.264	0.0146618
648.342	0.0147548
648.420	0.0148545
648.498	0.0147723
648.576	0.0146632
648.655	0.0147848
648.733	0.0146940
648.811	0.0146991
648.889	0.0147295
648.967	0.0147103
649.045	0.0146001
649.123	0.0147004
649.201	0.0145940
649.280	0.0144512
649.358	0.0145746
649.436	0.0148151
649.514	0.0146140
649.592	0.0146412
649.670	0.0148431
649.748	0.0146981
649.826	0.0146312
649.905	0.0146129
649.983	0.0148838
650.061	0.0148511
650.139	0.0147773
650.217	0.0145403
650.295	0.0146275
650.373	0.0146757
650.451	0.0148363
650.530	0.0146552
650.608	0.0146663
650.686	0.0148100
650.764	0.0148322
650.842	0.0146846
650.920	0.0147082
650.998	0.0147199
651.076	0.0147920
651.155	0.0147406
651.233	0.0147222
651.311	0.0147557
651.389	0.0147569
651.467	0.0147296
651.545	0.0146711
651.623	0.0148451
651.701	0.0146179
651.780	0.0148309
651.858	0.0148199
651.936	0.0147346
652.014	0.0148532
652.092	0.0146479
652.170	0.0148701
652.248	0.0146867
652.326	0.0146845
652.405	0.0148208
652.483	0.0147782
652.561	0.0147572
652.639	0.0148628
652.717	0.0147878
652.795	0.0147146
652.873	0.0147713
652.951	0.0148394
653.030	0.0148487
653.108	0.0148080
653.186	0.0149666
653.264	0.0146644
653.342	0.0147017
653.420	0.0148585
653.498	0.0148344
653.576	0.0147346
653.655	0.0148441
653.733	0.0148382
653.811	0.0147017
653.889	0.0148342
653.967	0.0148148
654.045	0.0147667
654.123	0.0146405
654.201	0.0147124
654.280	0.0147675
654.358	0.0147300
654.436	0.0147942
654.514	0.0147318
654.592	0.0147244
654.670	0.0149090
654.748	0.0147363
654.826	0.0148167
654.905	0.0147482
654.983	0.0147713
655.061	0.0147353
655.139	0.0147141
655.217	0.0149507
655.295	0.0147636
655.373	0.0147856
655.451	0.0147925
655.530	0.0146046
655.608	0.0146764
655.686	0.0148093
655.764	0.0146220
655.842	0.0145854
655.920	0.0147009
655.998	0.0147086
656.076	0.0145997
656.155	0.0145760
656.233	0.0146921
656.311	0.0147369
656.389	0.0147353
656.467	0.0147988
656.545	0.0148102
656.623	0.0146987
656.701	0.0147292
656.780	0.0147362
656.858	0.0148257
656.936	0.0148476
657.014	0.0148189
657.092	0.0147777
657.170	0.0148001
657.248	0.0147013
657.326	0.0145915
657.405	0.0146496
657.483	0.0147408
657.561	0.0148183
657.639	0.0147527
657.717	0.0147238
657.795	0.0146117
657.873	0.0147232
657.951	0.0146148
658.030	0.0145695
658.108	0.0146029
658.186	0.0145725
658.264	0.0145529
658.342	0.0146030
658.420	0.0145969
658.498	0.0147182
658.576	0.0147818
658.655	0.0146368
658.733	0.0146138
658.811	0.0147957
658.889	0.0147324
658.967	0.0147251
659.045	0.0147803
659.123	0.0148613
659.201	0.0146854
659.280	0.0147036
659.358	0.0147339
659.436	0.0147202
659.514	0.0146965
659.592	0.0146759
659.670	0.0147815
659.748	0.0148135
659.826	0.0146049
659.905	0.0146759
659.983	0.0146494
660.061	0.0147356
660.139	0.0146749
660.217	0.0146569
660.295	0.0146337
660.373	0.0146726
660.451	0.0147726
660.530	0.0148357
660.608	0.0148737
660.686	0.0147192
660.764	0.0146613
660.842	0.0147990
660.920	0.0148209
660.998	0.0146886
661.076	0.0148127
661.155	0.0148038
661.233	0.0147799
661.311	0.0147190
661.389	0.0147348
661.467	0.0147852
661.545	0.0146883
661.623	0.0147649
661.701	0.0147604
661.780	0.0147523
661.858	0.0148827
661.936	0.0148673
662.014	0.0147887
662.092	0.0147276
662.170	0.0148120
662.248	0.0148673
662.326	0.0148241
662.405	0.0148621
662.483	0.0149818
662.561	0.0147704
662.639	0.0148782
662.717	0.0148186
662.795	0.0148708
662.873	0.0147469
662.951	0.0147900
663.030	0.0148052
663.108	0.0147710
663.186	0.0149802
663.264	0.0147858
663.342	0.0149568
663.420	0.0149696
663.498	0.0149621
663.576	0.0149300
663.655	0.0149715
663.733	0.0150421
663.811	0.0151460
663.889	0.0151283
663.967	0.0150310
664.045	0.0150628
664.123	0.0151241
664.201	0.0151029
664.280	0.0150323
664.358	0.0150199
664.436	0.0150879
664.514	0.0151486
664.592	0.0149990
664.670	0.0150725
664.748	0.0149249
664.826	0.0150378
664.905	0.0149000
664.983	0.0149197
665.061	0.0149106
665.139	0.0149438
665.217	0.0149520
665.295	0.0150699
665.373	0.0150052
665.451	0.0148579
665.530	0.0149960
665.608	0.0149084
665.686	0.0149604
665.764	0.0150243
665.842	0.0150504
665.920	0.0150262
665.998	0.0149766
666.076	0.0149757
666.155	0.0150469
666.233	0.0149451
666.311	0.0148573
666.389	0.0147763
666.467	0.0150040
666.545	0.0148635
666.623	0.0146901
666.701	0.0147507
666.780	0.0150426
666.858	0.0147359
666.936	0.0147649
667.014	0.0147774
667.092	0.0148484
667.170	0.0150430
667.248	0.0149403
667.326	0.0149838
667.405	0.0150867
667.483	0.0151158
667.561	0.0150397
667.639	0.0151442
667.717	0.0150561
667.795	0.0150765
667.873	0.0149416
667.951	0.0150446
668.030	0.0150995
668.108	0.0150330
668.186	0.0149904
668.264	0.0150971
668.342	0.0149458
668.420	0.0150439
668.498	0.0150713
668.576	0.0151085
668.655	0.0150836
668.733	0.0150818
668.811	0.0150345
668.889	0.0149859
668.967	0.0149459
669.045	0.0148827
669.123	0.0150250
669.201	0.0149467
669.280	0.0147191
669.358	0.0147027
669.436	0.0146740
669.514	0.0147005
669.592	0.0144771
669.670	0.0145480
669.748	0.0145017
669.826	0.0144820
669.905	0.0145906
669.983	0.0144950
670.061	0.0145191
670.139	0.0147078
670.217	0.0147626
670.295	0.0147225
670.373	0.0146863
670.451	0.0148428
670.530	0.0148161
670.608	0.0149104
670.686	0.0149725
670.764	0.0152020
670.842	0.0149868
670.920	0.0150342
670.998	0.0152151
671.076	0.0152601
671.155	0.0151176
671.233	0.0152518
671.311	0.0153313
671.389	0.0152371
671.467	0.0154395
671.545	0.0154296
671.623	0.0153127
671.701	0.0153120
671.780	0.0152258
671.858	0.0153025
671.936	0.0152514
672.014	0.0153154
672.092	0.0151231
672.170	0.0150492
672.248	0.0149123
672.326	0.0148241
672.405	0.0146059
672.483	0.0146374
672.561	0.0145515
672.639	0.0143984
672.717	0.0141487
672.795	0.0141152
672.873	0.0142097
672.951	0.0141291
673.030	0.0140880
673.108	0.0140704
673.186	0.0141291
673.264	0.0141127
673.342	0.0141020
673.420	0.0142014
673.498	0.0142672
673.576	0.0143855
673.655	0.0143900
673.733	0.0146149
673.811	0.0146258
673.889	0.0148820
673.967	0.0149044
674.045	0.0149560
674.123	0.0152329
674.201	0.0152673
674.280	0.0154441
674.358	0.0154475
674.436	0.0155561
674.514	0.0155640
674.592	0.0157133
674.670	0.0158598
674.748	0.0157327
674.826	0.0155472
674.905	0.0156902
674.983	0.0157539
675.061	0.0156038
675.139	0.0154358
675.217	0.0152027
675.295	0.0150517
675.373	0.0151432
675.451	0.0148837
675.530	0.0147387
675.608	0.0145159
675.686	0.0143559
675.764	0.0143961
675.842	0.0140626
675.920	0.0138943
675.998	0.0138668
676.076	0.0138006
676.155	0.0137985
676.233	0.0136509
676.311	0.0135920
676.389	0.0135683
676.467	0.0135729
676.545	0.0136307
676.623	0.0136978
676.701	0.0137415
676.780	0.0138356
676.858	0.0139682
676.936	0.0142560
677.014	0.0143602
677.092	0.0143903
677.170	0.0145527
677.248	0.0147690
677.326	0.0150581
677.405	0.0150919
677.483	0.0152355
677.561	0.0152793
677.639	0.0154150
677.717	0.0156611
677.795	0.0156326
677.873	0.0155833
677.951	0.0153490
678.030	0.0155312
678.108	0.0156937
678.186	0.0157062
678.264	0.0154789
678.342	0.0153017
678.420	0.0152946
678.498	0.0151321
678.576	0.0150373
678.655	0.0149886
678.733	0.0147637
678.811	0.0145832
678.889	0.0147762
678.967	0.0144583
679.045	0.0145113
679.123	0.0144469
679.201	0.0143056
679.280	0.0143461
679.358	0.0143497
679.436	0.0142387
679.514	0.0142304
679.592	0.0141766
679.670	0.0142405
679.748	0.0142125
679.826	0.0143526
679.905	0.0141727
679.983	0.0140965
680.061	0.0141224
680.139	0.0142294
680.217	0.0140499
680.295	0.0139727
680.373	0.0140504
680.451	0.0140761
680.530	0.0140314
680.608	0.0140183
680.686	0.0140916
680.764	0.0141581
680.842	0.0140816
680.920	0.0142858
680.998	0.0140845
681.076	0.0142451
681.155	0.0142329
681.233	0.0142319
681.311	0.0142788
681.389	0.0143801
681.467	0.0142952
681.545	0.0143774
681.623	0.0145683
681.701	0.0146256
681.780	0.0146341
681.858	0.0146971
681.936	0.0149986
682.014	0.0150369
682.092	0.0152187
682.170	0.0154023
682.248	0.0154993
682.326	0.0155192
682.405	0.0156750
682.483	0.0159814
682.561	0.0159570
682.639	0.0160706
682.717	0.0162693
682.795	0.0160877
682.873	0.0162425
682.951	0.0162745
683.030	0.0160817
683.108	0.0160589
683.186	0.0160513
683.264	0.0159695
683.342	0.0159152
683.420	0.0157687
683.498	0.0157494
683.576	0.0154292
683.655	0.0153587
683.733	0.0152715
683.811	0.0152180
683.889	0.0149849
683.967	0.0146434
684.045	0.0144952
684.123	0.0141701
684.201	0.0141010
684.280	0.0138909
684.358	0.0138377
684.436	0.0136470
684.514	0.0134393
684.592	0.0134585
684.670	0.0133461
684.748	0.0133989
684.826	0.0134200
684.905	0.0135617
684.983	0.0138142
685.061	0.0137463
685.139	0.0139174
685.217	0.0142590
685.295	0.0142637
685.373	0.0146684
685.451	0.0148531
685.530	0.0150139
685.608	0.0152633
685.686	0.0155507
685.764	0.0156269
685.842	0.0159011
685.920	0.0161400
685.998	0.0162963
686.076	0.0164261
686.155	0.0166792
686.233	0.0167147
686.311	0.0167234
686.389	0.0168291
686.467	0.0167631
686.545	0.0168069
686.623	0.0167225
686.701	0.0167420
686.780	0.0164552
686.858	0.0163528
686.936	0.0162157
687.014	0.0159046
687.092	0.0158961
687.170	0.0156198
687.248	0.0153906
687.326	0.0149781
687.405	0.0149026
687.483	0.0146327
687.561	0.0142492
687.639	0.0142862
687.717	0.0139333
687.795	0.0136354
687.873	0.0134245
687.951	0.0132288
688.030	0.0130833
688.108	0.0129607
688.186	0.0130709
688.264	0.0129094
688.342	0.0128442
688.420	0.0130774
688.498	0.0132500
688.576	0.0132533
688.655	0.0133897
688.733	0.0136523
688.811	0.0139030
688.889	0.0142766
688.967	0.0146432
689.045	0.0149442
689.123	0.0150456
689.201	0.0154984
689.280	0.0157991
689.358	0.0158736
689.436	0.0162544
689.514	0.0163554
689.592	0.0165461
689.670	0.0166111
689.748	0.0166508
689.826	0.0166471
689.905	0.0166329
689.983	0.0167213
690.061	0.0164090
690.139	0.0162895
690.217	0.0161505
690.295	0.0160551
690.373	0.0157791
690.451	0.0155995
690.530	0.0153374
690.608	0.0151208
690.686	0.0149274
690.764	0.0145683
690.842	0.0140540
690.920	0.0140308
690.998	0.0139606
691.076	0.0137275
691.155	0.0135418
691.233	0.0134346
691.311	0.0135878
691.389	0.0133913
691.467	0.0133437
691.545	0.0134608
691.623	0.0134667
691.701	0.0135548
691.780	0.0136219
691.858	0.0136407
691.936	0.0136578
692.014	0.0137379
692.092	0.0138298
692.170	0.0139955
692.248	0.0141274
692.326	0.0142574
692.405	0.0142766
692.483	0.0145581
692.561	0.0145136
692.639	0.0146546
692.717	0.0147644
692.795	0.0148305
692.873	0.0148184
692.951	0.0149132
693.030	0.0150263
693.108	0.0149744
693.186	0.0148994
693.264	0.0149606
693.342	0.0149254
693.420	0.0148666
693.498	0.0149904
693.576	0.0150443
693.655	0.0149177
693.733	0.0148100
693.811	0.0149886
693.889	0.0150271
693.967	0.0149306
694.045	0.0150427
694.123	0.0149385
694.201	0.0149986
694.280	0.0150801
694.358	0.0151936
694.436	0.0153645
694.514	0.0152853
694.592	0.0154385
694.670	0.0155690
694.748	0.0154557
694.826	0.0155132
694.905	0.0155080
694.983	0.0155767
695.061	0.0155607
695.139	0.0155066
695.217	0.0153682
695.295	0.0153084
695.373	0.0151586
695.451	0.0150584
695.530	0.0150179
695.608	0.0148125
695.686	0.0149494
695.764	0.0147469
695.842	0.0147958
695.920	0.0146554
695.998	0.0146217
696.076	0.0145571
696.155	0.0143301
696.233	0.0145911
696.311	0.0146922
696.389	0.0147205
696.467	0.0145645
696.545	0.0146224
696.623	0.0145741
696.701	0.0145470
696.780	0.0143405
696.858	0.0144252
696.936	0.0145235
697.014	0.0147249
697.092	0.0146590
697.170	0.0147862
697.248	0.0149163
697.326	0.0148607
697.405	0.0149592
697.483	0.0151270
697.561	0.0151883
697.639	0.0153009
697.717	0.0154459
697.795	0.0153767
697.873	0.0154472
697.951	0.0154686
698.030	0.0154559
698.108	0.0154004
698.186	0.0153018
698.264	0.0153646
698.342	0.0153537
698.420	0.0152784
698.498	0.0153786
698.576	0.0152116
698.655	0.0148016
698.733	0.0149004
698.811	0.0148573
698.889	0.0144485
698.967	0.0144099
699.045	0.0141975
699.123	0.0139495
699.201	0.0140189
699.280	0.0137586
699.358	0.0137016
699.436	0.0138047
699.514	0.0135979
699.592	0.0135892
699.670	0.0137293
699.748	0.0137383
699.826	0.0138993
699.905	0.0141124
699.983	0.0141048
700.061	0.0143051
700.139	0.0145879
700.217	0.0147150
700.295	0.0149785
700.373	0.0152719
700.451	0.0155656
700.530	0.0159151
700.608	0.0161095
700.686	0.0163389
700.764	0.0166254
700.842	0.0167885
700.920	0.0170605
700.998	0.0171706
701.076	0.0173605
701.155	0.0173431
701.233	0.0173626
701.311	0.0173409
701.389	0.0172520
701.467	0.0170091
701.545	0.0169987
701.623	0.0166917
701.701	0.0165643
701.780	0.0162464
701.858	0.0161427
701.936	0.0157703
702.014	0.0153782
702.092	0.0152349
702.170	0.0148462
702.248	0.0145988
702.326	0.0143464
702.405	0.0139357
702.483	0.0137143
702.561	0.0137128
702.639	0.0133060
702.717	0.0131884
702.795	0.0130624
702.873	0.0130154
702.951	0.0129984
703.030	0.0128851
703.108	0.0128757
703.186	0.0130888
703.264	0.0129828
703.342	0.0131438
703.420	0.0132904
703.498	0.0134348
703.576	0.0135276
703.655	0.0136980
703.733	0.0139742
703.811	0.0142249
703.889	0.0144392
703.967	0.0146940
704.045	0.0148126
704.123	0.0149857
704.201	0.0151609
704.280	0.0152074
704.358	0.0154580
704.436	0.0154105
704.514	0.0155218
704.592	0.0157016
704.670	0.0158643
704.748	0.0160615
704.826	0.0159757
704.905	0.0158921
704.983	0.0160833
705.061	0.0161340
705.139	0.0160543
705.217	0.0161511
705.295	0.0160271
705.373	0.0159927
705.451	0.0159200
705.530	0.0157895
705.608	0.0157479
705.686	0.0155831
705.764	0.0154312
705.842	0.0153754
705.920	0.0151640
705.998	0.0151692
706.076	0.0151613
706.155	0.0149547
706.233	0.0149361
706.311	0.0149126
706.389	0.0148998
706.467	0.0147314
706.545	0.0147141
706.623	0.0148707
706.701	0.0148978
706.780	0.0147124
706.858	0.0146514
706.936	0.0146761
707.014	0.0148226
707.092	0.0148064
707.170	0.0149004
707.248	0.0149054
707.326	0.0149536
707.405	0.0150607
707.483	0.0150844
707.561	0.0150556
707.639	0.0152141
707.717	0.0152601
707.795	0.0151610
707.873	0.0153355
707.951	0.0152392
708.030	0.0153492
708.108	0.0152715
708.186	0.0153876
708.264	0.0152824
708.342	0.0153304
708.420	0.0153071
708.498	0.0153377
708.576	0.0152428
708.655	0.0151720
708.733	0.0151895
708.811	0.0151202
708.889	0.0151524
708.967	0.0151065
709.045	0.0151136
709.123	0.0151627
709.201	0.0151939
709.280	0.0150848
709.358	0.0151373
709.436	0.0150224
709.514	0.0149539
709.592	0.0149503
709.670	0.0147306
709.748	0.0145975
709.826	0.0144238
709.905	0.0143855
709.983	0.0142442
710.061	0.0141675
710.139	0.0140294
710.217	0.0139350
710.295	0.0139323
710.373	0.0138544
710.451	0.0134997
710.530	0.0135156
710.608	0.0135225
710.686	0.0134009
710.764	0.0134283
710.842	0.0134532
710.920	0.0135011
710.998	0.0134900
711.076	0.0135110
711.155	0.0134666
711.233	0.0136909
711.311	0.0135607
711.389	0.0137522
711.467	0.0138598
711.545	0.0141521
711.623	0.0141638
711.701	0.0143388
711.780	0.0146095
711.858	0.0147503
711.936	0.0147099
712.014	0.0150324
712.092	0.0152223
712.170	0.0150538
712.248	0.0152639
712.326	0.0152348
712.405	0.0154099
712.483	0.0155125
712.561	0.0152701
712.639	0.0155051
712.717	0.0155196
712.795	0.0157443
712.873	0.0159034
712.951	0.0157230
713.030	0.0158804
713.108	0.0159925
713.186	0.0161224
713.264	0.0161547
713.342	0.0161782
713.420	0.0163454
713.498	0.0163095
713.576	0.0162300
713.655	0.0162408
713.733	0.0160647
713.811	0.0159717
713.889	0.0158948
713.967	0.0156916
714.045	0.0154636
714.123	0.0153107
714.201	0.0153101
714.280	0.0151310
714.358	0.0149823
714.436	0.0147352
714.514	0.0147250
714.592	0.0144701
714.670	0.0144868
714.748	0.0142717
714.826	0.0141485
714.905	0.0141854
714.983	0.0140800
715.061	0.0137913
715.139	0.0136441
715.217	0.0137434
715.295	0.0137815
715.373	0.0137939
715.451	0.0137135
715.530	0.0136642
715.608	0.0136435
715.686	0.0137421
715.764	0.0136724
715.842	0.0139193
715.920	0.0141058
715.998	0.0140884
716.076	0.0143484
716.155	0.0143352
716.233	0.0144913
716.311	0.0147536
716.389	0.0150443
716.467	0.0150806
716.545	0.0151456
716.623	0.0153200
716.701	0.0154900
716.780	0.0155503
716.858	0.0155792
716.936	0.0156406
717.014	0.0156309
717.092	0.0155693
717.170	0.0156105
717.248	0.0156033
717.326	0.0155594
717.405	0.0154958
717.483	0.0155953
717.561	0.0155684
717.639	0.0156025
717.717	0.0155420
717.795	0.0155244
717.873	0.0155439
717.951	0.0154020
718.030	0.0153217
718.108	0.0153412
718.186	0.0151426
718.264	0.0151405
718.342	0.0150829
718.420	0.0150595
718.498	0.0149236
718.576	0.0149055
718.655	0.0148178
718.733	0.0147415
718.811	0.0144540
718.889	0.0144547
718.967	0.0146542
719.045	0.0144717
719.123	0.0143889
719.201	0.0144680
719.280	0.0144916
719.358	0.0143768
719.436	0.0144557
719.514	0.0144783
719.592	0.0143633
719.670	0.0144158
719.748	0.0144962
719.826	0.0145612
719.905	0.0144984
719.983	0.0143692
720.061	0.0146311
720.139	0.0146018
720.217	0.0147585
720.295	0.0148904
720.373	0.0149716
720.451	0.0151433
720.530	0.0151427
720.608	0.0151281
720.686	0.0152907
720.764	0.0153767
720.842	0.0156267
720.920	0.0156668
720.998	0.0155079
721.076	0.0156356
721.155	0.0155314
721.233	0.0155366
721.311	0.0155447
721.389	0.0154393
721.467	0.0153806
721.545	0.0153619
721.623	0.0152494
721.701	0.0152723
721.780	0.0149889
721.858	0.0149443
721.936	0.0147964
722.014	0.0146628
722.092	0.0144654
722.170	0.0145670
722.248	0.0144681
722.326	0.0142056
722.405	0.0142265
722.483	0.0141526
722.561	0.0140778
722.639	0.0139402
722.717	0.0138862
722.795	0.0137769
722.873	0.0138370
722.951	0.0138493
723.030	0.0138202
723.108	0.0138525
723.186	0.0140375
723.264	0.0139149
723.342	0.0142599
723.420	0.0144776
723.498	0.0144888
723.576	0.0145449
723.655	0.0146892
723.733	0.0148656
723.811	0.0150935
723.889	0.0150877
723.967	0.0151672
724.045	0.0153859
724.123	0.0152599
724.201	0.0153378
724.280	0.0155099
724.358	0.0155006
724.436	0.0155074
724.514	0.0154519
724.592	0.0155148
724.670	0.0154655
724.748	0.0155366
724.826	0.0154842
724.905	0.0154562
724.983	0.0154178
725.061	0.0153015
725.139	0.0151463
725.217	0.0152005
725.295	0.0153339
725.373	0.0152192
725.451	0.0151849
725.530	0.0151832
725.608	0.0150868
725.686	0.0152518
