05/20/2022	16:44:38	Ver.	4.1	UNKNOWN
Optical Delay	639.982744	Delta X		0.078125	Sweeps	1	Scan Rate	0/0
Coordinates	Axis 1	NaN	Axis 2	NaN	Axis 3	NaN	Axis 4	NaN	Axis 5	NaN	Axis 6	0.000000
TX Power	0.000000	RX Power	0.000000

639.983	0.0148307
640.061	0.0147194
640.139	0.0147607
640.217	0.0145987
640.295	0.0146557
640.373	0.0148495
640.451	0.0148106
640.530	0.0148159
640.608	0.0147891
640.686	0.0148336
640.764	0.0148373
640.842	0.0147270
640.920	0.0146497
640.998	0.0147982
641.076	0.0146385
641.155	0.0146781
641.233	0.0147187
641.311	0.0146297
641.389	0.0145957
641.467	0.0144897
641.545	0.0144151
641.623	0.0145782
641.701	0.0145624
641.780	0.0145448
641.858	0.0146271
641.936	0.0147005
642.014	0.0144750
642.092	0.0145351
642.170	0.0145837
642.248	0.0145433
642.326	0.0143997
642.405	0.0145777
642.483	0.0146792
642.561	0.0146327
642.639	0.0146744
642.717	0.0145789
642.795	0.0146052
642.873	0.0146992
642.951	0.0145236
643.030	0.0146047
643.108	0.0147033
643.186	0.0145037
643.264	0.0145308
643.342	0.0143934
643.420	0.0142870
643.498	0.0143984
643.576	0.0144207
643.655	0.0143728
643.733	0.0144767
643.811	0.0144289
643.889	0.0144165
643.967	0.0143973
644.045	0.0143475
644.123	0.0142200
644.201	0.0143876
644.280	0.0144380
644.358	0.0144411
644.436	0.0144121
644.514	0.0146065
644.592	0.0145721
644.670	0.0143904
644.748	0.0144469
644.826	0.0146512
644.905	0.0145760
644.983	0.0144834
645.061	0.0145550
645.139	0.0144530
645.217	0.0143707
645.295	0.0143773
645.373	0.0144032
645.451	0.0142971
645.530	0.0144013
645.608	0.0143058
645.686	0.0143136
645.764	0.0143230
645.842	0.0142444
645.920	0.0141946
645.998	0.0142755
646.076	0.0143246
646.155	0.0143764
646.233	0.0143337
646.311	0.0143246
646.389	0.0145136
646.467	0.0145708
646.545	0.0144070
646.623	0.0144578
646.701	0.0143612
646.780	0.0143224
646.858	0.0144324
646.936	0.0145289
647.014	0.0143723
647.092	0.0144804
647.170	0.0144084
647.248	0.0143472
647.326	0.0145322
647.405	0.0144298
647.483	0.0143188
647.561	0.0144158
647.639	0.0143224
647.717	0.0144108
647.795	0.0144247
647.873	0.0144639
647.951	0.0144144
648.030	0.0144480
648.108	0.0143016
648.186	0.0144962
648.264	0.0143979
648.342	0.0143775
648.420	0.0145808
648.498	0.0144392
648.576	0.0143677
648.655	0.0145271
648.733	0.0145721
648.811	0.0144379
648.889	0.0145298
648.967	0.0145500
649.045	0.0144669
649.123	0.0144350
649.201	0.0144603
649.280	0.0145115
649.358	0.0142522
649.436	0.0144649
649.514	0.0144272
649.592	0.0144978
649.670	0.0145042
649.748	0.0143652
649.826	0.0143468
649.905	0.0145162
649.983	0.0145095
650.061	0.0145082
650.139	0.0144447
650.217	0.0144817
650.295	0.0144926
650.373	0.0145178
650.451	0.0144014
650.530	0.0144727
650.608	0.0144658
650.686	0.0145300
650.764	0.0144579
650.842	0.0145538
650.920	0.0143261
650.998	0.0145648
651.076	0.0144603
651.155	0.0145277
651.233	0.0143983
651.311	0.0145862
651.389	0.0144199
651.467	0.0144916
651.545	0.0144371
651.623	0.0143404
651.701	0.0144072
651.780	0.0144592
651.858	0.0144531
651.936	0.0144427
652.014	0.0144019
652.092	0.0146455
652.170	0.0144124
652.248	0.0144075
652.326	0.0145388
652.405	0.0143035
652.483	0.0143494
652.561	0.0144636
652.639	0.0144576
652.717	0.0143923
652.795	0.0142781
652.873	0.0142401
652.951	0.0143437
653.030	0.0143359
653.108	0.0143571
653.186	0.0143732
653.264	0.0145105
653.342	0.0144321
653.420	0.0144894
653.498	0.0145267
653.576	0.0144272
653.655	0.0144535
653.733	0.0144365
653.811	0.0143360
653.889	0.0143844
653.967	0.0144784
654.045	0.0145661
654.123	0.0143751
654.201	0.0143756
654.280	0.0144059
654.358	0.0144216
654.436	0.0144009
654.514	0.0144357
654.592	0.0145313
654.670	0.0142143
654.748	0.0144033
654.826	0.0142494
654.905	0.0144339
654.983	0.0144757
655.061	0.0142753
655.139	0.0143472
655.217	0.0143810
655.295	0.0143619
655.373	0.0143356
655.451	0.0142633
655.530	0.0143982
655.608	0.0144736
655.686	0.0143036
655.764	0.0143896
655.842	0.0144355
655.920	0.0143874
655.998	0.0144411
656.076	0.0143314
656.155	0.0144677
656.233	0.0144666
656.311	0.0146088
656.389	0.0145262
656.467	0.0143846
656.545	0.0143681
656.623	0.0144580
656.701	0.0145350
656.780	0.0144398
656.858	0.0144048
656.936	0.0144640
657.014	0.0144799
657.092	0.0144775
657.170	0.0143559
657.248	0.0145413
657.326	0.0144189
657.405	0.0144504
657.483	0.0142920
657.561	0.0144415
657.639	0.0144168
657.717	0.0143443
657.795	0.0144692
657.873	0.0144429
657.951	0.0144535
658.030	0.0143557
658.108	0.0145036
658.186	0.0144409
658.264	0.0145682
658.342	0.0145633
658.420	0.0143820
658.498	0.0144366
658.576	0.0145396
658.655	0.0145945
658.733	0.0145109
658.811	0.0146184
658.889	0.0146352
658.967	0.0144672
659.045	0.0145441
659.123	0.0144850
659.201	0.0144284
659.280	0.0143766
659.358	0.0145302
659.436	0.0145107
659.514	0.0145034
659.592	0.0145302
659.670	0.0146162
659.748	0.0145097
659.826	0.0146551
659.905	0.0145599
659.983	0.0145800
660.061	0.0144986
660.139	0.0145095
660.217	0.0145488
660.295	0.0146786
660.373	0.0146738
660.451	0.0146475
660.530	0.0146403
660.608	0.0146041
660.686	0.0146460
660.764	0.0146114
660.842	0.0146794
660.920	0.0145467
660.998	0.0148241
661.076	0.0148270
661.155	0.0146883
661.233	0.0146731
661.311	0.0147858
661.389	0.0147111
661.467	0.0147933
661.545	0.0146757
661.623	0.0148965
661.701	0.0148975
661.780	0.0146706
661.858	0.0146513
661.936	0.0147415
662.014	0.0146861
662.092	0.0147028
662.170	0.0146497
662.248	0.0146497
662.326	0.0147134
662.405	0.0146378
662.483	0.0146654
662.561	0.0146278
662.639	0.0145592
662.717	0.0145242
662.795	0.0145676
662.873	0.0145865
662.951	0.0145818
663.030	0.0147388
663.108	0.0146693
663.186	0.0146307
663.264	0.0146947
663.342	0.0146798
663.420	0.0145842
663.498	0.0146104
663.576	0.0145961
663.655	0.0147466
663.733	0.0145866
663.811	0.0145994
663.889	0.0146612
663.967	0.0146438
664.045	0.0146070
664.123	0.0144658
664.201	0.0145393
664.280	0.0145290
664.358	0.0144113
664.436	0.0145547
664.514	0.0146047
664.592	0.0145208
664.670	0.0144866
664.748	0.0145116
664.826	0.0144835
664.905	0.0146149
664.983	0.0145179
665.061	0.0145728
665.139	0.0145734
665.217	0.0145277
665.295	0.0144962
665.373	0.0144994
665.451	0.0144212
665.530	0.0145405
665.608	0.0144096
665.686	0.0144168
665.764	0.0143626
665.842	0.0144224
665.920	0.0143762
665.998	0.0143968
666.076	0.0143310
666.155	0.0143966
666.233	0.0145002
666.311	0.0145294
666.389	0.0145082
666.467	0.0145353
666.545	0.0146198
666.623	0.0146172
666.701	0.0145985
666.780	0.0146448
666.858	0.0146240
666.936	0.0146316
667.014	0.0147169
667.092	0.0147132
667.170	0.0147459
667.248	0.0146960
667.326	0.0147234
667.405	0.0148063
667.483	0.0146780
667.561	0.0148299
667.639	0.0146331
667.717	0.0145571
667.795	0.0146561
667.873	0.0145674
667.951	0.0145807
668.030	0.0145445
668.108	0.0145904
668.186	0.0146632
668.264	0.0145811
668.342	0.0145702
668.420	0.0144464
668.498	0.0144261
668.576	0.0144249
668.655	0.0143161
668.733	0.0143563
668.811	0.0142956
668.889	0.0143861
668.967	0.0140846
669.045	0.0141230
669.123	0.0140735
669.201	0.0140099
669.280	0.0140765
669.358	0.0140337
669.436	0.0141606
669.514	0.0140948
669.592	0.0141393
669.670	0.0141750
669.748	0.0142747
669.826	0.0141909
669.905	0.0142571
669.983	0.0143771
670.061	0.0143114
670.139	0.0144177
670.217	0.0145737
670.295	0.0144441
670.373	0.0144850
670.451	0.0147300
670.530	0.0147676
670.608	0.0145953
670.686	0.0147422
670.764	0.0147617
670.842	0.0147710
670.920	0.0148570
670.998	0.0149006
671.076	0.0147242
671.155	0.0147586
671.233	0.0148753
671.311	0.0148314
671.389	0.0148529
671.467	0.0147995
671.545	0.0146458
671.623	0.0146285
671.701	0.0146387
671.780	0.0145985
671.858	0.0144687
671.936	0.0142617
672.014	0.0140714
672.092	0.0140871
672.170	0.0140272
672.248	0.0137316
672.326	0.0137266
672.405	0.0137080
672.483	0.0136557
672.561	0.0136579
672.639	0.0135806
672.717	0.0135196
672.795	0.0136086
672.873	0.0136808
672.951	0.0136254
673.030	0.0137809
673.108	0.0138648
673.186	0.0139040
673.264	0.0140408
673.342	0.0140678
673.420	0.0142902
673.498	0.0145152
673.576	0.0145198
673.655	0.0146744
673.733	0.0148836
673.811	0.0149143
673.889	0.0150021
673.967	0.0152530
674.045	0.0152245
674.123	0.0152357
674.201	0.0155017
674.280	0.0154882
674.358	0.0154395
674.436	0.0153113
674.514	0.0152694
674.592	0.0153185
674.670	0.0151659
674.748	0.0149719
674.826	0.0148746
674.905	0.0148143
674.983	0.0147632
675.061	0.0145065
675.139	0.0142285
675.217	0.0141524
675.295	0.0139902
675.373	0.0139159
675.451	0.0137101
675.530	0.0134643
675.608	0.0134619
675.686	0.0134267
675.764	0.0133144
675.842	0.0131743
675.920	0.0130564
675.998	0.0130281
676.076	0.0130446
676.155	0.0133063
676.233	0.0132856
676.311	0.0132935
676.389	0.0133501
676.467	0.0134908
676.545	0.0136842
676.623	0.0136990
676.701	0.0137424
676.780	0.0140884
676.858	0.0144141
676.936	0.0145238
677.014	0.0147890
677.092	0.0148051
677.170	0.0149986
677.248	0.0151191
677.326	0.0151688
677.405	0.0152259
677.483	0.0152631
677.561	0.0152657
677.639	0.0154974
677.717	0.0153657
677.795	0.0153847
677.873	0.0152095
677.951	0.0152376
678.030	0.0152727
678.108	0.0151268
678.186	0.0150478
678.264	0.0149046
678.342	0.0148570
678.420	0.0146967
678.498	0.0147194
678.576	0.0146167
678.655	0.0144279
678.733	0.0142870
678.811	0.0143884
678.889	0.0142763
678.967	0.0142635
679.045	0.0142525
679.123	0.0143413
679.201	0.0140712
679.280	0.0143188
679.358	0.0141632
679.436	0.0141737
679.514	0.0142882
679.592	0.0143052
679.670	0.0142590
679.748	0.0142406
679.826	0.0142632
679.905	0.0143289
679.983	0.0143404
680.061	0.0143150
680.139	0.0143829
680.217	0.0142007
680.295	0.0142450
680.373	0.0144202
680.451	0.0143941
680.530	0.0144975
680.608	0.0143833
680.686	0.0143311
680.764	0.0143787
680.842	0.0144627
680.920	0.0144389
680.998	0.0144687
681.076	0.0144804
681.155	0.0144186
681.233	0.0144682
681.311	0.0143585
681.389	0.0145673
681.467	0.0145635
681.545	0.0146940
681.623	0.0149117
681.701	0.0150358
681.780	0.0150477
681.858	0.0153066
681.936	0.0152354
682.014	0.0154659
682.092	0.0157889
682.170	0.0158072
682.248	0.0158634
682.326	0.0160088
682.405	0.0159209
682.483	0.0158463
682.561	0.0159409
682.639	0.0157172
682.717	0.0157513
682.795	0.0156091
682.873	0.0155377
682.951	0.0154070
683.030	0.0153345
683.108	0.0152366
683.186	0.0149082
683.264	0.0150015
683.342	0.0149318
683.420	0.0145988
683.498	0.0144633
683.576	0.0143009
683.655	0.0142764
683.733	0.0140937
683.811	0.0138517
683.889	0.0136823
683.967	0.0137077
684.045	0.0134105
684.123	0.0133277
684.201	0.0132115
684.280	0.0130973
684.358	0.0130860
684.436	0.0129301
684.514	0.0129967
684.592	0.0131364
684.670	0.0133176
684.748	0.0133234
684.826	0.0133652
684.905	0.0135976
684.983	0.0138745
685.061	0.0140519
685.139	0.0142070
685.217	0.0145832
685.295	0.0148637
685.373	0.0150999
685.451	0.0151821
685.530	0.0153387
685.608	0.0155908
685.686	0.0156949
685.764	0.0158809
685.842	0.0160371
685.920	0.0161343
685.998	0.0162956
686.076	0.0162657
686.155	0.0163754
686.233	0.0163583
686.311	0.0160640
686.389	0.0162396
686.467	0.0161321
686.545	0.0157167
686.623	0.0156959
686.701	0.0153571
686.780	0.0152827
686.858	0.0149881
686.936	0.0147459
687.014	0.0145058
687.092	0.0141892
687.170	0.0138553
687.248	0.0135638
687.326	0.0132738
687.405	0.0132461
687.483	0.0128835
687.561	0.0127902
687.639	0.0125756
687.717	0.0125475
687.795	0.0122762
687.873	0.0122269
687.951	0.0120989
688.030	0.0121900
688.108	0.0123264
688.186	0.0124660
688.264	0.0125134
688.342	0.0127206
688.420	0.0129299
688.498	0.0132035
688.576	0.0134212
688.655	0.0136720
688.733	0.0141462
688.811	0.0143761
688.889	0.0146942
688.967	0.0150448
689.045	0.0151689
689.123	0.0153255
689.201	0.0156332
689.280	0.0156686
689.358	0.0158096
689.436	0.0160438
689.514	0.0160825
689.592	0.0159099
689.670	0.0159464
689.748	0.0159798
689.826	0.0158192
689.905	0.0158573
689.983	0.0158162
690.061	0.0155160
690.139	0.0154729
690.217	0.0153291
690.295	0.0151074
690.373	0.0149854
690.451	0.0147749
690.530	0.0145973
690.608	0.0143424
690.686	0.0141045
690.764	0.0140388
690.842	0.0137503
690.920	0.0137637
690.998	0.0135959
691.076	0.0135777
691.155	0.0135510
691.233	0.0136342
691.311	0.0136520
691.389	0.0136346
691.467	0.0135374
691.545	0.0137162
691.623	0.0138100
691.701	0.0138100
691.780	0.0139670
691.858	0.0139409
691.936	0.0138405
692.014	0.0141156
692.092	0.0141747
692.170	0.0141993
692.248	0.0142450
692.326	0.0142969
692.405	0.0143632
692.483	0.0146449
692.561	0.0146403
692.639	0.0146555
692.717	0.0147659
692.795	0.0148269
692.873	0.0148435
692.951	0.0148878
693.030	0.0149082
693.108	0.0149049
693.186	0.0148605
693.264	0.0149358
693.342	0.0149532
693.420	0.0147961
693.498	0.0148235
693.576	0.0147971
693.655	0.0147933
693.733	0.0147383
693.811	0.0148259
693.889	0.0148311
693.967	0.0150044
694.045	0.0150735
694.123	0.0151086
694.201	0.0151950
694.280	0.0150620
694.358	0.0151124
694.436	0.0150904
694.514	0.0151511
694.592	0.0152120
694.670	0.0150633
694.748	0.0152171
694.826	0.0152647
694.905	0.0151510
694.983	0.0149634
695.061	0.0149784
695.139	0.0148838
695.217	0.0150001
695.295	0.0148473
695.373	0.0146629
695.451	0.0145883
695.530	0.0145931
695.608	0.0143463
695.686	0.0143043
695.764	0.0143591
695.842	0.0142365
695.920	0.0140699
695.998	0.0141949
696.076	0.0141248
696.155	0.0141904
696.233	0.0142514
696.311	0.0141504
696.389	0.0143021
696.467	0.0142387
696.545	0.0142590
696.623	0.0143553
696.701	0.0143556
696.780	0.0141508
696.858	0.0143346
696.936	0.0144001
697.014	0.0146019
697.092	0.0144727
697.170	0.0146420
697.248	0.0146779
697.326	0.0147697
697.405	0.0147896
697.483	0.0148998
697.561	0.0149423
697.639	0.0151851
697.717	0.0151589
697.795	0.0149868
697.873	0.0150995
697.951	0.0150984
698.030	0.0150184
698.108	0.0151401
698.186	0.0151565
698.264	0.0151138
698.342	0.0149335
698.420	0.0149775
698.498	0.0146832
698.576	0.0146037
698.655	0.0146506
698.733	0.0144871
698.811	0.0142973
698.889	0.0142360
698.967	0.0138858
699.045	0.0136960
699.123	0.0136826
699.201	0.0135765
699.280	0.0135062
699.358	0.0133931
699.436	0.0134217
699.514	0.0134190
699.592	0.0136031
699.670	0.0135176
699.748	0.0133814
699.826	0.0136890
699.905	0.0138885
699.983	0.0139573
700.061	0.0142695
700.139	0.0144528
700.217	0.0148430
700.295	0.0149483
700.373	0.0152005
700.451	0.0155198
700.530	0.0157580
700.608	0.0160894
700.686	0.0162303
700.764	0.0163263
700.842	0.0165725
700.920	0.0167057
700.998	0.0168178
701.076	0.0168591
701.155	0.0168267
701.233	0.0167533
701.311	0.0167645
701.389	0.0166058
701.467	0.0165543
701.545	0.0163324
701.623	0.0160777
701.701	0.0160107
701.780	0.0156445
701.858	0.0152440
701.936	0.0149157
702.014	0.0148375
702.092	0.0144852
702.170	0.0140905
702.248	0.0137988
702.326	0.0137077
702.405	0.0135352
702.483	0.0132108
702.561	0.0129955
702.639	0.0127129
702.717	0.0127343
702.795	0.0126634
702.873	0.0125298
702.951	0.0125109
703.030	0.0124318
703.108	0.0125207
703.186	0.0127238
703.264	0.0128293
703.342	0.0129430
703.420	0.0131986
703.498	0.0134395
703.576	0.0135584
703.655	0.0139432
703.733	0.0142088
703.811	0.0144077
703.889	0.0147475
703.967	0.0149644
704.045	0.0151962
704.123	0.0153264
704.201	0.0154998
704.280	0.0155267
704.358	0.0157700
704.436	0.0159457
704.514	0.0158969
704.592	0.0159631
704.670	0.0160200
704.748	0.0160185
704.826	0.0160511
704.905	0.0161426
704.983	0.0161607
705.061	0.0161261
705.139	0.0161982
705.217	0.0158575
705.295	0.0157900
705.373	0.0156653
705.451	0.0155364
705.530	0.0153033
705.608	0.0150412
705.686	0.0148361
705.764	0.0145281
705.842	0.0145405
705.920	0.0144239
705.998	0.0141160
706.076	0.0141207
706.155	0.0138865
706.233	0.0138805
706.311	0.0137387
706.389	0.0135907
706.467	0.0136825
706.545	0.0135733
706.623	0.0136208
706.701	0.0134371
706.780	0.0133126
706.858	0.0132813
706.936	0.0134659
707.014	0.0134951
707.092	0.0134919
707.170	0.0134690
707.248	0.0136584
707.326	0.0138072
707.405	0.0137679
707.483	0.0138565
707.561	0.0140728
707.639	0.0141169
707.717	0.0140797
707.795	0.0141406
707.873	0.0141895
707.951	0.0142519
708.030	0.0145607
708.108	0.0143996
708.186	0.0146150
708.264	0.0147176
708.342	0.0147890
708.420	0.0149420
708.498	0.0148148
708.576	0.0149607
708.655	0.0149092
708.733	0.0150027
708.811	0.0150461
708.889	0.0150629
708.967	0.0149736
709.045	0.0150378
709.123	0.0150110
709.201	0.0150137
709.280	0.0150252
709.358	0.0148294
709.436	0.0148701
709.514	0.0147956
709.592	0.0146537
709.670	0.0146244
709.748	0.0146648
709.826	0.0144941
709.905	0.0143980
709.983	0.0145353
710.061	0.0144357
710.139	0.0142160
710.217	0.0142850
710.295	0.0142052
710.373	0.0142202
710.451	0.0141547
710.530	0.0141679
710.608	0.0140677
710.686	0.0139477
710.764	0.0140034
710.842	0.0140160
710.920	0.0139011
710.998	0.0137827
711.076	0.0137859
711.155	0.0138744
711.233	0.0137564
711.311	0.0136874
711.389	0.0138490
711.467	0.0139622
711.545	0.0139176
711.623	0.0140799
711.701	0.0141544
711.780	0.0142758
711.858	0.0145088
711.936	0.0145501
712.014	0.0145705
712.092	0.0146609
712.170	0.0147173
712.248	0.0146671
712.326	0.0148005
712.405	0.0148384
712.483	0.0150102
712.561	0.0150169
712.639	0.0148354
712.717	0.0149989
712.795	0.0151846
712.873	0.0151698
712.951	0.0153728
713.030	0.0156350
713.108	0.0155515
713.186	0.0158025
713.264	0.0159016
713.342	0.0159846
713.420	0.0160149
713.498	0.0160877
713.576	0.0159212
713.655	0.0158450
713.733	0.0157366
713.811	0.0156721
713.889	0.0156332
713.967	0.0155379
714.045	0.0152135
714.123	0.0152345
714.201	0.0149944
714.280	0.0148518
714.358	0.0145487
714.436	0.0144498
714.514	0.0142809
714.592	0.0140824
714.670	0.0140561
714.748	0.0138544
714.826	0.0136829
714.905	0.0136098
714.983	0.0135354
715.061	0.0134843
715.139	0.0133188
715.217	0.0131499
715.295	0.0132278
715.373	0.0132395
715.451	0.0131829
715.530	0.0132462
715.608	0.0134501
715.686	0.0135154
715.764	0.0134164
715.842	0.0135890
715.920	0.0136718
715.998	0.0137714
716.076	0.0137975
716.155	0.0139790
716.233	0.0140578
716.311	0.0141486
716.389	0.0141425
716.467	0.0143088
716.545	0.0144973
716.623	0.0146805
716.701	0.0146561
716.780	0.0145320
716.858	0.0147272
716.936	0.0148943
717.014	0.0148742
717.092	0.0148435
717.170	0.0149317
717.248	0.0151037
717.326	0.0150751
717.405	0.0151037
717.483	0.0150832
717.561	0.0152374
717.639	0.0152195
717.717	0.0152301
717.795	0.0152552
717.873	0.0152341
717.951	0.0151831
718.030	0.0152186
718.108	0.0152150
718.186	0.0150751
718.264	0.0151859
718.342	0.0151384
718.420	0.0150522
718.498	0.0148520
718.576	0.0147097
718.655	0.0145715
718.733	0.0145511
718.811	0.0144170
718.889	0.0143744
718.967	0.0141960
719.045	0.0140074
719.123	0.0140746
719.201	0.0140086
719.280	0.0138452
719.358	0.0137671
719.436	0.0137299
719.514	0.0136780
719.592	0.0137766
719.670	0.0138370
719.748	0.0137365
719.826	0.0137723
719.905	0.0140057
719.983	0.0141619
720.061	0.0142653
720.139	0.0142842
720.217	0.0144027
720.295	0.0144945
720.373	0.0147256
720.451	0.0149790
720.530	0.0148326
720.608	0.0149567
720.686	0.0151149
720.764	0.0151960
720.842	0.0150469
720.920	0.0152551
720.998	0.0151826
721.076	0.0151995
721.155	0.0150597
721.233	0.0149957
721.311	0.0150898
721.389	0.0150318
721.467	0.0150747
721.545	0.0150655
721.623	0.0148437
721.701	0.0148444
721.780	0.0148061
721.858	0.0147097
721.936	0.0146417
722.014	0.0145172
722.092	0.0144544
722.170	0.0143681
722.248	0.0142663
722.326	0.0142465
722.405	0.0140568
722.483	0.0141125
722.561	0.0140618
722.639	0.0139844
722.717	0.0140327
722.795	0.0140598
722.873	0.0142197
722.951	0.0140430
723.030	0.0141911
723.108	0.0142602
723.186	0.0141794
723.264	0.0141220
723.342	0.0141455
723.420	0.0143349
723.498	0.0142783
723.576	0.0142167
723.655	0.0142317
723.733	0.0144205
723.811	0.0143313
723.889	0.0144543
723.967	0.0145499
724.045	0.0145814
724.123	0.0147995
724.201	0.0149127
724.280	0.0149716
724.358	0.0150489
724.436	0.0150826
724.514	0.0151423
724.592	0.0150768
724.670	0.0151833
724.748	0.0151619
724.826	0.0151817
724.905	0.0150697
724.983	0.0151029
725.061	0.0150209
725.139	0.0149884
725.217	0.0147035
725.295	0.0148120
725.373	0.0149104
725.451	0.0146812
725.530	0.0147318
725.608	0.0146489
725.686	0.0145605
