05/20/2022	16:44:58	Ver.	4.1	UNKNOWN
Optical Delay	639.982744	Delta X		0.078125	Sweeps	1	Scan Rate	0/0
Coordinates	Axis 1	NaN	Axis 2	NaN	Axis 3	NaN	Axis 4	NaN	Axis 5	NaN	Axis 6	0.000000
TX Power	0.000000	RX Power	0.000000

639.983	0.0150190
640.061	0.0148730
640.139	0.0147620
640.217	0.0148107
640.295	0.0149050
640.373	0.0146687
640.451	0.0147100
640.530	0.0149377
640.608	0.0147646
640.686	0.0147462
640.764	0.0148295
640.842	0.0147491
640.920	0.0147484
640.998	0.0146385
641.076	0.0147065
641.155	0.0147398
641.233	0.0148513
641.311	0.0147316
641.389	0.0146086
641.467	0.0147398
641.545	0.0147670
641.623	0.0148943
641.701	0.0147990
641.780	0.0146512
641.858	0.0148194
641.936	0.0147337
642.014	0.0148045
642.092	0.0147279
642.170	0.0147178
642.248	0.0146906
642.326	0.0148264
642.405	0.0147246
642.483	0.0146577
642.561	0.0146171
642.639	0.0145737
642.717	0.0146645
642.795	0.0148097
642.873	0.0148440
642.951	0.0147999
643.030	0.0146337
643.108	0.0146642
643.186	0.0147238
643.264	0.0147860
643.342	0.0147878
643.420	0.0147865
643.498	0.0147488
643.576	0.0148971
643.655	0.0149261
643.733	0.0146669
643.811	0.0147047
643.889	0.0147868
643.967	0.0147778
644.045	0.0149237
644.123	0.0146619
644.201	0.0147305
644.280	0.0148103
644.358	0.0147589
644.436	0.0147936
644.514	0.0146265
644.592	0.0147511
644.670	0.0145834
644.748	0.0146657
644.826	0.0148206
644.905	0.0147713
644.983	0.0147671
645.061	0.0148378
645.139	0.0146493
645.217	0.0148717
645.295	0.0147933
645.373	0.0148270
645.451	0.0146844
645.530	0.0148145
645.608	0.0148647
645.686	0.0147687
645.764	0.0148477
645.842	0.0147995
645.920	0.0149198
645.998	0.0149349
646.076	0.0147392
646.155	0.0147858
646.233	0.0147364
646.311	0.0148910
646.389	0.0148015
646.467	0.0146576
646.545	0.0147554
646.623	0.0148032
646.701	0.0147279
646.780	0.0148701
646.858	0.0148126
646.936	0.0147961
647.014	0.0146984
647.092	0.0147568
647.170	0.0148212
647.248	0.0147939
647.326	0.0147508
647.405	0.0146587
647.483	0.0148154
647.561	0.0146978
647.639	0.0148087
647.717	0.0148405
647.795	0.0148140
647.873	0.0147470
647.951	0.0148431
648.030	0.0147727
648.108	0.0147949
648.186	0.0147199
648.264	0.0148405
648.342	0.0148265
648.420	0.0147857
648.498	0.0149180
648.576	0.0147762
648.655	0.0147858
648.733	0.0148803
648.811	0.0148267
648.889	0.0149379
648.967	0.0148632
649.045	0.0146439
649.123	0.0146905
649.201	0.0148663
649.280	0.0147356
649.358	0.0147737
649.436	0.0147378
649.514	0.0146620
649.592	0.0148150
649.670	0.0147039
649.748	0.0146847
649.826	0.0146889
649.905	0.0147524
649.983	0.0147804
650.061	0.0147305
650.139	0.0147249
650.217	0.0146482
650.295	0.0146674
650.373	0.0148009
650.451	0.0148946
650.530	0.0147317
650.608	0.0148409
650.686	0.0147550
650.764	0.0148133
650.842	0.0148117
650.920	0.0148991
650.998	0.0149072
651.076	0.0148411
651.155	0.0147226
651.233	0.0148385
651.311	0.0148315
651.389	0.0147791
651.467	0.0147497
651.545	0.0146932
651.623	0.0148004
651.701	0.0148769
651.780	0.0147311
651.858	0.0148280
651.936	0.0148111
652.014	0.0147230
652.092	0.0147736
652.170	0.0148820
652.248	0.0147913
652.326	0.0148067
652.405	0.0147568
652.483	0.0149117
652.561	0.0148309
652.639	0.0147495
652.717	0.0147793
652.795	0.0148563
652.873	0.0147719
652.951	0.0147120
653.030	0.0147565
653.108	0.0148050
653.186	0.0149084
653.264	0.0148420
653.342	0.0146272
653.420	0.0148139
653.498	0.0148251
653.576	0.0147446
653.655	0.0147420
653.733	0.0147427
653.811	0.0148132
653.889	0.0147824
653.967	0.0148758
654.045	0.0147187
654.123	0.0147599
654.201	0.0147830
654.280	0.0147422
654.358	0.0147334
654.436	0.0148406
654.514	0.0147997
654.592	0.0148756
654.670	0.0147395
654.748	0.0148171
654.826	0.0146981
654.905	0.0148356
654.983	0.0149139
655.061	0.0148851
655.139	0.0149495
655.217	0.0148215
655.295	0.0148508
655.373	0.0149281
655.451	0.0148557
655.530	0.0149551
655.608	0.0149522
655.686	0.0150044
655.764	0.0149487
655.842	0.0150182
655.920	0.0149863
655.998	0.0150816
656.076	0.0149008
656.155	0.0149133
656.233	0.0149942
656.311	0.0150517
656.389	0.0149739
656.467	0.0150385
656.545	0.0150307
656.623	0.0149783
656.701	0.0149020
656.780	0.0150348
656.858	0.0149190
656.936	0.0149011
657.014	0.0149767
657.092	0.0150049
657.170	0.0148920
657.248	0.0149809
657.326	0.0149647
657.405	0.0150690
657.483	0.0149140
657.561	0.0150613
657.639	0.0150982
657.717	0.0150124
657.795	0.0150432
657.873	0.0150616
657.951	0.0151289
658.030	0.0150318
658.108	0.0151311
658.186	0.0150935
658.264	0.0150865
658.342	0.0151496
658.420	0.0151596
658.498	0.0151709
658.576	0.0151138
658.655	0.0150816
658.733	0.0150237
658.811	0.0149920
658.889	0.0152174
658.967	0.0150665
659.045	0.0150810
659.123	0.0149732
659.201	0.0149194
659.280	0.0150654
659.358	0.0150579
659.436	0.0150635
659.514	0.0149210
659.592	0.0149179
659.670	0.0149599
659.748	0.0150352
659.826	0.0149462
659.905	0.0151115
659.983	0.0148935
660.061	0.0150944
660.139	0.0149845
660.217	0.0148317
660.295	0.0149483
660.373	0.0151376
660.451	0.0150590
660.530	0.0150316
660.608	0.0151019
660.686	0.0149422
660.764	0.0149460
660.842	0.0150070
660.920	0.0150437
660.998	0.0150103
661.076	0.0150391
661.155	0.0148943
661.233	0.0149770
661.311	0.0149560
661.389	0.0149536
661.467	0.0148412
661.545	0.0149512
661.623	0.0148793
661.701	0.0148986
661.780	0.0149741
661.858	0.0149796
661.936	0.0148900
662.014	0.0148554
662.092	0.0148834
662.170	0.0149080
662.248	0.0150598
662.326	0.0149324
662.405	0.0148691
662.483	0.0151128
662.561	0.0148901
662.639	0.0149108
662.717	0.0150887
662.795	0.0150520
662.873	0.0150123
662.951	0.0149763
663.030	0.0151436
663.108	0.0150288
663.186	0.0150335
663.264	0.0151503
663.342	0.0150045
663.420	0.0150144
663.498	0.0150056
663.576	0.0149797
663.655	0.0150201
663.733	0.0149953
663.811	0.0147463
663.889	0.0147926
663.967	0.0148538
664.045	0.0148820
664.123	0.0149825
664.201	0.0148060
664.280	0.0148331
664.358	0.0147614
664.436	0.0148112
664.514	0.0147471
664.592	0.0148823
664.670	0.0149374
664.748	0.0148375
664.826	0.0148660
664.905	0.0149509
664.983	0.0147779
665.061	0.0148219
665.139	0.0149336
665.217	0.0148045
665.295	0.0148160
665.373	0.0145872
665.451	0.0147511
665.530	0.0147348
665.608	0.0146690
665.686	0.0148429
665.764	0.0146355
665.842	0.0146432
665.920	0.0146195
665.998	0.0146120
666.076	0.0147187
666.155	0.0147907
666.233	0.0148058
666.311	0.0148267
666.389	0.0149059
666.467	0.0147803
666.545	0.0149850
666.623	0.0148672
666.701	0.0149477
666.780	0.0150167
666.858	0.0149964
666.936	0.0148291
667.014	0.0149850
667.092	0.0149651
667.170	0.0148456
667.248	0.0148226
667.326	0.0149171
667.405	0.0150111
667.483	0.0149027
667.561	0.0148622
667.639	0.0148247
667.717	0.0147416
667.795	0.0148000
667.873	0.0148094
667.951	0.0148737
668.030	0.0148492
668.108	0.0147910
668.186	0.0147763
668.264	0.0146735
668.342	0.0145132
668.420	0.0145453
668.498	0.0145564
668.576	0.0145493
668.655	0.0144078
668.733	0.0141975
668.811	0.0143077
668.889	0.0144143
668.967	0.0143165
669.045	0.0143204
669.123	0.0144129
669.201	0.0143517
669.280	0.0143156
669.358	0.0144715
669.436	0.0144849
669.514	0.0145693
669.592	0.0146814
669.670	0.0146797
669.748	0.0148647
669.826	0.0149091
669.905	0.0148767
669.983	0.0148621
670.061	0.0149660
670.139	0.0149593
670.217	0.0150768
670.295	0.0152052
670.373	0.0151091
670.451	0.0153214
670.530	0.0152562
670.608	0.0152882
670.686	0.0152150
670.764	0.0153092
670.842	0.0152272
670.920	0.0153994
670.998	0.0153220
671.076	0.0153479
671.155	0.0153145
671.233	0.0150774
671.311	0.0150796
671.389	0.0150687
671.467	0.0149767
671.545	0.0147289
671.623	0.0147038
671.701	0.0145446
671.780	0.0145183
671.858	0.0144292
671.936	0.0142382
672.014	0.0140963
672.092	0.0141036
672.170	0.0140808
672.248	0.0140233
672.326	0.0139761
672.405	0.0139803
672.483	0.0139467
672.561	0.0141016
672.639	0.0140238
672.717	0.0140555
672.795	0.0140521
672.873	0.0143454
672.951	0.0144085
673.030	0.0144377
673.108	0.0144860
673.186	0.0146198
673.264	0.0146157
673.342	0.0150069
673.420	0.0149929
673.498	0.0152200
673.576	0.0151865
673.655	0.0154514
673.733	0.0156630
673.811	0.0156223
673.889	0.0156182
673.967	0.0158033
674.045	0.0156902
674.123	0.0156703
674.201	0.0154600
674.280	0.0155386
674.358	0.0156392
674.436	0.0154760
674.514	0.0152861
674.592	0.0152533
674.670	0.0151775
674.748	0.0150035
674.826	0.0148484
674.905	0.0145515
674.983	0.0144502
675.061	0.0144509
675.139	0.0143573
675.217	0.0141705
675.295	0.0140323
675.373	0.0138667
675.451	0.0139459
675.530	0.0138607
675.608	0.0138287
675.686	0.0139174
675.764	0.0139644
675.842	0.0137497
675.920	0.0138079
675.998	0.0139935
676.076	0.0140311
676.155	0.0140837
676.233	0.0143125
676.311	0.0145709
676.389	0.0146199
676.467	0.0148087
676.545	0.0149935
676.623	0.0153050
676.701	0.0154227
676.780	0.0154375
676.858	0.0157645
676.936	0.0159033
677.014	0.0157899
677.092	0.0160071
677.170	0.0160738
677.248	0.0161021
677.326	0.0162518
677.405	0.0161302
677.483	0.0162247
677.561	0.0161619
677.639	0.0160571
677.717	0.0158550
677.795	0.0158081
677.873	0.0158649
677.951	0.0158028
678.030	0.0155782
678.108	0.0155218
678.186	0.0153651
678.264	0.0154449
678.342	0.0151424
678.420	0.0148035
678.498	0.0147849
678.576	0.0147975
678.655	0.0147643
678.733	0.0146597
678.811	0.0146456
678.889	0.0146748
678.967	0.0147696
679.045	0.0148466
679.123	0.0147435
679.201	0.0147281
679.280	0.0145019
679.358	0.0147200
679.436	0.0146849
679.514	0.0146786
679.592	0.0146287
679.670	0.0145377
679.748	0.0145325
679.826	0.0146133
679.905	0.0145833
679.983	0.0147533
680.061	0.0148488
680.139	0.0146297
680.217	0.0148919
680.295	0.0149039
680.373	0.0150596
680.451	0.0148994
680.530	0.0150555
680.608	0.0147868
680.686	0.0149780
680.764	0.0148691
680.842	0.0149733
680.920	0.0149267
680.998	0.0148201
681.076	0.0148574
681.155	0.0148721
681.233	0.0148102
681.311	0.0149510
681.389	0.0150635
681.467	0.0151241
681.545	0.0153825
681.623	0.0152911
681.701	0.0153776
681.780	0.0155869
681.858	0.0157935
681.936	0.0158121
682.014	0.0157882
682.092	0.0159142
682.170	0.0158307
682.248	0.0159298
682.326	0.0158694
682.405	0.0157765
682.483	0.0157159
682.561	0.0156631
682.639	0.0155871
682.717	0.0155398
682.795	0.0154894
682.873	0.0153674
682.951	0.0151327
683.030	0.0150860
683.108	0.0149435
683.186	0.0149428
683.264	0.0147901
683.342	0.0144640
683.420	0.0144212
683.498	0.0141434
683.576	0.0140398
683.655	0.0137881
683.733	0.0136678
683.811	0.0135882
683.889	0.0133982
683.967	0.0131849
684.045	0.0132191
684.123	0.0131123
684.201	0.0130703
684.280	0.0132431
684.358	0.0131641
684.436	0.0134454
684.514	0.0134868
684.592	0.0136020
684.670	0.0139197
684.748	0.0139904
684.826	0.0142431
684.905	0.0144808
684.983	0.0147876
685.061	0.0148752
685.139	0.0150854
685.217	0.0152653
685.295	0.0154468
685.373	0.0156165
685.451	0.0157214
685.530	0.0160854
685.608	0.0160201
685.686	0.0160185
685.764	0.0163402
685.842	0.0162315
685.920	0.0162782
685.998	0.0162345
686.076	0.0162949
686.155	0.0161133
686.233	0.0161509
686.311	0.0158826
686.389	0.0157573
686.467	0.0154670
686.545	0.0154176
686.623	0.0151203
686.701	0.0149847
686.780	0.0148486
686.858	0.0144936
686.936	0.0144602
687.014	0.0142835
687.092	0.0140984
687.170	0.0138701
687.248	0.0137338
687.326	0.0134328
687.405	0.0134934
687.483	0.0134212
687.561	0.0133168
687.639	0.0131556
687.717	0.0130653
687.795	0.0130869
687.873	0.0130521
687.951	0.0132825
688.030	0.0134134
688.108	0.0134987
688.186	0.0137132
688.264	0.0139178
688.342	0.0142272
688.420	0.0143885
688.498	0.0147191
688.576	0.0149948
688.655	0.0152026
688.733	0.0153699
688.811	0.0156782
688.889	0.0157591
688.967	0.0159015
689.045	0.0162173
689.123	0.0162090
689.201	0.0162540
689.280	0.0162300
689.358	0.0162962
689.436	0.0162428
689.514	0.0162949
689.592	0.0162972
689.670	0.0161552
689.748	0.0160596
689.826	0.0160497
689.905	0.0159431
689.983	0.0157938
690.061	0.0155721
690.139	0.0153389
690.217	0.0151661
690.295	0.0150055
690.373	0.0148857
690.451	0.0147460
690.530	0.0145442
690.608	0.0144125
690.686	0.0141981
690.764	0.0142204
690.842	0.0140453
690.920	0.0139654
690.998	0.0140816
691.076	0.0140862
691.155	0.0140679
691.233	0.0138519
691.311	0.0140668
691.389	0.0141733
691.467	0.0141867
691.545	0.0142090
691.623	0.0143687
691.701	0.0143854
691.780	0.0144974
691.858	0.0144115
691.936	0.0144928
692.014	0.0146165
692.092	0.0146659
692.170	0.0146487
692.248	0.0148522
692.326	0.0151080
692.405	0.0151431
692.483	0.0153207
692.561	0.0153146
692.639	0.0152312
692.717	0.0154714
692.795	0.0155241
692.873	0.0155561
692.951	0.0153993
693.030	0.0154677
693.108	0.0153622
693.186	0.0154155
693.264	0.0153829
693.342	0.0154111
693.420	0.0152972
693.498	0.0151976
693.576	0.0151999
693.655	0.0154793
693.733	0.0153971
693.811	0.0153655
693.889	0.0153776
693.967	0.0155012
694.045	0.0154478
694.123	0.0153720
694.201	0.0154226
694.280	0.0154250
694.358	0.0154125
694.436	0.0153586
694.514	0.0153256
694.592	0.0152093
694.670	0.0153786
694.748	0.0153298
694.826	0.0151475
694.905	0.0152229
694.983	0.0152222
695.061	0.0150355
695.139	0.0149942
695.217	0.0149722
695.295	0.0148029
695.373	0.0146198
695.451	0.0146122
695.530	0.0145698
695.608	0.0145380
695.686	0.0144233
695.764	0.0144912
695.842	0.0145114
695.920	0.0145249
695.998	0.0146065
696.076	0.0144209
696.155	0.0145338
696.233	0.0147457
696.311	0.0148383
696.389	0.0147147
696.467	0.0147613
696.545	0.0148798
696.623	0.0149008
696.701	0.0148584
696.780	0.0148470
696.858	0.0149880
696.936	0.0150198
697.014	0.0150159
697.092	0.0150774
697.170	0.0151143
697.248	0.0150861
697.326	0.0152822
697.405	0.0153136
697.483	0.0153661
697.561	0.0154450
697.639	0.0154267
697.717	0.0156020
697.795	0.0154563
697.873	0.0153922
697.951	0.0155677
698.030	0.0154762
698.108	0.0152977
698.186	0.0153599
698.264	0.0151528
698.342	0.0151378
698.420	0.0150480
698.498	0.0147961
698.576	0.0146834
698.655	0.0147553
698.733	0.0145602
698.811	0.0144630
698.889	0.0143024
698.967	0.0140575
699.045	0.0140044
699.123	0.0138788
699.201	0.0138444
699.280	0.0139220
699.358	0.0139022
699.436	0.0138411
699.514	0.0137443
699.592	0.0137674
699.670	0.0139559
699.748	0.0141174
699.826	0.0142612
699.905	0.0143863
699.983	0.0146132
700.061	0.0148527
700.139	0.0150513
700.217	0.0153643
700.295	0.0155482
700.373	0.0158359
700.451	0.0161524
700.530	0.0162375
700.608	0.0164785
700.686	0.0166366
700.764	0.0168591
700.842	0.0170788
700.920	0.0170708
700.998	0.0171383
701.076	0.0173338
701.155	0.0173037
701.233	0.0173164
701.311	0.0170396
701.389	0.0168185
701.467	0.0167751
701.545	0.0166648
701.623	0.0163088
701.701	0.0160513
701.780	0.0157523
701.858	0.0153529
701.936	0.0150822
702.014	0.0148739
702.092	0.0145509
702.170	0.0143591
702.248	0.0141661
702.326	0.0137341
702.405	0.0134193
702.483	0.0131934
702.561	0.0128352
702.639	0.0126518
702.717	0.0125781
702.795	0.0123930
702.873	0.0120569
702.951	0.0121710
703.030	0.0121916
703.108	0.0122770
703.186	0.0123521
703.264	0.0125365
703.342	0.0127402
703.420	0.0129286
703.498	0.0130988
703.576	0.0135046
703.655	0.0137601
703.733	0.0139944
703.811	0.0141602
703.889	0.0145090
703.967	0.0145498
704.045	0.0148663
704.123	0.0150993
704.201	0.0153545
704.280	0.0155181
704.358	0.0156078
704.436	0.0158306
704.514	0.0159949
704.592	0.0161221
704.670	0.0161571
704.748	0.0162489
704.826	0.0162613
704.905	0.0162397
704.983	0.0163517
705.061	0.0163168
705.139	0.0162760
705.217	0.0162222
705.295	0.0160270
705.373	0.0159766
705.451	0.0158539
705.530	0.0157449
705.608	0.0156939
705.686	0.0154788
705.764	0.0154530
705.842	0.0153035
705.920	0.0150268
705.998	0.0150924
706.076	0.0150323
706.155	0.0147411
706.233	0.0145521
706.311	0.0145261
706.389	0.0145775
706.467	0.0143822
706.545	0.0144022
706.623	0.0142700
706.701	0.0143642
706.780	0.0144020
706.858	0.0142433
706.936	0.0142789
707.014	0.0143305
707.092	0.0145188
707.170	0.0144542
707.248	0.0146507
707.326	0.0147221
707.405	0.0146544
707.483	0.0148402
707.561	0.0147707
707.639	0.0148744
707.717	0.0151247
707.795	0.0152158
707.873	0.0153388
707.951	0.0151585
708.030	0.0151513
708.108	0.0152768
708.186	0.0153547
708.264	0.0153218
708.342	0.0152277
708.420	0.0152458
708.498	0.0151933
708.576	0.0152658
708.655	0.0151533
708.733	0.0150428
708.811	0.0151424
708.889	0.0152019
708.967	0.0149102
709.045	0.0148589
709.123	0.0149555
709.201	0.0148740
709.280	0.0146432
709.358	0.0147710
709.436	0.0147715
709.514	0.0145908
709.592	0.0144739
709.670	0.0144707
709.748	0.0145419
709.826	0.0147514
709.905	0.0145930
709.983	0.0147297
710.061	0.0147509
710.139	0.0147443
710.217	0.0146334
710.295	0.0147675
710.373	0.0148243
710.451	0.0147374
710.530	0.0147895
710.608	0.0146705
710.686	0.0146057
710.764	0.0147159
710.842	0.0147003
710.920	0.0145596
710.998	0.0146083
711.076	0.0146688
711.155	0.0146339
711.233	0.0144802
711.311	0.0146245
711.389	0.0146515
711.467	0.0145470
711.545	0.0145665
711.623	0.0147655
711.701	0.0147017
711.780	0.0147274
711.858	0.0149200
711.936	0.0149305
712.014	0.0149363
712.092	0.0150518
712.170	0.0149896
712.248	0.0151320
712.326	0.0151092
712.405	0.0152837
712.483	0.0152676
712.561	0.0153326
712.639	0.0153744
712.717	0.0156189
712.795	0.0156012
712.873	0.0158401
712.951	0.0159869
713.030	0.0158877
713.108	0.0161119
713.186	0.0162408
713.264	0.0161813
713.342	0.0161023
713.420	0.0162846
713.498	0.0160720
713.576	0.0161050
713.655	0.0159381
713.733	0.0158789
713.811	0.0157233
713.889	0.0157038
713.967	0.0154935
714.045	0.0154919
714.123	0.0152151
714.201	0.0149839
714.280	0.0147824
714.358	0.0147276
714.436	0.0146138
714.514	0.0145466
714.592	0.0141909
714.670	0.0141665
714.748	0.0138266
714.826	0.0138176
714.905	0.0138258
714.983	0.0135336
715.061	0.0135107
715.139	0.0134277
715.217	0.0133952
715.295	0.0135462
715.373	0.0136180
715.451	0.0136057
715.530	0.0136982
715.608	0.0137959
715.686	0.0138562
715.764	0.0140141
715.842	0.0140009
715.920	0.0142544
715.998	0.0140921
716.076	0.0142040
716.155	0.0143344
716.233	0.0142846
716.311	0.0144618
716.389	0.0144971
716.467	0.0146880
716.545	0.0147600
716.623	0.0147440
716.701	0.0148795
716.780	0.0151057
716.858	0.0151311
716.936	0.0149981
717.014	0.0152979
717.092	0.0154469
717.170	0.0154901
717.248	0.0154878
717.326	0.0155664
717.405	0.0156162
717.483	0.0158543
717.561	0.0158962
717.639	0.0156854
717.717	0.0157788
717.795	0.0157728
717.873	0.0158784
717.951	0.0158098
718.030	0.0157462
718.108	0.0158296
718.186	0.0156709
718.264	0.0155817
718.342	0.0155767
718.420	0.0155430
718.498	0.0153304
718.576	0.0152765
718.655	0.0153204
718.733	0.0151961
718.811	0.0149074
718.889	0.0150440
718.967	0.0149635
719.045	0.0145991
719.123	0.0145428
719.201	0.0145189
719.280	0.0142902
719.358	0.0142838
719.436	0.0142970
719.514	0.0141193
719.592	0.0140662
719.670	0.0140823
719.748	0.0142387
719.826	0.0141784
719.905	0.0143319
719.983	0.0143880
720.061	0.0146087
720.139	0.0148135
720.217	0.0149944
720.295	0.0151122
720.373	0.0151899
720.451	0.0152677
720.530	0.0153471
720.608	0.0153258
720.686	0.0154701
720.764	0.0154800
720.842	0.0154966
720.920	0.0155469
720.998	0.0153706
721.076	0.0153199
721.155	0.0154758
721.233	0.0154935
721.311	0.0153860
721.389	0.0153758
721.467	0.0154454
721.545	0.0152805
721.623	0.0152567
721.701	0.0151203
721.780	0.0150122
721.858	0.0149484
721.936	0.0148961
722.014	0.0148634
722.092	0.0148875
722.170	0.0147237
722.248	0.0145335
722.326	0.0146693
722.405	0.0144788
722.483	0.0143182
722.561	0.0143452
722.639	0.0144463
722.717	0.0145046
722.795	0.0144726
722.873	0.0145019
722.951	0.0145462
723.030	0.0145147
723.108	0.0146402
723.186	0.0144942
723.264	0.0144811
723.342	0.0144187
723.420	0.0144746
723.498	0.0145732
723.576	0.0146169
723.655	0.0145538
723.733	0.0146200
723.811	0.0146214
723.889	0.0145783
723.967	0.0146552
724.045	0.0147186
724.123	0.0148955
724.201	0.0147606
724.280	0.0149371
724.358	0.0150887
724.436	0.0151118
724.514	0.0150982
724.592	0.0152984
724.670	0.0155441
724.748	0.0152971
724.826	0.0152639
724.905	0.0153970
724.983	0.0154704
725.061	0.0153365
725.139	0.0153107
725.217	0.0152953
725.295	0.0152062
725.373	0.0152131
725.451	0.0151457
725.530	0.0150822
725.608	0.0149480
725.686	0.0150053
