05/20/2022	16:45:53	Ver.	4.1	UNKNOWN
Optical Delay	639.982744	Delta X		0.078125	Sweeps	1	Scan Rate	0/0
Coordinates	Axis 1	NaN	Axis 2	NaN	Axis 3	NaN	Axis 4	NaN	Axis 5	NaN	Axis 6	0.000000
TX Power	0.000000	RX Power	0.000000

639.983	0.0146928
640.061	0.0147572
640.139	0.0147333
640.217	0.0147271
640.295	0.0146567
640.373	0.0147400
640.451	0.0148032
640.530	0.0146622
640.608	0.0145596
640.686	0.0148001
640.764	0.0146677
640.842	0.0145872
640.920	0.0147731
640.998	0.0146944
641.076	0.0145887
641.155	0.0146387
641.233	0.0147375
641.311	0.0147487
641.389	0.0147291
641.467	0.0147701
641.545	0.0148129
641.623	0.0147062
641.701	0.0147211
641.780	0.0147948
641.858	0.0147622
641.936	0.0148267
642.014	0.0148770
642.092	0.0147394
642.170	0.0147803
642.248	0.0148593
642.326	0.0148031
642.405	0.0148225
642.483	0.0147878
642.561	0.0148193
642.639	0.0145945
642.717	0.0147633
642.795	0.0147170
642.873	0.0147150
642.951	0.0145768
643.030	0.0147721
643.108	0.0146388
643.186	0.0146808
643.264	0.0146284
643.342	0.0146548
643.420	0.0146884
643.498	0.0146455
643.576	0.0146816
643.655	0.0147085
643.733	0.0148012
643.811	0.0147649
643.889	0.0146428
643.967	0.0146720
644.045	0.0147638
644.123	0.0147262
644.201	0.0146265
644.280	0.0147002
644.358	0.0146191
644.436	0.0146720
644.514	0.0146956
644.592	0.0147446
644.670	0.0147135
644.748	0.0146853
644.826	0.0147605
644.905	0.0147382
644.983	0.0146468
645.061	0.0147042
645.139	0.0146256
645.217	0.0147108
645.295	0.0147004
645.373	0.0146457
645.451	0.0146208
645.530	0.0147333
645.608	0.0147204
645.686	0.0147291
645.764	0.0147082
645.842	0.0148004
645.920	0.0147228
645.998	0.0146376
646.076	0.0148142
646.155	0.0146989
646.233	0.0147342
646.311	0.0147179
646.389	0.0147236
646.467	0.0147499
646.545	0.0147325
646.623	0.0146957
646.701	0.0146463
646.780	0.0146812
646.858	0.0148632
646.936	0.0146632
647.014	0.0147134
647.092	0.0147627
647.170	0.0148259
647.248	0.0148306
647.326	0.0146707
647.405	0.0147206
647.483	0.0149486
647.561	0.0146990
647.639	0.0146606
647.717	0.0147825
647.795	0.0148468
647.873	0.0147260
647.951	0.0146482
648.030	0.0146786
648.108	0.0146918
648.186	0.0146510
648.264	0.0147346
648.342	0.0147956
648.420	0.0148582
648.498	0.0147836
648.576	0.0148580
648.655	0.0148376
648.733	0.0147907
648.811	0.0149394
648.889	0.0148851
648.967	0.0147401
649.045	0.0147134
649.123	0.0149289
649.201	0.0149370
649.280	0.0147207
649.358	0.0149117
649.436	0.0148691
649.514	0.0148284
649.592	0.0148377
649.670	0.0147098
649.748	0.0147997
649.826	0.0147564
649.905	0.0147327
649.983	0.0148418
650.061	0.0147704
650.139	0.0148114
650.217	0.0147553
650.295	0.0147756
650.373	0.0147493
650.451	0.0148528
650.530	0.0147871
650.608	0.0147272
650.686	0.0148571
650.764	0.0148293
650.842	0.0148965
650.920	0.0147922
650.998	0.0149095
651.076	0.0149319
651.155	0.0147690
651.233	0.0147805
651.311	0.0148589
651.389	0.0147653
651.467	0.0149535
651.545	0.0150410
651.623	0.0149004
651.701	0.0148801
651.780	0.0149838
651.858	0.0148801
651.936	0.0147771
652.014	0.0148850
652.092	0.0149507
652.170	0.0147872
652.248	0.0148223
652.326	0.0149152
652.405	0.0150557
652.483	0.0149628
652.561	0.0148690
652.639	0.0148627
652.717	0.0149494
652.795	0.0148650
652.873	0.0148436
652.951	0.0148167
653.030	0.0148775
653.108	0.0148953
653.186	0.0148685
653.264	0.0147961
653.342	0.0149639
653.420	0.0149722
653.498	0.0149208
653.576	0.0149303
653.655	0.0148399
653.733	0.0148101
653.811	0.0148168
653.889	0.0149516
653.967	0.0148028
654.045	0.0148871
654.123	0.0149567
654.201	0.0148445
654.280	0.0150025
654.358	0.0150330
654.436	0.0149461
654.514	0.0149867
654.592	0.0149352
654.670	0.0149823
654.748	0.0149847
654.826	0.0149552
654.905	0.0148435
654.983	0.0148215
655.061	0.0149857
655.139	0.0149174
655.217	0.0149457
655.295	0.0150887
655.373	0.0149780
655.451	0.0150082
655.530	0.0149878
655.608	0.0150778
655.686	0.0149919
655.764	0.0150264
655.842	0.0149262
655.920	0.0149808
655.998	0.0150719
656.076	0.0147896
656.155	0.0148491
656.233	0.0149875
656.311	0.0150407
656.389	0.0149787
656.467	0.0148370
656.545	0.0149695
656.623	0.0148686
656.701	0.0149451
656.780	0.0149294
656.858	0.0148858
656.936	0.0149227
657.014	0.0149596
657.092	0.0149603
657.170	0.0149078
657.248	0.0149109
657.326	0.0148107
657.405	0.0151417
657.483	0.0148824
657.561	0.0149065
657.639	0.0148368
657.717	0.0149078
657.795	0.0147424
657.873	0.0147951
657.951	0.0147115
658.030	0.0147609
658.108	0.0147548
658.186	0.0147943
658.264	0.0147964
658.342	0.0147911
658.420	0.0147897
658.498	0.0146978
658.576	0.0146981
658.655	0.0149431
658.733	0.0149454
658.811	0.0148031
658.889	0.0148933
658.967	0.0149229
659.045	0.0149348
659.123	0.0147746
659.201	0.0148471
659.280	0.0148222
659.358	0.0148640
659.436	0.0147492
659.514	0.0147740
659.592	0.0148923
659.670	0.0149699
659.748	0.0149858
659.826	0.0149438
659.905	0.0147218
659.983	0.0149811
660.061	0.0147521
660.139	0.0148572
660.217	0.0147428
660.295	0.0147411
660.373	0.0147517
660.451	0.0148563
660.530	0.0147923
660.608	0.0148612
660.686	0.0150278
660.764	0.0147534
660.842	0.0146622
660.920	0.0149068
660.998	0.0148700
661.076	0.0147020
661.155	0.0146668
661.233	0.0147188
661.311	0.0146659
661.389	0.0148249
661.467	0.0147971
661.545	0.0147824
661.623	0.0147215
661.701	0.0147572
661.780	0.0147108
661.858	0.0147937
661.936	0.0145876
662.014	0.0147112
662.092	0.0147620
662.170	0.0148122
662.248	0.0148138
662.326	0.0148413
662.405	0.0148524
662.483	0.0148466
662.561	0.0147614
662.639	0.0148355
662.717	0.0147166
662.795	0.0147895
662.873	0.0148084
662.951	0.0147802
663.030	0.0146906
663.108	0.0146849
663.186	0.0145815
663.264	0.0145704
663.342	0.0147292
663.420	0.0146002
663.498	0.0146961
663.576	0.0146126
663.655	0.0146384
663.733	0.0147612
663.811	0.0146278
663.889	0.0146590
663.967	0.0146951
664.045	0.0148418
664.123	0.0147633
664.201	0.0146870
664.280	0.0147425
664.358	0.0148134
664.436	0.0147559
664.514	0.0146795
664.592	0.0147735
664.670	0.0148182
664.748	0.0147178
664.826	0.0145979
664.905	0.0147410
664.983	0.0146299
665.061	0.0145626
665.139	0.0146252
665.217	0.0146107
665.295	0.0145683
665.373	0.0146661
665.451	0.0146460
665.530	0.0146766
665.608	0.0147357
665.686	0.0147973
665.764	0.0147094
665.842	0.0147530
665.920	0.0148769
665.998	0.0148476
666.076	0.0147951
666.155	0.0148556
666.233	0.0149046
666.311	0.0149918
666.389	0.0148787
666.467	0.0148881
666.545	0.0148093
666.623	0.0148470
666.701	0.0148970
666.780	0.0147962
666.858	0.0149499
666.936	0.0148790
667.014	0.0147731
667.092	0.0148399
667.170	0.0148483
667.248	0.0148091
667.326	0.0147411
667.405	0.0147233
667.483	0.0147182
667.561	0.0148396
667.639	0.0146730
667.717	0.0145542
667.795	0.0147482
667.873	0.0146686
667.951	0.0144958
668.030	0.0144954
668.108	0.0143919
668.186	0.0144032
668.264	0.0144930
668.342	0.0143420
668.420	0.0142247
668.498	0.0143947
668.576	0.0142941
668.655	0.0143746
668.733	0.0143048
668.811	0.0144517
668.889	0.0146738
668.967	0.0145701
669.045	0.0144964
669.123	0.0147912
669.201	0.0147722
669.280	0.0147893
669.358	0.0148347
669.436	0.0149956
669.514	0.0150542
669.592	0.0149924
669.670	0.0151563
669.748	0.0151533
669.826	0.0150877
669.905	0.0150885
669.983	0.0152531
670.061	0.0152080
670.139	0.0150945
670.217	0.0151694
670.295	0.0154962
670.373	0.0151886
670.451	0.0152265
670.530	0.0152244
670.608	0.0151887
670.686	0.0151481
670.764	0.0151539
670.842	0.0151131
670.920	0.0150536
670.998	0.0149921
671.076	0.0147784
671.155	0.0145466
671.233	0.0144888
671.311	0.0145170
671.389	0.0142354
671.467	0.0141332
671.545	0.0141506
671.623	0.0142017
671.701	0.0140518
671.780	0.0139836
671.858	0.0139668
671.936	0.0139792
672.014	0.0140601
672.092	0.0139240
672.170	0.0142194
672.248	0.0143030
672.326	0.0143951
672.405	0.0143448
672.483	0.0144158
672.561	0.0146087
672.639	0.0146812
672.717	0.0148164
672.795	0.0149065
672.873	0.0152172
672.951	0.0153643
673.030	0.0154436
673.108	0.0155241
673.186	0.0156125
673.264	0.0157335
673.342	0.0157087
673.420	0.0158768
673.498	0.0159295
673.576	0.0159593
673.655	0.0159755
673.733	0.0157581
673.811	0.0159248
673.889	0.0159665
673.967	0.0156609
674.045	0.0156244
674.123	0.0154650
674.201	0.0153522
674.280	0.0150518
674.358	0.0149874
674.436	0.0148805
674.514	0.0146313
674.592	0.0146434
674.670	0.0145191
674.748	0.0143287
674.826	0.0142803
674.905	0.0142887
674.983	0.0142131
675.061	0.0141286
675.139	0.0139800
675.217	0.0140048
675.295	0.0138126
675.373	0.0139834
675.451	0.0139806
675.530	0.0140238
675.608	0.0140530
675.686	0.0141285
675.764	0.0142430
675.842	0.0145128
675.920	0.0147335
675.998	0.0148532
676.076	0.0150258
676.155	0.0152217
676.233	0.0154906
676.311	0.0157053
676.389	0.0157924
676.467	0.0157921
676.545	0.0159239
676.623	0.0160975
676.701	0.0160922
676.780	0.0159966
676.858	0.0160966
676.936	0.0161634
677.014	0.0159525
677.092	0.0158662
677.170	0.0158142
677.248	0.0158424
677.326	0.0158089
677.405	0.0155671
677.483	0.0155114
677.561	0.0152987
677.639	0.0152702
677.717	0.0151150
677.795	0.0149150
677.873	0.0147540
677.951	0.0147827
678.030	0.0144894
678.108	0.0144626
678.186	0.0142848
678.264	0.0144032
678.342	0.0142005
678.420	0.0141785
678.498	0.0141560
678.576	0.0142145
678.655	0.0141174
678.733	0.0141994
678.811	0.0142969
678.889	0.0141225
678.967	0.0143649
679.045	0.0143555
679.123	0.0143837
679.201	0.0143767
679.280	0.0144817
679.358	0.0145070
679.436	0.0145401
679.514	0.0145836
679.592	0.0146716
679.670	0.0147115
679.748	0.0146541
679.826	0.0146575
679.905	0.0145702
679.983	0.0146928
680.061	0.0145038
680.139	0.0145897
680.217	0.0146717
680.295	0.0146561
680.373	0.0145371
680.451	0.0145596
680.530	0.0145047
680.608	0.0147095
680.686	0.0146719
680.764	0.0144692
680.842	0.0146214
680.920	0.0148177
680.998	0.0149207
681.076	0.0149958
681.155	0.0150170
681.233	0.0149819
681.311	0.0151453
681.389	0.0151008
681.467	0.0153880
681.545	0.0153836
681.623	0.0155079
681.701	0.0154434
681.780	0.0154284
681.858	0.0154938
681.936	0.0154463
682.014	0.0152882
682.092	0.0152465
682.170	0.0154081
682.248	0.0154253
682.326	0.0152646
682.405	0.0151367
682.483	0.0150771
682.561	0.0149633
682.639	0.0148658
682.717	0.0146774
682.795	0.0145583
682.873	0.0142460
682.951	0.0141782
683.030	0.0140475
683.108	0.0141120
683.186	0.0138326
683.264	0.0136699
683.342	0.0136781
683.420	0.0136046
683.498	0.0134721
683.576	0.0133479
683.655	0.0133639
683.733	0.0133686
683.811	0.0134058
683.889	0.0134114
683.967	0.0135910
684.045	0.0136716
684.123	0.0139155
684.201	0.0140414
684.280	0.0141024
684.358	0.0145521
684.436	0.0147485
684.514	0.0149174
684.592	0.0150777
684.670	0.0153114
684.748	0.0154279
684.826	0.0156715
684.905	0.0158714
684.983	0.0159753
685.061	0.0161530
685.139	0.0162646
685.217	0.0161811
685.295	0.0163078
685.373	0.0163927
685.451	0.0161926
685.530	0.0162930
685.608	0.0163565
685.686	0.0162373
685.764	0.0161060
685.842	0.0160081
685.920	0.0158106
685.998	0.0155902
686.076	0.0153714
686.155	0.0152116
686.233	0.0151652
686.311	0.0150687
686.389	0.0149649
686.467	0.0147040
686.545	0.0143696
686.623	0.0143584
686.701	0.0142361
686.780	0.0140065
686.858	0.0138121
686.936	0.0137714
687.014	0.0137404
687.092	0.0134908
687.170	0.0134189
687.248	0.0135095
687.326	0.0136087
687.405	0.0135020
687.483	0.0134421
687.561	0.0135239
687.639	0.0136832
687.717	0.0138428
687.795	0.0140449
687.873	0.0140921
687.951	0.0140837
688.030	0.0143446
688.108	0.0144437
688.186	0.0148107
688.264	0.0148447
688.342	0.0150578
688.420	0.0154033
688.498	0.0157233
688.576	0.0157415
688.655	0.0157719
688.733	0.0159095
688.811	0.0161362
688.889	0.0161916
688.967	0.0161151
689.045	0.0161808
689.123	0.0162090
689.201	0.0162105
689.280	0.0161271
689.358	0.0161847
689.436	0.0160176
689.514	0.0160081
689.592	0.0158373
689.670	0.0158142
689.748	0.0155759
689.826	0.0154591
689.905	0.0155404
689.983	0.0152808
690.061	0.0151334
690.139	0.0149955
690.217	0.0148672
690.295	0.0146837
690.373	0.0146335
690.451	0.0144507
690.530	0.0143842
690.608	0.0141794
690.686	0.0142120
690.764	0.0142751
690.842	0.0139402
690.920	0.0139770
690.998	0.0139941
691.076	0.0140647
691.155	0.0141356
691.233	0.0142674
691.311	0.0141985
691.389	0.0141634
691.467	0.0141518
691.545	0.0144625
691.623	0.0143721
691.701	0.0143811
691.780	0.0144071
691.858	0.0145871
691.936	0.0147652
692.014	0.0147392
692.092	0.0148286
692.170	0.0149046
692.248	0.0151124
692.326	0.0150925
692.405	0.0152291
692.483	0.0153738
692.561	0.0155153
692.639	0.0155919
692.717	0.0155824
692.795	0.0156984
692.873	0.0156738
692.951	0.0157224
693.030	0.0156802
693.108	0.0155275
693.186	0.0154075
693.264	0.0155302
693.342	0.0154175
693.420	0.0153410
693.498	0.0155261
693.576	0.0153719
693.655	0.0152555
693.733	0.0152650
693.811	0.0152624
693.889	0.0152831
693.967	0.0152574
694.045	0.0152685
694.123	0.0150768
694.201	0.0151072
694.280	0.0151855
694.358	0.0150725
694.436	0.0149718
694.514	0.0147702
694.592	0.0147627
694.670	0.0148458
694.748	0.0147267
694.826	0.0147114
694.905	0.0145419
694.983	0.0145399
695.061	0.0143860
695.139	0.0143436
695.217	0.0143876
695.295	0.0142879
695.373	0.0143944
695.451	0.0144363
695.530	0.0142573
695.608	0.0144398
695.686	0.0144301
695.764	0.0145823
695.842	0.0144431
695.920	0.0145991
695.998	0.0146392
696.076	0.0146051
696.155	0.0148486
696.233	0.0148198
696.311	0.0146873
696.389	0.0148431
696.467	0.0150400
696.545	0.0149481
696.623	0.0150562
696.701	0.0149026
696.780	0.0150934
696.858	0.0152213
696.936	0.0151827
697.014	0.0153183
697.092	0.0153462
697.170	0.0154425
697.248	0.0154990
697.326	0.0155161
697.405	0.0154781
697.483	0.0154971
697.561	0.0155676
697.639	0.0155200
697.717	0.0154786
697.795	0.0154527
697.873	0.0152466
697.951	0.0154065
698.030	0.0153505
698.108	0.0152120
698.186	0.0151936
698.264	0.0151162
698.342	0.0149816
698.420	0.0147568
698.498	0.0146202
698.576	0.0146188
698.655	0.0145678
698.733	0.0144191
698.811	0.0141988
698.889	0.0141556
698.967	0.0141396
699.045	0.0137930
699.123	0.0136282
699.201	0.0135445
699.280	0.0136279
699.358	0.0136291
699.436	0.0135850
699.514	0.0136379
699.592	0.0137154
699.670	0.0138244
699.748	0.0138149
699.826	0.0140491
699.905	0.0143279
699.983	0.0142369
700.061	0.0144895
700.139	0.0148154
700.217	0.0151489
700.295	0.0153033
700.373	0.0155414
700.451	0.0157001
700.530	0.0159470
700.608	0.0161463
700.686	0.0162245
700.764	0.0164214
700.842	0.0163791
700.920	0.0165608
700.998	0.0166039
701.076	0.0165496
701.155	0.0163159
701.233	0.0163225
701.311	0.0162027
701.389	0.0161185
701.467	0.0159108
701.545	0.0156992
701.623	0.0154819
701.701	0.0153449
701.780	0.0151965
701.858	0.0150307
701.936	0.0146552
702.014	0.0146057
702.092	0.0142872
702.170	0.0141073
702.248	0.0137449
702.326	0.0133878
702.405	0.0131694
702.483	0.0130406
702.561	0.0127969
702.639	0.0126035
702.717	0.0124168
702.795	0.0125715
702.873	0.0125775
702.951	0.0125735
703.030	0.0126115
703.108	0.0129649
703.186	0.0131010
703.264	0.0133882
703.342	0.0135865
703.420	0.0138836
703.498	0.0142226
703.576	0.0144825
703.655	0.0146224
703.733	0.0148080
703.811	0.0151363
703.889	0.0152284
703.967	0.0154474
704.045	0.0155621
704.123	0.0157787
704.201	0.0160931
704.280	0.0162571
704.358	0.0163926
704.436	0.0164748
704.514	0.0164590
704.592	0.0165220
704.670	0.0166737
704.748	0.0166356
704.826	0.0166820
704.905	0.0167773
704.983	0.0164452
705.061	0.0163762
705.139	0.0160733
705.217	0.0161774
705.295	0.0160323
705.373	0.0158761
705.451	0.0156403
705.530	0.0154320
705.608	0.0153329
705.686	0.0151225
705.764	0.0150703
705.842	0.0148209
705.920	0.0146381
705.998	0.0146014
706.076	0.0145252
706.155	0.0142889
706.233	0.0142837
706.311	0.0141282
706.389	0.0141118
706.467	0.0140321
706.545	0.0138167
706.623	0.0140578
706.701	0.0139880
706.780	0.0139780
706.858	0.0139941
706.936	0.0141024
707.014	0.0140672
707.092	0.0142689
707.170	0.0144904
707.248	0.0144961
707.326	0.0146046
707.405	0.0145981
707.483	0.0148315
707.561	0.0149355
707.639	0.0150143
707.717	0.0151215
707.795	0.0152441
707.873	0.0152131
707.951	0.0155798
708.030	0.0155518
708.108	0.0154150
708.186	0.0154741
708.264	0.0155335
708.342	0.0153653
708.420	0.0154239
708.498	0.0154242
708.576	0.0151945
708.655	0.0151614
708.733	0.0149607
708.811	0.0149738
708.889	0.0148172
708.967	0.0147289
709.045	0.0147691
709.123	0.0146870
709.201	0.0144940
709.280	0.0146263
709.358	0.0146719
709.436	0.0146526
709.514	0.0147466
709.592	0.0146408
709.670	0.0145160
709.748	0.0146896
709.826	0.0147526
709.905	0.0148338
709.983	0.0146946
710.061	0.0148922
710.139	0.0148564
710.217	0.0147625
710.295	0.0148011
710.373	0.0147469
710.451	0.0146902
710.530	0.0148270
710.608	0.0146305
710.686	0.0146041
710.764	0.0145459
710.842	0.0145226
710.920	0.0146244
710.998	0.0145408
711.076	0.0145426
711.155	0.0145329
711.233	0.0145358
711.311	0.0145633
711.389	0.0144856
711.467	0.0143555
711.545	0.0144174
711.623	0.0142818
711.701	0.0142054
711.780	0.0143797
711.858	0.0143295
711.936	0.0144048
712.014	0.0143889
712.092	0.0145715
712.170	0.0147105
712.248	0.0148660
712.326	0.0150179
712.405	0.0153089
712.483	0.0153591
712.561	0.0153282
712.639	0.0156200
712.717	0.0158531
712.795	0.0157976
712.873	0.0158087
712.951	0.0160753
713.030	0.0161350
713.108	0.0159489
713.186	0.0161920
713.264	0.0160551
713.342	0.0159016
713.420	0.0158320
713.498	0.0158854
713.576	0.0157883
713.655	0.0156442
713.733	0.0155161
713.811	0.0154665
713.889	0.0153809
713.967	0.0151249
714.045	0.0149299
714.123	0.0147530
714.201	0.0146384
714.280	0.0145657
714.358	0.0144531
714.436	0.0142607
714.514	0.0140704
714.592	0.0139916
714.670	0.0138128
714.748	0.0135989
714.826	0.0136460
714.905	0.0134964
714.983	0.0135039
715.061	0.0135429
715.139	0.0135737
715.217	0.0137218
715.295	0.0137679
715.373	0.0138011
715.451	0.0137663
715.530	0.0139100
715.608	0.0139851
715.686	0.0141628
715.764	0.0142187
715.842	0.0143186
715.920	0.0144714
715.998	0.0143704
716.076	0.0143489
716.155	0.0144643
716.233	0.0146030
716.311	0.0144689
716.389	0.0146552
716.467	0.0148177
716.545	0.0148942
716.623	0.0148075
716.701	0.0149319
716.780	0.0151630
716.858	0.0152559
716.936	0.0154917
717.014	0.0157380
717.092	0.0157916
717.170	0.0159615
717.248	0.0159112
717.326	0.0159856
717.405	0.0160772
717.483	0.0161598
717.561	0.0162255
717.639	0.0162283
717.717	0.0160468
717.795	0.0160938
717.873	0.0161444
717.951	0.0158388
718.030	0.0157581
718.108	0.0157430
718.186	0.0156673
718.264	0.0156234
718.342	0.0153688
718.420	0.0152927
718.498	0.0150764
718.576	0.0149804
718.655	0.0149489
718.733	0.0148041
718.811	0.0145586
718.889	0.0144999
718.967	0.0145642
719.045	0.0143815
719.123	0.0143354
719.201	0.0143064
719.280	0.0143136
719.358	0.0141206
719.436	0.0140878
719.514	0.0140671
719.592	0.0140416
719.670	0.0140546
719.748	0.0141089
719.826	0.0140708
719.905	0.0141579
719.983	0.0144608
720.061	0.0142941
720.139	0.0144209
720.217	0.0147521
720.295	0.0147315
720.373	0.0148448
720.451	0.0150319
720.530	0.0150214
720.608	0.0150693
720.686	0.0151409
720.764	0.0152966
720.842	0.0150977
720.920	0.0151297
720.998	0.0151311
721.076	0.0151534
721.155	0.0150487
721.233	0.0150618
721.311	0.0150982
721.389	0.0149615
721.467	0.0150636
721.545	0.0149503
721.623	0.0150566
721.701	0.0149887
721.780	0.0149106
721.858	0.0148525
721.936	0.0148547
722.014	0.0148984
722.092	0.0149461
722.170	0.0147469
722.248	0.0148415
722.326	0.0149057
722.405	0.0147389
722.483	0.0146281
722.561	0.0146832
722.639	0.0145788
722.717	0.0144611
722.795	0.0146184
722.873	0.0143958
722.951	0.0145026
723.030	0.0144420
723.108	0.0143024
723.186	0.0142946
723.264	0.0143633
723.342	0.0144390
723.420	0.0143576
723.498	0.0144760
723.576	0.0144354
723.655	0.0143994
723.733	0.0146088
723.811	0.0144997
723.889	0.0144830
723.967	0.0145206
724.045	0.0145728
724.123	0.0147178
724.201	0.0145747
724.280	0.0145955
724.358	0.0147363
724.436	0.0149183
724.514	0.0147521
724.592	0.0148128
724.670	0.0146864
724.748	0.0147095
724.826	0.0148444
724.905	0.0147781
724.983	0.0147877
725.061	0.0146107
725.139	0.0147601
725.217	0.0148272
725.295	0.0147330
725.373	0.0147369
725.451	0.0146454
725.530	0.0146980
725.608	0.0147063
725.686	0.0148180
