06/10/2022	18:23:49	Ver.	4.1	UNKNOWN
Optical Delay	699.984254	Delta X		0.078125	Sweeps	1	Scan Rate	0/0
Coordinates	Axis 1	NaN	Axis 2	NaN	Axis 3	NaN	Axis 4	NaN	Axis 5	NaN	Axis 6	0.000000
TX Power	0.000000	RX Power	0.000000

699.984	0.0158172
700.062	0.0156854
700.141	0.0158913
700.219	0.0158667
700.297	0.0157862
700.375	0.0157890
700.453	0.0157993
700.531	0.0159079
700.609	0.0159376
700.687	0.0158936
700.766	0.0158553
700.844	0.0157204
700.922	0.0157471
701.000	0.0157595
701.078	0.0158768
701.156	0.0158456
701.234	0.0158647
701.312	0.0158128
701.391	0.0158760
701.469	0.0158073
701.547	0.0156954
701.625	0.0157291
701.703	0.0159454
701.781	0.0157808
701.859	0.0158359
701.937	0.0158248
702.016	0.0159248
702.094	0.0158179
702.172	0.0156862
702.250	0.0157706
702.328	0.0158360
702.406	0.0157948
702.484	0.0157027
702.562	0.0158304
702.641	0.0158025
702.719	0.0158834
702.797	0.0158488
702.875	0.0158292
702.953	0.0157119
703.031	0.0158823
703.109	0.0158740
703.187	0.0157481
703.266	0.0158227
703.344	0.0158707
703.422	0.0158922
703.500	0.0158660
703.578	0.0158403
703.656	0.0159629
703.734	0.0158628
703.812	0.0159946
703.891	0.0156986
703.969	0.0158043
704.047	0.0157861
704.125	0.0157844
704.203	0.0159507
704.281	0.0156519
704.359	0.0158739
704.437	0.0159155
704.516	0.0158214
704.594	0.0158836
704.672	0.0158311
704.750	0.0158741
704.828	0.0158864
704.906	0.0156998
704.984	0.0158018
705.062	0.0156891
705.141	0.0158649
705.219	0.0157912
705.297	0.0157942
705.375	0.0157050
705.453	0.0158510
705.531	0.0157539
705.609	0.0158544
705.687	0.0157758
705.766	0.0157288
705.844	0.0157921
705.922	0.0158527
706.000	0.0158555
706.078	0.0157652
706.156	0.0156923
706.234	0.0157352
706.312	0.0158419
706.391	0.0158344
706.469	0.0158430
706.547	0.0158401
706.625	0.0158014
706.703	0.0158729
706.781	0.0157986
706.859	0.0158179
706.937	0.0159623
707.016	0.0158871
707.094	0.0158377
707.172	0.0158570
707.250	0.0159579
707.328	0.0159410
707.406	0.0158588
707.484	0.0157838
707.562	0.0158134
707.641	0.0159009
707.719	0.0158209
707.797	0.0158066
707.875	0.0158025
707.953	0.0156796
708.031	0.0159005
708.109	0.0159363
708.187	0.0158816
708.266	0.0158587
708.344	0.0157977
708.422	0.0157394
708.500	0.0157035
708.578	0.0159071
708.656	0.0157757
708.734	0.0158208
708.812	0.0158448
708.891	0.0157203
708.969	0.0158446
709.047	0.0157926
709.125	0.0158656
709.203	0.0158435
709.281	0.0157995
709.359	0.0157957
709.437	0.0157382
709.516	0.0157827
709.594	0.0158210
709.672	0.0158508
709.750	0.0158839
709.828	0.0157927
709.906	0.0158499
709.984	0.0157266
710.062	0.0158501
710.141	0.0157765
710.219	0.0158794
710.297	0.0158093
710.375	0.0157928
710.453	0.0158929
710.531	0.0158022
710.609	0.0157201
710.687	0.0158018
710.766	0.0157917
710.844	0.0158727
710.922	0.0156838
711.000	0.0157848
711.078	0.0158579
711.156	0.0157692
711.234	0.0158012
711.312	0.0159182
711.391	0.0157519
711.469	0.0156948
711.547	0.0158966
711.625	0.0159012
711.703	0.0158952
711.781	0.0158453
711.859	0.0158513
711.937	0.0157914
712.016	0.0157539
712.094	0.0158009
712.172	0.0156784
712.250	0.0157690
712.328	0.0158022
712.406	0.0157341
712.484	0.0157710
712.562	0.0157594
712.641	0.0157964
712.719	0.0158015
712.797	0.0158495
712.875	0.0158383
712.953	0.0156844
713.031	0.0157764
713.109	0.0157816
713.187	0.0157719
713.266	0.0157849
713.344	0.0157840
713.422	0.0157977
713.500	0.0157311
713.578	0.0157403
713.656	0.0158068
713.734	0.0158162
713.812	0.0157731
713.891	0.0158150
713.969	0.0157983
714.047	0.0159406
714.125	0.0157863
714.203	0.0157637
714.281	0.0158400
714.359	0.0158443
714.437	0.0156433
714.516	0.0157127
714.594	0.0157962
714.672	0.0158638
714.750	0.0159153
714.828	0.0157105
714.906	0.0158089
714.984	0.0157835
715.062	0.0158664
715.141	0.0158202
715.219	0.0157996
715.297	0.0158935
715.375	0.0158944
715.453	0.0156967
715.531	0.0158173
715.609	0.0157203
715.687	0.0155389
715.766	0.0157584
715.844	0.0158334
715.922	0.0157748
716.000	0.0158627
716.078	0.0157422
716.156	0.0157942
716.234	0.0157244
716.312	0.0157555
716.391	0.0158383
716.469	0.0157639
716.547	0.0157330
716.625	0.0157230
716.703	0.0157035
716.781	0.0156764
716.859	0.0159288
716.937	0.0158037
717.016	0.0157079
717.094	0.0157131
717.172	0.0159089
717.250	0.0159212
717.328	0.0157555
717.406	0.0157497
717.484	0.0157554
717.562	0.0157885
717.641	0.0156812
717.719	0.0157433
717.797	0.0157530
717.875	0.0158746
717.953	0.0157247
718.031	0.0156337
718.109	0.0158308
718.187	0.0158461
718.266	0.0156752
718.344	0.0157156
718.422	0.0158166
718.500	0.0158392
718.578	0.0156944
718.656	0.0157423
718.734	0.0158214
718.812	0.0156694
718.891	0.0157015
718.969	0.0157713
719.047	0.0157097
719.125	0.0158479
719.203	0.0157023
719.281	0.0158124
719.359	0.0157543
719.437	0.0157927
719.516	0.0157893
719.594	0.0155906
719.672	0.0158649
719.750	0.0158569
719.828	0.0156223
719.906	0.0157089
719.984	0.0160078
720.062	0.0157915
720.141	0.0157407
720.219	0.0158199
720.297	0.0157990
720.375	0.0157669
720.453	0.0159632
720.531	0.0158411
720.609	0.0158863
720.687	0.0159570
720.766	0.0157705
720.844	0.0158887
720.922	0.0157694
721.000	0.0158134
721.078	0.0159713
721.156	0.0157787
721.234	0.0158070
721.312	0.0158537
721.391	0.0158224
721.469	0.0159048
721.547	0.0158875
721.625	0.0159081
721.703	0.0158575
721.781	0.0157632
721.859	0.0158885
721.937	0.0159609
722.016	0.0159064
722.094	0.0158486
722.172	0.0159616
722.250	0.0159299
722.328	0.0158777
722.406	0.0158394
722.484	0.0159025
722.562	0.0157644
722.641	0.0159093
722.719	0.0158539
722.797	0.0158363
722.875	0.0157578
722.953	0.0158319
723.031	0.0158516
723.109	0.0158575
723.187	0.0159003
723.266	0.0157707
723.344	0.0158810
723.422	0.0158531
723.500	0.0157998
723.578	0.0158881
723.656	0.0158068
723.734	0.0157528
723.812	0.0159106
723.891	0.0158506
723.969	0.0158158
724.047	0.0159585
724.125	0.0158824
724.203	0.0159047
724.281	0.0157754
724.359	0.0159252
724.437	0.0158365
724.516	0.0159091
724.594	0.0157600
724.672	0.0157085
724.750	0.0157366
724.828	0.0158008
724.906	0.0159042
724.984	0.0158076
725.062	0.0158100
725.141	0.0157485
725.219	0.0156921
725.297	0.0158714
725.375	0.0158409
725.453	0.0157397
725.531	0.0156959
725.609	0.0157578
725.687	0.0158086
725.766	0.0156832
725.844	0.0157896
725.922	0.0158253
726.000	0.0157044
726.078	0.0158498
726.156	0.0157141
726.234	0.0157633
726.312	0.0156554
726.391	0.0158044
726.469	0.0157923
726.547	0.0156772
726.625	0.0158779
726.703	0.0156898
726.781	0.0158730
726.859	0.0158147
726.937	0.0157098
727.016	0.0157513
727.094	0.0157886
727.172	0.0156335
727.250	0.0157173
727.328	0.0157891
727.406	0.0159288
727.484	0.0156847
727.562	0.0156498
727.641	0.0156871
727.719	0.0158818
727.797	0.0159053
727.875	0.0157355
727.953	0.0155985
728.031	0.0157635
728.109	0.0156687
728.187	0.0158218
728.266	0.0158920
728.344	0.0156835
728.422	0.0156770
728.500	0.0157712
728.578	0.0156564
728.656	0.0157205
728.734	0.0156737
728.812	0.0156929
728.891	0.0159316
728.969	0.0157688
729.047	0.0157585
729.125	0.0159100
729.203	0.0158440
729.281	0.0158079
729.359	0.0157143
729.437	0.0158482
729.516	0.0156923
729.594	0.0157385
729.672	0.0159084
729.750	0.0157594
729.828	0.0157526
729.906	0.0157314
729.984	0.0158024
730.062	0.0158095
730.141	0.0158287
730.219	0.0159444
730.297	0.0157870
730.375	0.0158030
730.453	0.0157642
730.531	0.0158321
730.609	0.0158395
730.687	0.0158927
730.766	0.0158035
730.844	0.0158205
730.922	0.0158617
731.000	0.0158590
731.078	0.0158994
731.156	0.0158113
731.234	0.0157186
731.312	0.0157944
731.391	0.0157084
731.469	0.0158163
731.547	0.0159164
731.625	0.0157848
731.703	0.0158026
731.781	0.0157661
731.859	0.0157972
731.937	0.0158925
732.016	0.0158247
732.094	0.0158594
732.172	0.0159704
732.250	0.0157742
732.328	0.0157683
732.406	0.0158838
732.484	0.0159085
732.562	0.0158422
732.641	0.0158475
732.719	0.0159324
732.797	0.0158737
732.875	0.0158733
732.953	0.0160542
733.031	0.0158394
733.109	0.0157281
733.187	0.0159035
733.266	0.0157178
733.344	0.0157587
733.422	0.0158694
733.500	0.0158968
733.578	0.0158151
733.656	0.0158786
733.734	0.0158198
733.812	0.0157624
733.891	0.0158140
733.969	0.0159165
734.047	0.0157261
734.125	0.0156595
734.203	0.0157552
734.281	0.0158324
734.359	0.0158070
734.437	0.0158408
734.516	0.0159709
734.594	0.0160275
734.672	0.0160732
734.750	0.0160215
734.828	0.0159593
734.906	0.0158574
734.984	0.0157999
735.062	0.0158405
735.141	0.0158605
735.219	0.0157722
735.297	0.0158636
735.375	0.0156726
735.453	0.0157177
735.531	0.0156440
735.609	0.0156666
735.687	0.0157033
735.766	0.0156770
735.844	0.0156581
735.922	0.0158333
736.000	0.0158321
736.078	0.0158681
736.156	0.0157341
736.234	0.0158229
736.312	0.0158302
736.391	0.0157458
736.469	0.0158126
736.547	0.0158446
736.625	0.0159406
736.703	0.0160249
736.781	0.0159859
736.859	0.0159377
736.937	0.0157746
737.016	0.0158186
737.094	0.0158813
737.172	0.0157937
737.250	0.0157513
737.328	0.0158048
737.406	0.0157558
737.484	0.0157906
737.562	0.0158082
737.641	0.0158215
737.719	0.0159212
737.797	0.0158789
737.875	0.0159293
737.953	0.0158126
738.031	0.0159823
738.109	0.0158897
738.187	0.0158396
738.266	0.0156660
738.344	0.0158305
738.422	0.0156291
738.500	0.0155633
738.578	0.0154619
738.656	0.0155727
738.734	0.0155101
738.812	0.0155399
738.891	0.0156342
738.969	0.0157521
739.047	0.0157297
739.125	0.0157738
739.203	0.0157498
739.281	0.0158914
739.359	0.0159664
739.437	0.0159232
739.516	0.0159170
739.594	0.0157968
739.672	0.0156796
739.750	0.0157095
739.828	0.0156861
739.906	0.0158099
739.984	0.0157798
740.062	0.0157357
740.141	0.0156670
740.219	0.0155203
740.297	0.0158781
740.375	0.0157933
740.453	0.0158202
740.531	0.0158704
740.609	0.0158651
740.687	0.0158115
740.766	0.0158367
740.844	0.0159190
740.922	0.0159089
741.000	0.0160838
741.078	0.0160006
741.156	0.0160362
741.234	0.0161119
741.312	0.0161249
741.391	0.0160962
741.469	0.0159683
741.547	0.0160123
741.625	0.0160494
741.703	0.0159629
741.781	0.0158512
741.859	0.0159208
741.937	0.0158325
742.016	0.0158575
742.094	0.0157068
742.172	0.0156118
742.250	0.0157278
742.328	0.0158497
742.406	0.0157823
742.484	0.0158063
742.562	0.0159982
742.641	0.0158454
742.719	0.0160271
742.797	0.0159584
742.875	0.0160378
742.953	0.0159665
743.031	0.0159174
743.109	0.0158677
743.187	0.0158260
743.266	0.0158183
743.344	0.0158509
743.422	0.0157091
743.500	0.0155057
743.578	0.0154912
743.656	0.0153945
743.734	0.0153648
743.812	0.0151040
743.891	0.0150636
743.969	0.0150559
744.047	0.0149512
744.125	0.0148298
744.203	0.0148001
744.281	0.0148660
744.359	0.0150016
744.437	0.0149892
744.516	0.0150909
744.594	0.0153052
744.672	0.0155550
744.750	0.0156798
744.828	0.0158731
744.906	0.0160998
744.984	0.0163255
745.062	0.0165614
745.141	0.0166367
745.219	0.0168845
745.297	0.0168131
745.375	0.0169371
745.453	0.0170188
745.531	0.0169305
745.609	0.0169324
745.687	0.0168637
745.766	0.0166602
745.844	0.0166470
745.922	0.0165474
746.000	0.0162370
746.078	0.0161745
746.156	0.0159742
746.234	0.0159156
746.312	0.0158690
746.391	0.0157020
746.469	0.0155568
746.547	0.0153963
746.625	0.0155418
746.703	0.0154962
746.781	0.0154182
746.859	0.0154320
746.937	0.0153049
747.016	0.0154630
747.094	0.0152805
747.172	0.0153889
747.250	0.0155605
747.328	0.0153922
747.406	0.0154157
747.484	0.0154292
747.562	0.0154089
747.641	0.0154410
747.719	0.0155470
747.797	0.0153136
747.875	0.0154477
747.953	0.0155187
748.031	0.0154635
748.109	0.0154380
748.187	0.0154760
748.266	0.0154420
748.344	0.0153608
748.422	0.0151486
748.500	0.0152271
748.578	0.0154778
748.656	0.0153853
748.734	0.0153886
748.812	0.0154704
748.891	0.0155049
748.969	0.0157294
749.047	0.0157412
749.125	0.0158418
749.203	0.0160022
749.281	0.0161529
749.359	0.0162477
749.437	0.0165150
749.516	0.0166167
749.594	0.0167120
749.672	0.0167073
749.750	0.0168347
749.828	0.0169180
749.906	0.0169433
749.984	0.0168929
750.062	0.0169188
750.141	0.0168820
750.219	0.0165789
750.297	0.0165054
750.375	0.0163411
750.453	0.0161903
750.531	0.0161189
750.609	0.0159138
750.687	0.0157557
750.766	0.0155151
750.844	0.0153872
750.922	0.0152028
751.000	0.0151708
751.078	0.0152282
751.156	0.0152740
751.234	0.0152281
751.312	0.0152312
751.391	0.0154709
751.469	0.0153581
751.547	0.0153712
751.625	0.0154596
751.703	0.0156470
751.781	0.0157352
751.859	0.0157306
751.937	0.0159701
752.016	0.0160712
752.094	0.0160430
752.172	0.0160787
752.250	0.0160778
752.328	0.0161160
752.406	0.0160551
752.484	0.0158896
752.562	0.0159413
752.641	0.0157153
752.719	0.0156277
752.797	0.0155896
752.875	0.0155489
752.953	0.0154216
753.031	0.0152719
753.109	0.0153103
753.187	0.0152728
753.266	0.0152536
753.344	0.0152052
753.422	0.0152423
753.500	0.0153405
753.578	0.0154630
753.656	0.0154175
753.734	0.0154078
753.812	0.0155598
753.891	0.0154777
753.969	0.0156915
754.047	0.0159634
754.125	0.0160181
754.203	0.0159894
754.281	0.0161461
754.359	0.0161626
754.437	0.0163123
754.516	0.0164558
754.594	0.0164228
754.672	0.0165649
754.750	0.0164927
754.828	0.0165488
754.906	0.0165061
754.984	0.0163905
755.062	0.0163423
755.141	0.0162006
755.219	0.0161562
755.297	0.0159095
755.375	0.0157699
755.453	0.0155529
755.531	0.0156284
755.609	0.0155062
755.687	0.0154210
755.766	0.0154885
755.844	0.0154733
755.922	0.0153059
756.000	0.0153860
756.078	0.0153983
756.156	0.0153893
756.234	0.0154524
756.312	0.0155385
756.391	0.0156840
756.469	0.0156715
756.547	0.0156944
756.625	0.0157935
756.703	0.0158392
756.781	0.0158279
756.859	0.0158952
756.937	0.0159189
757.016	0.0158496
757.094	0.0160372
757.172	0.0160575
757.250	0.0158078
757.328	0.0158382
757.406	0.0157352
757.484	0.0155098
757.562	0.0154889
757.641	0.0156630
757.719	0.0155547
757.797	0.0154090
757.875	0.0154806
757.953	0.0155163
758.031	0.0153727
758.109	0.0154328
758.187	0.0154256
758.266	0.0156300
758.344	0.0154980
758.422	0.0156129
758.500	0.0157036
758.578	0.0156539
758.656	0.0156866
758.734	0.0157260
758.812	0.0157889
758.891	0.0158463
758.969	0.0159106
759.047	0.0158883
759.125	0.0159599
759.203	0.0160446
759.281	0.0161379
759.359	0.0161528
759.437	0.0162895
759.516	0.0163517
759.594	0.0162576
759.672	0.0163883
759.750	0.0164112
759.828	0.0163109
759.906	0.0164054
759.984	0.0163116
760.062	0.0162714
760.141	0.0162478
760.219	0.0160337
760.297	0.0160160
760.375	0.0159583
760.453	0.0159778
760.531	0.0158593
760.609	0.0157845
760.687	0.0159335
760.766	0.0157637
760.844	0.0156590
760.922	0.0156397
761.000	0.0157623
761.078	0.0156849
761.156	0.0156696
761.234	0.0157346
761.312	0.0156622
761.391	0.0156017
761.469	0.0156876
761.547	0.0157084
761.625	0.0156255
761.703	0.0157619
761.781	0.0157859
761.859	0.0156485
761.937	0.0157453
762.016	0.0156013
762.094	0.0156044
762.172	0.0156571
762.250	0.0156611
762.328	0.0155822
762.406	0.0155338
762.484	0.0155521
762.562	0.0154542
762.641	0.0155310
762.719	0.0155288
762.797	0.0154955
762.875	0.0154536
762.953	0.0153918
763.031	0.0152898
763.109	0.0153871
763.187	0.0154365
763.266	0.0155750
763.344	0.0156886
763.422	0.0157698
763.500	0.0157012
763.578	0.0158481
763.656	0.0158428
763.734	0.0159299
763.812	0.0160422
763.891	0.0161579
763.969	0.0161476
764.047	0.0162897
764.125	0.0162218
764.203	0.0160835
764.281	0.0161582
764.359	0.0161898
764.437	0.0161354
764.516	0.0161705
764.594	0.0159653
764.672	0.0161038
764.750	0.0159441
764.828	0.0159306
764.906	0.0159402
764.984	0.0157555
765.062	0.0158392
765.141	0.0157362
765.219	0.0157779
765.297	0.0156326
765.375	0.0156421
765.453	0.0155602
765.531	0.0155145
765.609	0.0155111
765.687	0.0155429
765.766	0.0155857
765.844	0.0156739
765.922	0.0155585
766.000	0.0157713
766.078	0.0156760
766.156	0.0158076
766.234	0.0157037
766.312	0.0158336
766.391	0.0158855
766.469	0.0158293
766.547	0.0158756
766.625	0.0158872
766.703	0.0158527
766.781	0.0158983
766.859	0.0158675
766.937	0.0157901
767.016	0.0157921
767.094	0.0157732
767.172	0.0157212
767.250	0.0156104
767.328	0.0156697
767.406	0.0155046
767.484	0.0154165
767.562	0.0156231
767.641	0.0156019
767.719	0.0154076
767.797	0.0157109
767.875	0.0156367
767.953	0.0155783
768.031	0.0157424
768.109	0.0157623
768.187	0.0158018
768.266	0.0158913
768.344	0.0159236
768.422	0.0158614
768.500	0.0158351
768.578	0.0159265
768.656	0.0160846
768.734	0.0159600
768.812	0.0160258
768.891	0.0160621
768.969	0.0159793
769.047	0.0159675
769.125	0.0159260
769.203	0.0159988
769.281	0.0159306
769.359	0.0159019
769.437	0.0158671
769.516	0.0158745
769.594	0.0158672
769.672	0.0157606
769.750	0.0157938
769.828	0.0158618
769.906	0.0158863
769.984	0.0159599
770.062	0.0158822
770.141	0.0158604
770.219	0.0158991
770.297	0.0157327
770.375	0.0158655
770.453	0.0158803
770.531	0.0159225
770.609	0.0159039
770.687	0.0158867
770.766	0.0159135
770.844	0.0159788
770.922	0.0159449
771.000	0.0158933
771.078	0.0157864
771.156	0.0159068
771.234	0.0157726
771.312	0.0157241
771.391	0.0157339
771.469	0.0157901
771.547	0.0158089
771.625	0.0157214
771.703	0.0156814
771.781	0.0156474
771.859	0.0156765
771.937	0.0155816
772.016	0.0155856
772.094	0.0157045
772.172	0.0154436
772.250	0.0154920
772.328	0.0157867
772.406	0.0156216
772.484	0.0155453
772.562	0.0155816
772.641	0.0157569
772.719	0.0157446
772.797	0.0156408
772.875	0.0157426
772.953	0.0156052
773.031	0.0157154
773.109	0.0157034
773.187	0.0157507
773.266	0.0157114
773.344	0.0157888
773.422	0.0157662
773.500	0.0158414
773.578	0.0159061
773.656	0.0159052
773.734	0.0158728
773.812	0.0158604
773.891	0.0159290
773.969	0.0159834
774.047	0.0157987
774.125	0.0157507
774.203	0.0159885
774.281	0.0159703
774.359	0.0159415
774.437	0.0159279
774.516	0.0159399
774.594	0.0159490
774.672	0.0159400
774.750	0.0157993
774.828	0.0158582
774.906	0.0160130
774.984	0.0159167
775.062	0.0159542
775.141	0.0158886
775.219	0.0158508
775.297	0.0159193
775.375	0.0159588
775.453	0.0159674
775.531	0.0158702
775.609	0.0158908
775.687	0.0158327
775.766	0.0158562
775.844	0.0158662
775.922	0.0159064
776.000	0.0157901
776.078	0.0156776
776.156	0.0158212
776.234	0.0158566
776.312	0.0157584
776.391	0.0156124
776.469	0.0156526
776.547	0.0156806
776.625	0.0156750
776.703	0.0156367
776.781	0.0156389
776.859	0.0156252
776.937	0.0155616
777.016	0.0155576
777.094	0.0156624
777.172	0.0155624
777.250	0.0154771
777.328	0.0156699
777.406	0.0154774
777.484	0.0155321
777.562	0.0155683
777.641	0.0154994
777.719	0.0156952
777.797	0.0155943
777.875	0.0157661
777.953	0.0158776
778.031	0.0157333
778.109	0.0157561
778.187	0.0158073
778.266	0.0160036
778.344	0.0158075
778.422	0.0159081
778.500	0.0158791
778.578	0.0156765
778.656	0.0158470
778.734	0.0158573
778.812	0.0158363
778.891	0.0158768
778.969	0.0159370
779.047	0.0159473
779.125	0.0159521
779.203	0.0160052
779.281	0.0159512
779.359	0.0159181
779.437	0.0159977
779.516	0.0160580
779.594	0.0160901
779.672	0.0161616
779.750	0.0161512
779.828	0.0160735
779.906	0.0161415
779.984	0.0161887
780.062	0.0162114
780.141	0.0160841
780.219	0.0160534
780.297	0.0160965
780.375	0.0160269
780.453	0.0158411
780.531	0.0160261
780.609	0.0159911
780.687	0.0156382
780.766	0.0157365
780.844	0.0156318
780.922	0.0156445
781.000	0.0154927
781.078	0.0155405
781.156	0.0155082
781.234	0.0154008
781.312	0.0153887
781.391	0.0154091
781.469	0.0153921
781.547	0.0155616
781.625	0.0152708
781.703	0.0153294
781.781	0.0155595
781.859	0.0153790
781.937	0.0155092
782.016	0.0156184
782.094	0.0155128
782.172	0.0155087
782.250	0.0156334
782.328	0.0157294
782.406	0.0157950
782.484	0.0157694
782.562	0.0157198
782.641	0.0158386
782.719	0.0158991
782.797	0.0158183
782.875	0.0158469
782.953	0.0159543
783.031	0.0160344
783.109	0.0160044
783.187	0.0160838
783.266	0.0159096
783.344	0.0160075
783.422	0.0159063
783.500	0.0160489
783.578	0.0161417
783.656	0.0159889
783.734	0.0162009
783.812	0.0159998
783.891	0.0160490
783.969	0.0160252
784.047	0.0160999
784.125	0.0160156
784.203	0.0159829
784.281	0.0159039
784.359	0.0160128
784.437	0.0159575
784.516	0.0158773
784.594	0.0158015
784.672	0.0157868
784.750	0.0157801
784.828	0.0157159
784.906	0.0156544
784.984	0.0155595
785.062	0.0155851
785.141	0.0153857
785.219	0.0155807
785.297	0.0156105
785.375	0.0154243
785.453	0.0155946
785.531	0.0155315
785.609	0.0155410
785.687	0.0154548
