05/20/2022	20:33:42	Ver.	4.1	UNKNOWN
Optical Delay	599.981738	Delta X		0.078125	Sweeps	1	Scan Rate	0/0
Coordinates	Axis 1	NaN	Axis 2	NaN	Axis 3	NaN	Axis 4	NaN	Axis 5	NaN	Axis 6	0.000000
TX Power	0.000000	RX Power	0.000000

599.982	0.0148978
600.060	0.0149406
600.138	0.0148962
600.216	0.0149487
600.294	0.0149387
600.372	0.0148192
600.450	0.0150959
600.529	0.0150375
600.607	0.0148671
600.685	0.0148261
600.763	0.0149409
600.841	0.0149194
600.919	0.0149290
600.997	0.0148671
601.075	0.0148395
601.154	0.0148721
601.232	0.0149307
601.310	0.0149036
601.388	0.0148363
601.466	0.0148694
601.544	0.0148650
601.622	0.0150845
601.700	0.0149100
601.779	0.0147731
601.857	0.0149381
601.935	0.0149390
602.013	0.0149788
602.091	0.0149187
602.169	0.0150396
602.247	0.0149545
602.325	0.0148431
602.404	0.0148422
602.482	0.0148706
602.560	0.0148702
602.638	0.0150180
602.716	0.0148884
602.794	0.0147547
602.872	0.0148513
602.950	0.0148530
603.029	0.0148170
603.107	0.0148330
603.185	0.0147314
603.263	0.0147909
603.341	0.0150115
603.419	0.0148705
603.497	0.0149191
603.575	0.0149766
603.654	0.0148675
603.732	0.0148415
603.810	0.0148911
603.888	0.0149407
603.966	0.0148348
604.044	0.0149603
604.122	0.0148041
604.200	0.0148540
604.279	0.0149073
604.357	0.0148317
604.435	0.0149784
604.513	0.0149368
604.591	0.0148615
604.669	0.0148240
604.747	0.0148551
604.825	0.0149952
604.904	0.0148552
604.982	0.0148460
605.060	0.0149210
605.138	0.0149236
605.216	0.0149552
605.294	0.0148438
605.372	0.0149432
605.450	0.0149495
605.529	0.0150150
605.607	0.0148829
605.685	0.0148514
605.763	0.0149100
605.841	0.0149117
605.919	0.0147781
605.997	0.0150444
606.075	0.0151220
606.154	0.0148355
606.232	0.0149075
606.310	0.0148364
606.388	0.0148564
606.466	0.0148694
606.544	0.0149532
606.622	0.0149908
606.700	0.0149149
606.779	0.0149065
606.857	0.0149634
606.935	0.0148622
607.013	0.0149075
607.091	0.0150201
607.169	0.0147604
607.247	0.0150214
607.325	0.0148652
607.404	0.0150002
607.482	0.0148230
607.560	0.0148045
607.638	0.0148891
607.716	0.0148295
607.794	0.0149669
607.872	0.0148956
607.950	0.0149286
608.029	0.0148885
608.107	0.0149322
608.185	0.0147864
608.263	0.0149866
608.341	0.0147968
608.419	0.0149309
608.497	0.0149199
608.575	0.0147701
608.654	0.0149140
608.732	0.0149081
608.810	0.0147635
608.888	0.0149718
608.966	0.0149702
609.044	0.0149224
609.122	0.0147522
609.200	0.0147864
609.279	0.0151045
609.357	0.0148655
609.435	0.0148621
609.513	0.0149208
609.591	0.0149621
609.669	0.0148741
609.747	0.0149433
609.825	0.0149083
609.904	0.0149008
609.982	0.0148958
610.060	0.0149888
610.138	0.0149355
610.216	0.0150301
610.294	0.0148756
610.372	0.0150692
610.450	0.0149689
610.529	0.0149216
610.607	0.0149663
610.685	0.0148463
610.763	0.0150629
610.841	0.0148429
610.919	0.0148340
610.997	0.0150256
611.075	0.0149171
611.154	0.0149007
611.232	0.0149084
611.310	0.0148184
611.388	0.0149784
611.466	0.0148703
611.544	0.0149385
611.622	0.0149747
611.700	0.0148817
611.779	0.0149544
611.857	0.0148180
611.935	0.0149273
612.013	0.0148088
612.091	0.0148905
612.169	0.0149791
612.247	0.0150775
612.325	0.0148408
612.404	0.0147763
612.482	0.0147878
612.560	0.0149145
612.638	0.0149473
612.716	0.0149573
612.794	0.0149355
612.872	0.0150076
612.950	0.0150977
613.029	0.0149369
613.107	0.0147739
613.185	0.0149091
613.263	0.0148566
613.341	0.0149906
613.419	0.0149868
613.497	0.0148979
613.575	0.0148547
613.654	0.0148793
613.732	0.0148745
613.810	0.0149345
613.888	0.0149131
613.966	0.0148656
614.044	0.0149356
614.122	0.0149604
614.200	0.0149239
614.279	0.0150053
614.357	0.0149700
614.435	0.0148518
614.513	0.0148097
614.591	0.0148785
614.669	0.0148272
614.747	0.0148148
614.825	0.0149431
614.904	0.0149043
614.982	0.0148225
615.060	0.0150307
615.138	0.0150286
615.216	0.0149632
615.294	0.0148784
615.372	0.0149129
615.450	0.0148679
615.529	0.0149671
615.607	0.0150215
615.685	0.0149294
615.763	0.0148316
615.841	0.0148011
615.919	0.0148940
615.997	0.0150278
616.075	0.0149076
616.154	0.0150769
616.232	0.0149385
616.310	0.0148627
616.388	0.0148629
616.466	0.0148634
616.544	0.0149548
616.622	0.0148925
616.700	0.0149532
616.779	0.0149406
616.857	0.0149622
616.935	0.0148648
617.013	0.0148736
617.091	0.0150710
617.169	0.0149234
617.247	0.0148071
617.325	0.0150093
617.404	0.0150357
617.482	0.0149564
617.560	0.0149922
617.638	0.0150645
617.716	0.0149504
617.794	0.0148159
617.872	0.0148793
617.950	0.0149444
618.029	0.0149333
618.107	0.0149799
618.185	0.0149104
618.263	0.0148828
618.341	0.0148675
618.419	0.0149158
618.497	0.0148803
618.575	0.0150434
618.654	0.0149069
618.732	0.0149127
618.810	0.0148605
618.888	0.0149722
618.966	0.0148631
619.044	0.0149416
619.122	0.0148450
619.200	0.0148678
619.279	0.0150439
619.357	0.0150053
619.435	0.0149057
619.513	0.0150082
619.591	0.0150386
619.669	0.0147881
619.747	0.0148021
619.825	0.0149460
619.904	0.0148716
619.982	0.0148318
620.060	0.0149921
620.138	0.0150014
620.216	0.0148773
620.294	0.0148988
620.372	0.0148520
620.450	0.0148188
620.529	0.0147894
620.607	0.0148719
620.685	0.0149719
620.763	0.0149921
620.841	0.0149775
620.919	0.0150033
620.997	0.0148424
621.075	0.0149023
621.154	0.0149036
621.232	0.0150174
621.310	0.0149354
621.388	0.0150192
621.466	0.0148865
621.544	0.0148465
621.622	0.0150816
621.700	0.0149579
621.779	0.0150447
621.857	0.0149189
621.935	0.0149248
622.013	0.0149406
622.091	0.0149742
622.169	0.0148746
622.247	0.0148593
622.325	0.0149830
622.404	0.0149702
622.482	0.0148782
622.560	0.0148888
622.638	0.0149962
622.716	0.0149650
622.794	0.0149865
622.872	0.0149283
622.950	0.0148501
623.029	0.0149086
623.107	0.0150053
623.185	0.0149761
623.263	0.0148203
623.341	0.0148632
623.419	0.0148601
623.497	0.0148796
623.575	0.0148795
623.654	0.0148154
623.732	0.0149654
623.810	0.0148748
623.888	0.0149929
623.966	0.0148701
624.044	0.0148224
624.122	0.0149463
624.200	0.0147985
624.279	0.0150214
624.357	0.0149591
624.435	0.0148508
624.513	0.0147737
624.591	0.0148315
624.669	0.0149685
624.747	0.0149924
624.825	0.0148689
624.904	0.0148045
624.982	0.0147834
625.060	0.0149256
625.138	0.0149277
625.216	0.0149786
625.294	0.0148487
625.372	0.0148713
625.450	0.0148875
625.529	0.0149687
625.607	0.0149065
625.685	0.0148297
625.763	0.0148589
625.841	0.0148718
625.919	0.0150253
625.997	0.0148822
626.075	0.0149272
626.154	0.0149957
626.232	0.0148576
626.310	0.0150001
626.388	0.0148654
626.466	0.0149514
626.544	0.0149593
626.622	0.0148870
626.700	0.0149097
626.779	0.0149284
626.857	0.0147711
626.935	0.0149648
627.013	0.0150491
627.091	0.0150214
627.169	0.0148745
627.247	0.0149378
627.325	0.0148688
627.404	0.0149331
627.482	0.0149805
627.560	0.0148973
627.638	0.0149608
627.716	0.0149770
627.794	0.0149783
627.872	0.0149021
627.950	0.0148633
628.029	0.0148604
628.107	0.0147672
628.185	0.0148439
628.263	0.0150179
628.341	0.0149113
628.419	0.0148840
628.497	0.0149210
628.575	0.0148458
628.654	0.0149538
628.732	0.0149935
628.810	0.0149085
628.888	0.0148741
628.966	0.0147709
629.044	0.0147758
629.122	0.0148867
629.200	0.0149191
629.279	0.0150114
629.357	0.0149399
629.435	0.0148634
629.513	0.0149242
629.591	0.0149590
629.669	0.0150522
629.747	0.0148791
629.825	0.0149909
629.904	0.0149696
629.982	0.0149772
630.060	0.0149609
630.138	0.0149280
630.216	0.0148196
630.294	0.0149679
630.372	0.0149075
630.450	0.0149492
630.529	0.0148451
630.607	0.0149040
630.685	0.0149578
630.763	0.0148304
630.841	0.0148509
630.919	0.0148726
630.997	0.0149678
631.075	0.0149152
631.154	0.0148161
631.232	0.0149352
631.310	0.0148798
631.388	0.0148326
631.466	0.0150275
631.544	0.0149602
631.622	0.0148198
631.700	0.0148447
631.779	0.0148741
631.857	0.0149643
631.935	0.0149137
632.013	0.0148300
632.091	0.0148521
632.169	0.0149736
632.247	0.0147701
632.325	0.0149592
632.404	0.0149840
632.482	0.0148554
632.560	0.0149060
632.638	0.0149230
632.716	0.0149122
632.794	0.0149287
632.872	0.0148486
632.950	0.0148578
633.029	0.0148901
633.107	0.0150302
633.185	0.0147658
633.263	0.0148621
633.341	0.0149120
633.419	0.0149133
633.497	0.0148310
633.575	0.0148354
633.654	0.0149828
633.732	0.0148018
633.810	0.0148626
633.888	0.0149502
633.966	0.0148217
634.044	0.0149224
634.122	0.0148956
634.200	0.0147799
634.279	0.0149329
634.357	0.0150761
634.435	0.0149300
634.513	0.0149493
634.591	0.0149101
634.669	0.0148930
634.747	0.0148334
634.825	0.0149330
634.904	0.0150674
634.982	0.0147878
635.060	0.0149197
635.138	0.0149221
635.216	0.0149829
635.294	0.0148137
635.372	0.0148159
635.450	0.0147919
635.529	0.0148577
635.607	0.0148283
635.685	0.0149679
635.763	0.0149043
635.841	0.0149660
635.919	0.0149529
635.997	0.0150378
636.075	0.0150468
636.154	0.0148481
636.232	0.0149297
636.310	0.0149741
636.388	0.0148304
636.466	0.0149852
636.544	0.0149743
636.622	0.0148884
636.700	0.0149133
636.779	0.0150789
636.857	0.0149092
636.935	0.0147592
637.013	0.0149966
637.091	0.0149599
637.169	0.0149823
637.247	0.0148447
637.325	0.0148499
637.404	0.0148857
637.482	0.0147978
637.560	0.0148710
637.638	0.0148908
637.716	0.0149577
637.794	0.0148966
637.872	0.0149104
637.950	0.0148532
638.029	0.0149385
638.107	0.0148856
638.185	0.0149610
638.263	0.0148615
638.341	0.0149619
638.419	0.0148766
638.497	0.0148297
638.575	0.0148522
638.654	0.0150884
638.732	0.0148805
638.810	0.0148885
638.888	0.0148520
638.966	0.0149288
639.044	0.0147780
639.122	0.0149108
639.200	0.0150302
639.279	0.0148748
639.357	0.0149050
639.435	0.0148343
639.513	0.0149053
639.591	0.0149239
639.669	0.0149323
639.747	0.0148886
639.825	0.0149226
639.904	0.0149487
639.982	0.0148978
640.060	0.0148982
640.138	0.0149556
640.216	0.0149216
640.294	0.0149100
640.372	0.0149046
640.450	0.0150636
640.529	0.0149932
640.607	0.0149488
640.685	0.0149141
640.763	0.0150177
640.841	0.0149451
640.919	0.0150819
640.997	0.0150376
641.075	0.0149097
641.154	0.0149150
641.232	0.0149964
641.310	0.0148521
641.388	0.0149657
641.466	0.0149138
641.544	0.0149759
641.622	0.0149087
641.700	0.0148830
641.779	0.0149165
641.857	0.0149352
641.935	0.0149416
642.013	0.0149253
642.091	0.0149216
642.169	0.0149622
642.247	0.0150083
642.325	0.0149249
642.404	0.0148847
642.482	0.0150140
642.560	0.0149885
642.638	0.0149455
642.716	0.0149411
642.794	0.0150264
642.872	0.0149773
642.950	0.0148936
643.029	0.0148089
643.107	0.0147074
643.185	0.0148439
643.263	0.0150532
643.341	0.0149571
643.419	0.0148213
643.497	0.0149121
643.575	0.0149731
643.654	0.0147583
643.732	0.0150288
643.810	0.0148785
643.888	0.0147911
643.966	0.0148114
644.044	0.0148803
644.122	0.0149226
644.200	0.0150014
644.279	0.0149317
644.357	0.0150015
644.435	0.0150246
644.513	0.0148932
644.591	0.0149244
644.669	0.0148523
644.747	0.0149828
644.825	0.0150395
644.904	0.0148599
644.982	0.0150566
645.060	0.0150481
645.138	0.0148864
645.216	0.0149210
645.294	0.0147874
645.372	0.0148530
645.450	0.0149151
645.529	0.0149249
645.607	0.0148851
645.685	0.0149239
645.763	0.0148741
645.841	0.0149852
645.919	0.0150589
645.997	0.0149057
646.075	0.0149854
646.154	0.0150275
646.232	0.0149448
646.310	0.0149078
646.388	0.0149395
646.466	0.0149727
646.544	0.0150389
646.622	0.0149600
646.700	0.0151119
646.779	0.0149622
646.857	0.0149857
646.935	0.0149352
647.013	0.0149345
647.091	0.0148155
647.169	0.0147334
647.247	0.0149914
647.325	0.0149769
647.404	0.0149190
647.482	0.0148112
647.560	0.0150095
647.638	0.0149427
647.716	0.0150375
647.794	0.0149691
647.872	0.0149256
647.950	0.0149335
648.029	0.0148708
648.107	0.0150521
648.185	0.0150409
648.263	0.0148325
648.341	0.0149545
648.419	0.0150066
648.497	0.0149320
648.575	0.0149596
648.654	0.0149165
648.732	0.0150659
648.810	0.0149240
648.888	0.0149726
648.966	0.0149809
649.044	0.0148577
649.122	0.0149072
649.200	0.0149793
649.279	0.0149572
649.357	0.0150040
649.435	0.0148747
649.513	0.0149124
649.591	0.0150401
649.669	0.0150809
649.747	0.0148734
649.825	0.0149429
649.904	0.0149831
649.982	0.0149654
650.060	0.0149338
650.138	0.0149343
650.216	0.0149368
650.294	0.0148905
650.372	0.0149239
650.450	0.0149564
650.529	0.0149717
650.607	0.0149676
650.685	0.0149302
650.763	0.0149348
650.841	0.0148046
650.919	0.0149651
650.997	0.0149703
651.075	0.0148989
651.154	0.0149380
651.232	0.0148712
651.310	0.0149548
651.388	0.0149129
651.466	0.0151241
651.544	0.0148052
651.622	0.0149502
651.700	0.0148886
651.779	0.0148714
651.857	0.0148217
651.935	0.0150270
652.013	0.0149892
652.091	0.0149355
652.169	0.0150415
652.247	0.0149467
652.325	0.0148917
652.404	0.0150055
652.482	0.0148505
652.560	0.0149861
652.638	0.0150327
652.716	0.0150105
652.794	0.0149776
652.872	0.0150263
652.950	0.0150359
653.029	0.0150142
653.107	0.0149155
653.185	0.0148275
653.263	0.0149371
653.341	0.0149075
653.419	0.0148790
653.497	0.0148975
653.575	0.0149207
653.654	0.0149033
653.732	0.0149191
653.810	0.0149096
653.888	0.0150161
653.966	0.0148605
654.044	0.0149211
654.122	0.0149615
654.200	0.0149525
654.279	0.0150006
654.357	0.0149173
654.435	0.0148755
654.513	0.0149390
654.591	0.0149345
654.669	0.0148171
654.747	0.0147761
654.825	0.0150564
654.904	0.0148215
654.982	0.0149765
655.060	0.0149537
655.138	0.0149743
655.216	0.0149634
655.294	0.0149526
655.372	0.0147361
655.450	0.0148905
655.529	0.0149448
655.607	0.0149658
655.685	0.0149077
655.763	0.0149966
655.841	0.0150358
655.919	0.0150491
655.997	0.0149791
656.075	0.0150013
656.154	0.0149064
656.232	0.0149818
656.310	0.0148420
656.388	0.0149191
656.466	0.0151086
656.544	0.0149254
656.622	0.0150125
656.700	0.0149301
656.779	0.0147713
656.857	0.0148694
656.935	0.0149735
657.013	0.0149382
657.091	0.0149615
657.169	0.0149358
657.247	0.0149440
657.325	0.0148499
657.404	0.0148752
657.482	0.0149821
657.560	0.0150375
657.638	0.0147891
657.716	0.0149757
657.794	0.0148872
657.872	0.0149597
657.950	0.0150111
658.029	0.0149625
658.107	0.0148708
658.185	0.0149636
658.263	0.0149825
658.341	0.0148720
658.419	0.0151331
658.497	0.0149184
658.575	0.0149271
658.654	0.0150397
658.732	0.0149804
658.810	0.0148815
658.888	0.0149226
658.966	0.0149368
659.044	0.0149860
659.122	0.0150232
659.200	0.0147344
659.279	0.0148994
659.357	0.0149329
659.435	0.0148698
659.513	0.0149082
659.591	0.0148376
659.669	0.0148804
659.747	0.0148394
659.825	0.0147971
659.904	0.0148759
659.982	0.0149943
660.060	0.0150531
660.138	0.0149755
660.216	0.0148653
660.294	0.0149329
660.372	0.0149617
660.450	0.0149247
660.529	0.0148994
660.607	0.0150085
660.685	0.0149044
660.763	0.0148197
660.841	0.0150517
660.919	0.0149512
660.997	0.0150114
661.075	0.0149250
661.154	0.0148871
661.232	0.0150996
661.310	0.0149499
661.388	0.0148872
661.466	0.0148423
661.544	0.0148992
661.622	0.0149483
661.700	0.0149904
661.779	0.0149129
661.857	0.0148979
661.935	0.0149833
662.013	0.0149458
662.091	0.0147749
662.169	0.0148713
662.247	0.0149445
662.325	0.0150149
662.404	0.0150283
662.482	0.0148069
662.560	0.0149707
662.638	0.0148230
662.716	0.0148359
662.794	0.0147849
662.872	0.0149445
662.950	0.0148606
663.029	0.0149440
663.107	0.0149928
663.185	0.0149481
663.263	0.0150204
663.341	0.0147742
663.419	0.0149018
663.497	0.0149677
663.575	0.0149222
663.654	0.0149216
663.732	0.0150131
663.810	0.0149486
663.888	0.0149557
663.966	0.0147703
664.044	0.0149364
664.122	0.0148501
664.200	0.0147918
664.279	0.0148190
664.357	0.0149128
664.435	0.0149204
664.513	0.0149281
664.591	0.0148905
664.669	0.0149844
664.747	0.0149565
664.825	0.0149161
664.904	0.0148098
664.982	0.0149809
665.060	0.0150204
665.138	0.0149523
665.216	0.0147473
665.294	0.0147896
665.372	0.0148693
665.450	0.0149812
665.529	0.0149427
665.607	0.0148546
665.685	0.0150125
665.763	0.0149274
665.841	0.0148621
665.919	0.0150153
665.997	0.0149745
666.075	0.0149308
666.154	0.0148953
666.232	0.0150084
666.310	0.0150496
666.388	0.0150503
666.466	0.0148714
666.544	0.0149624
666.622	0.0149435
666.700	0.0149288
666.779	0.0149481
666.857	0.0148093
666.935	0.0150470
667.013	0.0149328
667.091	0.0150201
667.169	0.0150397
667.247	0.0148886
667.325	0.0150098
667.404	0.0150529
667.482	0.0149370
667.560	0.0148943
667.638	0.0149121
667.716	0.0149757
667.794	0.0149765
667.872	0.0150134
667.950	0.0151112
668.029	0.0148270
668.107	0.0150486
668.185	0.0150175
668.263	0.0149361
668.341	0.0148747
668.419	0.0149590
668.497	0.0149719
668.575	0.0149864
668.654	0.0148598
668.732	0.0147694
668.810	0.0149544
668.888	0.0148581
668.966	0.0148891
669.044	0.0150200
669.122	0.0149455
669.200	0.0149886
669.279	0.0149435
669.357	0.0147781
669.435	0.0148678
669.513	0.0149483
669.591	0.0148617
669.669	0.0149749
669.747	0.0149323
669.825	0.0148942
669.904	0.0148206
669.982	0.0149436
670.060	0.0150122
670.138	0.0147769
670.216	0.0148191
670.294	0.0149436
670.372	0.0148698
670.450	0.0148780
670.529	0.0147708
670.607	0.0150371
670.685	0.0149619
670.763	0.0147997
670.841	0.0149290
670.919	0.0148670
670.997	0.0148782
671.075	0.0147927
671.154	0.0146783
671.232	0.0148851
671.310	0.0149181
671.388	0.0148465
671.466	0.0149174
671.544	0.0148840
671.622	0.0149682
671.700	0.0148295
671.779	0.0149090
671.857	0.0148843
671.935	0.0149466
672.013	0.0148915
672.091	0.0147136
672.169	0.0149120
672.247	0.0149072
672.325	0.0149284
672.404	0.0148459
672.482	0.0148190
672.560	0.0149219
672.638	0.0147725
672.716	0.0149173
672.794	0.0148371
672.872	0.0148246
672.950	0.0149171
673.029	0.0148757
673.107	0.0147916
673.185	0.0148972
673.263	0.0147585
673.341	0.0149138
673.419	0.0148446
673.497	0.0147775
673.575	0.0148941
673.654	0.0149529
673.732	0.0150137
673.810	0.0148168
673.888	0.0148915
673.966	0.0147516
674.044	0.0147796
674.122	0.0149749
674.200	0.0148956
674.279	0.0148939
674.357	0.0148776
674.435	0.0148402
674.513	0.0148430
674.591	0.0149403
674.669	0.0149635
674.747	0.0148470
674.825	0.0148231
674.904	0.0148997
674.982	0.0149377
675.060	0.0148677
675.138	0.0148328
675.216	0.0149753
675.294	0.0150000
675.372	0.0148997
675.450	0.0147680
675.529	0.0148976
675.607	0.0149900
675.685	0.0149478
675.763	0.0149048
675.841	0.0148925
675.919	0.0149545
675.997	0.0149054
676.075	0.0148837
676.154	0.0148270
676.232	0.0149094
676.310	0.0149667
676.388	0.0149176
676.466	0.0148191
676.544	0.0147634
676.622	0.0149207
676.700	0.0149096
676.779	0.0148923
676.857	0.0148079
676.935	0.0148845
677.013	0.0149522
677.091	0.0149451
677.169	0.0149028
677.247	0.0148483
677.325	0.0149924
677.404	0.0148993
677.482	0.0148160
677.560	0.0149808
677.638	0.0149907
677.716	0.0149105
677.794	0.0151389
677.872	0.0150172
677.950	0.0150323
678.029	0.0149832
678.107	0.0148712
678.185	0.0149483
678.263	0.0150423
678.341	0.0148519
678.419	0.0150496
678.497	0.0148453
678.575	0.0148377
678.654	0.0149703
678.732	0.0150920
678.810	0.0150971
678.888	0.0150742
678.966	0.0150154
679.044	0.0149887
679.122	0.0148264
679.200	0.0149726
679.279	0.0148393
679.357	0.0150528
679.435	0.0149866
679.513	0.0150270
679.591	0.0149638
679.669	0.0149841
679.747	0.0149033
679.825	0.0148422
679.904	0.0149045
679.982	0.0150114
680.060	0.0149942
680.138	0.0149013
680.216	0.0148936
680.294	0.0149246
680.372	0.0149146
680.450	0.0149231
680.529	0.0149789
680.607	0.0148426
680.685	0.0149639
680.763	0.0149382
680.841	0.0149414
680.919	0.0149285
680.997	0.0148914
681.075	0.0149866
681.154	0.0149632
681.232	0.0148617
681.310	0.0148720
681.388	0.0150153
681.466	0.0149242
681.544	0.0149251
681.622	0.0148775
681.700	0.0149850
681.779	0.0149377
681.857	0.0149976
681.935	0.0150169
682.013	0.0150028
682.091	0.0149380
682.169	0.0150423
682.247	0.0147897
682.325	0.0147955
682.404	0.0150666
682.482	0.0149196
682.560	0.0149468
682.638	0.0148643
682.716	0.0149146
682.794	0.0149046
682.872	0.0148585
682.950	0.0149059
683.029	0.0148948
683.107	0.0150585
683.185	0.0150815
683.263	0.0149956
683.341	0.0148616
683.419	0.0148107
683.497	0.0150041
683.575	0.0149374
683.654	0.0147737
683.732	0.0149375
683.810	0.0148473
683.888	0.0148091
683.966	0.0149442
684.044	0.0150061
684.122	0.0148600
684.200	0.0148232
684.279	0.0148592
684.357	0.0148189
684.435	0.0148469
684.513	0.0149504
684.591	0.0148768
684.669	0.0148866
684.747	0.0149821
684.825	0.0150433
684.904	0.0148422
684.982	0.0148923
685.060	0.0148650
685.138	0.0149306
685.216	0.0149487
685.294	0.0148962
685.372	0.0149523
685.450	0.0148476
685.529	0.0149101
685.607	0.0150042
685.685	0.0149476
