05/07/2022	17:02:16	Ver.	4.1	UNKNOWN
Optical Delay	639.989416	Delta X		0.078125	Sweeps	1	Scan Rate	0/0
Coordinates	Axis 1	NaN	Axis 2	NaN	Axis 3	NaN	Axis 4	NaN	Axis 5	NaN	Axis 6	0.000000
TX Power	0.000000	RX Power	0.000000

639.989	0.0128699
640.068	0.0128454
640.146	0.0129936
640.224	0.0126786
640.302	0.0129774
640.380	0.0127860
640.458	0.0128236
640.536	0.0128097
640.614	0.0128629
640.693	0.0129055
640.771	0.0127711
640.849	0.0128474
640.927	0.0127735
641.005	0.0129520
641.083	0.0129502
641.161	0.0128172
641.239	0.0128480
641.318	0.0129733
641.396	0.0128909
641.474	0.0129583
641.552	0.0128410
641.630	0.0128371
641.708	0.0128931
641.786	0.0129148
641.864	0.0129330
641.943	0.0129296
642.021	0.0129681
642.099	0.0128807
642.177	0.0128961
642.255	0.0128697
642.333	0.0127828
642.411	0.0127747
642.489	0.0128621
642.568	0.0128172
642.646	0.0127695
642.724	0.0128240
642.802	0.0128162
642.880	0.0130054
642.958	0.0127724
643.036	0.0127590
643.114	0.0129485
643.193	0.0129968
643.271	0.0126869
643.349	0.0128748
643.427	0.0128321
643.505	0.0129598
643.583	0.0129461
643.661	0.0128413
643.739	0.0129559
643.818	0.0128706
643.896	0.0127856
643.974	0.0128470
644.052	0.0128370
644.130	0.0129406
644.208	0.0130174
644.286	0.0127998
644.364	0.0127895
644.443	0.0128062
644.521	0.0130284
644.599	0.0128704
644.677	0.0128244
644.755	0.0128313
644.833	0.0128362
644.911	0.0128868
644.989	0.0127914
645.068	0.0128159
645.146	0.0129527
645.224	0.0129638
645.302	0.0128609
645.380	0.0126015
645.458	0.0127876
645.536	0.0128042
645.614	0.0129527
645.693	0.0128896
645.771	0.0128825
645.849	0.0127531
645.927	0.0127961
646.005	0.0129987
646.083	0.0128064
646.161	0.0128967
646.239	0.0129251
646.318	0.0128518
646.396	0.0127757
646.474	0.0129441
646.552	0.0129173
646.630	0.0128780
646.708	0.0129648
646.786	0.0128616
646.864	0.0128786
646.943	0.0128484
647.021	0.0128735
647.099	0.0129768
647.177	0.0128513
647.255	0.0127462
647.333	0.0129372
647.411	0.0129404
647.489	0.0128105
647.568	0.0127461
647.646	0.0128925
647.724	0.0129798
647.802	0.0127229
647.880	0.0128144
647.958	0.0128970
648.036	0.0128537
648.114	0.0127718
648.193	0.0128819
648.271	0.0129362
648.349	0.0129389
648.427	0.0128117
648.505	0.0129745
648.583	0.0128600
648.661	0.0128028
648.739	0.0127055
648.818	0.0129646
648.896	0.0129200
648.974	0.0129758
649.052	0.0130147
649.130	0.0128257
649.208	0.0128835
649.286	0.0128611
649.364	0.0129134
649.443	0.0130039
649.521	0.0128907
649.599	0.0127664
649.677	0.0130010
649.755	0.0129211
649.833	0.0128358
649.911	0.0128259
649.989	0.0128391
650.068	0.0129540
650.146	0.0130170
650.224	0.0127988
650.302	0.0127111
650.380	0.0129715
650.458	0.0129677
650.536	0.0128373
650.614	0.0129660
650.693	0.0130022
650.771	0.0128056
650.849	0.0128630
650.927	0.0128909
651.005	0.0128465
651.083	0.0128204
651.161	0.0128669
651.239	0.0128075
651.318	0.0128127
651.396	0.0128455
651.474	0.0128802
651.552	0.0130566
651.630	0.0128359
651.708	0.0128007
651.786	0.0129345
651.864	0.0128244
651.943	0.0128049
652.021	0.0128001
652.099	0.0128687
652.177	0.0128961
652.255	0.0128712
652.333	0.0129152
652.411	0.0128993
652.489	0.0129799
652.568	0.0128960
652.646	0.0127579
652.724	0.0128289
652.802	0.0129321
652.880	0.0130103
652.958	0.0128394
653.036	0.0128041
653.114	0.0129762
653.193	0.0127772
653.271	0.0128370
653.349	0.0129801
653.427	0.0128345
653.505	0.0128479
653.583	0.0128677
653.661	0.0127649
653.739	0.0129703
653.818	0.0128550
653.896	0.0128097
653.974	0.0128021
654.052	0.0129111
654.130	0.0128240
654.208	0.0127942
654.286	0.0129354
654.364	0.0128610
654.443	0.0129375
654.521	0.0128232
654.599	0.0129407
654.677	0.0128288
654.755	0.0128490
654.833	0.0127702
654.911	0.0129125
654.989	0.0128813
655.068	0.0128604
655.146	0.0128473
655.224	0.0127683
655.302	0.0127227
655.380	0.0128403
655.458	0.0129423
655.536	0.0127992
655.614	0.0128205
655.693	0.0127952
655.771	0.0129117
655.849	0.0128720
655.927	0.0128284
656.005	0.0129919
656.083	0.0128699
656.161	0.0128139
656.239	0.0128835
656.318	0.0129278
656.396	0.0128360
656.474	0.0129625
656.552	0.0129365
656.630	0.0129305
656.708	0.0128946
656.786	0.0127987
656.864	0.0126465
656.943	0.0128071
657.021	0.0130021
657.099	0.0128890
657.177	0.0128960
657.255	0.0130148
657.333	0.0127468
657.411	0.0129182
657.489	0.0127969
657.568	0.0128015
657.646	0.0128479
657.724	0.0129910
657.802	0.0128591
657.880	0.0129427
657.958	0.0128697
658.036	0.0129256
658.114	0.0128438
658.193	0.0127825
658.271	0.0129298
658.349	0.0127975
658.427	0.0129971
658.505	0.0128706
658.583	0.0128545
658.661	0.0128677
658.739	0.0127835
658.818	0.0129298
658.896	0.0130051
658.974	0.0128659
659.052	0.0127566
659.130	0.0129015
659.208	0.0129136
659.286	0.0128361
659.364	0.0130012
659.443	0.0129025
659.521	0.0127260
659.599	0.0128541
659.677	0.0128183
659.755	0.0128306
659.833	0.0130418
659.911	0.0128468
659.989	0.0127143
660.068	0.0128555
660.146	0.0128265
660.224	0.0127781
660.302	0.0129099
660.380	0.0128955
660.458	0.0129058
660.536	0.0130742
660.614	0.0129543
660.693	0.0128869
660.771	0.0129315
660.849	0.0129785
660.927	0.0130493
661.005	0.0128922
661.083	0.0128882
661.161	0.0129028
661.239	0.0128626
661.318	0.0129108
661.396	0.0128983
661.474	0.0128840
661.552	0.0129798
661.630	0.0128476
661.708	0.0129163
661.786	0.0128894
661.864	0.0129112
661.943	0.0129032
662.021	0.0130170
662.099	0.0129591
662.177	0.0129066
662.255	0.0128414
662.333	0.0130211
662.411	0.0129082
662.489	0.0128763
662.568	0.0130143
662.646	0.0129919
662.724	0.0128568
662.802	0.0127557
662.880	0.0129158
662.958	0.0129887
663.036	0.0130135
663.114	0.0128218
663.193	0.0128394
663.271	0.0128802
663.349	0.0129726
663.427	0.0128674
663.505	0.0128996
663.583	0.0130019
663.661	0.0128947
663.739	0.0128305
663.818	0.0128639
663.896	0.0127129
663.974	0.0128938
664.052	0.0128736
664.130	0.0127666
664.208	0.0127763
664.286	0.0130224
664.364	0.0129214
664.443	0.0128638
664.521	0.0128287
664.599	0.0127201
664.677	0.0128310
664.755	0.0129087
664.833	0.0130360
664.911	0.0127020
664.989	0.0128793
665.068	0.0128169
665.146	0.0127885
665.224	0.0128555
665.302	0.0129207
665.380	0.0127039
665.458	0.0128555
665.536	0.0127210
665.614	0.0128605
665.693	0.0129064
665.771	0.0128029
665.849	0.0127356
665.927	0.0129012
666.005	0.0129053
666.083	0.0127582
666.161	0.0128465
666.239	0.0128386
666.318	0.0128889
666.396	0.0128628
666.474	0.0127598
666.552	0.0128851
666.630	0.0129578
666.708	0.0130054
666.786	0.0128787
666.864	0.0127594
666.943	0.0127057
667.021	0.0128767
667.099	0.0129218
667.177	0.0127837
667.255	0.0127790
667.333	0.0128239
667.411	0.0129214
667.489	0.0128237
667.568	0.0128558
667.646	0.0128475
667.724	0.0128937
667.802	0.0128968
667.880	0.0128990
667.958	0.0128321
668.036	0.0129922
668.114	0.0128151
668.193	0.0126522
668.271	0.0127452
668.349	0.0127920
668.427	0.0128515
668.505	0.0127975
668.583	0.0125825
668.661	0.0128024
668.739	0.0129643
668.818	0.0129295
668.896	0.0127425
668.974	0.0128455
669.052	0.0127340
669.130	0.0126122
669.208	0.0127814
669.286	0.0129173
669.364	0.0129057
669.443	0.0128553
669.521	0.0129108
669.599	0.0127815
669.677	0.0128031
669.755	0.0127908
669.833	0.0128017
669.911	0.0129076
669.989	0.0128654
670.068	0.0127911
670.146	0.0127881
670.224	0.0127944
670.302	0.0128017
670.380	0.0127498
670.458	0.0127574
670.536	0.0129264
670.614	0.0129687
670.693	0.0127182
670.771	0.0128194
670.849	0.0127628
670.927	0.0128298
671.005	0.0127947
671.083	0.0129025
671.161	0.0129281
671.239	0.0128437
671.318	0.0129061
671.396	0.0129390
671.474	0.0128027
671.552	0.0127776
671.630	0.0128230
671.708	0.0127620
671.786	0.0128644
671.864	0.0128872
671.943	0.0128408
672.021	0.0128457
672.099	0.0129952
672.177	0.0129732
672.255	0.0129555
672.333	0.0128642
672.411	0.0128302
672.489	0.0129285
672.568	0.0129411
672.646	0.0129591
672.724	0.0127854
672.802	0.0128297
672.880	0.0126933
672.958	0.0128182
673.036	0.0129031
673.114	0.0128674
673.193	0.0129103
673.271	0.0129653
673.349	0.0128414
673.427	0.0130782
673.505	0.0129690
673.583	0.0129213
673.661	0.0129143
673.739	0.0128618
673.818	0.0129147
673.896	0.0128852
673.974	0.0129118
674.052	0.0128274
674.130	0.0128394
674.208	0.0128880
674.286	0.0129367
674.364	0.0129605
674.443	0.0127911
674.521	0.0129759
674.599	0.0130920
674.677	0.0128884
674.755	0.0127808
674.833	0.0129830
674.911	0.0129516
674.989	0.0127861
675.068	0.0129050
675.146	0.0129104
675.224	0.0131139
675.302	0.0129449
675.380	0.0129413
675.458	0.0130997
675.536	0.0129065
675.614	0.0128691
675.693	0.0129433
675.771	0.0129233
675.849	0.0130324
675.927	0.0130273
676.005	0.0128150
676.083	0.0128548
676.161	0.0128691
676.239	0.0129486
676.318	0.0129879
676.396	0.0129253
676.474	0.0128892
676.552	0.0128663
676.630	0.0129053
676.708	0.0129992
676.786	0.0129715
676.864	0.0129523
676.943	0.0128033
677.021	0.0128548
677.099	0.0130190
677.177	0.0129202
677.255	0.0129697
677.333	0.0128990
677.411	0.0128143
677.489	0.0128094
677.568	0.0128841
677.646	0.0129247
677.724	0.0129118
677.802	0.0129105
677.880	0.0129333
677.958	0.0127129
678.036	0.0128455
678.114	0.0128323
678.193	0.0129630
678.271	0.0128368
678.349	0.0128574
678.427	0.0128550
678.505	0.0129996
678.583	0.0128934
678.661	0.0129059
678.739	0.0128806
678.818	0.0128579
678.896	0.0127789
678.974	0.0128486
679.052	0.0129832
679.130	0.0129162
679.208	0.0128228
679.286	0.0129990
679.364	0.0129504
679.443	0.0129445
679.521	0.0129514
679.599	0.0129157
679.677	0.0128848
679.755	0.0128730
679.833	0.0128483
679.911	0.0128715
679.989	0.0128468
680.068	0.0128384
680.146	0.0128511
680.224	0.0129082
680.302	0.0127514
680.380	0.0130019
680.458	0.0128163
680.536	0.0128770
680.614	0.0128849
680.693	0.0128584
680.771	0.0128217
680.849	0.0129523
680.927	0.0129380
681.005	0.0129268
681.083	0.0129832
681.161	0.0129174
681.239	0.0128831
681.318	0.0128764
681.396	0.0128717
681.474	0.0128876
681.552	0.0129119
681.630	0.0128145
681.708	0.0129152
681.786	0.0129227
681.864	0.0129898
681.943	0.0128805
682.021	0.0128804
682.099	0.0130029
682.177	0.0129012
682.255	0.0128860
682.333	0.0131215
682.411	0.0128608
682.489	0.0129106
682.568	0.0128284
682.646	0.0131090
682.724	0.0130600
682.802	0.0129211
682.880	0.0129646
682.958	0.0129298
683.036	0.0129043
683.114	0.0129303
683.193	0.0130017
683.271	0.0129044
683.349	0.0129938
683.427	0.0129893
683.505	0.0129054
683.583	0.0129277
683.661	0.0129307
683.739	0.0129525
683.818	0.0129144
683.896	0.0130469
683.974	0.0129673
684.052	0.0130114
684.130	0.0129900
684.208	0.0128294
684.286	0.0129509
684.364	0.0129022
684.443	0.0128886
684.521	0.0128884
684.599	0.0128891
684.677	0.0129915
684.755	0.0128367
684.833	0.0129972
684.911	0.0129164
684.989	0.0129010
685.068	0.0128325
685.146	0.0128928
685.224	0.0129055
685.302	0.0128316
685.380	0.0128349
685.458	0.0129718
685.536	0.0130145
685.614	0.0131303
685.693	0.0129507
685.771	0.0130816
685.849	0.0130018
685.927	0.0129029
686.005	0.0127984
686.083	0.0127790
686.161	0.0128000
686.239	0.0127684
686.318	0.0127109
686.396	0.0128163
686.474	0.0128194
686.552	0.0128378
686.630	0.0129633
686.708	0.0129788
686.786	0.0131484
686.864	0.0131854
686.943	0.0130865
687.021	0.0130972
687.099	0.0132452
687.177	0.0132835
687.255	0.0132118
687.333	0.0131441
687.411	0.0130688
687.489	0.0129996
687.568	0.0126732
687.646	0.0126772
687.724	0.0124361
687.802	0.0124501
687.880	0.0123029
687.958	0.0123105
688.036	0.0122431
688.114	0.0123968
688.193	0.0124841
688.271	0.0124487
688.349	0.0126566
688.427	0.0128639
688.505	0.0130134
688.583	0.0131422
688.661	0.0134266
688.739	0.0136371
688.818	0.0137041
688.896	0.0136616
688.974	0.0136530
689.052	0.0135672
689.130	0.0133848
689.208	0.0131411
689.286	0.0129704
689.364	0.0128844
689.443	0.0125136
689.521	0.0124413
689.599	0.0122569
689.677	0.0121267
689.755	0.0120116
689.833	0.0119481
689.911	0.0120587
689.989	0.0120406
690.068	0.0121793
690.146	0.0120874
690.224	0.0123403
690.302	0.0123540
690.380	0.0126472
690.458	0.0128029
690.536	0.0129979
690.614	0.0131548
690.693	0.0131908
690.771	0.0134518
690.849	0.0133561
690.927	0.0135373
691.005	0.0134975
691.083	0.0134523
691.161	0.0135306
691.239	0.0133859
691.318	0.0134423
691.396	0.0134541
691.474	0.0132482
691.552	0.0130554
691.630	0.0130369
691.708	0.0128523
691.786	0.0127632
691.864	0.0126770
691.943	0.0126431
692.021	0.0126501
692.099	0.0124513
692.177	0.0124567
692.255	0.0124900
692.333	0.0123984
692.411	0.0123616
692.489	0.0123592
692.568	0.0125058
692.646	0.0126160
692.724	0.0125135
692.802	0.0125433
692.880	0.0125742
692.958	0.0123666
693.036	0.0124979
693.114	0.0126025
693.193	0.0126520
693.271	0.0125301
693.349	0.0125237
693.427	0.0127694
693.505	0.0128256
693.583	0.0129066
693.661	0.0130035
693.739	0.0132497
693.818	0.0132558
693.896	0.0133078
693.974	0.0134383
694.052	0.0134109
694.130	0.0134993
694.208	0.0135311
694.286	0.0136535
694.364	0.0134345
694.443	0.0133227
694.521	0.0131521
694.599	0.0130520
694.677	0.0131923
694.755	0.0127449
694.833	0.0126239
694.911	0.0125512
694.989	0.0125288
695.068	0.0125539
695.146	0.0123552
695.224	0.0123379
695.302	0.0120962
695.380	0.0122715
695.458	0.0123137
695.536	0.0122276
695.614	0.0122535
695.693	0.0122060
695.771	0.0123412
695.849	0.0125970
695.927	0.0124499
696.005	0.0126627
696.083	0.0129038
696.161	0.0129971
696.239	0.0130226
696.318	0.0130392
696.396	0.0128716
696.474	0.0128888
696.552	0.0130611
696.630	0.0130361
696.708	0.0130541
696.786	0.0129541
696.864	0.0128973
696.943	0.0130249
697.021	0.0129085
697.099	0.0128858
697.177	0.0128819
697.255	0.0127561
697.333	0.0128343
697.411	0.0128427
697.489	0.0127515
697.568	0.0127444
697.646	0.0128525
697.724	0.0129275
697.802	0.0130140
697.880	0.0129445
697.958	0.0129234
698.036	0.0130135
698.114	0.0130027
698.193	0.0130637
698.271	0.0130148
698.349	0.0131707
698.427	0.0130281
698.505	0.0130197
698.583	0.0131833
698.661	0.0131370
698.739	0.0130611
698.818	0.0130466
698.896	0.0129456
698.974	0.0130246
699.052	0.0131351
699.130	0.0130177
699.208	0.0131628
699.286	0.0130618
699.364	0.0129913
699.443	0.0130582
699.521	0.0129212
699.599	0.0129288
699.677	0.0128937
699.755	0.0126903
699.833	0.0126347
699.911	0.0125703
699.989	0.0125035
700.068	0.0125225
700.146	0.0123206
700.224	0.0123407
700.302	0.0122340
700.380	0.0122390
700.458	0.0120967
700.536	0.0122545
700.614	0.0121789
700.693	0.0122924
700.771	0.0123174
700.849	0.0123522
700.927	0.0123500
701.005	0.0124849
701.083	0.0124440
701.161	0.0126872
701.239	0.0127161
701.318	0.0127785
701.396	0.0130574
701.474	0.0132880
701.552	0.0133435
701.630	0.0134367
701.708	0.0135291
701.786	0.0137030
701.864	0.0137695
701.943	0.0138416
702.021	0.0137704
702.099	0.0138158
702.177	0.0137392
702.255	0.0136673
702.333	0.0137537
702.411	0.0137235
702.489	0.0135048
702.568	0.0134014
702.646	0.0132461
702.724	0.0130560
702.802	0.0129434
702.880	0.0128455
702.958	0.0128042
703.036	0.0128221
703.114	0.0124763
703.193	0.0124296
703.271	0.0125422
703.349	0.0124482
703.427	0.0123985
703.505	0.0123438
703.583	0.0123947
703.661	0.0124236
703.739	0.0123184
703.818	0.0122459
703.896	0.0122897
703.974	0.0122574
704.052	0.0123186
704.130	0.0121477
704.208	0.0123418
704.286	0.0124818
704.364	0.0124555
704.443	0.0124858
704.521	0.0124802
704.599	0.0126238
704.677	0.0128119
704.755	0.0127107
704.833	0.0127246
704.911	0.0127541
704.989	0.0129990
705.068	0.0130817
705.146	0.0130125
705.224	0.0130203
705.302	0.0131618
705.380	0.0132507
705.458	0.0132409
705.536	0.0133548
705.614	0.0132443
705.693	0.0134219
705.771	0.0133827
705.849	0.0133012
705.927	0.0135191
706.005	0.0134518
706.083	0.0134089
706.161	0.0133408
706.239	0.0133527
706.318	0.0134415
706.396	0.0133759
706.474	0.0132603
706.552	0.0132061
706.630	0.0132958
706.708	0.0130318
706.786	0.0128781
706.864	0.0130013
706.943	0.0127914
707.021	0.0128009
707.099	0.0127480
707.177	0.0126322
707.255	0.0126015
707.333	0.0126530
707.411	0.0127159
707.489	0.0126916
707.568	0.0124696
707.646	0.0124475
707.724	0.0126255
707.802	0.0125003
707.880	0.0126173
707.958	0.0124334
708.036	0.0124311
708.114	0.0123976
708.193	0.0124960
708.271	0.0125874
708.349	0.0125175
708.427	0.0125206
708.505	0.0125064
708.583	0.0125766
708.661	0.0124297
708.739	0.0124801
708.818	0.0126201
708.896	0.0127598
708.974	0.0126003
709.052	0.0127510
709.130	0.0129279
709.208	0.0130199
709.286	0.0130080
709.364	0.0130216
709.443	0.0130003
709.521	0.0131258
709.599	0.0132078
709.677	0.0132538
709.755	0.0133133
709.833	0.0133215
709.911	0.0132742
709.989	0.0133150
710.068	0.0133997
710.146	0.0132121
710.224	0.0133179
710.302	0.0134338
710.380	0.0133217
710.458	0.0132590
710.536	0.0132201
710.614	0.0133405
710.693	0.0133806
710.771	0.0134149
710.849	0.0133727
710.927	0.0133072
711.005	0.0132952
711.083	0.0133216
711.161	0.0132163
711.239	0.0130772
711.318	0.0131450
711.396	0.0130811
711.474	0.0130697
711.552	0.0130587
711.630	0.0131598
711.708	0.0128271
711.786	0.0127671
711.864	0.0127743
711.943	0.0127468
712.021	0.0127714
712.099	0.0127264
712.177	0.0127585
712.255	0.0128192
712.333	0.0126881
712.411	0.0127912
712.489	0.0128246
712.568	0.0129446
712.646	0.0126578
712.724	0.0127266
712.802	0.0128261
712.880	0.0128262
712.958	0.0126693
713.036	0.0126934
713.114	0.0127537
713.193	0.0126832
713.271	0.0126801
713.349	0.0126382
713.427	0.0126262
713.505	0.0125121
713.583	0.0126922
713.661	0.0126387
713.739	0.0126120
713.818	0.0125872
713.896	0.0126473
713.974	0.0127173
714.052	0.0127140
714.130	0.0127206
714.208	0.0129085
714.286	0.0128498
714.364	0.0128478
714.443	0.0130623
714.521	0.0130102
714.599	0.0129548
714.677	0.0131178
714.755	0.0131185
714.833	0.0131820
714.911	0.0131390
714.989	0.0131744
715.068	0.0132728
715.146	0.0132764
715.224	0.0131211
715.302	0.0132132
715.380	0.0131757
715.458	0.0132158
715.536	0.0132687
715.614	0.0131889
715.693	0.0133366
715.771	0.0131091
715.849	0.0131789
715.927	0.0131252
716.005	0.0131858
716.083	0.0132146
716.161	0.0130790
716.239	0.0131216
716.318	0.0129707
716.396	0.0130116
716.474	0.0130428
716.552	0.0130129
716.630	0.0128941
716.708	0.0128164
716.786	0.0129607
716.864	0.0128189
716.943	0.0128341
717.021	0.0127516
717.099	0.0126751
717.177	0.0127310
717.255	0.0126910
717.333	0.0125076
717.411	0.0126610
717.489	0.0125776
717.568	0.0125275
717.646	0.0126595
717.724	0.0126762
717.802	0.0125935
717.880	0.0125240
717.958	0.0125262
718.036	0.0127528
718.114	0.0127216
718.193	0.0127653
718.271	0.0125536
718.349	0.0125315
718.427	0.0125557
718.505	0.0125300
718.583	0.0126009
718.661	0.0126170
718.739	0.0124896
718.818	0.0126109
718.896	0.0125884
718.974	0.0127060
719.052	0.0127795
719.130	0.0125936
719.208	0.0127797
719.286	0.0129649
719.364	0.0127871
719.443	0.0130090
719.521	0.0130396
719.599	0.0131046
719.677	0.0131542
719.755	0.0133324
719.833	0.0133942
719.911	0.0134325
719.989	0.0134021
720.068	0.0135160
720.146	0.0135284
720.224	0.0134384
720.302	0.0136292
720.380	0.0135061
720.458	0.0134598
720.536	0.0133643
720.614	0.0133012
720.693	0.0131351
720.771	0.0131697
720.849	0.0130793
720.927	0.0128312
721.005	0.0127206
721.083	0.0126231
721.161	0.0126318
721.239	0.0126138
721.318	0.0123224
721.396	0.0123228
721.474	0.0123807
721.552	0.0123554
721.630	0.0122588
721.708	0.0123178
721.786	0.0124008
721.864	0.0125100
721.943	0.0124832
722.021	0.0125999
722.099	0.0128407
722.177	0.0128398
722.255	0.0128483
722.333	0.0129207
722.411	0.0131004
722.489	0.0131485
722.568	0.0131210
722.646	0.0132247
722.724	0.0132140
722.802	0.0133320
722.880	0.0131430
722.958	0.0131699
723.036	0.0132434
723.114	0.0132473
723.193	0.0129636
723.271	0.0129046
723.349	0.0130037
723.427	0.0128264
723.505	0.0126331
723.583	0.0126393
723.661	0.0124502
723.739	0.0126051
723.818	0.0124261
723.896	0.0123776
723.974	0.0123431
724.052	0.0123069
724.130	0.0124122
724.208	0.0123676
724.286	0.0123519
724.364	0.0123973
724.443	0.0124197
724.521	0.0125774
724.599	0.0126031
724.677	0.0126809
724.755	0.0127056
724.833	0.0128851
724.911	0.0131377
724.989	0.0130892
725.068	0.0131685
725.146	0.0132203
725.224	0.0134640
725.302	0.0133649
725.380	0.0134550
725.458	0.0133781
725.536	0.0134883
725.614	0.0134672
725.693	0.0133292
