05/07/2022	17:41:18	Ver.	4.1	UNKNOWN
Optical Delay	639.989416	Delta X		0.078125	Sweeps	1	Scan Rate	0/0
Coordinates	Axis 1	NaN	Axis 2	NaN	Axis 3	NaN	Axis 4	NaN	Axis 5	NaN	Axis 6	0.000000
TX Power	0.000000	RX Power	0.000000

639.989	0.0130775
640.068	0.0129510
640.146	0.0129678
640.224	0.0126875
640.302	0.0129192
640.380	0.0129001
640.458	0.0128214
640.536	0.0128492
640.614	0.0128879
640.693	0.0128211
640.771	0.0127949
640.849	0.0130220
640.927	0.0129084
641.005	0.0129678
641.083	0.0130051
641.161	0.0129861
641.239	0.0130666
641.318	0.0130607
641.396	0.0129929
641.474	0.0130194
641.552	0.0130521
641.630	0.0130893
641.708	0.0130767
641.786	0.0130663
641.864	0.0130236
641.943	0.0131221
642.021	0.0130828
642.099	0.0129710
642.177	0.0129332
642.255	0.0129795
642.333	0.0130716
642.411	0.0130180
642.489	0.0131961
642.568	0.0131385
642.646	0.0130441
642.724	0.0130878
642.802	0.0132980
642.880	0.0131342
642.958	0.0132909
643.036	0.0131900
643.114	0.0131728
643.193	0.0130212
643.271	0.0131979
643.349	0.0130916
643.427	0.0131799
643.505	0.0131235
643.583	0.0129963
643.661	0.0130949
643.739	0.0130432
643.818	0.0129044
643.896	0.0129687
643.974	0.0130427
644.052	0.0130526
644.130	0.0130062
644.208	0.0130737
644.286	0.0130178
644.364	0.0129703
644.443	0.0130181
644.521	0.0129350
644.599	0.0128829
644.677	0.0130334
644.755	0.0129784
644.833	0.0130092
644.911	0.0130261
644.989	0.0129496
645.068	0.0129948
645.146	0.0130074
645.224	0.0130182
645.302	0.0129285
645.380	0.0130637
645.458	0.0131037
645.536	0.0130087
645.614	0.0129729
645.693	0.0130374
645.771	0.0130802
645.849	0.0130648
645.927	0.0130506
646.005	0.0129440
646.083	0.0129362
646.161	0.0129936
646.239	0.0129565
646.318	0.0128152
646.396	0.0127567
646.474	0.0128008
646.552	0.0126953
646.630	0.0128237
646.708	0.0127930
646.786	0.0126253
646.864	0.0127631
646.943	0.0126620
647.021	0.0126482
647.099	0.0126907
647.177	0.0126756
647.255	0.0126971
647.333	0.0126725
647.411	0.0126970
647.489	0.0126698
647.568	0.0126603
647.646	0.0126583
647.724	0.0127773
647.802	0.0127459
647.880	0.0128724
647.958	0.0128246
648.036	0.0128497
648.114	0.0128725
648.193	0.0131289
648.271	0.0131674
648.349	0.0132011
648.427	0.0130941
648.505	0.0131401
648.583	0.0133278
648.661	0.0131786
648.739	0.0132746
648.818	0.0133798
648.896	0.0133964
648.974	0.0135155
649.052	0.0133796
649.130	0.0134109
649.208	0.0133197
649.286	0.0134626
649.364	0.0133156
649.443	0.0132608
649.521	0.0132287
649.599	0.0132268
649.677	0.0131686
649.755	0.0131846
649.833	0.0129438
649.911	0.0128072
649.989	0.0128188
650.068	0.0126941
650.146	0.0126598
650.224	0.0124963
650.302	0.0124302
650.380	0.0123367
650.458	0.0121545
650.536	0.0121376
650.614	0.0121165
650.693	0.0123280
650.771	0.0123547
650.849	0.0120906
650.927	0.0121656
651.005	0.0121394
651.083	0.0121719
651.161	0.0122169
651.239	0.0122961
651.318	0.0125403
651.396	0.0124162
651.474	0.0125098
651.552	0.0126130
651.630	0.0126361
651.708	0.0129065
651.786	0.0129346
651.864	0.0129542
651.943	0.0131091
652.021	0.0132590
652.099	0.0133074
652.177	0.0133755
652.255	0.0135477
652.333	0.0136514
652.411	0.0137265
652.489	0.0139056
652.568	0.0138727
652.646	0.0138662
652.724	0.0138790
652.802	0.0139829
652.880	0.0139417
652.958	0.0140417
653.036	0.0139172
653.114	0.0137763
653.193	0.0136279
653.271	0.0135461
653.349	0.0133257
653.427	0.0132329
653.505	0.0129595
653.583	0.0127639
653.661	0.0126711
653.739	0.0124932
653.818	0.0122533
653.896	0.0120234
653.974	0.0118410
654.052	0.0117472
654.130	0.0117178
654.208	0.0115253
654.286	0.0114112
654.364	0.0113361
654.443	0.0114304
654.521	0.0113006
654.599	0.0113197
654.677	0.0114462
654.755	0.0115178
654.833	0.0115071
654.911	0.0117058
654.989	0.0117408
655.068	0.0118871
655.146	0.0121800
655.224	0.0122305
655.302	0.0124931
655.380	0.0127911
655.458	0.0129028
655.536	0.0130396
655.614	0.0132785
655.693	0.0135728
655.771	0.0138374
655.849	0.0139685
655.927	0.0142056
656.005	0.0143401
656.083	0.0146028
656.161	0.0146438
656.239	0.0148222
656.318	0.0151188
656.396	0.0150197
656.474	0.0150809
656.552	0.0150789
656.630	0.0151256
656.708	0.0149908
656.786	0.0149046
656.864	0.0147129
656.943	0.0145992
657.021	0.0144894
657.099	0.0140060
657.177	0.0138132
657.255	0.0135762
657.333	0.0132898
657.411	0.0130443
657.489	0.0128043
657.568	0.0125281
657.646	0.0120966
657.724	0.0117983
657.802	0.0116195
657.880	0.0113023
657.958	0.0112739
658.036	0.0110635
658.114	0.0107444
658.193	0.0107435
658.271	0.0107372
658.349	0.0105401
658.427	0.0105633
658.505	0.0105927
658.583	0.0106497
658.661	0.0105600
658.739	0.0107117
658.818	0.0108592
658.896	0.0110852
658.974	0.0113861
659.052	0.0115125
659.130	0.0117187
659.208	0.0120491
659.286	0.0122472
659.364	0.0125056
659.443	0.0129403
659.521	0.0132549
659.599	0.0136202
659.677	0.0138208
659.755	0.0142191
659.833	0.0146081
659.911	0.0148059
659.989	0.0150166
660.068	0.0151848
660.146	0.0155537
660.224	0.0156612
660.302	0.0155539
660.380	0.0157261
660.458	0.0158153
660.536	0.0157998
660.614	0.0156928
660.693	0.0154099
660.771	0.0154934
660.849	0.0152844
660.927	0.0151061
661.005	0.0149445
661.083	0.0147063
661.161	0.0142615
661.239	0.0140566
661.318	0.0137486
661.396	0.0134116
661.474	0.0131724
661.552	0.0128471
661.630	0.0125079
661.708	0.0121600
661.786	0.0117899
661.864	0.0116328
661.943	0.0112360
662.021	0.0110159
662.099	0.0106687
662.177	0.0104935
662.255	0.0103408
662.333	0.0102155
662.411	0.0100835
662.489	0.0101201
662.568	0.00997208
662.646	0.00994995
662.724	0.00994781
662.802	0.0100795
662.880	0.0103115
662.958	0.0103594
663.036	0.0104598
663.114	0.0108917
663.193	0.0111223
663.271	0.0112790
663.349	0.0117103
663.427	0.0120776
663.505	0.0125946
663.583	0.0128458
663.661	0.0132010
663.739	0.0135265
663.818	0.0138150
663.896	0.0141462
663.974	0.0145599
664.052	0.0146344
664.130	0.0148716
664.208	0.0152610
664.286	0.0154530
664.364	0.0155302
664.443	0.0156095
664.521	0.0157151
664.599	0.0156597
664.677	0.0157728
664.755	0.0158089
664.833	0.0157904
664.911	0.0155336
664.989	0.0154256
665.068	0.0155231
665.146	0.0150800
665.224	0.0147088
665.302	0.0146687
665.380	0.0144927
665.458	0.0141622
665.536	0.0138293
665.614	0.0135316
665.693	0.0135195
665.771	0.0131969
665.849	0.0128740
665.927	0.0125433
666.005	0.0122299
666.083	0.0120210
666.161	0.0119242
666.239	0.0116241
666.318	0.0113001
666.396	0.0110563
666.474	0.0110325
666.552	0.0107637
666.630	0.0106126
666.708	0.0103992
666.786	0.0105266
666.864	0.0103548
666.943	0.0102835
667.021	0.0103551
667.099	0.0104102
667.177	0.0106040
667.255	0.0106818
667.333	0.0109433
667.411	0.0110363
667.489	0.0112189
667.568	0.0113507
667.646	0.0116570
667.724	0.0118132
667.802	0.0122737
667.880	0.0125304
667.958	0.0125912
668.036	0.0129797
668.114	0.0130275
668.193	0.0132926
668.271	0.0134581
668.349	0.0137069
668.427	0.0139977
668.505	0.0139861
668.583	0.0143279
668.661	0.0144248
668.739	0.0144282
668.818	0.0144895
668.896	0.0147333
668.974	0.0148090
669.052	0.0147973
669.130	0.0146314
669.208	0.0145570
669.286	0.0144869
669.364	0.0145383
669.443	0.0141998
669.521	0.0143638
669.599	0.0142725
669.677	0.0140979
669.755	0.0139917
669.833	0.0139391
669.911	0.0139432
669.989	0.0136457
670.068	0.0136489
670.146	0.0135281
670.224	0.0134225
670.302	0.0133215
670.380	0.0131547
670.458	0.0131204
670.536	0.0130017
670.614	0.0129164
670.693	0.0127084
670.771	0.0126222
670.849	0.0124232
670.927	0.0123423
671.005	0.0122598
671.083	0.0121722
671.161	0.0120898
671.239	0.0119256
671.318	0.0118404
671.396	0.0117728
671.474	0.0115602
671.552	0.0112437
671.630	0.0114096
671.708	0.0114015
671.786	0.0112106
671.864	0.0111214
671.943	0.0112583
672.021	0.0111164
672.099	0.0110852
672.177	0.0109760
672.255	0.0111536
672.333	0.0112885
672.411	0.0113126
672.489	0.0113557
672.568	0.0116466
672.646	0.0118519
672.724	0.0120401
672.802	0.0122054
672.880	0.0124117
672.958	0.0125719
673.036	0.0129440
673.114	0.0132280
673.193	0.0131597
673.271	0.0135712
673.349	0.0136370
673.427	0.0137353
673.505	0.0138295
673.583	0.0140773
673.661	0.0141258
673.739	0.0141735
673.818	0.0143331
673.896	0.0142681
673.974	0.0141714
674.052	0.0141762
674.130	0.0141141
674.208	0.0140804
674.286	0.0140353
674.364	0.0137653
674.443	0.0138033
674.521	0.0137469
674.599	0.0135582
674.677	0.0135635
674.755	0.0133803
674.833	0.0133006
674.911	0.0133922
674.989	0.0132242
675.068	0.0131474
675.146	0.0130544
675.224	0.0131539
675.302	0.0132404
675.380	0.0132343
675.458	0.0131277
675.536	0.0131042
675.614	0.0131154
675.693	0.0131567
675.771	0.0133677
675.849	0.0134040
675.927	0.0133834
676.005	0.0132499
676.083	0.0133498
676.161	0.0134361
676.239	0.0132428
676.318	0.0130862
676.396	0.0131034
676.474	0.0130433
676.552	0.0127573
676.630	0.0127033
676.708	0.0124110
676.786	0.0122498
676.864	0.0120071
676.943	0.0117635
677.021	0.0116439
677.099	0.0115547
677.177	0.0112285
677.255	0.0110153
677.333	0.0109418
677.411	0.0108009
677.489	0.0107969
677.568	0.0105859
677.646	0.0106305
677.724	0.0107079
677.802	0.0108180
677.880	0.0108570
677.958	0.0108443
678.036	0.0111790
678.114	0.0113804
678.193	0.0115097
678.271	0.0117201
678.349	0.0119229
678.427	0.0122530
678.505	0.0127534
678.583	0.0130632
678.661	0.0133367
678.739	0.0137065
678.818	0.0138709
678.896	0.0143233
678.974	0.0144942
679.052	0.0147020
679.130	0.0149601
679.208	0.0153540
679.286	0.0152966
679.364	0.0152980
679.443	0.0153624
679.521	0.0154177
679.599	0.0152260
679.677	0.0151153
679.755	0.0150655
679.833	0.0147302
679.911	0.0146893
679.989	0.0145675
680.068	0.0141718
680.146	0.0140934
680.224	0.0137468
680.302	0.0135198
680.380	0.0133057
680.458	0.0130319
680.536	0.0127992
680.614	0.0128135
680.693	0.0124277
680.771	0.0123138
680.849	0.0122897
680.927	0.0123363
681.005	0.0122489
681.083	0.0122892
681.161	0.0122385
681.239	0.0122493
681.318	0.0123049
681.396	0.0122533
681.474	0.0121355
681.552	0.0122042
681.630	0.0122543
681.708	0.0122222
681.786	0.0121505
681.864	0.0121526
681.943	0.0119212
682.021	0.0119956
682.099	0.0117798
682.177	0.0118825
682.255	0.0117372
682.333	0.0116144
682.411	0.0115640
682.489	0.0116132
682.568	0.0113540
682.646	0.0113966
682.724	0.0114386
682.802	0.0112952
682.880	0.0113364
682.958	0.0113408
683.036	0.0113645
683.114	0.0114905
683.193	0.0117573
683.271	0.0117117
683.349	0.0120567
683.427	0.0123030
683.505	0.0123765
683.583	0.0127635
683.661	0.0129506
683.739	0.0134109
683.818	0.0137421
683.896	0.0138720
683.974	0.0142554
684.052	0.0144984
684.130	0.0147282
684.208	0.0148357
684.286	0.0151369
684.364	0.0154668
684.443	0.0155799
684.521	0.0156029
684.599	0.0156683
684.677	0.0156755
684.755	0.0156165
684.833	0.0155199
684.911	0.0151479
684.989	0.0149729
685.068	0.0148183
685.146	0.0144220
685.224	0.0141036
685.302	0.0137362
685.380	0.0132953
685.458	0.0129176
685.536	0.0124919
685.614	0.0122771
685.693	0.0120019
685.771	0.0117979
685.849	0.0113582
685.927	0.0110699
686.005	0.0111032
686.083	0.0108492
686.161	0.0107463
686.239	0.0108446
686.318	0.0108941
686.396	0.0109272
686.474	0.0110114
686.552	0.0112343
686.630	0.0114207
686.708	0.0116805
686.786	0.0119662
686.864	0.0121935
686.943	0.0125864
687.021	0.0126979
687.099	0.0130586
687.177	0.0132644
687.255	0.0134127
687.333	0.0137097
687.411	0.0138068
687.489	0.0139304
687.568	0.0138586
687.646	0.0140141
687.724	0.0139233
687.802	0.0139999
687.880	0.0138371
687.958	0.0136973
688.036	0.0135539
688.114	0.0132719
688.193	0.0130143
688.271	0.0129643
688.349	0.0127912
688.427	0.0126446
688.505	0.0125766
688.583	0.0122993
688.661	0.0120621
688.739	0.0119324
688.818	0.0118860
688.896	0.0117922
688.974	0.0117678
689.052	0.0117025
689.130	0.0117168
689.208	0.0117294
689.286	0.0119019
689.364	0.0119871
689.443	0.0120015
689.521	0.0122173
689.599	0.0122630
689.677	0.0125570
689.755	0.0127126
689.833	0.0130021
689.911	0.0132058
689.989	0.0135130
690.068	0.0136119
690.146	0.0138358
690.224	0.0139655
690.302	0.0139154
690.380	0.0141727
690.458	0.0140453
690.536	0.0141203
690.614	0.0140095
690.693	0.0139217
690.771	0.0138563
690.849	0.0138075
690.927	0.0138042
691.005	0.0136157
691.083	0.0133838
691.161	0.0133494
691.239	0.0133390
691.318	0.0130721
691.396	0.0128439
691.474	0.0127309
691.552	0.0126759
691.630	0.0125371
691.708	0.0126415
691.786	0.0125071
691.864	0.0124756
691.943	0.0124156
692.021	0.0123993
692.099	0.0124803
692.177	0.0124677
692.255	0.0127123
692.333	0.0127628
692.411	0.0127612
692.489	0.0128001
692.568	0.0129217
692.646	0.0129455
692.724	0.0130463
692.802	0.0130089
692.880	0.0131450
692.958	0.0131773
693.036	0.0131116
693.114	0.0130562
693.193	0.0132535
693.271	0.0129839
693.349	0.0129051
693.427	0.0128379
693.505	0.0127526
693.583	0.0127533
693.661	0.0126857
693.739	0.0125681
693.818	0.0124036
693.896	0.0122682
693.974	0.0122409
694.052	0.0120609
694.130	0.0119571
694.208	0.0119849
694.286	0.0118299
694.364	0.0117816
694.443	0.0118181
694.521	0.0118552
694.599	0.0117876
694.677	0.0119105
694.755	0.0120464
694.833	0.0119637
694.911	0.0123508
694.989	0.0124021
695.068	0.0124860
695.146	0.0127620
695.224	0.0130365
695.302	0.0130905
695.380	0.0134252
695.458	0.0135158
695.536	0.0138009
695.614	0.0140714
695.693	0.0142188
695.771	0.0144270
695.849	0.0144279
695.927	0.0146060
696.005	0.0145419
696.083	0.0147654
696.161	0.0147695
696.239	0.0148038
696.318	0.0147242
696.396	0.0146181
696.474	0.0146126
696.552	0.0144215
696.630	0.0143408
696.708	0.0140538
696.786	0.0138438
696.864	0.0136020
696.943	0.0132620
697.021	0.0131157
697.099	0.0128603
697.177	0.0126815
697.255	0.0121912
697.333	0.0122266
697.411	0.0119395
697.489	0.0117378
697.568	0.0116468
697.646	0.0113544
697.724	0.0112337
697.802	0.0112678
697.880	0.0112944
697.958	0.0113766
698.036	0.0112083
698.114	0.0112434
698.193	0.0114511
698.271	0.0115769
698.349	0.0116740
698.427	0.0119685
698.505	0.0120170
698.583	0.0122096
698.661	0.0125125
698.739	0.0124335
698.818	0.0126372
698.896	0.0129372
698.974	0.0129906
699.052	0.0131033
699.130	0.0133107
699.208	0.0132571
699.286	0.0135380
699.364	0.0135924
699.443	0.0136306
699.521	0.0136665
699.599	0.0137634
699.677	0.0137166
699.755	0.0136988
699.833	0.0137244
699.911	0.0136684
699.989	0.0135535
700.068	0.0134435
700.146	0.0133984
700.224	0.0134344
700.302	0.0132806
700.380	0.0132439
700.458	0.0132025
700.536	0.0129013
700.614	0.0129269
700.693	0.0130486
700.771	0.0127992
700.849	0.0128178
700.927	0.0126245
701.005	0.0127749
701.083	0.0126864
701.161	0.0126539
701.239	0.0126922
701.318	0.0126514
701.396	0.0126482
701.474	0.0127333
701.552	0.0127570
701.630	0.0127351
701.708	0.0127186
701.786	0.0128976
701.864	0.0128358
701.943	0.0127866
702.021	0.0129812
702.099	0.0130001
702.177	0.0130495
702.255	0.0129593
702.333	0.0131638
702.411	0.0131329
702.489	0.0130530
702.568	0.0130008
702.646	0.0130862
702.724	0.0129552
702.802	0.0130769
702.880	0.0130377
702.958	0.0130569
703.036	0.0129000
703.114	0.0129037
703.193	0.0128902
703.271	0.0128106
703.349	0.0127872
703.427	0.0127789
703.505	0.0126277
703.583	0.0127219
703.661	0.0126443
703.739	0.0125555
703.818	0.0124579
703.896	0.0123776
703.974	0.0124697
704.052	0.0123867
704.130	0.0125646
704.208	0.0124162
704.286	0.0124031
704.364	0.0124233
704.443	0.0123919
704.521	0.0124586
704.599	0.0126450
704.677	0.0124792
704.755	0.0124709
704.833	0.0125595
704.911	0.0126873
704.989	0.0126598
705.068	0.0127538
705.146	0.0129947
705.224	0.0132112
705.302	0.0131902
705.380	0.0130918
705.458	0.0133159
705.536	0.0133376
705.614	0.0134412
705.693	0.0133695
705.771	0.0134348
705.849	0.0134896
705.927	0.0136140
706.005	0.0135171
706.083	0.0134719
706.161	0.0132718
706.239	0.0132891
706.318	0.0132249
706.396	0.0131607
706.474	0.0130197
706.552	0.0130338
706.630	0.0128081
706.708	0.0128968
706.786	0.0127179
706.864	0.0125742
706.943	0.0127188
707.021	0.0125225
707.099	0.0126266
707.177	0.0126147
707.255	0.0125628
707.333	0.0126785
707.411	0.0125430
707.489	0.0125948
707.568	0.0126260
707.646	0.0127245
707.724	0.0129134
707.802	0.0130857
707.880	0.0130786
707.958	0.0131419
708.036	0.0132775
708.114	0.0132830
708.193	0.0133186
708.271	0.0136496
708.349	0.0137021
708.427	0.0136663
708.505	0.0136393
708.583	0.0137894
708.661	0.0137626
708.739	0.0136873
708.818	0.0136292
708.896	0.0135941
708.974	0.0135442
709.052	0.0133616
709.130	0.0132961
709.208	0.0132065
709.286	0.0129960
709.364	0.0129528
709.443	0.0127430
709.521	0.0124910
709.599	0.0124615
709.677	0.0123403
709.755	0.0124118
709.833	0.0121991
709.911	0.0122846
709.989	0.0121172
710.068	0.0119788
710.146	0.0120002
710.224	0.0120345
710.302	0.0120795
710.380	0.0122408
710.458	0.0121416
710.536	0.0123692
710.614	0.0124670
710.693	0.0126189
710.771	0.0127585
710.849	0.0128173
710.927	0.0130295
711.005	0.0132531
711.083	0.0132230
711.161	0.0133691
711.239	0.0134890
711.318	0.0135392
711.396	0.0136587
711.474	0.0136684
711.552	0.0137367
711.630	0.0139357
711.708	0.0138458
711.786	0.0138395
711.864	0.0136128
711.943	0.0137401
712.021	0.0134608
712.099	0.0135046
712.177	0.0134343
712.255	0.0134349
712.333	0.0130187
712.411	0.0129882
712.489	0.0130296
712.568	0.0129387
712.646	0.0125771
712.724	0.0125376
712.802	0.0124682
712.880	0.0125528
712.958	0.0125258
713.036	0.0124463
713.114	0.0123199
713.193	0.0123414
713.271	0.0124996
713.349	0.0123177
713.427	0.0123607
713.505	0.0125525
713.583	0.0123331
713.661	0.0124413
713.739	0.0126131
713.818	0.0126845
713.896	0.0126020
713.974	0.0127917
714.052	0.0129124
714.130	0.0131393
714.208	0.0133361
714.286	0.0134367
714.364	0.0133258
714.443	0.0136180
714.521	0.0135594
714.599	0.0136439
714.677	0.0135184
714.755	0.0137779
714.833	0.0136607
714.911	0.0137350
714.989	0.0137711
715.068	0.0136427
715.146	0.0135880
715.224	0.0134656
715.302	0.0133482
715.380	0.0132502
715.458	0.0132346
715.536	0.0130154
715.614	0.0128959
715.693	0.0129674
715.771	0.0128086
715.849	0.0125806
715.927	0.0124450
716.005	0.0124615
716.083	0.0123226
716.161	0.0124194
716.239	0.0121908
716.318	0.0121651
716.396	0.0121745
716.474	0.0121676
716.552	0.0120113
716.630	0.0121004
716.708	0.0122621
716.786	0.0121533
716.864	0.0122031
716.943	0.0123152
717.021	0.0124840
717.099	0.0124310
717.177	0.0126496
717.255	0.0127570
717.333	0.0127320
717.411	0.0128468
717.489	0.0131013
717.568	0.0129948
717.646	0.0131390
717.724	0.0131989
717.802	0.0131898
717.880	0.0132161
717.958	0.0134011
718.036	0.0133449
718.114	0.0133678
718.193	0.0135652
718.271	0.0135072
718.349	0.0135550
718.427	0.0136075
718.505	0.0136112
718.583	0.0136021
718.661	0.0134686
718.739	0.0135396
718.818	0.0136467
718.896	0.0136129
718.974	0.0135887
719.052	0.0135277
719.130	0.0134496
719.208	0.0134505
719.286	0.0134745
719.364	0.0133171
719.443	0.0134091
719.521	0.0133635
719.599	0.0132735
719.677	0.0131626
719.755	0.0131461
719.833	0.0131117
719.911	0.0131326
719.989	0.0129983
720.068	0.0129351
720.146	0.0129285
720.224	0.0128615
720.302	0.0127532
720.380	0.0126986
720.458	0.0127995
720.536	0.0126694
720.614	0.0125210
720.693	0.0125368
720.771	0.0125837
720.849	0.0124396
720.927	0.0123866
721.005	0.0124025
721.083	0.0122937
721.161	0.0121579
721.239	0.0124795
721.318	0.0123479
721.396	0.0123490
721.474	0.0122781
721.552	0.0124174
721.630	0.0123492
721.708	0.0125520
721.786	0.0125932
721.864	0.0125777
721.943	0.0126272
722.021	0.0126196
722.099	0.0126995
722.177	0.0127931
722.255	0.0127894
722.333	0.0128495
722.411	0.0128158
722.489	0.0129768
722.568	0.0131297
722.646	0.0131210
722.724	0.0131293
722.802	0.0132142
722.880	0.0133283
722.958	0.0131870
723.036	0.0132891
723.114	0.0133733
723.193	0.0132556
723.271	0.0133500
723.349	0.0132868
723.427	0.0132220
723.505	0.0133086
723.583	0.0131956
723.661	0.0131718
723.739	0.0131953
723.818	0.0132511
723.896	0.0132684
723.974	0.0130959
724.052	0.0131229
724.130	0.0131859
724.208	0.0132133
724.286	0.0131469
724.364	0.0132121
724.443	0.0130556
724.521	0.0131357
724.599	0.0132040
724.677	0.0131398
724.755	0.0132054
724.833	0.0132037
724.911	0.0131665
724.989	0.0131831
725.068	0.0132545
725.146	0.0131836
725.224	0.0131578
725.302	0.0131720
725.380	0.0130988
725.458	0.0130175
725.536	0.0129700
725.614	0.0129012
725.693	0.0129456
