05/07/2022	17:47:14	Ver.	4.1	UNKNOWN
Optical Delay	639.989416	Delta X		0.078125	Sweeps	1	Scan Rate	0/0
Coordinates	Axis 1	NaN	Axis 2	NaN	Axis 3	NaN	Axis 4	NaN	Axis 5	NaN	Axis 6	0.000000
TX Power	0.000000	RX Power	0.000000

639.989	0.0128675
640.068	0.0130952
640.146	0.0129862
640.224	0.0130962
640.302	0.0131202
640.380	0.0129532
640.458	0.0129705
640.536	0.0128316
640.614	0.0129517
640.693	0.0130674
640.771	0.0130416
640.849	0.0129504
640.927	0.0129413
641.005	0.0129224
641.083	0.0128903
641.161	0.0129166
641.239	0.0130144
641.318	0.0129011
641.396	0.0129610
641.474	0.0128607
641.552	0.0127874
641.630	0.0127951
641.708	0.0127972
641.786	0.0128139
641.864	0.0128032
641.943	0.0128443
642.021	0.0128795
642.099	0.0129920
642.177	0.0128320
642.255	0.0129366
642.333	0.0128863
642.411	0.0128728
642.489	0.0130561
642.568	0.0130861
642.646	0.0130409
642.724	0.0131370
642.802	0.0130514
642.880	0.0132334
642.958	0.0130739
643.036	0.0130831
643.114	0.0129523
643.193	0.0129318
643.271	0.0130373
643.349	0.0128922
643.427	0.0129335
643.505	0.0127709
643.583	0.0127962
643.661	0.0128367
643.739	0.0126727
643.818	0.0125735
643.896	0.0128000
643.974	0.0126814
644.052	0.0126176
644.130	0.0125944
644.208	0.0125201
644.286	0.0125911
644.364	0.0126704
644.443	0.0126273
644.521	0.0127395
644.599	0.0125904
644.677	0.0126715
644.755	0.0127625
644.833	0.0127856
644.911	0.0130657
644.989	0.0129929
645.068	0.0130132
645.146	0.0130146
645.224	0.0130012
645.302	0.0131222
645.380	0.0133002
645.458	0.0132817
645.536	0.0133240
645.614	0.0133913
645.693	0.0133742
645.771	0.0133788
645.849	0.0132701
645.927	0.0133778
646.005	0.0131743
646.083	0.0131781
646.161	0.0131600
646.239	0.0129993
646.318	0.0128835
646.396	0.0128897
646.474	0.0128177
646.552	0.0127132
646.630	0.0124964
646.708	0.0124943
646.786	0.0124486
646.864	0.0124155
646.943	0.0123807
647.021	0.0123521
647.099	0.0123478
647.177	0.0123261
647.255	0.0123421
647.333	0.0123344
647.411	0.0123533
647.489	0.0123531
647.568	0.0125451
647.646	0.0126192
647.724	0.0125117
647.802	0.0126836
647.880	0.0127150
647.958	0.0126945
648.036	0.0128467
648.114	0.0128432
648.193	0.0129876
648.271	0.0129528
648.349	0.0129282
648.427	0.0131059
648.505	0.0132295
648.583	0.0132086
648.661	0.0131421
648.739	0.0133860
648.818	0.0132185
648.896	0.0130573
648.974	0.0132130
649.052	0.0132997
649.130	0.0132616
649.208	0.0131298
649.286	0.0133804
649.364	0.0133786
649.443	0.0134296
649.521	0.0132931
649.599	0.0131315
649.677	0.0131398
649.755	0.0131666
649.833	0.0131664
649.911	0.0129756
649.989	0.0129100
650.068	0.0130348
650.146	0.0129970
650.224	0.0128748
650.302	0.0127811
650.380	0.0125719
650.458	0.0127513
650.536	0.0126432
650.614	0.0124755
650.693	0.0126519
650.771	0.0125304
650.849	0.0124200
650.927	0.0124547
651.005	0.0124610
651.083	0.0123853
651.161	0.0122631
651.239	0.0123354
651.318	0.0123409
651.396	0.0121725
651.474	0.0120776
651.552	0.0121251
651.630	0.0121587
651.708	0.0121957
651.786	0.0122247
651.864	0.0121110
651.943	0.0123782
652.021	0.0123057
652.099	0.0124835
652.177	0.0125080
652.255	0.0126572
652.333	0.0127310
652.411	0.0128233
652.489	0.0130398
652.568	0.0131733
652.646	0.0131638
652.724	0.0133090
652.802	0.0132967
652.880	0.0135682
652.958	0.0137185
653.036	0.0138493
653.114	0.0138823
653.193	0.0139117
653.271	0.0139936
653.349	0.0140177
653.427	0.0141301
653.505	0.0141721
653.583	0.0141949
653.661	0.0141321
653.739	0.0140663
653.818	0.0139077
653.896	0.0139169
653.974	0.0138056
654.052	0.0136854
654.130	0.0134296
654.208	0.0132919
654.286	0.0131297
654.364	0.0129564
654.443	0.0128631
654.521	0.0125870
654.599	0.0123396
654.677	0.0121918
654.755	0.0120394
654.833	0.0119182
654.911	0.0119305
654.989	0.0116858
655.068	0.0114037
655.146	0.0113457
655.224	0.0113660
655.302	0.0110818
655.380	0.0111509
655.458	0.0110928
655.536	0.0112148
655.614	0.0110949
655.693	0.0114574
655.771	0.0114093
655.849	0.0114787
655.927	0.0116553
656.005	0.0118163
656.083	0.0119588
656.161	0.0120795
656.239	0.0124165
656.318	0.0124601
656.396	0.0127496
656.474	0.0130176
656.552	0.0133020
656.630	0.0134824
656.708	0.0136226
656.786	0.0138946
656.864	0.0140582
656.943	0.0142509
657.021	0.0144015
657.099	0.0145997
657.177	0.0148249
657.255	0.0147829
657.333	0.0148401
657.411	0.0149274
657.489	0.0148852
657.568	0.0148454
657.646	0.0147237
657.724	0.0145773
657.802	0.0145477
657.880	0.0144801
657.958	0.0140754
658.036	0.0140444
658.114	0.0140865
658.193	0.0138183
658.271	0.0135210
658.349	0.0132922
658.427	0.0130659
658.505	0.0129053
658.583	0.0126756
658.661	0.0124066
658.739	0.0121767
658.818	0.0119154
658.896	0.0117442
658.974	0.0114811
659.052	0.0112219
659.130	0.0112077
659.208	0.0110776
659.286	0.0109024
659.364	0.0108485
659.443	0.0107465
659.521	0.0106407
659.599	0.0107480
659.677	0.0105937
659.755	0.0106586
659.833	0.0108358
659.911	0.0107317
659.989	0.0109881
660.068	0.0111310
660.146	0.0111520
660.224	0.0113747
660.302	0.0115282
660.380	0.0117936
660.458	0.0119498
660.536	0.0120783
660.614	0.0124053
660.693	0.0124525
660.771	0.0128230
660.849	0.0129751
660.927	0.0132726
661.005	0.0134300
661.083	0.0136192
661.161	0.0139543
661.239	0.0142665
661.318	0.0145175
661.396	0.0145337
661.474	0.0147998
661.552	0.0149662
661.630	0.0150584
661.708	0.0152018
661.786	0.0153668
661.864	0.0153873
661.943	0.0153663
662.021	0.0154346
662.099	0.0153508
662.177	0.0153088
662.255	0.0152812
662.333	0.0152695
662.411	0.0149377
662.489	0.0148179
662.568	0.0146070
662.646	0.0143423
662.724	0.0141075
662.802	0.0137897
662.880	0.0135423
662.958	0.0131674
663.036	0.0126900
663.114	0.0124329
663.193	0.0120448
663.271	0.0116955
663.349	0.0113615
663.427	0.0110324
663.505	0.0107992
663.583	0.0104668
663.661	0.0101368
663.739	0.0100082
663.818	0.00995354
663.896	0.00959671
663.974	0.00950577
664.052	0.00948143
664.130	0.00946754
664.208	0.00945488
664.286	0.00951157
664.364	0.00981018
664.443	0.0101124
664.521	0.0102109
664.599	0.0105254
664.677	0.0108832
664.755	0.0112127
664.833	0.0114845
664.911	0.0120605
664.989	0.0123334
665.068	0.0126403
665.146	0.0131062
665.224	0.0135220
665.302	0.0140148
665.380	0.0144325
665.458	0.0145455
665.536	0.0149467
665.614	0.0151807
665.693	0.0153494
665.771	0.0156172
665.849	0.0156353
665.927	0.0158039
666.005	0.0158575
666.083	0.0159188
666.161	0.0158233
666.239	0.0158160
666.318	0.0159914
666.396	0.0157791
666.474	0.0157939
666.552	0.0155673
666.630	0.0154680
666.708	0.0152673
666.786	0.0151820
666.864	0.0149205
666.943	0.0146219
667.021	0.0143864
667.099	0.0140918
667.177	0.0138715
667.255	0.0136703
667.333	0.0133640
667.411	0.0129846
667.489	0.0129872
667.568	0.0126535
667.646	0.0122001
667.724	0.0119318
667.802	0.0118396
667.880	0.0113751
667.958	0.0110992
668.036	0.0109042
668.114	0.0106563
668.193	0.0102866
668.271	0.0101545
668.349	0.0101182
668.427	0.00979980
668.505	0.00985710
668.583	0.00975441
668.661	0.00965736
668.739	0.00977325
668.818	0.00990379
668.896	0.0100489
668.974	0.0102762
669.052	0.0104900
669.130	0.0106332
669.208	0.0110609
669.286	0.0111772
669.364	0.0115413
669.443	0.0119599
669.521	0.0122290
669.599	0.0127388
669.677	0.0127943
669.755	0.0133100
669.833	0.0137507
669.911	0.0140710
669.989	0.0142857
670.068	0.0146175
670.146	0.0147917
670.224	0.0151268
670.302	0.0151049
670.380	0.0152996
670.458	0.0154399
670.536	0.0154800
670.614	0.0154578
670.693	0.0154009
670.771	0.0152554
670.849	0.0152507
670.927	0.0151958
671.005	0.0148520
671.083	0.0148197
671.161	0.0146159
671.239	0.0143575
671.318	0.0141356
671.396	0.0139315
671.474	0.0135399
671.552	0.0134624
671.630	0.0130865
671.708	0.0129550
671.786	0.0127954
671.864	0.0126297
671.943	0.0125182
672.021	0.0122423
672.099	0.0122311
672.177	0.0121262
672.255	0.0121157
672.333	0.0118983
672.411	0.0118012
672.489	0.0117841
672.568	0.0118874
672.646	0.0117717
672.724	0.0117275
672.802	0.0117144
672.880	0.0117703
672.958	0.0117397
673.036	0.0118000
673.114	0.0116496
673.193	0.0116200
673.271	0.0118268
673.349	0.0117988
673.427	0.0118687
673.505	0.0117406
673.583	0.0120659
673.661	0.0119827
673.739	0.0119042
673.818	0.0120670
673.896	0.0121571
673.974	0.0123141
674.052	0.0121946
674.130	0.0124103
674.208	0.0124356
674.286	0.0125391
674.364	0.0125818
674.443	0.0126899
674.521	0.0127204
674.599	0.0129206
674.677	0.0129313
674.755	0.0130626
674.833	0.0131276
674.911	0.0132219
674.989	0.0131762
675.068	0.0132593
675.146	0.0133435
675.224	0.0134550
675.302	0.0133902
675.380	0.0136143
675.458	0.0134593
675.536	0.0134690
675.614	0.0137312
675.693	0.0134309
675.771	0.0134542
675.849	0.0134700
675.927	0.0135999
676.005	0.0133582
676.083	0.0133048
676.161	0.0133144
676.239	0.0130862
676.318	0.0131447
676.396	0.0132513
676.474	0.0130255
676.552	0.0130943
676.630	0.0131400
676.708	0.0131186
676.786	0.0131514
676.864	0.0131738
676.943	0.0132290
677.021	0.0130942
677.099	0.0130127
677.177	0.0132061
677.255	0.0130772
677.333	0.0131396
677.411	0.0131988
677.489	0.0134497
677.568	0.0134403
677.646	0.0133708
677.724	0.0135361
677.802	0.0134281
677.880	0.0134166
677.958	0.0134080
678.036	0.0135026
678.114	0.0133489
678.193	0.0133470
678.271	0.0132874
678.349	0.0132394
678.427	0.0129736
678.505	0.0130392
678.583	0.0129093
678.661	0.0128238
678.739	0.0126516
678.818	0.0126125
678.896	0.0125213
678.974	0.0124257
679.052	0.0122763
679.130	0.0120658
679.208	0.0119577
679.286	0.0117246
679.364	0.0116738
679.443	0.0115173
679.521	0.0113805
679.599	0.0113499
679.677	0.0112907
679.755	0.0114402
679.833	0.0113405
679.911	0.0112136
679.989	0.0112320
680.068	0.0114342
680.146	0.0114987
680.224	0.0114525
680.302	0.0115336
680.380	0.0116492
680.458	0.0118137
680.536	0.0118814
680.614	0.0120683
680.693	0.0122162
680.771	0.0122652
680.849	0.0126702
680.927	0.0127486
681.005	0.0130059
681.083	0.0131609
681.161	0.0132511
681.239	0.0133873
681.318	0.0136024
681.396	0.0138700
681.474	0.0139128
681.552	0.0139616
681.630	0.0140495
681.708	0.0141649
681.786	0.0141634
681.864	0.0142480
681.943	0.0143421
682.021	0.0142557
682.099	0.0142539
682.177	0.0143165
682.255	0.0140525
682.333	0.0140266
682.411	0.0139288
682.489	0.0138053
682.568	0.0137415
682.646	0.0135025
682.724	0.0134107
682.802	0.0134117
682.880	0.0131460
682.958	0.0130077
683.036	0.0127491
683.114	0.0128292
683.193	0.0125435
683.271	0.0123521
683.349	0.0123306
683.427	0.0123685
683.505	0.0122468
683.583	0.0122444
683.661	0.0122053
683.739	0.0122018
683.818	0.0122220
683.896	0.0121870
683.974	0.0122659
684.052	0.0121626
684.130	0.0123139
684.208	0.0122596
684.286	0.0121889
684.364	0.0122854
684.443	0.0122644
684.521	0.0122395
684.599	0.0122092
684.677	0.0122537
684.755	0.0123176
684.833	0.0122887
684.911	0.0123048
684.989	0.0122571
685.068	0.0121978
685.146	0.0123949
685.224	0.0123924
685.302	0.0124029
685.380	0.0125584
685.458	0.0123593
685.536	0.0122600
685.614	0.0123980
685.693	0.0125214
685.771	0.0126032
685.849	0.0125345
685.927	0.0126141
686.005	0.0126754
686.083	0.0128010
686.161	0.0127992
686.239	0.0128714
686.318	0.0129230
686.396	0.0130522
686.474	0.0130106
686.552	0.0130476
686.630	0.0131872
686.708	0.0133648
686.786	0.0133112
686.864	0.0134765
686.943	0.0134414
687.021	0.0132690
687.099	0.0131955
687.177	0.0133946
687.255	0.0133674
687.333	0.0133353
687.411	0.0131895
687.489	0.0131865
687.568	0.0131458
687.646	0.0131296
687.724	0.0131239
687.802	0.0130988
687.880	0.0130237
687.958	0.0131346
688.036	0.0131776
688.114	0.0132160
688.193	0.0130306
688.271	0.0132013
688.349	0.0129353
688.427	0.0129744
688.505	0.0130955
688.583	0.0129627
688.661	0.0129523
688.739	0.0131503
688.818	0.0130965
688.896	0.0130767
688.974	0.0130634
689.052	0.0128902
689.130	0.0130061
689.208	0.0131692
689.286	0.0132587
689.364	0.0131590
689.443	0.0132640
689.521	0.0132626
689.599	0.0133163
689.677	0.0134341
689.755	0.0133125
689.833	0.0133772
689.911	0.0132212
689.989	0.0133364
690.068	0.0132156
690.146	0.0132524
690.224	0.0130685
690.302	0.0128788
690.380	0.0127316
690.458	0.0126958
690.536	0.0125302
690.614	0.0123471
690.693	0.0121874
690.771	0.0120150
690.849	0.0118468
690.927	0.0118610
691.005	0.0116586
691.083	0.0114492
691.161	0.0114731
691.239	0.0113058
691.318	0.0113287
691.396	0.0111446
691.474	0.0110059
691.552	0.0110232
691.630	0.0112461
691.708	0.0112232
691.786	0.0113431
691.864	0.0114562
691.943	0.0116885
692.021	0.0116507
692.099	0.0118680
692.177	0.0121759
692.255	0.0122715
692.333	0.0124895
692.411	0.0126627
692.489	0.0129545
692.568	0.0130685
692.646	0.0132559
692.724	0.0135055
692.802	0.0137807
692.880	0.0139367
692.958	0.0139357
693.036	0.0141331
693.114	0.0142749
693.193	0.0145004
693.271	0.0145832
693.349	0.0147575
693.427	0.0146915
693.505	0.0146462
693.583	0.0146996
693.661	0.0145837
693.739	0.0148052
693.818	0.0146600
693.896	0.0145303
693.974	0.0145745
694.052	0.0144312
694.130	0.0143082
694.208	0.0142221
694.286	0.0140832
694.364	0.0140261
694.443	0.0138513
694.521	0.0136991
694.599	0.0134966
694.677	0.0134422
694.755	0.0132203
694.833	0.0128852
694.911	0.0129111
694.989	0.0127099
695.068	0.0124885
695.146	0.0124332
695.224	0.0122369
695.302	0.0122002
695.380	0.0121007
695.458	0.0118855
695.536	0.0118554
695.614	0.0117668
695.693	0.0116407
695.771	0.0117652
695.849	0.0116569
695.927	0.0117261
696.005	0.0117290
696.083	0.0116505
696.161	0.0116689
696.239	0.0116603
696.318	0.0118307
696.396	0.0118793
696.474	0.0119364
696.552	0.0119806
696.630	0.0120753
696.708	0.0121772
696.786	0.0122824
696.864	0.0122568
696.943	0.0121965
697.021	0.0124704
697.099	0.0126682
697.177	0.0125719
697.255	0.0125806
697.333	0.0125895
697.411	0.0126778
697.489	0.0127290
697.568	0.0127585
697.646	0.0130406
697.724	0.0129861
697.802	0.0130322
697.880	0.0132551
697.958	0.0131216
698.036	0.0131081
698.114	0.0133017
698.193	0.0134382
698.271	0.0134761
698.349	0.0135031
698.427	0.0134736
698.505	0.0135864
698.583	0.0136282
698.661	0.0136579
698.739	0.0136121
698.818	0.0135949
698.896	0.0137238
698.974	0.0137899
699.052	0.0137936
699.130	0.0137577
699.208	0.0137907
699.286	0.0136948
699.364	0.0137930
699.443	0.0136650
699.521	0.0136201
699.599	0.0135323
699.677	0.0135857
699.755	0.0137186
699.833	0.0134663
699.911	0.0134857
699.989	0.0133849
700.068	0.0134351
700.146	0.0133921
700.224	0.0132129
700.302	0.0130137
700.380	0.0130790
700.458	0.0129533
700.536	0.0128789
700.614	0.0127706
700.693	0.0126869
700.771	0.0126141
700.849	0.0123978
700.927	0.0122669
701.005	0.0123538
701.083	0.0123418
701.161	0.0123431
701.239	0.0121316
701.318	0.0122623
701.396	0.0121731
701.474	0.0122285
701.552	0.0122761
701.630	0.0122672
701.708	0.0124644
701.786	0.0124805
701.864	0.0125127
701.943	0.0125834
702.021	0.0126608
702.099	0.0127263
702.177	0.0127747
702.255	0.0128797
702.333	0.0129406
702.411	0.0129224
702.489	0.0129803
702.568	0.0128585
702.646	0.0128752
702.724	0.0129597
702.802	0.0130184
702.880	0.0129969
702.958	0.0128392
703.036	0.0127393
703.114	0.0128599
703.193	0.0126534
703.271	0.0126057
703.349	0.0127472
703.427	0.0127616
703.505	0.0126676
703.583	0.0125739
703.661	0.0125105
703.739	0.0125500
703.818	0.0124042
703.896	0.0124448
703.974	0.0124910
704.052	0.0124605
704.130	0.0124751
704.208	0.0124889
704.286	0.0126028
704.364	0.0125667
704.443	0.0126488
704.521	0.0128068
704.599	0.0127245
704.677	0.0127671
704.755	0.0128986
704.833	0.0129176
704.911	0.0129333
704.989	0.0130746
705.068	0.0131860
705.146	0.0130768
705.224	0.0129874
705.302	0.0132250
705.380	0.0131291
705.458	0.0131915
705.536	0.0133529
705.614	0.0133201
705.693	0.0134148
705.771	0.0134349
705.849	0.0132971
705.927	0.0132227
706.005	0.0133775
706.083	0.0133051
706.161	0.0133757
706.239	0.0134273
706.318	0.0133473
706.396	0.0134035
706.474	0.0133819
706.552	0.0133881
706.630	0.0132233
706.708	0.0131342
706.786	0.0131549
706.864	0.0130057
706.943	0.0130299
707.021	0.0129205
707.099	0.0129112
707.177	0.0127761
707.255	0.0127914
707.333	0.0126305
707.411	0.0127726
707.489	0.0127296
707.568	0.0125682
707.646	0.0124622
707.724	0.0125530
707.802	0.0124699
707.880	0.0123419
707.958	0.0124017
708.036	0.0123257
708.114	0.0123946
708.193	0.0122764
708.271	0.0122639
708.349	0.0121678
708.427	0.0120665
708.505	0.0124134
708.583	0.0123460
708.661	0.0123230
708.739	0.0122480
708.818	0.0124647
708.896	0.0123505
708.974	0.0124610
709.052	0.0125560
709.130	0.0126607
709.208	0.0124880
709.286	0.0126081
709.364	0.0127359
709.443	0.0125206
709.521	0.0126106
709.599	0.0125275
709.677	0.0124226
709.755	0.0124882
709.833	0.0125926
709.911	0.0125883
709.989	0.0126306
710.068	0.0126019
710.146	0.0124305
710.224	0.0128115
710.302	0.0127982
710.380	0.0126299
710.458	0.0127090
710.536	0.0126488
710.614	0.0128405
710.693	0.0128953
710.771	0.0128747
710.849	0.0128915
710.927	0.0129128
711.005	0.0129986
711.083	0.0130032
711.161	0.0129776
711.239	0.0131703
711.318	0.0132673
711.396	0.0132803
711.474	0.0133629
711.552	0.0133855
711.630	0.0135915
711.708	0.0136751
711.786	0.0135719
711.864	0.0137379
711.943	0.0137495
712.021	0.0137518
712.099	0.0138114
712.177	0.0137849
712.255	0.0137412
712.333	0.0136131
712.411	0.0136865
712.489	0.0135370
712.568	0.0133866
712.646	0.0134892
712.724	0.0135210
712.802	0.0133276
712.880	0.0132369
712.958	0.0132233
713.036	0.0128743
713.114	0.0128255
713.193	0.0128656
713.271	0.0127387
713.349	0.0124294
713.427	0.0122487
713.505	0.0121594
713.583	0.0121262
713.661	0.0120383
713.739	0.0119839
713.818	0.0118418
713.896	0.0117149
713.974	0.0118021
714.052	0.0119183
714.130	0.0118011
714.208	0.0117425
714.286	0.0116640
714.364	0.0117522
714.443	0.0117149
714.521	0.0119282
714.599	0.0120000
714.677	0.0119814
714.755	0.0119126
714.833	0.0120186
714.911	0.0121518
714.989	0.0122828
715.068	0.0122963
715.146	0.0123789
715.224	0.0123384
715.302	0.0126130
715.380	0.0126766
715.458	0.0127200
715.536	0.0129419
715.614	0.0127600
715.693	0.0128303
715.771	0.0129688
715.849	0.0130625
715.927	0.0130293
716.005	0.0130958
716.083	0.0130491
716.161	0.0131174
716.239	0.0130470
716.318	0.0131966
716.396	0.0133624
716.474	0.0133397
716.552	0.0134422
716.630	0.0133760
716.708	0.0134006
716.786	0.0133763
716.864	0.0132409
716.943	0.0133880
717.021	0.0134451
717.099	0.0134536
717.177	0.0134354
717.255	0.0133922
717.333	0.0135597
717.411	0.0135423
717.489	0.0136129
717.568	0.0135748
717.646	0.0135865
717.724	0.0134820
717.802	0.0135372
717.880	0.0135469
717.958	0.0136605
718.036	0.0135679
718.114	0.0135049
718.193	0.0134550
718.271	0.0135514
718.349	0.0134452
718.427	0.0134251
718.505	0.0133680
718.583	0.0134407
718.661	0.0133019
718.739	0.0133635
718.818	0.0132709
718.896	0.0131725
718.974	0.0132028
719.052	0.0132005
719.130	0.0130891
719.208	0.0131801
719.286	0.0130717
719.364	0.0130025
719.443	0.0128875
719.521	0.0129403
719.599	0.0127707
719.677	0.0127251
719.755	0.0127751
719.833	0.0126868
719.911	0.0126194
719.989	0.0125285
720.068	0.0125283
720.146	0.0126607
720.224	0.0127281
720.302	0.0125847
720.380	0.0124756
720.458	0.0126025
720.536	0.0124478
720.614	0.0124979
720.693	0.0124791
720.771	0.0124516
720.849	0.0124482
720.927	0.0125484
721.005	0.0124916
721.083	0.0123949
721.161	0.0125350
721.239	0.0125397
721.318	0.0126471
721.396	0.0127325
721.474	0.0127998
721.552	0.0128350
721.630	0.0128770
721.708	0.0132064
721.786	0.0130296
721.864	0.0129756
721.943	0.0131111
722.021	0.0131729
722.099	0.0132172
722.177	0.0131849
722.255	0.0131898
722.333	0.0132503
722.411	0.0132548
722.489	0.0132131
722.568	0.0131688
722.646	0.0132545
722.724	0.0134193
722.802	0.0132230
722.880	0.0131929
722.958	0.0131839
723.036	0.0131354
723.114	0.0131537
723.193	0.0131054
723.271	0.0130522
723.349	0.0130675
723.427	0.0129791
723.505	0.0130523
723.583	0.0130817
723.661	0.0131279
723.739	0.0129467
723.818	0.0129327
723.896	0.0130770
723.974	0.0131153
724.052	0.0131039
724.130	0.0130489
724.208	0.0130465
724.286	0.0131551
724.364	0.0131280
724.443	0.0129858
724.521	0.0131081
724.599	0.0130703
724.677	0.0131107
724.755	0.0132188
724.833	0.0132336
724.911	0.0132131
724.989	0.0131286
725.068	0.0132636
725.146	0.0133610
725.224	0.0132113
725.302	0.0132686
725.380	0.0129898
725.458	0.0131515
725.536	0.0130819
725.614	0.0130573
