05/07/2022	17:47:29	Ver.	4.1	UNKNOWN
Optical Delay	639.989416	Delta X		0.078125	Sweeps	1	Scan Rate	0/0
Coordinates	Axis 1	NaN	Axis 2	NaN	Axis 3	NaN	Axis 4	NaN	Axis 5	NaN	Axis 6	0.000000
TX Power	0.000000	RX Power	0.000000

639.989	0.0127298
640.068	0.0128458
640.146	0.0128699
640.224	0.0128542
640.302	0.0127439
640.380	0.0128563
640.458	0.0128374
640.536	0.0128580
640.614	0.0130331
640.693	0.0129158
640.771	0.0127373
640.849	0.0128265
640.927	0.0128587
641.005	0.0128686
641.083	0.0128211
641.161	0.0128633
641.239	0.0127805
641.318	0.0126319
641.396	0.0126920
641.474	0.0127271
641.552	0.0126801
641.630	0.0127486
641.708	0.0126637
641.786	0.0126093
641.864	0.0125650
641.943	0.0126070
642.021	0.0126733
642.099	0.0128254
642.177	0.0127766
642.255	0.0126880
642.333	0.0128313
642.411	0.0127895
642.489	0.0127904
642.568	0.0128237
642.646	0.0128432
642.724	0.0129547
642.802	0.0128658
642.880	0.0128127
642.958	0.0128635
643.036	0.0128461
643.114	0.0128467
643.193	0.0128885
643.271	0.0128896
643.349	0.0128339
643.427	0.0127217
643.505	0.0126871
643.583	0.0125626
643.661	0.0125994
643.739	0.0125796
643.818	0.0126991
643.896	0.0126575
643.974	0.0127019
644.052	0.0124478
644.130	0.0124826
644.208	0.0126008
644.286	0.0124263
644.364	0.0123460
644.443	0.0123660
644.521	0.0124709
644.599	0.0124232
644.677	0.0122500
644.755	0.0123361
644.833	0.0125465
644.911	0.0125030
644.989	0.0126333
645.068	0.0126231
645.146	0.0126165
645.224	0.0127622
645.302	0.0128469
645.380	0.0129073
645.458	0.0130524
645.536	0.0129069
645.614	0.0129887
645.693	0.0130016
645.771	0.0130585
645.849	0.0130382
645.927	0.0130491
646.005	0.0130276
646.083	0.0129504
646.161	0.0130780
646.239	0.0129840
646.318	0.0128059
646.396	0.0129546
646.474	0.0127036
646.552	0.0125828
646.630	0.0126966
646.708	0.0126533
646.786	0.0124580
646.864	0.0122270
646.943	0.0122004
647.021	0.0121451
647.099	0.0121949
647.177	0.0121158
647.255	0.0119809
647.333	0.0121629
647.411	0.0122292
647.489	0.0121850
647.568	0.0121696
647.646	0.0122627
647.724	0.0122481
647.802	0.0122472
647.880	0.0124064
647.958	0.0125073
648.036	0.0124470
648.114	0.0125517
648.193	0.0125902
648.271	0.0126837
648.349	0.0127603
648.427	0.0128443
648.505	0.0129881
648.583	0.0128295
648.661	0.0128543
648.739	0.0130828
648.818	0.0131848
648.896	0.0131842
648.974	0.0132241
649.052	0.0131026
649.130	0.0131074
649.208	0.0131291
649.286	0.0131615
649.364	0.0131457
649.443	0.0131873
649.521	0.0132108
649.599	0.0132737
649.677	0.0130698
649.755	0.0130382
649.833	0.0129005
649.911	0.0129416
649.989	0.0129257
650.068	0.0128298
650.146	0.0128168
650.224	0.0127923
650.302	0.0127240
650.380	0.0126987
650.458	0.0124774
650.536	0.0125457
650.614	0.0125673
650.693	0.0125237
650.771	0.0124398
650.849	0.0124364
650.927	0.0124603
651.005	0.0124335
651.083	0.0122922
651.161	0.0122132
651.239	0.0121829
651.318	0.0120734
651.396	0.0122304
651.474	0.0121001
651.552	0.0120623
651.630	0.0120345
651.708	0.0121565
651.786	0.0121559
651.864	0.0119952
651.943	0.0120399
652.021	0.0122074
652.099	0.0121838
652.177	0.0123415
652.255	0.0123067
652.333	0.0125236
652.411	0.0123928
652.489	0.0126083
652.568	0.0126915
652.646	0.0127432
652.724	0.0128233
652.802	0.0129504
652.880	0.0130676
652.958	0.0130541
653.036	0.0134579
653.114	0.0134608
653.193	0.0134437
653.271	0.0136043
653.349	0.0138084
653.427	0.0136854
653.505	0.0136311
653.583	0.0138863
653.661	0.0138857
653.739	0.0137296
653.818	0.0137163
653.896	0.0137695
653.974	0.0136588
654.052	0.0135760
654.130	0.0135857
654.208	0.0133734
654.286	0.0133698
654.364	0.0131063
654.443	0.0129555
654.521	0.0127863
654.599	0.0127405
654.677	0.0124149
654.755	0.0121989
654.833	0.0120967
654.911	0.0119551
654.989	0.0118050
655.068	0.0116890
655.146	0.0114804
655.224	0.0113564
655.302	0.0111560
655.380	0.0109874
655.458	0.0108559
655.536	0.0110423
655.614	0.0108834
655.693	0.0108341
655.771	0.0108215
655.849	0.0109882
655.927	0.0110906
656.005	0.0111610
656.083	0.0111320
656.161	0.0113239
656.239	0.0116128
656.318	0.0116795
656.396	0.0119274
656.474	0.0121689
656.552	0.0125036
656.630	0.0125932
656.708	0.0128172
656.786	0.0131417
656.864	0.0132637
656.943	0.0136063
657.021	0.0136929
657.099	0.0139072
657.177	0.0140549
657.255	0.0143457
657.333	0.0144918
657.411	0.0145187
657.489	0.0146173
657.568	0.0146834
657.646	0.0146116
657.724	0.0144370
657.802	0.0145087
657.880	0.0143386
657.958	0.0144004
658.036	0.0141624
658.114	0.0141029
658.193	0.0139523
658.271	0.0136294
658.349	0.0134299
658.427	0.0133051
658.505	0.0131045
658.583	0.0129128
658.661	0.0126050
658.739	0.0122983
658.818	0.0120881
658.896	0.0119365
658.974	0.0117159
659.052	0.0115306
659.130	0.0112311
659.208	0.0109439
659.286	0.0109940
659.364	0.0107703
659.443	0.0106034
659.521	0.0105122
659.599	0.0106615
659.677	0.0105695
659.755	0.0104021
659.833	0.0104144
659.911	0.0105714
659.989	0.0105203
660.068	0.0108221
660.146	0.0108019
660.224	0.0109193
660.302	0.0111205
660.380	0.0111581
660.458	0.0112843
660.536	0.0116692
660.614	0.0118810
660.693	0.0119684
660.771	0.0121765
660.849	0.0125198
660.927	0.0127761
661.005	0.0129391
661.083	0.0132124
661.161	0.0133923
661.239	0.0135831
661.318	0.0137994
661.396	0.0140491
661.474	0.0143919
661.552	0.0144963
661.630	0.0146296
661.708	0.0147464
661.786	0.0150186
661.864	0.0150932
661.943	0.0151774
662.021	0.0152494
662.099	0.0153378
662.177	0.0154710
662.255	0.0152622
662.333	0.0153055
662.411	0.0151968
662.489	0.0151429
662.568	0.0148490
662.646	0.0146941
662.724	0.0145766
662.802	0.0143677
662.880	0.0140559
662.958	0.0137598
663.036	0.0134981
663.114	0.0132566
663.193	0.0128687
663.271	0.0123685
663.349	0.0120951
663.427	0.0116389
663.505	0.0113214
663.583	0.0109958
663.661	0.0106548
663.739	0.0104602
663.818	0.0101167
663.896	0.00978378
663.974	0.00962898
664.052	0.00948174
664.130	0.00936897
664.208	0.00932571
664.286	0.00939178
664.364	0.00931335
664.443	0.00940926
664.521	0.00944366
664.599	0.00982620
664.677	0.00996170
664.755	0.0101884
664.833	0.0105894
664.911	0.0109312
664.989	0.0111932
665.068	0.0115239
665.146	0.0119070
665.224	0.0124761
665.302	0.0128478
665.380	0.0131068
665.458	0.0135327
665.536	0.0137452
665.614	0.0142443
665.693	0.0147047
665.771	0.0148049
665.849	0.0149683
665.927	0.0152326
666.005	0.0154868
666.083	0.0155299
666.161	0.0157148
666.239	0.0157011
666.318	0.0156792
666.396	0.0157112
666.474	0.0157299
666.552	0.0158649
666.630	0.0155721
666.708	0.0154287
666.786	0.0154714
666.864	0.0152068
666.943	0.0149697
667.021	0.0147653
667.099	0.0146881
667.177	0.0143831
667.255	0.0141029
667.333	0.0139648
667.411	0.0136504
667.489	0.0132782
667.568	0.0131281
667.646	0.0129244
667.724	0.0126189
667.802	0.0122180
667.880	0.0117973
667.958	0.0116661
668.036	0.0113622
668.114	0.0110908
668.193	0.0107552
668.271	0.0104009
668.349	0.0102280
668.427	0.0100082
668.505	0.00997543
668.583	0.00981445
668.661	0.00962349
668.739	0.00941437
668.818	0.00923218
668.896	0.00948837
668.974	0.00942734
669.052	0.00956726
669.130	0.00957588
669.208	0.00971581
669.286	0.0100720
669.364	0.0103024
669.443	0.0106207
669.521	0.0109760
669.599	0.0111941
669.677	0.0115019
669.755	0.0119435
669.833	0.0123860
669.911	0.0128458
669.989	0.0132192
670.068	0.0133993
670.146	0.0140064
670.224	0.0141225
670.302	0.0144661
670.380	0.0147176
670.458	0.0150433
670.536	0.0153069
670.614	0.0153096
670.693	0.0152831
670.771	0.0156068
670.849	0.0154625
670.927	0.0153224
671.005	0.0153528
671.083	0.0152338
671.161	0.0150021
671.239	0.0149753
671.318	0.0147729
671.396	0.0145795
671.474	0.0144082
671.552	0.0141068
671.630	0.0138049
671.708	0.0137164
671.786	0.0135043
671.864	0.0131927
671.943	0.0129169
672.021	0.0126458
672.099	0.0125664
672.177	0.0124905
672.255	0.0123711
672.333	0.0122125
672.411	0.0120622
672.489	0.0119006
672.568	0.0119015
672.646	0.0118148
672.724	0.0118328
672.802	0.0117385
672.880	0.0116982
672.958	0.0115012
673.036	0.0116341
673.114	0.0115939
673.193	0.0115195
673.271	0.0114310
673.349	0.0115685
673.427	0.0115182
673.505	0.0114175
673.583	0.0113629
673.661	0.0115228
673.739	0.0115098
673.818	0.0115783
673.896	0.0114910
673.974	0.0114718
674.052	0.0117202
674.130	0.0117725
674.208	0.0118808
674.286	0.0118863
674.364	0.0120738
674.443	0.0120638
674.521	0.0121527
674.599	0.0125316
674.677	0.0125449
674.755	0.0125342
674.833	0.0126378
674.911	0.0127159
674.989	0.0131238
675.068	0.0131317
675.146	0.0131909
675.224	0.0134149
675.302	0.0133455
675.380	0.0134003
675.458	0.0134151
675.536	0.0135089
675.614	0.0135401
675.693	0.0136280
675.771	0.0136565
675.849	0.0134988
675.927	0.0134088
676.005	0.0134224
676.083	0.0132537
676.161	0.0132870
676.239	0.0132249
676.318	0.0130907
676.396	0.0130743
676.474	0.0129990
676.552	0.0130070
676.630	0.0128111
676.708	0.0129546
676.786	0.0129460
676.864	0.0128648
676.943	0.0127953
677.021	0.0127161
677.099	0.0126861
677.177	0.0126424
677.255	0.0126540
677.333	0.0127164
677.411	0.0126857
677.489	0.0126942
677.568	0.0128830
677.646	0.0127388
677.724	0.0128320
677.802	0.0126945
677.880	0.0126235
677.958	0.0129025
678.036	0.0128146
678.114	0.0129414
678.193	0.0131683
678.271	0.0130608
678.349	0.0127117
678.427	0.0128677
678.505	0.0128767
678.583	0.0128306
678.661	0.0128153
678.739	0.0126946
678.818	0.0127008
678.896	0.0125496
678.974	0.0123433
679.052	0.0123060
679.130	0.0122742
679.208	0.0122771
679.286	0.0119016
679.364	0.0119263
679.443	0.0117850
679.521	0.0117070
679.599	0.0114885
679.677	0.0115177
679.755	0.0114904
679.833	0.0114905
679.911	0.0112850
679.989	0.0113563
680.068	0.0114632
680.146	0.0113741
680.224	0.0112628
680.302	0.0113766
680.380	0.0115774
680.458	0.0114930
680.536	0.0116143
680.614	0.0117819
680.693	0.0117365
680.771	0.0119812
680.849	0.0122431
680.927	0.0123176
681.005	0.0124277
681.083	0.0127398
681.161	0.0126973
681.239	0.0130190
681.318	0.0132099
681.396	0.0132684
681.474	0.0133825
681.552	0.0136508
681.630	0.0137083
681.708	0.0138132
681.786	0.0138842
681.864	0.0139178
681.943	0.0141006
682.021	0.0143307
682.099	0.0142638
682.177	0.0142023
682.255	0.0140526
682.333	0.0142017
682.411	0.0140304
682.489	0.0140340
682.568	0.0139207
682.646	0.0138029
682.724	0.0136565
682.802	0.0135755
682.880	0.0135120
682.958	0.0132566
683.036	0.0130761
683.114	0.0128485
683.193	0.0127706
683.271	0.0127753
683.349	0.0125923
683.427	0.0125060
683.505	0.0123214
683.583	0.0122028
683.661	0.0121063
683.739	0.0120130
683.818	0.0121069
683.896	0.0120280
683.974	0.0118595
684.052	0.0119489
684.130	0.0119460
684.208	0.0117966
684.286	0.0120425
684.364	0.0119628
684.443	0.0119590
684.521	0.0119942
684.599	0.0119582
684.677	0.0119454
684.755	0.0119250
684.833	0.0119918
684.911	0.0119691
684.989	0.0119754
685.068	0.0120075
685.146	0.0121647
685.224	0.0120924
685.302	0.0121726
685.380	0.0121675
685.458	0.0121516
685.536	0.0121883
685.614	0.0123165
685.693	0.0122363
685.771	0.0122579
685.849	0.0124377
685.927	0.0122999
686.005	0.0123067
686.083	0.0124637
686.161	0.0125010
686.239	0.0126736
686.318	0.0127678
686.396	0.0128611
686.474	0.0127676
686.552	0.0128724
686.630	0.0129642
686.708	0.0128947
686.786	0.0129702
686.864	0.0131753
686.943	0.0131657
687.021	0.0130602
687.099	0.0132080
687.177	0.0131889
687.255	0.0130289
687.333	0.0129154
687.411	0.0130585
687.489	0.0131505
687.568	0.0129254
687.646	0.0129675
687.724	0.0128769
687.802	0.0130055
687.880	0.0129010
687.958	0.0129084
688.036	0.0128192
688.114	0.0126941
688.193	0.0127650
688.271	0.0127530
688.349	0.0125635
688.427	0.0126714
688.505	0.0126947
688.583	0.0125680
688.661	0.0126579
688.739	0.0125481
688.818	0.0126034
688.896	0.0127060
688.974	0.0125328
689.052	0.0126878
689.130	0.0126956
689.208	0.0126363
689.286	0.0128629
689.364	0.0128673
689.443	0.0128827
689.521	0.0129999
689.599	0.0129449
689.677	0.0131078
689.755	0.0129783
689.833	0.0132253
689.911	0.0132494
689.989	0.0131636
690.068	0.0131752
690.146	0.0130951
690.224	0.0131474
690.302	0.0131720
690.380	0.0131420
690.458	0.0130365
690.536	0.0128210
690.614	0.0127571
690.693	0.0125786
690.771	0.0125428
690.849	0.0121935
690.927	0.0121768
691.005	0.0119646
691.083	0.0118466
691.161	0.0116586
691.239	0.0114624
691.318	0.0114388
691.396	0.0111829
691.474	0.0110802
691.552	0.0109399
691.630	0.0109922
691.708	0.0109583
691.786	0.0110088
691.864	0.0109193
691.943	0.0109893
692.021	0.0111791
692.099	0.0112382
692.177	0.0112708
692.255	0.0115815
692.333	0.0117225
692.411	0.0118733
692.489	0.0121156
692.568	0.0123065
692.646	0.0125587
692.724	0.0127313
692.802	0.0128215
692.880	0.0132333
692.958	0.0133205
693.036	0.0132905
693.114	0.0136667
693.193	0.0138941
693.271	0.0139393
693.349	0.0140057
693.427	0.0142551
693.505	0.0143261
693.583	0.0142863
693.661	0.0142515
693.739	0.0144652
693.818	0.0144846
693.896	0.0145670
693.974	0.0144994
694.052	0.0143303
694.130	0.0143195
694.208	0.0142725
694.286	0.0141764
694.364	0.0141148
694.443	0.0139181
694.521	0.0137936
694.599	0.0135790
694.677	0.0136005
694.755	0.0133863
694.833	0.0132021
694.911	0.0132338
694.989	0.0129510
695.068	0.0128042
695.146	0.0126883
695.224	0.0124895
695.302	0.0124004
695.380	0.0121840
695.458	0.0121143
695.536	0.0120023
695.614	0.0119630
695.693	0.0117484
695.771	0.0115685
695.849	0.0115652
695.927	0.0116143
696.005	0.0113533
696.083	0.0115432
696.161	0.0114549
696.239	0.0115153
696.318	0.0115611
696.396	0.0115863
696.474	0.0116360
696.552	0.0117376
696.630	0.0118735
696.708	0.0117435
696.786	0.0118211
696.864	0.0118700
696.943	0.0119258
697.021	0.0120551
697.099	0.0120727
697.177	0.0122102
697.255	0.0122652
697.333	0.0123691
697.411	0.0123511
697.489	0.0123876
697.568	0.0123901
697.646	0.0125126
697.724	0.0126443
697.802	0.0127268
697.880	0.0127256
697.958	0.0128310
698.036	0.0127422
698.114	0.0129675
698.193	0.0129745
698.271	0.0129646
698.349	0.0130140
698.427	0.0131405
698.505	0.0131767
698.583	0.0131259
698.661	0.0133424
698.739	0.0133602
698.818	0.0132844
698.896	0.0133051
698.974	0.0134507
699.052	0.0136234
699.130	0.0134435
699.208	0.0135293
699.286	0.0135265
699.364	0.0135784
699.443	0.0134016
699.521	0.0135164
699.599	0.0134844
699.677	0.0134453
699.755	0.0134553
699.833	0.0135180
699.911	0.0133693
699.989	0.0134853
700.068	0.0132886
700.146	0.0131738
700.224	0.0132577
700.302	0.0131518
700.380	0.0131283
700.458	0.0130721
700.536	0.0129369
700.614	0.0129379
700.693	0.0127902
700.771	0.0127334
700.849	0.0125610
700.927	0.0125285
701.005	0.0124163
701.083	0.0123209
701.161	0.0121400
701.239	0.0120732
701.318	0.0120844
701.396	0.0119901
701.474	0.0119835
701.552	0.0117574
701.630	0.0118318
701.708	0.0118573
701.786	0.0117934
701.864	0.0119111
701.943	0.0118336
702.021	0.0118137
702.099	0.0118785
702.177	0.0121975
702.255	0.0121999
702.333	0.0120715
702.411	0.0120717
702.489	0.0124371
702.568	0.0123012
702.646	0.0124715
702.724	0.0125025
702.802	0.0123862
702.880	0.0124008
702.958	0.0125737
703.036	0.0126079
703.114	0.0123816
703.193	0.0124984
703.271	0.0124757
703.349	0.0124463
703.427	0.0125518
703.505	0.0123291
703.583	0.0123509
703.661	0.0123493
703.739	0.0123817
703.818	0.0123237
703.896	0.0123804
703.974	0.0123211
704.052	0.0122472
704.130	0.0122987
704.208	0.0123172
704.286	0.0122663
704.364	0.0123365
704.443	0.0125179
704.521	0.0124622
704.599	0.0124904
704.677	0.0125525
704.755	0.0125932
704.833	0.0127890
704.911	0.0126781
704.989	0.0127792
705.068	0.0129707
705.146	0.0129939
705.224	0.0132330
705.302	0.0131624
705.380	0.0131132
705.458	0.0130383
705.536	0.0131595
705.614	0.0132030
705.693	0.0132869
705.771	0.0132755
705.849	0.0133029
705.927	0.0134734
706.005	0.0133525
706.083	0.0134212
706.161	0.0132250
706.239	0.0133213
706.318	0.0132920
706.396	0.0131173
706.474	0.0132045
706.552	0.0132059
706.630	0.0131302
706.708	0.0132030
706.786	0.0129864
706.864	0.0130837
706.943	0.0129569
707.021	0.0127626
707.099	0.0127617
707.177	0.0126717
707.255	0.0125978
707.333	0.0126009
707.411	0.0124522
707.489	0.0124807
707.568	0.0123587
707.646	0.0123013
707.724	0.0123360
707.802	0.0121907
707.880	0.0121486
707.958	0.0121533
708.036	0.0119543
708.114	0.0121660
708.193	0.0119041
708.271	0.0119519
708.349	0.0119838
708.427	0.0118755
708.505	0.0118730
708.583	0.0119055
708.661	0.0119101
708.739	0.0119590
708.818	0.0119054
708.896	0.0120646
708.974	0.0120745
709.052	0.0119741
709.130	0.0120882
709.208	0.0120538
709.286	0.0122894
709.364	0.0122577
709.443	0.0123814
709.521	0.0122610
709.599	0.0123125
709.677	0.0123617
709.755	0.0123943
709.833	0.0124461
709.911	0.0122462
709.989	0.0124265
710.068	0.0123969
710.146	0.0125793
710.224	0.0123904
710.302	0.0123587
710.380	0.0123376
710.458	0.0124311
710.536	0.0124387
710.614	0.0125347
710.693	0.0125969
710.771	0.0125430
710.849	0.0126166
710.927	0.0127233
711.005	0.0125785
711.083	0.0126212
711.161	0.0127629
711.239	0.0127940
711.318	0.0127632
711.396	0.0128388
711.474	0.0128944
711.552	0.0128302
711.630	0.0129473
711.708	0.0132113
711.786	0.0132574
711.864	0.0132748
711.943	0.0133344
712.021	0.0134000
712.099	0.0135040
712.177	0.0136433
712.255	0.0136327
712.333	0.0135432
712.411	0.0137582
712.489	0.0137984
712.568	0.0137025
712.646	0.0136565
712.724	0.0137119
712.802	0.0136398
712.880	0.0133772
712.958	0.0134963
713.036	0.0132893
713.114	0.0132100
713.193	0.0131694
713.271	0.0129299
713.349	0.0129869
713.427	0.0128099
713.505	0.0126166
713.583	0.0125340
713.661	0.0124126
713.739	0.0121753
713.818	0.0122916
713.896	0.0122009
713.974	0.0120125
714.052	0.0118849
714.130	0.0119242
714.208	0.0118925
714.286	0.0118687
714.364	0.0119627
714.443	0.0118136
714.521	0.0117617
714.599	0.0116830
714.677	0.0117993
714.755	0.0118790
714.833	0.0119213
714.911	0.0118221
714.989	0.0121329
715.068	0.0119958
715.146	0.0121711
715.224	0.0121407
715.302	0.0123026
715.380	0.0122793
715.458	0.0124462
715.536	0.0124667
715.614	0.0126151
715.693	0.0126975
715.771	0.0128290
715.849	0.0128416
715.927	0.0128548
716.005	0.0128600
716.083	0.0129402
716.161	0.0131651
716.239	0.0131173
716.318	0.0131005
716.396	0.0131449
716.474	0.0130994
716.552	0.0129851
716.630	0.0133369
716.708	0.0133239
716.786	0.0131328
716.864	0.0132720
716.943	0.0132055
717.021	0.0132650
717.099	0.0134042
717.177	0.0133559
717.255	0.0132557
717.333	0.0133612
717.411	0.0131909
717.489	0.0131432
717.568	0.0133840
717.646	0.0133965
717.724	0.0133629
717.802	0.0133367
717.880	0.0132716
717.958	0.0133365
718.036	0.0132767
718.114	0.0132915
718.193	0.0132932
718.271	0.0132851
718.349	0.0132169
718.427	0.0132619
718.505	0.0132656
718.583	0.0131255
718.661	0.0131334
718.739	0.0132659
718.818	0.0129269
718.896	0.0128764
718.974	0.0129248
719.052	0.0129301
719.130	0.0128048
719.208	0.0127635
719.286	0.0127531
719.364	0.0126692
719.443	0.0126224
719.521	0.0126816
719.599	0.0125226
719.677	0.0124831
719.755	0.0125356
719.833	0.0125134
719.911	0.0125172
719.989	0.0123888
720.068	0.0122375
720.146	0.0123298
720.224	0.0122594
720.302	0.0122533
720.380	0.0122041
720.458	0.0122021
720.536	0.0122792
720.614	0.0121489
720.693	0.0121548
720.771	0.0122228
720.849	0.0121371
720.927	0.0122319
721.005	0.0122379
721.083	0.0121643
721.161	0.0122411
721.239	0.0123236
721.318	0.0122281
721.396	0.0122701
721.474	0.0123244
721.552	0.0124723
721.630	0.0124557
721.708	0.0125433
721.786	0.0125569
721.864	0.0125891
721.943	0.0126701
722.021	0.0127853
722.099	0.0126703
722.177	0.0128419
722.255	0.0128716
722.333	0.0128180
722.411	0.0129679
722.489	0.0130058
722.568	0.0128626
722.646	0.0130116
722.724	0.0130900
722.802	0.0130566
722.880	0.0130395
722.958	0.0131739
723.036	0.0131247
723.114	0.0130643
723.193	0.0129264
723.271	0.0129590
723.349	0.0128879
723.427	0.0129250
723.505	0.0129888
723.583	0.0130182
723.661	0.0130177
723.739	0.0128905
723.818	0.0128267
723.896	0.0128912
723.974	0.0128695
724.052	0.0128203
724.130	0.0127520
724.208	0.0130492
724.286	0.0129671
724.364	0.0128373
724.443	0.0128647
724.521	0.0128616
724.599	0.0129113
724.677	0.0129798
724.755	0.0130194
724.833	0.0128973
724.911	0.0129792
724.989	0.0129244
725.068	0.0130424
725.146	0.0129865
725.224	0.0128928
725.302	0.0128900
725.380	0.0128886
725.458	0.0129703
725.536	0.0129192
725.614	0.0130085
