05/07/2022	17:49:04	Ver.	4.1	UNKNOWN
Optical Delay	639.989416	Delta X		0.078125	Sweeps	1	Scan Rate	0/0
Coordinates	Axis 1	NaN	Axis 2	NaN	Axis 3	NaN	Axis 4	NaN	Axis 5	NaN	Axis 6	0.000000
TX Power	0.000000	RX Power	0.000000

639.989	0.0128820
640.068	0.0129440
640.146	0.0128288
640.224	0.0129267
640.302	0.0128362
640.380	0.0128211
640.458	0.0129591
640.536	0.0127872
640.614	0.0128938
640.693	0.0128083
640.771	0.0126163
640.849	0.0127370
640.927	0.0125652
641.005	0.0125623
641.083	0.0126495
641.161	0.0126395
641.239	0.0126161
641.318	0.0125063
641.396	0.0124861
641.474	0.0125454
641.552	0.0125709
641.630	0.0126441
641.708	0.0127233
641.786	0.0126627
641.864	0.0128365
641.943	0.0126479
642.021	0.0126891
642.099	0.0128300
642.177	0.0127664
642.255	0.0128173
642.333	0.0129863
642.411	0.0129054
642.489	0.0129526
642.568	0.0128580
642.646	0.0129071
642.724	0.0127893
642.802	0.0126870
642.880	0.0127518
642.958	0.0127321
643.036	0.0128255
643.114	0.0127464
643.193	0.0126697
643.271	0.0126983
643.349	0.0125564
643.427	0.0125965
643.505	0.0125301
643.583	0.0124677
643.661	0.0123844
643.739	0.0123947
643.818	0.0124911
643.896	0.0123483
643.974	0.0124169
644.052	0.0124208
644.130	0.0123920
644.208	0.0125450
644.286	0.0123867
644.364	0.0125896
644.443	0.0125803
644.521	0.0126823
644.599	0.0128428
644.677	0.0127110
644.755	0.0130095
644.833	0.0128883
644.911	0.0130489
644.989	0.0131425
645.068	0.0131924
645.146	0.0132027
645.224	0.0131680
645.302	0.0131980
645.380	0.0132549
645.458	0.0132256
645.536	0.0133561
645.614	0.0131791
645.693	0.0131436
645.771	0.0131572
645.849	0.0131998
645.927	0.0130696
646.005	0.0128851
646.083	0.0128009
646.161	0.0127640
646.239	0.0127060
646.318	0.0125285
646.396	0.0122927
646.474	0.0124597
646.552	0.0122433
646.630	0.0120937
646.708	0.0122247
646.786	0.0121817
646.864	0.0120158
646.943	0.0120644
647.021	0.0120881
647.099	0.0121309
647.177	0.0123055
647.255	0.0122948
647.333	0.0124419
647.411	0.0125618
647.489	0.0124519
647.568	0.0126042
647.646	0.0126450
647.724	0.0128307
647.802	0.0129917
647.880	0.0130387
647.958	0.0131731
648.036	0.0131739
648.114	0.0132442
648.193	0.0131317
648.271	0.0132269
648.349	0.0132844
648.427	0.0133262
648.505	0.0133842
648.583	0.0133128
648.661	0.0132010
648.739	0.0132275
648.818	0.0132159
648.896	0.0132844
648.974	0.0132699
649.052	0.0129651
649.130	0.0129980
649.208	0.0129198
649.286	0.0129501
649.364	0.0127346
649.443	0.0128145
649.521	0.0126295
649.599	0.0126381
649.677	0.0125947
649.755	0.0126291
649.833	0.0124670
649.911	0.0125642
649.989	0.0125806
650.068	0.0126266
650.146	0.0125923
650.224	0.0126105
650.302	0.0125042
650.380	0.0124680
650.458	0.0127216
650.536	0.0127216
650.614	0.0126179
650.693	0.0125511
650.771	0.0126618
650.849	0.0125659
650.927	0.0126283
651.005	0.0125966
651.083	0.0126477
651.161	0.0126559
651.239	0.0127049
651.318	0.0125853
651.396	0.0126917
651.474	0.0125902
651.552	0.0126803
651.630	0.0126535
651.708	0.0126720
651.786	0.0127084
651.864	0.0128295
651.943	0.0126552
652.021	0.0127408
652.099	0.0128896
652.177	0.0129111
652.255	0.0129063
652.333	0.0128803
652.411	0.0131840
652.489	0.0131635
652.568	0.0132830
652.646	0.0133887
652.724	0.0134582
652.802	0.0134225
652.880	0.0134539
652.958	0.0136004
653.036	0.0137415
653.114	0.0135692
653.193	0.0136092
653.271	0.0136962
653.349	0.0135667
653.427	0.0134930
653.505	0.0135113
653.583	0.0133672
653.661	0.0132678
653.739	0.0132870
653.818	0.0130977
653.896	0.0130915
653.974	0.0130158
654.052	0.0129113
654.130	0.0128937
654.208	0.0126273
654.286	0.0125195
654.364	0.0125172
654.443	0.0122786
654.521	0.0120823
654.599	0.0121307
654.677	0.0121259
654.755	0.0119933
654.833	0.0117348
654.911	0.0116377
654.989	0.0116948
655.068	0.0115078
655.146	0.0114087
655.224	0.0113937
655.302	0.0113492
655.380	0.0113950
655.458	0.0114659
655.536	0.0115481
655.614	0.0115326
655.693	0.0117583
655.771	0.0117355
655.849	0.0119931
655.927	0.0121797
656.005	0.0123371
656.083	0.0124767
656.161	0.0127456
656.239	0.0128977
656.318	0.0132909
656.396	0.0134119
656.474	0.0135461
656.552	0.0138634
656.630	0.0141081
656.708	0.0140129
656.786	0.0141538
656.864	0.0144053
656.943	0.0145815
657.021	0.0145895
657.099	0.0146227
657.177	0.0145068
657.255	0.0145177
657.333	0.0143899
657.411	0.0143665
657.489	0.0143246
657.568	0.0139843
657.646	0.0139341
657.724	0.0136729
657.802	0.0136205
657.880	0.0132640
657.958	0.0130152
658.036	0.0128998
658.114	0.0126196
658.193	0.0124860
658.271	0.0121089
658.349	0.0119309
658.427	0.0117104
658.505	0.0114665
658.583	0.0112273
658.661	0.0111369
658.739	0.0111065
658.818	0.0110310
658.896	0.0109184
658.974	0.0108546
659.052	0.0110311
659.130	0.0109324
659.208	0.0110334
659.286	0.0110816
659.364	0.0112531
659.443	0.0112797
659.521	0.0113097
659.599	0.0115879
659.677	0.0116111
659.755	0.0118240
659.833	0.0120767
659.911	0.0119859
659.989	0.0120574
660.068	0.0123363
660.146	0.0124288
660.224	0.0126161
660.302	0.0127287
660.380	0.0127722
660.458	0.0128745
660.536	0.0130247
660.614	0.0132387
660.693	0.0132581
660.771	0.0133932
660.849	0.0135100
660.927	0.0136249
661.005	0.0137448
661.083	0.0137012
661.161	0.0139392
661.239	0.0140851
661.318	0.0140987
661.396	0.0142337
661.474	0.0142494
661.552	0.0143113
661.630	0.0144416
661.708	0.0143187
661.786	0.0142175
661.864	0.0143221
661.943	0.0144363
662.021	0.0143620
662.099	0.0141553
662.177	0.0140096
662.255	0.0139567
662.333	0.0137650
662.411	0.0137228
662.489	0.0135021
662.568	0.0133780
662.646	0.0131194
662.724	0.0129469
662.802	0.0127195
662.880	0.0122626
662.958	0.0120081
663.036	0.0118259
663.114	0.0114750
663.193	0.0113516
663.271	0.0111836
663.349	0.0108104
663.427	0.0106738
663.505	0.0105391
663.583	0.0104012
663.661	0.0102690
663.739	0.0101254
663.818	0.0101453
663.896	0.0102699
663.974	0.0103291
664.052	0.0103531
664.130	0.0105478
664.208	0.0105536
664.286	0.0106847
664.364	0.0109434
664.443	0.0113087
664.521	0.0113419
664.599	0.0117800
664.677	0.0122120
664.755	0.0122773
664.833	0.0127104
664.911	0.0128876
664.989	0.0129938
665.068	0.0134029
665.146	0.0136654
665.224	0.0138535
665.302	0.0140127
665.380	0.0142464
665.458	0.0142584
665.536	0.0144535
665.614	0.0145607
665.693	0.0147073
665.771	0.0147769
665.849	0.0147473
665.927	0.0147935
666.005	0.0148252
666.083	0.0150061
666.161	0.0148779
666.239	0.0149188
666.318	0.0147870
666.396	0.0148088
666.474	0.0150018
666.552	0.0147500
666.630	0.0147203
666.708	0.0146980
666.786	0.0144923
666.864	0.0143342
666.943	0.0142458
667.021	0.0141618
667.099	0.0138075
667.177	0.0136697
667.255	0.0135374
667.333	0.0131587
667.411	0.0130000
667.489	0.0125275
667.568	0.0123073
667.646	0.0119896
667.724	0.0117571
667.802	0.0113623
667.880	0.0111491
667.958	0.0108615
668.036	0.0104298
668.114	0.0101759
668.193	0.00989532
668.271	0.00989609
668.349	0.00974800
668.427	0.00949799
668.505	0.00935982
668.583	0.00952019
668.661	0.00958427
668.739	0.00967110
668.818	0.00975647
668.896	0.0100523
668.974	0.0102319
669.052	0.0105443
669.130	0.0107519
669.208	0.0111186
669.286	0.0115495
669.364	0.0120469
669.443	0.0123213
669.521	0.0127592
669.599	0.0132575
669.677	0.0135020
669.755	0.0139510
669.833	0.0143338
669.911	0.0145114
669.989	0.0149497
670.068	0.0149885
670.146	0.0152122
670.224	0.0153292
670.302	0.0155009
670.380	0.0154921
670.458	0.0155255
670.536	0.0152805
670.614	0.0153113
670.693	0.0150832
670.771	0.0150127
670.849	0.0148472
670.927	0.0147506
671.005	0.0145271
671.083	0.0143289
671.161	0.0141463
671.239	0.0140636
671.318	0.0138464
671.396	0.0136452
671.474	0.0135811
671.552	0.0133151
671.630	0.0130635
671.708	0.0129316
671.786	0.0128652
671.864	0.0125591
671.943	0.0125684
672.021	0.0123464
672.099	0.0121926
672.177	0.0120712
672.255	0.0119463
672.333	0.0116636
672.411	0.0115745
672.489	0.0115506
672.568	0.0113105
672.646	0.0111420
672.724	0.0110126
672.802	0.0109466
672.880	0.0107310
672.958	0.0107661
673.036	0.0107524
673.114	0.0106524
673.193	0.0105589
673.271	0.0104149
673.349	0.0105363
673.427	0.0105248
673.505	0.0106071
673.583	0.0108598
673.661	0.0108645
673.739	0.0109370
673.818	0.0111414
673.896	0.0114318
673.974	0.0116620
674.052	0.0118840
674.130	0.0122295
674.208	0.0125619
674.286	0.0127937
674.364	0.0131706
674.443	0.0132587
674.521	0.0135480
674.599	0.0138500
674.677	0.0140108
674.755	0.0142739
674.833	0.0145689
674.911	0.0147789
674.989	0.0148009
675.068	0.0148072
675.146	0.0148885
675.224	0.0149502
675.302	0.0148390
675.380	0.0146535
675.458	0.0146911
675.536	0.0145454
675.614	0.0143713
675.693	0.0143238
675.771	0.0141038
675.849	0.0139044
675.927	0.0136853
676.005	0.0134358
676.083	0.0133918
676.161	0.0131854
676.239	0.0130170
676.318	0.0128299
676.396	0.0127235
676.474	0.0126016
676.552	0.0125362
676.630	0.0123926
676.708	0.0123494
676.786	0.0122928
676.864	0.0123527
676.943	0.0124525
677.021	0.0124365
677.099	0.0124559
677.177	0.0124604
677.255	0.0126025
677.333	0.0125005
677.411	0.0125866
677.489	0.0126276
677.568	0.0127122
677.646	0.0128242
677.724	0.0128210
677.802	0.0127679
677.880	0.0127030
677.958	0.0127935
678.036	0.0126949
678.114	0.0126115
678.193	0.0125673
678.271	0.0124557
678.349	0.0124905
678.427	0.0125423
678.505	0.0123358
678.583	0.0122697
678.661	0.0122297
678.739	0.0122556
678.818	0.0122224
678.896	0.0120284
678.974	0.0120039
679.052	0.0121028
679.130	0.0123248
679.208	0.0121321
679.286	0.0122259
679.364	0.0123578
679.443	0.0122778
679.521	0.0122906
679.599	0.0123033
679.677	0.0125321
679.755	0.0126445
679.833	0.0127358
679.911	0.0129311
679.989	0.0129028
680.068	0.0130145
680.146	0.0132082
680.224	0.0132294
680.302	0.0133493
680.380	0.0134671
680.458	0.0135288
680.536	0.0135925
680.614	0.0136246
680.693	0.0135540
680.771	0.0136388
680.849	0.0135468
680.927	0.0136597
681.005	0.0134343
681.083	0.0134569
681.161	0.0134892
681.239	0.0135022
681.318	0.0133788
681.396	0.0133832
681.474	0.0133081
681.552	0.0132419
681.630	0.0132662
681.708	0.0131112
681.786	0.0131026
681.864	0.0131629
681.943	0.0132149
682.021	0.0130856
682.099	0.0130222
682.177	0.0131122
682.255	0.0130303
682.333	0.0130539
682.411	0.0130279
682.489	0.0129590
682.568	0.0130379
682.646	0.0129941
682.724	0.0128052
682.802	0.0128889
682.880	0.0127884
682.958	0.0127261
683.036	0.0127549
683.114	0.0127022
683.193	0.0126163
683.271	0.0126193
683.349	0.0126772
683.427	0.0124983
683.505	0.0126337
683.583	0.0123512
683.661	0.0124255
683.739	0.0124878
683.818	0.0124687
683.896	0.0123962
683.974	0.0123504
684.052	0.0123094
684.130	0.0123315
684.208	0.0122980
684.286	0.0122974
684.364	0.0123720
684.443	0.0123169
684.521	0.0122691
684.599	0.0122713
684.677	0.0122337
684.755	0.0122657
684.833	0.0122142
684.911	0.0122859
684.989	0.0124447
685.068	0.0123791
685.146	0.0124850
685.224	0.0124091
685.302	0.0123435
685.380	0.0124706
685.458	0.0125319
685.536	0.0126493
685.614	0.0126751
685.693	0.0127419
685.771	0.0127193
685.849	0.0127913
685.927	0.0128759
686.005	0.0129011
686.083	0.0130818
686.161	0.0129556
686.239	0.0130550
686.318	0.0129800
686.396	0.0131537
686.474	0.0133175
686.552	0.0133926
686.630	0.0132946
686.708	0.0131972
686.786	0.0133733
686.864	0.0134990
686.943	0.0134532
687.021	0.0133784
687.099	0.0134297
687.177	0.0135176
687.255	0.0133178
687.333	0.0133703
687.411	0.0132426
687.489	0.0132008
687.568	0.0132415
687.646	0.0131890
687.724	0.0131535
687.802	0.0130335
687.880	0.0130766
687.958	0.0129794
688.036	0.0129039
688.114	0.0128814
688.193	0.0128183
688.271	0.0129106
688.349	0.0127051
688.427	0.0125768
688.505	0.0124488
688.583	0.0124949
688.661	0.0124393
688.739	0.0122418
688.818	0.0124036
688.896	0.0124096
688.974	0.0122837
689.052	0.0122323
689.130	0.0123149
689.208	0.0123318
689.286	0.0124101
689.364	0.0124774
689.443	0.0126038
689.521	0.0124110
689.599	0.0127544
689.677	0.0128687
689.755	0.0127862
689.833	0.0129814
689.911	0.0129700
689.989	0.0130067
690.068	0.0131230
690.146	0.0131280
690.224	0.0131130
690.302	0.0131228
690.380	0.0131881
690.458	0.0131657
690.536	0.0130197
690.614	0.0130872
690.693	0.0130265
690.771	0.0130632
690.849	0.0129266
690.927	0.0127770
691.005	0.0127281
691.083	0.0125496
691.161	0.0126611
691.239	0.0125887
691.318	0.0123976
691.396	0.0124183
691.474	0.0122722
691.552	0.0122191
691.630	0.0122976
691.708	0.0121806
691.786	0.0120169
691.864	0.0121883
691.943	0.0121199
692.021	0.0121056
692.099	0.0121340
692.177	0.0122331
692.255	0.0124046
692.333	0.0122103
692.411	0.0123923
692.489	0.0125123
692.568	0.0124937
692.646	0.0126025
692.724	0.0127192
692.802	0.0127850
692.880	0.0129270
692.958	0.0129656
693.036	0.0130452
693.114	0.0131469
693.193	0.0131335
693.271	0.0132215
693.349	0.0133339
693.427	0.0133671
693.505	0.0134052
693.583	0.0134598
693.661	0.0135667
693.739	0.0134280
693.818	0.0133890
693.896	0.0135115
693.974	0.0135186
694.052	0.0135054
694.130	0.0134090
694.208	0.0134601
694.286	0.0133550
694.364	0.0133528
694.443	0.0133631
694.521	0.0132076
694.599	0.0132299
694.677	0.0131066
694.755	0.0131250
694.833	0.0129575
694.911	0.0129377
694.989	0.0130164
695.068	0.0129142
695.146	0.0127348
695.224	0.0127024
695.302	0.0126376
695.380	0.0127988
695.458	0.0126892
695.536	0.0125281
695.614	0.0125752
695.693	0.0124787
695.771	0.0123294
695.849	0.0123461
695.927	0.0122806
696.005	0.0121325
696.083	0.0121684
696.161	0.0122025
696.239	0.0122895
696.318	0.0120571
696.396	0.0120655
696.474	0.0121198
696.552	0.0120996
696.630	0.0120097
696.708	0.0119812
696.786	0.0119252
696.864	0.0120250
696.943	0.0121514
697.021	0.0121127
697.099	0.0120386
697.177	0.0121118
697.255	0.0120988
697.333	0.0122142
697.411	0.0123712
697.489	0.0124158
697.568	0.0124054
697.646	0.0124068
697.724	0.0125315
697.802	0.0126786
697.880	0.0126073
697.958	0.0127381
698.036	0.0128891
698.114	0.0128644
698.193	0.0128436
698.271	0.0128447
698.349	0.0130582
698.427	0.0130727
698.505	0.0130673
698.583	0.0130978
698.661	0.0132012
698.739	0.0133736
698.818	0.0133315
698.896	0.0134275
698.974	0.0135101
699.052	0.0135061
699.130	0.0135009
699.208	0.0135404
699.286	0.0135432
699.364	0.0134538
699.443	0.0136685
699.521	0.0136088
699.599	0.0136471
699.677	0.0136777
699.755	0.0136653
699.833	0.0137386
699.911	0.0137679
699.989	0.0136455
700.068	0.0136607
700.146	0.0137258
700.224	0.0136652
700.302	0.0136222
700.380	0.0133971
700.458	0.0134683
700.536	0.0133716
700.614	0.0132630
700.693	0.0134055
700.771	0.0130658
700.849	0.0131091
700.927	0.0128944
701.005	0.0127544
701.083	0.0126740
701.161	0.0126597
701.239	0.0124966
701.318	0.0124102
701.396	0.0125844
701.474	0.0125420
701.552	0.0124964
701.630	0.0124463
701.708	0.0123180
701.786	0.0124426
701.864	0.0123846
701.943	0.0123446
702.021	0.0122920
702.099	0.0124047
702.177	0.0124266
702.255	0.0122395
702.333	0.0122637
702.411	0.0122184
702.489	0.0121632
702.568	0.0122010
702.646	0.0122179
702.724	0.0123006
702.802	0.0122114
702.880	0.0122545
702.958	0.0122569
703.036	0.0123198
703.114	0.0122150
703.193	0.0122962
703.271	0.0122135
703.349	0.0123044
703.427	0.0122959
703.505	0.0123803
703.583	0.0124362
703.661	0.0123772
703.739	0.0123846
703.818	0.0124976
703.896	0.0123993
703.974	0.0124817
704.052	0.0125407
704.130	0.0127521
704.208	0.0127735
704.286	0.0127340
704.364	0.0130514
704.443	0.0130645
704.521	0.0133089
704.599	0.0135196
704.677	0.0134801
704.755	0.0135271
704.833	0.0137196
704.911	0.0137598
704.989	0.0138341
705.068	0.0138974
705.146	0.0139610
705.224	0.0140140
705.302	0.0140915
705.380	0.0140635
705.458	0.0140857
705.536	0.0140344
705.614	0.0140552
705.693	0.0142146
705.771	0.0140005
705.849	0.0137951
705.927	0.0137585
706.005	0.0136785
706.083	0.0135257
706.161	0.0135056
706.239	0.0134451
706.318	0.0132226
706.396	0.0130685
706.474	0.0129614
706.552	0.0127898
706.630	0.0126085
706.708	0.0125304
706.786	0.0125649
706.864	0.0124245
706.943	0.0122792
707.021	0.0123791
707.099	0.0122365
707.177	0.0119939
707.255	0.0120315
707.333	0.0120122
707.411	0.0119524
707.489	0.0119047
707.568	0.0119753
707.646	0.0120093
707.724	0.0118947
707.802	0.0120994
707.880	0.0120454
707.958	0.0118645
708.036	0.0118911
708.114	0.0121223
708.193	0.0121432
708.271	0.0120893
708.349	0.0121561
708.427	0.0122565
708.505	0.0121684
708.583	0.0120238
708.661	0.0122849
708.739	0.0124091
708.818	0.0124194
708.896	0.0124676
708.974	0.0124384
709.052	0.0124387
709.130	0.0125658
709.208	0.0126815
709.286	0.0126855
709.364	0.0128091
709.443	0.0127415
709.521	0.0128161
709.599	0.0130252
709.677	0.0129914
709.755	0.0131340
709.833	0.0131816
709.911	0.0130652
709.989	0.0132243
710.068	0.0131487
710.146	0.0133672
710.224	0.0134093
710.302	0.0135734
710.380	0.0134494
710.458	0.0135345
710.536	0.0135049
710.614	0.0134412
710.693	0.0135129
710.771	0.0136283
710.849	0.0135072
710.927	0.0135564
711.005	0.0134190
711.083	0.0134717
711.161	0.0134212
711.239	0.0135381
711.318	0.0134942
711.396	0.0134319
711.474	0.0133304
711.552	0.0134187
711.630	0.0132829
711.708	0.0133121
711.786	0.0133166
711.864	0.0133458
711.943	0.0133297
712.021	0.0132338
712.099	0.0132487
712.177	0.0133447
712.255	0.0133150
712.333	0.0132108
712.411	0.0132661
712.489	0.0131070
712.568	0.0129059
712.646	0.0128237
712.724	0.0128239
712.802	0.0127901
712.880	0.0126516
712.958	0.0126498
713.036	0.0124750
713.114	0.0124537
713.193	0.0123801
713.271	0.0121336
713.349	0.0121295
713.427	0.0122288
713.505	0.0120112
713.583	0.0120206
713.661	0.0121369
713.739	0.0121496
713.818	0.0120918
713.896	0.0120150
713.974	0.0120467
714.052	0.0121306
714.130	0.0120296
714.208	0.0121455
714.286	0.0122375
714.364	0.0123035
714.443	0.0122572
714.521	0.0123648
714.599	0.0123740
714.677	0.0125598
714.755	0.0125402
714.833	0.0126160
714.911	0.0125871
714.989	0.0126771
715.068	0.0127137
715.146	0.0128648
715.224	0.0128719
715.302	0.0128477
715.380	0.0128589
715.458	0.0129083
715.536	0.0129250
715.614	0.0130096
715.693	0.0129140
715.771	0.0129662
715.849	0.0130248
715.927	0.0130997
716.005	0.0129980
716.083	0.0130991
716.161	0.0131059
716.239	0.0131712
716.318	0.0131979
716.396	0.0132504
716.474	0.0131960
716.552	0.0132072
716.630	0.0131688
716.708	0.0132358
716.786	0.0130614
716.864	0.0131539
716.943	0.0131896
717.021	0.0132182
717.099	0.0131394
717.177	0.0132561
717.255	0.0133580
717.333	0.0132532
717.411	0.0132302
717.489	0.0133092
717.568	0.0133939
717.646	0.0134228
717.724	0.0133411
717.802	0.0135538
717.880	0.0134131
717.958	0.0134507
718.036	0.0131981
718.114	0.0132639
718.193	0.0133379
718.271	0.0131540
718.349	0.0130750
718.427	0.0130444
718.505	0.0130860
718.583	0.0129694
718.661	0.0128950
718.739	0.0128779
718.818	0.0128574
718.896	0.0125327
718.974	0.0125371
719.052	0.0123939
719.130	0.0123085
719.208	0.0123952
719.286	0.0123641
719.364	0.0120261
719.443	0.0120516
719.521	0.0120139
719.599	0.0119588
719.677	0.0119784
719.755	0.0119887
719.833	0.0119669
719.911	0.0121305
719.989	0.0119740
720.068	0.0120034
720.146	0.0122280
720.224	0.0123010
720.302	0.0122047
720.380	0.0123004
720.458	0.0124277
720.536	0.0125927
720.614	0.0124236
720.693	0.0127372
720.771	0.0126955
720.849	0.0126842
720.927	0.0127493
721.005	0.0127544
721.083	0.0128996
721.161	0.0129860
721.239	0.0129440
721.318	0.0128589
721.396	0.0130982
721.474	0.0131056
721.552	0.0129442
721.630	0.0130571
721.708	0.0130145
721.786	0.0131706
721.864	0.0131596
721.943	0.0131882
722.021	0.0132485
722.099	0.0131334
722.177	0.0131802
722.255	0.0131802
722.333	0.0132024
722.411	0.0132491
722.489	0.0131421
722.568	0.0132667
722.646	0.0130187
722.724	0.0129856
722.802	0.0130775
722.880	0.0130926
722.958	0.0130653
723.036	0.0129710
723.114	0.0128936
723.193	0.0128764
723.271	0.0129084
723.349	0.0126987
723.427	0.0129105
723.505	0.0126201
723.583	0.0128149
723.661	0.0129490
723.739	0.0128273
723.818	0.0127842
723.896	0.0127856
723.974	0.0127709
724.052	0.0128547
724.130	0.0127771
724.208	0.0128434
724.286	0.0128080
724.364	0.0127651
724.443	0.0129199
724.521	0.0130011
724.599	0.0130139
724.677	0.0131006
724.755	0.0130227
724.833	0.0128271
724.911	0.0130117
724.989	0.0131057
725.068	0.0130505
725.146	0.0131046
725.224	0.0130289
725.302	0.0130361
725.380	0.0131052
725.458	0.0130855
725.536	0.0128748
725.614	0.0130036
725.693	0.0129536
