05/07/2022	17:51:39	Ver.	4.1	UNKNOWN
Optical Delay	639.989416	Delta X		0.078125	Sweeps	1	Scan Rate	0/0
Coordinates	Axis 1	NaN	Axis 2	NaN	Axis 3	NaN	Axis 4	NaN	Axis 5	NaN	Axis 6	0.000000
TX Power	0.000000	RX Power	0.000000

639.989	0.0127995
640.068	0.0126265
640.146	0.0126421
640.224	0.0126077
640.302	0.0124421
640.380	0.0124965
640.458	0.0125106
640.536	0.0123776
640.614	0.0125471
640.693	0.0125984
640.771	0.0125581
640.849	0.0124535
640.927	0.0126452
641.005	0.0125839
641.083	0.0125872
641.161	0.0126649
641.239	0.0128589
641.318	0.0125214
641.396	0.0124887
641.474	0.0127106
641.552	0.0127092
641.630	0.0126397
641.708	0.0128177
641.786	0.0127002
641.864	0.0128159
641.943	0.0127652
642.021	0.0127393
642.099	0.0127345
642.177	0.0128120
642.255	0.0128621
642.333	0.0128840
642.411	0.0129518
642.489	0.0128331
642.568	0.0128537
642.646	0.0129526
642.724	0.0130348
642.802	0.0129097
642.880	0.0128945
642.958	0.0129142
643.036	0.0129137
643.114	0.0128604
643.193	0.0129425
643.271	0.0128323
643.349	0.0129147
643.427	0.0128918
643.505	0.0127340
643.583	0.0128281
643.661	0.0127590
643.739	0.0126971
643.818	0.0126681
643.896	0.0126993
643.974	0.0126240
644.052	0.0125287
644.130	0.0126493
644.208	0.0125499
644.286	0.0124220
644.364	0.0124279
644.443	0.0124860
644.521	0.0125413
644.599	0.0125937
644.677	0.0124986
644.755	0.0125875
644.833	0.0125454
644.911	0.0127111
644.989	0.0127653
645.068	0.0127822
645.146	0.0127512
645.224	0.0127905
645.302	0.0129699
645.380	0.0129386
645.458	0.0130650
645.536	0.0129037
645.614	0.0129195
645.693	0.0129761
645.771	0.0129314
645.849	0.0129017
645.927	0.0129868
646.005	0.0129049
646.083	0.0128523
646.161	0.0127731
646.239	0.0127317
646.318	0.0126257
646.396	0.0126186
646.474	0.0125848
646.552	0.0126163
646.630	0.0125834
646.708	0.0123765
646.786	0.0123613
646.864	0.0125010
646.943	0.0125050
647.021	0.0125976
647.099	0.0127512
647.177	0.0126814
647.255	0.0126343
647.333	0.0127611
647.411	0.0127876
647.489	0.0128574
647.568	0.0129424
647.646	0.0129409
647.724	0.0130962
647.802	0.0132217
647.880	0.0131424
647.958	0.0130640
648.036	0.0132771
648.114	0.0131686
648.193	0.0131358
648.271	0.0131502
648.349	0.0131259
648.427	0.0131829
648.505	0.0130899
648.583	0.0130751
648.661	0.0130515
648.739	0.0129690
648.818	0.0130009
648.896	0.0129981
648.974	0.0129337
649.052	0.0128067
649.130	0.0128842
649.208	0.0130539
649.286	0.0128864
649.364	0.0128445
649.443	0.0129156
649.521	0.0129325
649.599	0.0127472
649.677	0.0129356
649.755	0.0129077
649.833	0.0129842
649.911	0.0127721
649.989	0.0126065
650.068	0.0128972
650.146	0.0129101
650.224	0.0125439
650.302	0.0125000
650.380	0.0125976
650.458	0.0125337
650.536	0.0124271
650.614	0.0123759
650.693	0.0124854
650.771	0.0123072
650.849	0.0122804
650.927	0.0123741
651.005	0.0122692
651.083	0.0123802
651.161	0.0124211
651.239	0.0125243
651.318	0.0124816
651.396	0.0127019
651.474	0.0126665
651.552	0.0126874
651.630	0.0127096
651.708	0.0127573
651.786	0.0126460
651.864	0.0127122
651.943	0.0127144
652.021	0.0127705
652.099	0.0129193
652.177	0.0128197
652.255	0.0129028
652.333	0.0129538
652.411	0.0128551
652.489	0.0129185
652.568	0.0128595
652.646	0.0129089
652.724	0.0128918
652.802	0.0129287
652.880	0.0128987
652.958	0.0127748
653.036	0.0127973
653.114	0.0127762
653.193	0.0128299
653.271	0.0127885
653.349	0.0128004
653.427	0.0126419
653.505	0.0125875
653.583	0.0126205
653.661	0.0125789
653.739	0.0125316
653.818	0.0124384
653.896	0.0126582
653.974	0.0126337
654.052	0.0125323
654.130	0.0125661
654.208	0.0127031
654.286	0.0125403
654.364	0.0125027
654.443	0.0124935
654.521	0.0126357
654.599	0.0126205
654.677	0.0124706
654.755	0.0123420
654.833	0.0124079
654.911	0.0124014
654.989	0.0122944
655.068	0.0122828
655.146	0.0121654
655.224	0.0121087
655.302	0.0120670
655.380	0.0122976
655.458	0.0123077
655.536	0.0121043
655.614	0.0123317
655.693	0.0124050
655.771	0.0122542
655.849	0.0124927
655.927	0.0125217
656.005	0.0125399
656.083	0.0127383
656.161	0.0128377
656.239	0.0127605
656.318	0.0129224
656.396	0.0128706
656.474	0.0130435
656.552	0.0130891
656.630	0.0132056
656.708	0.0133445
656.786	0.0134062
656.864	0.0134436
656.943	0.0135608
657.021	0.0133913
657.099	0.0135339
657.177	0.0136629
657.255	0.0136439
657.333	0.0134646
657.411	0.0135135
657.489	0.0135773
657.568	0.0135420
657.646	0.0134441
657.724	0.0131996
657.802	0.0132520
657.880	0.0131744
657.958	0.0130811
658.036	0.0131396
658.114	0.0129192
658.193	0.0128748
658.271	0.0128172
658.349	0.0127540
658.427	0.0125979
658.505	0.0125414
658.583	0.0122118
658.661	0.0123024
658.739	0.0122312
658.818	0.0121210
658.896	0.0122467
658.974	0.0120670
659.052	0.0121095
659.130	0.0121375
659.208	0.0121939
659.286	0.0121836
659.364	0.0124091
659.443	0.0124671
659.521	0.0124655
659.599	0.0125861
659.677	0.0126432
659.755	0.0126454
659.833	0.0127744
659.911	0.0128032
659.989	0.0127746
660.068	0.0129553
660.146	0.0129379
660.224	0.0129362
660.302	0.0130809
660.380	0.0129585
660.458	0.0130396
660.536	0.0129868
660.614	0.0129571
660.693	0.0130119
660.771	0.0129752
660.849	0.0128963
660.927	0.0128890
661.005	0.0127550
661.083	0.0129281
661.161	0.0129977
661.239	0.0128850
661.318	0.0128388
661.396	0.0129313
661.474	0.0129322
661.552	0.0130124
661.630	0.0130412
661.708	0.0129861
661.786	0.0129255
661.864	0.0130147
661.943	0.0130482
662.021	0.0131876
662.099	0.0131459
662.177	0.0130215
662.255	0.0131281
662.333	0.0131654
662.411	0.0131071
662.489	0.0130499
662.568	0.0130597
662.646	0.0130126
662.724	0.0129879
662.802	0.0129716
662.880	0.0129245
662.958	0.0128291
663.036	0.0126942
663.114	0.0126914
663.193	0.0125844
663.271	0.0125375
663.349	0.0123772
663.427	0.0123367
663.505	0.0123584
663.583	0.0121983
663.661	0.0122620
663.739	0.0122540
663.818	0.0120687
663.896	0.0119941
663.974	0.0121151
664.052	0.0119383
664.130	0.0120320
664.208	0.0121556
664.286	0.0121854
664.364	0.0123222
664.443	0.0122587
664.521	0.0122931
664.599	0.0125285
664.677	0.0124331
664.755	0.0126007
664.833	0.0127268
664.911	0.0130509
664.989	0.0129813
665.068	0.0130817
665.146	0.0131879
665.224	0.0132453
665.302	0.0132687
665.380	0.0134406
665.458	0.0133974
665.536	0.0133694
665.614	0.0134370
665.693	0.0134811
665.771	0.0136337
665.849	0.0135985
665.927	0.0136784
666.005	0.0135593
666.083	0.0133707
666.161	0.0134953
666.239	0.0136542
666.318	0.0136405
666.396	0.0136892
666.474	0.0136935
666.552	0.0135352
666.630	0.0135434
666.708	0.0135382
666.786	0.0134179
666.864	0.0135068
666.943	0.0135004
667.021	0.0133573
667.099	0.0132510
667.177	0.0131485
667.255	0.0130373
667.333	0.0129809
667.411	0.0127935
667.489	0.0124843
667.568	0.0125153
667.646	0.0125257
667.724	0.0123081
667.802	0.0120973
667.880	0.0119484
667.958	0.0119791
668.036	0.0117558
668.114	0.0118502
668.193	0.0118141
668.271	0.0116132
668.349	0.0117645
668.427	0.0115829
668.505	0.0116936
668.583	0.0117183
668.661	0.0116660
668.739	0.0118107
668.818	0.0116561
668.896	0.0119341
668.974	0.0119749
669.052	0.0118945
669.130	0.0120074
669.208	0.0122704
669.286	0.0122413
669.364	0.0123423
669.443	0.0125955
669.521	0.0126389
669.599	0.0127601
669.677	0.0128587
669.755	0.0130405
669.833	0.0130165
669.911	0.0132186
669.989	0.0132394
670.068	0.0133623
670.146	0.0133393
670.224	0.0134988
670.302	0.0135413
670.380	0.0135527
670.458	0.0136004
670.536	0.0133924
670.614	0.0134134
670.693	0.0134143
670.771	0.0133942
670.849	0.0133376
670.927	0.0132922
671.005	0.0132417
671.083	0.0132905
671.161	0.0131732
671.239	0.0131604
671.318	0.0131944
671.396	0.0130958
671.474	0.0130730
671.552	0.0130462
671.630	0.0130463
671.708	0.0130708
671.786	0.0129630
671.864	0.0127349
671.943	0.0126749
672.021	0.0127013
672.099	0.0126480
672.177	0.0126193
672.255	0.0125772
672.333	0.0125498
672.411	0.0124117
672.489	0.0123419
672.568	0.0122764
672.646	0.0122030
672.724	0.0122130
672.802	0.0120813
672.880	0.0120912
672.958	0.0120264
673.036	0.0119446
673.114	0.0120818
673.193	0.0121742
673.271	0.0120100
673.349	0.0120699
673.427	0.0121508
673.505	0.0123647
673.583	0.0123882
673.661	0.0126512
673.739	0.0126968
673.818	0.0127731
673.896	0.0129816
673.974	0.0132350
674.052	0.0133069
674.130	0.0134382
674.208	0.0136707
674.286	0.0137831
674.364	0.0136956
674.443	0.0140173
674.521	0.0141068
674.599	0.0141972
674.677	0.0143114
674.755	0.0143493
674.833	0.0144784
674.911	0.0146529
674.989	0.0146868
675.068	0.0144754
675.146	0.0145435
675.224	0.0145224
675.302	0.0144528
675.380	0.0144422
675.458	0.0139696
675.536	0.0138947
675.614	0.0137481
675.693	0.0135883
675.771	0.0132951
675.849	0.0131928
675.927	0.0131915
676.005	0.0127708
676.083	0.0125399
676.161	0.0127023
676.239	0.0126038
676.318	0.0126267
676.396	0.0125087
676.474	0.0125121
676.552	0.0124625
676.630	0.0123890
676.708	0.0125179
676.786	0.0125014
676.864	0.0124720
676.943	0.0126770
677.021	0.0127613
677.099	0.0127408
677.177	0.0128548
677.255	0.0128397
677.333	0.0128283
677.411	0.0127998
677.489	0.0128528
677.568	0.0128158
677.646	0.0128081
677.724	0.0128146
677.802	0.0128454
677.880	0.0128624
677.958	0.0127135
678.036	0.0126437
678.114	0.0126379
678.193	0.0125262
678.271	0.0125218
678.349	0.0125076
678.427	0.0122499
678.505	0.0124396
678.583	0.0122619
678.661	0.0122562
678.739	0.0121319
678.818	0.0120479
678.896	0.0121881
678.974	0.0120142
679.052	0.0119861
679.130	0.0120792
679.208	0.0121786
679.286	0.0122817
679.364	0.0123762
679.443	0.0123280
679.521	0.0125054
679.599	0.0124644
679.677	0.0123562
679.755	0.0125351
679.833	0.0126930
679.911	0.0126331
679.989	0.0126726
680.068	0.0127494
680.146	0.0127881
680.224	0.0127956
680.302	0.0130163
680.380	0.0127089
680.458	0.0128057
680.536	0.0129504
680.614	0.0130196
680.693	0.0129662
680.771	0.0128516
680.849	0.0129143
680.927	0.0129824
681.005	0.0127123
681.083	0.0126306
681.161	0.0128194
681.239	0.0127458
681.318	0.0128113
681.396	0.0127345
681.474	0.0127311
681.552	0.0125696
681.630	0.0125012
681.708	0.0127041
681.786	0.0126965
681.864	0.0127083
681.943	0.0127471
682.021	0.0127441
682.099	0.0127615
682.177	0.0128714
682.255	0.0129156
682.333	0.0129045
682.411	0.0129755
682.489	0.0128901
682.568	0.0127527
682.646	0.0127460
682.724	0.0127482
682.802	0.0128864
682.880	0.0129434
682.958	0.0128619
683.036	0.0126952
683.114	0.0129179
683.193	0.0128059
683.271	0.0128794
683.349	0.0129087
683.427	0.0129819
683.505	0.0131664
683.583	0.0131105
683.661	0.0131876
683.739	0.0133241
683.818	0.0133440
683.896	0.0134235
683.974	0.0135496
684.052	0.0133180
684.130	0.0133487
684.208	0.0135456
684.286	0.0135103
684.364	0.0137311
684.443	0.0135315
684.521	0.0135856
684.599	0.0137300
684.677	0.0137676
684.755	0.0136734
684.833	0.0135439
684.911	0.0135699
684.989	0.0136688
685.068	0.0136928
685.146	0.0134048
685.224	0.0132914
685.302	0.0133065
685.380	0.0131693
685.458	0.0132140
685.536	0.0131710
685.614	0.0131110
685.693	0.0130109
685.771	0.0129469
685.849	0.0129534
685.927	0.0130414
686.005	0.0128881
686.083	0.0129018
686.161	0.0129405
686.239	0.0128267
686.318	0.0127882
686.396	0.0127974
686.474	0.0128314
686.552	0.0127590
686.630	0.0128218
686.708	0.0129467
686.786	0.0129442
686.864	0.0128439
686.943	0.0130956
687.021	0.0131480
687.099	0.0129617
687.177	0.0130372
687.255	0.0132310
687.333	0.0134218
687.411	0.0134191
687.489	0.0131972
687.568	0.0131480
687.646	0.0133627
687.724	0.0134350
687.802	0.0133469
687.880	0.0133618
687.958	0.0133034
688.036	0.0132269
688.114	0.0132443
688.193	0.0131645
688.271	0.0132088
688.349	0.0130058
688.427	0.0129776
688.505	0.0128390
688.583	0.0127468
688.661	0.0128398
688.739	0.0126183
688.818	0.0126054
688.896	0.0126330
688.974	0.0127201
689.052	0.0125909
689.130	0.0124689
689.208	0.0125817
689.286	0.0126645
689.364	0.0126649
689.443	0.0126586
689.521	0.0124702
689.599	0.0125800
689.677	0.0126445
689.755	0.0125685
689.833	0.0123534
689.911	0.0124146
689.989	0.0123676
690.068	0.0124550
690.146	0.0123565
690.224	0.0123074
690.302	0.0123209
690.380	0.0123241
690.458	0.0122758
690.536	0.0121883
690.614	0.0123865
690.693	0.0123039
690.771	0.0123293
690.849	0.0123572
690.927	0.0125436
691.005	0.0124260
691.083	0.0124243
691.161	0.0126218
691.239	0.0126688
691.318	0.0127587
691.396	0.0129207
691.474	0.0129345
691.552	0.0130540
691.630	0.0130663
691.708	0.0131470
691.786	0.0131594
691.864	0.0131597
691.943	0.0131754
692.021	0.0131939
692.099	0.0133038
692.177	0.0132767
692.255	0.0133358
692.333	0.0132060
692.411	0.0133986
692.489	0.0133994
692.568	0.0132765
692.646	0.0132420
692.724	0.0131858
692.802	0.0131957
692.880	0.0130315
692.958	0.0130982
693.036	0.0129573
693.114	0.0129245
693.193	0.0128485
693.271	0.0126651
693.349	0.0126554
693.427	0.0128474
693.505	0.0126518
693.583	0.0125374
693.661	0.0126645
693.739	0.0125346
693.818	0.0126289
693.896	0.0126154
693.974	0.0125045
694.052	0.0124522
694.130	0.0125690
694.208	0.0126402
694.286	0.0125128
694.364	0.0125023
694.443	0.0126264
694.521	0.0125755
694.599	0.0125175
694.677	0.0126553
694.755	0.0127602
694.833	0.0128108
694.911	0.0127879
694.989	0.0128471
695.068	0.0128823
695.146	0.0129230
695.224	0.0129395
695.302	0.0129808
695.380	0.0130537
695.458	0.0129636
695.536	0.0129953
695.614	0.0129321
695.693	0.0129488
695.771	0.0129499
695.849	0.0129549
695.927	0.0129199
696.005	0.0128953
696.083	0.0129799
696.161	0.0130863
696.239	0.0132261
696.318	0.0129803
696.396	0.0129924
696.474	0.0129024
696.552	0.0128865
696.630	0.0129239
696.708	0.0127994
696.786	0.0128882
696.864	0.0125712
696.943	0.0125888
697.021	0.0125583
697.099	0.0125803
697.177	0.0125903
697.255	0.0125782
697.333	0.0124214
697.411	0.0123265
697.489	0.0123674
697.568	0.0124187
697.646	0.0123886
697.724	0.0123943
697.802	0.0124007
697.880	0.0126016
697.958	0.0127243
698.036	0.0127028
698.114	0.0126872
698.193	0.0128130
698.271	0.0128762
698.349	0.0128965
698.427	0.0129405
698.505	0.0130219
698.583	0.0130875
698.661	0.0130737
698.739	0.0132803
698.818	0.0130588
698.896	0.0131983
698.974	0.0132965
699.052	0.0132134
699.130	0.0133772
699.208	0.0133881
699.286	0.0134531
699.364	0.0133193
699.443	0.0134364
699.521	0.0132842
699.599	0.0133640
699.677	0.0134422
699.755	0.0133999
699.833	0.0134245
699.911	0.0135322
699.989	0.0134282
700.068	0.0133529
700.146	0.0133364
700.224	0.0133675
700.302	0.0134090
700.380	0.0134918
700.458	0.0134150
700.536	0.0133089
700.614	0.0132579
700.693	0.0133073
700.771	0.0132058
700.849	0.0132276
700.927	0.0131482
701.005	0.0129614
701.083	0.0129192
701.161	0.0129676
701.239	0.0129842
701.318	0.0128957
701.396	0.0129395
701.474	0.0129559
701.552	0.0129240
701.630	0.0129154
701.708	0.0127766
701.786	0.0129227
701.864	0.0129108
701.943	0.0129800
702.021	0.0129993
702.099	0.0130853
702.177	0.0128091
702.255	0.0129573
702.333	0.0130193
702.411	0.0129263
702.489	0.0129195
702.568	0.0127702
702.646	0.0128030
702.724	0.0127761
702.802	0.0126681
702.880	0.0128363
702.958	0.0127562
703.036	0.0128018
703.114	0.0127567
703.193	0.0127376
703.271	0.0127779
703.349	0.0127210
703.427	0.0126060
703.505	0.0127155
703.583	0.0126872
703.661	0.0126516
703.739	0.0125735
703.818	0.0125507
703.896	0.0126442
703.974	0.0127425
704.052	0.0126002
704.130	0.0125679
704.208	0.0126300
704.286	0.0125577
704.364	0.0125842
704.443	0.0127552
704.521	0.0129061
704.599	0.0128779
704.677	0.0130103
704.755	0.0130525
704.833	0.0131350
704.911	0.0132009
704.989	0.0131709
705.068	0.0134454
705.146	0.0132743
705.224	0.0132938
705.302	0.0134263
705.380	0.0134415
705.458	0.0134401
705.536	0.0133071
705.614	0.0132600
705.693	0.0134046
705.771	0.0132578
705.849	0.0133655
705.927	0.0132809
706.005	0.0132620
706.083	0.0131794
706.161	0.0131621
706.239	0.0130307
706.318	0.0130445
706.396	0.0130267
706.474	0.0130194
706.552	0.0128991
706.630	0.0130461
706.708	0.0129841
706.786	0.0129620
706.864	0.0129520
706.943	0.0128865
707.021	0.0128035
707.099	0.0127680
707.177	0.0129411
707.255	0.0127620
707.333	0.0127488
707.411	0.0127792
707.489	0.0127491
707.568	0.0127651
707.646	0.0126410
707.724	0.0125893
707.802	0.0125404
707.880	0.0126312
707.958	0.0126852
708.036	0.0125655
708.114	0.0126164
708.193	0.0125793
708.271	0.0126056
708.349	0.0125768
708.427	0.0125783
708.505	0.0125068
708.583	0.0127366
708.661	0.0126421
708.739	0.0126862
708.818	0.0124923
708.896	0.0125218
708.974	0.0124574
709.052	0.0125085
709.130	0.0127515
709.208	0.0126213
709.286	0.0125253
709.364	0.0125901
709.443	0.0125941
709.521	0.0125650
709.599	0.0125334
709.677	0.0126207
709.755	0.0127449
709.833	0.0126218
709.911	0.0127538
709.989	0.0127475
710.068	0.0128676
710.146	0.0129487
710.224	0.0128533
710.302	0.0129055
710.380	0.0130859
710.458	0.0131071
710.536	0.0132661
710.614	0.0133168
710.693	0.0133565
710.771	0.0134448
710.849	0.0134666
710.927	0.0136156
711.005	0.0136687
711.083	0.0137979
711.161	0.0137477
711.239	0.0137716
711.318	0.0137659
711.396	0.0137246
711.474	0.0137191
711.552	0.0136739
711.630	0.0136984
711.708	0.0137580
711.786	0.0136214
711.864	0.0135986
711.943	0.0135312
712.021	0.0134756
712.099	0.0134470
712.177	0.0132697
712.255	0.0132901
712.333	0.0134597
712.411	0.0132919
712.489	0.0131950
712.568	0.0132173
712.646	0.0132442
712.724	0.0130443
712.802	0.0130983
712.880	0.0130845
712.958	0.0127081
713.036	0.0128020
713.114	0.0127855
713.193	0.0125648
713.271	0.0124872
713.349	0.0125041
713.427	0.0124294
713.505	0.0121443
713.583	0.0121999
713.661	0.0121259
713.739	0.0121568
713.818	0.0121706
713.896	0.0119935
713.974	0.0118954
714.052	0.0119701
714.130	0.0119257
714.208	0.0118346
714.286	0.0120203
714.364	0.0122625
714.443	0.0121332
714.521	0.0122992
714.599	0.0122225
714.677	0.0123894
714.755	0.0125489
714.833	0.0126719
714.911	0.0127467
714.989	0.0127750
715.068	0.0128271
715.146	0.0130634
715.224	0.0130316
715.302	0.0130939
715.380	0.0129568
715.458	0.0129850
715.536	0.0130003
715.614	0.0129274
715.693	0.0130064
715.771	0.0129536
715.849	0.0128590
715.927	0.0127271
716.005	0.0126794
716.083	0.0127441
716.161	0.0127325
716.239	0.0128501
716.318	0.0127267
716.396	0.0128033
716.474	0.0127086
716.552	0.0129585
716.630	0.0129224
716.708	0.0128255
716.786	0.0130148
716.864	0.0131836
716.943	0.0130863
717.021	0.0130861
717.099	0.0131218
717.177	0.0131142
717.255	0.0131061
717.333	0.0132467
717.411	0.0131680
717.489	0.0131577
717.568	0.0130879
717.646	0.0128298
717.724	0.0128116
717.802	0.0126486
717.880	0.0126989
717.958	0.0124146
718.036	0.0123162
718.114	0.0122876
718.193	0.0124251
718.271	0.0120858
718.349	0.0122425
718.427	0.0121651
718.505	0.0121973
718.583	0.0120274
718.661	0.0121401
718.739	0.0121136
718.818	0.0119779
718.896	0.0121356
718.974	0.0121568
719.052	0.0121368
719.130	0.0122137
719.208	0.0120660
719.286	0.0120853
719.364	0.0122715
719.443	0.0122224
719.521	0.0122301
719.599	0.0123167
719.677	0.0123719
719.755	0.0124357
719.833	0.0124030
719.911	0.0124867
719.989	0.0124270
720.068	0.0123843
720.146	0.0124841
720.224	0.0124984
720.302	0.0125643
720.380	0.0125423
720.458	0.0125760
720.536	0.0125131
720.614	0.0127297
720.693	0.0126333
720.771	0.0126982
720.849	0.0127096
720.927	0.0128947
721.005	0.0128957
721.083	0.0129424
721.161	0.0129840
721.239	0.0129073
721.318	0.0129004
721.396	0.0130651
721.474	0.0130653
721.552	0.0130782
721.630	0.0131464
721.708	0.0130912
721.786	0.0131293
721.864	0.0131811
721.943	0.0130437
722.021	0.0131409
722.099	0.0131802
722.177	0.0130289
722.255	0.0132452
722.333	0.0132372
722.411	0.0132726
722.489	0.0132823
722.568	0.0132211
722.646	0.0132623
722.724	0.0132716
722.802	0.0133077
722.880	0.0131664
722.958	0.0131361
723.036	0.0131798
723.114	0.0130753
723.193	0.0130685
723.271	0.0129256
723.349	0.0129195
723.427	0.0128821
723.505	0.0128456
723.583	0.0129173
723.661	0.0127469
723.739	0.0127182
723.818	0.0127989
723.896	0.0127807
723.974	0.0129956
724.052	0.0129910
724.130	0.0130457
724.208	0.0131102
724.286	0.0132415
724.364	0.0132327
724.443	0.0133179
724.521	0.0133427
724.599	0.0132376
724.677	0.0131747
724.755	0.0132149
724.833	0.0131519
724.911	0.0131989
724.989	0.0131779
725.068	0.0129474
725.146	0.0130685
725.224	0.0130710
725.302	0.0130176
725.380	0.0130079
725.458	0.0129709
725.536	0.0130087
725.614	0.0129295
725.693	0.0129306
