05/07/2022	17:04:41	Ver.	4.1	UNKNOWN
Optical Delay	639.989416	Delta X		0.078125	Sweeps	1	Scan Rate	0/0
Coordinates	Axis 1	NaN	Axis 2	NaN	Axis 3	NaN	Axis 4	NaN	Axis 5	NaN	Axis 6	0.000000
TX Power	0.000000	RX Power	0.000000

639.989	0.0129431
640.068	0.0128577
640.146	0.0129623
640.224	0.0129265
640.302	0.0128900
640.380	0.0129013
640.458	0.0128806
640.536	0.0129735
640.614	0.0129227
640.693	0.0128809
640.771	0.0129980
640.849	0.0129182
640.927	0.0129719
641.005	0.0129613
641.083	0.0129754
641.161	0.0128599
641.239	0.0130439
641.318	0.0130836
641.396	0.0129683
641.474	0.0129046
641.552	0.0129203
641.630	0.0129619
641.708	0.0128548
641.786	0.0129361
641.864	0.0130005
641.943	0.0131715
642.021	0.0128862
642.099	0.0128794
642.177	0.0129440
642.255	0.0129845
642.333	0.0128574
642.411	0.0129486
642.489	0.0129445
642.568	0.0128553
642.646	0.0130251
642.724	0.0130025
642.802	0.0130287
642.880	0.0129665
642.958	0.0128471
643.036	0.0131580
643.114	0.0130750
643.193	0.0130170
643.271	0.0129520
643.349	0.0128994
643.427	0.0128636
643.505	0.0130088
643.583	0.0128729
643.661	0.0129401
643.739	0.0129411
643.818	0.0128979
643.896	0.0129233
643.974	0.0129047
644.052	0.0128914
644.130	0.0128934
644.208	0.0128194
644.286	0.0128762
644.364	0.0128439
644.443	0.0128057
644.521	0.0129268
644.599	0.0129022
644.677	0.0129950
644.755	0.0128788
644.833	0.0128467
644.911	0.0127876
644.989	0.0129229
645.068	0.0131013
645.146	0.0128519
645.224	0.0128577
645.302	0.0129312
645.380	0.0128760
645.458	0.0129427
645.536	0.0129675
645.614	0.0129046
645.693	0.0129537
645.771	0.0128875
645.849	0.0130437
645.927	0.0129924
646.005	0.0128014
646.083	0.0129429
646.161	0.0128651
646.239	0.0127384
646.318	0.0129679
646.396	0.0130206
646.474	0.0128462
646.552	0.0128391
646.630	0.0129446
646.708	0.0129701
646.786	0.0129277
646.864	0.0129202
646.943	0.0128397
647.021	0.0128750
647.099	0.0130068
647.177	0.0130037
647.255	0.0129314
647.333	0.0129275
647.411	0.0130357
647.489	0.0127158
647.568	0.0128121
647.646	0.0129421
647.724	0.0130258
647.802	0.0129505
647.880	0.0129082
647.958	0.0129067
648.036	0.0128236
648.114	0.0129460
648.193	0.0130972
648.271	0.0129276
648.349	0.0128918
648.427	0.0129564
648.505	0.0128436
648.583	0.0130482
648.661	0.0130602
648.739	0.0128399
648.818	0.0129359
648.896	0.0130367
648.974	0.0129964
649.052	0.0129136
649.130	0.0129424
649.208	0.0129596
649.286	0.0129871
649.364	0.0128649
649.443	0.0129623
649.521	0.0128716
649.599	0.0129817
649.677	0.0129665
649.755	0.0129133
649.833	0.0127602
649.911	0.0128629
649.989	0.0130106
650.068	0.0128668
650.146	0.0129410
650.224	0.0129144
650.302	0.0130331
650.380	0.0128762
650.458	0.0129433
650.536	0.0128722
650.614	0.0129743
650.693	0.0128747
650.771	0.0129839
650.849	0.0128697
650.927	0.0128901
651.005	0.0129805
651.083	0.0129613
651.161	0.0129150
651.239	0.0128182
651.318	0.0130415
651.396	0.0128584
651.474	0.0128677
651.552	0.0127803
651.630	0.0129442
651.708	0.0129601
651.786	0.0129898
651.864	0.0129411
651.943	0.0128716
652.021	0.0128993
652.099	0.0128732
652.177	0.0128456
652.255	0.0128229
652.333	0.0128552
652.411	0.0129144
652.489	0.0128036
652.568	0.0129118
652.646	0.0129224
652.724	0.0129774
652.802	0.0129298
652.880	0.0129512
652.958	0.0128428
653.036	0.0128058
653.114	0.0128246
653.193	0.0128332
653.271	0.0128177
653.349	0.0129950
653.427	0.0129289
653.505	0.0129017
653.583	0.0128265
653.661	0.0128946
653.739	0.0129084
653.818	0.0130561
653.896	0.0128418
653.974	0.0128536
654.052	0.0128170
654.130	0.0128327
654.208	0.0128957
654.286	0.0129899
654.364	0.0128513
654.443	0.0128874
654.521	0.0128790
654.599	0.0129201
654.677	0.0128192
654.755	0.0129105
654.833	0.0131033
654.911	0.0130358
654.989	0.0128390
655.068	0.0128371
655.146	0.0129193
655.224	0.0129495
655.302	0.0129686
655.380	0.0129464
655.458	0.0129175
655.536	0.0129114
655.614	0.0128369
655.693	0.0128671
655.771	0.0127631
655.849	0.0128639
655.927	0.0129597
656.005	0.0129305
656.083	0.0128985
656.161	0.0128511
656.239	0.0129148
656.318	0.0127455
656.396	0.0128498
656.474	0.0130228
656.552	0.0130298
656.630	0.0128185
656.708	0.0129631
656.786	0.0130022
656.864	0.0130086
656.943	0.0128385
657.021	0.0128738
657.099	0.0129395
657.177	0.0129749
657.255	0.0129219
657.333	0.0128174
657.411	0.0128936
657.489	0.0128020
657.568	0.0129682
657.646	0.0129227
657.724	0.0128751
657.802	0.0127971
657.880	0.0129357
657.958	0.0128365
658.036	0.0129856
658.114	0.0129264
658.193	0.0130102
658.271	0.0128719
658.349	0.0127799
658.427	0.0129025
658.505	0.0128693
658.583	0.0128231
658.661	0.0129930
658.739	0.0130706
658.818	0.0129457
658.896	0.0129715
658.974	0.0128872
659.052	0.0129578
659.130	0.0129273
659.208	0.0129672
659.286	0.0129481
659.364	0.0128590
659.443	0.0128851
659.521	0.0128436
659.599	0.0128930
659.677	0.0129105
659.755	0.0129205
659.833	0.0129702
659.911	0.0129317
659.989	0.0129269
660.068	0.0128770
660.146	0.0129034
660.224	0.0129681
660.302	0.0129949
660.380	0.0127942
660.458	0.0128941
660.536	0.0130466
660.614	0.0130653
660.693	0.0129761
660.771	0.0130010
660.849	0.0128689
660.927	0.0129115
661.005	0.0128460
661.083	0.0130033
661.161	0.0128600
661.239	0.0129642
661.318	0.0128627
661.396	0.0129118
661.474	0.0129305
661.552	0.0129333
661.630	0.0129278
661.708	0.0128540
661.786	0.0128648
661.864	0.0128642
661.943	0.0129678
662.021	0.0128253
662.099	0.0127716
662.177	0.0127331
662.255	0.0128004
662.333	0.0129159
662.411	0.0127541
662.489	0.0127936
662.568	0.0129187
662.646	0.0129350
662.724	0.0128753
662.802	0.0128696
662.880	0.0128564
662.958	0.0129450
663.036	0.0129210
663.114	0.0127692
663.193	0.0127740
663.271	0.0128986
663.349	0.0128017
663.427	0.0128960
663.505	0.0127716
663.583	0.0127940
663.661	0.0127802
663.739	0.0127367
663.818	0.0127473
663.896	0.0128644
663.974	0.0128401
664.052	0.0129552
664.130	0.0127419
664.208	0.0126972
664.286	0.0127065
664.364	0.0127397
664.443	0.0128369
664.521	0.0128980
664.599	0.0128417
664.677	0.0128679
664.755	0.0129131
664.833	0.0127251
664.911	0.0128809
664.989	0.0128696
665.068	0.0128215
665.146	0.0127299
665.224	0.0129247
665.302	0.0129098
665.380	0.0129277
665.458	0.0129018
665.536	0.0129897
665.614	0.0128799
665.693	0.0127788
665.771	0.0128278
665.849	0.0129279
665.927	0.0128174
666.005	0.0128851
666.083	0.0129015
666.161	0.0128875
666.239	0.0129710
666.318	0.0128429
666.396	0.0129327
666.474	0.0128144
666.552	0.0128637
666.630	0.0129089
666.708	0.0129456
666.786	0.0128905
666.864	0.0128799
666.943	0.0129606
667.021	0.0129564
667.099	0.0129892
667.177	0.0129528
667.255	0.0128477
667.333	0.0130026
667.411	0.0128867
667.489	0.0128401
667.568	0.0130083
667.646	0.0130168
667.724	0.0128176
667.802	0.0130515
667.880	0.0129121
667.958	0.0129703
668.036	0.0129204
668.114	0.0130148
668.193	0.0129606
668.271	0.0129354
668.349	0.0128713
668.427	0.0129513
668.505	0.0129806
668.583	0.0129391
668.661	0.0128612
668.739	0.0130073
668.818	0.0128081
668.896	0.0130650
668.974	0.0130116
669.052	0.0130309
669.130	0.0130276
669.208	0.0130454
669.286	0.0128852
669.364	0.0129234
669.443	0.0130310
669.521	0.0130244
669.599	0.0130708
669.677	0.0130254
669.755	0.0129163
669.833	0.0129233
669.911	0.0129929
669.989	0.0130086
670.068	0.0128924
670.146	0.0129171
670.224	0.0129828
670.302	0.0129314
670.380	0.0130149
670.458	0.0128625
670.536	0.0129051
670.614	0.0130469
670.693	0.0129336
670.771	0.0130144
670.849	0.0129875
670.927	0.0131183
671.005	0.0130750
671.083	0.0129305
671.161	0.0130224
671.239	0.0129712
671.318	0.0129948
671.396	0.0128682
671.474	0.0129725
671.552	0.0129322
671.630	0.0129838
671.708	0.0129472
671.786	0.0130699
671.864	0.0130504
671.943	0.0130108
672.021	0.0129823
672.099	0.0129519
672.177	0.0129802
672.255	0.0129195
672.333	0.0129813
672.411	0.0129865
672.489	0.0129120
672.568	0.0128481
672.646	0.0129583
672.724	0.0129910
672.802	0.0129707
672.880	0.0129324
672.958	0.0129544
673.036	0.0128717
673.114	0.0129946
673.193	0.0127153
673.271	0.0128926
673.349	0.0129433
673.427	0.0128538
673.505	0.0129436
673.583	0.0129872
673.661	0.0128432
673.739	0.0129459
673.818	0.0129645
673.896	0.0128841
673.974	0.0128051
674.052	0.0129581
674.130	0.0129531
674.208	0.0128176
674.286	0.0129526
674.364	0.0129134
674.443	0.0128814
674.521	0.0129581
674.599	0.0128957
674.677	0.0129581
674.755	0.0129444
674.833	0.0129506
674.911	0.0128835
674.989	0.0128020
675.068	0.0128091
675.146	0.0129538
675.224	0.0129543
675.302	0.0129536
675.380	0.0127538
675.458	0.0129249
675.536	0.0128821
675.614	0.0129765
675.693	0.0128723
675.771	0.0128709
675.849	0.0128441
675.927	0.0128172
676.005	0.0130438
676.083	0.0129500
676.161	0.0127841
676.239	0.0128027
676.318	0.0128445
676.396	0.0127312
676.474	0.0128330
676.552	0.0128701
676.630	0.0128477
676.708	0.0126723
676.786	0.0129799
676.864	0.0127618
676.943	0.0127730
677.021	0.0128440
677.099	0.0126818
677.177	0.0128992
677.255	0.0129124
677.333	0.0128348
677.411	0.0129576
677.489	0.0127234
677.568	0.0127483
677.646	0.0127993
677.724	0.0128468
677.802	0.0127493
677.880	0.0127996
677.958	0.0128085
678.036	0.0127814
678.114	0.0128181
678.193	0.0127592
678.271	0.0129042
678.349	0.0128603
678.427	0.0128080
678.505	0.0128739
678.583	0.0127649
678.661	0.0128399
678.739	0.0127485
678.818	0.0127306
678.896	0.0128274
678.974	0.0127682
679.052	0.0127216
679.130	0.0127853
679.208	0.0127927
679.286	0.0129823
679.364	0.0129397
679.443	0.0128806
679.521	0.0126864
679.599	0.0127470
679.677	0.0129795
679.755	0.0131029
679.833	0.0128431
679.911	0.0128442
679.989	0.0129804
680.068	0.0128848
680.146	0.0129150
680.224	0.0127146
680.302	0.0129148
680.380	0.0128763
680.458	0.0128087
680.536	0.0128178
680.614	0.0127963
680.693	0.0129520
680.771	0.0127996
680.849	0.0129084
680.927	0.0129836
681.005	0.0129729
681.083	0.0128792
681.161	0.0129218
681.239	0.0128744
681.318	0.0129352
681.396	0.0128382
681.474	0.0128897
681.552	0.0129930
681.630	0.0129896
681.708	0.0130003
681.786	0.0129846
681.864	0.0129626
681.943	0.0128908
682.021	0.0129394
682.099	0.0129544
682.177	0.0128742
682.255	0.0128989
682.333	0.0128716
682.411	0.0129914
682.489	0.0130167
682.568	0.0130264
682.646	0.0129272
682.724	0.0131196
682.802	0.0130085
682.880	0.0129922
682.958	0.0129041
683.036	0.0128555
683.114	0.0126946
683.193	0.0126814
683.271	0.0126324
683.349	0.0126060
683.427	0.0124754
683.505	0.0128023
683.583	0.0129293
683.661	0.0127869
683.739	0.0130311
683.818	0.0131737
683.896	0.0132561
683.974	0.0133681
684.052	0.0135656
684.130	0.0135235
684.208	0.0135629
684.286	0.0135897
684.364	0.0135226
684.443	0.0135452
684.521	0.0132727
684.599	0.0131156
684.677	0.0128081
684.755	0.0127198
684.833	0.0123846
684.911	0.0122192
684.989	0.0120800
685.068	0.0118302
685.146	0.0116691
685.224	0.0117207
685.302	0.0116800
685.380	0.0118320
685.458	0.0121386
685.536	0.0124398
685.614	0.0127615
685.693	0.0131473
685.771	0.0135848
685.849	0.0138750
685.927	0.0141121
686.005	0.0144070
686.083	0.0145458
686.161	0.0145795
686.239	0.0146411
686.318	0.0144041
686.396	0.0141695
686.474	0.0140871
686.552	0.0136684
686.630	0.0133690
686.708	0.0130170
686.786	0.0125571
686.864	0.0120389
686.943	0.0115463
687.021	0.0112274
687.099	0.0108518
687.177	0.0105750
687.255	0.0103219
687.333	0.0103159
687.411	0.0102271
687.489	0.0105738
687.568	0.0108274
687.646	0.0114124
687.724	0.0118129
687.802	0.0123069
687.880	0.0130891
687.958	0.0135153
688.036	0.0143075
688.114	0.0148758
688.193	0.0153258
688.271	0.0156670
688.349	0.0157742
688.427	0.0158330
688.505	0.0159728
688.583	0.0158428
688.661	0.0155422
688.739	0.0150484
688.818	0.0145384
688.896	0.0140445
688.974	0.0135811
689.052	0.0130440
689.130	0.0125057
689.208	0.0119683
689.286	0.0115574
689.364	0.0111930
689.443	0.0109385
689.521	0.0106293
689.599	0.0105304
689.677	0.0105059
689.755	0.0105320
689.833	0.0106986
689.911	0.0108949
689.989	0.0110739
690.068	0.0112158
690.146	0.0115091
690.224	0.0119888
690.302	0.0122038
690.380	0.0124166
690.458	0.0128183
690.536	0.0130373
690.614	0.0133585
690.693	0.0136736
690.771	0.0139906
690.849	0.0140401
690.927	0.0142930
691.005	0.0146880
691.083	0.0146667
691.161	0.0147222
691.239	0.0148203
691.318	0.0149016
691.396	0.0150478
691.474	0.0148292
691.552	0.0148347
691.630	0.0146873
691.708	0.0144769
691.786	0.0142601
691.864	0.0139291
691.943	0.0135950
692.021	0.0133212
692.099	0.0130094
692.177	0.0124258
692.255	0.0121752
692.333	0.0115977
692.411	0.0113471
692.489	0.0110403
692.568	0.0107812
692.646	0.0104844
692.724	0.0103973
692.802	0.0104136
692.880	0.0104211
692.958	0.0107465
693.036	0.0108262
693.114	0.0110027
693.193	0.0114686
693.271	0.0117972
693.349	0.0120387
693.427	0.0125464
693.505	0.0128729
693.583	0.0133566
693.661	0.0138071
693.739	0.0140091
693.818	0.0143648
693.896	0.0146486
693.974	0.0148796
694.052	0.0147733
694.130	0.0151246
694.208	0.0151093
694.286	0.0150357
694.364	0.0149268
694.443	0.0148906
694.521	0.0146239
694.599	0.0143711
694.677	0.0142372
694.755	0.0140014
694.833	0.0137577
694.911	0.0134135
694.989	0.0129798
695.068	0.0128467
695.146	0.0125607
695.224	0.0124144
695.302	0.0120768
695.380	0.0118876
695.458	0.0117229
695.536	0.0116328
695.614	0.0116589
695.693	0.0116334
695.771	0.0115284
695.849	0.0116797
695.927	0.0117861
696.005	0.0118291
696.083	0.0119592
696.161	0.0122028
696.239	0.0123833
696.318	0.0124471
696.396	0.0127635
696.474	0.0129620
696.552	0.0132235
696.630	0.0135263
696.708	0.0135691
696.786	0.0138324
696.864	0.0139074
696.943	0.0139653
697.021	0.0139305
697.099	0.0139499
697.177	0.0138576
697.255	0.0138362
697.333	0.0135491
697.411	0.0131480
697.489	0.0130538
697.568	0.0128099
697.646	0.0125127
697.724	0.0122671
697.802	0.0121087
697.880	0.0119556
697.958	0.0119525
698.036	0.0117473
698.114	0.0118972
698.193	0.0118025
698.271	0.0120211
698.349	0.0121667
698.427	0.0121230
698.505	0.0124088
698.583	0.0126555
698.661	0.0128958
698.739	0.0130075
698.818	0.0135155
698.896	0.0136587
698.974	0.0139170
699.052	0.0142299
699.130	0.0143072
699.208	0.0144429
699.286	0.0145188
699.364	0.0146217
699.443	0.0145040
699.521	0.0144343
699.599	0.0144812
699.677	0.0141908
699.755	0.0140884
699.833	0.0139211
699.911	0.0135048
699.989	0.0134774
700.068	0.0132686
700.146	0.0129011
700.224	0.0126608
700.302	0.0123273
700.380	0.0121999
700.458	0.0119375
700.536	0.0117618
700.614	0.0115063
700.693	0.0114303
700.771	0.0114544
700.849	0.0112400
700.927	0.0111074
701.005	0.0112962
701.083	0.0114886
701.161	0.0114622
701.239	0.0115525
701.318	0.0118382
701.396	0.0118636
701.474	0.0122319
701.552	0.0123565
701.630	0.0127377
701.708	0.0128060
701.786	0.0129851
701.864	0.0132267
701.943	0.0132946
702.021	0.0135181
702.099	0.0136221
702.177	0.0136023
702.255	0.0137069
702.333	0.0136673
702.411	0.0136543
702.489	0.0137306
702.568	0.0137395
702.646	0.0135189
702.724	0.0134773
702.802	0.0134405
702.880	0.0132584
702.958	0.0131429
703.036	0.0131725
703.114	0.0132419
703.193	0.0131618
703.271	0.0131005
703.349	0.0129513
703.427	0.0129870
703.505	0.0129922
703.583	0.0129758
703.661	0.0129984
703.739	0.0131641
703.818	0.0131509
703.896	0.0128749
703.974	0.0130015
704.052	0.0130578
704.130	0.0131476
704.208	0.0131563
704.286	0.0130687
704.364	0.0132032
704.443	0.0131953
704.521	0.0131304
704.599	0.0131879
704.677	0.0132360
704.755	0.0130739
704.833	0.0132771
704.911	0.0131433
704.989	0.0130676
705.068	0.0129969
705.146	0.0129757
705.224	0.0129003
705.302	0.0127173
705.380	0.0125693
705.458	0.0125809
705.536	0.0124736
705.614	0.0123696
705.693	0.0122392
705.771	0.0121902
705.849	0.0121714
705.927	0.0119978
706.005	0.0119369
706.083	0.0118946
706.161	0.0118817
706.239	0.0120118
706.318	0.0118271
706.396	0.0118343
706.474	0.0119489
706.552	0.0121638
706.630	0.0121944
706.708	0.0121976
706.786	0.0122260
706.864	0.0124039
706.943	0.0125514
707.021	0.0128369
707.099	0.0127798
707.177	0.0130326
707.255	0.0130615
707.333	0.0132346
707.411	0.0133452
707.489	0.0135719
707.568	0.0136149
707.646	0.0138419
707.724	0.0138570
707.802	0.0139268
707.880	0.0141750
707.958	0.0139401
708.036	0.0140582
708.114	0.0142926
708.193	0.0142100
708.271	0.0141951
708.349	0.0141692
708.427	0.0142515
708.505	0.0142163
708.583	0.0140629
708.661	0.0138829
708.739	0.0139845
708.818	0.0136809
708.896	0.0134054
708.974	0.0132806
709.052	0.0130948
709.130	0.0130433
709.208	0.0128094
709.286	0.0126153
709.364	0.0124529
709.443	0.0122703
709.521	0.0120534
709.599	0.0119629
709.677	0.0118290
709.755	0.0117548
709.833	0.0117555
709.911	0.0115562
709.989	0.0116671
710.068	0.0114802
710.146	0.0117036
710.224	0.0117270
710.302	0.0117023
710.380	0.0117570
710.458	0.0117802
710.536	0.0118539
710.614	0.0118620
710.693	0.0120650
710.771	0.0121799
710.849	0.0122587
710.927	0.0122197
711.005	0.0124821
711.083	0.0126081
711.161	0.0125384
711.239	0.0127142
711.318	0.0128774
711.396	0.0129558
711.474	0.0132140
711.552	0.0128568
711.630	0.0129723
711.708	0.0131337
711.786	0.0133054
711.864	0.0133189
711.943	0.0132390
712.021	0.0133281
712.099	0.0134296
712.177	0.0136377
712.255	0.0136633
712.333	0.0135928
712.411	0.0138706
712.489	0.0140126
712.568	0.0140606
712.646	0.0141388
712.724	0.0141946
712.802	0.0143324
712.880	0.0143256
712.958	0.0143211
713.036	0.0143176
713.114	0.0141858
713.193	0.0141782
713.271	0.0139238
713.349	0.0138024
713.427	0.0138482
713.505	0.0134880
713.583	0.0133220
713.661	0.0131684
713.739	0.0129070
713.818	0.0127318
713.896	0.0123412
713.974	0.0122234
714.052	0.0121182
714.130	0.0119782
714.208	0.0117779
714.286	0.0116389
714.364	0.0115948
714.443	0.0115732
714.521	0.0115300
714.599	0.0114945
714.677	0.0115962
714.755	0.0116499
714.833	0.0117240
714.911	0.0117813
714.989	0.0119286
715.068	0.0119781
715.146	0.0121413
715.224	0.0121761
715.302	0.0124200
715.380	0.0123798
715.458	0.0127395
715.536	0.0126289
715.614	0.0127956
715.693	0.0127620
715.771	0.0128857
715.849	0.0129051
715.927	0.0129378
716.005	0.0128658
716.083	0.0129343
716.161	0.0130280
716.239	0.0132266
716.318	0.0128742
716.396	0.0129599
716.474	0.0130573
716.552	0.0129682
716.630	0.0131049
716.708	0.0130634
716.786	0.0129076
716.864	0.0130438
716.943	0.0130168
717.021	0.0131976
717.099	0.0132645
717.177	0.0132133
717.255	0.0132790
717.333	0.0135604
717.411	0.0137672
717.489	0.0136971
717.568	0.0138511
717.646	0.0138597
717.724	0.0139331
717.802	0.0139843
717.880	0.0140047
717.958	0.0139574
718.036	0.0138212
718.114	0.0137737
718.193	0.0137327
718.271	0.0137003
718.349	0.0134272
718.427	0.0132902
718.505	0.0133146
718.583	0.0130830
718.661	0.0129509
718.739	0.0127505
718.818	0.0127834
718.896	0.0127627
718.974	0.0125729
719.052	0.0125609
719.130	0.0125858
719.208	0.0125514
719.286	0.0125788
719.364	0.0124635
719.443	0.0125098
719.521	0.0124992
719.599	0.0124790
719.677	0.0124139
719.755	0.0122459
719.833	0.0123839
719.911	0.0123793
719.989	0.0123608
720.068	0.0124193
720.146	0.0125142
720.224	0.0123682
720.302	0.0122198
720.380	0.0121788
720.458	0.0122956
720.536	0.0122815
720.614	0.0124107
720.693	0.0124120
720.771	0.0124129
720.849	0.0123569
720.927	0.0124715
721.005	0.0126729
721.083	0.0125826
721.161	0.0127133
721.239	0.0127778
721.318	0.0129077
721.396	0.0129298
721.474	0.0129620
721.552	0.0128355
721.630	0.0129384
721.708	0.0130441
721.786	0.0130403
721.864	0.0129803
721.943	0.0130013
722.021	0.0131963
722.099	0.0130760
722.177	0.0131331
722.255	0.0131458
722.333	0.0133149
722.411	0.0134428
722.489	0.0133759
722.568	0.0135620
722.646	0.0136153
722.724	0.0137901
722.802	0.0138728
722.880	0.0139506
722.958	0.0142142
723.036	0.0141624
723.114	0.0139581
723.193	0.0139690
723.271	0.0139250
723.349	0.0139243
723.427	0.0139451
723.505	0.0138292
723.583	0.0136407
723.661	0.0134637
723.739	0.0132835
723.818	0.0130854
723.896	0.0129069
723.974	0.0126936
724.052	0.0125434
724.130	0.0125901
724.208	0.0123920
724.286	0.0121309
724.364	0.0121463
724.443	0.0121650
724.521	0.0122515
724.599	0.0121201
724.677	0.0120175
724.755	0.0121901
724.833	0.0124225
724.911	0.0123679
724.989	0.0124680
725.068	0.0125462
725.146	0.0126281
725.224	0.0127427
725.302	0.0127015
725.380	0.0127984
725.458	0.0129611
725.536	0.0128269
725.614	0.0130040
725.693	0.0130346
