05/07/2022	17:05:01	Ver.	4.1	UNKNOWN
Optical Delay	639.996087	Delta X		0.078125	Sweeps	1	Scan Rate	0/0
Coordinates	Axis 1	NaN	Axis 2	NaN	Axis 3	NaN	Axis 4	NaN	Axis 5	NaN	Axis 6	0.000000
TX Power	0.000000	RX Power	0.000000

639.996	0.0125696
640.074	0.0126113
640.152	0.0125000
640.230	0.0126474
640.309	0.0126414
640.387	0.0125573
640.465	0.0126282
640.543	0.0125825
640.621	0.0125718
640.699	0.0124473
640.777	0.0125166
640.855	0.0124331
640.934	0.0125001
641.012	0.0127000
641.090	0.0125387
641.168	0.0126310
641.246	0.0125244
641.324	0.0125877
641.402	0.0125677
641.480	0.0126403
641.559	0.0126361
641.637	0.0126641
641.715	0.0124815
641.793	0.0126133
641.871	0.0125198
641.949	0.0125895
642.027	0.0125229
642.105	0.0126134
642.184	0.0126855
642.262	0.0124634
642.340	0.0124999
642.418	0.0126686
642.496	0.0126093
642.574	0.0125794
642.652	0.0126879
642.730	0.0126508
642.809	0.0125493
642.887	0.0125565
642.965	0.0125266
643.043	0.0126809
643.121	0.0126029
643.199	0.0124484
643.277	0.0126019
643.355	0.0125836
643.434	0.0124741
643.512	0.0125375
643.590	0.0125583
643.668	0.0124964
643.746	0.0125986
643.824	0.0125816
643.902	0.0126019
643.980	0.0125094
644.059	0.0124966
644.137	0.0125756
644.215	0.0126206
644.293	0.0126297
644.371	0.0125390
644.449	0.0125184
644.527	0.0126295
644.605	0.0125806
644.684	0.0125266
644.762	0.0126304
644.840	0.0127203
644.918	0.0125681
644.996	0.0125111
645.074	0.0124755
645.152	0.0126321
645.230	0.0127340
645.309	0.0125382
645.387	0.0123933
645.465	0.0126354
645.543	0.0125192
645.621	0.0125083
645.699	0.0125525
645.777	0.0127206
645.855	0.0126009
645.934	0.0126289
646.012	0.0125611
646.090	0.0126170
646.168	0.0125393
646.246	0.0125320
646.324	0.0126752
646.402	0.0127670
646.480	0.0125934
646.559	0.0125673
646.637	0.0125953
646.715	0.0124776
646.793	0.0125952
646.871	0.0126969
646.949	0.0126952
647.027	0.0126413
647.105	0.0125639
647.184	0.0126653
647.262	0.0125953
647.340	0.0126531
647.418	0.0126934
647.496	0.0124796
647.574	0.0125993
647.652	0.0126443
647.730	0.0125509
647.809	0.0126275
647.887	0.0126096
647.965	0.0125372
648.043	0.0124314
648.121	0.0126064
648.199	0.0125790
648.277	0.0125432
648.355	0.0126276
648.434	0.0125763
648.512	0.0126550
648.590	0.0124829
648.668	0.0125130
648.746	0.0126411
648.824	0.0125203
648.902	0.0124675
648.980	0.0125729
649.059	0.0125797
649.137	0.0125498
649.215	0.0125503
649.293	0.0124970
649.371	0.0126605
649.449	0.0125464
649.527	0.0126225
649.605	0.0126044
649.684	0.0125170
649.762	0.0125751
649.840	0.0126188
649.918	0.0126424
649.996	0.0126156
650.074	0.0124995
650.152	0.0125816
650.230	0.0127467
650.309	0.0125484
650.387	0.0125085
650.465	0.0124885
650.543	0.0126552
650.621	0.0125333
650.699	0.0126452
650.777	0.0125851
650.855	0.0125508
650.934	0.0125959
651.012	0.0124868
651.090	0.0124620
651.168	0.0125880
651.246	0.0125428
651.324	0.0125459
651.402	0.0125575
651.480	0.0126183
651.559	0.0126086
651.637	0.0126191
651.715	0.0125124
651.793	0.0125688
651.871	0.0125070
651.949	0.0125124
652.027	0.0127015
652.105	0.0126769
652.184	0.0125674
652.262	0.0125157
652.340	0.0126145
652.418	0.0124141
652.496	0.0124490
652.574	0.0125301
652.652	0.0126376
652.730	0.0125558
652.809	0.0124621
652.887	0.0124456
652.965	0.0125626
653.043	0.0125874
653.121	0.0125838
653.199	0.0125552
653.277	0.0125461
653.355	0.0125523
653.434	0.0124727
653.512	0.0125154
653.590	0.0126461
653.668	0.0125888
653.746	0.0125491
653.824	0.0125915
653.902	0.0126650
653.980	0.0125904
654.059	0.0124033
654.137	0.0125391
654.215	0.0126387
654.293	0.0125943
654.371	0.0126417
654.449	0.0124995
654.527	0.0127213
654.605	0.0126409
654.684	0.0125784
654.762	0.0126209
654.840	0.0126215
654.918	0.0125690
654.996	0.0124646
655.074	0.0124788
655.152	0.0126317
655.230	0.0125404
655.309	0.0126167
655.387	0.0125124
655.465	0.0123648
655.543	0.0126327
655.621	0.0125452
655.699	0.0125984
655.777	0.0126483
655.855	0.0127036
655.934	0.0125494
656.012	0.0125245
656.090	0.0125327
656.168	0.0124364
656.246	0.0125699
656.324	0.0126633
656.402	0.0126784
656.480	0.0126539
656.559	0.0125587
656.637	0.0125640
656.715	0.0126376
656.793	0.0124986
656.871	0.0126981
656.949	0.0126115
657.027	0.0125196
657.105	0.0125014
657.184	0.0125661
657.262	0.0125314
657.340	0.0125874
657.418	0.0126064
657.496	0.0127085
657.574	0.0127226
657.652	0.0125701
657.730	0.0125123
657.809	0.0126396
657.887	0.0128184
657.965	0.0125077
658.043	0.0125874
658.121	0.0127070
658.199	0.0125487
658.277	0.0124747
658.355	0.0126763
658.434	0.0126371
658.512	0.0127020
658.590	0.0126193
658.668	0.0125429
658.746	0.0126292
658.824	0.0126678
658.902	0.0125927
658.980	0.0126105
659.059	0.0126894
659.137	0.0125695
659.215	0.0125274
659.293	0.0125256
659.371	0.0126321
659.449	0.0125218
659.527	0.0126648
659.605	0.0126272
659.684	0.0125995
659.762	0.0125231
659.840	0.0126724
659.918	0.0125545
659.996	0.0126550
660.074	0.0126881
660.152	0.0125165
660.230	0.0126622
660.309	0.0126629
660.387	0.0126295
660.465	0.0126321
660.543	0.0125233
660.621	0.0126786
660.699	0.0126591
660.777	0.0125951
660.855	0.0125690
660.934	0.0125981
661.012	0.0125906
661.090	0.0125037
661.168	0.0126725
661.246	0.0126093
661.324	0.0125602
661.402	0.0124767
661.480	0.0126439
661.559	0.0125249
661.637	0.0124008
661.715	0.0126457
661.793	0.0126142
661.871	0.0125979
661.949	0.0125852
662.027	0.0125417
662.105	0.0126239
662.184	0.0126418
662.262	0.0125082
662.340	0.0124881
662.418	0.0125612
662.496	0.0127010
662.574	0.0125948
662.652	0.0125617
662.730	0.0126546
662.809	0.0125327
662.887	0.0126711
662.965	0.0127090
663.043	0.0126002
663.121	0.0125675
663.199	0.0124677
663.277	0.0125915
663.355	0.0124687
663.434	0.0125515
663.512	0.0125638
663.590	0.0124603
663.668	0.0124274
663.746	0.0125118
663.824	0.0124856
663.902	0.0125262
663.980	0.0125966
664.059	0.0124523
664.137	0.0126021
664.215	0.0126057
664.293	0.0124656
664.371	0.0124837
664.449	0.0126038
664.527	0.0123894
664.605	0.0123871
664.684	0.0125138
664.762	0.0126342
664.840	0.0126629
664.918	0.0124056
664.996	0.0125124
665.074	0.0125568
665.152	0.0125346
665.230	0.0125856
665.309	0.0126034
665.387	0.0124962
665.465	0.0124789
665.543	0.0126172
665.621	0.0126227
665.699	0.0125589
665.777	0.0125253
665.855	0.0126295
665.934	0.0125763
666.012	0.0124799
666.090	0.0126971
666.168	0.0126168
666.246	0.0126240
666.324	0.0125924
666.402	0.0126080
666.480	0.0125278
666.559	0.0125532
666.637	0.0126465
666.715	0.0126170
666.793	0.0126194
666.871	0.0125803
666.949	0.0124617
667.027	0.0126151
667.105	0.0126083
667.184	0.0127036
667.262	0.0125526
667.340	0.0126453
667.418	0.0125711
667.496	0.0125475
667.574	0.0125266
667.652	0.0126768
667.730	0.0126015
667.809	0.0125610
667.887	0.0126154
667.965	0.0125835
668.043	0.0125942
668.121	0.0125819
668.199	0.0125845
668.277	0.0126127
668.355	0.0127643
668.434	0.0126163
668.512	0.0126550
668.590	0.0125117
668.668	0.0126004
668.746	0.0126477
668.824	0.0126988
668.902	0.0127193
668.980	0.0126569
669.059	0.0126616
669.137	0.0126367
669.215	0.0126910
669.293	0.0127292
669.371	0.0127473
669.449	0.0127467
669.527	0.0126204
669.605	0.0126855
669.684	0.0126780
669.762	0.0127392
669.840	0.0126059
669.918	0.0126117
669.996	0.0127438
670.074	0.0128168
670.152	0.0126778
670.230	0.0125960
670.309	0.0126495
670.387	0.0126749
670.465	0.0126473
670.543	0.0126563
670.621	0.0126213
670.699	0.0125503
670.777	0.0125346
670.855	0.0127085
670.934	0.0127547
671.012	0.0126752
671.090	0.0125421
671.168	0.0126366
671.246	0.0126199
671.324	0.0126640
671.402	0.0126443
671.480	0.0126261
671.559	0.0125912
671.637	0.0126595
671.715	0.0126753
671.793	0.0125315
671.871	0.0125329
671.949	0.0127156
672.027	0.0126653
672.105	0.0126585
672.184	0.0124224
672.262	0.0126075
672.340	0.0126910
672.418	0.0124838
672.496	0.0125411
672.574	0.0126315
672.652	0.0126213
672.730	0.0127269
672.809	0.0125547
672.887	0.0125169
672.965	0.0126139
673.043	0.0126289
673.121	0.0126067
673.199	0.0125581
673.277	0.0126805
673.355	0.0126604
673.434	0.0126085
673.512	0.0125099
673.590	0.0125335
673.668	0.0127539
673.746	0.0127219
673.824	0.0125399
673.902	0.0127994
673.980	0.0126261
674.059	0.0125322
674.137	0.0125571
674.215	0.0125655
674.293	0.0125257
674.371	0.0124371
674.449	0.0124998
674.527	0.0125659
674.605	0.0124744
674.684	0.0124744
674.762	0.0124802
674.840	0.0125838
674.918	0.0124200
674.996	0.0125357
675.074	0.0124595
675.152	0.0125360
675.230	0.0125308
675.309	0.0124727
675.387	0.0125095
675.465	0.0125517
675.543	0.0125358
675.621	0.0126125
675.699	0.0126443
675.777	0.0124838
675.855	0.0124638
675.934	0.0125620
676.012	0.0125433
676.090	0.0124918
676.168	0.0126096
676.246	0.0124249
676.324	0.0124586
676.402	0.0126656
676.480	0.0126210
676.559	0.0124223
676.637	0.0124417
676.715	0.0124965
676.793	0.0125543
676.871	0.0126104
676.949	0.0124400
677.027	0.0124647
677.105	0.0124300
677.184	0.0124706
677.262	0.0125053
677.340	0.0125256
677.418	0.0123972
677.496	0.0125359
677.574	0.0126438
677.652	0.0125155
677.730	0.0124751
677.809	0.0124857
677.887	0.0123135
677.965	0.0124770
678.043	0.0124026
678.121	0.0125667
678.199	0.0124650
678.277	0.0125327
678.355	0.0125897
678.434	0.0123948
678.512	0.0124754
678.590	0.0124139
678.668	0.0125436
678.746	0.0123321
678.824	0.0125311
678.902	0.0126537
678.980	0.0125547
679.059	0.0126044
679.137	0.0126069
679.215	0.0124658
679.293	0.0126624
679.371	0.0125906
679.449	0.0124727
679.527	0.0124660
679.605	0.0126530
679.684	0.0127436
679.762	0.0126582
679.840	0.0127144
679.918	0.0124435
679.996	0.0125223
680.074	0.0126076
680.152	0.0124986
680.230	0.0124753
680.309	0.0124931
680.387	0.0125230
680.465	0.0125817
680.543	0.0126022
680.621	0.0126212
680.699	0.0126541
680.777	0.0126392
680.855	0.0125451
680.934	0.0124830
681.012	0.0125203
681.090	0.0125671
681.168	0.0124949
681.246	0.0125017
681.324	0.0126573
681.402	0.0126597
681.480	0.0125305
681.559	0.0124744
681.637	0.0125448
681.715	0.0126287
681.793	0.0125603
681.871	0.0126793
681.949	0.0127707
682.027	0.0126745
682.105	0.0126660
682.184	0.0126461
682.262	0.0126019
682.340	0.0126261
682.418	0.0126477
682.496	0.0126614
682.574	0.0124940
682.652	0.0126393
682.730	0.0124446
682.809	0.0123025
682.887	0.0122935
682.965	0.0123719
683.043	0.0122464
683.121	0.0121875
683.199	0.0124738
683.277	0.0125835
683.355	0.0127191
683.434	0.0127453
683.512	0.0129551
683.590	0.0129694
683.668	0.0132330
683.746	0.0132628
683.824	0.0132213
683.902	0.0132394
683.980	0.0131068
684.059	0.0130579
684.137	0.0129233
684.215	0.0127663
684.293	0.0125281
684.371	0.0122530
684.449	0.0119511
684.527	0.0118693
684.605	0.0117175
684.684	0.0114044
684.762	0.0115273
684.840	0.0114177
684.918	0.0114646
684.996	0.0116160
685.074	0.0118608
685.152	0.0122293
685.230	0.0125326
685.309	0.0129054
685.387	0.0132878
685.465	0.0134437
685.543	0.0137878
685.621	0.0139104
685.699	0.0140154
685.777	0.0142635
685.855	0.0142757
685.934	0.0141476
686.012	0.0139745
686.090	0.0137971
686.168	0.0135517
686.246	0.0132742
686.324	0.0126685
686.402	0.0123809
686.480	0.0119501
686.559	0.0115228
686.637	0.0112382
686.715	0.0107169
686.793	0.0104010
686.871	0.0100713
686.949	0.00990952
687.027	0.00983894
687.105	0.00988861
687.184	0.0101748
687.262	0.0107576
687.340	0.0110725
687.418	0.0116872
687.496	0.0124353
687.574	0.0130081
687.652	0.0137499
687.730	0.0143382
687.809	0.0148140
687.887	0.0153594
687.965	0.0156599
688.043	0.0158264
688.121	0.0157531
688.199	0.0158008
688.277	0.0153592
688.355	0.0149612
688.434	0.0146043
688.512	0.0141331
688.590	0.0135771
688.668	0.0130166
688.746	0.0127294
688.824	0.0120343
688.902	0.0115917
688.980	0.0111467
689.059	0.0106866
689.137	0.0103832
689.215	0.0100215
689.293	0.00981499
689.371	0.00977837
689.449	0.00964157
689.527	0.00973038
689.605	0.00983994
689.684	0.0101115
689.762	0.0105491
689.840	0.0109168
689.918	0.0115025
689.996	0.0118578
690.074	0.0124126
690.152	0.0128700
690.230	0.0132803
690.309	0.0136000
690.387	0.0139189
690.465	0.0140504
690.543	0.0144442
690.621	0.0146658
690.699	0.0146141
690.777	0.0147028
690.855	0.0148164
690.934	0.0146905
691.012	0.0146948
691.090	0.0146162
691.168	0.0146117
691.246	0.0145463
691.324	0.0143755
691.402	0.0141760
691.480	0.0137975
691.559	0.0135490
691.637	0.0133542
691.715	0.0128755
691.793	0.0123637
691.871	0.0117817
691.949	0.0113763
692.027	0.0110470
692.105	0.0106536
692.184	0.0103167
692.262	0.0100504
692.340	0.00978279
692.418	0.00978577
692.496	0.00958252
692.574	0.00971710
692.652	0.00984810
692.730	0.0100391
692.809	0.0105410
692.887	0.0108087
692.965	0.0112551
693.043	0.0117194
693.121	0.0121180
693.199	0.0126015
693.277	0.0130239
693.355	0.0134048
693.434	0.0139361
693.512	0.0142804
693.590	0.0145833
693.668	0.0148024
693.746	0.0148582
693.824	0.0151854
693.902	0.0153195
693.980	0.0152119
694.059	0.0151587
694.137	0.0148529
694.215	0.0147097
694.293	0.0146289
694.371	0.0142967
694.449	0.0138871
694.527	0.0134162
694.605	0.0130942
694.684	0.0128357
694.762	0.0125146
694.840	0.0120643
694.918	0.0117319
694.996	0.0112490
695.074	0.0111573
695.152	0.0109293
695.230	0.0107668
695.309	0.0106818
695.387	0.0105733
695.465	0.0107491
695.543	0.0108950
695.621	0.0108833
695.699	0.0110570
695.777	0.0113459
695.855	0.0116254
695.934	0.0118806
696.012	0.0122116
696.090	0.0124628
696.168	0.0127476
696.246	0.0130419
696.324	0.0132446
696.402	0.0135043
696.480	0.0137817
696.559	0.0138219
696.637	0.0139295
696.715	0.0137981
696.793	0.0138231
696.871	0.0134538
696.949	0.0134054
697.027	0.0132170
697.105	0.0129246
697.184	0.0127283
697.262	0.0126785
697.340	0.0121877
697.418	0.0121049
697.496	0.0118146
697.574	0.0115129
697.652	0.0114580
697.730	0.0113343
697.809	0.0113065
697.887	0.0113190
697.965	0.0115501
698.043	0.0114141
698.121	0.0117088
698.199	0.0121056
698.277	0.0122411
698.355	0.0125638
698.434	0.0127959
698.512	0.0132794
698.590	0.0134889
698.668	0.0136743
698.746	0.0137518
698.824	0.0140213
698.902	0.0142218
698.980	0.0141869
699.059	0.0143017
699.137	0.0141962
699.215	0.0141782
699.293	0.0139465
699.371	0.0140237
699.449	0.0137553
699.527	0.0132943
699.605	0.0130042
699.684	0.0127354
699.762	0.0124696
699.840	0.0122495
699.918	0.0120483
699.996	0.0115827
700.074	0.0114436
700.152	0.0111004
700.230	0.0109837
700.309	0.0107980
700.387	0.0108850
700.465	0.0106077
700.543	0.0104006
700.621	0.0106879
700.699	0.0106074
700.777	0.0107292
700.855	0.0110336
700.934	0.0110219
701.012	0.0113602
701.090	0.0114103
701.168	0.0115496
701.246	0.0120226
701.324	0.0124579
701.402	0.0126164
701.480	0.0127758
701.559	0.0130358
701.637	0.0132436
701.715	0.0135518
701.793	0.0136994
701.871	0.0139384
701.949	0.0139560
702.027	0.0140710
702.105	0.0140096
702.184	0.0139159
702.262	0.0139367
702.340	0.0138356
702.418	0.0136621
702.496	0.0134546
702.574	0.0133746
702.652	0.0132677
702.730	0.0129869
702.809	0.0127213
702.887	0.0125156
702.965	0.0122104
703.043	0.0121244
703.121	0.0122050
703.199	0.0120142
703.277	0.0120271
703.355	0.0118610
703.434	0.0119762
703.512	0.0119257
703.590	0.0119951
703.668	0.0121189
703.746	0.0123717
703.824	0.0124519
703.902	0.0123988
703.980	0.0125124
704.059	0.0126793
704.137	0.0128152
704.215	0.0127874
704.293	0.0129716
704.371	0.0129941
704.449	0.0131917
704.527	0.0131095
704.605	0.0130595
704.684	0.0129697
704.762	0.0129284
704.840	0.0128434
704.918	0.0128343
704.996	0.0125994
705.074	0.0125507
705.152	0.0123432
705.230	0.0123080
705.309	0.0121966
705.387	0.0120987
705.465	0.0120040
705.543	0.0119112
705.621	0.0118299
705.699	0.0116694
705.777	0.0116628
705.855	0.0116204
705.934	0.0115545
706.012	0.0116569
706.090	0.0115145
706.168	0.0114810
706.246	0.0116001
706.324	0.0115630
706.402	0.0118817
706.480	0.0118098
706.559	0.0118927
706.637	0.0121659
706.715	0.0121716
706.793	0.0123728
706.871	0.0126452
706.949	0.0127378
707.027	0.0127016
707.105	0.0130391
707.184	0.0132011
707.262	0.0132995
707.340	0.0134247
707.418	0.0135733
707.496	0.0137500
707.574	0.0138890
707.652	0.0138824
707.730	0.0139349
707.809	0.0139948
707.887	0.0140427
707.965	0.0139915
708.043	0.0140501
708.121	0.0140549
708.199	0.0139783
708.277	0.0138207
708.355	0.0138537
708.434	0.0135846
708.512	0.0133432
708.590	0.0130629
708.668	0.0128698
708.746	0.0127769
708.824	0.0125650
708.902	0.0123066
708.980	0.0121072
709.059	0.0118798
709.137	0.0115910
709.215	0.0117382
709.293	0.0114816
709.371	0.0114921
709.449	0.0113689
709.527	0.0111683
709.605	0.0110896
709.684	0.0111578
709.762	0.0113236
709.840	0.0113445
709.918	0.0113067
709.996	0.0113393
710.074	0.0113692
710.152	0.0114286
710.230	0.0116088
710.309	0.0115765
710.387	0.0117691
710.465	0.0117886
710.543	0.0118730
710.621	0.0119304
710.699	0.0121525
710.777	0.0124171
710.855	0.0123909
710.934	0.0124752
711.012	0.0126347
711.090	0.0127072
711.168	0.0126891
711.246	0.0127274
711.324	0.0127833
711.402	0.0128400
711.480	0.0128095
711.559	0.0129355
711.637	0.0129539
711.715	0.0128971
711.793	0.0130138
711.871	0.0132554
711.949	0.0132313
712.027	0.0133765
712.105	0.0135941
712.184	0.0137047
712.262	0.0136773
712.340	0.0138140
712.418	0.0139433
712.496	0.0139219
712.574	0.0139960
712.652	0.0139584
712.730	0.0139120
712.809	0.0138689
712.887	0.0139327
712.965	0.0137316
713.043	0.0133619
713.121	0.0132313
713.199	0.0131437
713.277	0.0127555
713.355	0.0124625
713.434	0.0124918
713.512	0.0121229
713.590	0.0118639
713.668	0.0116389
713.746	0.0114818
713.824	0.0113651
713.902	0.0112287
713.980	0.0109998
714.059	0.0110836
714.137	0.0111596
714.215	0.0110017
714.293	0.0109676
714.371	0.0111282
714.449	0.0112734
714.527	0.0113120
714.605	0.0113885
714.684	0.0114401
714.762	0.0117670
714.840	0.0119016
714.918	0.0118954
714.996	0.0121386
715.074	0.0122462
715.152	0.0124117
715.230	0.0124616
715.309	0.0126234
715.387	0.0126868
715.465	0.0126041
715.543	0.0126786
715.621	0.0126495
715.699	0.0127139
715.777	0.0129162
715.855	0.0128955
715.934	0.0127913
716.012	0.0126301
716.090	0.0127997
716.168	0.0126789
716.246	0.0126456
716.324	0.0126241
716.402	0.0125481
716.480	0.0126273
716.559	0.0126041
716.637	0.0127245
716.715	0.0127235
716.793	0.0127600
716.871	0.0128432
716.949	0.0129893
717.027	0.0131296
717.105	0.0134045
717.184	0.0132315
717.262	0.0135760
717.340	0.0134293
717.418	0.0135290
717.496	0.0137503
717.574	0.0136639
717.652	0.0137884
717.730	0.0137058
717.809	0.0136045
717.887	0.0134963
717.965	0.0134495
718.043	0.0132919
718.121	0.0131618
718.199	0.0129379
718.277	0.0129306
718.355	0.0127633
718.434	0.0127229
718.512	0.0126220
718.590	0.0125439
718.668	0.0124713
718.746	0.0122391
718.824	0.0122537
718.902	0.0120888
718.980	0.0121250
719.059	0.0121714
719.137	0.0120560
719.215	0.0122086
719.293	0.0121922
719.371	0.0120426
719.449	0.0119811
719.527	0.0119895
719.605	0.0117847
719.684	0.0118285
719.762	0.0118390
719.840	0.0118475
719.918	0.0117714
719.996	0.0115820
720.074	0.0117197
720.152	0.0117870
720.230	0.0117221
720.309	0.0118346
720.387	0.0118467
720.465	0.0119884
720.543	0.0119354
720.621	0.0119744
720.699	0.0120707
720.777	0.0122765
720.855	0.0122876
720.934	0.0123661
721.012	0.0125770
721.090	0.0127779
721.168	0.0126466
721.246	0.0126984
721.324	0.0129013
721.402	0.0128484
721.480	0.0128120
721.559	0.0128186
721.637	0.0128298
721.715	0.0128197
721.793	0.0129232
721.871	0.0128575
721.949	0.0128932
722.027	0.0128751
722.105	0.0130685
722.184	0.0132536
722.262	0.0131900
722.340	0.0133294
722.418	0.0134576
722.496	0.0134300
722.574	0.0136089
722.652	0.0137922
722.730	0.0137044
722.809	0.0138944
722.887	0.0139291
722.965	0.0137476
723.043	0.0137294
723.121	0.0137134
723.199	0.0135573
723.277	0.0132865
723.355	0.0130975
723.434	0.0128542
723.512	0.0128404
723.590	0.0125866
723.668	0.0123107
723.746	0.0120892
723.824	0.0118748
723.902	0.0117757
723.980	0.0117891
724.059	0.0116669
724.137	0.0116228
724.215	0.0116093
724.293	0.0117690
724.371	0.0115343
724.449	0.0114932
724.527	0.0117053
724.605	0.0116843
724.684	0.0119158
724.762	0.0119231
724.840	0.0120993
724.918	0.0119960
724.996	0.0121210
725.074	0.0123131
725.152	0.0124303
725.230	0.0123980
725.309	0.0124890
725.387	0.0128023
725.465	0.0127120
725.543	0.0126778
725.621	0.0126131
725.699	0.0125691
