05/07/2022	17:05:16	Ver.	4.1	UNKNOWN
Optical Delay	639.989416	Delta X		0.078125	Sweeps	1	Scan Rate	0/0
Coordinates	Axis 1	NaN	Axis 2	NaN	Axis 3	NaN	Axis 4	NaN	Axis 5	NaN	Axis 6	0.000000
TX Power	0.000000	RX Power	0.000000

639.989	0.0128745
640.068	0.0128244
640.146	0.0129759
640.224	0.0129552
640.302	0.0127579
640.380	0.0129340
640.458	0.0128230
640.536	0.0129233
640.614	0.0128871
640.693	0.0129094
640.771	0.0128844
640.849	0.0129478
640.927	0.0127732
641.005	0.0128573
641.083	0.0128942
641.161	0.0129070
641.239	0.0127885
641.318	0.0129436
641.396	0.0129459
641.474	0.0128758
641.552	0.0127500
641.630	0.0129583
641.708	0.0129559
641.786	0.0129715
641.864	0.0130622
641.943	0.0128723
642.021	0.0129123
642.099	0.0129128
642.177	0.0128533
642.255	0.0130889
642.333	0.0128852
642.411	0.0129333
642.489	0.0128429
642.568	0.0128233
642.646	0.0129244
642.724	0.0129684
642.802	0.0128497
642.880	0.0130402
642.958	0.0129299
643.036	0.0128808
643.114	0.0128503
643.193	0.0129455
643.271	0.0127838
643.349	0.0128293
643.427	0.0128721
643.505	0.0129188
643.583	0.0128053
643.661	0.0127963
643.739	0.0129799
643.818	0.0128170
643.896	0.0129662
643.974	0.0129033
644.052	0.0127306
644.130	0.0128289
644.208	0.0129776
644.286	0.0129321
644.364	0.0128349
644.443	0.0129793
644.521	0.0129510
644.599	0.0129121
644.677	0.0128868
644.755	0.0129764
644.833	0.0129128
644.911	0.0128964
644.989	0.0129652
645.068	0.0128728
645.146	0.0127884
645.224	0.0129110
645.302	0.0128459
645.380	0.0128826
645.458	0.0128506
645.536	0.0128922
645.614	0.0128913
645.693	0.0128783
645.771	0.0129213
645.849	0.0128206
645.927	0.0128423
646.005	0.0128627
646.083	0.0128732
646.161	0.0128375
646.239	0.0128288
646.318	0.0128329
646.396	0.0128986
646.474	0.0127998
646.552	0.0129613
646.630	0.0129566
646.708	0.0128744
646.786	0.0128478
646.864	0.0128580
646.943	0.0129581
647.021	0.0128113
647.099	0.0127824
647.177	0.0128818
647.255	0.0128950
647.333	0.0129182
647.411	0.0128087
647.489	0.0127612
647.568	0.0129264
647.646	0.0128301
647.724	0.0126774
647.802	0.0128241
647.880	0.0129260
647.958	0.0129595
648.036	0.0127869
648.114	0.0128302
648.193	0.0130130
648.271	0.0128969
648.349	0.0127262
648.427	0.0127747
648.505	0.0129605
648.583	0.0127300
648.661	0.0129458
648.739	0.0129250
648.818	0.0128026
648.896	0.0128584
648.974	0.0127473
649.052	0.0128072
649.130	0.0128157
649.208	0.0127256
649.286	0.0128846
649.364	0.0129187
649.443	0.0128876
649.521	0.0129503
649.599	0.0128801
649.677	0.0128433
649.755	0.0127776
649.833	0.0129160
649.911	0.0128853
649.989	0.0128349
650.068	0.0128798
650.146	0.0129228
650.224	0.0129220
650.302	0.0127571
650.380	0.0128168
650.458	0.0128474
650.536	0.0129604
650.614	0.0129639
650.693	0.0129252
650.771	0.0128600
650.849	0.0128378
650.927	0.0128358
651.005	0.0128180
651.083	0.0127898
651.161	0.0129375
651.239	0.0128168
651.318	0.0128665
651.396	0.0129852
651.474	0.0128945
651.552	0.0128725
651.630	0.0128024
651.708	0.0129733
651.786	0.0128645
651.864	0.0128506
651.943	0.0128086
652.021	0.0128535
652.099	0.0129370
652.177	0.0128409
652.255	0.0127464
652.333	0.0128545
652.411	0.0128683
652.489	0.0127763
652.568	0.0129517
652.646	0.0128387
652.724	0.0128793
652.802	0.0128519
652.880	0.0128325
652.958	0.0127982
653.036	0.0128134
653.114	0.0128288
653.193	0.0129557
653.271	0.0127757
653.349	0.0129236
653.427	0.0129028
653.505	0.0129040
653.583	0.0129227
653.661	0.0127882
653.739	0.0129644
653.818	0.0128767
653.896	0.0129502
653.974	0.0128615
654.052	0.0130395
654.130	0.0128954
654.208	0.0128566
654.286	0.0127698
654.364	0.0127592
654.443	0.0129021
654.521	0.0129760
654.599	0.0128996
654.677	0.0129956
654.755	0.0129612
654.833	0.0129787
654.911	0.0130257
654.989	0.0128843
655.068	0.0129267
655.146	0.0130901
655.224	0.0128714
655.302	0.0128745
655.380	0.0128281
655.458	0.0129684
655.536	0.0128225
655.614	0.0128751
655.693	0.0128812
655.771	0.0129572
655.849	0.0128208
655.927	0.0128795
656.005	0.0127937
656.083	0.0128596
656.161	0.0129243
656.239	0.0129959
656.318	0.0128088
656.396	0.0128358
656.474	0.0127887
656.552	0.0129259
656.630	0.0128446
656.708	0.0129777
656.786	0.0128160
656.864	0.0128249
656.943	0.0129189
657.021	0.0130154
657.099	0.0129144
657.177	0.0129327
657.255	0.0129368
657.333	0.0128105
657.411	0.0128744
657.489	0.0128775
657.568	0.0128556
657.646	0.0129494
657.724	0.0128533
657.802	0.0127625
657.880	0.0128864
657.958	0.0129391
658.036	0.0129024
658.114	0.0128019
658.193	0.0128965
658.271	0.0128471
658.349	0.0127085
658.427	0.0128923
658.505	0.0130147
658.583	0.0128363
658.661	0.0127754
658.739	0.0128771
658.818	0.0129760
658.896	0.0129121
658.974	0.0128863
659.052	0.0128485
659.130	0.0127283
659.208	0.0129710
659.286	0.0129572
659.364	0.0128400
659.443	0.0129034
659.521	0.0128004
659.599	0.0128806
659.677	0.0127651
659.755	0.0128406
659.833	0.0128339
659.911	0.0128056
659.989	0.0128703
660.068	0.0129126
660.146	0.0128852
660.224	0.0128027
660.302	0.0128664
660.380	0.0129982
660.458	0.0127986
660.536	0.0127934
660.614	0.0129418
660.693	0.0129568
660.771	0.0128922
660.849	0.0127020
660.927	0.0129434
661.005	0.0129277
661.083	0.0128902
661.161	0.0129357
661.239	0.0128009
661.318	0.0127198
661.396	0.0129152
661.474	0.0127882
661.552	0.0128151
661.630	0.0128307
661.708	0.0129540
661.786	0.0129240
661.864	0.0127364
661.943	0.0127904
662.021	0.0129642
662.099	0.0128332
662.177	0.0128426
662.255	0.0128666
662.333	0.0128899
662.411	0.0128932
662.489	0.0127991
662.568	0.0128505
662.646	0.0128143
662.724	0.0129808
662.802	0.0128015
662.880	0.0126915
662.958	0.0127915
663.036	0.0129432
663.114	0.0129953
663.193	0.0129176
663.271	0.0128418
663.349	0.0127406
663.427	0.0129295
663.505	0.0129173
663.583	0.0128591
663.661	0.0129129
663.739	0.0127197
663.818	0.0127566
663.896	0.0128219
663.974	0.0129634
664.052	0.0127805
664.130	0.0127975
664.208	0.0128983
664.286	0.0129858
664.364	0.0128941
664.443	0.0127166
664.521	0.0129269
664.599	0.0129372
664.677	0.0129687
664.755	0.0128152
664.833	0.0128710
664.911	0.0128548
664.989	0.0128658
665.068	0.0128633
665.146	0.0128518
665.224	0.0129009
665.302	0.0129608
665.380	0.0130639
665.458	0.0129192
665.536	0.0128777
665.614	0.0129224
665.693	0.0128934
665.771	0.0129354
665.849	0.0129543
665.927	0.0128948
666.005	0.0128632
666.083	0.0127517
666.161	0.0130231
666.239	0.0130106
666.318	0.0129313
666.396	0.0128150
666.474	0.0127277
666.552	0.0129135
666.630	0.0129441
666.708	0.0127482
666.786	0.0128407
666.864	0.0130152
666.943	0.0130199
667.021	0.0129946
667.099	0.0128671
667.177	0.0127870
667.255	0.0129213
667.333	0.0129444
667.411	0.0129282
667.489	0.0128491
667.568	0.0129526
667.646	0.0129251
667.724	0.0129083
667.802	0.0129135
667.880	0.0130042
667.958	0.0129840
668.036	0.0129021
668.114	0.0130169
668.193	0.0130242
668.271	0.0128979
668.349	0.0130099
668.427	0.0130275
668.505	0.0129618
668.583	0.0128936
668.661	0.0130167
668.739	0.0129044
668.818	0.0129758
668.896	0.0130666
668.974	0.0127870
669.052	0.0128516
669.130	0.0129454
669.208	0.0128979
669.286	0.0130080
669.364	0.0127489
669.443	0.0129004
669.521	0.0129251
669.599	0.0129582
669.677	0.0129726
669.755	0.0129263
669.833	0.0129470
669.911	0.0129607
669.989	0.0128258
670.068	0.0128689
670.146	0.0127651
670.224	0.0128083
670.302	0.0128314
670.380	0.0128521
670.458	0.0127832
670.536	0.0128224
670.614	0.0129184
670.693	0.0129881
670.771	0.0130707
670.849	0.0129273
670.927	0.0129047
671.005	0.0128434
671.083	0.0128946
671.161	0.0129105
671.239	0.0129709
671.318	0.0129898
671.396	0.0128686
671.474	0.0127989
671.552	0.0128201
671.630	0.0127851
671.708	0.0128649
671.786	0.0128783
671.864	0.0128577
671.943	0.0127344
672.021	0.0127565
672.099	0.0127843
672.177	0.0128559
672.255	0.0128461
672.333	0.0128625
672.411	0.0129076
672.489	0.0129086
672.568	0.0128725
672.646	0.0128258
672.724	0.0127093
672.802	0.0128608
672.880	0.0128441
672.958	0.0128148
673.036	0.0128849
673.114	0.0127309
673.193	0.0128745
673.271	0.0128903
673.349	0.0128004
673.427	0.0128083
673.505	0.0129459
673.583	0.0127518
673.661	0.0127514
673.739	0.0128122
673.818	0.0128235
673.896	0.0128302
673.974	0.0127398
674.052	0.0126815
674.130	0.0128384
674.208	0.0128603
674.286	0.0128844
674.364	0.0127663
674.443	0.0128415
674.521	0.0127641
674.599	0.0130034
674.677	0.0126351
674.755	0.0126496
674.833	0.0127762
674.911	0.0127809
674.989	0.0129646
675.068	0.0126152
675.146	0.0128123
675.224	0.0128143
675.302	0.0128786
675.380	0.0127396
675.458	0.0128141
675.536	0.0128903
675.614	0.0128860
675.693	0.0128060
675.771	0.0128605
675.849	0.0128902
675.927	0.0127293
676.005	0.0128540
676.083	0.0127633
676.161	0.0129105
676.239	0.0128768
676.318	0.0127982
676.396	0.0127868
676.474	0.0126711
676.552	0.0128507
676.630	0.0126440
676.708	0.0127831
676.786	0.0129399
676.864	0.0128229
676.943	0.0129099
677.021	0.0128505
677.099	0.0126753
677.177	0.0128675
677.255	0.0128671
677.333	0.0127585
677.411	0.0127941
677.489	0.0129180
677.568	0.0127466
677.646	0.0127344
677.724	0.0128519
677.802	0.0127162
677.880	0.0128613
677.958	0.0128936
678.036	0.0127115
678.114	0.0127921
678.193	0.0128208
678.271	0.0127954
678.349	0.0128728
678.427	0.0128046
678.505	0.0126630
678.583	0.0128297
678.661	0.0128059
678.739	0.0128559
678.818	0.0128205
678.896	0.0128998
678.974	0.0127981
679.052	0.0127938
679.130	0.0128329
679.208	0.0127884
679.286	0.0127567
679.364	0.0126961
679.443	0.0128571
679.521	0.0129477
679.599	0.0128830
679.677	0.0127190
679.755	0.0128471
679.833	0.0129020
679.911	0.0129839
679.989	0.0129092
680.068	0.0128508
680.146	0.0129447
680.224	0.0128353
680.302	0.0128816
680.380	0.0128971
680.458	0.0128973
680.536	0.0128004
680.614	0.0128519
680.693	0.0129317
680.771	0.0129551
680.849	0.0128216
680.927	0.0127751
681.005	0.0129662
681.083	0.0128123
681.161	0.0127742
681.239	0.0127946
681.318	0.0128613
681.396	0.0129652
681.474	0.0128265
681.552	0.0128875
681.630	0.0129477
681.708	0.0129025
681.786	0.0128978
681.864	0.0129253
681.943	0.0128009
682.021	0.0128386
682.099	0.0127770
682.177	0.0127674
682.255	0.0126740
682.333	0.0127496
682.411	0.0126149
682.489	0.0124650
682.568	0.0126634
682.646	0.0127175
682.724	0.0126671
682.802	0.0128927
682.880	0.0128313
682.958	0.0129367
683.036	0.0131954
683.114	0.0133270
683.193	0.0133602
683.271	0.0133492
683.349	0.0133713
683.427	0.0134536
683.505	0.0132626
683.583	0.0132879
683.661	0.0131400
683.739	0.0129781
683.818	0.0128047
683.896	0.0125139
683.974	0.0123640
684.052	0.0122091
684.130	0.0120657
684.208	0.0119646
684.286	0.0118360
684.364	0.0117211
684.443	0.0119202
684.521	0.0119285
684.599	0.0121172
684.677	0.0123126
684.755	0.0126998
684.833	0.0128910
684.911	0.0132958
684.989	0.0136085
685.068	0.0138937
685.146	0.0141482
685.224	0.0142100
685.302	0.0144106
685.380	0.0143531
685.458	0.0143533
685.536	0.0142871
685.614	0.0141243
685.693	0.0139985
685.771	0.0137736
685.849	0.0133375
685.927	0.0130874
686.005	0.0126714
686.083	0.0122863
686.161	0.0117872
686.239	0.0114188
686.318	0.0111177
686.396	0.0106410
686.474	0.0104258
686.552	0.0101333
686.630	0.0101231
686.708	0.0102587
686.786	0.0105502
686.864	0.0107637
686.943	0.0113067
687.021	0.0119563
687.099	0.0125701
687.177	0.0134510
687.255	0.0141006
687.333	0.0147746
687.411	0.0154266
687.489	0.0159013
687.568	0.0161098
687.646	0.0161135
687.724	0.0161700
687.802	0.0159315
687.880	0.0156934
687.958	0.0153729
688.036	0.0148989
688.114	0.0144041
688.193	0.0139059
688.271	0.0134689
688.349	0.0128436
688.427	0.0122434
688.505	0.0118020
688.583	0.0113361
688.661	0.0110725
688.739	0.0109019
688.818	0.0105208
688.896	0.0102277
688.974	0.0100674
689.052	0.0100900
689.130	0.00981255
689.208	0.00995728
689.286	0.0102509
689.364	0.0105366
689.443	0.0106004
689.521	0.0111449
689.599	0.0116232
689.677	0.0121359
689.755	0.0125183
689.833	0.0131721
689.911	0.0139570
689.989	0.0143433
690.068	0.0148772
690.146	0.0150851
690.224	0.0152734
690.302	0.0154805
690.380	0.0157671
690.458	0.0157620
690.536	0.0156580
690.614	0.0155471
690.693	0.0155719
690.771	0.0153626
690.849	0.0152638
690.927	0.0148386
691.005	0.0144522
691.083	0.0144149
691.161	0.0137999
691.239	0.0134189
691.318	0.0129197
691.396	0.0123279
691.474	0.0118467
691.552	0.0113675
691.630	0.0109354
691.708	0.0103853
691.786	0.0102000
691.864	0.00988449
691.943	0.00967842
692.021	0.00953339
692.099	0.00952461
692.177	0.00959991
692.255	0.00976097
692.333	0.0101767
692.411	0.0104560
692.489	0.0108933
692.568	0.0113622
692.646	0.0116162
692.724	0.0122186
692.802	0.0128751
692.880	0.0133433
692.958	0.0137516
693.036	0.0142923
693.114	0.0145885
693.193	0.0148920
693.271	0.0153551
693.349	0.0157845
693.427	0.0159241
693.505	0.0160980
693.583	0.0160241
693.661	0.0160251
693.739	0.0160090
693.818	0.0155602
693.896	0.0152902
693.974	0.0151094
694.052	0.0146543
694.130	0.0142679
694.208	0.0138242
694.286	0.0133611
694.364	0.0128254
694.443	0.0125053
694.521	0.0119283
694.599	0.0114955
694.677	0.0112125
694.755	0.0108458
694.833	0.0106712
694.911	0.0106693
694.989	0.0105320
695.068	0.0102953
695.146	0.0104748
695.224	0.0107755
695.302	0.0110381
695.380	0.0111388
695.458	0.0113839
695.536	0.0118038
695.614	0.0121529
695.693	0.0125317
695.771	0.0130094
695.849	0.0134161
695.927	0.0135529
696.005	0.0140378
696.083	0.0142948
696.161	0.0145599
696.239	0.0143591
696.318	0.0144172
696.396	0.0144950
696.474	0.0143267
696.552	0.0141920
696.630	0.0139278
696.708	0.0136256
696.786	0.0133881
696.864	0.0130187
696.943	0.0126320
697.021	0.0123263
697.099	0.0121323
697.177	0.0118117
697.255	0.0116734
697.333	0.0116144
697.411	0.0114143
697.489	0.0115717
697.568	0.0118073
697.646	0.0117962
697.724	0.0118877
697.802	0.0121133
697.880	0.0124210
697.958	0.0127817
698.036	0.0131138
698.114	0.0134486
698.193	0.0136841
698.271	0.0140459
698.349	0.0140938
698.427	0.0143848
698.505	0.0147221
698.583	0.0147900
698.661	0.0147848
698.739	0.0148168
698.818	0.0147165
698.896	0.0145947
698.974	0.0144560
699.052	0.0141381
699.130	0.0138632
699.208	0.0135921
699.286	0.0132919
699.364	0.0129399
699.443	0.0125443
699.521	0.0122633
699.599	0.0119160
699.677	0.0116537
699.755	0.0113533
699.833	0.0112217
699.911	0.0109373
699.989	0.0107131
700.068	0.0107052
700.146	0.0104628
700.224	0.0106010
700.302	0.0107186
700.380	0.0107431
700.458	0.0108555
700.536	0.0111777
700.614	0.0113432
700.693	0.0116576
700.771	0.0118802
700.849	0.0121722
700.927	0.0126469
701.005	0.0128822
701.083	0.0133198
701.161	0.0137659
701.239	0.0138509
701.318	0.0142623
701.396	0.0146325
701.474	0.0147436
701.552	0.0146877
701.630	0.0149468
701.708	0.0150218
701.786	0.0150638
701.864	0.0148488
701.943	0.0145438
702.021	0.0145448
702.099	0.0142707
702.177	0.0140090
702.255	0.0137967
702.333	0.0135197
702.411	0.0131453
702.489	0.0129995
702.568	0.0126206
702.646	0.0123457
702.724	0.0122181
702.802	0.0120364
702.880	0.0119530
702.958	0.0118504
703.036	0.0117770
703.114	0.0117616
703.193	0.0117227
703.271	0.0119432
703.349	0.0119024
703.427	0.0120997
703.505	0.0124628
703.583	0.0125298
703.661	0.0127718
703.739	0.0127305
703.818	0.0129663
703.896	0.0132446
703.974	0.0131979
704.052	0.0133100
704.130	0.0135054
704.208	0.0134766
704.286	0.0135344
704.364	0.0134731
704.443	0.0134679
704.521	0.0133245
704.599	0.0131479
704.677	0.0131977
704.755	0.0129054
704.833	0.0128201
704.911	0.0127247
704.989	0.0126353
705.068	0.0124071
705.146	0.0123798
705.224	0.0122244
705.302	0.0120532
705.380	0.0118322
705.458	0.0118413
705.536	0.0120419
705.614	0.0119509
705.693	0.0119492
705.771	0.0118401
705.849	0.0119041
705.927	0.0120144
706.005	0.0120922
706.083	0.0121034
706.161	0.0122066
706.239	0.0121867
706.318	0.0123505
706.396	0.0123657
706.474	0.0126601
706.552	0.0129442
706.630	0.0128089
706.708	0.0130721
706.786	0.0132498
706.864	0.0135915
706.943	0.0136736
707.021	0.0136971
707.099	0.0139085
707.177	0.0140527
707.255	0.0140788
707.333	0.0144084
707.411	0.0144951
707.489	0.0144169
707.568	0.0142873
707.646	0.0144443
707.724	0.0142973
707.802	0.0143081
707.880	0.0142747
707.958	0.0139939
708.036	0.0139501
708.114	0.0138164
708.193	0.0135128
708.271	0.0132829
708.349	0.0129958
708.427	0.0128551
708.505	0.0125112
708.583	0.0123550
708.661	0.0121299
708.739	0.0118317
708.818	0.0116244
708.896	0.0116417
708.974	0.0114423
709.052	0.0114407
709.130	0.0114044
709.208	0.0112486
709.286	0.0113975
709.364	0.0115115
709.443	0.0114611
709.521	0.0114508
709.599	0.0117105
709.677	0.0117924
709.755	0.0118616
709.833	0.0117897
709.911	0.0118993
709.989	0.0120936
710.068	0.0121902
710.146	0.0122620
710.224	0.0124428
710.302	0.0126089
710.380	0.0125861
710.458	0.0126875
710.536	0.0127940
710.614	0.0129807
710.693	0.0131432
710.771	0.0130998
710.849	0.0131100
710.927	0.0132561
711.005	0.0132193
711.083	0.0133857
711.161	0.0132566
711.239	0.0132500
711.318	0.0133510
711.396	0.0132601
711.474	0.0134435
711.552	0.0135689
711.630	0.0135192
711.708	0.0136784
711.786	0.0140076
711.864	0.0140131
711.943	0.0141216
712.021	0.0141235
712.099	0.0141717
712.177	0.0141709
712.255	0.0143015
712.333	0.0142995
712.411	0.0142077
712.489	0.0140455
712.568	0.0140323
712.646	0.0139279
712.724	0.0137093
712.802	0.0135049
712.880	0.0131462
712.958	0.0129146
713.036	0.0127506
713.114	0.0125709
713.193	0.0122299
713.271	0.0120039
713.349	0.0119352
713.427	0.0116156
713.505	0.0115215
713.583	0.0112999
713.661	0.0111226
713.739	0.0113195
713.818	0.0111998
713.896	0.0111855
713.974	0.0112946
714.052	0.0113847
714.130	0.0116546
714.208	0.0115218
714.286	0.0117760
714.364	0.0120309
714.443	0.0122144
714.521	0.0123882
714.599	0.0124545
714.677	0.0126244
714.755	0.0127781
714.833	0.0130986
714.911	0.0131194
714.989	0.0131379
715.068	0.0131696
715.146	0.0132523
715.224	0.0132049
715.302	0.0133468
715.380	0.0133198
715.458	0.0132574
715.536	0.0131432
715.614	0.0131355
715.693	0.0131139
715.771	0.0129980
715.849	0.0129250
715.927	0.0129163
716.005	0.0127695
716.083	0.0126974
716.161	0.0127907
716.239	0.0128609
716.318	0.0128926
716.396	0.0128255
716.474	0.0129565
716.552	0.0131784
716.630	0.0132734
716.708	0.0133328
716.786	0.0134640
716.864	0.0134569
716.943	0.0137769
717.021	0.0137325
717.099	0.0138773
717.177	0.0139864
717.255	0.0138672
717.333	0.0140199
717.411	0.0139658
717.489	0.0138190
717.568	0.0139842
717.646	0.0136259
717.724	0.0135310
717.802	0.0134779
717.880	0.0133454
717.958	0.0132948
718.036	0.0131930
718.114	0.0129040
718.193	0.0129316
718.271	0.0127954
718.349	0.0126775
718.427	0.0126682
718.505	0.0126620
718.583	0.0125917
718.661	0.0124226
718.739	0.0123622
718.818	0.0124385
718.896	0.0123195
718.974	0.0122807
719.052	0.0122532
719.130	0.0122203
719.208	0.0121453
719.286	0.0120845
719.364	0.0119478
719.443	0.0119810
719.521	0.0120412
719.599	0.0118487
719.677	0.0119559
719.755	0.0118425
719.833	0.0119321
719.911	0.0120049
719.989	0.0119839
720.068	0.0120296
720.146	0.0122099
720.224	0.0122326
720.302	0.0124258
720.380	0.0124886
720.458	0.0124893
720.536	0.0127601
720.614	0.0127448
720.693	0.0130695
720.771	0.0131074
720.849	0.0129150
720.927	0.0130612
721.005	0.0131318
721.083	0.0132859
721.161	0.0132431
721.239	0.0131182
721.318	0.0131830
721.396	0.0132684
721.474	0.0132569
721.552	0.0133660
721.630	0.0133260
721.708	0.0133173
721.786	0.0136642
721.864	0.0136755
721.943	0.0136090
722.021	0.0138412
722.099	0.0139944
722.177	0.0139412
722.255	0.0140364
722.333	0.0141819
722.411	0.0140514
722.489	0.0141323
722.568	0.0141717
722.646	0.0140932
722.724	0.0141795
722.802	0.0139581
722.880	0.0138512
722.958	0.0136089
723.036	0.0133622
723.114	0.0131322
723.193	0.0129848
723.271	0.0126984
723.349	0.0124991
723.427	0.0122553
723.505	0.0122983
723.583	0.0121402
723.661	0.0119934
723.739	0.0118557
723.818	0.0118763
723.896	0.0117394
723.974	0.0116615
724.052	0.0117285
724.130	0.0118366
724.208	0.0118669
724.286	0.0120523
724.364	0.0120779
724.443	0.0119543
724.521	0.0119872
724.599	0.0123137
724.677	0.0123792
724.755	0.0124020
724.833	0.0127007
724.911	0.0128322
724.989	0.0127464
725.068	0.0128011
725.146	0.0130550
725.224	0.0130597
725.302	0.0131406
725.380	0.0130647
725.458	0.0129663
725.536	0.0130215
725.614	0.0131228
725.693	0.0129673
