05/07/2022	17:06:21	Ver.	4.1	UNKNOWN
Optical Delay	639.989416	Delta X		0.078125	Sweeps	1	Scan Rate	0/0
Coordinates	Axis 1	NaN	Axis 2	NaN	Axis 3	NaN	Axis 4	NaN	Axis 5	NaN	Axis 6	0.000000
TX Power	0.000000	RX Power	0.000000

639.989	0.0121018
640.068	0.0120731
640.146	0.0121104
640.224	0.0121446
640.302	0.0120153
640.380	0.0120357
640.458	0.0121808
640.536	0.0120164
640.614	0.0120469
640.693	0.0121935
640.771	0.0121722
640.849	0.0120729
640.927	0.0121473
641.005	0.0122227
641.083	0.0121989
641.161	0.0119868
641.239	0.0120607
641.318	0.0121560
641.396	0.0120583
641.474	0.0120078
641.552	0.0120377
641.630	0.0121294
641.708	0.0120025
641.786	0.0121725
641.864	0.0121642
641.943	0.0121204
642.021	0.0122209
642.099	0.0121811
642.177	0.0121950
642.255	0.0120143
642.333	0.0120259
642.411	0.0121502
642.489	0.0120570
642.568	0.0120950
642.646	0.0120477
642.724	0.0120093
642.802	0.0120839
642.880	0.0121219
642.958	0.0120329
643.036	0.0119912
643.114	0.0120830
643.193	0.0120802
643.271	0.0120311
643.349	0.0120477
643.427	0.0119895
643.505	0.0121850
643.583	0.0120560
643.661	0.0120600
643.739	0.0121141
643.818	0.0121037
643.896	0.0121777
643.974	0.0120340
644.052	0.0119048
644.130	0.0121304
644.208	0.0120544
644.286	0.0120843
644.364	0.0120524
644.443	0.0120689
644.521	0.0120609
644.599	0.0121278
644.677	0.0120911
644.755	0.0121199
644.833	0.0121621
644.911	0.0120688
644.989	0.0121261
645.068	0.0120818
645.146	0.0121413
645.224	0.0121578
645.302	0.0120322
645.380	0.0120931
645.458	0.0121163
645.536	0.0120663
645.614	0.0120711
645.693	0.0121873
645.771	0.0120886
645.849	0.0119511
645.927	0.0121902
646.005	0.0121996
646.083	0.0120561
646.161	0.0119102
646.239	0.0120353
646.318	0.0120269
646.396	0.0120671
646.474	0.0120366
646.552	0.0121360
646.630	0.0121827
646.708	0.0120785
646.786	0.0119975
646.864	0.0120533
646.943	0.0120154
647.021	0.0119513
647.099	0.0120472
647.177	0.0120339
647.255	0.0120435
647.333	0.0122701
647.411	0.0121265
647.489	0.0121339
647.568	0.0121679
647.646	0.0121091
647.724	0.0121450
647.802	0.0120673
647.880	0.0119968
647.958	0.0121021
648.036	0.0121246
648.114	0.0120738
648.193	0.0121799
648.271	0.0120948
648.349	0.0120529
648.427	0.0120084
648.505	0.0120865
648.583	0.0121509
648.661	0.0119408
648.739	0.0121874
648.818	0.0122449
648.896	0.0120447
648.974	0.0120730
649.052	0.0120422
649.130	0.0121515
649.208	0.0121310
649.286	0.0121043
649.364	0.0120625
649.443	0.0120095
649.521	0.0120259
649.599	0.0120940
649.677	0.0121085
649.755	0.0121310
649.833	0.0119704
649.911	0.0120943
649.989	0.0121858
650.068	0.0121436
650.146	0.0121574
650.224	0.0121820
650.302	0.0121795
650.380	0.0120434
650.458	0.0119974
650.536	0.0122411
650.614	0.0122002
650.693	0.0120868
650.771	0.0121232
650.849	0.0121132
650.927	0.0121784
651.005	0.0121025
651.083	0.0120573
651.161	0.0120728
651.239	0.0121745
651.318	0.0122170
651.396	0.0121783
651.474	0.0120945
651.552	0.0121913
651.630	0.0121213
651.708	0.0120294
651.786	0.0121050
651.864	0.0120537
651.943	0.0120273
652.021	0.0121570
652.099	0.0120923
652.177	0.0121122
652.255	0.0122458
652.333	0.0121606
652.411	0.0119160
652.489	0.0122009
652.568	0.0121548
652.646	0.0122292
652.724	0.0121509
652.802	0.0121133
652.880	0.0120802
652.958	0.0121289
653.036	0.0121762
653.114	0.0121451
653.193	0.0120921
653.271	0.0121690
653.349	0.0120506
653.427	0.0120554
653.505	0.0121172
653.583	0.0121400
653.661	0.0121449
653.739	0.0120453
653.818	0.0120654
653.896	0.0120161
653.974	0.0120001
654.052	0.0120155
654.130	0.0120458
654.208	0.0120482
654.286	0.0122189
654.364	0.0121886
654.443	0.0120520
654.521	0.0120151
654.599	0.0121595
654.677	0.0121912
654.755	0.0120872
654.833	0.0122176
654.911	0.0121624
654.989	0.0120346
655.068	0.0121374
655.146	0.0121248
655.224	0.0121088
655.302	0.0122166
655.380	0.0120233
655.458	0.0120393
655.536	0.0120398
655.614	0.0121363
655.693	0.0121808
655.771	0.0121992
655.849	0.0119901
655.927	0.0120724
656.005	0.0121465
656.083	0.0120695
656.161	0.0121318
656.239	0.0121634
656.318	0.0122470
656.396	0.0121091
656.474	0.0121020
656.552	0.0120743
656.630	0.0119847
656.708	0.0122359
656.786	0.0121069
656.864	0.0121679
656.943	0.0121981
657.021	0.0121186
657.099	0.0121672
657.177	0.0120634
657.255	0.0119743
657.333	0.0121879
657.411	0.0121526
657.489	0.0120930
657.568	0.0120930
657.646	0.0120234
657.724	0.0120526
657.802	0.0120773
657.880	0.0120862
657.958	0.0119885
658.036	0.0122424
658.114	0.0122033
658.193	0.0118721
658.271	0.0120885
658.349	0.0121125
658.427	0.0122306
658.505	0.0121531
658.583	0.0121396
658.661	0.0121483
658.739	0.0121000
658.818	0.0120456
658.896	0.0121214
658.974	0.0122494
659.052	0.0120423
659.130	0.0121623
659.208	0.0122456
659.286	0.0120139
659.364	0.0121437
659.443	0.0120906
659.521	0.0120682
659.599	0.0120968
659.677	0.0121174
659.755	0.0121900
659.833	0.0120774
659.911	0.0120527
659.989	0.0120967
660.068	0.0121484
660.146	0.0121056
660.224	0.0120890
660.302	0.0121925
660.380	0.0121130
660.458	0.0121431
660.536	0.0119933
660.614	0.0120719
660.693	0.0121008
660.771	0.0120525
660.849	0.0120063
660.927	0.0121077
661.005	0.0120853
661.083	0.0120990
661.161	0.0121373
661.239	0.0121862
661.318	0.0121490
661.396	0.0121749
661.474	0.0120840
661.552	0.0122092
661.630	0.0120993
661.708	0.0121476
661.786	0.0120779
661.864	0.0121753
661.943	0.0121861
662.021	0.0121896
662.099	0.0120654
662.177	0.0121863
662.255	0.0121536
662.333	0.0120557
662.411	0.0121851
662.489	0.0121365
662.568	0.0121025
662.646	0.0121342
662.724	0.0122099
662.802	0.0121262
662.880	0.0122502
662.958	0.0122276
663.036	0.0120840
663.114	0.0121985
663.193	0.0121320
663.271	0.0120610
663.349	0.0120687
663.427	0.0122894
663.505	0.0121941
663.583	0.0121087
663.661	0.0121895
663.739	0.0122227
663.818	0.0121642
663.896	0.0119933
663.974	0.0121858
664.052	0.0123577
664.130	0.0121605
664.208	0.0122135
664.286	0.0121545
664.364	0.0122134
664.443	0.0122836
664.521	0.0122019
664.599	0.0120313
664.677	0.0121273
664.755	0.0122408
664.833	0.0121839
664.911	0.0122484
664.989	0.0122533
665.068	0.0122692
665.146	0.0121750
665.224	0.0122368
665.302	0.0122346
665.380	0.0121706
665.458	0.0121648
665.536	0.0123358
665.614	0.0121613
665.693	0.0122151
665.771	0.0122947
665.849	0.0120708
665.927	0.0123084
666.005	0.0122025
666.083	0.0120653
666.161	0.0120760
666.239	0.0121531
666.318	0.0120888
666.396	0.0120939
666.474	0.0121552
666.552	0.0123029
666.630	0.0120506
666.708	0.0122294
666.786	0.0121903
666.864	0.0120438
666.943	0.0121767
667.021	0.0122231
667.099	0.0121510
667.177	0.0122408
667.255	0.0122330
667.333	0.0121915
667.411	0.0120931
667.489	0.0121924
667.568	0.0121362
667.646	0.0120898
667.724	0.0121629
667.802	0.0121861
667.880	0.0121593
667.958	0.0121496
668.036	0.0122392
668.114	0.0120863
668.193	0.0121374
668.271	0.0121664
668.349	0.0120840
668.427	0.0121751
668.505	0.0122220
668.583	0.0121697
668.661	0.0121659
668.739	0.0122415
668.818	0.0122931
668.896	0.0121626
668.974	0.0123660
669.052	0.0121816
669.130	0.0120716
669.208	0.0121146
669.286	0.0121439
669.364	0.0121324
669.443	0.0121310
669.521	0.0120816
669.599	0.0119744
669.677	0.0120845
669.755	0.0122436
669.833	0.0122018
669.911	0.0120384
669.989	0.0120655
670.068	0.0120658
670.146	0.0121281
670.224	0.0120981
670.302	0.0122569
670.380	0.0122568
670.458	0.0121227
670.536	0.0121334
670.614	0.0121432
670.693	0.0121626
670.771	0.0120615
670.849	0.0121619
670.927	0.0122064
671.005	0.0121397
671.083	0.0121805
671.161	0.0121861
671.239	0.0121499
671.318	0.0121765
671.396	0.0121358
671.474	0.0121477
671.552	0.0120731
671.630	0.0121583
671.708	0.0121731
671.786	0.0121571
671.864	0.0121119
671.943	0.0121479
672.021	0.0122276
672.099	0.0120402
672.177	0.0122612
672.255	0.0120966
672.333	0.0119849
672.411	0.0121438
672.489	0.0120927
672.568	0.0121611
672.646	0.0120263
672.724	0.0121452
672.802	0.0121529
672.880	0.0121397
672.958	0.0120660
673.036	0.0121423
673.114	0.0119348
673.193	0.0120280
673.271	0.0121586
673.349	0.0121349
673.427	0.0121937
673.505	0.0120601
673.583	0.0121398
673.661	0.0119832
673.739	0.0122629
673.818	0.0120387
673.896	0.0121091
673.974	0.0121790
674.052	0.0120686
674.130	0.0121380
674.208	0.0119286
674.286	0.0120497
674.364	0.0121516
674.443	0.0121667
674.521	0.0120899
674.599	0.0121384
674.677	0.0122219
674.755	0.0121410
674.833	0.0119994
674.911	0.0120393
674.989	0.0120597
675.068	0.0121642
675.146	0.0121671
675.224	0.0120260
675.302	0.0120547
675.380	0.0120800
675.458	0.0120422
675.536	0.0119880
675.614	0.0120936
675.693	0.0122142
675.771	0.0120369
675.849	0.0121145
675.927	0.0120463
676.005	0.0121332
676.083	0.0119576
676.161	0.0121629
676.239	0.0120324
676.318	0.0120432
676.396	0.0119963
676.474	0.0121195
676.552	0.0121134
676.630	0.0120418
676.708	0.0120961
676.786	0.0119876
676.864	0.0120412
676.943	0.0120450
677.021	0.0120248
677.099	0.0120685
677.177	0.0121647
677.255	0.0120399
677.333	0.0119585
677.411	0.0121108
677.489	0.0121880
677.568	0.0120834
677.646	0.0120150
677.724	0.0120403
677.802	0.0120660
677.880	0.0120266
677.958	0.0120561
678.036	0.0120912
678.114	0.0121165
678.193	0.0121507
678.271	0.0120706
678.349	0.0120330
678.427	0.0120264
678.505	0.0121077
678.583	0.0121767
678.661	0.0119242
678.739	0.0121173
678.818	0.0121168
678.896	0.0122558
678.974	0.0121690
679.052	0.0119602
679.130	0.0120488
679.208	0.0121758
679.286	0.0119293
679.364	0.0121300
679.443	0.0120925
679.521	0.0120538
679.599	0.0120605
679.677	0.0120345
679.755	0.0121006
679.833	0.0120750
679.911	0.0121394
679.989	0.0123309
680.068	0.0121505
680.146	0.0120550
680.224	0.0119972
680.302	0.0121889
680.380	0.0121086
680.458	0.0120396
680.536	0.0119875
680.614	0.0119095
680.693	0.0119141
680.771	0.0119047
680.849	0.0119261
680.927	0.0119319
681.005	0.0119148
681.083	0.0119595
681.161	0.0121352
681.239	0.0122359
681.318	0.0124165
681.396	0.0122966
681.474	0.0123846
681.552	0.0125452
681.630	0.0125684
681.708	0.0124322
681.786	0.0125707
681.864	0.0124480
681.943	0.0124657
682.021	0.0123860
682.099	0.0121972
682.177	0.0120556
682.255	0.0118475
682.333	0.0118801
682.411	0.0114913
682.489	0.0113614
682.568	0.0113456
682.646	0.0111914
682.724	0.0113486
682.802	0.0114368
682.880	0.0114381
682.958	0.0115676
683.036	0.0116237
683.114	0.0119071
683.193	0.0119933
683.271	0.0123830
683.349	0.0126878
683.427	0.0128661
683.505	0.0129264
683.583	0.0131093
683.661	0.0131668
683.739	0.0132275
683.818	0.0131411
683.896	0.0132099
683.974	0.0130048
684.052	0.0128329
684.130	0.0129913
684.208	0.0125641
684.286	0.0124562
684.364	0.0123898
684.443	0.0120504
684.521	0.0118164
684.599	0.0113558
684.677	0.0112499
684.755	0.0109473
684.833	0.0106071
684.911	0.0103596
684.989	0.0101860
685.068	0.0100860
685.146	0.00980675
685.224	0.00986565
685.302	0.0100761
685.380	0.0103754
685.458	0.0106881
685.536	0.0112257
685.614	0.0117713
685.693	0.0122074
685.771	0.0127908
685.849	0.0134647
685.927	0.0142111
686.005	0.0144487
686.083	0.0147919
686.161	0.0150079
686.239	0.0152280
686.318	0.0152183
686.396	0.0150399
686.474	0.0147411
686.552	0.0143018
686.630	0.0139551
686.708	0.0135132
686.786	0.0130659
686.864	0.0126885
686.943	0.0121309
687.021	0.0118520
687.099	0.0113673
687.177	0.0108455
687.255	0.0105439
687.333	0.0103081
687.411	0.00999931
687.489	0.00963814
687.568	0.00936089
687.646	0.00911209
687.724	0.00893021
687.802	0.00892998
687.880	0.00903496
687.958	0.00910805
688.036	0.00933113
688.114	0.00973953
688.193	0.0101060
688.271	0.0105482
688.349	0.0114381
688.427	0.0119793
688.505	0.0126142
688.583	0.0131538
688.661	0.0136878
688.739	0.0145509
688.818	0.0149003
688.896	0.0152817
688.974	0.0157361
689.052	0.0157693
689.130	0.0158481
689.208	0.0159441
689.286	0.0158987
689.364	0.0156561
689.443	0.0154803
689.521	0.0150385
689.599	0.0147258
689.677	0.0141549
689.755	0.0134108
689.833	0.0130482
689.911	0.0124412
689.989	0.0117545
690.068	0.0109879
690.146	0.0104620
690.224	0.00978416
690.302	0.00941216
690.380	0.00884193
690.458	0.00845833
690.536	0.00819199
690.614	0.00774818
690.693	0.00783211
690.771	0.00754364
690.849	0.00789886
690.927	0.00803368
691.005	0.00844666
691.083	0.00875252
691.161	0.00933090
691.239	0.00992455
691.318	0.0104607
691.396	0.0111283
691.474	0.0119337
691.552	0.0126737
691.630	0.0133970
691.708	0.0139944
691.786	0.0147628
691.864	0.0153425
691.943	0.0158196
692.021	0.0161872
692.099	0.0165311
692.177	0.0168084
692.255	0.0167632
692.333	0.0167711
692.411	0.0167898
692.489	0.0165617
692.568	0.0161723
692.646	0.0157590
692.724	0.0153399
692.802	0.0147577
692.880	0.0139887
692.958	0.0133226
693.036	0.0123487
693.114	0.0114902
693.193	0.0107022
693.271	0.0100245
693.349	0.00938629
693.427	0.00872780
693.505	0.00811600
693.583	0.00780563
693.661	0.00764000
693.739	0.00768127
693.818	0.00763733
693.896	0.00781151
693.974	0.00806725
694.052	0.00847206
694.130	0.00898087
694.208	0.00954659
694.286	0.0101492
694.364	0.0107231
694.443	0.0114410
694.521	0.0119744
694.599	0.0126580
694.677	0.0132648
694.755	0.0137254
694.833	0.0140675
694.911	0.0144405
694.989	0.0146252
695.068	0.0149288
695.146	0.0150974
695.224	0.0151133
695.302	0.0149607
695.380	0.0147070
695.458	0.0145239
695.536	0.0142864
695.614	0.0138354
695.693	0.0132764
695.771	0.0128694
695.849	0.0125682
695.927	0.0119725
696.005	0.0115448
696.083	0.0112354
696.161	0.0108038
696.239	0.0108205
696.318	0.0106207
696.396	0.0108067
696.474	0.0107413
696.552	0.0109764
696.630	0.0110412
696.708	0.0112644
696.786	0.0115876
696.864	0.0119369
696.943	0.0121423
697.021	0.0124146
697.099	0.0126652
697.177	0.0129394
697.255	0.0130842
697.333	0.0131984
697.411	0.0133031
697.489	0.0134073
697.568	0.0134361
697.646	0.0133086
697.724	0.0131964
697.802	0.0128250
697.880	0.0127277
697.958	0.0125325
698.036	0.0121012
698.114	0.0118306
698.193	0.0114977
698.271	0.0111737
698.349	0.0108916
698.427	0.0108139
698.505	0.0104686
698.583	0.0103091
698.661	0.0101623
698.739	0.00990784
698.818	0.00990257
698.896	0.00974747
698.974	0.00961266
699.052	0.00972595
699.130	0.00984940
699.208	0.0100436
699.286	0.0100688
699.364	0.0105527
699.443	0.0107752
699.521	0.0112614
699.599	0.0118286
699.677	0.0122132
699.755	0.0126217
699.833	0.0131581
699.911	0.0138229
699.989	0.0141320
700.068	0.0146928
700.146	0.0149039
700.224	0.0153123
700.302	0.0153166
700.380	0.0153920
700.458	0.0155868
700.536	0.0154703
700.614	0.0151646
700.693	0.0150355
700.771	0.0147064
700.849	0.0142531
700.927	0.0138729
701.005	0.0133420
701.083	0.0127715
701.161	0.0122375
701.239	0.0118227
701.318	0.0112009
701.396	0.0105976
701.474	0.0105489
701.552	0.0101509
701.630	0.00977776
701.708	0.00967644
701.786	0.00940041
701.864	0.00953285
701.943	0.00953629
702.021	0.00962982
702.099	0.00986649
702.177	0.0101580
702.255	0.0104818
702.333	0.0106493
702.411	0.0110483
702.489	0.0114017
702.568	0.0117647
702.646	0.0120549
702.724	0.0123029
702.802	0.0126373
702.880	0.0129148
702.958	0.0129153
703.036	0.0129729
703.114	0.0131186
703.193	0.0130627
703.271	0.0131995
703.349	0.0130289
703.427	0.0130357
703.505	0.0130294
703.583	0.0127373
703.661	0.0126893
703.739	0.0125392
703.818	0.0123438
703.896	0.0122898
703.974	0.0120396
704.052	0.0119910
704.130	0.0117883
704.208	0.0116399
704.286	0.0115999
704.364	0.0114668
704.443	0.0114190
704.521	0.0113317
704.599	0.0113081
704.677	0.0112767
704.755	0.0113692
704.833	0.0113161
704.911	0.0110795
704.989	0.0112759
705.068	0.0115632
705.146	0.0115816
705.224	0.0117632
705.302	0.0117960
705.380	0.0120370
705.458	0.0123695
705.536	0.0126110
705.614	0.0126257
705.693	0.0127211
705.771	0.0130752
705.849	0.0132930
705.927	0.0133369
706.005	0.0135313
706.083	0.0136934
706.161	0.0138577
706.239	0.0139503
706.318	0.0138903
706.396	0.0136446
706.474	0.0138010
706.552	0.0134836
706.630	0.0133604
706.708	0.0130952
706.786	0.0126919
706.864	0.0125510
706.943	0.0123035
707.021	0.0118742
707.099	0.0115115
707.177	0.0113673
707.255	0.0111083
707.333	0.0106744
707.411	0.0106750
707.489	0.0104284
707.568	0.0104043
707.646	0.0104291
707.724	0.0102125
707.802	0.0102323
707.880	0.0102052
707.958	0.0102386
708.036	0.0102601
708.114	0.0102966
708.193	0.0102625
708.271	0.0105106
708.349	0.0105515
708.427	0.0106567
708.505	0.0108360
708.583	0.0111387
708.661	0.0112583
708.739	0.0114130
708.818	0.0117152
708.896	0.0119904
708.974	0.0122274
709.052	0.0125655
709.130	0.0124681
709.208	0.0126755
709.286	0.0128375
709.364	0.0130426
709.443	0.0131831
709.521	0.0131874
709.599	0.0130870
709.677	0.0131924
709.755	0.0131178
709.833	0.0131317
709.911	0.0131578
709.989	0.0131734
710.068	0.0132934
710.146	0.0131361
710.224	0.0130347
710.302	0.0131271
710.380	0.0131463
710.458	0.0130564
710.536	0.0129284
710.614	0.0127677
710.693	0.0127766
710.771	0.0129063
710.849	0.0127045
710.927	0.0126030
711.005	0.0124659
711.083	0.0123946
711.161	0.0122771
711.239	0.0121561
711.318	0.0122237
711.396	0.0121031
711.474	0.0117714
711.552	0.0117505
711.630	0.0117134
711.708	0.0115079
711.786	0.0112985
711.864	0.0112051
711.943	0.0110313
712.021	0.0109583
712.099	0.0109020
712.177	0.0107844
712.255	0.0107057
712.333	0.0107021
712.411	0.0106593
712.489	0.0105939
712.568	0.0107867
712.646	0.0109369
712.724	0.0109689
712.802	0.0110516
712.880	0.0111210
712.958	0.0114237
713.036	0.0117351
713.114	0.0117914
713.193	0.0118876
713.271	0.0121056
713.349	0.0123433
713.427	0.0125838
713.505	0.0125663
713.583	0.0126629
713.661	0.0126784
713.739	0.0128590
713.818	0.0127319
713.896	0.0126908
713.974	0.0127657
714.052	0.0127091
714.130	0.0125439
714.208	0.0126008
714.286	0.0124790
714.364	0.0123830
714.443	0.0123348
714.521	0.0121154
714.599	0.0121426
714.677	0.0120429
714.755	0.0119759
714.833	0.0119281
714.911	0.0118546
714.989	0.0117725
715.068	0.0118035
715.146	0.0118919
715.224	0.0118847
715.302	0.0120144
715.380	0.0121457
715.458	0.0123922
715.536	0.0124847
715.614	0.0124995
715.693	0.0126897
715.771	0.0129968
715.849	0.0131712
715.927	0.0131841
716.005	0.0132150
716.083	0.0133195
716.161	0.0133775
716.239	0.0134187
716.318	0.0133590
716.396	0.0134062
716.474	0.0131562
716.552	0.0130543
716.630	0.0129267
716.708	0.0126853
716.786	0.0126407
716.864	0.0124548
716.943	0.0121760
717.021	0.0119366
717.099	0.0119267
717.177	0.0118363
717.255	0.0118264
717.333	0.0114828
717.411	0.0113575
717.489	0.0113596
717.568	0.0111918
717.646	0.0111456
717.724	0.0110149
717.802	0.0108487
717.880	0.0107064
717.958	0.0108234
718.036	0.0108607
718.114	0.0108630
718.193	0.0107604
718.271	0.0108495
718.349	0.0107800
718.427	0.0109135
718.505	0.0109927
718.583	0.0113242
718.661	0.0113148
718.739	0.0114207
718.818	0.0116721
718.896	0.0117674
718.974	0.0120921
719.052	0.0122220
719.130	0.0123456
719.208	0.0124642
719.286	0.0126976
719.364	0.0127070
719.443	0.0127254
719.521	0.0127858
719.599	0.0128111
719.677	0.0128143
719.755	0.0128092
719.833	0.0126041
719.911	0.0126028
719.989	0.0127602
720.068	0.0129906
720.146	0.0127300
720.224	0.0126440
720.302	0.0127261
720.380	0.0127994
720.458	0.0128471
720.536	0.0128366
720.614	0.0130118
720.693	0.0132887
720.771	0.0132652
720.849	0.0133509
720.927	0.0132740
721.005	0.0133767
721.083	0.0133420
721.161	0.0133539
721.239	0.0132354
721.318	0.0132553
721.396	0.0130668
721.474	0.0129425
721.552	0.0128663
721.630	0.0127552
721.708	0.0125671
721.786	0.0121180
721.864	0.0122345
721.943	0.0119933
722.021	0.0117779
722.099	0.0116417
722.177	0.0113998
722.255	0.0111826
722.333	0.0110339
722.411	0.0110667
722.489	0.0109069
722.568	0.0108145
722.646	0.0107524
722.724	0.0108006
722.802	0.0107716
722.880	0.0107650
722.958	0.0108259
723.036	0.0108400
723.114	0.0109554
723.193	0.0111457
723.271	0.0112212
723.349	0.0113028
723.427	0.0113594
723.505	0.0116256
723.583	0.0118900
723.661	0.0118929
723.739	0.0119070
723.818	0.0120483
723.896	0.0122849
723.974	0.0122631
724.052	0.0123167
724.130	0.0122294
724.208	0.0123108
724.286	0.0125336
724.364	0.0124421
724.443	0.0123951
724.521	0.0122504
724.599	0.0122437
724.677	0.0122906
724.755	0.0122411
724.833	0.0121564
724.911	0.0121066
724.989	0.0119714
725.068	0.0120390
725.146	0.0120449
725.224	0.0121561
725.302	0.0122043
725.380	0.0122449
725.458	0.0122134
