05/07/2022	17:06:41	Ver.	4.1	UNKNOWN
Optical Delay	639.989416	Delta X		0.078125	Sweeps	1	Scan Rate	0/0
Coordinates	Axis 1	NaN	Axis 2	NaN	Axis 3	NaN	Axis 4	NaN	Axis 5	NaN	Axis 6	0.000000
TX Power	0.000000	RX Power	0.000000

639.989	0.0125437
640.068	0.0126969
640.146	0.0124798
640.224	0.0124628
640.302	0.0125360
640.380	0.0125160
640.458	0.0125548
640.536	0.0124392
640.614	0.0125720
640.693	0.0125344
640.771	0.0124019
640.849	0.0125822
640.927	0.0124800
641.005	0.0124960
641.083	0.0126881
641.161	0.0124996
641.239	0.0123719
641.318	0.0125050
641.396	0.0125806
641.474	0.0125250
641.552	0.0124654
641.630	0.0125383
641.708	0.0124389
641.786	0.0125974
641.864	0.0124884
641.943	0.0125395
642.021	0.0125407
642.099	0.0124782
642.177	0.0125482
642.255	0.0125567
642.333	0.0125333
642.411	0.0127103
642.489	0.0124490
642.568	0.0125100
642.646	0.0124572
642.724	0.0125140
642.802	0.0126528
642.880	0.0123936
642.958	0.0125520
643.036	0.0125438
643.114	0.0124904
643.193	0.0124851
643.271	0.0125053
643.349	0.0124634
643.427	0.0124078
643.505	0.0125636
643.583	0.0126417
643.661	0.0125009
643.739	0.0124036
643.818	0.0126934
643.896	0.0126190
643.974	0.0125729
644.052	0.0125113
644.130	0.0124467
644.208	0.0125109
644.286	0.0123215
644.364	0.0124686
644.443	0.0125069
644.521	0.0124794
644.599	0.0124126
644.677	0.0125072
644.755	0.0124313
644.833	0.0124022
644.911	0.0125262
644.989	0.0125121
645.068	0.0125187
645.146	0.0125782
645.224	0.0125140
645.302	0.0124860
645.380	0.0124362
645.458	0.0124993
645.536	0.0124607
645.614	0.0125092
645.693	0.0124297
645.771	0.0124271
645.849	0.0124891
645.927	0.0124814
646.005	0.0125339
646.083	0.0125150
646.161	0.0125265
646.239	0.0126142
646.318	0.0125959
646.396	0.0125324
646.474	0.0124436
646.552	0.0126948
646.630	0.0125340
646.708	0.0125417
646.786	0.0125610
646.864	0.0126440
646.943	0.0123337
647.021	0.0125187
647.099	0.0124635
647.177	0.0124358
647.255	0.0124590
647.333	0.0125941
647.411	0.0125205
647.489	0.0125495
647.568	0.0124615
647.646	0.0124865
647.724	0.0125973
647.802	0.0126608
647.880	0.0124478
647.958	0.0124618
648.036	0.0125082
648.114	0.0125806
648.193	0.0126935
648.271	0.0124296
648.349	0.0124081
648.427	0.0125695
648.505	0.0124829
648.583	0.0125640
648.661	0.0125570
648.739	0.0124530
648.818	0.0124029
648.896	0.0126413
648.974	0.0124301
649.052	0.0126253
649.130	0.0126105
649.208	0.0124864
649.286	0.0125475
649.364	0.0124756
649.443	0.0125280
649.521	0.0126246
649.599	0.0126995
649.677	0.0124892
649.755	0.0125066
649.833	0.0124938
649.911	0.0125564
649.989	0.0125499
650.068	0.0126633
650.146	0.0124815
650.224	0.0124664
650.302	0.0125313
650.380	0.0125401
650.458	0.0125567
650.536	0.0125172
650.614	0.0125551
650.693	0.0125293
650.771	0.0126414
650.849	0.0124817
650.927	0.0124829
651.005	0.0124505
651.083	0.0125306
651.161	0.0124738
651.239	0.0124198
651.318	0.0125167
651.396	0.0125819
651.474	0.0125024
651.552	0.0125433
651.630	0.0125114
651.708	0.0124442
651.786	0.0125108
651.864	0.0125308
651.943	0.0125543
652.021	0.0125051
652.099	0.0125353
652.177	0.0125512
652.255	0.0124104
652.333	0.0126118
652.411	0.0125291
652.489	0.0125195
652.568	0.0124789
652.646	0.0125259
652.724	0.0126631
652.802	0.0126202
652.880	0.0126241
652.958	0.0125671
653.036	0.0125797
653.114	0.0124903
653.193	0.0124961
653.271	0.0125782
653.349	0.0125945
653.427	0.0125700
653.505	0.0124538
653.583	0.0125861
653.661	0.0124030
653.739	0.0126505
653.818	0.0126089
653.896	0.0125020
653.974	0.0124944
654.052	0.0123729
654.130	0.0125771
654.208	0.0125377
654.286	0.0124775
654.364	0.0124683
654.443	0.0126413
654.521	0.0125435
654.599	0.0126143
654.677	0.0124314
654.755	0.0126345
654.833	0.0125681
654.911	0.0125789
654.989	0.0123886
655.068	0.0125560
655.146	0.0126146
655.224	0.0125513
655.302	0.0123777
655.380	0.0124436
655.458	0.0128432
655.536	0.0125162
655.614	0.0125842
655.693	0.0125711
655.771	0.0124622
655.849	0.0125432
655.927	0.0124799
656.005	0.0125146
656.083	0.0125341
656.161	0.0126709
656.239	0.0123540
656.318	0.0125259
656.396	0.0126099
656.474	0.0124693
656.552	0.0126019
656.630	0.0126232
656.708	0.0124614
656.786	0.0125031
656.864	0.0125154
656.943	0.0125774
657.021	0.0125275
657.099	0.0124775
657.177	0.0125685
657.255	0.0125553
657.333	0.0125319
657.411	0.0125291
657.489	0.0125307
657.568	0.0126154
657.646	0.0126197
657.724	0.0125201
657.802	0.0125403
657.880	0.0124902
657.958	0.0124466
658.036	0.0124273
658.114	0.0125564
658.193	0.0125885
658.271	0.0124869
658.349	0.0123613
658.427	0.0124902
658.505	0.0126118
658.583	0.0125400
658.661	0.0124702
658.739	0.0126092
658.818	0.0125287
658.896	0.0124347
658.974	0.0125392
659.052	0.0125474
659.130	0.0124828
659.208	0.0125627
659.286	0.0125645
659.364	0.0125315
659.443	0.0125357
659.521	0.0126236
659.599	0.0125311
659.677	0.0125040
659.755	0.0125611
659.833	0.0124709
659.911	0.0125902
659.989	0.0125288
660.068	0.0125788
660.146	0.0125578
660.224	0.0125907
660.302	0.0126035
660.380	0.0124869
660.458	0.0127081
660.536	0.0125358
660.614	0.0126179
660.693	0.0124209
660.771	0.0125642
660.849	0.0125487
660.927	0.0126592
661.005	0.0125040
661.083	0.0125313
661.161	0.0125472
661.239	0.0125608
661.318	0.0125729
661.396	0.0125912
661.474	0.0124458
661.552	0.0125718
661.630	0.0124697
661.708	0.0125000
661.786	0.0126073
661.864	0.0127066
661.943	0.0125716
662.021	0.0125619
662.099	0.0125657
662.177	0.0126436
662.255	0.0126246
662.333	0.0125793
662.411	0.0125337
662.489	0.0125983
662.568	0.0125393
662.646	0.0125131
662.724	0.0126009
662.802	0.0124368
662.880	0.0125375
662.958	0.0124751
663.036	0.0125563
663.114	0.0125340
663.193	0.0124316
663.271	0.0125975
663.349	0.0126041
663.427	0.0126153
663.505	0.0125497
663.583	0.0126369
663.661	0.0128672
663.739	0.0126908
663.818	0.0124342
663.896	0.0125433
663.974	0.0125412
664.052	0.0125482
664.130	0.0127924
664.208	0.0126031
664.286	0.0125809
664.364	0.0126331
664.443	0.0124694
664.521	0.0126513
664.599	0.0126331
664.677	0.0127237
664.755	0.0125852
664.833	0.0125115
664.911	0.0126007
664.989	0.0126221
665.068	0.0126488
665.146	0.0126199
665.224	0.0125383
665.302	0.0124876
665.380	0.0126563
665.458	0.0127399
665.536	0.0127126
665.614	0.0126384
665.693	0.0125489
665.771	0.0126630
665.849	0.0125441
665.927	0.0124759
666.005	0.0126382
666.083	0.0125558
666.161	0.0125768
666.239	0.0125364
666.318	0.0125552
666.396	0.0125542
666.474	0.0126064
666.552	0.0125909
666.630	0.0125203
666.708	0.0125205
666.786	0.0126162
666.864	0.0126620
666.943	0.0126582
667.021	0.0124611
667.099	0.0125582
667.177	0.0124999
667.255	0.0125734
667.333	0.0126286
667.411	0.0125968
667.489	0.0126068
667.568	0.0125851
667.646	0.0125789
667.724	0.0124870
667.802	0.0125509
667.880	0.0127198
667.958	0.0124930
668.036	0.0125637
668.114	0.0126109
668.193	0.0124567
668.271	0.0125271
668.349	0.0125253
668.427	0.0124947
668.505	0.0124938
668.583	0.0124849
668.661	0.0126764
668.739	0.0125826
668.818	0.0125411
668.896	0.0124568
668.974	0.0124727
669.052	0.0125683
669.130	0.0126254
669.208	0.0125249
669.286	0.0124274
669.364	0.0126043
669.443	0.0125809
669.521	0.0125830
669.599	0.0125740
669.677	0.0124127
669.755	0.0125799
669.833	0.0125006
669.911	0.0125275
669.989	0.0124520
670.068	0.0124162
670.146	0.0125447
670.224	0.0125336
670.302	0.0126351
670.380	0.0127212
670.458	0.0125090
670.536	0.0125112
670.614	0.0124628
670.693	0.0127927
670.771	0.0124487
670.849	0.0124326
670.927	0.0125363
671.005	0.0125784
671.083	0.0125710
671.161	0.0124769
671.239	0.0125433
671.318	0.0125047
671.396	0.0123956
671.474	0.0125375
671.552	0.0125396
671.630	0.0125092
671.708	0.0126317
671.786	0.0125835
671.864	0.0125879
671.943	0.0126398
672.021	0.0126003
672.099	0.0126245
672.177	0.0125684
672.255	0.0125655
672.333	0.0125533
672.411	0.0125665
672.489	0.0124925
672.568	0.0123991
672.646	0.0125437
672.724	0.0124992
672.802	0.0125526
672.880	0.0125294
672.958	0.0124551
673.036	0.0124947
673.114	0.0124563
673.193	0.0125836
673.271	0.0125072
673.349	0.0125855
673.427	0.0124424
673.505	0.0125103
673.583	0.0125518
673.661	0.0125070
673.739	0.0125592
673.818	0.0125866
673.896	0.0123875
673.974	0.0124122
674.052	0.0124832
674.130	0.0124887
674.208	0.0125803
674.286	0.0126339
674.364	0.0125490
674.443	0.0125900
674.521	0.0126148
674.599	0.0123560
674.677	0.0124677
674.755	0.0125702
674.833	0.0125462
674.911	0.0126294
674.989	0.0125998
675.068	0.0125503
675.146	0.0125232
675.224	0.0124301
675.302	0.0124581
675.380	0.0125117
675.458	0.0124554
675.536	0.0125494
675.614	0.0124222
675.693	0.0124551
675.771	0.0125434
675.849	0.0125180
675.927	0.0124638
676.005	0.0126671
676.083	0.0127152
676.161	0.0124652
676.239	0.0125184
676.318	0.0124960
676.396	0.0122903
676.474	0.0126057
676.552	0.0126084
676.630	0.0126112
676.708	0.0125459
676.786	0.0124904
676.864	0.0125373
676.943	0.0125233
677.021	0.0124826
677.099	0.0125906
677.177	0.0124731
677.255	0.0126079
677.333	0.0126363
677.411	0.0126181
677.489	0.0125502
677.568	0.0124974
677.646	0.0125427
677.724	0.0126003
677.802	0.0125874
677.880	0.0125903
677.958	0.0125155
678.036	0.0124847
678.114	0.0126273
678.193	0.0124466
678.271	0.0124947
678.349	0.0123914
678.427	0.0124680
678.505	0.0126109
678.583	0.0125279
678.661	0.0123814
678.739	0.0123279
678.818	0.0126180
678.896	0.0126649
678.974	0.0125170
679.052	0.0125598
679.130	0.0123792
679.208	0.0124386
679.286	0.0125445
679.364	0.0124023
679.443	0.0125342
679.521	0.0125021
679.599	0.0124192
679.677	0.0125889
679.755	0.0125526
679.833	0.0124793
679.911	0.0124535
679.989	0.0127104
680.068	0.0124769
680.146	0.0125468
680.224	0.0125546
680.302	0.0124966
680.380	0.0126646
680.458	0.0124766
680.536	0.0124615
680.614	0.0125244
680.693	0.0123821
680.771	0.0122759
680.849	0.0122916
680.927	0.0123502
681.005	0.0124731
681.083	0.0126524
681.161	0.0125124
681.239	0.0126387
681.318	0.0127574
681.396	0.0127209
681.474	0.0128677
681.552	0.0129340
681.630	0.0129620
681.708	0.0130174
681.786	0.0129488
681.864	0.0128918
681.943	0.0129078
682.021	0.0126588
682.099	0.0127541
682.177	0.0126274
682.255	0.0124684
682.333	0.0121221
682.411	0.0120270
682.489	0.0121297
682.568	0.0119037
682.646	0.0119362
682.724	0.0118327
682.802	0.0117751
682.880	0.0119455
682.958	0.0119830
683.036	0.0122264
683.114	0.0124059
683.193	0.0125579
683.271	0.0129881
683.349	0.0130167
683.427	0.0131685
683.505	0.0134400
683.583	0.0135687
683.661	0.0137048
683.739	0.0137124
683.818	0.0136182
683.896	0.0135841
683.974	0.0135670
684.052	0.0133301
684.130	0.0131779
684.208	0.0131409
684.286	0.0129907
684.364	0.0127318
684.443	0.0125198
684.521	0.0123077
684.599	0.0119888
684.677	0.0119022
684.755	0.0114910
684.833	0.0111654
684.911	0.0110215
684.989	0.0108245
685.068	0.0107083
685.146	0.0107102
685.224	0.0106799
685.302	0.0108414
685.380	0.0108971
685.458	0.0113179
685.536	0.0116518
685.614	0.0119891
685.693	0.0125620
685.771	0.0131506
685.849	0.0134252
685.927	0.0138962
686.005	0.0145135
686.083	0.0148589
686.161	0.0150591
686.239	0.0152999
686.318	0.0152557
686.396	0.0152705
686.474	0.0153309
686.552	0.0151077
686.630	0.0146756
686.708	0.0144039
686.786	0.0139999
686.864	0.0136200
686.943	0.0131142
687.021	0.0126873
687.099	0.0123802
687.177	0.0119550
687.255	0.0115179
687.333	0.0110156
687.411	0.0106723
687.489	0.0104102
687.568	0.0101177
687.646	0.00989624
687.724	0.00973640
687.802	0.00938400
687.880	0.00941429
687.958	0.00946640
688.036	0.00957626
688.114	0.00988838
688.193	0.0102933
688.271	0.0106442
688.349	0.0112556
688.427	0.0117956
688.505	0.0126064
688.583	0.0131470
688.661	0.0139362
688.739	0.0144276
688.818	0.0150310
688.896	0.0154544
688.974	0.0158431
689.052	0.0163351
689.130	0.0163570
689.208	0.0164532
689.286	0.0163744
689.364	0.0162341
689.443	0.0160677
689.521	0.0158424
689.599	0.0154956
689.677	0.0150401
689.755	0.0145892
689.833	0.0141733
689.911	0.0135395
689.989	0.0130614
690.068	0.0122977
690.146	0.0118300
690.224	0.0110156
690.302	0.0104539
690.380	0.00972595
690.458	0.00943626
690.536	0.00884209
690.614	0.00859436
690.693	0.00843132
690.771	0.00816544
690.849	0.00788155
690.927	0.00807014
691.005	0.00842133
691.083	0.00869240
691.161	0.00901863
691.239	0.00959663
691.318	0.0102084
691.396	0.0108722
691.474	0.0114174
691.552	0.0120185
691.630	0.0128155
691.708	0.0136463
691.786	0.0142705
691.864	0.0149911
691.943	0.0155370
692.021	0.0161002
692.099	0.0166724
692.177	0.0171864
692.255	0.0173337
692.333	0.0173379
692.411	0.0173943
692.489	0.0175571
692.568	0.0173989
692.646	0.0170313
692.724	0.0167609
692.802	0.0162148
692.880	0.0155271
692.958	0.0148882
693.036	0.0142955
693.114	0.0134293
693.193	0.0125296
693.271	0.0117028
693.349	0.0107880
693.427	0.0102193
693.505	0.00940239
693.583	0.00876656
693.661	0.00833633
693.739	0.00790474
693.818	0.00765930
693.896	0.00760925
693.974	0.00776505
694.052	0.00793045
694.130	0.00837029
694.208	0.00878853
694.286	0.00923645
694.364	0.00994522
694.443	0.0105620
694.521	0.0111169
694.599	0.0118068
694.677	0.0125572
694.755	0.0132278
694.833	0.0136372
694.911	0.0140111
694.989	0.0146673
695.068	0.0149942
695.146	0.0152472
695.224	0.0155080
695.302	0.0157091
695.380	0.0157619
695.458	0.0157910
695.536	0.0156469
695.614	0.0152711
695.693	0.0150860
695.771	0.0148867
695.849	0.0143062
695.927	0.0139588
696.005	0.0136324
696.083	0.0128905
696.161	0.0125940
696.239	0.0121432
696.318	0.0118249
696.396	0.0114955
696.474	0.0113623
696.552	0.0113564
696.630	0.0113864
696.708	0.0114425
696.786	0.0114377
696.864	0.0118210
696.943	0.0117968
697.021	0.0120187
697.099	0.0124149
697.177	0.0127241
697.255	0.0128830
697.333	0.0128721
697.411	0.0130946
697.489	0.0131883
697.568	0.0132772
697.646	0.0133696
697.724	0.0132616
697.802	0.0132191
697.880	0.0130226
697.958	0.0127688
698.036	0.0126954
698.114	0.0125888
698.193	0.0121797
698.271	0.0119373
698.349	0.0115565
698.427	0.0115730
698.505	0.0112206
698.583	0.0112347
698.661	0.0110373
698.739	0.0108404
698.818	0.0106909
698.896	0.0107026
698.974	0.0105614
699.052	0.0106055
699.130	0.0105529
699.208	0.0106056
699.286	0.0107126
699.364	0.0109232
699.443	0.0112104
699.521	0.0114257
699.599	0.0119073
699.677	0.0123260
699.755	0.0127711
699.833	0.0132497
699.911	0.0137520
699.989	0.0142091
700.068	0.0146856
700.146	0.0150419
700.224	0.0155515
700.302	0.0157620
700.380	0.0157821
700.458	0.0159429
700.536	0.0160400
700.614	0.0158765
700.693	0.0157483
700.771	0.0154662
700.849	0.0151437
700.927	0.0147202
701.005	0.0141942
701.083	0.0136729
701.161	0.0132892
701.239	0.0128191
701.318	0.0121822
701.396	0.0116343
701.474	0.0111653
701.552	0.0108486
701.630	0.0105386
701.708	0.0102321
701.786	0.0101459
701.864	0.00991112
701.943	0.00984261
702.021	0.00979660
702.099	0.00989319
702.177	0.0100066
702.255	0.0101926
702.333	0.0105788
702.411	0.0108678
702.489	0.0109902
702.568	0.0115076
702.646	0.0118426
702.724	0.0119953
702.802	0.0123671
702.880	0.0127039
702.958	0.0129063
703.036	0.0131061
703.114	0.0134662
703.193	0.0137102
703.271	0.0136728
703.349	0.0137400
703.427	0.0137962
703.505	0.0137850
703.583	0.0136654
703.661	0.0136573
703.739	0.0135165
703.818	0.0133759
703.896	0.0132430
703.974	0.0132504
704.052	0.0130218
704.130	0.0127659
704.208	0.0128556
704.286	0.0126185
704.364	0.0124731
704.443	0.0123244
704.521	0.0122351
704.599	0.0118784
704.677	0.0118895
704.755	0.0118729
704.833	0.0117602
704.911	0.0116759
704.989	0.0118371
705.068	0.0116320
705.146	0.0116502
705.224	0.0118964
705.302	0.0119241
705.380	0.0118938
705.458	0.0122161
705.536	0.0123776
705.614	0.0124609
705.693	0.0126817
705.771	0.0130153
705.849	0.0132471
705.927	0.0133721
706.005	0.0136515
706.083	0.0138189
706.161	0.0140923
706.239	0.0141949
706.318	0.0142399
706.396	0.0142336
706.474	0.0142554
706.552	0.0141516
706.630	0.0141913
706.708	0.0140050
706.786	0.0138182
706.864	0.0135418
706.943	0.0131911
707.021	0.0127284
707.099	0.0125005
707.177	0.0121731
707.255	0.0119574
707.333	0.0116875
707.411	0.0113422
707.489	0.0111850
707.568	0.0110625
707.646	0.0109444
707.724	0.0108229
707.802	0.0108288
707.880	0.0106898
707.958	0.0105293
708.036	0.0107749
708.114	0.0107162
708.193	0.0107401
708.271	0.0106701
708.349	0.0107502
708.427	0.0110455
708.505	0.0110201
708.583	0.0113164
708.661	0.0114530
708.739	0.0116354
708.818	0.0119369
708.896	0.0122866
708.974	0.0126344
709.052	0.0127713
709.130	0.0128234
709.208	0.0131712
709.286	0.0133627
709.364	0.0136703
709.443	0.0138054
709.521	0.0138090
709.599	0.0137785
709.677	0.0140015
709.755	0.0140374
709.833	0.0141079
709.911	0.0142097
709.989	0.0140272
710.068	0.0141053
710.146	0.0140610
710.224	0.0140455
710.302	0.0140038
710.380	0.0139346
710.458	0.0139356
710.536	0.0137684
710.614	0.0135609
710.693	0.0133564
710.771	0.0133817
710.849	0.0132953
710.927	0.0129105
711.005	0.0128654
711.083	0.0127465
711.161	0.0126693
711.239	0.0123698
711.318	0.0122231
711.396	0.0121429
711.474	0.0121043
711.552	0.0119547
711.630	0.0118391
711.708	0.0117944
711.786	0.0115636
711.864	0.0116702
711.943	0.0116319
712.021	0.0115372
712.099	0.0115069
712.177	0.0113527
712.255	0.0114132
712.333	0.0112608
712.411	0.0113239
712.489	0.0114379
712.568	0.0113789
712.646	0.0114842
712.724	0.0115384
712.802	0.0116044
712.880	0.0118492
712.958	0.0119044
713.036	0.0120447
713.114	0.0123775
713.193	0.0124357
713.271	0.0126804
713.349	0.0129492
713.427	0.0130898
713.505	0.0133469
713.583	0.0134191
713.661	0.0132794
713.739	0.0134377
713.818	0.0134142
713.896	0.0133728
713.974	0.0132125
714.052	0.0132029
714.130	0.0130598
714.208	0.0130729
714.286	0.0129814
714.364	0.0129398
714.443	0.0127693
714.521	0.0127533
714.599	0.0126645
714.677	0.0126441
714.755	0.0124477
714.833	0.0122330
714.911	0.0122993
714.989	0.0122883
715.068	0.0122643
715.146	0.0122714
715.224	0.0121930
715.302	0.0121593
715.380	0.0124025
715.458	0.0123675
715.536	0.0125665
715.614	0.0127716
715.693	0.0128648
715.771	0.0130781
715.849	0.0133333
715.927	0.0134486
716.005	0.0136028
716.083	0.0137605
716.161	0.0138057
716.239	0.0137605
716.318	0.0139456
716.396	0.0140247
716.474	0.0138317
716.552	0.0138360
716.630	0.0137429
716.708	0.0133952
716.786	0.0133740
716.864	0.0133075
716.943	0.0129792
717.021	0.0129193
717.099	0.0126979
717.177	0.0125467
717.255	0.0124900
717.333	0.0122543
717.411	0.0120055
717.489	0.0117847
717.568	0.0119122
717.646	0.0116566
717.724	0.0114697
717.802	0.0113731
717.880	0.0112318
717.958	0.0111555
718.036	0.0110672
718.114	0.0109853
718.193	0.0110326
718.271	0.0111421
718.349	0.0112008
718.427	0.0112557
718.505	0.0112244
718.583	0.0114256
718.661	0.0114977
718.739	0.0116892
718.818	0.0119048
718.896	0.0118517
718.974	0.0123499
719.052	0.0124770
719.130	0.0125924
719.208	0.0127452
719.286	0.0128413
719.364	0.0130518
719.443	0.0131655
719.521	0.0132327
719.599	0.0133601
719.677	0.0132882
719.755	0.0132273
719.833	0.0131811
719.911	0.0133018
719.989	0.0132521
720.068	0.0132729
720.146	0.0132853
720.224	0.0133678
720.302	0.0132452
720.380	0.0132649
720.458	0.0132494
720.536	0.0134157
720.614	0.0135531
720.693	0.0135694
720.771	0.0138016
720.849	0.0137896
720.927	0.0138303
721.005	0.0138216
721.083	0.0139274
721.161	0.0139156
721.239	0.0137244
721.318	0.0138284
721.396	0.0136454
721.474	0.0134373
721.552	0.0133921
721.630	0.0132948
721.708	0.0131023
721.786	0.0128685
721.864	0.0126595
721.943	0.0123926
722.021	0.0123194
722.099	0.0121161
722.177	0.0119329
722.255	0.0116593
722.333	0.0115987
722.411	0.0115163
722.489	0.0114305
722.568	0.0113615
722.646	0.0112257
722.724	0.0110878
722.802	0.0112655
722.880	0.0113080
722.958	0.0111988
723.036	0.0113618
723.114	0.0114669
723.193	0.0114672
723.271	0.0116371
723.349	0.0117168
723.427	0.0119286
723.505	0.0119945
723.583	0.0122300
723.661	0.0123653
723.739	0.0124863
723.818	0.0125861
723.896	0.0128329
723.974	0.0129349
724.052	0.0128949
724.130	0.0129610
724.208	0.0129092
724.286	0.0128913
724.364	0.0129763
724.443	0.0129768
724.521	0.0128863
724.599	0.0127744
724.677	0.0128275
724.755	0.0126933
724.833	0.0127173
724.911	0.0125809
724.989	0.0126812
725.068	0.0125677
725.146	0.0126472
725.224	0.0125761
725.302	0.0126162
725.380	0.0126347
725.458	0.0127231
725.536	0.0127156
