05/07/2022	17:07:16	Ver.	4.1	UNKNOWN
Optical Delay	639.989416	Delta X		0.078125	Sweeps	1	Scan Rate	0/0
Coordinates	Axis 1	NaN	Axis 2	NaN	Axis 3	NaN	Axis 4	NaN	Axis 5	NaN	Axis 6	0.000000
TX Power	0.000000	RX Power	0.000000

639.989	0.0130444
640.068	0.0129744
640.146	0.0130459
640.224	0.0130108
640.302	0.0130405
640.380	0.0129602
640.458	0.0130096
640.536	0.0129803
640.614	0.0129527
640.693	0.0131194
640.771	0.0130448
640.849	0.0130000
640.927	0.0129729
641.005	0.0130273
641.083	0.0129674
641.161	0.0130691
641.239	0.0131090
641.318	0.0131177
641.396	0.0130294
641.474	0.0130030
641.552	0.0129375
641.630	0.0130866
641.708	0.0130338
641.786	0.0129808
641.864	0.0130204
641.943	0.0130414
642.021	0.0129598
642.099	0.0131491
642.177	0.0129633
642.255	0.0129904
642.333	0.0130080
642.411	0.0130695
642.489	0.0130910
642.568	0.0129565
642.646	0.0130273
642.724	0.0129726
642.802	0.0130753
642.880	0.0128995
642.958	0.0131676
643.036	0.0131216
643.114	0.0130901
643.193	0.0129707
643.271	0.0128849
643.349	0.0129617
643.427	0.0130143
643.505	0.0129858
643.583	0.0131334
643.661	0.0131683
643.739	0.0130923
643.818	0.0128926
643.896	0.0129591
643.974	0.0130224
644.052	0.0130254
644.130	0.0130070
644.208	0.0129160
644.286	0.0130975
644.364	0.0129685
644.443	0.0130632
644.521	0.0130828
644.599	0.0130360
644.677	0.0129857
644.755	0.0130125
644.833	0.0130450
644.911	0.0130590
644.989	0.0129021
645.068	0.0129374
645.146	0.0131872
645.224	0.0131127
645.302	0.0129874
645.380	0.0130354
645.458	0.0131132
645.536	0.0129482
645.614	0.0131445
645.693	0.0129774
645.771	0.0131021
645.849	0.0131332
645.927	0.0129866
646.005	0.0130558
646.083	0.0131118
646.161	0.0130392
646.239	0.0130441
646.318	0.0130014
646.396	0.0130143
646.474	0.0131464
646.552	0.0129003
646.630	0.0130736
646.708	0.0130074
646.786	0.0128890
646.864	0.0130130
646.943	0.0131050
647.021	0.0130103
647.099	0.0130535
647.177	0.0130151
647.255	0.0130621
647.333	0.0130500
647.411	0.0131129
647.489	0.0130334
647.568	0.0130072
647.646	0.0129056
647.724	0.0131341
647.802	0.0131368
647.880	0.0130547
647.958	0.0127937
648.036	0.0130138
648.114	0.0130656
648.193	0.0131268
648.271	0.0129544
648.349	0.0131070
648.427	0.0130322
648.505	0.0129859
648.583	0.0130619
648.661	0.0131199
648.739	0.0130841
648.818	0.0129871
648.896	0.0129827
648.974	0.0131000
649.052	0.0129200
649.130	0.0129947
649.208	0.0131290
649.286	0.0129760
649.364	0.0129609
649.443	0.0130128
649.521	0.0131578
649.599	0.0128611
649.677	0.0130453
649.755	0.0130162
649.833	0.0130424
649.911	0.0131196
649.989	0.0129909
650.068	0.0130450
650.146	0.0130806
650.224	0.0130057
650.302	0.0131450
650.380	0.0130649
650.458	0.0130831
650.536	0.0130711
650.614	0.0131542
650.693	0.0130094
650.771	0.0129855
650.849	0.0129915
650.927	0.0130947
651.005	0.0130186
651.083	0.0128770
651.161	0.0129082
651.239	0.0130970
651.318	0.0130531
651.396	0.0129760
651.474	0.0129355
651.552	0.0130413
651.630	0.0131100
651.708	0.0130370
651.786	0.0129719
651.864	0.0129397
651.943	0.0130402
652.021	0.0130754
652.099	0.0130067
652.177	0.0130691
652.255	0.0128931
652.333	0.0129852
652.411	0.0129045
652.489	0.0130063
652.568	0.0130460
652.646	0.0130143
652.724	0.0130055
652.802	0.0129408
652.880	0.0128754
652.958	0.0130138
653.036	0.0130367
653.114	0.0129524
653.193	0.0129662
653.271	0.0131269
653.349	0.0129895
653.427	0.0128773
653.505	0.0130240
653.583	0.0130686
653.661	0.0130892
653.739	0.0130074
653.818	0.0130258
653.896	0.0129749
653.974	0.0132140
654.052	0.0128928
654.130	0.0129829
654.208	0.0129539
654.286	0.0130621
654.364	0.0130286
654.443	0.0130782
654.521	0.0131698
654.599	0.0131013
654.677	0.0129781
654.755	0.0130181
654.833	0.0130239
654.911	0.0131021
654.989	0.0130272
655.068	0.0130671
655.146	0.0130379
655.224	0.0129854
655.302	0.0131742
655.380	0.0131550
655.458	0.0129311
655.536	0.0130772
655.614	0.0130797
655.693	0.0129219
655.771	0.0130487
655.849	0.0130609
655.927	0.0130783
656.005	0.0130438
656.083	0.0129758
656.161	0.0131784
656.239	0.0130026
656.318	0.0130059
656.396	0.0130661
656.474	0.0129859
656.552	0.0129710
656.630	0.0128036
656.708	0.0130827
656.786	0.0130026
656.864	0.0129776
656.943	0.0129869
657.021	0.0130519
657.099	0.0130182
657.177	0.0130000
657.255	0.0130338
657.333	0.0131065
657.411	0.0130994
657.489	0.0129189
657.568	0.0130760
657.646	0.0130773
657.724	0.0130541
657.802	0.0129910
657.880	0.0130318
657.958	0.0128397
658.036	0.0129762
658.114	0.0130983
658.193	0.0130632
658.271	0.0130965
658.349	0.0129643
658.427	0.0131927
658.505	0.0129232
658.583	0.0127911
658.661	0.0129403
658.739	0.0131039
658.818	0.0131592
658.896	0.0130932
658.974	0.0131240
659.052	0.0130972
659.130	0.0129939
659.208	0.0130093
659.286	0.0130706
659.364	0.0129504
659.443	0.0129461
659.521	0.0131268
659.599	0.0131462
659.677	0.0130409
659.755	0.0129945
659.833	0.0130251
659.911	0.0130595
659.989	0.0130479
660.068	0.0129733
660.146	0.0130991
660.224	0.0130198
660.302	0.0131651
660.380	0.0131595
660.458	0.0131304
660.536	0.0130512
660.614	0.0130902
660.693	0.0130735
660.771	0.0130758
660.849	0.0131015
660.927	0.0130646
661.005	0.0130645
661.083	0.0131586
661.161	0.0130643
661.239	0.0130016
661.318	0.0130278
661.396	0.0128970
661.474	0.0131215
661.552	0.0129568
661.630	0.0131157
661.708	0.0131306
661.786	0.0130884
661.864	0.0130765
661.943	0.0130826
662.021	0.0131231
662.099	0.0129607
662.177	0.0131983
662.255	0.0131133
662.333	0.0130981
662.411	0.0130624
662.489	0.0129868
662.568	0.0131387
662.646	0.0130830
662.724	0.0131582
662.802	0.0129234
662.880	0.0129880
662.958	0.0131138
663.036	0.0130463
663.114	0.0130915
663.193	0.0129862
663.271	0.0130199
663.349	0.0130840
663.427	0.0130348
663.505	0.0131555
663.583	0.0130582
663.661	0.0130479
663.739	0.0130020
663.818	0.0130479
663.896	0.0130851
663.974	0.0130843
664.052	0.0129763
664.130	0.0131220
664.208	0.0130422
664.286	0.0130603
664.364	0.0131268
664.443	0.0129788
664.521	0.0131170
664.599	0.0131613
664.677	0.0130496
664.755	0.0130293
664.833	0.0130886
664.911	0.0129947
664.989	0.0129387
665.068	0.0130445
665.146	0.0129100
665.224	0.0131776
665.302	0.0131265
665.380	0.0129494
665.458	0.0129487
665.536	0.0129586
665.614	0.0130541
665.693	0.0129816
665.771	0.0131760
665.849	0.0129285
665.927	0.0130380
666.005	0.0130990
666.083	0.0130919
666.161	0.0130184
666.239	0.0128767
666.318	0.0130301
666.396	0.0128020
666.474	0.0129873
666.552	0.0130389
666.630	0.0130019
666.708	0.0130121
666.786	0.0130206
666.864	0.0130054
666.943	0.0129623
667.021	0.0129536
667.099	0.0131697
667.177	0.0131657
667.255	0.0130306
667.333	0.0129473
667.411	0.0130322
667.489	0.0130229
667.568	0.0130429
667.646	0.0132175
667.724	0.0131895
667.802	0.0129067
667.880	0.0130206
667.958	0.0130338
668.036	0.0130951
668.114	0.0128906
668.193	0.0130480
668.271	0.0130007
668.349	0.0129478
668.427	0.0130112
668.505	0.0130913
668.583	0.0131361
668.661	0.0132153
668.739	0.0129131
668.818	0.0129884
668.896	0.0130112
668.974	0.0130267
669.052	0.0131377
669.130	0.0128954
669.208	0.0129971
669.286	0.0130901
669.364	0.0130469
669.443	0.0131719
669.521	0.0130474
669.599	0.0129885
669.677	0.0131084
669.755	0.0130618
669.833	0.0131108
669.911	0.0130448
669.989	0.0131195
670.068	0.0130114
670.146	0.0130723
670.224	0.0130294
670.302	0.0129363
670.380	0.0130308
670.458	0.0130010
670.536	0.0129687
670.614	0.0129694
670.693	0.0129819
670.771	0.0130740
670.849	0.0130257
670.927	0.0129415
671.005	0.0129255
671.083	0.0128303
671.161	0.0130538
671.239	0.0129945
671.318	0.0131791
671.396	0.0129021
671.474	0.0129756
671.552	0.0130139
671.630	0.0130502
671.708	0.0131065
671.786	0.0130142
671.864	0.0130517
671.943	0.0129380
672.021	0.0129656
672.099	0.0129030
672.177	0.0129252
672.255	0.0129967
672.333	0.0131118
672.411	0.0130297
672.489	0.0131470
672.568	0.0130718
672.646	0.0129375
672.724	0.0130980
672.802	0.0129835
672.880	0.0129497
672.958	0.0130228
673.036	0.0130086
673.114	0.0129445
673.193	0.0129012
673.271	0.0129648
673.349	0.0130472
673.427	0.0131364
673.505	0.0130704
673.583	0.0129852
673.661	0.0129876
673.739	0.0130599
673.818	0.0129581
673.896	0.0129326
673.974	0.0130099
674.052	0.0131432
674.130	0.0130658
674.208	0.0129359
674.286	0.0130667
674.364	0.0129634
674.443	0.0129079
674.521	0.0128438
674.599	0.0130716
674.677	0.0131232
674.755	0.0130570
674.833	0.0130162
674.911	0.0131026
674.989	0.0131090
675.068	0.0129278
675.146	0.0129813
675.224	0.0129981
675.302	0.0129803
675.380	0.0129908
675.458	0.0129836
675.536	0.0129948
675.614	0.0131062
675.693	0.0129943
675.771	0.0129442
675.849	0.0130470
675.927	0.0128976
676.005	0.0130732
676.083	0.0131905
676.161	0.0130059
676.239	0.0129916
676.318	0.0130459
676.396	0.0130467
676.474	0.0130272
676.552	0.0129546
676.630	0.0130016
676.708	0.0129439
676.786	0.0129395
676.864	0.0129931
676.943	0.0129872
677.021	0.0129466
677.099	0.0130566
677.177	0.0128773
677.255	0.0131184
677.333	0.0129843
677.411	0.0129752
677.489	0.0129655
677.568	0.0130213
677.646	0.0130030
677.724	0.0128590
677.802	0.0128981
677.880	0.0129404
677.958	0.0130161
678.036	0.0129208
678.114	0.0130369
678.193	0.0129816
678.271	0.0129994
678.349	0.0129176
678.427	0.0130805
678.505	0.0130153
678.583	0.0130695
678.661	0.0129739
678.739	0.0131165
678.818	0.0131297
678.896	0.0130608
678.974	0.0130077
679.052	0.0129373
679.130	0.0129528
679.208	0.0128773
679.286	0.0129873
679.364	0.0129710
679.443	0.0128572
679.521	0.0130188
679.599	0.0130592
679.677	0.0131758
679.755	0.0132619
679.833	0.0131751
679.911	0.0132556
679.989	0.0134712
680.068	0.0133776
680.146	0.0133569
680.224	0.0133788
680.302	0.0133422
680.380	0.0133088
680.458	0.0132014
680.536	0.0131223
680.614	0.0130345
680.693	0.0128683
680.771	0.0127969
680.849	0.0126402
680.927	0.0127497
681.005	0.0126207
681.083	0.0124680
681.161	0.0125415
681.239	0.0124391
681.318	0.0123944
681.396	0.0124883
681.474	0.0126525
681.552	0.0126880
681.630	0.0129569
681.708	0.0132079
681.786	0.0132408
681.864	0.0132944
681.943	0.0136843
682.021	0.0136609
682.099	0.0137041
682.177	0.0138884
682.255	0.0139117
682.333	0.0137349
682.411	0.0137750
682.489	0.0138698
682.568	0.0137854
682.646	0.0137182
682.724	0.0135683
682.802	0.0134375
682.880	0.0131474
682.958	0.0131817
683.036	0.0128779
683.114	0.0127325
683.193	0.0123830
683.271	0.0120765
683.349	0.0119214
683.427	0.0116173
683.505	0.0113770
683.583	0.0113404
683.661	0.0113976
683.739	0.0113689
683.818	0.0113730
683.896	0.0115820
683.974	0.0118318
684.052	0.0121143
684.130	0.0125178
684.208	0.0130122
684.286	0.0133523
684.364	0.0139169
684.443	0.0141010
684.521	0.0145937
684.599	0.0146922
684.677	0.0147734
684.755	0.0148321
684.833	0.0150408
684.911	0.0149638
684.989	0.0149133
685.068	0.0147811
685.146	0.0143997
685.224	0.0144427
685.302	0.0143342
685.380	0.0140376
685.458	0.0137679
685.536	0.0137066
685.614	0.0135127
685.693	0.0133281
685.771	0.0130015
685.849	0.0126830
685.927	0.0122469
686.005	0.0118126
686.083	0.0115773
686.161	0.0111588
686.239	0.0109463
686.318	0.0105317
686.396	0.0104124
686.474	0.0101714
686.552	0.0100271
686.630	0.0100451
686.708	0.0102219
686.786	0.0103532
686.864	0.0106993
686.943	0.0110233
687.021	0.0114034
687.099	0.0121518
687.177	0.0126704
687.255	0.0134197
687.333	0.0140648
687.411	0.0146349
687.489	0.0155398
687.568	0.0159927
687.646	0.0162699
687.724	0.0168214
687.802	0.0170371
687.880	0.0170673
687.958	0.0171303
688.036	0.0168487
688.114	0.0167382
688.193	0.0163107
688.271	0.0158765
688.349	0.0154956
688.427	0.0147771
688.505	0.0142863
688.583	0.0137027
688.661	0.0131391
688.739	0.0125785
688.818	0.0120724
688.896	0.0115141
688.974	0.0111668
689.052	0.0106274
689.130	0.0101398
689.208	0.00998619
689.286	0.00957642
689.364	0.00935394
689.443	0.00921196
689.521	0.00898575
689.599	0.00905106
689.677	0.00918098
689.755	0.00931206
689.833	0.00939049
689.911	0.00973160
689.989	0.00987434
690.068	0.0103104
690.146	0.0110413
690.224	0.0116074
690.302	0.0121933
690.380	0.0130145
690.458	0.0137859
690.536	0.0144183
690.614	0.0151962
690.693	0.0158960
690.771	0.0163203
690.849	0.0171410
690.927	0.0176090
691.005	0.0179566
691.083	0.0182549
691.161	0.0185085
691.239	0.0186803
691.318	0.0185002
691.396	0.0183587
691.474	0.0178585
691.552	0.0173460
691.630	0.0167465
691.708	0.0158903
691.786	0.0150042
691.864	0.0141071
691.943	0.0131162
692.021	0.0123024
692.099	0.0113277
692.177	0.0107346
692.255	0.00991211
692.333	0.00933617
692.411	0.00883606
692.489	0.00845505
692.568	0.00827881
692.646	0.00807426
692.724	0.00802605
692.802	0.00816216
692.880	0.00825798
692.958	0.00847626
693.036	0.00877876
693.114	0.00929817
693.193	0.00971840
693.271	0.0101628
693.349	0.0108791
693.427	0.0114380
693.505	0.0119380
693.583	0.0125725
693.661	0.0132580
693.739	0.0139796
693.818	0.0144720
693.896	0.0149442
693.974	0.0155119
694.052	0.0159653
694.130	0.0162631
694.208	0.0165613
694.286	0.0168976
694.364	0.0168976
694.443	0.0170494
694.521	0.0169750
694.599	0.0167578
694.677	0.0164410
694.755	0.0160693
694.833	0.0156673
694.911	0.0151044
694.989	0.0148303
695.068	0.0142119
695.146	0.0137584
695.224	0.0132455
695.302	0.0127710
695.380	0.0124601
695.458	0.0123739
695.536	0.0119982
695.614	0.0119530
695.693	0.0119302
695.771	0.0119133
695.849	0.0119482
695.927	0.0118879
696.005	0.0119257
696.083	0.0120026
696.161	0.0119688
696.239	0.0119880
696.318	0.0121120
696.396	0.0120291
696.474	0.0118455
696.552	0.0119831
696.630	0.0118287
696.708	0.0117914
696.786	0.0117714
696.864	0.0117133
696.943	0.0115135
697.021	0.0114688
697.099	0.0114131
697.177	0.0114113
697.255	0.0113569
697.333	0.0114371
697.411	0.0115014
697.489	0.0115690
697.568	0.0115557
697.646	0.0116589
697.724	0.0119095
697.802	0.0120348
697.880	0.0121853
697.958	0.0122906
698.036	0.0126130
698.114	0.0129628
698.193	0.0132629
698.271	0.0133422
698.349	0.0136266
698.427	0.0142477
698.505	0.0144550
698.583	0.0147964
698.661	0.0151044
698.739	0.0154712
698.818	0.0157104
698.896	0.0159480
698.974	0.0162239
699.052	0.0163421
699.130	0.0164181
699.208	0.0164336
699.286	0.0164449
699.364	0.0161398
699.443	0.0158148
699.521	0.0153990
699.599	0.0151470
699.677	0.0147218
699.755	0.0141154
699.833	0.0136556
699.911	0.0132245
699.989	0.0126749
700.068	0.0120592
700.146	0.0117104
700.224	0.0113100
700.302	0.0109398
700.380	0.0105866
700.458	0.0101327
700.536	0.00995010
700.614	0.00974052
700.693	0.00969002
700.771	0.00966118
700.849	0.00968193
700.927	0.00966667
701.005	0.00998428
701.083	0.0102483
701.161	0.0105136
701.239	0.0108649
701.318	0.0111333
701.396	0.0115028
701.474	0.0120100
701.552	0.0121910
701.630	0.0128350
701.708	0.0129893
701.786	0.0133871
701.864	0.0137222
701.943	0.0140071
702.021	0.0142628
702.099	0.0143294
702.177	0.0147074
702.255	0.0146659
702.333	0.0148782
702.411	0.0148792
702.489	0.0147393
702.568	0.0146923
702.646	0.0145739
702.724	0.0146576
702.802	0.0147307
702.880	0.0144901
702.958	0.0144577
703.036	0.0142854
703.114	0.0141320
703.193	0.0138863
703.271	0.0137681
703.349	0.0135622
703.427	0.0132810
703.505	0.0129523
703.583	0.0126215
703.661	0.0124532
703.739	0.0122788
703.818	0.0121125
703.896	0.0119462
703.974	0.0118020
704.052	0.0118908
704.130	0.0118837
704.208	0.0118168
704.286	0.0118662
704.364	0.0120998
704.443	0.0122343
704.521	0.0124124
704.599	0.0126204
704.677	0.0129071
704.755	0.0132457
704.833	0.0135001
704.911	0.0135730
704.989	0.0138245
705.068	0.0140221
705.146	0.0142045
705.224	0.0142559
705.302	0.0140930
705.380	0.0141891
705.458	0.0139634
705.536	0.0138485
705.614	0.0137474
705.693	0.0134773
705.771	0.0132829
705.849	0.0130017
705.927	0.0128295
706.005	0.0126350
706.083	0.0124036
706.161	0.0122054
706.239	0.0119293
706.318	0.0118946
706.396	0.0118704
706.474	0.0116431
706.552	0.0116495
706.630	0.0115749
706.708	0.0114590
706.786	0.0114261
706.864	0.0112961
706.943	0.0113087
707.021	0.0112743
707.099	0.0113261
707.177	0.0114764
707.255	0.0115015
707.333	0.0116816
707.411	0.0120229
707.489	0.0120064
707.568	0.0124227
707.646	0.0126068
707.724	0.0127492
707.802	0.0130862
707.880	0.0133356
707.958	0.0136469
708.036	0.0139552
708.114	0.0141435
708.193	0.0143265
708.271	0.0145889
708.349	0.0147005
708.427	0.0151537
708.505	0.0150694
708.583	0.0152015
708.661	0.0154387
708.739	0.0154019
708.818	0.0153423
708.896	0.0151032
708.974	0.0150664
709.052	0.0149509
709.130	0.0147994
709.208	0.0146889
709.286	0.0144553
709.364	0.0141198
709.443	0.0139761
709.521	0.0134603
709.599	0.0132294
709.677	0.0129753
709.755	0.0126694
709.833	0.0123341
709.911	0.0122733
709.989	0.0120274
710.068	0.0116649
710.146	0.0114821
710.224	0.0112177
710.302	0.0111027
710.380	0.0111031
710.458	0.0110577
710.536	0.0109807
710.614	0.0109805
710.693	0.0109447
710.771	0.0110738
710.849	0.0113497
710.927	0.0114198
711.005	0.0115139
711.083	0.0118285
711.161	0.0120322
711.239	0.0121606
711.318	0.0123739
711.396	0.0125677
711.474	0.0128005
711.552	0.0129895
711.630	0.0131314
711.708	0.0133086
711.786	0.0135278
711.864	0.0135774
711.943	0.0137241
712.021	0.0138929
712.099	0.0140237
712.177	0.0140149
712.255	0.0141458
712.333	0.0142764
712.411	0.0142470
712.489	0.0142567
712.568	0.0142168
712.646	0.0141779
712.724	0.0141338
712.802	0.0138554
712.880	0.0136619
712.958	0.0136766
713.036	0.0135144
713.114	0.0132222
713.193	0.0132305
713.271	0.0131552
713.349	0.0129163
713.427	0.0129176
713.505	0.0126919
713.583	0.0126362
713.661	0.0125834
713.739	0.0124796
713.818	0.0125104
713.896	0.0124613
713.974	0.0124494
714.052	0.0125056
714.130	0.0123936
714.208	0.0124052
714.286	0.0125505
714.364	0.0127641
714.443	0.0128188
714.521	0.0129282
714.599	0.0131931
714.677	0.0135413
714.755	0.0137706
714.833	0.0138202
714.911	0.0140354
714.989	0.0141553
715.068	0.0143022
715.146	0.0143367
715.224	0.0143216
715.302	0.0141956
715.380	0.0144133
715.458	0.0143504
715.536	0.0140926
715.614	0.0140779
715.693	0.0138171
715.771	0.0136513
715.849	0.0135343
715.927	0.0132149
716.005	0.0129788
716.083	0.0128324
716.161	0.0127409
716.239	0.0125199
716.318	0.0125260
716.396	0.0121891
716.474	0.0119584
716.552	0.0118792
716.630	0.0117812
716.708	0.0115914
716.786	0.0115852
716.864	0.0114189
716.943	0.0113718
717.021	0.0114458
717.099	0.0114589
717.177	0.0115826
717.255	0.0116466
717.333	0.0117529
717.411	0.0118842
717.489	0.0121850
717.568	0.0122477
717.646	0.0123769
717.724	0.0125288
717.802	0.0127092
717.880	0.0128489
717.958	0.0130496
718.036	0.0132221
718.114	0.0133617
718.193	0.0135229
718.271	0.0134666
718.349	0.0137550
718.427	0.0137429
718.505	0.0138042
718.583	0.0137005
718.661	0.0138162
718.739	0.0140143
718.818	0.0140443
718.896	0.0141882
718.974	0.0141685
719.052	0.0141235
719.130	0.0142293
719.208	0.0143916
719.286	0.0143383
719.364	0.0143910
719.443	0.0143540
719.521	0.0142054
719.599	0.0144933
719.677	0.0144452
719.755	0.0146355
719.833	0.0143558
719.911	0.0141924
719.989	0.0141821
720.068	0.0140884
720.146	0.0139783
720.224	0.0137614
720.302	0.0135527
720.380	0.0134080
720.458	0.0131470
720.536	0.0130155
720.614	0.0125426
720.693	0.0123972
720.771	0.0121087
720.849	0.0120142
720.927	0.0117767
721.005	0.0114071
721.083	0.0114091
721.161	0.0112589
721.239	0.0111893
721.318	0.0111539
721.396	0.0110987
721.474	0.0111775
721.552	0.0112917
721.630	0.0113843
721.708	0.0115434
721.786	0.0118127
721.864	0.0118669
721.943	0.0121082
722.021	0.0121935
722.099	0.0124191
722.177	0.0125640
722.255	0.0128673
722.333	0.0130868
722.411	0.0132316
722.489	0.0131889
722.568	0.0133482
722.646	0.0135975
722.724	0.0135535
722.802	0.0135506
722.880	0.0135817
722.958	0.0137174
723.036	0.0137377
723.114	0.0137134
723.193	0.0137295
723.271	0.0136208
723.349	0.0136821
723.427	0.0134103
723.505	0.0134815
723.583	0.0133159
723.661	0.0131007
723.739	0.0132271
723.818	0.0131831
723.896	0.0130848
723.974	0.0130564
724.052	0.0128671
724.130	0.0129794
724.208	0.0129652
724.286	0.0128868
724.364	0.0129231
724.443	0.0130202
724.521	0.0131052
724.599	0.0132590
724.677	0.0133074
724.755	0.0135621
724.833	0.0135563
724.911	0.0135818
724.989	0.0138790
725.068	0.0139129
725.146	0.0138911
725.224	0.0139921
725.302	0.0139842
725.380	0.0140503
725.458	0.0138174
725.536	0.0139345
725.614	0.0138199
