05/07/2022	17:13:37	Ver.	4.1	UNKNOWN
Optical Delay	639.989416	Delta X		0.078125	Sweeps	1	Scan Rate	0/0
Coordinates	Axis 1	NaN	Axis 2	NaN	Axis 3	NaN	Axis 4	NaN	Axis 5	NaN	Axis 6	0.000000
TX Power	0.000000	RX Power	0.000000

639.989	0.0128405
640.068	0.0127895
640.146	0.0127996
640.224	0.0127884
640.302	0.0127732
640.380	0.0127486
640.458	0.0127395
640.536	0.0128197
640.614	0.0127991
640.693	0.0127466
640.771	0.0128464
640.849	0.0126642
640.927	0.0129184
641.005	0.0126948
641.083	0.0127422
641.161	0.0126942
641.239	0.0127032
641.318	0.0127599
641.396	0.0127008
641.474	0.0128722
641.552	0.0128696
641.630	0.0126267
641.708	0.0127121
641.786	0.0128610
641.864	0.0128130
641.943	0.0127118
642.021	0.0129053
642.099	0.0128937
642.177	0.0127737
642.255	0.0128097
642.333	0.0126897
642.411	0.0128313
642.489	0.0127872
642.568	0.0128024
642.646	0.0128146
642.724	0.0127290
642.802	0.0127741
642.880	0.0127803
642.958	0.0127322
643.036	0.0127084
643.114	0.0127419
643.193	0.0128664
643.271	0.0129823
643.349	0.0127791
643.427	0.0127314
643.505	0.0128342
643.583	0.0127399
643.661	0.0127156
643.739	0.0126895
643.818	0.0129050
643.896	0.0128712
643.974	0.0127630
644.052	0.0127988
644.130	0.0129206
644.208	0.0129427
644.286	0.0127819
644.364	0.0127136
644.443	0.0127760
644.521	0.0127859
644.599	0.0128605
644.677	0.0127879
644.755	0.0128670
644.833	0.0127477
644.911	0.0129314
644.989	0.0128667
645.068	0.0128413
645.146	0.0127296
645.224	0.0127978
645.302	0.0128564
645.380	0.0129120
645.458	0.0127341
645.536	0.0128621
645.614	0.0128106
645.693	0.0128093
645.771	0.0127370
645.849	0.0126905
645.927	0.0127808
646.005	0.0128046
646.083	0.0127293
646.161	0.0126608
646.239	0.0128471
646.318	0.0129124
646.396	0.0129453
646.474	0.0128494
646.552	0.0127627
646.630	0.0128158
646.708	0.0128993
646.786	0.0128986
646.864	0.0128586
646.943	0.0126839
647.021	0.0128503
647.099	0.0127888
647.177	0.0128593
647.255	0.0128085
647.333	0.0128522
647.411	0.0129190
647.489	0.0127185
647.568	0.0129037
647.646	0.0129082
647.724	0.0128279
647.802	0.0129032
647.880	0.0128139
647.958	0.0127454
648.036	0.0128020
648.114	0.0128185
648.193	0.0127438
648.271	0.0127254
648.349	0.0127359
648.427	0.0127111
648.505	0.0128276
648.583	0.0127282
648.661	0.0128533
648.739	0.0126479
648.818	0.0128242
648.896	0.0129383
648.974	0.0128080
649.052	0.0127865
649.130	0.0128550
649.208	0.0128384
649.286	0.0128272
649.364	0.0128356
649.443	0.0128042
649.521	0.0129568
649.599	0.0127730
649.677	0.0128090
649.755	0.0127383
649.833	0.0127611
649.911	0.0129371
649.989	0.0127934
650.068	0.0128697
650.146	0.0126711
650.224	0.0127415
650.302	0.0127516
650.380	0.0128328
650.458	0.0128786
650.536	0.0128580
650.614	0.0127787
650.693	0.0127760
650.771	0.0127579
650.849	0.0128436
650.927	0.0128124
651.005	0.0128295
651.083	0.0128133
651.161	0.0128567
651.239	0.0128169
651.318	0.0128214
651.396	0.0129778
651.474	0.0127274
651.552	0.0127896
651.630	0.0128221
651.708	0.0127982
651.786	0.0127086
651.864	0.0128152
651.943	0.0127306
652.021	0.0127855
652.099	0.0128250
652.177	0.0128365
652.255	0.0127901
652.333	0.0127554
652.411	0.0128019
652.489	0.0128779
652.568	0.0126792
652.646	0.0129189
652.724	0.0126798
652.802	0.0128271
652.880	0.0127575
652.958	0.0129350
653.036	0.0128250
653.114	0.0129382
653.193	0.0128854
653.271	0.0126974
653.349	0.0128673
653.427	0.0127576
653.505	0.0128893
653.583	0.0128668
653.661	0.0128610
653.739	0.0128078
653.818	0.0129058
653.896	0.0128473
653.974	0.0127003
654.052	0.0128728
654.130	0.0128803
654.208	0.0128550
654.286	0.0127923
654.364	0.0127285
654.443	0.0128574
654.521	0.0129183
654.599	0.0127800
654.677	0.0128481
654.755	0.0127164
654.833	0.0127797
654.911	0.0128033
654.989	0.0128247
655.068	0.0128716
655.146	0.0129134
655.224	0.0129453
655.302	0.0129296
655.380	0.0128351
655.458	0.0128403
655.536	0.0127148
655.614	0.0128365
655.693	0.0128626
655.771	0.0127373
655.849	0.0127664
655.927	0.0128508
656.005	0.0128329
656.083	0.0128587
656.161	0.0128259
656.239	0.0128085
656.318	0.0128682
656.396	0.0128150
656.474	0.0128681
656.552	0.0128942
656.630	0.0127999
656.708	0.0127943
656.786	0.0128867
656.864	0.0127666
656.943	0.0128839
657.021	0.0128358
657.099	0.0128548
657.177	0.0128920
657.255	0.0127298
657.333	0.0127794
657.411	0.0128283
657.489	0.0129868
657.568	0.0127856
657.646	0.0129028
657.724	0.0129102
657.802	0.0128308
657.880	0.0128306
657.958	0.0128351
658.036	0.0128960
658.114	0.0127903
658.193	0.0128718
658.271	0.0128976
658.349	0.0128704
658.427	0.0128357
658.505	0.0128860
658.583	0.0130157
658.661	0.0128635
658.739	0.0127014
658.818	0.0127181
658.896	0.0130151
658.974	0.0129474
659.052	0.0128986
659.130	0.0129120
659.208	0.0128737
659.286	0.0128680
659.364	0.0130289
659.443	0.0129112
659.521	0.0129040
659.599	0.0127897
659.677	0.0128750
659.755	0.0128032
659.833	0.0128996
659.911	0.0129541
659.989	0.0127707
660.068	0.0129813
660.146	0.0129301
660.224	0.0129547
660.302	0.0128132
660.380	0.0129166
660.458	0.0129074
660.536	0.0128094
660.614	0.0127367
660.693	0.0127930
660.771	0.0129155
660.849	0.0129298
660.927	0.0127051
661.005	0.0129124
661.083	0.0127607
661.161	0.0129389
661.239	0.0128697
661.318	0.0128125
661.396	0.0128082
661.474	0.0128501
661.552	0.0128473
661.630	0.0128516
661.708	0.0128379
661.786	0.0128574
661.864	0.0128272
661.943	0.0128886
662.021	0.0128351
662.099	0.0129075
662.177	0.0128739
662.255	0.0128686
662.333	0.0129671
662.411	0.0129463
662.489	0.0128768
662.568	0.0128412
662.646	0.0128342
662.724	0.0127833
662.802	0.0128696
662.880	0.0128905
662.958	0.0128402
663.036	0.0129414
663.114	0.0129182
663.193	0.0128074
663.271	0.0127540
663.349	0.0129012
663.427	0.0129648
663.505	0.0129278
663.583	0.0128424
663.661	0.0127122
663.739	0.0128618
663.818	0.0128427
663.896	0.0129644
663.974	0.0129567
664.052	0.0127573
664.130	0.0126936
664.208	0.0127900
664.286	0.0127623
664.364	0.0127789
664.443	0.0128580
664.521	0.0128983
664.599	0.0127785
664.677	0.0129768
664.755	0.0127762
664.833	0.0128197
664.911	0.0129179
664.989	0.0128220
665.068	0.0128039
665.146	0.0128499
665.224	0.0129234
665.302	0.0129446
665.380	0.0129623
665.458	0.0128907
665.536	0.0128313
665.614	0.0128577
665.693	0.0130033
665.771	0.0129600
665.849	0.0128834
665.927	0.0128173
666.005	0.0128848
666.083	0.0129189
666.161	0.0128902
666.239	0.0129382
666.318	0.0129026
666.396	0.0129197
666.474	0.0128168
666.552	0.0127289
666.630	0.0127925
666.708	0.0128016
666.786	0.0128584
666.864	0.0128196
666.943	0.0128694
667.021	0.0128999
667.099	0.0128857
667.177	0.0128671
667.255	0.0127843
667.333	0.0127108
667.411	0.0128190
667.489	0.0128111
667.568	0.0128082
667.646	0.0128476
667.724	0.0128267
667.802	0.0129033
667.880	0.0129220
667.958	0.0128903
668.036	0.0128642
668.114	0.0129634
668.193	0.0128149
668.271	0.0128477
668.349	0.0128310
668.427	0.0129066
668.505	0.0129624
668.583	0.0126964
668.661	0.0127248
668.739	0.0128749
668.818	0.0129243
668.896	0.0128102
668.974	0.0127981
669.052	0.0128893
669.130	0.0128638
669.208	0.0128705
669.286	0.0128141
669.364	0.0129203
669.443	0.0128937
669.521	0.0129096
669.599	0.0128774
669.677	0.0127953
669.755	0.0128120
669.833	0.0128345
669.911	0.0129538
669.989	0.0128290
670.068	0.0127570
670.146	0.0127010
670.224	0.0126841
670.302	0.0127498
670.380	0.0127454
670.458	0.0127650
670.536	0.0127349
670.614	0.0129947
670.693	0.0129425
670.771	0.0128639
670.849	0.0128024
670.927	0.0129228
671.005	0.0128590
671.083	0.0129819
671.161	0.0128526
671.239	0.0129054
671.318	0.0130051
671.396	0.0128994
671.474	0.0129712
671.552	0.0129482
671.630	0.0130111
671.708	0.0128273
671.786	0.0128171
671.864	0.0127584
671.943	0.0125772
672.021	0.0125077
672.099	0.0124896
672.177	0.0126113
672.255	0.0125353
672.333	0.0124796
672.411	0.0125210
672.489	0.0126050
672.568	0.0128114
672.646	0.0128808
672.724	0.0128851
672.802	0.0131508
672.880	0.0131314
672.958	0.0131894
673.036	0.0130537
673.114	0.0131995
673.193	0.0133383
673.271	0.0131149
673.349	0.0131246
673.427	0.0130280
673.505	0.0130516
673.583	0.0129842
673.661	0.0128741
673.739	0.0128585
673.818	0.0127425
673.896	0.0125704
673.974	0.0125735
674.052	0.0124055
674.130	0.0123991
674.208	0.0124944
674.286	0.0123431
674.364	0.0124014
674.443	0.0124416
674.521	0.0123753
674.599	0.0124138
674.677	0.0125956
674.755	0.0124822
674.833	0.0125597
674.911	0.0128184
674.989	0.0127573
675.068	0.0128760
675.146	0.0130290
675.224	0.0130238
675.302	0.0132207
675.380	0.0131989
675.458	0.0132388
675.536	0.0132185
675.614	0.0132175
675.693	0.0131924
675.771	0.0132851
675.849	0.0131745
675.927	0.0131577
676.005	0.0129826
676.083	0.0129950
676.161	0.0128387
676.239	0.0128849
676.318	0.0128261
676.396	0.0127063
676.474	0.0127458
676.552	0.0127106
676.630	0.0126990
676.708	0.0126900
676.786	0.0128256
676.864	0.0129125
676.943	0.0128021
677.021	0.0129004
677.099	0.0129848
677.177	0.0132275
677.255	0.0131216
677.333	0.0131677
677.411	0.0131226
677.489	0.0130928
677.568	0.0128646
677.646	0.0129165
677.724	0.0126485
677.802	0.0126321
677.880	0.0124874
677.958	0.0124890
678.036	0.0124190
678.114	0.0123698
678.193	0.0124125
678.271	0.0123683
678.349	0.0125075
678.427	0.0125730
678.505	0.0124442
678.583	0.0125444
678.661	0.0125890
678.739	0.0126685
678.818	0.0128986
678.896	0.0129826
678.974	0.0130347
679.052	0.0130277
679.130	0.0130592
679.208	0.0131497
679.286	0.0133066
679.364	0.0131725
679.443	0.0132657
679.521	0.0133530
679.599	0.0134079
679.677	0.0132628
679.755	0.0132898
679.833	0.0133142
679.911	0.0132901
679.989	0.0132550
680.068	0.0131840
680.146	0.0131918
680.224	0.0132059
680.302	0.0130779
680.380	0.0131219
680.458	0.0132247
680.536	0.0132270
680.614	0.0131180
680.693	0.0129178
680.771	0.0127693
680.849	0.0127477
680.927	0.0126907
681.005	0.0126226
681.083	0.0124812
681.161	0.0122349
681.239	0.0120441
681.318	0.0119817
681.396	0.0119394
681.474	0.0118565
681.552	0.0118840
681.630	0.0118662
681.708	0.0117891
681.786	0.0118069
681.864	0.0118073
681.943	0.0119955
682.021	0.0119925
682.099	0.0120882
682.177	0.0123396
682.255	0.0123640
682.333	0.0125102
682.411	0.0127600
682.489	0.0127888
682.568	0.0130619
682.646	0.0132851
682.724	0.0133462
682.802	0.0135371
682.880	0.0136502
682.958	0.0138049
683.036	0.0139349
683.114	0.0140417
683.193	0.0142349
683.271	0.0144279
683.349	0.0143398
683.427	0.0143863
683.505	0.0143607
683.583	0.0143240
683.661	0.0143364
683.739	0.0143055
683.818	0.0140462
683.896	0.0139935
683.974	0.0137138
684.052	0.0135660
684.130	0.0132057
684.208	0.0129920
684.286	0.0127179
684.364	0.0124056
684.443	0.0121580
684.521	0.0118024
684.599	0.0117793
684.677	0.0116105
684.755	0.0114343
684.833	0.0114108
684.911	0.0112816
684.989	0.0113059
685.068	0.0112962
685.146	0.0113592
685.224	0.0113084
685.302	0.0114954
685.380	0.0115422
685.458	0.0114363
685.536	0.0118134
685.614	0.0117844
685.693	0.0120679
685.771	0.0122468
685.849	0.0122881
685.927	0.0125298
686.005	0.0125243
686.083	0.0129015
686.161	0.0130618
686.239	0.0131559
686.318	0.0134153
686.396	0.0134851
686.474	0.0137048
686.552	0.0138703
686.630	0.0138198
686.708	0.0138670
686.786	0.0139072
686.864	0.0139182
686.943	0.0138178
687.021	0.0139159
687.099	0.0139758
687.177	0.0139653
687.255	0.0138172
687.333	0.0138488
687.411	0.0138909
687.489	0.0139026
687.568	0.0140149
687.646	0.0139510
687.724	0.0139501
687.802	0.0140643
687.880	0.0139567
687.958	0.0138053
688.036	0.0138081
688.114	0.0135321
688.193	0.0134339
688.271	0.0132563
688.349	0.0130560
688.427	0.0127482
688.505	0.0127222
688.583	0.0125275
688.661	0.0123529
688.739	0.0121397
688.818	0.0121273
688.896	0.0120424
688.974	0.0119576
689.052	0.0117978
689.130	0.0118071
689.208	0.0115778
689.286	0.0114939
689.364	0.0113601
689.443	0.0111023
689.521	0.0110399
689.599	0.0109157
689.677	0.0110088
689.755	0.0109701
689.833	0.0110229
689.911	0.0111509
689.989	0.0113615
690.068	0.0114357
690.146	0.0116228
690.224	0.0119166
690.302	0.0119377
690.380	0.0123579
690.458	0.0126370
690.536	0.0128281
690.614	0.0129796
690.693	0.0130204
690.771	0.0129694
690.849	0.0131477
690.927	0.0131229
691.005	0.0131470
691.083	0.0132621
691.161	0.0133556
691.239	0.0133899
691.318	0.0135146
691.396	0.0134625
691.474	0.0138673
691.552	0.0140217
691.630	0.0141319
691.708	0.0143966
691.786	0.0145060
691.864	0.0147742
691.943	0.0149744
692.021	0.0149654
692.099	0.0150411
692.177	0.0149742
692.255	0.0151102
692.333	0.0151377
692.411	0.0149895
692.489	0.0146940
692.568	0.0147393
692.646	0.0145944
692.724	0.0144747
692.802	0.0142757
692.880	0.0138718
692.958	0.0138188
693.036	0.0135307
693.114	0.0133846
693.193	0.0129871
693.271	0.0127314
693.349	0.0123608
693.427	0.0120633
693.505	0.0117525
693.583	0.0112552
693.661	0.0109478
693.739	0.0106004
693.818	0.0102292
693.896	0.00971237
693.974	0.00942253
694.052	0.00908897
694.130	0.00877815
694.208	0.00859184
694.286	0.00854996
694.364	0.00842026
694.443	0.00849655
694.521	0.00867088
694.599	0.00895729
694.677	0.00928787
694.755	0.00977356
694.833	0.0101733
694.911	0.0106863
694.989	0.0113702
695.068	0.0117612
695.146	0.0122256
695.224	0.0129432
695.302	0.0133382
695.380	0.0138470
695.458	0.0143470
695.536	0.0146611
695.614	0.0151585
695.693	0.0156412
695.771	0.0159548
695.849	0.0163161
695.927	0.0166197
696.005	0.0167977
696.083	0.0169553
696.161	0.0172247
696.239	0.0173051
696.318	0.0172646
696.396	0.0170392
696.474	0.0171330
696.552	0.0169207
696.630	0.0166463
696.708	0.0163654
696.786	0.0160122
696.864	0.0155992
696.943	0.0153197
697.021	0.0148103
697.099	0.0142876
697.177	0.0139781
697.255	0.0134486
697.333	0.0131297
697.411	0.0125309
697.489	0.0122066
697.568	0.0117033
697.646	0.0114924
697.724	0.0111276
697.802	0.0107368
697.880	0.0104916
697.958	0.0103286
698.036	0.0101014
698.114	0.00998283
698.193	0.00977043
698.271	0.00966721
698.349	0.00961563
698.427	0.00950768
698.505	0.00937897
698.583	0.00936279
698.661	0.00934387
698.739	0.00937439
698.818	0.00924294
698.896	0.00934303
698.974	0.00926659
699.052	0.00936478
699.130	0.00932915
699.208	0.00937256
699.286	0.00963974
699.364	0.00979149
699.443	0.0100744
699.521	0.0103809
699.599	0.0106597
699.677	0.0113111
699.755	0.0118578
699.833	0.0124158
699.911	0.0131139
699.989	0.0137482
700.068	0.0144276
700.146	0.0151649
700.224	0.0158285
700.302	0.0162590
700.380	0.0166265
700.458	0.0171574
700.536	0.0175935
700.614	0.0179590
700.693	0.0179598
700.771	0.0182888
700.849	0.0183614
700.927	0.0183706
701.005	0.0183342
701.083	0.0181129
701.161	0.0178051
701.239	0.0174556
701.318	0.0168171
701.396	0.0162504
701.474	0.0155401
701.552	0.0148742
701.630	0.0141961
701.708	0.0132072
701.786	0.0124498
701.864	0.0117668
701.943	0.0110981
702.021	0.0105443
702.099	0.00999069
702.177	0.00937859
702.255	0.00918800
702.333	0.00897530
702.411	0.00902016
702.489	0.00892143
702.568	0.00912170
702.646	0.00933876
702.724	0.00964485
702.802	0.00998466
702.880	0.0102479
702.958	0.0109128
703.036	0.0113655
703.114	0.0119359
703.193	0.0122550
703.271	0.0127530
703.349	0.0130811
703.427	0.0131842
703.505	0.0134808
703.583	0.0135873
703.661	0.0136008
703.739	0.0135016
703.818	0.0132610
703.896	0.0132658
703.974	0.0128338
704.052	0.0125011
704.130	0.0121916
704.208	0.0118308
704.286	0.0113451
704.364	0.0109654
704.443	0.0106342
704.521	0.0102084
704.599	0.0101016
704.677	0.00973259
704.755	0.00956139
704.833	0.00964798
704.911	0.00971069
704.989	0.00994247
705.068	0.0103985
705.146	0.0108717
705.224	0.0114268
705.302	0.0119379
705.380	0.0128164
705.458	0.0136295
705.536	0.0142147
705.614	0.0150489
705.693	0.0157162
705.771	0.0164531
705.849	0.0168977
705.927	0.0172985
706.005	0.0176818
706.083	0.0179729
706.161	0.0182498
706.239	0.0183635
706.318	0.0183772
706.396	0.0181713
706.474	0.0180892
706.552	0.0178044
706.630	0.0172240
706.708	0.0167428
706.786	0.0162079
706.864	0.0155186
706.943	0.0148260
707.021	0.0142521
707.099	0.0133475
707.177	0.0125323
707.255	0.0121462
707.333	0.0113898
707.411	0.0107410
707.489	0.0101134
707.568	0.00984642
707.646	0.00967178
707.724	0.00934914
707.802	0.00917892
707.880	0.00942139
707.958	0.00954002
708.036	0.00981728
708.114	0.0101811
708.193	0.0106090
708.271	0.0111954
708.349	0.0114244
708.427	0.0119691
708.505	0.0122670
708.583	0.0123938
708.661	0.0126392
708.739	0.0127778
708.818	0.0127441
708.896	0.0125805
708.974	0.0124292
709.052	0.0121027
709.130	0.0117789
709.208	0.0114568
709.286	0.0111599
709.364	0.0108876
709.443	0.0105303
709.521	0.00992424
709.599	0.00974037
709.677	0.00934265
709.755	0.00922585
709.833	0.00899223
709.911	0.00888245
709.989	0.00892807
710.068	0.00912216
710.146	0.00926811
710.224	0.00968208
710.302	0.0104227
710.380	0.0109977
710.458	0.0117107
710.536	0.0125565
710.614	0.0134554
710.693	0.0144030
710.771	0.0153641
710.849	0.0163917
710.927	0.0172118
711.005	0.0180006
711.083	0.0186584
711.161	0.0192842
711.239	0.0195649
711.318	0.0196918
711.396	0.0199977
711.474	0.0200433
711.552	0.0199082
711.630	0.0194177
711.708	0.0190776
711.786	0.0187467
711.864	0.0180056
711.943	0.0174199
712.021	0.0165783
712.099	0.0156532
712.177	0.0146881
712.255	0.0138292
712.333	0.0128539
712.411	0.0119759
712.489	0.0110252
712.568	0.0102247
712.646	0.00938629
712.724	0.00898239
712.802	0.00841888
712.880	0.00807632
712.958	0.00778404
713.036	0.00774681
713.114	0.00780022
713.193	0.00788612
713.271	0.00825684
713.349	0.00881447
713.427	0.00921577
713.505	0.00997154
713.583	0.0106183
713.661	0.0113273
713.739	0.0119357
713.818	0.0125574
713.896	0.0129866
713.974	0.0134949
714.052	0.0138046
714.130	0.0138832
714.208	0.0138650
714.286	0.0139240
714.364	0.0136220
714.443	0.0134824
714.521	0.0130946
714.599	0.0125879
714.677	0.0122124
714.755	0.0116673
714.833	0.0111128
714.911	0.0107590
714.989	0.0102153
715.068	0.0100600
715.146	0.00970406
715.224	0.00952553
715.302	0.00948273
715.380	0.00938927
715.458	0.00949181
715.536	0.00984764
715.614	0.0100459
715.693	0.0104591
715.771	0.0108995
715.849	0.0114670
715.927	0.0122488
716.005	0.0128304
716.083	0.0135373
716.161	0.0144775
716.239	0.0152926
716.318	0.0158201
716.396	0.0165291
716.474	0.0171024
716.552	0.0175215
716.630	0.0179293
716.708	0.0183031
716.786	0.0185422
716.864	0.0185251
716.943	0.0184798
717.021	0.0183017
717.099	0.0181349
717.177	0.0176960
717.255	0.0173729
717.333	0.0169467
717.411	0.0163448
717.489	0.0159180
717.568	0.0152152
717.646	0.0147375
717.724	0.0140904
717.802	0.0134702
717.880	0.0129279
717.958	0.0123248
718.036	0.0119493
718.114	0.0114272
718.193	0.0109641
718.271	0.0106711
718.349	0.0104325
718.427	0.0102357
718.505	0.0102275
718.583	0.00999664
718.661	0.00995979
718.739	0.00999313
718.818	0.0100613
718.896	0.0102087
718.974	0.0102544
719.052	0.0103354
719.130	0.0105749
719.208	0.0106797
719.286	0.0106954
719.364	0.0109291
719.443	0.0110184
719.521	0.0110108
719.599	0.0109441
719.677	0.0108299
719.755	0.0108297
719.833	0.0107658
719.911	0.0105427
719.989	0.0105912
720.068	0.0105699
720.146	0.0101964
720.224	0.0102188
720.302	0.0100954
720.380	0.0101109
720.458	0.0104002
720.536	0.0105867
720.614	0.0108199
720.693	0.0111848
720.771	0.0115898
720.849	0.0120017
720.927	0.0123950
721.005	0.0129914
721.083	0.0132725
721.161	0.0140225
721.239	0.0143165
721.318	0.0146313
721.396	0.0149442
721.474	0.0152504
721.552	0.0153536
721.630	0.0156203
721.708	0.0156821
721.786	0.0158684
721.864	0.0158066
721.943	0.0158262
722.021	0.0158296
722.099	0.0157002
722.177	0.0156762
722.255	0.0156898
722.333	0.0156108
722.411	0.0155153
722.489	0.0153948
722.568	0.0151352
722.646	0.0150401
722.724	0.0149137
722.802	0.0146588
722.880	0.0145914
722.958	0.0141811
723.036	0.0141340
723.114	0.0140387
723.193	0.0138435
723.271	0.0136191
723.349	0.0136018
723.427	0.0134841
723.505	0.0131085
723.583	0.0131806
723.661	0.0130190
723.739	0.0129422
723.818	0.0130402
723.896	0.0129250
723.974	0.0125929
724.052	0.0125418
724.130	0.0126279
724.208	0.0122387
724.286	0.0121170
724.364	0.0119285
724.443	0.0116739
724.521	0.0115543
724.599	0.0112178
724.677	0.0109461
724.755	0.0105750
724.833	0.0101238
724.911	0.00992836
724.989	0.00971237
725.068	0.00946114
725.146	0.00924988
725.224	0.00904999
725.302	0.00897545
