05/07/2022	17:15:12	Ver.	4.1	UNKNOWN
Optical Delay	639.989416	Delta X		0.078125	Sweeps	1	Scan Rate	0/0
Coordinates	Axis 1	NaN	Axis 2	NaN	Axis 3	NaN	Axis 4	NaN	Axis 5	NaN	Axis 6	0.000000
TX Power	0.000000	RX Power	0.000000

639.989	0.0127782
640.068	0.0127296
640.146	0.0128336
640.224	0.0128091
640.302	0.0127496
640.380	0.0127966
640.458	0.0128847
640.536	0.0127946
640.614	0.0126636
640.693	0.0127937
640.771	0.0128306
640.849	0.0128327
640.927	0.0128247
641.005	0.0128043
641.083	0.0128781
641.161	0.0129089
641.239	0.0127615
641.318	0.0128371
641.396	0.0128105
641.474	0.0127795
641.552	0.0129935
641.630	0.0128871
641.708	0.0128252
641.786	0.0127980
641.864	0.0130154
641.943	0.0128385
642.021	0.0127544
642.099	0.0127937
642.177	0.0128819
642.255	0.0129331
642.333	0.0127663
642.411	0.0126817
642.489	0.0127827
642.568	0.0128010
642.646	0.0128035
642.724	0.0127586
642.802	0.0128586
642.880	0.0129250
642.958	0.0127901
643.036	0.0127042
643.114	0.0129719
643.193	0.0128359
643.271	0.0128873
643.349	0.0129469
643.427	0.0128230
643.505	0.0127700
643.583	0.0126962
643.661	0.0128471
643.739	0.0128036
643.818	0.0128308
643.896	0.0128915
643.974	0.0128768
644.052	0.0127214
644.130	0.0127752
644.208	0.0129340
644.286	0.0128751
644.364	0.0128405
644.443	0.0129342
644.521	0.0128065
644.599	0.0127522
644.677	0.0128758
644.755	0.0128272
644.833	0.0128424
644.911	0.0128455
644.989	0.0128773
645.068	0.0127633
645.146	0.0128034
645.224	0.0127979
645.302	0.0129156
645.380	0.0129173
645.458	0.0128522
645.536	0.0128821
645.614	0.0129807
645.693	0.0129099
645.771	0.0127509
645.849	0.0128584
645.927	0.0129206
646.005	0.0126950
646.083	0.0128588
646.161	0.0128553
646.239	0.0128677
646.318	0.0129414
646.396	0.0129136
646.474	0.0128802
646.552	0.0129178
646.630	0.0129439
646.708	0.0129047
646.786	0.0127406
646.864	0.0128098
646.943	0.0130688
647.021	0.0129518
647.099	0.0128313
647.177	0.0128967
647.255	0.0129924
647.333	0.0128656
647.411	0.0129901
647.489	0.0128938
647.568	0.0129050
647.646	0.0130224
647.724	0.0127944
647.802	0.0128587
647.880	0.0128938
647.958	0.0130540
648.036	0.0128578
648.114	0.0129620
648.193	0.0128724
648.271	0.0128770
648.349	0.0128951
648.427	0.0129023
648.505	0.0127518
648.583	0.0127448
648.661	0.0129168
648.739	0.0127592
648.818	0.0129698
648.896	0.0127060
648.974	0.0128202
649.052	0.0128354
649.130	0.0128915
649.208	0.0129195
649.286	0.0129122
649.364	0.0127633
649.443	0.0129717
649.521	0.0129218
649.599	0.0128481
649.677	0.0128665
649.755	0.0128387
649.833	0.0128452
649.911	0.0128753
649.989	0.0128088
650.068	0.0129358
650.146	0.0129436
650.224	0.0129684
650.302	0.0128635
650.380	0.0129587
650.458	0.0127919
650.536	0.0128309
650.614	0.0129151
650.693	0.0128783
650.771	0.0128094
650.849	0.0128487
650.927	0.0128921
651.005	0.0128628
651.083	0.0127897
651.161	0.0129301
651.239	0.0126810
651.318	0.0128998
651.396	0.0129337
651.474	0.0128047
651.552	0.0127381
651.630	0.0128117
651.708	0.0129290
651.786	0.0128606
651.864	0.0129021
651.943	0.0128455
652.021	0.0128979
652.099	0.0127766
652.177	0.0127608
652.255	0.0127174
652.333	0.0127986
652.411	0.0127996
652.489	0.0127721
652.568	0.0127088
652.646	0.0127377
652.724	0.0128262
652.802	0.0128973
652.880	0.0128307
652.958	0.0126324
653.036	0.0127851
653.114	0.0127043
653.193	0.0128528
653.271	0.0128706
653.349	0.0128168
653.427	0.0126970
653.505	0.0126129
653.583	0.0127557
653.661	0.0128571
653.739	0.0126595
653.818	0.0128455
653.896	0.0128734
653.974	0.0127905
654.052	0.0128077
654.130	0.0127203
654.208	0.0126699
654.286	0.0128471
654.364	0.0128149
654.443	0.0127776
654.521	0.0126986
654.599	0.0127361
654.677	0.0127067
654.755	0.0127236
654.833	0.0129916
654.911	0.0127100
654.989	0.0127493
655.068	0.0129144
655.146	0.0128728
655.224	0.0129264
655.302	0.0127545
655.380	0.0127445
655.458	0.0127607
655.536	0.0126782
655.614	0.0127093
655.693	0.0128010
655.771	0.0127196
655.849	0.0128283
655.927	0.0128152
656.005	0.0128713
656.083	0.0127780
656.161	0.0128458
656.239	0.0127108
656.318	0.0126997
656.396	0.0128793
656.474	0.0127631
656.552	0.0127149
656.630	0.0127734
656.708	0.0127999
656.786	0.0128196
656.864	0.0126630
656.943	0.0126727
657.021	0.0127599
657.099	0.0127528
657.177	0.0127116
657.255	0.0128468
657.333	0.0128365
657.411	0.0128120
657.489	0.0127779
657.568	0.0125873
657.646	0.0127214
657.724	0.0128604
657.802	0.0129053
657.880	0.0126679
657.958	0.0126807
658.036	0.0128471
658.114	0.0128133
658.193	0.0128813
658.271	0.0127589
658.349	0.0127660
658.427	0.0127422
658.505	0.0129135
658.583	0.0128942
658.661	0.0127425
658.739	0.0127357
658.818	0.0127687
658.896	0.0128033
658.974	0.0129605
659.052	0.0128652
659.130	0.0127901
659.208	0.0128747
659.286	0.0128123
659.364	0.0128931
659.443	0.0127113
659.521	0.0128568
659.599	0.0128684
659.677	0.0127439
659.755	0.0128018
659.833	0.0128999
659.911	0.0127044
659.989	0.0128462
660.068	0.0127684
660.146	0.0129785
660.224	0.0128819
660.302	0.0128653
660.380	0.0127605
660.458	0.0128788
660.536	0.0129953
660.614	0.0128084
660.693	0.0127234
660.771	0.0127847
660.849	0.0127341
660.927	0.0128683
661.005	0.0127962
661.083	0.0127966
661.161	0.0128610
661.239	0.0127692
661.318	0.0127630
661.396	0.0128409
661.474	0.0128661
661.552	0.0128596
661.630	0.0129012
661.708	0.0128985
661.786	0.0126907
661.864	0.0128853
661.943	0.0127720
662.021	0.0128224
662.099	0.0128654
662.177	0.0127684
662.255	0.0128615
662.333	0.0128881
662.411	0.0128242
662.489	0.0128732
662.568	0.0126419
662.646	0.0128763
662.724	0.0130750
662.802	0.0128938
662.880	0.0128765
662.958	0.0126880
663.036	0.0128201
663.114	0.0128767
663.193	0.0129276
663.271	0.0128383
663.349	0.0129368
663.427	0.0127617
663.505	0.0128082
663.583	0.0129408
663.661	0.0129256
663.739	0.0127944
663.818	0.0128727
663.896	0.0129214
663.974	0.0128096
664.052	0.0127969
664.130	0.0128838
664.208	0.0128422
664.286	0.0130695
664.364	0.0129231
664.443	0.0129148
664.521	0.0128674
664.599	0.0129335
664.677	0.0129351
664.755	0.0129733
664.833	0.0128906
664.911	0.0127633
664.989	0.0128666
665.068	0.0130271
665.146	0.0128609
665.224	0.0130209
665.302	0.0129052
665.380	0.0127593
665.458	0.0128645
665.536	0.0128522
665.614	0.0127824
665.693	0.0128165
665.771	0.0126393
665.849	0.0128004
665.927	0.0128285
666.005	0.0128246
666.083	0.0128050
666.161	0.0128027
666.239	0.0128294
666.318	0.0128641
666.396	0.0128741
666.474	0.0129491
666.552	0.0127812
666.630	0.0128322
666.708	0.0129487
666.786	0.0128510
666.864	0.0128220
666.943	0.0128072
667.021	0.0128395
667.099	0.0128651
667.177	0.0128719
667.255	0.0129254
667.333	0.0128168
667.411	0.0129019
667.489	0.0126868
667.568	0.0128742
667.646	0.0129820
667.724	0.0127181
667.802	0.0128403
667.880	0.0127877
667.958	0.0128072
668.036	0.0127517
668.114	0.0127064
668.193	0.0127414
668.271	0.0127964
668.349	0.0127914
668.427	0.0127806
668.505	0.0128426
668.583	0.0127735
668.661	0.0128789
668.739	0.0128630
668.818	0.0129119
668.896	0.0128525
668.974	0.0130329
669.052	0.0129534
669.130	0.0127953
669.208	0.0129317
669.286	0.0129221
669.364	0.0129293
669.443	0.0129842
669.521	0.0128428
669.599	0.0128577
669.677	0.0129659
669.755	0.0128954
669.833	0.0129084
669.911	0.0127245
669.989	0.0127669
670.068	0.0127323
670.146	0.0127754
670.224	0.0125873
670.302	0.0126771
670.380	0.0126800
670.458	0.0127319
670.536	0.0125149
670.614	0.0126482
670.693	0.0127265
670.771	0.0128017
670.849	0.0128587
670.927	0.0130556
671.005	0.0131368
671.083	0.0132272
671.161	0.0131780
671.239	0.0131615
671.318	0.0131467
671.396	0.0133025
671.474	0.0131828
671.552	0.0133031
671.630	0.0130840
671.708	0.0130338
671.786	0.0132109
671.864	0.0129905
671.943	0.0128394
672.021	0.0127840
672.099	0.0126479
672.177	0.0126129
672.255	0.0122980
672.333	0.0124771
672.411	0.0124461
672.489	0.0123210
672.568	0.0123225
672.646	0.0123056
672.724	0.0122240
672.802	0.0123904
672.880	0.0124032
672.958	0.0125642
673.036	0.0126946
673.114	0.0126720
673.193	0.0128374
673.271	0.0128693
673.349	0.0130108
673.427	0.0131194
673.505	0.0132798
673.583	0.0133967
673.661	0.0133994
673.739	0.0133780
673.818	0.0134467
673.896	0.0135308
673.974	0.0134768
674.052	0.0133989
674.130	0.0133099
674.208	0.0133012
674.286	0.0131629
674.364	0.0129958
674.443	0.0130721
674.521	0.0130193
674.599	0.0125964
674.677	0.0124091
674.755	0.0123934
674.833	0.0123318
674.911	0.0122448
674.989	0.0121979
675.068	0.0121989
675.146	0.0120045
675.224	0.0121875
675.302	0.0124159
675.380	0.0125494
675.458	0.0124729
675.536	0.0125040
675.614	0.0126291
675.693	0.0128923
675.771	0.0129012
675.849	0.0128131
675.927	0.0128323
676.005	0.0129291
676.083	0.0129681
676.161	0.0130920
676.239	0.0129677
676.318	0.0129904
676.396	0.0129672
676.474	0.0128708
676.552	0.0129354
676.630	0.0129118
676.708	0.0128011
676.786	0.0127229
676.864	0.0127757
676.943	0.0127082
677.021	0.0127170
677.099	0.0127934
677.177	0.0127499
677.255	0.0127200
677.333	0.0126580
677.411	0.0126199
677.489	0.0128345
677.568	0.0126257
677.646	0.0127628
677.724	0.0128581
677.802	0.0127775
677.880	0.0128617
677.958	0.0129979
678.036	0.0129787
678.114	0.0130577
678.193	0.0130323
678.271	0.0131189
678.349	0.0131158
678.427	0.0131374
678.505	0.0131488
678.583	0.0131539
678.661	0.0131178
678.739	0.0131802
678.818	0.0130077
678.896	0.0131756
678.974	0.0131292
679.052	0.0130991
679.130	0.0130067
679.208	0.0128367
679.286	0.0126877
679.364	0.0128071
679.443	0.0127294
679.521	0.0125290
679.599	0.0124069
679.677	0.0123317
679.755	0.0122836
679.833	0.0120769
679.911	0.0118822
679.989	0.0118674
680.068	0.0117975
680.146	0.0116978
680.224	0.0118663
680.302	0.0118172
680.380	0.0118616
680.458	0.0120191
680.536	0.0121819
680.614	0.0122466
680.693	0.0123862
680.771	0.0125049
680.849	0.0127087
680.927	0.0129619
681.005	0.0130490
681.083	0.0134035
681.161	0.0135744
681.239	0.0135666
681.318	0.0137923
681.396	0.0139631
681.474	0.0138728
681.552	0.0139992
681.630	0.0140360
681.708	0.0141000
681.786	0.0142204
681.864	0.0139966
681.943	0.0142088
682.021	0.0140955
682.099	0.0140810
682.177	0.0140232
682.255	0.0138955
682.333	0.0138879
682.411	0.0135199
682.489	0.0132780
682.568	0.0131045
682.646	0.0127032
682.724	0.0123701
682.802	0.0121709
682.880	0.0118764
682.958	0.0116821
683.036	0.0114069
683.114	0.0111507
683.193	0.0109452
683.271	0.0108889
683.349	0.0108282
683.427	0.0109215
683.505	0.0108613
683.583	0.0110368
683.661	0.0111970
683.739	0.0114059
683.818	0.0116437
683.896	0.0118101
683.974	0.0120911
684.052	0.0123355
684.130	0.0123636
684.208	0.0125323
684.286	0.0126688
684.364	0.0127312
684.443	0.0128523
684.521	0.0130528
684.599	0.0131635
684.677	0.0132003
684.755	0.0134357
684.833	0.0133271
684.911	0.0136331
684.989	0.0137894
685.068	0.0139236
685.146	0.0140803
685.224	0.0143674
685.302	0.0145293
685.380	0.0145325
685.458	0.0147673
685.536	0.0147645
685.614	0.0148847
685.693	0.0150443
685.771	0.0150687
685.849	0.0150643
685.927	0.0147494
686.005	0.0148285
686.083	0.0145192
686.161	0.0144485
686.239	0.0140264
686.318	0.0136552
686.396	0.0132050
686.474	0.0128916
686.552	0.0124993
686.630	0.0120840
686.708	0.0118581
686.786	0.0113754
686.864	0.0110722
686.943	0.0108379
687.021	0.0107002
687.099	0.0106190
687.177	0.0104580
687.255	0.0104059
687.333	0.0102777
687.411	0.0104453
687.489	0.0106815
687.568	0.0108502
687.646	0.0108997
687.724	0.0111347
687.802	0.0113690
687.880	0.0115541
687.958	0.0118559
688.036	0.0119614
688.114	0.0121290
688.193	0.0123846
688.271	0.0125881
688.349	0.0127646
688.427	0.0129519
688.505	0.0131406
688.583	0.0135367
688.661	0.0136842
688.739	0.0136053
688.818	0.0137772
688.896	0.0140483
688.974	0.0143665
689.052	0.0143117
689.130	0.0143658
689.208	0.0143932
689.286	0.0143118
689.364	0.0144260
689.443	0.0143844
689.521	0.0142064
689.599	0.0141217
689.677	0.0139459
689.755	0.0137518
689.833	0.0136056
689.911	0.0135110
689.989	0.0133031
690.068	0.0133060
690.146	0.0131998
690.224	0.0132252
690.302	0.0131832
690.380	0.0132305
690.458	0.0133678
690.536	0.0133916
690.614	0.0134531
690.693	0.0133028
690.771	0.0133147
690.849	0.0132324
690.927	0.0131647
691.005	0.0130701
691.083	0.0128901
691.161	0.0128463
691.239	0.0128972
691.318	0.0127197
691.396	0.0125442
691.474	0.0124310
691.552	0.0123432
691.630	0.0121828
691.708	0.0120232
691.786	0.0119484
691.864	0.0116872
691.943	0.0115858
692.021	0.0114251
692.099	0.0111832
692.177	0.0110103
692.255	0.0108693
692.333	0.0106623
692.411	0.0104366
692.489	0.0105776
692.568	0.0105405
692.646	0.0107423
692.724	0.0109014
692.802	0.0109644
692.880	0.0113276
692.958	0.0115655
693.036	0.0118115
693.114	0.0122136
693.193	0.0124841
693.271	0.0125742
693.349	0.0130843
693.427	0.0131129
693.505	0.0134570
693.583	0.0135197
693.661	0.0137555
693.739	0.0139484
693.818	0.0140508
693.896	0.0142860
693.974	0.0144929
694.052	0.0145054
694.130	0.0145531
694.208	0.0146622
694.286	0.0147106
694.364	0.0148689
694.443	0.0148479
694.521	0.0147782
694.599	0.0148138
694.677	0.0149199
694.755	0.0146874
694.833	0.0144888
694.911	0.0145515
694.989	0.0143706
695.068	0.0142935
695.146	0.0140432
695.224	0.0139361
695.302	0.0138176
695.380	0.0137157
695.458	0.0134930
695.536	0.0133604
695.614	0.0130329
695.693	0.0130710
695.771	0.0129687
695.849	0.0126623
695.927	0.0127811
696.005	0.0126628
696.083	0.0126694
696.161	0.0127380
696.239	0.0125822
696.318	0.0125039
696.396	0.0124354
696.474	0.0122012
696.552	0.0120285
696.630	0.0118634
696.708	0.0116303
696.786	0.0115064
696.864	0.0110753
696.943	0.0106596
697.021	0.0103719
697.099	0.00999001
697.177	0.00972160
697.255	0.00940514
697.333	0.00903503
697.411	0.00880005
697.489	0.00869461
697.568	0.00853271
697.646	0.00873726
697.724	0.00876328
697.802	0.00917168
697.880	0.00949066
697.958	0.0100581
698.036	0.0105216
698.114	0.0110639
698.193	0.0117017
698.271	0.0123066
698.349	0.0131384
698.427	0.0137808
698.505	0.0143063
698.583	0.0150277
698.661	0.0154895
698.739	0.0158991
698.818	0.0165370
698.896	0.0169904
698.974	0.0173402
699.052	0.0178065
699.130	0.0178735
699.208	0.0180130
699.286	0.0182587
699.364	0.0182802
699.443	0.0181271
699.521	0.0180527
699.599	0.0180018
699.677	0.0177366
699.755	0.0170322
699.833	0.0165400
699.911	0.0160665
699.989	0.0151565
700.068	0.0145127
700.146	0.0137016
700.224	0.0130437
700.302	0.0123084
700.380	0.0115741
700.458	0.0110837
700.536	0.0103769
700.614	0.00987373
700.693	0.00937439
700.771	0.00923264
700.849	0.00909767
700.927	0.00912415
701.005	0.00905891
701.083	0.00921593
701.161	0.00926750
701.239	0.00953339
701.318	0.00967682
701.396	0.00976906
701.474	0.0100809
701.552	0.0101909
701.630	0.0102459
701.708	0.0105917
701.786	0.0109111
701.864	0.0109594
701.943	0.0110470
702.021	0.0111752
702.099	0.0113277
702.177	0.0115398
702.255	0.0117476
702.333	0.0117813
702.411	0.0118651
702.489	0.0118306
702.568	0.0120006
702.646	0.0122766
702.724	0.0124176
702.802	0.0123945
702.880	0.0124344
702.958	0.0126608
703.036	0.0128657
703.114	0.0129649
703.193	0.0132050
703.271	0.0134203
703.349	0.0137302
703.427	0.0139411
703.505	0.0142616
703.583	0.0144575
703.661	0.0146148
703.739	0.0149471
703.818	0.0152901
703.896	0.0154926
703.974	0.0157297
704.052	0.0157551
704.130	0.0158716
704.208	0.0161359
704.286	0.0159531
704.364	0.0160362
704.443	0.0159904
704.521	0.0160697
704.599	0.0159480
704.677	0.0156060
704.755	0.0153410
704.833	0.0150768
704.911	0.0147209
704.989	0.0143992
705.068	0.0139140
705.146	0.0134482
705.224	0.0129388
705.302	0.0125451
705.380	0.0121329
705.458	0.0117859
705.536	0.0113349
705.614	0.0110035
705.693	0.0107068
705.771	0.0103407
705.849	0.0102429
705.927	0.00995995
706.005	0.0101514
706.083	0.00995758
706.161	0.0100591
706.239	0.0103043
706.318	0.0105030
706.396	0.0106728
706.474	0.0110470
706.552	0.0114967
706.630	0.0118410
706.708	0.0120534
706.786	0.0124044
706.864	0.0127326
706.943	0.0131065
707.021	0.0130868
707.099	0.0133045
707.177	0.0133598
707.255	0.0133640
707.333	0.0132883
707.411	0.0133992
707.489	0.0132384
707.568	0.0129026
707.646	0.0127299
707.724	0.0125588
707.802	0.0123627
707.880	0.0119400
707.958	0.0115141
708.036	0.0111388
708.114	0.0109401
708.193	0.0105544
708.271	0.0103478
708.349	0.0100095
708.427	0.00973808
708.505	0.00983826
708.583	0.00970490
708.661	0.00990387
708.739	0.0102232
708.818	0.0107377
708.896	0.0112264
708.974	0.0118600
709.052	0.0126804
709.130	0.0134683
709.208	0.0140576
709.286	0.0150107
709.364	0.0155753
709.443	0.0163242
709.521	0.0168757
709.599	0.0174160
709.677	0.0176815
709.755	0.0181194
709.833	0.0182785
709.911	0.0184540
709.989	0.0185155
710.068	0.0183054
710.146	0.0181664
710.224	0.0177791
710.302	0.0174360
710.380	0.0168237
710.458	0.0162666
710.536	0.0157491
710.614	0.0150229
710.693	0.0143127
710.771	0.0134184
710.849	0.0128029
710.927	0.0119883
711.005	0.0112715
711.083	0.0105751
711.161	0.00972939
711.239	0.00898705
711.318	0.00866760
711.396	0.00829102
711.474	0.00803589
711.552	0.00776581
711.630	0.00805038
711.708	0.00799065
711.786	0.00829887
711.864	0.00885872
711.943	0.00925392
712.021	0.00972359
712.099	0.0104226
712.177	0.0112138
712.255	0.0117612
712.333	0.0124324
712.411	0.0130318
712.489	0.0134676
712.568	0.0137257
712.646	0.0139799
712.724	0.0141885
712.802	0.0143198
712.880	0.0143665
712.958	0.0142921
713.036	0.0139507
713.114	0.0138657
713.193	0.0135648
713.271	0.0132170
713.349	0.0128677
713.427	0.0126900
713.505	0.0123451
713.583	0.0118813
713.661	0.0116013
713.739	0.0111642
713.818	0.0107162
713.896	0.0106501
713.974	0.0103747
714.052	0.0102659
714.130	0.0102406
714.208	0.0101964
714.286	0.0104668
714.364	0.0107967
714.443	0.0113802
714.521	0.0116080
714.599	0.0123457
714.677	0.0129924
714.755	0.0136658
714.833	0.0142444
714.911	0.0150416
714.989	0.0157948
715.068	0.0163249
715.146	0.0168560
715.224	0.0173569
715.302	0.0177081
715.380	0.0179566
715.458	0.0179419
715.536	0.0178347
715.614	0.0177007
715.693	0.0175028
715.771	0.0171425
715.849	0.0166369
715.927	0.0162650
716.005	0.0156367
716.083	0.0151386
716.161	0.0144151
716.239	0.0138150
716.318	0.0132433
716.396	0.0126570
716.474	0.0120965
716.552	0.0115036
716.630	0.0111841
716.708	0.0107231
716.786	0.0102341
716.864	0.00978767
716.943	0.00957664
717.021	0.00941925
717.099	0.00917961
717.177	0.00928062
717.255	0.00944572
717.333	0.00959457
717.411	0.00984535
717.489	0.0103933
717.568	0.0108693
717.646	0.0111663
717.724	0.0116868
717.802	0.0122660
717.880	0.0126929
717.958	0.0129977
718.036	0.0132754
718.114	0.0134947
718.193	0.0136624
718.271	0.0136299
718.349	0.0133064
718.427	0.0132730
718.505	0.0130573
718.583	0.0125679
718.661	0.0123093
718.739	0.0117346
718.818	0.0113828
718.896	0.0110503
718.974	0.0107534
719.052	0.0105580
719.130	0.0102913
719.208	0.00997826
719.286	0.00983665
719.364	0.00976921
719.443	0.00962746
719.521	0.00981346
719.599	0.00993004
719.677	0.0101826
719.755	0.0103859
719.833	0.0107488
719.911	0.0113289
719.989	0.0118550
720.068	0.0125081
720.146	0.0131174
720.224	0.0138762
720.302	0.0144659
720.380	0.0152957
720.458	0.0161889
720.536	0.0167337
720.614	0.0173564
720.693	0.0178662
720.771	0.0183225
720.849	0.0183639
720.927	0.0186104
721.005	0.0187582
721.083	0.0185629
721.161	0.0183589
721.239	0.0180019
721.318	0.0175181
721.396	0.0171399
721.474	0.0165710
721.552	0.0159860
721.630	0.0154715
721.708	0.0147937
721.786	0.0141036
721.864	0.0134811
721.943	0.0129064
722.021	0.0123772
722.099	0.0118136
722.177	0.0112018
722.255	0.0108705
722.333	0.0104471
722.411	0.0101368
722.489	0.00982231
722.568	0.00956726
722.646	0.00922653
722.724	0.00925148
722.802	0.00936256
722.880	0.00942101
722.958	0.00933701
723.036	0.00968147
723.114	0.0100322
723.193	0.0102921
723.271	0.0104988
723.349	0.0106825
723.427	0.0110400
723.505	0.0113044
723.583	0.0115086
723.661	0.0115955
723.739	0.0118297
723.818	0.0120501
723.896	0.0121069
723.974	0.0120972
724.052	0.0119583
724.130	0.0120927
724.208	0.0121717
724.286	0.0120442
724.364	0.0119250
724.443	0.0118319
724.521	0.0117957
724.599	0.0117382
724.677	0.0117011
724.755	0.0118010
724.833	0.0117838
724.911	0.0117483
724.989	0.0120302
725.068	0.0118948
725.146	0.0121246
725.224	0.0123676
725.302	0.0124804
725.380	0.0125471
725.458	0.0128414
