05/07/2022	17:18:27	Ver.	4.1	UNKNOWN
Optical Delay	639.989416	Delta X		0.078125	Sweeps	1	Scan Rate	0/0
Coordinates	Axis 1	NaN	Axis 2	NaN	Axis 3	NaN	Axis 4	NaN	Axis 5	NaN	Axis 6	0.000000
TX Power	0.000000	RX Power	0.000000

639.989	0.0127949
640.068	0.0127213
640.146	0.0126773
640.224	0.0126720
640.302	0.0127757
640.380	0.0127562
640.458	0.0128105
640.536	0.0126797
640.614	0.0126968
640.693	0.0127325
640.771	0.0127784
640.849	0.0127512
640.927	0.0128221
641.005	0.0128095
641.083	0.0127100
641.161	0.0129172
641.239	0.0128448
641.318	0.0128219
641.396	0.0128240
641.474	0.0127614
641.552	0.0127711
641.630	0.0127093
641.708	0.0129122
641.786	0.0128730
641.864	0.0127631
641.943	0.0128175
642.021	0.0127467
642.099	0.0128353
642.177	0.0129246
642.255	0.0128127
642.333	0.0128156
642.411	0.0129291
642.489	0.0127748
642.568	0.0128423
642.646	0.0128269
642.724	0.0127933
642.802	0.0126044
642.880	0.0126572
642.958	0.0127608
643.036	0.0127512
643.114	0.0127725
643.193	0.0128719
643.271	0.0128506
643.349	0.0127380
643.427	0.0129380
643.505	0.0127782
643.583	0.0128207
643.661	0.0127603
643.739	0.0127744
643.818	0.0129739
643.896	0.0128148
643.974	0.0127369
644.052	0.0127804
644.130	0.0128184
644.208	0.0128042
644.286	0.0128429
644.364	0.0127724
644.443	0.0128719
644.521	0.0127435
644.599	0.0127547
644.677	0.0128858
644.755	0.0127721
644.833	0.0128062
644.911	0.0128058
644.989	0.0129187
645.068	0.0128310
645.146	0.0128585
645.224	0.0126877
645.302	0.0127637
645.380	0.0127716
645.458	0.0128509
645.536	0.0129321
645.614	0.0128557
645.693	0.0127337
645.771	0.0127751
645.849	0.0128964
645.927	0.0129046
646.005	0.0127959
646.083	0.0125935
646.161	0.0126356
646.239	0.0127688
646.318	0.0128059
646.396	0.0127051
646.474	0.0127778
646.552	0.0127931
646.630	0.0128416
646.708	0.0127744
646.786	0.0127242
646.864	0.0126260
646.943	0.0127088
647.021	0.0127982
647.099	0.0127843
647.177	0.0128615
647.255	0.0127995
647.333	0.0126013
647.411	0.0128255
647.489	0.0128478
647.568	0.0126665
647.646	0.0127283
647.724	0.0128805
647.802	0.0128719
647.880	0.0128327
647.958	0.0126665
648.036	0.0126340
648.114	0.0125845
648.193	0.0128045
648.271	0.0128441
648.349	0.0128000
648.427	0.0128702
648.505	0.0128329
648.583	0.0126678
648.661	0.0127251
648.739	0.0126915
648.818	0.0127148
648.896	0.0128745
648.974	0.0127419
649.052	0.0126932
649.130	0.0126231
649.208	0.0127676
649.286	0.0128358
649.364	0.0127959
649.443	0.0128165
649.521	0.0126347
649.599	0.0127701
649.677	0.0128255
649.755	0.0126597
649.833	0.0126200
649.911	0.0129012
649.989	0.0128781
650.068	0.0127585
650.146	0.0126550
650.224	0.0128339
650.302	0.0127987
650.380	0.0127502
650.458	0.0127097
650.536	0.0128302
650.614	0.0127740
650.693	0.0126908
650.771	0.0125986
650.849	0.0127451
650.927	0.0127201
651.005	0.0127350
651.083	0.0127353
651.161	0.0128488
651.239	0.0128704
651.318	0.0127570
651.396	0.0126853
651.474	0.0128538
651.552	0.0127851
651.630	0.0127858
651.708	0.0128173
651.786	0.0128376
651.864	0.0127545
651.943	0.0128724
652.021	0.0127952
652.099	0.0127197
652.177	0.0127424
652.255	0.0128325
652.333	0.0128066
652.411	0.0127704
652.489	0.0128347
652.568	0.0128690
652.646	0.0127805
652.724	0.0128466
652.802	0.0129865
652.880	0.0128559
652.958	0.0127557
653.036	0.0128756
653.114	0.0129607
653.193	0.0127940
653.271	0.0128092
653.349	0.0128255
653.427	0.0128020
653.505	0.0128023
653.583	0.0129742
653.661	0.0128380
653.739	0.0127794
653.818	0.0128083
653.896	0.0128508
653.974	0.0128941
654.052	0.0128669
654.130	0.0127766
654.208	0.0128072
654.286	0.0129209
654.364	0.0128114
654.443	0.0127711
654.521	0.0128432
654.599	0.0126992
654.677	0.0127489
654.755	0.0129557
654.833	0.0127858
654.911	0.0127631
654.989	0.0128805
655.068	0.0127539
655.146	0.0128673
655.224	0.0128619
655.302	0.0127600
655.380	0.0128249
655.458	0.0129160
655.536	0.0128810
655.614	0.0128136
655.693	0.0128588
655.771	0.0126785
655.849	0.0128268
655.927	0.0127589
656.005	0.0128255
656.083	0.0129774
656.161	0.0128729
656.239	0.0127133
656.318	0.0129712
656.396	0.0128330
656.474	0.0127268
656.552	0.0128747
656.630	0.0129169
656.708	0.0127395
656.786	0.0127283
656.864	0.0128050
656.943	0.0127731
657.021	0.0128680
657.099	0.0127578
657.177	0.0127293
657.255	0.0128340
657.333	0.0128233
657.411	0.0127368
657.489	0.0129088
657.568	0.0128269
657.646	0.0127985
657.724	0.0127766
657.802	0.0127992
657.880	0.0125977
657.958	0.0128094
658.036	0.0128133
658.114	0.0125721
658.193	0.0127417
658.271	0.0128407
658.349	0.0127499
658.427	0.0127518
658.505	0.0128760
658.583	0.0128138
658.661	0.0127549
658.739	0.0128322
658.818	0.0128753
658.896	0.0127064
658.974	0.0127415
659.052	0.0128391
659.130	0.0126921
659.208	0.0127927
659.286	0.0127956
659.364	0.0129294
659.443	0.0127650
659.521	0.0127895
659.599	0.0128281
659.677	0.0128469
659.755	0.0128063
659.833	0.0127862
659.911	0.0128458
659.989	0.0128554
660.068	0.0127744
660.146	0.0127872
660.224	0.0128686
660.302	0.0127239
660.380	0.0126909
660.458	0.0128352
660.536	0.0128160
660.614	0.0127389
660.693	0.0128931
660.771	0.0127887
660.849	0.0126611
660.927	0.0127260
661.005	0.0129384
661.083	0.0128336
661.161	0.0127264
661.239	0.0127277
661.318	0.0129382
661.396	0.0127663
661.474	0.0127378
661.552	0.0127761
661.630	0.0127615
661.708	0.0127182
661.786	0.0127894
661.864	0.0126849
661.943	0.0128651
662.021	0.0127636
662.099	0.0127839
662.177	0.0127648
662.255	0.0128319
662.333	0.0128551
662.411	0.0127770
662.489	0.0127564
662.568	0.0128576
662.646	0.0128160
662.724	0.0128725
662.802	0.0128787
662.880	0.0127290
662.958	0.0127701
663.036	0.0127527
663.114	0.0127554
663.193	0.0127318
663.271	0.0128394
663.349	0.0128423
663.427	0.0127551
663.505	0.0127414
663.583	0.0126514
663.661	0.0126382
663.739	0.0128404
663.818	0.0128201
663.896	0.0126914
663.974	0.0127627
664.052	0.0128445
664.130	0.0126762
664.208	0.0127536
664.286	0.0128410
664.364	0.0129443
664.443	0.0129882
664.521	0.0128813
664.599	0.0130180
664.677	0.0129401
664.755	0.0129214
664.833	0.0128304
664.911	0.0127625
664.989	0.0126702
665.068	0.0126131
665.146	0.0126810
665.224	0.0126775
665.302	0.0126138
665.380	0.0126486
665.458	0.0125606
665.536	0.0126550
665.614	0.0125684
665.693	0.0125956
665.771	0.0127551
665.849	0.0126563
665.927	0.0126220
666.005	0.0126819
666.083	0.0128741
666.161	0.0128274
666.239	0.0129224
666.318	0.0128477
666.396	0.0129755
666.474	0.0129707
666.552	0.0130286
666.630	0.0130292
666.708	0.0129291
666.786	0.0129810
666.864	0.0129437
666.943	0.0129591
667.021	0.0129236
667.099	0.0128488
667.177	0.0128880
667.255	0.0128846
667.333	0.0128686
667.411	0.0129302
667.489	0.0127404
667.568	0.0128496
667.646	0.0128706
667.724	0.0127100
667.802	0.0126624
667.880	0.0125228
667.958	0.0124072
668.036	0.0125465
668.114	0.0124361
668.193	0.0125110
668.271	0.0124001
668.349	0.0124904
668.427	0.0124803
668.505	0.0124547
668.583	0.0125465
668.661	0.0127573
668.739	0.0126366
668.818	0.0128172
668.896	0.0128086
668.974	0.0130916
669.052	0.0130614
669.130	0.0130531
669.208	0.0131044
669.286	0.0131643
669.364	0.0131842
669.443	0.0131638
669.521	0.0131307
669.599	0.0132030
669.677	0.0132817
669.755	0.0133758
669.833	0.0132655
669.911	0.0131812
669.989	0.0132637
670.068	0.0132027
670.146	0.0131204
670.224	0.0131603
670.302	0.0130161
670.380	0.0129148
670.458	0.0129011
670.536	0.0129086
670.614	0.0126507
670.693	0.0125954
670.771	0.0124632
670.849	0.0122505
670.927	0.0121480
671.005	0.0121785
671.083	0.0122663
671.161	0.0120320
671.239	0.0119579
671.318	0.0119746
671.396	0.0121691
671.474	0.0122305
671.552	0.0122005
671.630	0.0123502
671.708	0.0123631
671.786	0.0124474
671.864	0.0125706
671.943	0.0127477
672.021	0.0128015
672.099	0.0128531
672.177	0.0131420
672.255	0.0133169
672.333	0.0132701
672.411	0.0133973
672.489	0.0135954
672.568	0.0138551
672.646	0.0137547
672.724	0.0139207
672.802	0.0138992
672.880	0.0139255
672.958	0.0136803
673.036	0.0137259
673.114	0.0137208
673.193	0.0135416
673.271	0.0133852
673.349	0.0132440
673.427	0.0130102
673.505	0.0129321
673.583	0.0125331
673.661	0.0123110
673.739	0.0122726
673.818	0.0119881
673.896	0.0118798
673.974	0.0116357
674.052	0.0115844
674.130	0.0115607
674.208	0.0115686
674.286	0.0116015
674.364	0.0116511
674.443	0.0117675
674.521	0.0117472
674.599	0.0119408
674.677	0.0121651
674.755	0.0122176
674.833	0.0125291
674.911	0.0126741
674.989	0.0126701
675.068	0.0128380
675.146	0.0130991
675.224	0.0133467
675.302	0.0135145
675.380	0.0136901
675.458	0.0134849
675.536	0.0137521
675.614	0.0138913
675.693	0.0139540
675.771	0.0139864
675.849	0.0138742
675.927	0.0139507
676.005	0.0137035
676.083	0.0134939
676.161	0.0136123
676.239	0.0135812
676.318	0.0134263
676.396	0.0131792
676.474	0.0128294
676.552	0.0127806
676.630	0.0126829
676.708	0.0124953
676.786	0.0121713
676.864	0.0121795
676.943	0.0120583
677.021	0.0120235
677.099	0.0117741
677.177	0.0119492
677.255	0.0117953
677.333	0.0117719
677.411	0.0118610
677.489	0.0119251
677.568	0.0119938
677.646	0.0121623
677.724	0.0122337
677.802	0.0123590
677.880	0.0125156
677.958	0.0126748
678.036	0.0129715
678.114	0.0129202
678.193	0.0132986
678.271	0.0133873
678.349	0.0137952
678.427	0.0138593
678.505	0.0139227
678.583	0.0139757
678.661	0.0140726
678.739	0.0139852
678.818	0.0140469
678.896	0.0139107
678.974	0.0136333
679.052	0.0134771
679.130	0.0132520
679.208	0.0131351
679.286	0.0127299
679.364	0.0125690
679.443	0.0121948
679.521	0.0120807
679.599	0.0117902
679.677	0.0116691
679.755	0.0116903
679.833	0.0114736
679.911	0.0113081
679.989	0.0113165
680.068	0.0112654
680.146	0.0113552
680.224	0.0114222
680.302	0.0114920
680.380	0.0116531
680.458	0.0118876
680.536	0.0119814
680.614	0.0121184
680.693	0.0123820
680.771	0.0125870
680.849	0.0128789
680.927	0.0130824
681.005	0.0134100
681.083	0.0138457
681.161	0.0140282
681.239	0.0141192
681.318	0.0144178
681.396	0.0145293
681.474	0.0145665
681.552	0.0146416
681.630	0.0147614
681.708	0.0147367
681.786	0.0146906
681.864	0.0143925
681.943	0.0143272
682.021	0.0142963
682.099	0.0140433
682.177	0.0138207
682.255	0.0133672
682.333	0.0130833
682.411	0.0127583
682.489	0.0124856
682.568	0.0122662
682.646	0.0119461
682.724	0.0117234
682.802	0.0115808
682.880	0.0113338
682.958	0.0111691
683.036	0.0112378
683.114	0.0110445
683.193	0.0111761
683.271	0.0109607
683.349	0.0110620
683.427	0.0113657
683.505	0.0114608
683.583	0.0114395
683.661	0.0116460
683.739	0.0118101
683.818	0.0121705
683.896	0.0123273
683.974	0.0124729
684.052	0.0125356
684.130	0.0126930
684.208	0.0127734
684.286	0.0127274
684.364	0.0127318
684.443	0.0128297
684.521	0.0127600
684.599	0.0127103
684.677	0.0126381
684.755	0.0124394
684.833	0.0125830
684.911	0.0125308
684.989	0.0126347
685.068	0.0127526
685.146	0.0127885
685.224	0.0129678
685.302	0.0131313
685.380	0.0132837
685.458	0.0136388
685.536	0.0137364
685.614	0.0140587
685.693	0.0142455
685.771	0.0143834
685.849	0.0145223
685.927	0.0147002
686.005	0.0146973
686.083	0.0147455
686.161	0.0148721
686.239	0.0148325
686.318	0.0147949
686.396	0.0146072
686.474	0.0146127
686.552	0.0145616
686.630	0.0141402
686.708	0.0140327
686.786	0.0139159
686.864	0.0137042
686.943	0.0132926
687.021	0.0129018
687.099	0.0127262
687.177	0.0123251
687.255	0.0118627
687.333	0.0112451
687.411	0.0110011
687.489	0.0106480
687.568	0.0103102
687.646	0.00997383
687.724	0.00972260
687.802	0.00960556
687.880	0.00938034
687.958	0.00929329
688.036	0.00917450
688.114	0.00930946
688.193	0.00962379
688.271	0.00961273
688.349	0.00956802
688.427	0.00992455
688.505	0.0102170
688.583	0.0105457
688.661	0.0110742
688.739	0.0112524
688.818	0.0117510
688.896	0.0122657
688.974	0.0127108
689.052	0.0132529
689.130	0.0136604
689.208	0.0141938
689.286	0.0147140
689.364	0.0152663
689.443	0.0157516
689.521	0.0161175
689.599	0.0164137
689.677	0.0166593
689.755	0.0169592
689.833	0.0170447
689.911	0.0168854
689.989	0.0169222
690.068	0.0166997
690.146	0.0165110
690.224	0.0161221
690.302	0.0157889
690.380	0.0155090
690.458	0.0151064
690.536	0.0146215
690.614	0.0142650
690.693	0.0137752
690.771	0.0130807
690.849	0.0126875
690.927	0.0124673
691.005	0.0119010
691.083	0.0113466
691.161	0.0110043
691.239	0.0106234
691.318	0.0104654
691.396	0.0102486
691.474	0.0100832
691.552	0.0100394
691.630	0.00998627
691.708	0.00990967
691.786	0.0100505
691.864	0.0101085
691.943	0.0101893
692.021	0.0102757
692.099	0.0104927
692.177	0.0106615
692.255	0.0109579
692.333	0.0110311
692.411	0.0113340
692.489	0.0114081
692.568	0.0115563
692.646	0.0117617
692.724	0.0119935
692.802	0.0120935
692.880	0.0122372
692.958	0.0123460
693.036	0.0125099
693.114	0.0125758
693.193	0.0128516
693.271	0.0129758
693.349	0.0131445
693.427	0.0132869
693.505	0.0134151
693.583	0.0136286
693.661	0.0137381
693.739	0.0138853
693.818	0.0139302
693.896	0.0138953
693.974	0.0140650
694.052	0.0140255
694.130	0.0142345
694.208	0.0143440
694.286	0.0143481
694.364	0.0144207
694.443	0.0144216
694.521	0.0145440
694.599	0.0145035
694.677	0.0145550
694.755	0.0146098
694.833	0.0146880
694.911	0.0145937
694.989	0.0144756
695.068	0.0144756
695.146	0.0142737
695.224	0.0141667
695.302	0.0138943
695.380	0.0135456
695.458	0.0133370
695.536	0.0128783
695.614	0.0127092
695.693	0.0123802
695.771	0.0121612
695.849	0.0120424
695.927	0.0118160
696.005	0.0114992
696.083	0.0115384
696.161	0.0115544
696.239	0.0115066
696.318	0.0116352
696.396	0.0117471
696.474	0.0119218
696.552	0.0117860
696.630	0.0119447
696.708	0.0118428
696.786	0.0119435
696.864	0.0118923
696.943	0.0120112
697.021	0.0119604
697.099	0.0121593
697.177	0.0120314
697.255	0.0119173
697.333	0.0118896
697.411	0.0117371
697.489	0.0116153
697.568	0.0115597
697.646	0.0114821
697.724	0.0113796
697.802	0.0114827
697.880	0.0114592
697.958	0.0114524
698.036	0.0115564
698.114	0.0117525
698.193	0.0119966
698.271	0.0121773
698.349	0.0122513
698.427	0.0124563
698.505	0.0127388
698.583	0.0129136
698.661	0.0131474
698.739	0.0134349
698.818	0.0135285
698.896	0.0135645
698.974	0.0137459
699.052	0.0139220
699.130	0.0141616
699.208	0.0140427
699.286	0.0141109
699.364	0.0141472
699.443	0.0141456
699.521	0.0140719
699.599	0.0141570
699.677	0.0142726
699.755	0.0142236
699.833	0.0142249
699.911	0.0142457
699.989	0.0142360
700.068	0.0142519
700.146	0.0141640
700.224	0.0140576
700.302	0.0141100
700.380	0.0138768
700.458	0.0138028
700.536	0.0136229
700.614	0.0135092
700.693	0.0132816
700.771	0.0129680
700.849	0.0129333
700.927	0.0127193
701.005	0.0124152
701.083	0.0122347
701.161	0.0121714
701.239	0.0120578
701.318	0.0120600
701.396	0.0120064
701.474	0.0119879
701.552	0.0120016
701.630	0.0120849
701.708	0.0118159
701.786	0.0119389
701.864	0.0119167
701.943	0.0117353
702.021	0.0116914
702.099	0.0118666
702.177	0.0118414
702.255	0.0117599
702.333	0.0117220
702.411	0.0115772
702.489	0.0117384
702.568	0.0117059
702.646	0.0118737
702.724	0.0120560
702.802	0.0121003
702.880	0.0121718
702.958	0.0125790
703.036	0.0128279
703.114	0.0128475
703.193	0.0129213
703.271	0.0130611
703.349	0.0129378
703.427	0.0130726
703.505	0.0128587
703.583	0.0129433
703.661	0.0129471
703.739	0.0127689
703.818	0.0126167
703.896	0.0123395
703.974	0.0123579
704.052	0.0123325
704.130	0.0122881
704.208	0.0123129
704.286	0.0124165
704.364	0.0124200
704.443	0.0124519
704.521	0.0123972
704.599	0.0123557
704.677	0.0125863
704.755	0.0128324
704.833	0.0129684
704.911	0.0132990
704.989	0.0131969
705.068	0.0134212
705.146	0.0137209
705.224	0.0139230
705.302	0.0140637
705.380	0.0142067
705.458	0.0142500
705.536	0.0144313
705.614	0.0146238
705.693	0.0146375
705.771	0.0145885
705.849	0.0145182
705.927	0.0143746
706.005	0.0142129
706.083	0.0141647
706.161	0.0141355
706.239	0.0138348
706.318	0.0137341
706.396	0.0136860
706.474	0.0134254
706.552	0.0134129
706.630	0.0131321
706.708	0.0130387
706.786	0.0128075
706.864	0.0126789
706.943	0.0124193
707.021	0.0122046
707.099	0.0118931
707.177	0.0117351
707.255	0.0114896
707.333	0.0112553
707.411	0.0110412
707.489	0.0110524
707.568	0.0109894
707.646	0.0111637
707.724	0.0109040
707.802	0.0111272
707.880	0.0110844
707.958	0.0112153
708.036	0.0114466
708.114	0.0117190
708.193	0.0118008
708.271	0.0119453
708.349	0.0122844
708.427	0.0124078
708.505	0.0125974
708.583	0.0127119
708.661	0.0127625
708.739	0.0130122
708.818	0.0128907
708.896	0.0130037
708.974	0.0130264
709.052	0.0129134
709.130	0.0129653
709.208	0.0129950
709.286	0.0129826
709.364	0.0128391
709.443	0.0127395
709.521	0.0126956
709.599	0.0126162
709.677	0.0126492
709.755	0.0124419
709.833	0.0126274
709.911	0.0125517
709.989	0.0124565
710.068	0.0124359
710.146	0.0126703
710.224	0.0125938
710.302	0.0126048
710.380	0.0126788
710.458	0.0127907
710.536	0.0131003
710.614	0.0130961
710.693	0.0132305
710.771	0.0132709
710.849	0.0135363
710.927	0.0135907
711.005	0.0140119
711.083	0.0140134
711.161	0.0141222
711.239	0.0143736
711.318	0.0147112
711.396	0.0147305
711.474	0.0148775
711.552	0.0148057
711.630	0.0147240
711.708	0.0146684
711.786	0.0146223
711.864	0.0142790
711.943	0.0142771
712.021	0.0139801
712.099	0.0136634
712.177	0.0134293
712.255	0.0130836
712.333	0.0129829
712.411	0.0125143
712.489	0.0122221
712.568	0.0119797
712.646	0.0118147
712.724	0.0114534
712.802	0.0112061
712.880	0.0111665
712.958	0.0111087
713.036	0.0110389
713.114	0.0110388
713.193	0.0109837
713.271	0.0109737
713.349	0.0110696
713.427	0.0112376
713.505	0.0113304
713.583	0.0115320
713.661	0.0117447
713.739	0.0119108
713.818	0.0122661
713.896	0.0122824
713.974	0.0125280
714.052	0.0127613
714.130	0.0129298
714.208	0.0131432
714.286	0.0132778
714.364	0.0134061
714.443	0.0135168
714.521	0.0133899
714.599	0.0134432
714.677	0.0134743
714.755	0.0133693
714.833	0.0133151
714.911	0.0133623
714.989	0.0129258
715.068	0.0129261
715.146	0.0125697
715.224	0.0124475
715.302	0.0123250
715.380	0.0121053
715.458	0.0116328
715.536	0.0117039
715.614	0.0115382
715.693	0.0115592
715.771	0.0115195
715.849	0.0114343
715.927	0.0114199
716.005	0.0115019
716.083	0.0116273
716.161	0.0117937
716.239	0.0121346
716.318	0.0123651
716.396	0.0126529
716.474	0.0129394
716.552	0.0133469
716.630	0.0137469
716.708	0.0141555
716.786	0.0143962
716.864	0.0146412
716.943	0.0150858
717.021	0.0153349
717.099	0.0155435
717.177	0.0155502
717.255	0.0156403
717.333	0.0157328
717.411	0.0156010
717.489	0.0156664
717.568	0.0155109
717.646	0.0152937
717.724	0.0151393
717.802	0.0149119
717.880	0.0144859
717.958	0.0142490
718.036	0.0138844
718.114	0.0136436
718.193	0.0133172
718.271	0.0129498
718.349	0.0125249
718.427	0.0121548
718.505	0.0118324
718.583	0.0116303
718.661	0.0113476
718.739	0.0109830
718.818	0.0107887
718.896	0.0102855
718.974	0.0102436
719.052	0.00995567
719.130	0.00966148
719.208	0.00973686
719.286	0.00965538
719.364	0.00996376
719.443	0.00995819
719.521	0.0100886
719.599	0.0104869
719.677	0.0108737
719.755	0.0112379
719.833	0.0114506
719.911	0.0119408
719.989	0.0123218
720.068	0.0127189
720.146	0.0129408
720.224	0.0131950
720.302	0.0134283
720.380	0.0136121
720.458	0.0138667
720.536	0.0140774
720.614	0.0139780
720.693	0.0140680
720.771	0.0139983
720.849	0.0140049
720.927	0.0140897
721.005	0.0138523
721.083	0.0137293
721.161	0.0135607
721.239	0.0134089
721.318	0.0132313
721.396	0.0128188
721.474	0.0129202
721.552	0.0126581
721.630	0.0124527
721.708	0.0124194
721.786	0.0121839
721.864	0.0121790
721.943	0.0121182
722.021	0.0120726
722.099	0.0121554
722.177	0.0123032
722.255	0.0122968
722.333	0.0125204
722.411	0.0127119
722.489	0.0128831
722.568	0.0130550
722.646	0.0132189
722.724	0.0134707
722.802	0.0136355
722.880	0.0138280
722.958	0.0139960
723.036	0.0141479
723.114	0.0143285
723.193	0.0144340
723.271	0.0146577
723.349	0.0144756
723.427	0.0145362
723.505	0.0144248
723.583	0.0142294
723.661	0.0140186
723.739	0.0139274
723.818	0.0138851
723.896	0.0133610
723.974	0.0131716
724.052	0.0130354
724.130	0.0128217
724.208	0.0127231
724.286	0.0125725
724.364	0.0123479
724.443	0.0122709
724.521	0.0122089
724.599	0.0121767
724.677	0.0120860
724.755	0.0121054
724.833	0.0120216
724.911	0.0119582
724.989	0.0118632
725.068	0.0118224
725.146	0.0118717
725.224	0.0117610
725.302	0.0117008
725.380	0.0114613
725.458	0.0115472
725.536	0.0116022
725.614	0.0116521
