05/07/2022	17:19:12	Ver.	4.1	UNKNOWN
Optical Delay	639.989416	Delta X		0.078125	Sweeps	1	Scan Rate	0/0
Coordinates	Axis 1	NaN	Axis 2	NaN	Axis 3	NaN	Axis 4	NaN	Axis 5	NaN	Axis 6	0.000000
TX Power	0.000000	RX Power	0.000000

639.989	0.0127208
640.068	0.0127380
640.146	0.0127985
640.224	0.0127469
640.302	0.0126807
640.380	0.0128133
640.458	0.0127024
640.536	0.0127440
640.614	0.0127492
640.693	0.0128073
640.771	0.0127205
640.849	0.0127306
640.927	0.0128345
641.005	0.0127985
641.083	0.0126622
641.161	0.0128119
641.239	0.0126715
641.318	0.0126759
641.396	0.0127742
641.474	0.0128641
641.552	0.0127265
641.630	0.0127673
641.708	0.0128046
641.786	0.0128131
641.864	0.0128006
641.943	0.0128621
642.021	0.0127638
642.099	0.0127631
642.177	0.0128606
642.255	0.0127571
642.333	0.0127432
642.411	0.0127409
642.489	0.0127113
642.568	0.0127100
642.646	0.0127356
642.724	0.0128185
642.802	0.0128063
642.880	0.0127058
642.958	0.0126795
643.036	0.0128015
643.114	0.0127002
643.193	0.0127702
643.271	0.0127168
643.349	0.0127621
643.427	0.0127790
643.505	0.0127757
643.583	0.0128142
643.661	0.0127287
643.739	0.0127879
643.818	0.0129099
643.896	0.0128663
643.974	0.0128145
644.052	0.0126958
644.130	0.0127553
644.208	0.0125764
644.286	0.0127753
644.364	0.0127625
644.443	0.0128082
644.521	0.0128290
644.599	0.0128465
644.677	0.0127049
644.755	0.0127938
644.833	0.0126500
644.911	0.0125885
644.989	0.0127522
645.068	0.0127516
645.146	0.0128507
645.224	0.0127833
645.302	0.0127709
645.380	0.0127823
645.458	0.0127377
645.536	0.0128702
645.614	0.0127847
645.693	0.0126764
645.771	0.0126763
645.849	0.0127732
645.927	0.0126998
646.005	0.0127813
646.083	0.0127424
646.161	0.0127103
646.239	0.0127937
646.318	0.0126533
646.396	0.0128076
646.474	0.0127339
646.552	0.0128227
646.630	0.0129074
646.708	0.0128227
646.786	0.0127396
646.864	0.0127396
646.943	0.0128644
647.021	0.0127753
647.099	0.0128309
647.177	0.0126740
647.255	0.0127762
647.333	0.0128930
647.411	0.0126595
647.489	0.0127662
647.568	0.0128164
647.646	0.0127744
647.724	0.0127863
647.802	0.0127523
647.880	0.0126963
647.958	0.0127422
648.036	0.0127144
648.114	0.0128250
648.193	0.0127271
648.271	0.0127733
648.349	0.0128757
648.427	0.0127145
648.505	0.0127689
648.583	0.0128781
648.661	0.0127058
648.739	0.0126577
648.818	0.0126469
648.896	0.0128522
648.974	0.0127522
649.052	0.0127271
649.130	0.0126582
649.208	0.0128300
649.286	0.0127524
649.364	0.0126445
649.443	0.0127603
649.521	0.0128509
649.599	0.0128375
649.677	0.0127821
649.755	0.0127816
649.833	0.0128082
649.911	0.0127822
649.989	0.0128964
650.068	0.0127423
650.146	0.0127518
650.224	0.0128017
650.302	0.0128008
650.380	0.0127180
650.458	0.0126818
650.536	0.0129044
650.614	0.0127303
650.693	0.0127258
650.771	0.0128044
650.849	0.0127879
650.927	0.0127346
651.005	0.0126434
651.083	0.0127419
651.161	0.0126991
651.239	0.0125919
651.318	0.0129589
651.396	0.0127129
651.474	0.0126408
651.552	0.0127251
651.630	0.0128023
651.708	0.0127579
651.786	0.0127074
651.864	0.0127151
651.943	0.0128551
652.021	0.0127338
652.099	0.0126526
652.177	0.0128027
652.255	0.0127538
652.333	0.0126270
652.411	0.0127161
652.489	0.0128168
652.568	0.0128571
652.646	0.0126674
652.724	0.0127544
652.802	0.0127871
652.880	0.0126663
652.958	0.0126174
653.036	0.0127307
653.114	0.0128055
653.193	0.0127146
653.271	0.0127534
653.349	0.0127164
653.427	0.0127448
653.505	0.0126533
653.583	0.0127563
653.661	0.0129667
653.739	0.0127503
653.818	0.0127171
653.896	0.0127816
653.974	0.0125940
654.052	0.0128197
654.130	0.0126844
654.208	0.0126793
654.286	0.0127486
654.364	0.0127322
654.443	0.0127060
654.521	0.0128104
654.599	0.0128216
654.677	0.0128233
654.755	0.0127542
654.833	0.0127686
654.911	0.0126482
654.989	0.0128656
655.068	0.0127807
655.146	0.0127831
655.224	0.0127657
655.302	0.0127551
655.380	0.0128103
655.458	0.0127308
655.536	0.0128052
655.614	0.0127080
655.693	0.0127510
655.771	0.0127225
655.849	0.0129248
655.927	0.0127370
656.005	0.0127354
656.083	0.0127608
656.161	0.0128183
656.239	0.0127223
656.318	0.0126389
656.396	0.0127637
656.474	0.0128118
656.552	0.0126822
656.630	0.0128973
656.708	0.0127834
656.786	0.0127619
656.864	0.0127188
656.943	0.0127691
657.021	0.0126941
657.099	0.0128835
657.177	0.0127502
657.255	0.0128377
657.333	0.0126314
657.411	0.0127756
657.489	0.0128844
657.568	0.0127883
657.646	0.0127363
657.724	0.0126854
657.802	0.0127738
657.880	0.0127538
657.958	0.0126955
658.036	0.0126115
658.114	0.0128358
658.193	0.0126900
658.271	0.0126536
658.349	0.0127166
658.427	0.0128194
658.505	0.0127456
658.583	0.0126931
658.661	0.0126333
658.739	0.0126046
658.818	0.0127176
658.896	0.0127847
658.974	0.0125878
659.052	0.0126688
659.130	0.0128052
659.208	0.0127639
659.286	0.0126638
659.364	0.0127676
659.443	0.0126153
659.521	0.0127093
659.599	0.0128366
659.677	0.0126883
659.755	0.0125992
659.833	0.0128419
659.911	0.0127464
659.989	0.0127004
660.068	0.0126109
660.146	0.0125745
660.224	0.0127870
660.302	0.0127681
660.380	0.0126938
660.458	0.0126727
660.536	0.0127120
660.614	0.0127751
660.693	0.0126561
660.771	0.0127374
660.849	0.0127927
660.927	0.0128557
661.005	0.0128183
661.083	0.0126113
661.161	0.0127586
661.239	0.0127822
661.318	0.0127087
661.396	0.0127340
661.474	0.0127619
661.552	0.0126857
661.630	0.0128115
661.708	0.0128076
661.786	0.0125623
661.864	0.0127049
661.943	0.0127802
662.021	0.0127998
662.099	0.0127921
662.177	0.0126849
662.255	0.0127953
662.333	0.0128152
662.411	0.0126168
662.489	0.0128320
662.568	0.0126784
662.646	0.0125873
662.724	0.0126855
662.802	0.0126551
662.880	0.0126614
662.958	0.0126694
663.036	0.0126497
663.114	0.0126782
663.193	0.0128545
663.271	0.0127702
663.349	0.0128460
663.427	0.0129108
663.505	0.0128189
663.583	0.0128696
663.661	0.0129675
663.739	0.0129115
663.818	0.0128057
663.896	0.0128313
663.974	0.0128703
664.052	0.0127226
664.130	0.0125893
664.208	0.0125431
664.286	0.0125864
664.364	0.0125420
664.443	0.0124101
664.521	0.0124573
664.599	0.0126142
664.677	0.0124359
664.755	0.0127184
664.833	0.0127407
664.911	0.0125249
664.989	0.0125818
665.068	0.0127983
665.146	0.0128200
665.224	0.0129828
665.302	0.0129389
665.380	0.0129949
665.458	0.0129168
665.536	0.0130528
665.614	0.0131119
665.693	0.0130334
665.771	0.0129505
665.849	0.0129645
665.927	0.0128915
666.005	0.0128409
666.083	0.0128326
666.161	0.0127233
666.239	0.0127556
666.318	0.0127900
666.396	0.0128802
666.474	0.0128192
666.552	0.0126224
666.630	0.0124891
666.708	0.0127621
666.786	0.0128294
666.864	0.0125211
666.943	0.0126843
667.021	0.0125200
667.099	0.0123755
667.177	0.0123330
667.255	0.0124861
667.333	0.0125643
667.411	0.0125142
667.489	0.0125846
667.568	0.0125848
667.646	0.0127042
667.724	0.0126281
667.802	0.0127708
667.880	0.0127502
667.958	0.0130701
668.036	0.0130141
668.114	0.0129491
668.193	0.0129534
668.271	0.0130242
668.349	0.0130926
668.427	0.0129428
668.505	0.0129381
668.583	0.0128967
668.661	0.0127681
668.739	0.0128209
668.818	0.0128418
668.896	0.0130035
668.974	0.0129178
669.052	0.0129939
669.130	0.0130306
669.208	0.0130301
669.286	0.0129634
669.364	0.0130655
669.443	0.0129126
669.521	0.0127298
669.599	0.0127557
669.677	0.0125503
669.755	0.0125316
669.833	0.0123818
669.911	0.0124512
669.989	0.0122471
670.068	0.0123079
670.146	0.0121105
670.224	0.0120925
670.302	0.0122047
670.380	0.0123823
670.458	0.0121191
670.536	0.0122189
670.614	0.0123450
670.693	0.0124129
670.771	0.0123338
670.849	0.0122663
670.927	0.0124436
671.005	0.0125670
671.083	0.0126175
671.161	0.0125540
671.239	0.0128047
671.318	0.0128709
671.396	0.0130495
671.474	0.0133662
671.552	0.0133266
671.630	0.0133906
671.708	0.0137197
671.786	0.0138433
671.864	0.0136655
671.943	0.0137709
672.021	0.0137555
672.099	0.0137583
672.177	0.0136805
672.255	0.0136264
672.333	0.0134705
672.411	0.0132600
672.489	0.0132413
672.568	0.0130252
672.646	0.0128992
672.724	0.0128676
672.802	0.0125319
672.880	0.0124553
672.958	0.0122491
673.036	0.0120591
673.114	0.0118713
673.193	0.0119410
673.271	0.0116521
673.349	0.0116656
673.427	0.0115668
673.505	0.0115357
673.583	0.0117067
673.661	0.0118520
673.739	0.0117180
673.818	0.0120705
673.896	0.0121347
673.974	0.0121600
674.052	0.0123255
674.130	0.0122986
674.208	0.0126353
674.286	0.0127531
674.364	0.0129570
674.443	0.0129794
674.521	0.0131464
674.599	0.0134145
674.677	0.0133260
674.755	0.0134827
674.833	0.0136686
674.911	0.0138489
674.989	0.0139136
675.068	0.0140203
675.146	0.0139714
675.224	0.0140324
675.302	0.0139795
675.380	0.0140719
675.458	0.0139323
675.536	0.0136076
675.614	0.0136089
675.693	0.0134632
675.771	0.0132706
675.849	0.0131183
675.927	0.0129199
676.005	0.0128304
676.083	0.0126323
676.161	0.0124990
676.239	0.0124457
676.318	0.0122981
676.396	0.0122370
676.474	0.0121349
676.552	0.0121333
676.630	0.0120531
676.708	0.0118816
676.786	0.0117831
676.864	0.0116142
676.943	0.0116589
677.021	0.0116614
677.099	0.0117250
677.177	0.0116718
677.255	0.0116873
677.333	0.0120042
677.411	0.0120717
677.489	0.0121899
677.568	0.0124639
677.646	0.0125349
677.724	0.0127814
677.802	0.0130710
677.880	0.0132271
677.958	0.0132926
678.036	0.0134935
678.114	0.0137348
678.193	0.0137043
678.271	0.0138748
678.349	0.0138862
678.427	0.0138762
678.505	0.0138637
678.583	0.0136906
678.661	0.0134352
678.739	0.0134747
678.818	0.0134518
678.896	0.0132306
678.974	0.0131009
679.052	0.0130951
679.130	0.0128846
679.208	0.0128320
679.286	0.0126863
679.364	0.0127625
679.443	0.0125068
679.521	0.0123020
679.599	0.0123687
679.677	0.0121545
679.755	0.0120545
679.833	0.0120807
679.911	0.0120251
679.989	0.0119606
680.068	0.0118739
680.146	0.0118081
680.224	0.0121288
680.302	0.0121890
680.380	0.0123368
680.458	0.0125413
680.536	0.0126888
680.614	0.0128661
680.693	0.0130444
680.771	0.0130640
680.849	0.0133179
680.927	0.0132901
681.005	0.0134249
681.083	0.0135347
681.161	0.0135503
681.239	0.0135418
681.318	0.0134511
681.396	0.0134974
681.474	0.0134808
681.552	0.0133685
681.630	0.0133934
681.708	0.0133434
681.786	0.0131374
681.864	0.0130783
681.943	0.0130819
682.021	0.0128817
682.099	0.0128239
682.177	0.0126070
682.255	0.0125067
682.333	0.0124933
682.411	0.0124104
682.489	0.0122154
682.568	0.0119881
682.646	0.0119621
682.724	0.0119135
682.802	0.0116473
682.880	0.0117841
682.958	0.0120164
683.036	0.0118867
683.114	0.0120277
683.193	0.0120853
683.271	0.0121455
683.349	0.0122448
683.427	0.0122409
683.505	0.0120953
683.583	0.0121153
683.661	0.0124072
683.739	0.0122388
683.818	0.0124445
683.896	0.0125301
683.974	0.0123917
684.052	0.0123618
684.130	0.0125913
684.208	0.0126022
684.286	0.0126701
684.364	0.0128242
684.443	0.0128723
684.521	0.0131977
684.599	0.0134821
684.677	0.0135371
684.755	0.0137415
684.833	0.0138319
684.911	0.0140525
684.989	0.0142307
685.068	0.0143395
685.146	0.0145070
685.224	0.0143748
685.302	0.0144486
685.380	0.0143095
685.458	0.0141913
685.536	0.0141116
685.614	0.0140860
685.693	0.0138867
685.771	0.0137103
685.849	0.0136230
685.927	0.0134561
686.005	0.0134501
686.083	0.0132524
686.161	0.0130811
686.239	0.0129717
686.318	0.0127246
686.396	0.0124126
686.474	0.0122034
686.552	0.0118934
686.630	0.0115530
686.708	0.0112769
686.786	0.0111350
686.864	0.0109846
686.943	0.0107398
687.021	0.0105917
687.099	0.0103387
687.177	0.0104877
687.255	0.0103783
687.333	0.0102359
687.411	0.0104447
687.489	0.0104396
687.568	0.0105791
687.646	0.0107977
687.724	0.0109905
687.802	0.0111190
687.880	0.0112651
687.958	0.0116332
688.036	0.0117574
688.114	0.0120104
688.193	0.0124570
688.271	0.0127505
688.349	0.0129824
688.427	0.0133904
688.505	0.0137954
688.583	0.0142036
688.661	0.0143363
688.739	0.0145767
688.818	0.0148650
688.896	0.0151002
688.974	0.0152054
689.052	0.0153293
689.130	0.0154466
689.208	0.0155198
689.286	0.0155293
689.364	0.0154687
689.443	0.0154406
689.521	0.0155865
689.599	0.0155245
689.677	0.0152290
689.755	0.0149962
689.833	0.0149215
689.911	0.0145924
689.989	0.0142722
690.068	0.0140392
690.146	0.0135843
690.224	0.0129948
690.302	0.0128568
690.380	0.0124430
690.458	0.0120091
690.536	0.0115926
690.614	0.0111990
690.693	0.0110523
690.771	0.0107542
690.849	0.0104834
690.927	0.0103288
691.005	0.0100298
691.083	0.00982788
691.161	0.00987984
691.239	0.00976692
691.318	0.00978790
691.396	0.00976997
691.474	0.00982407
691.552	0.00993309
691.630	0.0100607
691.708	0.0102893
691.786	0.0104562
691.864	0.0107553
691.943	0.0109820
692.021	0.0115024
692.099	0.0117932
692.177	0.0120245
692.255	0.0124208
692.333	0.0126341
692.411	0.0130594
692.489	0.0134392
692.568	0.0137484
692.646	0.0141274
692.724	0.0144669
692.802	0.0144376
692.880	0.0146632
692.958	0.0147414
693.036	0.0149333
693.114	0.0148957
693.193	0.0148292
693.271	0.0147513
693.349	0.0146313
693.427	0.0146605
693.505	0.0146891
693.583	0.0144694
693.661	0.0144187
693.739	0.0144538
693.818	0.0143200
693.896	0.0142664
693.974	0.0141185
694.052	0.0139821
694.130	0.0138698
694.208	0.0137289
694.286	0.0135782
694.364	0.0134835
694.443	0.0133234
694.521	0.0130293
694.599	0.0128991
694.677	0.0125941
694.755	0.0126020
694.833	0.0123968
694.911	0.0122903
694.989	0.0121498
695.068	0.0120414
695.146	0.0120323
695.224	0.0119984
695.302	0.0119264
695.380	0.0119991
695.458	0.0120389
695.536	0.0120299
695.614	0.0120439
695.693	0.0121222
695.771	0.0121351
695.849	0.0121068
695.927	0.0121247
696.005	0.0121551
696.083	0.0122795
696.161	0.0122158
696.239	0.0121822
696.318	0.0121711
696.396	0.0123709
696.474	0.0122631
696.552	0.0123711
696.630	0.0122636
696.708	0.0122503
696.786	0.0122697
696.864	0.0122955
696.943	0.0122502
697.021	0.0122088
697.099	0.0121002
697.177	0.0119535
697.255	0.0117512
697.333	0.0116967
697.411	0.0115057
697.489	0.0115196
697.568	0.0114697
697.646	0.0113628
697.724	0.0113878
697.802	0.0115056
697.880	0.0116616
697.958	0.0118694
698.036	0.0121513
698.114	0.0122501
698.193	0.0123986
698.271	0.0129115
698.349	0.0134042
698.427	0.0136415
698.505	0.0140406
698.583	0.0142383
698.661	0.0145980
698.739	0.0149493
698.818	0.0152323
698.896	0.0155869
698.974	0.0157539
699.052	0.0158667
699.130	0.0161295
699.208	0.0163506
699.286	0.0163797
699.364	0.0162489
699.443	0.0164295
699.521	0.0160651
699.599	0.0158048
699.677	0.0155305
699.755	0.0152894
699.833	0.0148985
699.911	0.0142767
699.989	0.0138020
700.068	0.0133278
700.146	0.0129017
700.224	0.0122835
700.302	0.0117046
700.380	0.0112376
700.458	0.0108659
700.536	0.0103632
700.614	0.0102164
700.693	0.00988914
700.771	0.00980217
700.849	0.00980598
700.927	0.00968513
701.005	0.00960915
701.083	0.00961021
701.161	0.00992012
701.239	0.00997978
701.318	0.0100557
701.396	0.0103968
701.474	0.0107355
701.552	0.0109670
701.630	0.0111135
701.708	0.0114645
701.786	0.0117801
701.864	0.0119514
701.943	0.0122140
702.021	0.0124992
702.099	0.0127110
702.177	0.0129513
702.255	0.0131183
702.333	0.0133092
702.411	0.0134734
702.489	0.0136874
702.568	0.0136128
702.646	0.0138090
702.724	0.0140059
702.802	0.0138616
702.880	0.0138718
702.958	0.0137687
703.036	0.0138113
703.114	0.0136670
703.193	0.0137957
703.271	0.0135922
703.349	0.0136893
703.427	0.0138546
703.505	0.0136834
703.583	0.0136616
703.661	0.0137933
703.739	0.0138168
703.818	0.0139094
703.896	0.0139015
703.974	0.0141164
704.052	0.0140176
704.130	0.0140913
704.208	0.0141615
704.286	0.0142010
704.364	0.0141113
704.443	0.0140756
704.521	0.0138802
704.599	0.0138662
704.677	0.0137749
704.755	0.0136891
704.833	0.0134141
704.911	0.0132237
704.989	0.0129769
705.068	0.0127573
705.146	0.0125478
705.224	0.0121294
705.302	0.0120535
705.380	0.0117918
705.458	0.0116607
705.536	0.0114367
705.614	0.0112292
705.693	0.0110832
705.771	0.0111110
705.849	0.0111554
705.927	0.0114159
706.005	0.0114699
706.083	0.0115410
706.161	0.0116084
706.239	0.0119870
706.318	0.0121021
706.396	0.0121729
706.474	0.0124189
706.552	0.0124506
706.630	0.0124187
706.708	0.0126080
706.786	0.0126257
706.864	0.0126717
706.943	0.0123405
707.021	0.0124171
707.099	0.0124021
707.177	0.0122562
707.255	0.0121020
707.333	0.0121574
707.411	0.0122676
707.489	0.0121593
707.568	0.0123840
707.646	0.0122740
707.724	0.0124055
707.802	0.0125591
707.880	0.0128407
707.958	0.0128987
708.036	0.0129707
708.114	0.0130598
708.193	0.0131377
708.271	0.0132262
708.349	0.0133213
708.427	0.0133134
708.505	0.0132524
708.583	0.0131854
708.661	0.0130023
708.739	0.0130132
708.818	0.0130798
708.896	0.0128797
708.974	0.0129698
709.052	0.0129066
709.130	0.0127706
709.208	0.0128629
709.286	0.0128680
709.364	0.0129388
709.443	0.0128822
709.521	0.0130196
709.599	0.0130605
709.677	0.0130305
709.755	0.0131163
709.833	0.0131612
709.911	0.0133195
709.989	0.0134127
710.068	0.0135027
710.146	0.0133915
710.224	0.0135089
710.302	0.0135977
710.380	0.0138002
710.458	0.0138960
710.536	0.0137294
710.614	0.0137727
710.693	0.0137637
710.771	0.0135921
710.849	0.0136159
710.927	0.0135072
711.005	0.0134394
711.083	0.0133296
711.161	0.0131216
711.239	0.0130634
711.318	0.0127856
711.396	0.0126001
711.474	0.0125453
711.552	0.0123003
711.630	0.0123779
711.708	0.0120415
711.786	0.0117491
711.864	0.0118015
711.943	0.0117040
712.021	0.0114892
712.099	0.0113374
712.177	0.0112912
712.255	0.0112747
712.333	0.0113560
712.411	0.0111408
712.489	0.0110373
712.568	0.0110431
712.646	0.0113686
712.724	0.0114651
712.802	0.0114050
712.880	0.0117928
712.958	0.0120847
713.036	0.0122156
713.114	0.0125626
713.193	0.0127360
713.271	0.0130255
713.349	0.0132516
713.427	0.0136624
713.505	0.0141465
713.583	0.0143569
713.661	0.0145025
713.739	0.0147577
713.818	0.0148540
713.896	0.0149197
713.974	0.0147863
714.052	0.0147456
714.130	0.0146863
714.208	0.0144331
714.286	0.0140645
714.364	0.0139422
714.443	0.0134897
714.521	0.0130952
714.599	0.0127917
714.677	0.0124911
714.755	0.0120557
714.833	0.0115565
714.911	0.0114143
714.989	0.0110809
715.068	0.0107861
715.146	0.0105932
715.224	0.0103734
715.302	0.0104720
715.380	0.0103991
715.458	0.0104179
715.536	0.0105612
715.614	0.0107455
715.693	0.0111338
715.771	0.0114733
715.849	0.0117239
715.927	0.0121368
716.005	0.0126117
716.083	0.0130589
716.161	0.0133763
716.239	0.0140186
716.318	0.0143671
716.396	0.0144888
716.474	0.0149305
716.552	0.0150124
716.630	0.0149094
716.708	0.0149815
716.786	0.0150952
716.864	0.0149902
716.943	0.0150151
717.021	0.0147987
717.099	0.0147464
717.177	0.0144422
717.255	0.0143746
717.333	0.0144026
717.411	0.0141187
717.489	0.0138885
717.568	0.0136783
717.646	0.0134769
717.724	0.0133839
717.802	0.0132617
717.880	0.0129639
717.958	0.0126496
718.036	0.0125141
718.114	0.0121169
718.193	0.0118182
718.271	0.0116701
718.349	0.0114256
718.427	0.0112149
718.505	0.0109615
718.583	0.0107246
718.661	0.0106612
718.739	0.0105222
718.818	0.0105187
718.896	0.0105352
718.974	0.0105523
719.052	0.0105565
719.130	0.0107185
719.208	0.0108253
719.286	0.0110317
719.364	0.0112990
719.443	0.0114516
719.521	0.0117269
719.599	0.0121486
719.677	0.0123320
719.755	0.0127993
719.833	0.0130743
719.911	0.0134370
719.989	0.0137112
720.068	0.0138576
720.146	0.0141634
720.224	0.0142300
720.302	0.0142809
720.380	0.0142722
720.458	0.0140625
720.536	0.0141270
720.614	0.0141000
720.693	0.0136170
720.771	0.0134590
720.849	0.0132933
720.927	0.0130704
721.005	0.0126921
721.083	0.0124310
721.161	0.0122642
721.239	0.0121793
721.318	0.0121352
721.396	0.0119724
721.474	0.0120892
721.552	0.0122455
721.630	0.0122801
721.708	0.0124281
721.786	0.0127225
721.864	0.0129161
721.943	0.0131419
722.021	0.0133191
722.099	0.0135596
722.177	0.0139063
722.255	0.0139554
722.333	0.0140443
722.411	0.0142927
722.489	0.0143046
722.568	0.0143247
722.646	0.0145521
722.724	0.0146959
722.802	0.0145052
722.880	0.0143170
722.958	0.0143568
723.036	0.0142454
723.114	0.0140973
723.193	0.0141990
723.271	0.0140073
723.349	0.0135192
723.427	0.0133656
723.505	0.0132022
723.583	0.0128815
723.661	0.0126721
723.739	0.0122827
723.818	0.0120809
723.896	0.0116179
723.974	0.0116285
724.052	0.0112828
724.130	0.0109509
724.208	0.0109025
724.286	0.0106452
724.364	0.0105217
724.443	0.0105287
724.521	0.0105024
724.599	0.0106891
724.677	0.0106305
724.755	0.0107919
724.833	0.0111094
724.911	0.0113294
724.989	0.0114561
725.068	0.0117812
725.146	0.0122072
725.224	0.0123317
725.302	0.0126347
725.380	0.0129794
725.458	0.0130717
725.536	0.0132964
725.614	0.0134261
