05/07/2022	17:23:22	Ver.	4.1	UNKNOWN
Optical Delay	639.989416	Delta X		0.078125	Sweeps	1	Scan Rate	0/0
Coordinates	Axis 1	NaN	Axis 2	NaN	Axis 3	NaN	Axis 4	NaN	Axis 5	NaN	Axis 6	0.000000
TX Power	0.000000	RX Power	0.000000

639.989	0.0127171
640.068	0.0125813
640.146	0.0125610
640.224	0.0126807
640.302	0.0125977
640.380	0.0127351
640.458	0.0126248
640.536	0.0127624
640.614	0.0126498
640.693	0.0126332
640.771	0.0126805
640.849	0.0128622
640.927	0.0126454
641.005	0.0127277
641.083	0.0128568
641.161	0.0127190
641.239	0.0127116
641.318	0.0128864
641.396	0.0128112
641.474	0.0126618
641.552	0.0125437
641.630	0.0127262
641.708	0.0126029
641.786	0.0125861
641.864	0.0127659
641.943	0.0127831
642.021	0.0126543
642.099	0.0128278
642.177	0.0126241
642.255	0.0125641
642.333	0.0126804
642.411	0.0125951
642.489	0.0128555
642.568	0.0127934
642.646	0.0127690
642.724	0.0126829
642.802	0.0126515
642.880	0.0127364
642.958	0.0127776
643.036	0.0126328
643.114	0.0127824
643.193	0.0127303
643.271	0.0126177
643.349	0.0127649
643.427	0.0127141
643.505	0.0128181
643.583	0.0126920
643.661	0.0126466
643.739	0.0126559
643.818	0.0126067
643.896	0.0127194
643.974	0.0127372
644.052	0.0127239
644.130	0.0127435
644.208	0.0127728
644.286	0.0125956
644.364	0.0127908
644.443	0.0127877
644.521	0.0125834
644.599	0.0129117
644.677	0.0127789
644.755	0.0126395
644.833	0.0127213
644.911	0.0126154
644.989	0.0127088
645.068	0.0126627
645.146	0.0126735
645.224	0.0126393
645.302	0.0127075
645.380	0.0125475
645.458	0.0126902
645.536	0.0127406
645.614	0.0126948
645.693	0.0125893
645.771	0.0125668
645.849	0.0126791
645.927	0.0127475
646.005	0.0127489
646.083	0.0124909
646.161	0.0128752
646.239	0.0126274
646.318	0.0127447
646.396	0.0125784
646.474	0.0125627
646.552	0.0127047
646.630	0.0126380
646.708	0.0126357
646.786	0.0126064
646.864	0.0125732
646.943	0.0126554
647.021	0.0126003
647.099	0.0126286
647.177	0.0126392
647.255	0.0125957
647.333	0.0126066
647.411	0.0127966
647.489	0.0126427
647.568	0.0126189
647.646	0.0127106
647.724	0.0127161
647.802	0.0127817
647.880	0.0126926
647.958	0.0126053
648.036	0.0126433
648.114	0.0127548
648.193	0.0127597
648.271	0.0126407
648.349	0.0127806
648.427	0.0126267
648.505	0.0125306
648.583	0.0127798
648.661	0.0128104
648.739	0.0127617
648.818	0.0127396
648.896	0.0126738
648.974	0.0128080
649.052	0.0128369
649.130	0.0127225
649.208	0.0127020
649.286	0.0127103
649.364	0.0126899
649.443	0.0126608
649.521	0.0126757
649.599	0.0127633
649.677	0.0129519
649.755	0.0127098
649.833	0.0127264
649.911	0.0126792
649.989	0.0129222
650.068	0.0125761
650.146	0.0127039
650.224	0.0126647
650.302	0.0125672
650.380	0.0126181
650.458	0.0127415
650.536	0.0127808
650.614	0.0127835
650.693	0.0128329
650.771	0.0127408
650.849	0.0127422
650.927	0.0126872
651.005	0.0125782
651.083	0.0127793
651.161	0.0127612
651.239	0.0126998
651.318	0.0128201
651.396	0.0127469
651.474	0.0127163
651.552	0.0126903
651.630	0.0127143
651.708	0.0127201
651.786	0.0126718
651.864	0.0127192
651.943	0.0127350
652.021	0.0129024
652.099	0.0129115
652.177	0.0126785
652.255	0.0127299
652.333	0.0127390
652.411	0.0127151
652.489	0.0128489
652.568	0.0127673
652.646	0.0125976
652.724	0.0126336
652.802	0.0127009
652.880	0.0128468
652.958	0.0128261
653.036	0.0126902
653.114	0.0128213
653.193	0.0127633
653.271	0.0126678
653.349	0.0127216
653.427	0.0127548
653.505	0.0126974
653.583	0.0127544
653.661	0.0128236
653.739	0.0127407
653.818	0.0127491
653.896	0.0126093
653.974	0.0126650
654.052	0.0127195
654.130	0.0127079
654.208	0.0128078
654.286	0.0127278
654.364	0.0125996
654.443	0.0126968
654.521	0.0126473
654.599	0.0126003
654.677	0.0127576
654.755	0.0128039
654.833	0.0128443
654.911	0.0127909
654.989	0.0127901
655.068	0.0127618
655.146	0.0128046
655.224	0.0126236
655.302	0.0126477
655.380	0.0128119
655.458	0.0127763
655.536	0.0126891
655.614	0.0127286
655.693	0.0127113
655.771	0.0126997
655.849	0.0126927
655.927	0.0128096
656.005	0.0127142
656.083	0.0126935
656.161	0.0125726
656.239	0.0127769
656.318	0.0126797
656.396	0.0127564
656.474	0.0126434
656.552	0.0127447
656.630	0.0127058
656.708	0.0126040
656.786	0.0127335
656.864	0.0128384
656.943	0.0129077
657.021	0.0128930
657.099	0.0126620
657.177	0.0127650
657.255	0.0127161
657.333	0.0128551
657.411	0.0128448
657.489	0.0127222
657.568	0.0127737
657.646	0.0126852
657.724	0.0126044
657.802	0.0127406
657.880	0.0126601
657.958	0.0125186
658.036	0.0125055
658.114	0.0124493
658.193	0.0125784
658.271	0.0124587
658.349	0.0125233
658.427	0.0125230
658.505	0.0124846
658.583	0.0125257
658.661	0.0125577
658.739	0.0126757
658.818	0.0126695
658.896	0.0127438
658.974	0.0129181
659.052	0.0130125
659.130	0.0129672
659.208	0.0129617
659.286	0.0129843
659.364	0.0130836
659.443	0.0130302
659.521	0.0129781
659.599	0.0130615
659.677	0.0129714
659.755	0.0128352
659.833	0.0128283
659.911	0.0128032
659.989	0.0125850
660.068	0.0125935
660.146	0.0125174
660.224	0.0124022
660.302	0.0123727
660.380	0.0123118
660.458	0.0121209
660.536	0.0121538
660.614	0.0121822
660.693	0.0122364
660.771	0.0122382
660.849	0.0121986
660.927	0.0123676
661.005	0.0123051
661.083	0.0123430
661.161	0.0125791
661.239	0.0126077
661.318	0.0125806
661.396	0.0127535
661.474	0.0128355
661.552	0.0129243
661.630	0.0129887
661.708	0.0132549
661.786	0.0132925
661.864	0.0132050
661.943	0.0132650
662.021	0.0132019
662.099	0.0133237
662.177	0.0132212
662.255	0.0129082
662.333	0.0130468
662.411	0.0129483
662.489	0.0127663
662.568	0.0127990
662.646	0.0125797
662.724	0.0126431
662.802	0.0125568
662.880	0.0123322
662.958	0.0123907
663.036	0.0121987
663.114	0.0121342
663.193	0.0122349
663.271	0.0121025
663.349	0.0121991
663.427	0.0121580
663.505	0.0122332
663.583	0.0121990
663.661	0.0122089
663.739	0.0124020
663.818	0.0124257
663.896	0.0124006
663.974	0.0126044
664.052	0.0126849
664.130	0.0127393
664.208	0.0127260
664.286	0.0128099
664.364	0.0128685
664.443	0.0128549
664.521	0.0129206
664.599	0.0129411
664.677	0.0129987
664.755	0.0130295
664.833	0.0130097
664.911	0.0131174
664.989	0.0131974
665.068	0.0131580
665.146	0.0132094
665.224	0.0132313
665.302	0.0131712
665.380	0.0130896
665.458	0.0127977
665.536	0.0129733
665.614	0.0128677
665.693	0.0126254
665.771	0.0124955
665.849	0.0125486
665.927	0.0124172
666.005	0.0123698
666.083	0.0122160
666.161	0.0123186
666.239	0.0122095
666.318	0.0121785
666.396	0.0122301
666.474	0.0122413
666.552	0.0122830
666.630	0.0125301
666.708	0.0126871
666.786	0.0126350
666.864	0.0127655
666.943	0.0127779
667.021	0.0127893
667.099	0.0128263
667.177	0.0129163
667.255	0.0129745
667.333	0.0130130
667.411	0.0129575
667.489	0.0128410
667.568	0.0128123
667.646	0.0126778
667.724	0.0127116
667.802	0.0124722
667.880	0.0125784
667.958	0.0125820
668.036	0.0122318
668.114	0.0122085
668.193	0.0123323
668.271	0.0121173
668.349	0.0118904
668.427	0.0120612
668.505	0.0121361
668.583	0.0121242
668.661	0.0122208
668.739	0.0122166
668.818	0.0122456
668.896	0.0123248
668.974	0.0123791
669.052	0.0126564
669.130	0.0127539
669.208	0.0126874
669.286	0.0128602
669.364	0.0129827
669.443	0.0133999
669.521	0.0132748
669.599	0.0134120
669.677	0.0133627
669.755	0.0134924
669.833	0.0135629
669.911	0.0136531
669.989	0.0138189
670.068	0.0139341
670.146	0.0138314
670.224	0.0137276
670.302	0.0136164
670.380	0.0137621
670.458	0.0135851
670.536	0.0134837
670.614	0.0133302
670.693	0.0129131
670.771	0.0128845
670.849	0.0126078
670.927	0.0124162
671.005	0.0122465
671.083	0.0119041
671.161	0.0115659
671.239	0.0115165
671.318	0.0113716
671.396	0.0112949
671.474	0.0110686
671.552	0.0110439
671.630	0.0110098
671.708	0.0110448
671.786	0.0111115
671.864	0.0111828
671.943	0.0113522
672.021	0.0113766
672.099	0.0114538
672.177	0.0118202
672.255	0.0120856
672.333	0.0122027
672.411	0.0124229
672.489	0.0124392
672.568	0.0127486
672.646	0.0130341
672.724	0.0130205
672.802	0.0133991
672.880	0.0135332
672.958	0.0136326
673.036	0.0139929
673.114	0.0140759
673.193	0.0140907
673.271	0.0143211
673.349	0.0143516
673.427	0.0145865
673.505	0.0145315
673.583	0.0146746
673.661	0.0146487
673.739	0.0145089
673.818	0.0143770
673.896	0.0142876
673.974	0.0141469
674.052	0.0138869
674.130	0.0137746
674.208	0.0135902
674.286	0.0133754
674.364	0.0130558
674.443	0.0128156
674.521	0.0127425
674.599	0.0124633
674.677	0.0122028
674.755	0.0120573
674.833	0.0119051
674.911	0.0116119
674.989	0.0115079
675.068	0.0113126
675.146	0.0111297
675.224	0.0111288
675.302	0.0108711
675.380	0.0106773
675.458	0.0107986
675.536	0.0106965
675.614	0.0107919
675.693	0.0107054
675.771	0.0107998
675.849	0.0109139
675.927	0.0110859
676.005	0.0112413
676.083	0.0112859
676.161	0.0117738
676.239	0.0120620
676.318	0.0122545
676.396	0.0125786
676.474	0.0128159
676.552	0.0131047
676.630	0.0134628
676.708	0.0136057
676.786	0.0136009
676.864	0.0140192
676.943	0.0141477
677.021	0.0141343
677.099	0.0142526
677.177	0.0145579
677.255	0.0145537
677.333	0.0145298
677.411	0.0146760
677.489	0.0146033
677.568	0.0146069
677.646	0.0145125
677.724	0.0146200
677.802	0.0144514
677.880	0.0143876
677.958	0.0144772
678.036	0.0143018
678.114	0.0140372
678.193	0.0138890
678.271	0.0139085
678.349	0.0137737
678.427	0.0134938
678.505	0.0131969
678.583	0.0130148
678.661	0.0128278
678.739	0.0123359
678.818	0.0122124
678.896	0.0121434
678.974	0.0118845
679.052	0.0116981
679.130	0.0115407
679.208	0.0113527
679.286	0.0114240
679.364	0.0111686
679.443	0.0110738
679.521	0.0109370
679.599	0.0108781
679.677	0.0110086
679.755	0.0108986
679.833	0.0109305
679.911	0.0107000
679.989	0.0106287
680.068	0.0105794
680.146	0.0105737
680.224	0.0106530
680.302	0.0107747
680.380	0.0107098
680.458	0.0109223
680.536	0.0109425
680.614	0.0109879
680.693	0.0111264
680.771	0.0114295
680.849	0.0119357
680.927	0.0121207
681.005	0.0124184
681.083	0.0127631
681.161	0.0130832
681.239	0.0135722
681.318	0.0139143
681.396	0.0140079
681.474	0.0145151
681.552	0.0147196
681.630	0.0149931
681.708	0.0151968
681.786	0.0155266
681.864	0.0158498
681.943	0.0159308
682.021	0.0160871
682.099	0.0161862
682.177	0.0163303
682.255	0.0163264
682.333	0.0161550
682.411	0.0162224
682.489	0.0158672
682.568	0.0157277
682.646	0.0154530
682.724	0.0148814
682.802	0.0143385
682.880	0.0139584
682.958	0.0133904
683.036	0.0128203
683.114	0.0121363
683.193	0.0117274
683.271	0.0110628
683.349	0.0106024
683.427	0.0102364
683.505	0.00981026
683.583	0.00937477
683.661	0.00901474
683.739	0.00904587
683.818	0.00901901
683.896	0.00893730
683.974	0.00886246
684.052	0.00880867
684.130	0.00880798
684.208	0.00897949
684.286	0.00927048
684.364	0.00942200
684.443	0.00976357
684.521	0.00983986
684.599	0.0101749
684.677	0.0104993
684.755	0.0109571
684.833	0.0113124
684.911	0.0116907
684.989	0.0121722
685.068	0.0123104
685.146	0.0128667
685.224	0.0132915
685.302	0.0136411
685.380	0.0142789
685.458	0.0142776
685.536	0.0146777
685.614	0.0150946
685.693	0.0153133
685.771	0.0152613
685.849	0.0155162
685.927	0.0156539
686.005	0.0156554
686.083	0.0156924
686.161	0.0158192
686.239	0.0157623
686.318	0.0156111
686.396	0.0154907
686.474	0.0153111
686.552	0.0151752
686.630	0.0149445
686.708	0.0147130
686.786	0.0143628
686.864	0.0140779
686.943	0.0137865
687.021	0.0135448
687.099	0.0132712
687.177	0.0129585
687.255	0.0126870
687.333	0.0125475
687.411	0.0121037
687.489	0.0117784
687.568	0.0116422
687.646	0.0114031
687.724	0.0109975
687.802	0.0108270
687.880	0.0104568
687.958	0.0103002
688.036	0.0100179
688.114	0.00990639
688.193	0.00973717
688.271	0.00953178
688.349	0.00930008
688.427	0.00926064
688.505	0.00937592
688.583	0.00939896
688.661	0.00969330
688.739	0.00969772
688.818	0.0101661
688.896	0.0102094
688.974	0.0106051
689.052	0.0112167
689.130	0.0115680
689.208	0.0118788
689.286	0.0122645
689.364	0.0130758
689.443	0.0134097
689.521	0.0138829
689.599	0.0142981
689.677	0.0146560
689.755	0.0152019
689.833	0.0155550
689.911	0.0157756
689.989	0.0159014
690.068	0.0159719
690.146	0.0159151
690.224	0.0160896
690.302	0.0160860
690.380	0.0158817
690.458	0.0157238
690.536	0.0154880
690.614	0.0151161
690.693	0.0149344
690.771	0.0143188
690.849	0.0138621
690.927	0.0134798
691.005	0.0130550
691.083	0.0126033
691.161	0.0122440
691.239	0.0117896
691.318	0.0112725
691.396	0.0109962
691.474	0.0106939
691.552	0.0106664
691.630	0.0103184
691.708	0.0101248
691.786	0.0102670
691.864	0.0102321
691.943	0.0102824
692.021	0.0104230
692.099	0.0105056
692.177	0.0106751
692.255	0.0108522
692.333	0.0111205
692.411	0.0115668
692.489	0.0117497
692.568	0.0121174
692.646	0.0124263
692.724	0.0126006
692.802	0.0129497
692.880	0.0132975
692.958	0.0133512
693.036	0.0134343
693.114	0.0136799
693.193	0.0138120
693.271	0.0138656
693.349	0.0138160
693.427	0.0139320
693.505	0.0140245
693.583	0.0138451
693.661	0.0136564
693.739	0.0135597
693.818	0.0135258
693.896	0.0134886
693.974	0.0134160
694.052	0.0131596
694.130	0.0130845
694.208	0.0129756
694.286	0.0128854
694.364	0.0129440
694.443	0.0131163
694.521	0.0129551
694.599	0.0131443
694.677	0.0130936
694.755	0.0132275
694.833	0.0131855
694.911	0.0132001
694.989	0.0130104
695.068	0.0131505
695.146	0.0132635
695.224	0.0132291
695.302	0.0133078
695.380	0.0131355
695.458	0.0130510
695.536	0.0131409
695.614	0.0129962
695.693	0.0126019
695.771	0.0126550
695.849	0.0125942
695.927	0.0123569
696.005	0.0121642
696.083	0.0119547
696.161	0.0117446
696.239	0.0113764
696.318	0.0110700
696.396	0.0109356
696.474	0.0106611
696.552	0.0104826
696.630	0.0102282
696.708	0.0103345
696.786	0.0103608
696.864	0.0104597
696.943	0.0106101
697.021	0.0107058
697.099	0.0111588
697.177	0.0114222
697.255	0.0117957
697.333	0.0122492
697.411	0.0126740
697.489	0.0129853
697.568	0.0136460
697.646	0.0139297
697.724	0.0142840
697.802	0.0147103
697.880	0.0149641
697.958	0.0152209
698.036	0.0153513
698.114	0.0155954
698.193	0.0156194
698.271	0.0157647
698.349	0.0156394
698.427	0.0155444
698.505	0.0153382
698.583	0.0150999
698.661	0.0148800
698.739	0.0146854
698.818	0.0142614
698.896	0.0138625
698.974	0.0134550
699.052	0.0129688
699.130	0.0125476
699.208	0.0122224
699.286	0.0117832
699.364	0.0115079
699.443	0.0113547
699.521	0.0111436
699.599	0.0107828
699.677	0.0107446
699.755	0.0107441
699.833	0.0107092
699.911	0.0107275
699.989	0.0108749
700.068	0.0108550
700.146	0.0110642
700.224	0.0111590
700.302	0.0114991
700.380	0.0116550
700.458	0.0119138
700.536	0.0119733
700.614	0.0122212
700.693	0.0123407
700.771	0.0127105
700.849	0.0128056
700.927	0.0129334
701.005	0.0131493
701.083	0.0132401
701.161	0.0134617
701.239	0.0134071
701.318	0.0133084
701.396	0.0134766
701.474	0.0133076
701.552	0.0130975
701.630	0.0130615
701.708	0.0127683
701.786	0.0126337
701.864	0.0122846
701.943	0.0121135
702.021	0.0120332
702.099	0.0119054
702.177	0.0117452
702.255	0.0117941
702.333	0.0116009
702.411	0.0115922
702.489	0.0117204
702.568	0.0116365
702.646	0.0117805
702.724	0.0120828
702.802	0.0124126
702.880	0.0125278
702.958	0.0127166
703.036	0.0129523
703.114	0.0131713
703.193	0.0136034
703.271	0.0138183
703.349	0.0141077
703.427	0.0142034
703.505	0.0144177
703.583	0.0146313
703.661	0.0146143
703.739	0.0145100
703.818	0.0145241
703.896	0.0143643
703.974	0.0142684
704.052	0.0142427
704.130	0.0139602
704.208	0.0136935
704.286	0.0132898
704.364	0.0129780
704.443	0.0128860
704.521	0.0123058
704.599	0.0119208
704.677	0.0115795
704.755	0.0113367
704.833	0.0112576
704.911	0.0110593
704.989	0.0107526
705.068	0.0105632
705.146	0.0106929
705.224	0.0107026
705.302	0.0106377
705.380	0.0108592
705.458	0.0112144
705.536	0.0114440
705.614	0.0116388
705.693	0.0120162
705.771	0.0123949
705.849	0.0125827
705.927	0.0129270
706.005	0.0130950
706.083	0.0133311
706.161	0.0135367
706.239	0.0137238
706.318	0.0138027
706.396	0.0139966
706.474	0.0139846
706.552	0.0139948
706.630	0.0139125
706.708	0.0139388
706.786	0.0138963
706.864	0.0136806
706.943	0.0133292
707.021	0.0131249
707.099	0.0130921
707.177	0.0127325
707.255	0.0125347
707.333	0.0122940
707.411	0.0119434
707.489	0.0116992
707.568	0.0115352
707.646	0.0112386
707.724	0.0110594
707.802	0.0110970
707.880	0.0110017
707.958	0.0107183
708.036	0.0107336
708.114	0.0109404
708.193	0.0109159
708.271	0.0109500
708.349	0.0110669
708.427	0.0115860
708.505	0.0118018
708.583	0.0120405
708.661	0.0123301
708.739	0.0125735
708.818	0.0127013
708.896	0.0132719
708.974	0.0134299
709.052	0.0135918
709.130	0.0137251
709.208	0.0140849
709.286	0.0143092
709.364	0.0145802
709.443	0.0145712
709.521	0.0145021
709.599	0.0145536
709.677	0.0144117
709.755	0.0144685
709.833	0.0143016
709.911	0.0142995
709.989	0.0141132
710.068	0.0138063
710.146	0.0136139
710.224	0.0133802
710.302	0.0130104
710.380	0.0129000
710.458	0.0127065
710.536	0.0123818
710.614	0.0125023
710.693	0.0124618
710.771	0.0122031
710.849	0.0122677
710.927	0.0121760
711.005	0.0120554
711.083	0.0122415
711.161	0.0123548
711.239	0.0123837
711.318	0.0124471
711.396	0.0126469
711.474	0.0126897
711.552	0.0127865
711.630	0.0127699
711.708	0.0127805
711.786	0.0128475
711.864	0.0127046
711.943	0.0125047
712.021	0.0125420
712.099	0.0124241
712.177	0.0123494
712.255	0.0121444
712.333	0.0121789
712.411	0.0119782
712.489	0.0117775
712.568	0.0117518
712.646	0.0117430
712.724	0.0115327
712.802	0.0114835
712.880	0.0115889
712.958	0.0116805
713.036	0.0115350
713.114	0.0116335
713.193	0.0117142
713.271	0.0118251
713.349	0.0118568
713.427	0.0118868
713.505	0.0120901
713.583	0.0123933
713.661	0.0124816
713.739	0.0126048
713.818	0.0126519
713.896	0.0128834
713.974	0.0130225
714.052	0.0132973
714.130	0.0134468
714.208	0.0134961
714.286	0.0136192
714.364	0.0135934
714.443	0.0137859
714.521	0.0137850
714.599	0.0138672
714.677	0.0137260
714.755	0.0138241
714.833	0.0137012
714.911	0.0135130
714.989	0.0133611
715.068	0.0132434
715.146	0.0131249
715.224	0.0130266
715.302	0.0129279
715.380	0.0126823
715.458	0.0126583
715.536	0.0125639
715.614	0.0123752
715.693	0.0123972
715.771	0.0123663
715.849	0.0124323
715.927	0.0124367
716.005	0.0124883
716.083	0.0125874
716.161	0.0126029
716.239	0.0127887
716.318	0.0128407
716.396	0.0130244
716.474	0.0130907
716.552	0.0132527
716.630	0.0134536
716.708	0.0133999
716.786	0.0134671
716.864	0.0135835
716.943	0.0137253
717.021	0.0136964
717.099	0.0137754
717.177	0.0137393
717.255	0.0137587
717.333	0.0137173
717.411	0.0135783
717.489	0.0133065
717.568	0.0131152
717.646	0.0129167
717.724	0.0127543
717.802	0.0122865
717.880	0.0121130
717.958	0.0118456
718.036	0.0115718
718.114	0.0115112
718.193	0.0111054
718.271	0.0109507
718.349	0.0108717
718.427	0.0107098
718.505	0.0106163
718.583	0.0106631
718.661	0.0105647
718.739	0.0107059
718.818	0.0107682
718.896	0.0108212
718.974	0.0111530
719.052	0.0112626
719.130	0.0112691
719.208	0.0116854
719.286	0.0120570
719.364	0.0120972
719.443	0.0124594
719.521	0.0126128
719.599	0.0129943
719.677	0.0130865
719.755	0.0133491
719.833	0.0136900
719.911	0.0137016
719.989	0.0137567
720.068	0.0140133
720.146	0.0141590
720.224	0.0140472
720.302	0.0141128
720.380	0.0139527
720.458	0.0140733
720.536	0.0140545
720.614	0.0139928
720.693	0.0138998
720.771	0.0138193
720.849	0.0137754
720.927	0.0136351
721.005	0.0134217
721.083	0.0134040
721.161	0.0131592
721.239	0.0131287
721.318	0.0131666
721.396	0.0130931
721.474	0.0129958
721.552	0.0127637
721.630	0.0128025
721.708	0.0127302
721.786	0.0129293
721.864	0.0128441
721.943	0.0128626
722.021	0.0128817
722.099	0.0129477
722.177	0.0128845
722.255	0.0130408
722.333	0.0130854
722.411	0.0130444
722.489	0.0129763
722.568	0.0129060
722.646	0.0128943
722.724	0.0127968
722.802	0.0126218
722.880	0.0125674
722.958	0.0125198
723.036	0.0122037
723.114	0.0121524
723.193	0.0122445
723.271	0.0121854
723.349	0.0120590
723.427	0.0120894
723.505	0.0120531
723.583	0.0118377
723.661	0.0116965
723.739	0.0116158
723.818	0.0116145
723.896	0.0116389
723.974	0.0115428
724.052	0.0115634
724.130	0.0116426
724.208	0.0114640
724.286	0.0115851
724.364	0.0116176
724.443	0.0116439
724.521	0.0117010
724.599	0.0120011
724.677	0.0120350
724.755	0.0120529
724.833	0.0121708
724.911	0.0122888
724.989	0.0123934
725.068	0.0125222
725.146	0.0127135
725.224	0.0128625
725.302	0.0129424
725.380	0.0132756
725.458	0.0131122
725.536	0.0132678
725.614	0.0132314
