05/07/2022	17:23:42	Ver.	4.1	UNKNOWN
Optical Delay	639.989416	Delta X		0.078125	Sweeps	1	Scan Rate	0/0
Coordinates	Axis 1	NaN	Axis 2	NaN	Axis 3	NaN	Axis 4	NaN	Axis 5	NaN	Axis 6	0.000000
TX Power	0.000000	RX Power	0.000000

639.989	0.0127956
640.068	0.0127654
640.146	0.0127780
640.224	0.0128075
640.302	0.0128651
640.380	0.0128105
640.458	0.0127111
640.536	0.0127848
640.614	0.0126948
640.693	0.0127559
640.771	0.0127077
640.849	0.0128368
640.927	0.0127812
641.005	0.0126600
641.083	0.0127586
641.161	0.0126651
641.239	0.0127131
641.318	0.0127692
641.396	0.0126900
641.474	0.0127147
641.552	0.0127305
641.630	0.0128328
641.708	0.0127895
641.786	0.0128417
641.864	0.0126997
641.943	0.0126785
642.021	0.0127446
642.099	0.0126994
642.177	0.0127505
642.255	0.0126928
642.333	0.0127600
642.411	0.0127322
642.489	0.0126402
642.568	0.0126636
642.646	0.0127023
642.724	0.0127070
642.802	0.0128610
642.880	0.0126595
642.958	0.0126685
643.036	0.0127795
643.114	0.0127834
643.193	0.0126776
643.271	0.0127042
643.349	0.0126886
643.427	0.0126783
643.505	0.0126973
643.583	0.0128640
643.661	0.0129076
643.739	0.0128127
643.818	0.0127837
643.896	0.0127482
643.974	0.0128152
644.052	0.0127705
644.130	0.0127274
644.208	0.0127766
644.286	0.0127589
644.364	0.0127101
644.443	0.0127171
644.521	0.0128226
644.599	0.0127699
644.677	0.0128615
644.755	0.0127514
644.833	0.0128418
644.911	0.0128770
644.989	0.0127692
645.068	0.0127420
645.146	0.0127720
645.224	0.0128948
645.302	0.0129259
645.380	0.0127316
645.458	0.0127811
645.536	0.0127905
645.614	0.0127264
645.693	0.0128173
645.771	0.0128242
645.849	0.0127765
645.927	0.0130179
646.005	0.0128635
646.083	0.0127020
646.161	0.0128118
646.239	0.0127280
646.318	0.0128831
646.396	0.0129070
646.474	0.0126841
646.552	0.0127856
646.630	0.0128374
646.708	0.0127729
646.786	0.0128020
646.864	0.0128949
646.943	0.0129836
647.021	0.0127339
647.099	0.0128801
647.177	0.0128671
647.255	0.0127811
647.333	0.0129066
647.411	0.0126455
647.489	0.0127187
647.568	0.0127087
647.646	0.0129049
647.724	0.0128455
647.802	0.0127599
647.880	0.0128580
647.958	0.0126827
648.036	0.0127757
648.114	0.0128894
648.193	0.0127671
648.271	0.0127914
648.349	0.0128564
648.427	0.0128911
648.505	0.0126739
648.583	0.0127898
648.661	0.0128170
648.739	0.0128099
648.818	0.0127010
648.896	0.0128638
648.974	0.0128603
649.052	0.0127621
649.130	0.0127517
649.208	0.0126825
649.286	0.0126936
649.364	0.0128194
649.443	0.0129171
649.521	0.0128862
649.599	0.0128071
649.677	0.0127514
649.755	0.0128839
649.833	0.0127814
649.911	0.0128664
649.989	0.0128782
650.068	0.0127259
650.146	0.0126996
650.224	0.0128040
650.302	0.0129395
650.380	0.0128056
650.458	0.0127388
650.536	0.0128468
650.614	0.0128311
650.693	0.0128079
650.771	0.0126887
650.849	0.0128247
650.927	0.0127863
651.005	0.0127143
651.083	0.0128150
651.161	0.0127924
651.239	0.0128143
651.318	0.0128706
651.396	0.0127416
651.474	0.0127156
651.552	0.0126955
651.630	0.0128224
651.708	0.0127527
651.786	0.0127937
651.864	0.0128285
651.943	0.0127406
652.021	0.0128178
652.099	0.0127207
652.177	0.0128210
652.255	0.0127644
652.333	0.0127349
652.411	0.0126884
652.489	0.0127497
652.568	0.0127398
652.646	0.0129157
652.724	0.0128062
652.802	0.0127454
652.880	0.0127587
652.958	0.0129198
653.036	0.0127865
653.114	0.0127795
653.193	0.0126051
653.271	0.0126535
653.349	0.0127649
653.427	0.0127060
653.505	0.0127152
653.583	0.0126688
653.661	0.0128416
653.739	0.0126683
653.818	0.0127024
653.896	0.0127226
653.974	0.0127690
654.052	0.0126971
654.130	0.0127908
654.208	0.0129018
654.286	0.0127849
654.364	0.0127907
654.443	0.0127639
654.521	0.0127808
654.599	0.0127422
654.677	0.0126940
654.755	0.0126811
654.833	0.0127776
654.911	0.0128271
654.989	0.0128613
655.068	0.0126636
655.146	0.0128104
655.224	0.0126390
655.302	0.0125995
655.380	0.0126701
655.458	0.0127520
655.536	0.0127516
655.614	0.0127889
655.693	0.0127991
655.771	0.0127063
655.849	0.0127920
655.927	0.0127056
656.005	0.0129456
656.083	0.0129993
656.161	0.0129528
656.239	0.0128089
656.318	0.0128902
656.396	0.0128545
656.474	0.0127405
656.552	0.0127333
656.630	0.0128305
656.708	0.0126997
656.786	0.0126377
656.864	0.0126350
656.943	0.0126086
657.021	0.0124750
657.099	0.0125990
657.177	0.0124731
657.255	0.0125182
657.333	0.0125514
657.411	0.0126768
657.489	0.0127596
657.568	0.0127228
657.646	0.0127393
657.724	0.0128503
657.802	0.0129575
657.880	0.0129995
657.958	0.0129693
658.036	0.0129762
658.114	0.0131763
658.193	0.0131999
658.271	0.0130578
658.349	0.0131446
658.427	0.0131232
658.505	0.0131560
658.583	0.0130093
658.661	0.0129211
658.739	0.0128950
658.818	0.0127312
658.896	0.0128220
658.974	0.0127223
659.052	0.0125705
659.130	0.0125682
659.208	0.0124330
659.286	0.0123934
659.364	0.0122696
659.443	0.0122989
659.521	0.0121082
659.599	0.0123085
659.677	0.0123900
659.755	0.0123980
659.833	0.0123962
659.911	0.0124828
659.989	0.0125564
660.068	0.0126919
660.146	0.0127701
660.224	0.0128919
660.302	0.0127983
660.380	0.0130147
660.458	0.0131408
660.536	0.0132389
660.614	0.0132736
660.693	0.0133353
660.771	0.0133333
660.849	0.0132895
660.927	0.0133018
661.005	0.0132539
661.083	0.0131833
661.161	0.0130524
661.239	0.0129250
661.318	0.0130123
661.396	0.0129320
661.474	0.0126468
661.552	0.0127312
661.630	0.0127106
661.708	0.0124409
661.786	0.0123927
661.864	0.0123075
661.943	0.0122513
662.021	0.0122229
662.099	0.0122242
662.177	0.0119827
662.255	0.0121196
662.333	0.0122675
662.411	0.0122746
662.489	0.0122303
662.568	0.0122713
662.646	0.0123765
662.724	0.0125114
662.802	0.0124652
662.880	0.0125185
662.958	0.0127178
663.036	0.0127399
663.114	0.0127481
663.193	0.0128185
663.271	0.0129018
663.349	0.0129886
663.427	0.0130395
663.505	0.0131585
663.583	0.0131105
663.661	0.0130076
663.739	0.0132760
663.818	0.0131844
663.896	0.0131857
663.974	0.0132776
664.052	0.0132186
664.130	0.0132005
664.208	0.0131436
664.286	0.0130537
664.364	0.0129561
664.443	0.0128948
664.521	0.0128347
664.599	0.0128504
664.677	0.0125818
664.755	0.0127562
664.833	0.0123882
664.911	0.0122826
664.989	0.0123148
665.068	0.0123111
665.146	0.0121777
665.224	0.0123048
665.302	0.0123009
665.380	0.0124400
665.458	0.0125868
665.536	0.0125223
665.614	0.0125964
665.693	0.0126414
665.771	0.0128777
665.849	0.0131080
665.927	0.0130306
666.005	0.0130904
666.083	0.0131174
666.161	0.0131584
666.239	0.0131036
666.318	0.0132059
666.396	0.0129633
666.474	0.0130538
666.552	0.0129071
666.630	0.0127204
666.708	0.0126611
666.786	0.0126147
666.864	0.0126038
666.943	0.0125465
667.021	0.0123380
667.099	0.0122651
667.177	0.0122861
667.255	0.0122886
667.333	0.0121909
667.411	0.0122345
667.489	0.0120609
667.568	0.0122677
667.646	0.0121922
667.724	0.0123834
667.802	0.0124360
667.880	0.0125885
667.958	0.0126611
668.036	0.0127153
668.114	0.0127811
668.193	0.0130132
668.271	0.0130672
668.349	0.0131117
668.427	0.0131971
668.505	0.0133311
668.583	0.0133527
668.661	0.0134180
668.739	0.0135510
668.818	0.0136336
668.896	0.0136525
668.974	0.0138491
669.052	0.0138270
669.130	0.0137074
669.208	0.0138078
669.286	0.0136768
669.364	0.0135363
669.443	0.0135003
669.521	0.0133453
669.599	0.0130904
669.677	0.0128708
669.755	0.0126096
669.833	0.0126047
669.911	0.0124110
669.989	0.0121516
670.068	0.0119585
670.146	0.0116924
670.224	0.0115575
670.302	0.0113338
670.380	0.0113390
670.458	0.0112628
670.536	0.0112767
670.614	0.0111527
670.693	0.0113280
670.771	0.0113825
670.849	0.0114784
670.927	0.0115836
671.005	0.0115742
671.083	0.0119403
671.161	0.0121991
671.239	0.0122752
671.318	0.0125069
671.396	0.0127008
671.474	0.0129287
671.552	0.0130315
671.630	0.0131723
671.708	0.0136562
671.786	0.0136378
671.864	0.0138107
671.943	0.0139315
672.021	0.0140967
672.099	0.0141959
672.177	0.0141980
672.255	0.0144640
672.333	0.0145435
672.411	0.0145065
672.489	0.0145788
672.568	0.0145110
672.646	0.0144026
672.724	0.0145923
672.802	0.0142491
672.880	0.0142370
672.958	0.0141647
673.036	0.0136861
673.114	0.0135815
673.193	0.0133807
673.271	0.0132067
673.349	0.0127387
673.427	0.0127094
673.505	0.0124586
673.583	0.0122236
673.661	0.0120975
673.739	0.0120305
673.818	0.0115636
673.896	0.0114334
673.974	0.0111556
674.052	0.0111138
674.130	0.0110131
674.208	0.0107070
674.286	0.0106043
674.364	0.0106892
674.443	0.0107148
674.521	0.0105273
674.599	0.0106827
674.677	0.0106917
674.755	0.0107909
674.833	0.0110747
674.911	0.0113094
674.989	0.0115221
675.068	0.0117733
675.146	0.0121520
675.224	0.0124725
675.302	0.0126006
675.380	0.0129771
675.458	0.0131604
675.536	0.0134916
675.614	0.0137069
675.693	0.0138714
675.771	0.0138606
675.849	0.0142722
675.927	0.0144836
676.005	0.0144359
676.083	0.0145454
676.161	0.0147308
676.239	0.0147124
676.318	0.0149207
676.396	0.0148409
676.474	0.0148898
676.552	0.0148794
676.630	0.0148006
676.708	0.0148335
676.786	0.0146637
676.864	0.0144753
676.943	0.0142907
677.021	0.0141752
677.099	0.0140120
677.177	0.0138161
677.255	0.0137257
677.333	0.0134543
677.411	0.0132424
677.489	0.0129554
677.568	0.0126595
677.646	0.0126570
677.724	0.0123552
677.802	0.0118634
677.880	0.0117122
677.958	0.0116366
678.036	0.0113690
678.114	0.0111842
678.193	0.0111132
678.271	0.0109582
678.349	0.0109432
678.427	0.0108569
678.505	0.0108565
678.583	0.0107208
678.661	0.0108031
678.739	0.0108652
678.818	0.0107796
678.896	0.0105973
678.974	0.0107581
679.052	0.0107099
679.130	0.0107954
679.208	0.0108109
679.286	0.0108788
679.364	0.0110446
679.443	0.0112998
679.521	0.0113651
679.599	0.0114597
679.677	0.0118684
679.755	0.0119666
679.833	0.0123135
679.911	0.0125459
679.989	0.0129787
680.068	0.0131031
680.146	0.0134003
680.224	0.0138042
680.302	0.0140760
680.380	0.0143741
680.458	0.0145833
680.536	0.0149257
680.614	0.0150721
680.693	0.0152536
680.771	0.0153591
680.849	0.0154819
680.927	0.0157258
681.005	0.0158822
681.083	0.0158289
681.161	0.0159157
681.239	0.0158949
681.318	0.0159476
681.396	0.0156844
681.474	0.0155120
681.552	0.0151653
681.630	0.0149082
681.708	0.0146244
681.786	0.0140633
681.864	0.0135525
681.943	0.0130776
682.021	0.0125952
682.099	0.0120751
682.177	0.0115401
682.255	0.0110846
682.333	0.0108244
682.411	0.0104441
682.489	0.0100229
682.568	0.00966270
682.646	0.00968018
682.724	0.00945816
682.802	0.00929939
682.880	0.00922546
682.958	0.00919388
683.036	0.00909805
683.114	0.00907822
683.193	0.00926819
683.271	0.00941803
683.349	0.00950890
683.427	0.00970879
683.505	0.00987419
683.583	0.0102451
683.661	0.0104451
683.739	0.0108325
683.818	0.0112002
683.896	0.0116152
683.974	0.0120917
684.052	0.0125014
684.130	0.0127859
684.208	0.0134416
684.286	0.0136949
684.364	0.0141161
684.443	0.0144087
684.521	0.0149004
684.599	0.0151708
684.677	0.0152276
684.755	0.0155161
684.833	0.0157293
684.911	0.0158916
684.989	0.0162045
685.068	0.0161621
685.146	0.0163535
685.224	0.0163132
685.302	0.0161973
685.380	0.0161276
685.458	0.0159948
685.536	0.0158067
685.614	0.0155155
685.693	0.0153205
685.771	0.0151740
685.849	0.0147227
685.927	0.0144806
686.005	0.0141503
686.083	0.0136643
686.161	0.0134101
686.239	0.0129772
686.318	0.0127793
686.396	0.0123986
686.474	0.0120273
686.552	0.0115022
686.630	0.0111434
686.708	0.0108329
686.786	0.0104487
686.864	0.0101261
686.943	0.00984962
687.021	0.00966904
687.099	0.00939758
687.177	0.00923096
687.255	0.00905464
687.333	0.00902802
687.411	0.00909103
687.489	0.00915924
687.568	0.00929619
687.646	0.00950401
687.724	0.00969681
687.802	0.0100809
687.880	0.0103566
687.958	0.0107133
688.036	0.0112537
688.114	0.0118208
688.193	0.0121140
688.271	0.0127402
688.349	0.0131525
688.427	0.0135940
688.505	0.0138520
688.583	0.0144930
688.661	0.0149645
688.739	0.0152252
688.818	0.0153936
688.896	0.0157807
688.974	0.0160524
689.052	0.0162852
689.130	0.0162327
689.208	0.0163911
689.286	0.0162495
689.364	0.0160150
689.443	0.0158646
689.521	0.0157245
689.599	0.0153871
689.677	0.0151595
689.755	0.0147953
689.833	0.0143356
689.911	0.0139037
689.989	0.0134864
690.068	0.0132439
690.146	0.0127187
690.224	0.0122514
690.302	0.0121214
690.380	0.0117579
690.458	0.0115514
690.536	0.0112482
690.614	0.0109962
690.693	0.0107748
690.771	0.0109146
690.849	0.0107869
690.927	0.0107572
691.005	0.0107542
691.083	0.0108327
691.161	0.0109019
691.239	0.0111772
691.318	0.0113717
691.396	0.0114893
691.474	0.0118459
691.552	0.0118882
691.630	0.0120908
691.708	0.0124196
691.786	0.0126676
691.864	0.0126365
691.943	0.0127508
692.021	0.0128466
692.099	0.0129884
692.177	0.0130385
692.255	0.0133259
692.333	0.0132878
692.411	0.0131779
692.489	0.0131702
692.568	0.0132861
692.646	0.0133933
692.724	0.0134551
692.802	0.0132680
692.880	0.0133475
692.958	0.0132388
693.036	0.0134067
693.114	0.0132561
693.193	0.0133655
693.271	0.0134650
693.349	0.0136621
693.427	0.0135746
693.505	0.0136873
693.583	0.0138451
693.661	0.0138593
693.739	0.0138914
693.818	0.0139616
693.896	0.0138683
693.974	0.0137927
694.052	0.0136658
694.130	0.0138285
694.208	0.0134464
694.286	0.0134804
694.364	0.0133772
694.443	0.0132608
694.521	0.0130133
694.599	0.0129717
694.677	0.0127173
694.755	0.0127141
694.833	0.0123379
694.911	0.0120429
694.989	0.0117841
695.068	0.0117239
695.146	0.0114143
695.224	0.0113075
695.302	0.0109200
695.380	0.0107639
695.458	0.0106161
695.536	0.0105118
695.614	0.0105715
695.693	0.0106345
695.771	0.0104572
695.849	0.0106462
695.927	0.0110359
696.005	0.0112749
696.083	0.0115368
696.161	0.0117664
696.239	0.0120432
696.318	0.0125315
696.396	0.0129992
696.474	0.0134834
696.552	0.0137969
696.630	0.0141152
696.708	0.0145591
696.786	0.0148252
696.864	0.0150719
696.943	0.0153653
697.021	0.0153813
697.099	0.0154790
697.177	0.0154714
697.255	0.0153017
697.333	0.0153018
697.411	0.0152030
697.489	0.0146735
697.568	0.0144556
697.646	0.0141408
697.724	0.0138069
697.802	0.0134933
697.880	0.0129554
697.958	0.0128094
698.036	0.0123747
698.114	0.0119362
698.193	0.0117903
698.271	0.0116262
698.349	0.0113273
698.427	0.0111955
698.505	0.0109151
698.583	0.0109081
698.661	0.0109381
698.739	0.0108450
698.818	0.0108101
698.896	0.0109866
698.974	0.0113304
699.052	0.0113029
699.130	0.0113895
699.208	0.0116415
699.286	0.0119568
699.364	0.0122732
699.443	0.0122924
699.521	0.0124287
699.599	0.0127907
699.677	0.0128046
699.755	0.0130248
699.833	0.0131541
699.911	0.0132512
699.989	0.0133876
700.068	0.0136524
700.146	0.0135228
700.224	0.0135660
700.302	0.0136028
700.380	0.0134675
700.458	0.0132948
700.536	0.0131269
700.614	0.0128745
700.693	0.0128458
700.771	0.0124763
700.849	0.0122758
700.927	0.0121124
701.005	0.0119124
701.083	0.0117821
701.161	0.0115243
701.239	0.0113976
701.318	0.0114716
701.396	0.0114307
701.474	0.0115867
701.552	0.0118189
701.630	0.0118015
701.708	0.0120303
701.786	0.0123874
701.864	0.0126570
701.943	0.0128261
702.021	0.0131009
702.099	0.0134122
702.177	0.0137444
702.255	0.0140368
702.333	0.0141964
702.411	0.0143109
702.489	0.0144998
702.568	0.0145260
702.646	0.0146100
702.724	0.0145850
702.802	0.0147175
702.880	0.0144518
702.958	0.0143777
703.036	0.0142391
703.114	0.0141296
703.193	0.0138493
703.271	0.0134218
703.349	0.0131120
703.427	0.0128286
703.505	0.0124288
703.583	0.0120142
703.661	0.0117580
703.739	0.0114227
703.818	0.0111449
703.896	0.0108873
703.974	0.0109197
704.052	0.0107287
704.130	0.0106799
704.208	0.0105551
704.286	0.0109744
704.364	0.0110097
704.443	0.0112653
704.521	0.0115183
704.599	0.0117026
704.677	0.0121371
704.755	0.0124246
704.833	0.0126270
704.911	0.0129227
704.989	0.0132710
705.068	0.0134611
705.146	0.0137481
705.224	0.0138274
705.302	0.0139248
705.380	0.0141640
705.458	0.0142935
705.536	0.0143564
705.614	0.0141843
705.693	0.0140353
705.771	0.0141682
705.849	0.0139797
705.927	0.0139574
706.005	0.0136722
706.083	0.0134949
706.161	0.0130893
706.239	0.0128023
706.318	0.0126100
706.396	0.0123935
706.474	0.0120634
706.552	0.0119166
706.630	0.0115057
706.708	0.0114798
706.786	0.0113890
706.864	0.0109929
706.943	0.0109364
707.021	0.0109411
707.099	0.0112534
707.177	0.0112243
707.255	0.0113235
707.333	0.0115448
707.411	0.0117531
707.489	0.0118256
707.568	0.0122632
707.646	0.0126897
707.724	0.0128527
707.802	0.0129853
707.880	0.0132511
707.958	0.0134660
708.036	0.0138388
708.114	0.0140010
708.193	0.0141422
708.271	0.0143734
708.349	0.0145051
708.427	0.0146472
708.505	0.0145551
708.583	0.0146911
708.661	0.0144982
708.739	0.0145005
708.818	0.0144674
708.896	0.0142328
708.974	0.0139942
709.052	0.0139228
709.130	0.0136028
709.208	0.0133341
709.286	0.0131528
709.364	0.0129961
709.443	0.0126684
709.521	0.0126102
709.599	0.0123129
709.677	0.0123988
709.755	0.0122465
709.833	0.0121696
709.911	0.0122031
709.989	0.0120843
710.068	0.0122112
710.146	0.0123376
710.224	0.0124310
710.302	0.0124033
710.380	0.0125293
710.458	0.0125488
710.536	0.0126685
710.614	0.0128902
710.693	0.0128494
710.771	0.0129050
710.849	0.0129035
710.927	0.0129592
711.005	0.0128638
711.083	0.0127669
711.161	0.0128432
711.239	0.0127294
711.318	0.0126195
711.396	0.0124988
711.474	0.0123798
711.552	0.0124146
711.630	0.0122057
711.708	0.0120779
711.786	0.0120947
711.864	0.0118956
711.943	0.0119569
712.021	0.0118401
712.099	0.0117916
712.177	0.0118164
712.255	0.0117278
712.333	0.0118951
712.411	0.0119136
712.489	0.0120081
712.568	0.0120772
712.646	0.0122873
712.724	0.0125011
712.802	0.0124615
712.880	0.0127108
712.958	0.0126454
713.036	0.0129935
713.114	0.0130729
713.193	0.0132803
713.271	0.0133826
713.349	0.0134679
713.427	0.0136768
713.505	0.0137901
713.583	0.0138562
713.661	0.0137170
713.739	0.0138089
713.818	0.0138274
713.896	0.0139139
713.974	0.0138047
714.052	0.0137582
714.130	0.0136449
714.208	0.0133496
714.286	0.0132891
714.364	0.0134428
714.443	0.0130769
714.521	0.0130168
714.599	0.0127721
714.677	0.0126313
714.755	0.0127018
714.833	0.0126928
714.911	0.0126599
714.989	0.0126505
715.068	0.0124683
715.146	0.0125257
715.224	0.0126526
715.302	0.0126967
715.380	0.0127596
715.458	0.0127516
715.536	0.0128211
715.614	0.0129589
715.693	0.0130952
715.771	0.0132574
715.849	0.0132854
715.927	0.0134857
716.005	0.0135115
716.083	0.0136010
716.161	0.0135512
716.239	0.0135840
716.318	0.0135776
716.396	0.0136833
716.474	0.0136365
716.552	0.0135513
716.630	0.0131760
716.708	0.0130923
716.786	0.0129350
716.864	0.0127776
716.943	0.0124215
717.021	0.0120847
717.099	0.0120129
717.177	0.0117082
717.255	0.0116852
717.333	0.0113641
717.411	0.0113007
717.489	0.0111665
717.568	0.0112015
717.646	0.0109978
717.724	0.0109651
717.802	0.0110580
717.880	0.0110806
717.958	0.0111346
718.036	0.0112824
718.114	0.0114097
718.193	0.0115038
718.271	0.0117151
718.349	0.0118863
718.427	0.0121523
718.505	0.0124204
718.583	0.0126188
718.661	0.0128042
718.739	0.0130969
718.818	0.0132655
718.896	0.0133847
718.974	0.0137695
719.052	0.0138857
719.130	0.0139159
719.208	0.0140454
719.286	0.0143170
719.364	0.0143655
719.443	0.0142570
719.521	0.0141997
719.599	0.0142174
719.677	0.0142038
719.755	0.0139900
719.833	0.0139198
719.911	0.0138741
719.989	0.0138686
720.068	0.0135461
720.146	0.0135500
720.224	0.0133763
720.302	0.0131274
720.380	0.0130724
720.458	0.0130321
720.536	0.0128786
720.614	0.0127911
720.693	0.0130434
720.771	0.0126859
720.849	0.0127359
720.927	0.0128610
721.005	0.0128310
721.083	0.0128870
721.161	0.0128802
721.239	0.0127729
721.318	0.0128831
721.396	0.0129218
721.474	0.0128916
721.552	0.0129003
721.630	0.0129247
721.708	0.0127920
721.786	0.0128822
721.864	0.0127628
721.943	0.0127419
722.021	0.0126482
722.099	0.0125784
722.177	0.0124696
722.255	0.0124315
722.333	0.0123438
722.411	0.0123026
722.489	0.0121995
722.568	0.0120661
722.646	0.0120017
722.724	0.0118125
722.802	0.0117468
722.880	0.0118227
722.958	0.0116510
723.036	0.0117104
723.114	0.0115532
723.193	0.0115541
723.271	0.0114796
723.349	0.0116497
723.427	0.0116423
723.505	0.0118011
723.583	0.0119427
723.661	0.0119849
723.739	0.0120215
723.818	0.0121870
723.896	0.0123684
723.974	0.0125555
724.052	0.0127212
724.130	0.0126876
724.208	0.0129684
724.286	0.0131881
724.364	0.0132304
724.443	0.0133488
724.521	0.0135629
724.599	0.0132860
724.677	0.0134208
724.755	0.0135163
724.833	0.0135327
724.911	0.0134214
724.989	0.0134242
725.068	0.0135040
725.146	0.0134901
725.224	0.0133714
725.302	0.0133529
725.380	0.0132147
725.458	0.0132976
725.536	0.0131584
725.614	0.0133326
