05/07/2022	17:25:12	Ver.	4.1	UNKNOWN
Optical Delay	639.989416	Delta X		0.078125	Sweeps	1	Scan Rate	0/0
Coordinates	Axis 1	NaN	Axis 2	NaN	Axis 3	NaN	Axis 4	NaN	Axis 5	NaN	Axis 6	0.000000
TX Power	0.000000	RX Power	0.000000

639.989	0.0126536
640.068	0.0125554
640.146	0.0126080
640.224	0.0126965
640.302	0.0126955
640.380	0.0128019
640.458	0.0127637
640.536	0.0127766
640.614	0.0127247
640.693	0.0127221
640.771	0.0127927
640.849	0.0126699
640.927	0.0126812
641.005	0.0127622
641.083	0.0126229
641.161	0.0125567
641.239	0.0126291
641.318	0.0126014
641.396	0.0126189
641.474	0.0126501
641.552	0.0126524
641.630	0.0125965
641.708	0.0126117
641.786	0.0126077
641.864	0.0127489
641.943	0.0127481
642.021	0.0126420
642.099	0.0126858
642.177	0.0128028
642.255	0.0125873
642.333	0.0125731
642.411	0.0125474
642.489	0.0126505
642.568	0.0125230
642.646	0.0126041
642.724	0.0126638
642.802	0.0127700
642.880	0.0127399
642.958	0.0126281
643.036	0.0126910
643.114	0.0126118
643.193	0.0126932
643.271	0.0127551
643.349	0.0127573
643.427	0.0127659
643.505	0.0126321
643.583	0.0125885
643.661	0.0125732
643.739	0.0127406
643.818	0.0128701
643.896	0.0127508
643.974	0.0127193
644.052	0.0126126
644.130	0.0126860
644.208	0.0126878
644.286	0.0125504
644.364	0.0127426
644.443	0.0127038
644.521	0.0127559
644.599	0.0127030
644.677	0.0126891
644.755	0.0126716
644.833	0.0126415
644.911	0.0124787
644.989	0.0126287
645.068	0.0127135
645.146	0.0126651
645.224	0.0126685
645.302	0.0126437
645.380	0.0125505
645.458	0.0125711
645.536	0.0124816
645.614	0.0126074
645.693	0.0126595
645.771	0.0126654
645.849	0.0126096
645.927	0.0127097
646.005	0.0125832
646.083	0.0125577
646.161	0.0124479
646.239	0.0125636
646.318	0.0126998
646.396	0.0127503
646.474	0.0126431
646.552	0.0125441
646.630	0.0126944
646.708	0.0127507
646.786	0.0126171
646.864	0.0126030
646.943	0.0127297
647.021	0.0126127
647.099	0.0126207
647.177	0.0127316
647.255	0.0126043
647.333	0.0126117
647.411	0.0125229
647.489	0.0126644
647.568	0.0127116
647.646	0.0126423
647.724	0.0126302
647.802	0.0126611
647.880	0.0126505
647.958	0.0126811
648.036	0.0128081
648.114	0.0126945
648.193	0.0126754
648.271	0.0125462
648.349	0.0127508
648.427	0.0127268
648.505	0.0126495
648.583	0.0126455
648.661	0.0127060
648.739	0.0125439
648.818	0.0126823
648.896	0.0127364
648.974	0.0126970
649.052	0.0126563
649.130	0.0125479
649.208	0.0126160
649.286	0.0125761
649.364	0.0125269
649.443	0.0126871
649.521	0.0126942
649.599	0.0125406
649.677	0.0125859
649.755	0.0126372
649.833	0.0125365
649.911	0.0125544
649.989	0.0125976
650.068	0.0125803
650.146	0.0126151
650.224	0.0126832
650.302	0.0124644
650.380	0.0125009
650.458	0.0127786
650.536	0.0126530
650.614	0.0126506
650.693	0.0124193
650.771	0.0127139
650.849	0.0126479
650.927	0.0126050
651.005	0.0126586
651.083	0.0125217
651.161	0.0127615
651.239	0.0126650
651.318	0.0125051
651.396	0.0126157
651.474	0.0125439
651.552	0.0125990
651.630	0.0126258
651.708	0.0126639
651.786	0.0127663
651.864	0.0126157
651.943	0.0126128
652.021	0.0126237
652.099	0.0126051
652.177	0.0126707
652.255	0.0126180
652.333	0.0126146
652.411	0.0126411
652.489	0.0126778
652.568	0.0127213
652.646	0.0126611
652.724	0.0125382
652.802	0.0126996
652.880	0.0125564
652.958	0.0126188
653.036	0.0126718
653.114	0.0127499
653.193	0.0126222
653.271	0.0126695
653.349	0.0126183
653.427	0.0127264
653.505	0.0126637
653.583	0.0126846
653.661	0.0127650
653.739	0.0127375
653.818	0.0127519
653.896	0.0126624
653.974	0.0126641
654.052	0.0128321
654.130	0.0127196
654.208	0.0125526
654.286	0.0125126
654.364	0.0126817
654.443	0.0126226
654.521	0.0125008
654.599	0.0125102
654.677	0.0124371
654.755	0.0124944
654.833	0.0125519
654.911	0.0124876
654.989	0.0125147
655.068	0.0125838
655.146	0.0125937
655.224	0.0125977
655.302	0.0126290
655.380	0.0127072
655.458	0.0126244
655.536	0.0127015
655.614	0.0127463
655.693	0.0128312
655.771	0.0128136
655.849	0.0128407
655.927	0.0130283
656.005	0.0128754
656.083	0.0128319
656.161	0.0128408
656.239	0.0128244
656.318	0.0129028
656.396	0.0129308
656.474	0.0128054
656.552	0.0126533
656.630	0.0127341
656.708	0.0125465
656.786	0.0124831
656.864	0.0124695
656.943	0.0124026
657.021	0.0123715
657.099	0.0123589
657.177	0.0122371
657.255	0.0122572
657.333	0.0122849
657.411	0.0122493
657.489	0.0123666
657.568	0.0123141
657.646	0.0123798
657.724	0.0124978
657.802	0.0125571
657.880	0.0126206
657.958	0.0129240
658.036	0.0130080
658.114	0.0129780
658.193	0.0129759
658.271	0.0131315
658.349	0.0132809
658.427	0.0132803
658.505	0.0131850
658.583	0.0133659
658.661	0.0132757
658.739	0.0132122
658.818	0.0132635
658.896	0.0131284
658.974	0.0130267
659.052	0.0130969
659.130	0.0128787
659.208	0.0127628
659.286	0.0125977
659.364	0.0127003
659.443	0.0126098
659.521	0.0122829
659.599	0.0121598
659.677	0.0121749
659.755	0.0121482
659.833	0.0121707
659.911	0.0121999
659.989	0.0121046
660.068	0.0120335
660.146	0.0119831
660.224	0.0120919
660.302	0.0120444
660.380	0.0122662
660.458	0.0122203
660.536	0.0123198
660.614	0.0124195
660.693	0.0125006
660.771	0.0126930
660.849	0.0127926
660.927	0.0129689
661.005	0.0129874
661.083	0.0130432
661.161	0.0131139
661.239	0.0132433
661.318	0.0133340
661.396	0.0133887
661.474	0.0133923
661.552	0.0133392
661.630	0.0134514
661.708	0.0133871
661.786	0.0133971
661.864	0.0133284
661.943	0.0131947
662.021	0.0132316
662.099	0.0131161
662.177	0.0129845
662.255	0.0128336
662.333	0.0127480
662.411	0.0126022
662.489	0.0124851
662.568	0.0122474
662.646	0.0123743
662.724	0.0120860
662.802	0.0119500
662.880	0.0119383
662.958	0.0119685
663.036	0.0118533
663.114	0.0119479
663.193	0.0117693
663.271	0.0117479
663.349	0.0118446
663.427	0.0119863
663.505	0.0119732
663.583	0.0122214
663.661	0.0122580
663.739	0.0123758
663.818	0.0125047
663.896	0.0127145
663.974	0.0128967
664.052	0.0129350
664.130	0.0130319
664.208	0.0131696
664.286	0.0132022
664.364	0.0133048
664.443	0.0134492
664.521	0.0134269
664.599	0.0133530
664.677	0.0134098
664.755	0.0132672
664.833	0.0132038
664.911	0.0130547
664.989	0.0130154
665.068	0.0128830
665.146	0.0127157
665.224	0.0127549
665.302	0.0127126
665.380	0.0124889
665.458	0.0125562
665.536	0.0124001
665.614	0.0123195
665.693	0.0121778
665.771	0.0122124
665.849	0.0123498
665.927	0.0123037
666.005	0.0121079
666.083	0.0122479
666.161	0.0122672
666.239	0.0124020
666.318	0.0123342
666.396	0.0124147
666.474	0.0124821
666.552	0.0124612
666.630	0.0125262
666.708	0.0127292
666.786	0.0127258
666.864	0.0127346
666.943	0.0128698
667.021	0.0128770
667.099	0.0128217
667.177	0.0129918
667.255	0.0131329
667.333	0.0130621
667.411	0.0130933
667.489	0.0128571
667.568	0.0129102
667.646	0.0129070
667.724	0.0128209
667.802	0.0127972
667.880	0.0125270
667.958	0.0124826
668.036	0.0122205
668.114	0.0121238
668.193	0.0119808
668.271	0.0118995
668.349	0.0120055
668.427	0.0117090
668.505	0.0117558
668.583	0.0118964
668.661	0.0116748
668.739	0.0117790
668.818	0.0117777
668.896	0.0120022
668.974	0.0118649
669.052	0.0119073
669.130	0.0121079
669.208	0.0122357
669.286	0.0123065
669.364	0.0125305
669.443	0.0125547
669.521	0.0128420
669.599	0.0129889
669.677	0.0131712
669.755	0.0131882
669.833	0.0132425
669.911	0.0132091
669.989	0.0135470
670.068	0.0136053
670.146	0.0136509
670.224	0.0136616
670.302	0.0137811
670.380	0.0138200
670.458	0.0136221
670.536	0.0138367
670.614	0.0135908
670.693	0.0135933
670.771	0.0135069
670.849	0.0134389
670.927	0.0133696
671.005	0.0130875
671.083	0.0130903
671.161	0.0129820
671.239	0.0128149
671.318	0.0126944
671.396	0.0124100
671.474	0.0124031
671.552	0.0122153
671.630	0.0120542
671.708	0.0119709
671.786	0.0118616
671.864	0.0118317
671.943	0.0116082
672.021	0.0116774
672.099	0.0115816
672.177	0.0116004
672.255	0.0113946
672.333	0.0113350
672.411	0.0114192
672.489	0.0113331
672.568	0.0113597
672.646	0.0114190
672.724	0.0113980
672.802	0.0114750
672.880	0.0116331
672.958	0.0117056
673.036	0.0117548
673.114	0.0117802
673.193	0.0120373
673.271	0.0120734
673.349	0.0123137
673.427	0.0124247
673.505	0.0125345
673.583	0.0127100
673.661	0.0129021
673.739	0.0129814
673.818	0.0133396
673.896	0.0132874
673.974	0.0134243
674.052	0.0136705
674.130	0.0138593
674.208	0.0140038
674.286	0.0142246
674.364	0.0142074
674.443	0.0144422
674.521	0.0148505
674.599	0.0147722
674.677	0.0147191
674.755	0.0148248
674.833	0.0148761
674.911	0.0149249
674.989	0.0147352
675.068	0.0146284
675.146	0.0146249
675.224	0.0144044
675.302	0.0142102
675.380	0.0139137
675.458	0.0136932
675.536	0.0135233
675.614	0.0130872
675.693	0.0127705
675.771	0.0124332
675.849	0.0120747
675.927	0.0117161
676.005	0.0114580
676.083	0.0112080
676.161	0.0107589
676.239	0.0104782
676.318	0.0103286
676.396	0.0100677
676.474	0.00996704
676.552	0.00964264
676.630	0.00949417
676.708	0.00960068
676.786	0.00966309
676.864	0.00955528
676.943	0.00977386
677.021	0.00999329
677.099	0.0102818
677.177	0.0104840
677.255	0.0108717
677.333	0.0112425
677.411	0.0115988
677.489	0.0121259
677.568	0.0122359
677.646	0.0127108
677.724	0.0132065
677.802	0.0134657
677.880	0.0140186
677.958	0.0142329
678.036	0.0143831
678.114	0.0148574
678.193	0.0151112
678.271	0.0153156
678.349	0.0153989
678.427	0.0156569
678.505	0.0156839
678.583	0.0156675
678.661	0.0156168
678.739	0.0156793
678.818	0.0155050
678.896	0.0154773
678.974	0.0152033
679.052	0.0150433
679.130	0.0146364
679.208	0.0145145
679.286	0.0143556
679.364	0.0139406
679.443	0.0137089
679.521	0.0132772
679.599	0.0130396
679.677	0.0126546
679.755	0.0124184
679.833	0.0120955
679.911	0.0118713
679.989	0.0118053
680.068	0.0116536
680.146	0.0113036
680.224	0.0111330
680.302	0.0112152
680.380	0.0110661
680.458	0.0109710
680.536	0.0111838
680.614	0.0110390
680.693	0.0110847
680.771	0.0110741
680.849	0.0111696
680.927	0.0111331
681.005	0.0111417
681.083	0.0111928
681.161	0.0111849
681.239	0.0111795
681.318	0.0112020
681.396	0.0112144
681.474	0.0111007
681.552	0.0111783
681.630	0.0113089
681.708	0.0112778
681.786	0.0112534
681.864	0.0113800
681.943	0.0113611
682.021	0.0113401
682.099	0.0115275
682.177	0.0117485
682.255	0.0119547
682.333	0.0122334
682.411	0.0124139
682.489	0.0126590
682.568	0.0129784
682.646	0.0133365
682.724	0.0134327
682.802	0.0137004
682.880	0.0138771
682.958	0.0139565
683.036	0.0141775
683.114	0.0142256
683.193	0.0144177
683.271	0.0145131
683.349	0.0144512
683.427	0.0145370
683.505	0.0146260
683.583	0.0146557
683.661	0.0146547
683.739	0.0149059
683.818	0.0148699
683.896	0.0148317
683.974	0.0147137
684.052	0.0146449
684.130	0.0146793
684.208	0.0146506
684.286	0.0143748
684.364	0.0141721
684.443	0.0140005
684.521	0.0137876
684.599	0.0135237
684.677	0.0134234
684.755	0.0129300
684.833	0.0125510
684.911	0.0125610
684.989	0.0123271
685.068	0.0118512
685.146	0.0116816
685.224	0.0115408
685.302	0.0111734
685.380	0.0110089
685.458	0.0107816
685.536	0.0106211
685.614	0.0104929
685.693	0.0103042
685.771	0.0101326
685.849	0.0101200
685.927	0.00993050
686.005	0.0100950
686.083	0.0100377
686.161	0.0100858
686.239	0.0101421
686.318	0.0101010
686.396	0.0103256
686.474	0.0104635
686.552	0.0106908
686.630	0.0109602
686.708	0.0110827
686.786	0.0112791
686.864	0.0114671
686.943	0.0117699
687.021	0.0118682
687.099	0.0121321
687.177	0.0124181
687.255	0.0125481
687.333	0.0126593
687.411	0.0129971
687.489	0.0132642
687.568	0.0134569
687.646	0.0137169
687.724	0.0138754
687.802	0.0142207
687.880	0.0144339
687.958	0.0146479
688.036	0.0147248
688.114	0.0150168
688.193	0.0151455
688.271	0.0151930
688.349	0.0153307
688.427	0.0155219
688.505	0.0154837
688.583	0.0153953
688.661	0.0154990
688.739	0.0154768
688.818	0.0153145
688.896	0.0151742
688.974	0.0150063
689.052	0.0148843
689.130	0.0148290
689.208	0.0146980
689.286	0.0144347
689.364	0.0139774
689.443	0.0137794
689.521	0.0135571
689.599	0.0131847
689.677	0.0127579
689.755	0.0123548
689.833	0.0120207
689.911	0.0115092
689.989	0.0112904
690.068	0.0109328
690.146	0.0105602
690.224	0.0102858
690.302	0.00987976
690.380	0.00969154
690.458	0.00934242
690.536	0.00921890
690.614	0.00902870
690.693	0.00898201
690.771	0.00893196
690.849	0.00905388
690.927	0.00903282
691.005	0.00928825
691.083	0.00938995
691.161	0.00949905
691.239	0.00993576
691.318	0.0100911
691.396	0.0104740
691.474	0.0109148
691.552	0.0112769
691.630	0.0116731
691.708	0.0122639
691.786	0.0126686
691.864	0.0131427
691.943	0.0135099
692.021	0.0139111
692.099	0.0141762
692.177	0.0143774
692.255	0.0147270
692.333	0.0149216
692.411	0.0149816
692.489	0.0150462
692.568	0.0150521
692.646	0.0150372
692.724	0.0150348
692.802	0.0148439
692.880	0.0147116
692.958	0.0146128
693.036	0.0144993
693.114	0.0142373
693.193	0.0139710
693.271	0.0138905
693.349	0.0138046
693.427	0.0136968
693.505	0.0136218
693.583	0.0136706
693.661	0.0133522
693.739	0.0133045
693.818	0.0133023
693.896	0.0133842
693.974	0.0131389
694.052	0.0131425
694.130	0.0132615
694.208	0.0130746
694.286	0.0130607
694.364	0.0131535
694.443	0.0130923
694.521	0.0128194
694.599	0.0128095
694.677	0.0128208
694.755	0.0126871
694.833	0.0124667
694.911	0.0125140
694.989	0.0121795
695.068	0.0121422
695.146	0.0119606
695.224	0.0118758
695.302	0.0116862
695.380	0.0117479
695.458	0.0115707
695.536	0.0113053
695.614	0.0111349
695.693	0.0109769
695.771	0.0109042
695.849	0.0107604
695.927	0.0107347
696.005	0.0107090
696.083	0.0106842
696.161	0.0106244
696.239	0.0106270
696.318	0.0106095
696.396	0.0106898
696.474	0.0107823
696.552	0.0109115
696.630	0.0111598
696.708	0.0112368
696.786	0.0114626
696.864	0.0117416
696.943	0.0120770
697.021	0.0121410
697.099	0.0123697
697.177	0.0127453
697.255	0.0132458
697.333	0.0133459
697.411	0.0135676
697.489	0.0139094
697.568	0.0140524
697.646	0.0143505
697.724	0.0145609
697.802	0.0146381
697.880	0.0148573
697.958	0.0149593
698.036	0.0150303
698.114	0.0152165
698.193	0.0150488
698.271	0.0150050
698.349	0.0149632
698.427	0.0148388
698.505	0.0147618
698.583	0.0144595
698.661	0.0141199
698.739	0.0139848
698.818	0.0137386
698.896	0.0134435
698.974	0.0132349
699.052	0.0129073
699.130	0.0126985
699.208	0.0124845
699.286	0.0123150
699.364	0.0119912
699.443	0.0118641
699.521	0.0118645
699.599	0.0118124
699.677	0.0116171
699.755	0.0114615
699.833	0.0114108
699.911	0.0114153
699.989	0.0113611
700.068	0.0113172
700.146	0.0113387
700.224	0.0114371
700.302	0.0113882
700.380	0.0113808
700.458	0.0115691
700.536	0.0116890
700.614	0.0116788
700.693	0.0117960
700.771	0.0120531
700.849	0.0121174
700.927	0.0122880
701.005	0.0124582
701.083	0.0126109
701.161	0.0126355
701.239	0.0127592
701.318	0.0126371
701.396	0.0128568
701.474	0.0128503
701.552	0.0129465
701.630	0.0127271
701.708	0.0127570
701.786	0.0128111
701.864	0.0126746
701.943	0.0125152
702.021	0.0125462
702.099	0.0125655
702.177	0.0124891
702.255	0.0122948
702.333	0.0123753
702.411	0.0124653
702.489	0.0124104
702.568	0.0126115
702.646	0.0126176
702.724	0.0126176
702.802	0.0126490
702.880	0.0128677
702.958	0.0128188
703.036	0.0130409
703.114	0.0129890
703.193	0.0133316
703.271	0.0133421
703.349	0.0134314
703.427	0.0134733
703.505	0.0136338
703.583	0.0137082
703.661	0.0136460
703.739	0.0137864
703.818	0.0136758
703.896	0.0137121
703.974	0.0135854
704.052	0.0134997
704.130	0.0132661
704.208	0.0130407
704.286	0.0129721
704.364	0.0126844
704.443	0.0124073
704.521	0.0123955
704.599	0.0121622
704.677	0.0120928
704.755	0.0119314
704.833	0.0118736
704.911	0.0118817
704.989	0.0116494
705.068	0.0119130
705.146	0.0118694
705.224	0.0117419
705.302	0.0118224
705.380	0.0119901
705.458	0.0120329
705.536	0.0121779
705.614	0.0121058
705.693	0.0121689
705.771	0.0122823
705.849	0.0124928
705.927	0.0127306
706.005	0.0127979
706.083	0.0128378
706.161	0.0129271
706.239	0.0130588
706.318	0.0130115
706.396	0.0131947
706.474	0.0133344
706.552	0.0131742
706.630	0.0133244
706.708	0.0134104
706.786	0.0131623
706.864	0.0132658
706.943	0.0133060
707.021	0.0131750
707.099	0.0129900
707.177	0.0127598
707.255	0.0125525
707.333	0.0125681
707.411	0.0124065
707.489	0.0120686
707.568	0.0122913
707.646	0.0119215
707.724	0.0118892
707.802	0.0119577
707.880	0.0117331
707.958	0.0117919
708.036	0.0117973
708.114	0.0116534
708.193	0.0116809
708.271	0.0117214
708.349	0.0119757
708.427	0.0121107
708.505	0.0122845
708.583	0.0124300
708.661	0.0125349
708.739	0.0127976
708.818	0.0131282
708.896	0.0132858
708.974	0.0134272
709.052	0.0137022
709.130	0.0138443
709.208	0.0139774
709.286	0.0139996
709.364	0.0141422
709.443	0.0140414
709.521	0.0140370
709.599	0.0139022
709.677	0.0139313
709.755	0.0137319
709.833	0.0136151
709.911	0.0133868
709.989	0.0131191
710.068	0.0130822
710.146	0.0129195
710.224	0.0128376
710.302	0.0125922
710.380	0.0123529
710.458	0.0120418
710.536	0.0119884
710.614	0.0119694
710.693	0.0116820
710.771	0.0116487
710.849	0.0114371
710.927	0.0113929
711.005	0.0113657
711.083	0.0113313
711.161	0.0112824
711.239	0.0111718
711.318	0.0113426
711.396	0.0113547
711.474	0.0113392
711.552	0.0115474
711.630	0.0115965
711.708	0.0116478
711.786	0.0119133
711.864	0.0121155
711.943	0.0122202
712.021	0.0126164
712.099	0.0128301
712.177	0.0129154
712.255	0.0132299
712.333	0.0134684
712.411	0.0135037
712.489	0.0135984
712.568	0.0139011
712.646	0.0139377
712.724	0.0139732
712.802	0.0140244
712.880	0.0140186
712.958	0.0139946
713.036	0.0139212
713.114	0.0137124
713.193	0.0137640
713.271	0.0133917
713.349	0.0133445
713.427	0.0133324
713.505	0.0132256
713.583	0.0129936
713.661	0.0129432
713.739	0.0125369
713.818	0.0123338
713.896	0.0122125
713.974	0.0121130
714.052	0.0119933
714.130	0.0119553
714.208	0.0116162
714.286	0.0114740
714.364	0.0116898
714.443	0.0115009
714.521	0.0114686
714.599	0.0114699
714.677	0.0116417
714.755	0.0115798
714.833	0.0117477
714.911	0.0118395
714.989	0.0120586
715.068	0.0122440
715.146	0.0123150
715.224	0.0124144
715.302	0.0127078
715.380	0.0128694
715.458	0.0128914
715.536	0.0130024
715.614	0.0131344
715.693	0.0133079
715.771	0.0133474
715.849	0.0133715
715.927	0.0134954
716.005	0.0135261
716.083	0.0136034
716.161	0.0135885
716.239	0.0136653
716.318	0.0135986
716.396	0.0134117
716.474	0.0131947
716.552	0.0132048
716.630	0.0129800
716.708	0.0127595
716.786	0.0126743
716.864	0.0124163
716.943	0.0123158
717.021	0.0120232
717.099	0.0120258
717.177	0.0117377
717.255	0.0118004
717.333	0.0117233
717.411	0.0116605
717.489	0.0115331
717.568	0.0115599
717.646	0.0116792
717.724	0.0119010
717.802	0.0118147
717.880	0.0120728
717.958	0.0122515
718.036	0.0124713
718.114	0.0126358
718.193	0.0127594
718.271	0.0128039
718.349	0.0130605
718.427	0.0131866
718.505	0.0133630
718.583	0.0133032
718.661	0.0133479
718.739	0.0135962
718.818	0.0136555
718.896	0.0135635
718.974	0.0135995
719.052	0.0135194
719.130	0.0136020
719.208	0.0135458
719.286	0.0135017
719.364	0.0133938
719.443	0.0133676
719.521	0.0132014
719.599	0.0131422
719.677	0.0129982
719.755	0.0127467
719.833	0.0125621
719.911	0.0125260
719.989	0.0124199
720.068	0.0124500
720.146	0.0122765
720.224	0.0121668
720.302	0.0120420
720.380	0.0119401
720.458	0.0121181
720.536	0.0120776
720.614	0.0121050
720.693	0.0121311
720.771	0.0121954
720.849	0.0123862
720.927	0.0124360
721.005	0.0123923
721.083	0.0125482
721.161	0.0127251
721.239	0.0127651
721.318	0.0129213
721.396	0.0129321
721.474	0.0129621
721.552	0.0130919
721.630	0.0131601
721.708	0.0132458
721.786	0.0132568
721.864	0.0133020
721.943	0.0131576
722.021	0.0130101
722.099	0.0130334
722.177	0.0131657
722.255	0.0129068
722.333	0.0125745
722.411	0.0126669
722.489	0.0124798
722.568	0.0123328
722.646	0.0121445
722.724	0.0119906
722.802	0.0116980
722.880	0.0117076
722.958	0.0114555
723.036	0.0113912
723.114	0.0114092
723.193	0.0115120
723.271	0.0114998
723.349	0.0114196
723.427	0.0115972
723.505	0.0116576
723.583	0.0118707
723.661	0.0120723
723.739	0.0121879
723.818	0.0124297
723.896	0.0126912
723.974	0.0128486
724.052	0.0131033
724.130	0.0133161
724.208	0.0133875
724.286	0.0137413
724.364	0.0137181
724.443	0.0138113
724.521	0.0139324
724.599	0.0140166
724.677	0.0140452
724.755	0.0141602
724.833	0.0140685
724.911	0.0140645
724.989	0.0140086
725.068	0.0138470
725.146	0.0136576
725.224	0.0136852
725.302	0.0134938
725.380	0.0133169
725.458	0.0131654
725.536	0.0130243
725.614	0.0127905
