05/07/2022	17:27:17	Ver.	4.1	UNKNOWN
Optical Delay	639.989416	Delta X		0.078125	Sweeps	1	Scan Rate	0/0
Coordinates	Axis 1	NaN	Axis 2	NaN	Axis 3	NaN	Axis 4	NaN	Axis 5	NaN	Axis 6	0.000000
TX Power	0.000000	RX Power	0.000000

639.989	0.0129732
640.068	0.0130237
640.146	0.0130733
640.224	0.0130478
640.302	0.0129767
640.380	0.0130389
640.458	0.0129162
640.536	0.0129198
640.614	0.0129853
640.693	0.0129902
640.771	0.0129854
640.849	0.0129854
640.927	0.0129134
641.005	0.0128575
641.083	0.0128999
641.161	0.0130739
641.239	0.0130032
641.318	0.0130308
641.396	0.0129044
641.474	0.0128612
641.552	0.0128609
641.630	0.0130437
641.708	0.0129629
641.786	0.0128961
641.864	0.0128960
641.943	0.0129610
642.021	0.0129939
642.099	0.0129604
642.177	0.0127866
642.255	0.0127483
642.333	0.0129511
642.411	0.0130038
642.489	0.0129386
642.568	0.0128567
642.646	0.0128828
642.724	0.0128705
642.802	0.0129221
642.880	0.0128433
642.958	0.0127831
643.036	0.0129334
643.114	0.0130023
643.193	0.0127396
643.271	0.0129089
643.349	0.0129465
643.427	0.0128922
643.505	0.0129099
643.583	0.0127482
643.661	0.0129400
643.739	0.0129196
643.818	0.0128016
643.896	0.0129500
643.974	0.0128213
644.052	0.0129897
644.130	0.0128561
644.208	0.0128082
644.286	0.0129268
644.364	0.0128958
644.443	0.0129155
644.521	0.0129510
644.599	0.0128078
644.677	0.0126519
644.755	0.0129109
644.833	0.0128132
644.911	0.0128629
644.989	0.0129229
645.068	0.0129323
645.146	0.0129292
645.224	0.0128841
645.302	0.0128255
645.380	0.0127795
645.458	0.0130392
645.536	0.0128342
645.614	0.0129481
645.693	0.0128629
645.771	0.0126716
645.849	0.0128650
645.927	0.0129310
646.005	0.0129930
646.083	0.0129826
646.161	0.0128971
646.239	0.0129538
646.318	0.0129576
646.396	0.0128143
646.474	0.0130358
646.552	0.0129478
646.630	0.0128561
646.708	0.0129527
646.786	0.0129332
646.864	0.0130009
646.943	0.0130158
647.021	0.0129311
647.099	0.0128844
647.177	0.0129366
647.255	0.0129229
647.333	0.0128532
647.411	0.0128064
647.489	0.0129147
647.568	0.0130022
647.646	0.0128667
647.724	0.0128780
647.802	0.0129128
647.880	0.0128616
647.958	0.0128277
648.036	0.0128346
648.114	0.0128410
648.193	0.0129394
648.271	0.0128889
648.349	0.0128300
648.427	0.0128575
648.505	0.0129537
648.583	0.0130264
648.661	0.0128905
648.739	0.0128609
648.818	0.0130337
648.896	0.0128136
648.974	0.0130633
649.052	0.0129641
649.130	0.0128977
649.208	0.0129456
649.286	0.0128304
649.364	0.0129008
649.443	0.0129665
649.521	0.0128581
649.599	0.0128208
649.677	0.0128988
649.755	0.0129126
649.833	0.0127955
649.911	0.0129442
649.989	0.0129058
650.068	0.0128622
650.146	0.0127914
650.224	0.0128085
650.302	0.0127936
650.380	0.0129082
650.458	0.0128506
650.536	0.0127920
650.614	0.0127419
650.693	0.0128625
650.771	0.0128059
650.849	0.0127467
650.927	0.0127217
651.005	0.0127406
651.083	0.0128372
651.161	0.0128437
651.239	0.0128697
651.318	0.0128252
651.396	0.0127831
651.474	0.0128491
651.552	0.0129039
651.630	0.0129538
651.708	0.0130346
651.786	0.0129898
651.864	0.0130038
651.943	0.0129277
652.021	0.0130711
652.099	0.0130867
652.177	0.0130494
652.255	0.0130650
652.333	0.0130429
652.411	0.0129859
652.489	0.0128771
652.568	0.0128754
652.646	0.0129376
652.724	0.0129213
652.802	0.0129273
652.880	0.0127971
652.958	0.0128656
653.036	0.0128007
653.114	0.0128078
653.193	0.0126729
653.271	0.0126337
653.349	0.0125913
653.427	0.0124686
653.505	0.0125661
653.583	0.0124899
653.661	0.0126660
653.739	0.0124838
653.818	0.0124825
653.896	0.0126460
653.974	0.0126524
654.052	0.0127973
654.130	0.0130016
654.208	0.0129151
654.286	0.0130604
654.364	0.0132729
654.443	0.0132272
654.521	0.0133862
654.599	0.0135064
654.677	0.0134602
654.755	0.0133772
654.833	0.0134240
654.911	0.0135545
654.989	0.0135520
655.068	0.0134180
655.146	0.0135442
655.224	0.0133353
655.302	0.0133241
655.380	0.0131422
655.458	0.0130456
655.536	0.0130271
655.614	0.0129040
655.693	0.0127193
655.771	0.0125838
655.849	0.0125880
655.927	0.0123712
656.005	0.0123291
656.083	0.0122565
656.161	0.0122682
656.239	0.0122631
656.318	0.0120802
656.396	0.0122506
656.474	0.0122361
656.552	0.0122910
656.630	0.0123315
656.708	0.0122310
656.786	0.0124875
656.864	0.0125790
656.943	0.0127308
657.021	0.0128105
657.099	0.0130051
657.177	0.0132082
657.255	0.0132903
657.333	0.0132715
657.411	0.0134998
657.489	0.0135440
657.568	0.0135854
657.646	0.0138357
657.724	0.0139057
657.802	0.0138457
657.880	0.0140289
657.958	0.0139478
658.036	0.0138732
658.114	0.0138145
658.193	0.0138860
658.271	0.0137236
658.349	0.0135400
658.427	0.0133459
658.505	0.0133726
658.583	0.0131799
658.661	0.0130392
658.739	0.0127419
658.818	0.0125504
658.896	0.0125150
658.974	0.0123602
659.052	0.0121888
659.130	0.0119794
659.208	0.0119025
659.286	0.0117800
659.364	0.0118285
659.443	0.0118135
659.521	0.0117924
659.599	0.0118628
659.677	0.0119213
659.755	0.0119553
659.833	0.0119695
659.911	0.0122352
659.989	0.0124187
660.068	0.0125661
660.146	0.0127701
660.224	0.0128445
660.302	0.0130582
660.380	0.0130261
660.458	0.0132361
660.536	0.0134757
660.614	0.0135220
660.693	0.0136504
660.771	0.0136911
660.849	0.0138963
660.927	0.0138428
661.005	0.0137556
661.083	0.0137148
661.161	0.0137857
661.239	0.0138361
661.318	0.0137659
661.396	0.0136407
661.474	0.0135866
661.552	0.0135485
661.630	0.0134304
661.708	0.0132577
661.786	0.0132284
661.864	0.0130762
661.943	0.0129261
662.021	0.0127968
662.099	0.0127419
662.177	0.0127500
662.255	0.0126926
662.333	0.0124763
662.411	0.0123443
662.489	0.0122847
662.568	0.0122631
662.646	0.0122652
662.724	0.0122566
662.802	0.0122076
662.880	0.0122316
662.958	0.0120698
663.036	0.0121038
663.114	0.0120792
663.193	0.0121238
663.271	0.0121915
663.349	0.0121386
663.427	0.0122372
663.505	0.0123572
663.583	0.0125013
663.661	0.0124870
663.739	0.0127579
663.818	0.0128182
663.896	0.0127707
663.974	0.0128889
664.052	0.0129663
664.130	0.0130853
664.208	0.0132321
664.286	0.0131592
664.364	0.0134742
664.443	0.0134517
664.521	0.0133315
664.599	0.0133595
664.677	0.0134823
664.755	0.0133260
664.833	0.0133301
664.911	0.0132230
664.989	0.0133388
665.068	0.0131617
665.146	0.0130746
665.224	0.0129646
665.302	0.0130740
665.380	0.0130775
665.458	0.0129562
665.536	0.0129517
665.614	0.0128698
665.693	0.0129170
665.771	0.0128960
665.849	0.0129150
665.927	0.0128871
666.005	0.0128825
666.083	0.0129734
666.161	0.0130786
666.239	0.0129170
666.318	0.0128500
666.396	0.0131161
666.474	0.0129565
666.552	0.0128839
666.630	0.0125865
666.708	0.0127229
666.786	0.0128217
666.864	0.0127578
666.943	0.0124580
667.021	0.0126378
667.099	0.0125854
667.177	0.0125180
667.255	0.0125523
667.333	0.0124648
667.411	0.0124576
667.489	0.0125929
667.568	0.0125761
667.646	0.0125130
667.724	0.0127556
667.802	0.0125053
667.880	0.0125330
667.958	0.0126938
668.036	0.0126595
668.114	0.0126922
668.193	0.0128252
668.271	0.0127533
668.349	0.0128002
668.427	0.0127829
668.505	0.0129257
668.583	0.0130077
668.661	0.0127679
668.739	0.0129847
668.818	0.0130328
668.896	0.0129310
668.974	0.0129839
669.052	0.0130652
669.130	0.0129809
669.208	0.0129015
669.286	0.0129562
669.364	0.0129179
669.443	0.0129315
669.521	0.0128758
669.599	0.0128979
669.677	0.0128163
669.755	0.0127171
669.833	0.0128368
669.911	0.0128400
669.989	0.0127110
670.068	0.0126425
670.146	0.0126891
670.224	0.0126242
670.302	0.0126743
670.380	0.0127941
670.458	0.0127972
670.536	0.0129491
670.614	0.0129317
670.693	0.0131310
670.771	0.0132104
670.849	0.0132777
670.927	0.0133631
671.005	0.0134011
671.083	0.0135889
671.161	0.0135358
671.239	0.0136257
671.318	0.0137178
671.396	0.0135533
671.474	0.0137075
671.552	0.0136369
671.630	0.0134882
671.708	0.0135760
671.786	0.0136100
671.864	0.0133791
671.943	0.0134500
672.021	0.0133189
672.099	0.0131411
672.177	0.0130599
672.255	0.0130833
672.333	0.0127879
672.411	0.0125314
672.489	0.0124772
672.568	0.0122551
672.646	0.0123537
672.724	0.0121669
672.802	0.0118661
672.880	0.0118951
672.958	0.0117014
673.036	0.0115181
673.114	0.0114762
673.193	0.0114760
673.271	0.0115776
673.349	0.0116228
673.427	0.0115850
673.505	0.0116422
673.583	0.0115907
673.661	0.0117812
673.739	0.0120222
673.818	0.0119830
673.896	0.0120640
673.974	0.0124812
674.052	0.0126513
674.130	0.0126727
674.208	0.0128430
674.286	0.0129295
674.364	0.0132127
674.443	0.0133443
674.521	0.0133791
674.599	0.0135126
674.677	0.0136454
674.755	0.0138047
674.833	0.0138817
674.911	0.0139244
674.989	0.0139078
675.068	0.0139723
675.146	0.0139441
675.224	0.0140885
675.302	0.0141203
675.380	0.0141455
675.458	0.0141362
675.536	0.0141715
675.614	0.0140816
675.693	0.0140762
675.771	0.0140116
675.849	0.0139586
675.927	0.0139051
676.005	0.0138605
676.083	0.0139426
676.161	0.0138255
676.239	0.0137440
676.318	0.0137527
676.396	0.0135979
676.474	0.0134817
676.552	0.0134278
676.630	0.0131362
676.708	0.0130896
676.786	0.0128040
676.864	0.0126437
676.943	0.0125096
677.021	0.0123083
677.099	0.0119186
677.177	0.0118405
677.255	0.0115958
677.333	0.0114374
677.411	0.0112550
677.489	0.0111098
677.568	0.0110001
677.646	0.0108804
677.724	0.0106831
677.802	0.0107364
677.880	0.0106303
677.958	0.0108104
678.036	0.0108033
678.114	0.0108145
678.193	0.0111220
678.271	0.0110671
678.349	0.0112569
678.427	0.0114671
678.505	0.0116947
678.583	0.0119824
678.661	0.0121891
678.739	0.0126714
678.818	0.0129791
678.896	0.0133456
678.974	0.0135268
679.052	0.0139356
679.130	0.0142424
679.208	0.0145884
679.286	0.0147003
679.364	0.0147872
679.443	0.0151934
679.521	0.0155167
679.599	0.0153678
679.677	0.0153587
679.755	0.0152872
679.833	0.0152206
679.911	0.0151009
679.989	0.0149718
680.068	0.0147298
680.146	0.0145274
680.224	0.0143212
680.302	0.0139468
680.380	0.0136742
680.458	0.0134930
680.536	0.0134100
680.614	0.0130122
680.693	0.0127533
680.771	0.0127490
680.849	0.0125295
680.927	0.0123608
681.005	0.0123429
681.083	0.0123647
681.161	0.0122231
681.239	0.0122336
681.318	0.0123301
681.396	0.0123580
681.474	0.0126048
681.552	0.0125764
681.630	0.0125538
681.708	0.0126306
681.786	0.0125240
681.864	0.0125002
681.943	0.0125175
682.021	0.0125705
682.099	0.0125119
682.177	0.0126146
682.255	0.0123339
682.333	0.0121349
682.411	0.0122452
682.489	0.0120744
682.568	0.0118070
682.646	0.0115636
682.724	0.0115711
682.802	0.0114712
682.880	0.0112535
682.958	0.0113442
683.036	0.0113229
683.114	0.0111679
683.193	0.0111061
683.271	0.0113592
683.349	0.0113230
683.427	0.0111723
683.505	0.0113052
683.583	0.0115541
683.661	0.0116635
683.739	0.0117575
683.818	0.0119721
683.896	0.0122080
683.974	0.0125125
684.052	0.0127298
684.130	0.0130544
684.208	0.0133537
684.286	0.0135159
684.364	0.0139105
684.443	0.0141744
684.521	0.0144485
684.599	0.0146870
684.677	0.0149809
684.755	0.0150870
684.833	0.0152287
684.911	0.0153797
684.989	0.0155038
685.068	0.0157317
685.146	0.0154079
685.224	0.0154902
685.302	0.0153500
685.380	0.0152615
685.458	0.0150796
685.536	0.0148333
685.614	0.0148234
685.693	0.0146249
685.771	0.0141895
685.849	0.0138452
685.927	0.0135453
686.005	0.0136066
686.083	0.0133314
686.161	0.0128755
686.239	0.0125217
686.318	0.0124792
686.396	0.0120959
686.474	0.0118181
686.552	0.0116560
686.630	0.0115746
686.708	0.0112863
686.786	0.0112457
686.864	0.0110762
686.943	0.0110771
687.021	0.0109515
687.099	0.0107990
687.177	0.0108829
687.255	0.0109464
687.333	0.0108938
687.411	0.0109190
687.489	0.0110120
687.568	0.0113918
687.646	0.0114229
687.724	0.0115624
687.802	0.0116918
687.880	0.0118729
687.958	0.0119363
688.036	0.0120287
688.114	0.0121049
688.193	0.0122707
688.271	0.0123560
688.349	0.0122436
688.427	0.0124920
688.505	0.0125372
688.583	0.0125162
688.661	0.0124816
688.739	0.0126850
688.818	0.0126642
688.896	0.0125834
688.974	0.0126906
689.052	0.0126837
689.130	0.0128057
689.208	0.0129831
689.286	0.0130212
689.364	0.0131902
689.443	0.0132097
689.521	0.0132082
689.599	0.0134541
689.677	0.0136456
689.755	0.0136172
689.833	0.0137975
689.911	0.0139935
689.989	0.0140569
690.068	0.0141221
690.146	0.0142970
690.224	0.0143745
690.302	0.0144527
690.380	0.0146568
690.458	0.0146140
690.536	0.0145966
690.614	0.0144670
690.693	0.0144842
690.771	0.0144270
690.849	0.0143118
690.927	0.0142542
691.005	0.0141024
691.083	0.0139053
691.161	0.0138577
691.239	0.0136420
691.318	0.0134595
691.396	0.0133688
691.474	0.0132844
691.552	0.0131656
691.630	0.0131968
691.708	0.0130119
691.786	0.0128955
691.864	0.0127602
691.943	0.0128231
692.021	0.0128027
692.099	0.0126350
692.177	0.0124348
692.255	0.0123472
692.333	0.0122868
692.411	0.0122282
692.489	0.0120823
692.568	0.0120527
692.646	0.0119939
692.724	0.0116819
692.802	0.0117105
692.880	0.0114700
692.958	0.0115701
693.036	0.0113653
693.114	0.0111948
693.193	0.0111797
693.271	0.0109952
693.349	0.0109604
693.427	0.0109432
693.505	0.0110436
693.583	0.0109663
693.661	0.0108909
693.739	0.0109394
693.818	0.0109287
693.896	0.0110560
693.974	0.0111963
694.052	0.0113220
694.130	0.0114641
694.208	0.0117731
694.286	0.0118301
694.364	0.0118875
694.443	0.0122398
694.521	0.0124128
694.599	0.0125680
694.677	0.0128233
694.755	0.0131783
694.833	0.0131831
694.911	0.0133879
694.989	0.0137638
695.068	0.0138878
695.146	0.0141270
695.224	0.0144291
695.302	0.0147128
695.380	0.0149233
695.458	0.0151733
695.536	0.0154945
695.614	0.0156753
695.693	0.0158268
695.771	0.0160671
695.849	0.0161841
695.927	0.0162708
696.005	0.0163686
696.083	0.0163326
696.161	0.0161715
696.239	0.0161275
696.318	0.0159621
696.396	0.0157008
696.474	0.0156682
696.552	0.0154335
696.630	0.0150671
696.708	0.0146410
696.786	0.0144376
696.864	0.0140163
696.943	0.0136810
697.021	0.0134587
697.099	0.0131118
697.177	0.0127092
697.255	0.0124739
697.333	0.0121816
697.411	0.0118390
697.489	0.0114998
697.568	0.0113412
697.646	0.0109719
697.724	0.0106650
697.802	0.0105420
697.880	0.0103178
697.958	0.0101077
698.036	0.00992722
698.114	0.00974205
698.193	0.00962761
698.271	0.00950180
698.349	0.00954292
698.427	0.00944031
698.505	0.00946793
698.583	0.00963295
698.661	0.00951027
698.739	0.00973076
698.818	0.00985016
698.896	0.00998177
698.974	0.0100900
699.052	0.0105246
699.130	0.0107407
699.208	0.0109893
699.286	0.0114064
699.364	0.0118293
699.443	0.0121142
699.521	0.0128243
699.599	0.0132861
699.677	0.0135599
699.755	0.0139778
699.833	0.0142778
699.911	0.0147063
699.989	0.0150771
700.068	0.0152967
700.146	0.0156738
700.224	0.0159860
700.302	0.0161305
700.380	0.0161151
700.458	0.0162689
700.536	0.0162212
700.614	0.0162715
700.693	0.0161269
700.771	0.0160245
700.849	0.0159562
700.927	0.0157954
701.005	0.0155915
701.083	0.0153931
701.161	0.0151852
701.239	0.0149294
701.318	0.0146918
701.396	0.0144334
701.474	0.0143451
701.552	0.0142130
701.630	0.0139150
701.708	0.0137038
701.786	0.0136320
701.864	0.0135015
701.943	0.0133145
702.021	0.0130955
702.099	0.0130867
702.177	0.0129267
702.255	0.0128329
702.333	0.0126806
702.411	0.0125447
702.489	0.0123982
702.568	0.0122334
702.646	0.0121253
702.724	0.0119934
702.802	0.0118278
702.880	0.0117443
702.958	0.0113923
703.036	0.0111865
703.114	0.0110275
703.193	0.0110204
703.271	0.0108255
703.349	0.0106772
703.427	0.0105691
703.505	0.0104535
703.583	0.0104647
703.661	0.0106001
703.739	0.0104252
703.818	0.0105001
703.896	0.0106361
703.974	0.0104848
704.052	0.0106496
704.130	0.0107575
704.208	0.0108794
704.286	0.0109796
704.364	0.0112229
704.443	0.0112699
704.521	0.0115014
704.599	0.0116628
704.677	0.0119892
704.755	0.0121474
704.833	0.0125507
704.911	0.0126668
704.989	0.0130374
705.068	0.0133894
705.146	0.0135272
705.224	0.0137905
705.302	0.0141862
705.380	0.0145406
705.458	0.0147173
705.536	0.0149086
705.614	0.0150217
705.693	0.0152238
705.771	0.0153857
705.849	0.0153043
705.927	0.0153746
706.005	0.0153342
706.083	0.0153463
706.161	0.0152579
706.239	0.0151358
706.318	0.0148753
706.396	0.0147279
706.474	0.0145884
706.552	0.0145306
706.630	0.0142854
706.708	0.0140647
706.786	0.0139185
706.864	0.0136545
706.943	0.0134566
707.021	0.0133538
707.099	0.0132645
707.177	0.0131078
707.255	0.0130325
707.333	0.0127990
707.411	0.0125986
707.489	0.0126764
707.568	0.0124881
707.646	0.0123398
707.724	0.0123265
707.802	0.0122796
707.880	0.0122332
707.958	0.0121491
708.036	0.0120098
708.114	0.0120148
708.193	0.0118574
708.271	0.0117241
708.349	0.0118060
708.427	0.0117004
708.505	0.0115523
708.583	0.0115247
708.661	0.0115949
708.739	0.0115135
708.818	0.0116355
708.896	0.0115220
708.974	0.0115192
709.052	0.0117673
709.130	0.0117046
709.208	0.0117843
709.286	0.0116096
709.364	0.0119163
709.443	0.0119712
709.521	0.0121053
709.599	0.0121745
709.677	0.0121710
709.755	0.0123154
709.833	0.0123190
709.911	0.0122758
709.989	0.0125114
710.068	0.0125654
710.146	0.0123465
710.224	0.0124575
710.302	0.0125440
710.380	0.0124419
710.458	0.0125380
710.536	0.0125510
710.614	0.0124083
710.693	0.0126301
710.771	0.0126254
710.849	0.0127036
710.927	0.0127501
711.005	0.0128291
711.083	0.0128395
711.161	0.0129382
711.239	0.0132169
711.318	0.0132115
711.396	0.0132417
711.474	0.0135294
711.552	0.0136769
711.630	0.0135574
711.708	0.0137711
711.786	0.0140826
711.864	0.0140513
711.943	0.0140286
712.021	0.0142661
712.099	0.0144716
712.177	0.0143767
712.255	0.0144709
712.333	0.0144063
712.411	0.0143879
712.489	0.0143066
712.568	0.0142668
712.646	0.0141853
712.724	0.0141698
712.802	0.0138675
712.880	0.0138943
712.958	0.0138405
713.036	0.0136822
713.114	0.0135768
713.193	0.0135361
713.271	0.0131664
713.349	0.0131637
713.427	0.0128500
713.505	0.0127238
713.583	0.0126452
713.661	0.0125110
713.739	0.0122984
713.818	0.0120604
713.896	0.0120692
713.974	0.0118542
714.052	0.0117809
714.130	0.0116869
714.208	0.0117408
714.286	0.0116880
714.364	0.0115578
714.443	0.0117284
714.521	0.0117786
714.599	0.0118240
714.677	0.0116847
714.755	0.0118124
714.833	0.0119906
714.911	0.0120385
714.989	0.0121189
715.068	0.0121603
715.146	0.0122674
715.224	0.0122805
715.302	0.0122644
715.380	0.0123923
715.458	0.0124429
715.536	0.0124870
715.614	0.0127023
715.693	0.0127090
715.771	0.0127621
715.849	0.0127585
715.927	0.0127474
716.005	0.0128719
716.083	0.0128461
716.161	0.0128151
716.239	0.0129062
716.318	0.0129620
716.396	0.0129137
716.474	0.0129535
716.552	0.0130519
716.630	0.0130112
716.708	0.0129423
716.786	0.0131294
716.864	0.0130949
716.943	0.0132319
717.021	0.0133482
717.099	0.0135000
717.177	0.0136475
717.255	0.0136244
717.333	0.0137859
717.411	0.0139043
717.489	0.0139962
717.568	0.0141117
717.646	0.0140231
717.724	0.0141249
717.802	0.0142521
717.880	0.0141549
717.958	0.0141429
718.036	0.0140776
718.114	0.0138964
718.193	0.0139083
718.271	0.0138161
718.349	0.0136493
718.427	0.0134576
718.505	0.0135012
718.583	0.0132138
718.661	0.0131677
718.739	0.0131954
718.818	0.0130446
718.896	0.0129610
718.974	0.0129094
719.052	0.0127724
719.130	0.0127554
719.208	0.0127380
719.286	0.0124677
719.364	0.0126137
719.443	0.0125288
719.521	0.0125445
719.599	0.0125464
719.677	0.0126257
719.755	0.0125484
719.833	0.0126239
719.911	0.0124545
719.989	0.0124383
720.068	0.0123909
720.146	0.0125925
720.224	0.0123860
720.302	0.0122858
720.380	0.0122807
720.458	0.0122318
720.536	0.0123675
720.614	0.0123155
720.693	0.0122787
720.771	0.0123634
720.849	0.0122585
720.927	0.0122256
721.005	0.0123341
721.083	0.0123658
721.161	0.0122498
721.239	0.0124300
721.318	0.0124348
721.396	0.0124923
721.474	0.0126823
721.552	0.0126821
721.630	0.0126933
721.708	0.0128443
721.786	0.0129239
721.864	0.0128617
721.943	0.0130905
722.021	0.0131496
722.099	0.0131164
722.177	0.0133004
722.255	0.0132497
722.333	0.0133842
722.411	0.0135577
722.489	0.0134070
722.568	0.0135212
722.646	0.0135682
722.724	0.0135840
722.802	0.0134810
722.880	0.0135291
722.958	0.0135526
723.036	0.0134369
723.114	0.0135328
723.193	0.0135238
723.271	0.0134002
723.349	0.0133692
723.427	0.0134465
723.505	0.0134505
723.583	0.0133415
723.661	0.0133527
723.739	0.0133828
723.818	0.0135051
723.896	0.0132906
723.974	0.0133362
724.052	0.0131947
724.130	0.0133965
724.208	0.0133675
724.286	0.0133015
724.364	0.0133475
724.443	0.0131438
724.521	0.0132908
724.599	0.0131661
724.677	0.0132346
724.755	0.0131599
724.833	0.0130933
724.911	0.0130232
724.989	0.0130744
725.068	0.0130177
725.146	0.0129306
725.224	0.0128619
725.302	0.0128566
725.380	0.0128883
725.458	0.0129272
725.536	0.0128240
725.614	0.0127105
725.693	0.0126642
