05/07/2022	17:29:58	Ver.	4.1	UNKNOWN
Optical Delay	639.989416	Delta X		0.078125	Sweeps	1	Scan Rate	0/0
Coordinates	Axis 1	NaN	Axis 2	NaN	Axis 3	NaN	Axis 4	NaN	Axis 5	NaN	Axis 6	0.000000
TX Power	0.000000	RX Power	0.000000

639.989	0.0125505
640.068	0.0125373
640.146	0.0125545
640.224	0.0126588
640.302	0.0125092
640.380	0.0124601
640.458	0.0125990
640.536	0.0125636
640.614	0.0125697
640.693	0.0125025
640.771	0.0125893
640.849	0.0125100
640.927	0.0126011
641.005	0.0125403
641.083	0.0125834
641.161	0.0125443
641.239	0.0124834
641.318	0.0124439
641.396	0.0125398
641.474	0.0127184
641.552	0.0125558
641.630	0.0125359
641.708	0.0125357
641.786	0.0125556
641.864	0.0125945
641.943	0.0123761
642.021	0.0124432
642.099	0.0124879
642.177	0.0126070
642.255	0.0125763
642.333	0.0125584
642.411	0.0125328
642.489	0.0124924
642.568	0.0125759
642.646	0.0126692
642.724	0.0126142
642.802	0.0124863
642.880	0.0125891
642.958	0.0125572
643.036	0.0126228
643.114	0.0125785
643.193	0.0125946
643.271	0.0126298
643.349	0.0125130
643.427	0.0123801
643.505	0.0126568
643.583	0.0125509
643.661	0.0126003
643.739	0.0126573
643.818	0.0125523
643.896	0.0126933
643.974	0.0125465
644.052	0.0125225
644.130	0.0125468
644.208	0.0125571
644.286	0.0124366
644.364	0.0125709
644.443	0.0125944
644.521	0.0124902
644.599	0.0125882
644.677	0.0127179
644.755	0.0125811
644.833	0.0126685
644.911	0.0126160
644.989	0.0126032
645.068	0.0126160
645.146	0.0126779
645.224	0.0126523
645.302	0.0126409
645.380	0.0126587
645.458	0.0125870
645.536	0.0126372
645.614	0.0126226
645.693	0.0125572
645.771	0.0126016
645.849	0.0125299
645.927	0.0126472
646.005	0.0126591
646.083	0.0126649
646.161	0.0126421
646.239	0.0125375
646.318	0.0125729
646.396	0.0127023
646.474	0.0127858
646.552	0.0126511
646.630	0.0127270
646.708	0.0127021
646.786	0.0126728
646.864	0.0126388
646.943	0.0126769
647.021	0.0127348
647.099	0.0125989
647.177	0.0125979
647.255	0.0126243
647.333	0.0126709
647.411	0.0126028
647.489	0.0125781
647.568	0.0124911
647.646	0.0126056
647.724	0.0127547
647.802	0.0127132
647.880	0.0125783
647.958	0.0126470
648.036	0.0127098
648.114	0.0126545
648.193	0.0126508
648.271	0.0126230
648.349	0.0126978
648.427	0.0126579
648.505	0.0127403
648.583	0.0128235
648.661	0.0126584
648.739	0.0127332
648.818	0.0127026
648.896	0.0129070
648.974	0.0128189
649.052	0.0127278
649.130	0.0128316
649.208	0.0127894
649.286	0.0127839
649.364	0.0127663
649.443	0.0126143
649.521	0.0127478
649.599	0.0125172
649.677	0.0126281
649.755	0.0126015
649.833	0.0126308
649.911	0.0125420
649.989	0.0124697
650.068	0.0124395
650.146	0.0123621
650.224	0.0124621
650.302	0.0124522
650.380	0.0124210
650.458	0.0125148
650.536	0.0124670
650.614	0.0124355
650.693	0.0124783
650.771	0.0125017
650.849	0.0126752
650.927	0.0126518
651.005	0.0127182
651.083	0.0126158
651.161	0.0127856
651.239	0.0127505
651.318	0.0127981
651.396	0.0128902
651.474	0.0129157
651.552	0.0130208
651.630	0.0130403
651.708	0.0130009
651.786	0.0128465
651.864	0.0129964
651.943	0.0130711
652.021	0.0130045
652.099	0.0129411
652.177	0.0130615
652.255	0.0130128
652.333	0.0128047
652.411	0.0127365
652.489	0.0128093
652.568	0.0126766
652.646	0.0125679
652.724	0.0123838
652.802	0.0122881
652.880	0.0123409
652.958	0.0122813
653.036	0.0120765
653.114	0.0120625
653.193	0.0120228
653.271	0.0122034
653.349	0.0120234
653.427	0.0119216
653.505	0.0120706
653.583	0.0119684
653.661	0.0121648
653.739	0.0121679
653.818	0.0123090
653.896	0.0122973
653.974	0.0124097
654.052	0.0125539
654.130	0.0125973
654.208	0.0127472
654.286	0.0128944
654.364	0.0130679
654.443	0.0129675
654.521	0.0131812
654.599	0.0132761
654.677	0.0133044
654.755	0.0135019
654.833	0.0135773
654.911	0.0135618
654.989	0.0136441
655.068	0.0135166
655.146	0.0133746
655.224	0.0134689
655.302	0.0133977
655.380	0.0132915
655.458	0.0132533
655.536	0.0131022
655.614	0.0128871
655.693	0.0128108
655.771	0.0125748
655.849	0.0123925
655.927	0.0121215
656.005	0.0118867
656.083	0.0117659
656.161	0.0117532
656.239	0.0115971
656.318	0.0115171
656.396	0.0114061
656.474	0.0111369
656.552	0.0110899
656.630	0.0110758
656.708	0.0111978
656.786	0.0112663
656.864	0.0112291
656.943	0.0112362
657.021	0.0116108
657.099	0.0117440
657.177	0.0119859
657.255	0.0121126
657.333	0.0123866
657.411	0.0124405
657.489	0.0128217
657.568	0.0129452
657.646	0.0131731
657.724	0.0133359
657.802	0.0135269
657.880	0.0137543
657.958	0.0138943
658.036	0.0140134
658.114	0.0141080
658.193	0.0140267
658.271	0.0140016
658.349	0.0138690
658.427	0.0139828
658.505	0.0138956
658.583	0.0137949
658.661	0.0135290
658.739	0.0134634
658.818	0.0132645
658.896	0.0130073
658.974	0.0129047
659.052	0.0126610
659.130	0.0124989
659.208	0.0122391
659.286	0.0121021
659.364	0.0119431
659.443	0.0118423
659.521	0.0117616
659.599	0.0116806
659.677	0.0114230
659.755	0.0113961
659.833	0.0112991
659.911	0.0113749
659.989	0.0112901
660.068	0.0112770
660.146	0.0113719
660.224	0.0114627
660.302	0.0113424
660.380	0.0113010
660.458	0.0114475
660.536	0.0116569
660.614	0.0118118
660.693	0.0120335
660.771	0.0120348
660.849	0.0122094
660.927	0.0123583
661.005	0.0125034
661.083	0.0126272
661.161	0.0126819
661.239	0.0129340
661.318	0.0131290
661.396	0.0132019
661.474	0.0132735
661.552	0.0134158
661.630	0.0135439
661.708	0.0133450
661.786	0.0134672
661.864	0.0134842
661.943	0.0136522
662.021	0.0135051
662.099	0.0133929
662.177	0.0134484
662.255	0.0134061
662.333	0.0134614
662.411	0.0133240
662.489	0.0133043
662.568	0.0132487
662.646	0.0133642
662.724	0.0132543
662.802	0.0132514
662.880	0.0130788
662.958	0.0132507
663.036	0.0130969
663.114	0.0130023
663.193	0.0129200
663.271	0.0128906
663.349	0.0127738
663.427	0.0125491
663.505	0.0125580
663.583	0.0124706
663.661	0.0123255
663.739	0.0121806
663.818	0.0120402
663.896	0.0117403
663.974	0.0117693
664.052	0.0115582
664.130	0.0115197
664.208	0.0114814
664.286	0.0112767
664.364	0.0110943
664.443	0.0110226
664.521	0.0111739
664.599	0.0110712
664.677	0.0110618
664.755	0.0110680
664.833	0.0110709
664.911	0.0112428
664.989	0.0114630
665.068	0.0115534
665.146	0.0116599
665.224	0.0117751
665.302	0.0121396
665.380	0.0123270
665.458	0.0126340
665.536	0.0128852
665.614	0.0131553
665.693	0.0133802
665.771	0.0137302
665.849	0.0138974
665.927	0.0140151
666.005	0.0141819
666.083	0.0143317
666.161	0.0144794
666.239	0.0146733
666.318	0.0146852
666.396	0.0146295
666.474	0.0147005
666.552	0.0147105
666.630	0.0145457
666.708	0.0145895
666.786	0.0143395
666.864	0.0141681
666.943	0.0137747
667.021	0.0134834
667.099	0.0132685
667.177	0.0129818
667.255	0.0128432
667.333	0.0125300
667.411	0.0122715
667.489	0.0119984
667.568	0.0117472
667.646	0.0114063
667.724	0.0111342
667.802	0.0111947
667.880	0.0110183
667.958	0.0108697
668.036	0.0109064
668.114	0.0107708
668.193	0.0108398
668.271	0.0109966
668.349	0.0109324
668.427	0.0111948
668.505	0.0112317
668.583	0.0114351
668.661	0.0116564
668.739	0.0117905
668.818	0.0119440
668.896	0.0121604
668.974	0.0122721
669.052	0.0125095
669.130	0.0126310
669.208	0.0127531
669.286	0.0127585
669.364	0.0129103
669.443	0.0131862
669.521	0.0132085
669.599	0.0132526
669.677	0.0132353
669.755	0.0131026
669.833	0.0132358
669.911	0.0131641
669.989	0.0131886
670.068	0.0132417
670.146	0.0131776
670.224	0.0132258
670.302	0.0131584
670.380	0.0132109
670.458	0.0133205
670.536	0.0134116
670.614	0.0134154
670.693	0.0133563
670.771	0.0133098
670.849	0.0134442
670.927	0.0134888
671.005	0.0135322
671.083	0.0134657
671.161	0.0133578
671.239	0.0133056
671.318	0.0132896
671.396	0.0133194
671.474	0.0132368
671.552	0.0132085
671.630	0.0130088
671.708	0.0128952
671.786	0.0126819
671.864	0.0127358
671.943	0.0125412
672.021	0.0124246
672.099	0.0121661
672.177	0.0120925
672.255	0.0118977
672.333	0.0118693
672.411	0.0117504
672.489	0.0117200
672.568	0.0115195
672.646	0.0113512
672.724	0.0112457
672.802	0.0114130
672.880	0.0113429
672.958	0.0113323
673.036	0.0114617
673.114	0.0115582
673.193	0.0117397
673.271	0.0119692
673.349	0.0121725
673.427	0.0123972
673.505	0.0124536
673.583	0.0124442
673.661	0.0126791
673.739	0.0128747
673.818	0.0129176
673.896	0.0131253
673.974	0.0131367
674.052	0.0133326
674.130	0.0132603
674.208	0.0133344
674.286	0.0132951
674.364	0.0132507
674.443	0.0133683
674.521	0.0132800
674.599	0.0132417
674.677	0.0133867
674.755	0.0131107
674.833	0.0130575
674.911	0.0130586
674.989	0.0130586
675.068	0.0128615
675.146	0.0129351
675.224	0.0128889
675.302	0.0127926
675.380	0.0128387
675.458	0.0128267
675.536	0.0128428
675.614	0.0129129
675.693	0.0130249
675.771	0.0130240
675.849	0.0130019
675.927	0.0130549
676.005	0.0131508
676.083	0.0131019
676.161	0.0131738
676.239	0.0130814
676.318	0.0131379
676.396	0.0130882
676.474	0.0130019
676.552	0.0130022
676.630	0.0128434
676.708	0.0127891
676.786	0.0125903
676.864	0.0122646
676.943	0.0122473
677.021	0.0120690
677.099	0.0117862
677.177	0.0115449
677.255	0.0115293
677.333	0.0114164
677.411	0.0113684
677.489	0.0113155
677.568	0.0109942
677.646	0.0111522
677.724	0.0111268
677.802	0.0113231
677.880	0.0116422
677.958	0.0117753
678.036	0.0118162
678.114	0.0121516
678.193	0.0125327
678.271	0.0127699
678.349	0.0130164
678.427	0.0133312
678.505	0.0135750
678.583	0.0140094
678.661	0.0140727
678.739	0.0144205
678.818	0.0146052
678.896	0.0147182
678.974	0.0148704
679.052	0.0150098
679.130	0.0150323
679.208	0.0151083
679.286	0.0150504
679.364	0.0150092
679.443	0.0147212
679.521	0.0144063
679.599	0.0140956
679.677	0.0136980
679.755	0.0134304
679.833	0.0129648
679.911	0.0125574
679.989	0.0121717
680.068	0.0117764
680.146	0.0113248
680.224	0.0110152
680.302	0.0107245
680.380	0.0103994
680.458	0.0101748
680.536	0.0100401
680.614	0.00977715
680.693	0.00973747
680.771	0.00966652
680.849	0.00983177
680.927	0.00987587
681.005	0.0101962
681.083	0.0103793
681.161	0.0105332
681.239	0.0108537
681.318	0.0112586
681.396	0.0116277
681.474	0.0118188
681.552	0.0122311
681.630	0.0127102
681.708	0.0128844
681.786	0.0132811
681.864	0.0135942
681.943	0.0137870
682.021	0.0139922
682.099	0.0141503
682.177	0.0141766
682.255	0.0145083
682.333	0.0145818
682.411	0.0147144
682.489	0.0147540
682.568	0.0147166
682.646	0.0147935
682.724	0.0144341
682.802	0.0144527
682.880	0.0143066
682.958	0.0143587
683.036	0.0141701
683.114	0.0139774
683.193	0.0139238
683.271	0.0137539
683.349	0.0134712
683.427	0.0133543
683.505	0.0133237
683.583	0.0132211
683.661	0.0129671
683.739	0.0129518
683.818	0.0128797
683.896	0.0127259
683.974	0.0125972
684.052	0.0123899
684.130	0.0123035
684.208	0.0121898
684.286	0.0121800
684.364	0.0119880
684.443	0.0121011
684.521	0.0118286
684.599	0.0117735
684.677	0.0116180
684.755	0.0116790
684.833	0.0115275
684.911	0.0113184
684.989	0.0112061
685.068	0.0111354
685.146	0.0110043
685.224	0.0108002
685.302	0.0108752
685.380	0.0106274
685.458	0.0105322
685.536	0.0103525
685.614	0.0102865
685.693	0.0105386
685.771	0.0104825
685.849	0.0104348
685.927	0.0107080
686.005	0.0107794
686.083	0.0111495
686.161	0.0111977
686.239	0.0114657
686.318	0.0117821
686.396	0.0120522
686.474	0.0122752
686.552	0.0126244
686.630	0.0132610
686.708	0.0134753
686.786	0.0137866
686.864	0.0140871
686.943	0.0144883
687.021	0.0149294
687.099	0.0151343
687.177	0.0154366
687.255	0.0154954
687.333	0.0157287
687.411	0.0158791
687.489	0.0157597
687.568	0.0158677
687.646	0.0156877
687.724	0.0154911
687.802	0.0154070
687.880	0.0151254
687.958	0.0148382
688.036	0.0145781
688.114	0.0142147
688.193	0.0138498
688.271	0.0134214
688.349	0.0131343
688.427	0.0126494
688.505	0.0123058
688.583	0.0120705
688.661	0.0117248
688.739	0.0115638
688.818	0.0112910
688.896	0.0111445
688.974	0.0110566
689.052	0.0109052
689.130	0.0108088
689.208	0.0107701
689.286	0.0108449
689.364	0.0109135
689.443	0.0109918
689.521	0.0111211
689.599	0.0113414
689.677	0.0114349
689.755	0.0115215
689.833	0.0117358
689.911	0.0118617
689.989	0.0120804
690.068	0.0121219
690.146	0.0121766
690.224	0.0122659
690.302	0.0123280
690.380	0.0124249
690.458	0.0124015
690.536	0.0124590
690.614	0.0125565
690.693	0.0122619
690.771	0.0122417
690.849	0.0121678
690.927	0.0120857
691.005	0.0119392
691.083	0.0118848
691.161	0.0117652
691.239	0.0116329
691.318	0.0115604
691.396	0.0116205
691.474	0.0114417
691.552	0.0115247
691.630	0.0116936
691.708	0.0118044
691.786	0.0119008
691.864	0.0120826
691.943	0.0122457
692.021	0.0124477
692.099	0.0128352
692.177	0.0131469
692.255	0.0134602
692.333	0.0136530
692.411	0.0138944
692.489	0.0140350
692.568	0.0144761
692.646	0.0146971
692.724	0.0145945
692.802	0.0150984
692.880	0.0152638
692.958	0.0151836
693.036	0.0149594
693.114	0.0150625
693.193	0.0148889
693.271	0.0146729
693.349	0.0145364
693.427	0.0143028
693.505	0.0141183
693.583	0.0137489
693.661	0.0133900
693.739	0.0131341
693.818	0.0129019
693.896	0.0126163
693.974	0.0124545
694.052	0.0121891
694.130	0.0119320
694.208	0.0116600
694.286	0.0114259
694.364	0.0114992
694.443	0.0114693
694.521	0.0112627
694.599	0.0114101
694.677	0.0112008
694.755	0.0112614
694.833	0.0115239
694.911	0.0113090
694.989	0.0113810
695.068	0.0115623
695.146	0.0115456
695.224	0.0117735
695.302	0.0117255
695.380	0.0119793
695.458	0.0120197
695.536	0.0120115
695.614	0.0120200
695.693	0.0119386
695.771	0.0121500
695.849	0.0122109
695.927	0.0122411
696.005	0.0122231
696.083	0.0122116
696.161	0.0122775
696.239	0.0123246
696.318	0.0124055
696.396	0.0123305
696.474	0.0123683
696.552	0.0123907
696.630	0.0125759
696.708	0.0127216
696.786	0.0127824
696.864	0.0128783
696.943	0.0130112
697.021	0.0129919
697.099	0.0130927
697.177	0.0131864
697.255	0.0132986
697.333	0.0132114
697.411	0.0132028
697.489	0.0132509
697.568	0.0133151
697.646	0.0132738
697.724	0.0132001
697.802	0.0132060
697.880	0.0131874
697.958	0.0131068
698.036	0.0132537
698.114	0.0130746
698.193	0.0131805
698.271	0.0130157
698.349	0.0130331
698.427	0.0130719
698.505	0.0130970
698.583	0.0129585
698.661	0.0130299
698.739	0.0130925
698.818	0.0130808
698.896	0.0131978
698.974	0.0130990
699.052	0.0130370
699.130	0.0132137
699.208	0.0130801
699.286	0.0130167
699.364	0.0131509
699.443	0.0131012
699.521	0.0130054
699.599	0.0129391
699.677	0.0132066
699.755	0.0131743
699.833	0.0129252
699.911	0.0128773
699.989	0.0128960
700.068	0.0129029
700.146	0.0128179
700.224	0.0126950
700.302	0.0128080
700.380	0.0126717
700.458	0.0127129
700.536	0.0126888
700.614	0.0124375
700.693	0.0124467
700.771	0.0125099
700.849	0.0123283
700.927	0.0121979
701.005	0.0122216
701.083	0.0119714
701.161	0.0120259
701.239	0.0120659
701.318	0.0118904
701.396	0.0117867
701.474	0.0117504
701.552	0.0118253
701.630	0.0118253
701.708	0.0117437
701.786	0.0117815
701.864	0.0116695
701.943	0.0117636
702.021	0.0118792
702.099	0.0119168
702.177	0.0120148
702.255	0.0120399
702.333	0.0121252
702.411	0.0121149
702.489	0.0123972
702.568	0.0123614
702.646	0.0123371
702.724	0.0124843
702.802	0.0124383
702.880	0.0124694
702.958	0.0124612
703.036	0.0124110
703.114	0.0122760
703.193	0.0122436
703.271	0.0123277
703.349	0.0123337
703.427	0.0122939
703.505	0.0122005
703.583	0.0122174
703.661	0.0121878
703.739	0.0122899
703.818	0.0125276
703.896	0.0124898
703.974	0.0125826
704.052	0.0127012
704.130	0.0128059
704.208	0.0130815
704.286	0.0132503
704.364	0.0134438
704.443	0.0137500
704.521	0.0138701
704.599	0.0139390
704.677	0.0141241
704.755	0.0143259
704.833	0.0141002
704.911	0.0141808
704.989	0.0142200
705.068	0.0142841
705.146	0.0142247
705.224	0.0140365
705.302	0.0139967
705.380	0.0138919
705.458	0.0138134
705.536	0.0137607
705.614	0.0134869
705.693	0.0133753
705.771	0.0131791
705.849	0.0130733
705.927	0.0130889
706.005	0.0129510
706.083	0.0126738
706.161	0.0126276
706.239	0.0125700
706.318	0.0123500
706.396	0.0123470
706.474	0.0122286
706.552	0.0121347
706.630	0.0121244
706.708	0.0120261
706.786	0.0118900
706.864	0.0118832
706.943	0.0117612
707.021	0.0116482
707.099	0.0114708
707.177	0.0114304
707.255	0.0114342
707.333	0.0114464
707.411	0.0113384
707.489	0.0113032
707.568	0.0112740
707.646	0.0110560
707.724	0.0110686
707.802	0.0110981
707.880	0.0111433
707.958	0.0112551
708.036	0.0111418
708.114	0.0112433
708.193	0.0113332
708.271	0.0114742
708.349	0.0115916
708.427	0.0118346
708.505	0.0118299
708.583	0.0119794
708.661	0.0121391
708.739	0.0122560
708.818	0.0124993
708.896	0.0123817
708.974	0.0125140
709.052	0.0126765
709.130	0.0128568
709.208	0.0128264
709.286	0.0129401
709.364	0.0130466
709.443	0.0130266
709.521	0.0132072
709.599	0.0132540
709.677	0.0132783
709.755	0.0134268
709.833	0.0133434
709.911	0.0134332
709.989	0.0134910
710.068	0.0135779
710.146	0.0135181
710.224	0.0136881
710.302	0.0136977
710.380	0.0137306
710.458	0.0138604
710.536	0.0139201
710.614	0.0140469
710.693	0.0139710
710.771	0.0141390
710.849	0.0141344
710.927	0.0142849
711.005	0.0142282
711.083	0.0141797
711.161	0.0140173
711.239	0.0141207
711.318	0.0141795
711.396	0.0139910
711.474	0.0137888
711.552	0.0138190
711.630	0.0136048
711.708	0.0133733
711.786	0.0132955
711.864	0.0131488
711.943	0.0130918
712.021	0.0128842
712.099	0.0125753
712.177	0.0123380
712.255	0.0121036
712.333	0.0120219
712.411	0.0118443
712.489	0.0115660
712.568	0.0116209
712.646	0.0113515
712.724	0.0111889
712.802	0.0111304
712.880	0.0110078
712.958	0.0106978
713.036	0.0108559
713.114	0.0106870
713.193	0.0106155
713.271	0.0106042
713.349	0.0105083
713.427	0.0105447
713.505	0.0105262
713.583	0.0106090
713.661	0.0107483
713.739	0.0108549
713.818	0.0110622
713.896	0.0112759
713.974	0.0113097
714.052	0.0115829
714.130	0.0117649
714.208	0.0118605
714.286	0.0120526
714.364	0.0122559
714.443	0.0123342
714.521	0.0126256
714.599	0.0126987
714.677	0.0129437
714.755	0.0129369
714.833	0.0130598
714.911	0.0131812
714.989	0.0132154
715.068	0.0132189
715.146	0.0133088
715.224	0.0132999
715.302	0.0133716
715.380	0.0134126
715.458	0.0134956
715.536	0.0136259
715.614	0.0136504
715.693	0.0136998
715.771	0.0136841
715.849	0.0138599
715.927	0.0140496
716.005	0.0141076
716.083	0.0141751
716.161	0.0140929
716.239	0.0143092
716.318	0.0143754
716.396	0.0143565
716.474	0.0143695
716.552	0.0144492
716.630	0.0145661
716.708	0.0143649
716.786	0.0142879
716.864	0.0141830
716.943	0.0141552
717.021	0.0141507
717.099	0.0141119
717.177	0.0139104
717.255	0.0136668
717.333	0.0134688
717.411	0.0132980
717.489	0.0132471
717.568	0.0131416
717.646	0.0127684
717.724	0.0127389
717.802	0.0125065
717.880	0.0124752
717.958	0.0122748
718.036	0.0120912
718.114	0.0117652
718.193	0.0118029
718.271	0.0117027
718.349	0.0115181
718.427	0.0113033
718.505	0.0113168
718.583	0.0113322
718.661	0.0110577
718.739	0.0109341
718.818	0.0108936
718.896	0.0109459
718.974	0.0106552
719.052	0.0108348
719.130	0.0107996
719.208	0.0108754
719.286	0.0109277
719.364	0.0110474
719.443	0.0111923
719.521	0.0111969
719.599	0.0111952
719.677	0.0113354
719.755	0.0114581
719.833	0.0115605
719.911	0.0116387
719.989	0.0119365
720.068	0.0119922
720.146	0.0120953
720.224	0.0121204
720.302	0.0122142
720.380	0.0125201
720.458	0.0126106
720.536	0.0128505
720.614	0.0129267
720.693	0.0129918
720.771	0.0132085
720.849	0.0133984
720.927	0.0133972
721.005	0.0136016
721.083	0.0136520
721.161	0.0139184
721.239	0.0138522
721.318	0.0140046
721.396	0.0140321
721.474	0.0141864
721.552	0.0141478
721.630	0.0143575
721.708	0.0144102
721.786	0.0144128
721.864	0.0143580
721.943	0.0143510
722.021	0.0143250
722.099	0.0143759
722.177	0.0142374
722.255	0.0142252
722.333	0.0140298
722.411	0.0140527
722.489	0.0139043
722.568	0.0139166
722.646	0.0138510
722.724	0.0135389
722.802	0.0136394
722.880	0.0133217
722.958	0.0132323
723.036	0.0131183
723.114	0.0129420
723.193	0.0127491
723.271	0.0128087
723.349	0.0125930
723.427	0.0124349
723.505	0.0124879
723.583	0.0123032
723.661	0.0120843
723.739	0.0119498
723.818	0.0118705
723.896	0.0117712
723.974	0.0119068
724.052	0.0117001
724.130	0.0116261
724.208	0.0116209
724.286	0.0116206
724.364	0.0114426
724.443	0.0114732
724.521	0.0114482
724.599	0.0114922
724.677	0.0114704
724.755	0.0113338
724.833	0.0113245
724.911	0.0114488
724.989	0.0115556
725.068	0.0114255
725.146	0.0116228
725.224	0.0115340
725.302	0.0116199
725.380	0.0114579
725.458	0.0117511
725.536	0.0118010
725.614	0.0118104
725.693	0.0119127
