06/29/2022	21:23:39	Ver.	4.1	UNKNOWN
Optical Delay	629.995835	Delta X		0.078125	Sweeps	1	Scan Rate	0/0
Coordinates	Axis 1	NaN	Axis 2	NaN	Axis 3	NaN	Axis 4	NaN	Axis 5	NaN	Axis 6	0.000000
TX Power	0.000000	RX Power	0.000000

629.996	0.0157922
630.074	0.0158068
630.152	0.0155634
630.230	0.0157766
630.308	0.0158146
630.386	0.0158477
630.465	0.0159076
630.543	0.0158751
630.621	0.0157144
630.699	0.0157639
630.777	0.0157079
630.855	0.0157335
630.933	0.0157768
631.011	0.0156162
631.090	0.0157450
631.168	0.0157538
631.246	0.0158574
631.324	0.0156996
631.402	0.0158173
631.480	0.0158508
631.558	0.0159432
631.636	0.0157591
631.715	0.0157994
631.793	0.0157144
631.871	0.0157893
631.949	0.0158071
632.027	0.0157452
632.105	0.0158353
632.183	0.0158318
632.261	0.0156960
632.340	0.0157735
632.418	0.0156893
632.496	0.0156424
632.574	0.0157386
632.652	0.0157794
632.730	0.0158380
632.808	0.0157156
632.886	0.0158527
632.965	0.0158524
633.043	0.0157870
633.121	0.0158094
633.199	0.0158282
633.277	0.0157861
633.355	0.0158043
633.433	0.0158458
633.511	0.0158301
633.590	0.0157888
633.668	0.0159194
633.746	0.0159520
633.824	0.0158185
633.902	0.0158163
633.980	0.0157623
634.058	0.0156345
634.136	0.0156577
634.215	0.0157440
634.293	0.0157577
634.371	0.0156400
634.449	0.0158372
634.527	0.0158387
634.605	0.0158662
634.683	0.0157651
634.761	0.0157741
634.840	0.0159560
634.918	0.0157526
634.996	0.0157381
635.074	0.0158321
635.152	0.0158583
635.230	0.0157317
635.308	0.0157313
635.386	0.0159366
635.465	0.0158182
635.543	0.0158316
635.621	0.0158932
635.699	0.0156610
635.777	0.0156059
635.855	0.0158140
635.933	0.0159300
636.011	0.0158845
636.090	0.0157854
636.168	0.0157902
636.246	0.0157799
636.324	0.0159277
636.402	0.0159079
636.480	0.0158312
636.558	0.0157423
636.636	0.0157462
636.715	0.0158311
636.793	0.0157365
636.871	0.0158266
636.949	0.0158054
637.027	0.0157691
637.105	0.0158371
637.183	0.0157841
637.261	0.0159121
637.340	0.0157761
637.418	0.0158110
637.496	0.0158042
637.574	0.0158799
637.652	0.0160412
637.730	0.0158748
637.808	0.0158131
637.886	0.0158320
637.965	0.0159046
638.043	0.0158773
638.121	0.0158628
638.199	0.0158803
638.277	0.0158894
638.355	0.0158894
638.433	0.0158151
638.511	0.0158301
638.590	0.0158518
638.668	0.0158573
638.746	0.0158072
638.824	0.0159231
638.902	0.0159753
638.980	0.0158449
639.058	0.0158457
639.136	0.0158309
639.215	0.0158305
639.293	0.0158620
639.371	0.0158034
639.449	0.0157756
639.527	0.0159319
639.605	0.0157426
639.683	0.0158321
639.761	0.0157471
639.840	0.0157652
639.918	0.0158575
639.996	0.0157247
640.074	0.0159283
640.152	0.0158147
640.230	0.0158213
640.308	0.0157895
640.386	0.0158141
640.465	0.0158537
640.543	0.0157729
640.621	0.0158332
640.699	0.0158319
640.777	0.0158441
640.855	0.0158298
640.933	0.0157614
641.011	0.0159295
641.090	0.0158538
641.168	0.0158720
641.246	0.0157722
641.324	0.0157764
641.402	0.0158729
641.480	0.0159319
641.558	0.0157957
641.636	0.0157720
641.715	0.0157166
641.793	0.0158861
641.871	0.0157419
641.949	0.0157115
642.027	0.0157534
642.105	0.0157904
642.183	0.0158167
642.261	0.0157813
642.340	0.0158664
642.418	0.0157912
642.496	0.0157529
642.574	0.0157417
642.652	0.0156950
642.730	0.0157050
642.808	0.0157859
642.886	0.0157603
642.965	0.0158756
643.043	0.0159071
643.121	0.0157686
643.199	0.0157610
643.277	0.0157066
643.355	0.0157198
643.433	0.0157183
643.511	0.0157807
643.590	0.0157891
643.668	0.0157434
643.746	0.0158084
643.824	0.0158981
643.902	0.0157708
643.980	0.0157054
644.058	0.0158542
644.136	0.0159586
644.215	0.0158065
644.293	0.0156747
644.371	0.0159109
644.449	0.0158753
644.527	0.0156932
644.605	0.0157617
644.683	0.0158652
644.761	0.0157672
644.840	0.0158284
644.918	0.0157354
644.996	0.0157003
645.074	0.0156982
645.152	0.0156778
645.230	0.0156758
645.308	0.0158313
645.386	0.0158302
645.465	0.0157318
645.543	0.0158427
645.621	0.0159058
645.699	0.0157777
645.777	0.0157094
645.855	0.0157382
645.933	0.0157608
646.011	0.0158255
646.090	0.0157996
646.168	0.0159435
646.246	0.0156987
646.324	0.0157181
646.402	0.0157124
646.480	0.0158462
646.558	0.0158393
646.636	0.0156885
646.715	0.0157524
646.793	0.0157604
646.871	0.0158187
646.949	0.0157350
647.027	0.0157785
647.105	0.0157001
647.183	0.0157603
647.261	0.0158376
647.340	0.0158683
647.418	0.0158311
647.496	0.0157693
647.574	0.0158124
647.652	0.0157512
647.730	0.0157538
647.808	0.0158436
647.886	0.0157951
647.965	0.0157500
648.043	0.0157291
648.121	0.0158076
648.199	0.0159094
648.277	0.0156974
648.355	0.0156917
648.433	0.0157714
648.511	0.0160063
648.590	0.0158346
648.668	0.0158594
648.746	0.0157639
648.824	0.0158137
648.902	0.0157230
648.980	0.0158974
649.058	0.0158995
649.136	0.0157434
649.215	0.0157346
649.293	0.0158135
649.371	0.0158069
649.449	0.0158112
649.527	0.0158460
649.605	0.0157236
649.683	0.0157909
649.761	0.0158550
649.840	0.0158366
649.918	0.0157434
649.996	0.0157632
650.074	0.0158749
650.152	0.0157329
650.230	0.0157364
650.308	0.0158586
650.386	0.0158556
650.465	0.0159161
650.543	0.0158962
650.621	0.0157878
650.699	0.0159756
650.777	0.0158184
650.855	0.0157846
650.933	0.0158189
651.011	0.0157941
651.090	0.0158672
651.168	0.0157401
651.246	0.0156166
651.324	0.0159232
651.402	0.0158191
651.480	0.0158258
651.558	0.0158381
651.636	0.0157921
651.715	0.0158150
651.793	0.0158290
651.871	0.0158366
651.949	0.0158904
652.027	0.0156641
652.105	0.0158447
652.183	0.0160662
652.261	0.0159150
652.340	0.0157327
652.418	0.0157970
652.496	0.0159150
652.574	0.0157282
652.652	0.0158609
652.730	0.0159075
652.808	0.0159138
652.886	0.0157300
652.965	0.0157838
653.043	0.0158382
653.121	0.0159074
653.199	0.0158170
653.277	0.0158230
653.355	0.0159158
653.433	0.0157416
653.511	0.0157186
653.590	0.0156963
653.668	0.0158032
653.746	0.0157335
653.824	0.0157510
653.902	0.0157648
653.980	0.0157950
654.058	0.0157590
654.136	0.0156695
654.215	0.0158165
654.293	0.0158688
654.371	0.0157825
654.449	0.0158752
654.527	0.0158273
654.605	0.0158489
654.683	0.0158348
654.761	0.0158227
654.840	0.0158063
654.918	0.0157240
654.996	0.0158609
655.074	0.0157619
655.152	0.0158133
655.230	0.0157639
655.308	0.0157934
655.386	0.0158299
655.465	0.0157758
655.543	0.0158068
655.621	0.0157005
655.699	0.0158573
655.777	0.0158904
655.855	0.0157592
655.933	0.0159126
656.011	0.0158472
656.090	0.0157403
656.168	0.0157788
656.246	0.0158027
656.324	0.0157687
656.402	0.0157774
656.480	0.0156465
656.558	0.0157953
656.636	0.0157611
656.715	0.0158708
656.793	0.0159085
656.871	0.0157965
656.949	0.0158142
657.027	0.0157796
657.105	0.0157130
657.183	0.0158137
657.261	0.0158365
657.340	0.0157763
657.418	0.0158557
657.496	0.0158044
657.574	0.0157877
657.652	0.0157839
657.730	0.0158720
657.808	0.0157999
657.886	0.0158408
657.965	0.0158301
658.043	0.0158897
658.121	0.0157466
658.199	0.0158524
658.277	0.0158916
658.355	0.0157354
658.433	0.0157372
658.511	0.0158001
658.590	0.0159251
658.668	0.0158321
658.746	0.0159888
658.824	0.0159907
658.902	0.0157364
658.980	0.0157307
659.058	0.0159053
659.136	0.0158472
659.215	0.0158010
659.293	0.0157819
659.371	0.0157952
659.449	0.0157632
659.527	0.0157936
659.605	0.0157793
659.683	0.0157313
659.761	0.0157630
659.840	0.0158396
659.918	0.0159738
659.996	0.0158183
660.074	0.0157561
660.152	0.0159023
660.230	0.0157838
660.308	0.0159068
660.386	0.0158237
660.465	0.0156931
660.543	0.0157500
660.621	0.0158204
660.699	0.0157858
660.777	0.0157417
660.855	0.0158924
660.933	0.0158275
661.011	0.0157066
661.090	0.0157795
661.168	0.0158587
661.246	0.0157403
661.324	0.0157458
661.402	0.0157863
661.480	0.0157989
661.558	0.0158262
661.636	0.0158794
661.715	0.0158498
661.793	0.0157332
661.871	0.0158361
661.949	0.0157304
662.027	0.0156856
662.105	0.0155876
662.183	0.0157876
662.261	0.0158986
662.340	0.0158697
662.418	0.0157398
662.496	0.0157278
662.574	0.0157462
662.652	0.0158500
662.730	0.0157341
662.808	0.0157875
662.886	0.0157722
662.965	0.0157883
663.043	0.0158723
663.121	0.0157983
663.199	0.0158638
663.277	0.0157928
663.355	0.0156681
663.433	0.0158923
663.511	0.0157371
663.590	0.0157774
663.668	0.0158988
663.746	0.0158787
663.824	0.0157484
663.902	0.0158009
663.980	0.0158285
664.058	0.0158331
664.136	0.0157813
664.215	0.0156929
664.293	0.0157943
664.371	0.0158234
664.449	0.0157672
664.527	0.0158089
664.605	0.0157841
664.683	0.0157531
664.761	0.0157198
664.840	0.0159051
664.918	0.0157205
664.996	0.0158868
665.074	0.0156591
665.152	0.0158513
665.230	0.0158492
665.308	0.0158567
665.386	0.0157312
665.465	0.0157516
665.543	0.0159100
665.621	0.0159190
665.699	0.0157110
665.777	0.0157436
665.855	0.0158287
665.933	0.0157681
666.011	0.0158253
666.090	0.0159057
666.168	0.0158498
666.246	0.0157644
666.324	0.0157755
666.402	0.0158205
666.480	0.0157069
666.558	0.0158727
666.636	0.0159005
666.715	0.0158592
666.793	0.0157870
666.871	0.0158252
666.949	0.0157338
667.027	0.0159217
667.105	0.0158733
667.183	0.0159443
667.261	0.0157825
667.340	0.0157999
667.418	0.0157944
667.496	0.0157752
667.574	0.0157703
667.652	0.0158029
667.730	0.0157310
667.808	0.0158731
667.886	0.0158290
667.965	0.0157648
668.043	0.0158881
668.121	0.0158768
668.199	0.0157493
668.277	0.0156461
668.355	0.0158797
668.433	0.0158037
668.511	0.0158232
668.590	0.0157122
668.668	0.0157877
668.746	0.0157733
668.824	0.0158599
668.902	0.0158485
668.980	0.0158491
669.058	0.0157112
669.136	0.0157671
669.215	0.0157458
669.293	0.0156200
669.371	0.0156742
669.449	0.0157533
669.527	0.0158904
669.605	0.0157856
669.683	0.0157272
669.761	0.0158818
669.840	0.0159218
669.918	0.0159409
669.996	0.0158169
670.074	0.0157600
670.152	0.0158944
670.230	0.0159538
670.308	0.0156479
670.386	0.0156699
670.465	0.0157896
670.543	0.0156991
670.621	0.0157782
670.699	0.0157735
670.777	0.0157919
670.855	0.0158450
670.933	0.0157704
671.011	0.0158055
671.090	0.0158453
671.168	0.0159544
671.246	0.0159628
671.324	0.0158838
671.402	0.0158311
671.480	0.0157400
671.558	0.0157935
671.636	0.0158406
671.715	0.0159409
671.793	0.0158996
671.871	0.0158887
671.949	0.0158031
672.027	0.0158196
672.105	0.0157940
672.183	0.0158295
672.261	0.0158543
672.340	0.0156366
672.418	0.0158105
672.496	0.0159081
672.574	0.0157932
672.652	0.0159774
672.730	0.0158656
672.808	0.0159442
672.886	0.0157563
672.965	0.0158193
673.043	0.0158920
673.121	0.0158320
673.199	0.0158759
673.277	0.0157819
673.355	0.0158272
673.433	0.0158319
673.511	0.0157175
673.590	0.0158447
673.668	0.0157972
673.746	0.0159305
673.824	0.0156865
673.902	0.0157327
673.980	0.0158072
674.058	0.0157594
674.136	0.0157331
674.215	0.0156606
674.293	0.0156842
674.371	0.0156770
674.449	0.0156559
674.527	0.0157767
674.605	0.0157278
674.683	0.0156925
674.761	0.0157056
674.840	0.0157893
674.918	0.0158695
674.996	0.0158461
675.074	0.0158380
675.152	0.0158669
675.230	0.0160393
675.308	0.0158231
675.386	0.0158580
675.465	0.0158662
675.543	0.0158715
675.621	0.0157911
675.699	0.0158524
675.777	0.0158396
675.855	0.0158053
675.933	0.0157639
676.011	0.0157677
676.090	0.0158624
676.168	0.0159077
676.246	0.0158972
676.324	0.0158814
676.402	0.0158139
676.480	0.0158472
676.558	0.0158675
676.636	0.0158854
676.715	0.0158834
676.793	0.0159892
676.871	0.0159409
676.949	0.0157986
677.027	0.0158353
677.105	0.0158425
677.183	0.0158271
677.261	0.0157784
677.340	0.0157874
677.418	0.0158273
677.496	0.0157419
677.574	0.0157992
677.652	0.0158465
677.730	0.0158576
677.808	0.0157565
677.886	0.0157402
677.965	0.0157166
678.043	0.0157423
678.121	0.0158843
678.199	0.0157735
678.277	0.0159529
678.355	0.0158983
678.433	0.0157673
678.511	0.0157813
678.590	0.0157728
678.668	0.0158466
678.746	0.0158447
678.824	0.0158806
678.902	0.0157178
678.980	0.0157171
679.058	0.0157467
679.136	0.0158708
679.215	0.0156861
679.293	0.0157295
679.371	0.0158226
679.449	0.0156749
679.527	0.0158422
679.605	0.0159604
679.683	0.0158790
679.761	0.0158653
679.840	0.0158527
679.918	0.0156686
679.996	0.0157944
680.074	0.0158471
680.152	0.0156757
680.230	0.0156446
680.308	0.0158018
680.386	0.0156493
680.465	0.0158056
680.543	0.0158721
680.621	0.0158130
680.699	0.0157140
680.777	0.0157922
680.855	0.0160207
680.933	0.0158220
681.011	0.0157858
681.090	0.0158393
681.168	0.0158624
681.246	0.0158711
681.324	0.0159090
681.402	0.0157175
681.480	0.0158209
681.558	0.0157845
681.636	0.0159078
681.715	0.0159015
681.793	0.0156602
681.871	0.0156594
681.949	0.0158230
682.027	0.0157816
682.105	0.0156596
682.183	0.0158722
682.261	0.0158863
682.340	0.0158493
682.418	0.0158414
682.496	0.0156863
682.574	0.0157438
682.652	0.0156518
682.730	0.0157639
682.808	0.0157917
682.886	0.0157362
682.965	0.0156314
683.043	0.0156465
683.121	0.0156572
683.199	0.0157342
683.277	0.0158549
683.355	0.0158336
683.433	0.0157870
683.511	0.0157751
683.590	0.0159097
683.668	0.0159646
683.746	0.0159057
683.824	0.0158865
683.902	0.0158476
683.980	0.0159691
684.058	0.0158221
684.136	0.0158838
684.215	0.0156796
684.293	0.0157249
684.371	0.0156616
684.449	0.0156802
684.527	0.0155908
684.605	0.0155418
684.683	0.0155703
684.761	0.0158268
684.840	0.0158240
684.918	0.0157752
684.996	0.0159077
685.074	0.0158741
685.152	0.0158684
685.230	0.0159393
685.308	0.0159211
685.386	0.0158356
685.465	0.0158124
685.543	0.0158849
685.621	0.0159208
685.699	0.0158548
685.777	0.0157305
685.855	0.0157964
685.933	0.0157396
686.011	0.0158241
686.090	0.0157135
686.168	0.0159386
686.246	0.0157766
686.324	0.0157515
686.402	0.0157468
686.480	0.0157292
686.558	0.0157163
686.636	0.0159546
686.715	0.0158881
686.793	0.0158627
686.871	0.0157774
686.949	0.0157623
687.027	0.0158295
687.105	0.0158720
687.183	0.0158622
687.261	0.0158453
687.340	0.0157874
687.418	0.0157761
687.496	0.0160619
687.574	0.0159112
687.652	0.0157916
687.730	0.0157258
687.808	0.0158756
687.886	0.0157642
687.965	0.0159415
688.043	0.0157742
688.121	0.0158025
688.199	0.0156924
688.277	0.0157406
688.355	0.0157616
688.433	0.0156994
688.511	0.0157158
688.590	0.0157597
688.668	0.0158665
688.746	0.0158269
688.824	0.0157334
688.902	0.0158673
688.980	0.0158131
689.058	0.0158837
689.136	0.0158270
689.215	0.0158981
689.293	0.0158128
689.371	0.0156515
689.449	0.0157362
689.527	0.0157816
689.605	0.0156212
689.683	0.0156889
689.761	0.0156789
689.840	0.0157597
689.918	0.0159165
689.996	0.0158325
690.074	0.0158627
690.152	0.0159337
690.230	0.0158723
690.308	0.0159044
690.386	0.0157853
690.465	0.0158908
690.543	0.0158639
690.621	0.0157417
690.699	0.0156850
690.777	0.0156476
690.855	0.0156606
690.933	0.0155781
691.011	0.0156647
691.090	0.0158341
691.168	0.0156692
691.246	0.0158295
691.324	0.0158951
691.402	0.0159679
691.480	0.0159818
691.558	0.0158047
691.636	0.0158449
691.715	0.0158665
691.793	0.0159077
691.871	0.0159703
691.949	0.0158492
692.027	0.0159232
692.105	0.0158183
692.183	0.0158620
692.261	0.0158766
692.340	0.0157781
692.418	0.0156721
692.496	0.0157650
692.574	0.0156676
692.652	0.0155975
692.730	0.0158076
692.808	0.0158550
692.886	0.0157363
692.965	0.0157300
693.043	0.0157819
693.121	0.0157037
693.199	0.0157941
693.277	0.0158540
693.355	0.0157857
693.433	0.0158548
693.511	0.0158655
693.590	0.0157561
693.668	0.0158543
693.746	0.0158065
693.824	0.0157880
693.902	0.0157204
693.980	0.0157794
694.058	0.0158711
694.136	0.0158422
694.215	0.0156764
694.293	0.0158326
694.371	0.0157800
694.449	0.0159307
694.527	0.0157802
694.605	0.0157044
694.683	0.0156252
694.761	0.0156673
694.840	0.0157118
694.918	0.0156607
694.996	0.0157956
695.074	0.0156473
695.152	0.0156049
695.230	0.0157576
695.308	0.0156974
695.386	0.0157095
695.465	0.0157109
695.543	0.0158335
695.621	0.0158832
695.699	0.0158302
695.777	0.0158497
695.855	0.0158546
695.933	0.0158062
696.011	0.0157891
696.090	0.0158012
696.168	0.0158875
696.246	0.0157948
696.324	0.0157381
696.402	0.0157446
696.480	0.0157543
696.558	0.0157831
696.636	0.0157418
696.715	0.0157944
696.793	0.0158106
696.871	0.0156837
696.949	0.0157184
697.027	0.0157612
697.105	0.0158434
697.183	0.0158632
697.261	0.0159184
697.340	0.0158997
697.418	0.0161111
697.496	0.0159504
697.574	0.0157985
697.652	0.0158089
697.730	0.0157893
697.808	0.0156696
697.886	0.0158035
697.965	0.0157218
698.043	0.0156171
698.121	0.0155948
698.199	0.0158023
698.277	0.0156668
698.355	0.0156497
698.433	0.0158870
698.511	0.0158789
698.590	0.0159656
698.668	0.0158106
698.746	0.0157104
698.824	0.0158005
698.902	0.0157024
698.980	0.0158551
699.058	0.0157294
699.136	0.0157360
699.215	0.0156330
699.293	0.0158433
699.371	0.0157994
699.449	0.0157719
699.527	0.0158067
699.605	0.0157757
699.683	0.0157502
699.761	0.0157953
699.840	0.0158918
699.918	0.0157655
699.996	0.0158624
700.074	0.0159042
700.152	0.0158125
700.230	0.0156958
700.308	0.0159279
700.386	0.0158253
700.465	0.0158034
700.543	0.0157631
700.621	0.0157780
700.699	0.0158726
700.777	0.0156849
700.855	0.0157315
700.933	0.0157390
701.011	0.0157304
701.090	0.0156315
701.168	0.0157595
701.246	0.0157456
701.324	0.0156030
701.402	0.0156061
701.480	0.0156670
701.558	0.0156776
701.636	0.0158099
701.715	0.0157423
701.793	0.0157730
701.871	0.0157935
701.949	0.0158013
702.027	0.0159597
702.105	0.0157016
702.183	0.0158650
702.261	0.0157904
702.340	0.0157143
702.418	0.0158679
702.496	0.0157874
702.574	0.0158032
702.652	0.0157304
702.730	0.0157434
702.808	0.0157967
702.886	0.0157029
702.965	0.0156287
703.043	0.0156250
703.121	0.0157387
703.199	0.0157258
703.277	0.0157418
703.355	0.0156644
703.433	0.0156345
703.511	0.0155625
703.590	0.0155141
703.668	0.0157421
703.746	0.0156741
703.824	0.0157015
703.902	0.0157470
703.980	0.0156686
704.058	0.0158189
704.136	0.0158068
704.215	0.0157649
704.293	0.0157568
704.371	0.0157398
704.449	0.0156484
704.527	0.0158280
704.605	0.0156300
704.683	0.0156441
704.761	0.0155585
704.840	0.0156963
704.918	0.0156807
704.996	0.0156718
705.074	0.0157546
705.152	0.0157755
705.230	0.0158461
705.308	0.0159470
705.386	0.0159143
705.465	0.0158733
705.543	0.0159998
705.621	0.0158585
705.699	0.0159904
705.777	0.0159027
705.855	0.0159570
705.933	0.0159698
706.011	0.0161171
706.090	0.0159213
706.168	0.0158817
706.246	0.0158633
706.324	0.0159460
706.402	0.0159913
706.480	0.0159209
706.558	0.0159265
706.636	0.0158646
706.715	0.0158502
706.793	0.0159509
706.871	0.0158418
706.949	0.0159549
707.027	0.0158273
707.105	0.0157981
707.183	0.0158286
707.261	0.0159627
707.340	0.0158086
707.418	0.0156796
707.496	0.0157915
707.574	0.0157612
707.652	0.0156545
707.730	0.0155304
707.808	0.0155840
707.886	0.0156058
707.965	0.0155988
708.043	0.0156086
708.121	0.0156171
708.199	0.0157250
708.277	0.0156624
708.355	0.0155702
708.433	0.0155405
708.511	0.0154977
708.590	0.0154878
708.668	0.0155861
708.746	0.0156161
708.824	0.0155469
708.902	0.0154680
708.980	0.0154732
709.058	0.0155811
709.136	0.0157288
709.215	0.0156182
709.293	0.0156189
709.371	0.0157815
709.449	0.0157230
709.527	0.0157826
709.605	0.0158598
709.683	0.0158624
709.761	0.0157753
709.840	0.0159869
709.918	0.0159092
709.996	0.0159864
710.074	0.0159515
710.152	0.0161078
710.230	0.0160249
710.308	0.0159274
710.386	0.0161056
710.465	0.0160932
710.543	0.0160404
710.621	0.0160700
710.699	0.0161027
710.777	0.0159771
710.855	0.0159830
710.933	0.0159175
711.011	0.0158020
711.090	0.0157876
711.168	0.0158926
711.246	0.0155331
711.324	0.0156620
711.402	0.0157014
711.480	0.0154729
711.558	0.0155709
711.636	0.0156394
711.715	0.0154569
711.793	0.0154783
711.871	0.0155812
711.949	0.0156887
712.027	0.0156001
712.105	0.0155735
712.183	0.0157166
712.261	0.0157642
712.340	0.0157233
712.418	0.0156570
712.496	0.0157158
712.574	0.0157138
712.652	0.0155980
712.730	0.0158375
712.808	0.0158069
712.886	0.0158059
712.965	0.0157713
713.043	0.0157050
713.121	0.0158656
713.199	0.0158292
713.277	0.0158625
713.355	0.0159111
713.433	0.0160309
713.511	0.0158593
713.590	0.0160159
713.668	0.0159431
713.746	0.0160446
713.824	0.0161450
713.902	0.0161649
713.980	0.0162134
714.058	0.0161586
714.136	0.0160674
714.215	0.0159872
714.293	0.0161162
714.371	0.0161609
714.449	0.0158901
714.527	0.0158710
714.605	0.0160706
714.683	0.0159381
714.761	0.0157265
714.840	0.0158361
714.918	0.0156594
714.996	0.0157447
715.074	0.0156915
715.152	0.0156525
715.230	0.0154877
715.308	0.0156876
715.386	0.0154642
715.465	0.0154058
715.543	0.0154494
715.621	0.0156291
715.699	0.0154229
