05/04/2022	20:46:36	Ver.	4.1	UNKNOWN
Optical Delay	679.003072	Delta X		0.078125	Sweeps	1	Scan Rate	0/0
Coordinates	Axis 1	NaN	Axis 2	NaN	Axis 3	NaN	Axis 4	NaN	Axis 5	NaN	Axis 6	0.000000
TX Power	0.000000	RX Power	0.000000

679.003	0.0148499
679.081	0.0149642
679.159	0.0148343
679.237	0.0148231
679.316	0.0147955
679.394	0.0148785
679.472	0.0149084
679.550	0.0148731
679.628	0.0148095
679.706	0.0149090
679.784	0.0147640
679.862	0.0148918
679.941	0.0148726
680.019	0.0149678
680.097	0.0148824
680.175	0.0147446
680.253	0.0149587
680.331	0.0148358
680.409	0.0149400
680.487	0.0148451
680.566	0.0147620
680.644	0.0149109
680.722	0.0149255
680.800	0.0148077
680.878	0.0148424
680.956	0.0149036
681.034	0.0147848
681.112	0.0148145
681.191	0.0148299
681.269	0.0148634
681.347	0.0148141
681.425	0.0147968
681.503	0.0149278
681.581	0.0148563
681.659	0.0148225
681.737	0.0149042
681.816	0.0147930
681.894	0.0149089
681.972	0.0147871
682.050	0.0147821
682.128	0.0149165
682.206	0.0148874
682.284	0.0148900
682.362	0.0148886
682.441	0.0148546
682.519	0.0148532
682.597	0.0147646
682.675	0.0148033
682.753	0.0147179
682.831	0.0148784
682.909	0.0148656
682.987	0.0147292
683.066	0.0148059
683.144	0.0146856
683.222	0.0148571
683.300	0.0148827
683.378	0.0148511
683.456	0.0148906
683.534	0.0147459
683.612	0.0149180
683.691	0.0148458
683.769	0.0148585
683.847	0.0148407
683.925	0.0148505
684.003	0.0147931
684.081	0.0148453
684.159	0.0148954
684.237	0.0148415
684.316	0.0147106
684.394	0.0148111
684.472	0.0148001
684.550	0.0148154
684.628	0.0147472
684.706	0.0148286
684.784	0.0148833
684.862	0.0146588
684.941	0.0148425
685.019	0.0148933
685.097	0.0148363
685.175	0.0147795
685.253	0.0146760
685.331	0.0148015
685.409	0.0147449
685.487	0.0149567
685.566	0.0149156
685.644	0.0148202
685.722	0.0148676
685.800	0.0147249
685.878	0.0149020
685.956	0.0148396
686.034	0.0148144
686.112	0.0148164
686.191	0.0147010
686.269	0.0148280
686.347	0.0147208
686.425	0.0148770
686.503	0.0148759
686.581	0.0149230
686.659	0.0149113
686.737	0.0148351
686.816	0.0148341
686.894	0.0148257
686.972	0.0147695
687.050	0.0149447
687.128	0.0149143
687.206	0.0148283
687.284	0.0148079
687.362	0.0148126
687.441	0.0148150
687.519	0.0149651
687.597	0.0148294
687.675	0.0148493
687.753	0.0149376
687.831	0.0148866
687.909	0.0147959
687.987	0.0147814
688.066	0.0148073
688.144	0.0148900
688.222	0.0149137
688.300	0.0148709
688.378	0.0147491
688.456	0.0148558
688.534	0.0147684
688.612	0.0147522
688.691	0.0148373
688.769	0.0148723
688.847	0.0149852
688.925	0.0148367
689.003	0.0149179
689.081	0.0148938
689.159	0.0147925
689.237	0.0148682
689.316	0.0149058
689.394	0.0148825
689.472	0.0149495
689.550	0.0148592
689.628	0.0148672
689.706	0.0148690
689.784	0.0148856
689.862	0.0147796
689.941	0.0149868
690.019	0.0149200
690.097	0.0149159
690.175	0.0148620
690.253	0.0149129
690.331	0.0149062
690.409	0.0148489
690.487	0.0148695
690.566	0.0149700
690.644	0.0149854
690.722	0.0149050
690.800	0.0148920
690.878	0.0148602
690.956	0.0149502
691.034	0.0147621
691.112	0.0148226
691.191	0.0149746
691.269	0.0147890
691.347	0.0148299
691.425	0.0148995
691.503	0.0149186
691.581	0.0150145
691.659	0.0148681
691.737	0.0148386
691.816	0.0150064
691.894	0.0148196
691.972	0.0148521
692.050	0.0149368
692.128	0.0149023
692.206	0.0148157
692.284	0.0148721
692.362	0.0149049
692.441	0.0148163
692.519	0.0149357
692.597	0.0149106
692.675	0.0149964
692.753	0.0150034
692.831	0.0149358
692.909	0.0148144
692.987	0.0148658
693.066	0.0148727
693.144	0.0148653
693.222	0.0147810
693.300	0.0148645
693.378	0.0148700
693.456	0.0148117
693.534	0.0148841
693.612	0.0149388
693.691	0.0148824
693.769	0.0146189
693.847	0.0147476
693.925	0.0148164
694.003	0.0149808
694.081	0.0149604
694.159	0.0148267
694.237	0.0148270
694.316	0.0148689
694.394	0.0148547
694.472	0.0147773
694.550	0.0147161
694.628	0.0147725
694.706	0.0148323
694.784	0.0147787
694.862	0.0149771
694.941	0.0147603
695.019	0.0148246
695.097	0.0148602
695.175	0.0147614
695.253	0.0148257
695.331	0.0147635
695.409	0.0147421
695.487	0.0148769
695.566	0.0147787
695.644	0.0148134
695.722	0.0147530
695.800	0.0148573
695.878	0.0149088
695.956	0.0147328
696.034	0.0148194
696.112	0.0147417
696.191	0.0148723
696.269	0.0148293
696.347	0.0148625
696.425	0.0149157
696.503	0.0147305
696.581	0.0149515
696.659	0.0148318
696.737	0.0148251
696.816	0.0147627
696.894	0.0149750
696.972	0.0147659
697.050	0.0148532
697.128	0.0147597
697.206	0.0148476
697.284	0.0147922
697.362	0.0148019
697.441	0.0147447
697.519	0.0147279
697.597	0.0147562
697.675	0.0147868
697.753	0.0148736
697.831	0.0146903
697.909	0.0147024
697.987	0.0147995
698.066	0.0149130
698.144	0.0147781
698.222	0.0148726
698.300	0.0149406
698.378	0.0149066
698.456	0.0148231
698.534	0.0146765
698.612	0.0147157
698.691	0.0148399
698.769	0.0149210
698.847	0.0147635
698.925	0.0148549
699.003	0.0148370
699.081	0.0147607
699.159	0.0148196
699.237	0.0148198
699.316	0.0149273
699.394	0.0146896
699.472	0.0146851
699.550	0.0148941
699.628	0.0148597
699.706	0.0148699
699.784	0.0149005
699.862	0.0149240
699.941	0.0147343
700.019	0.0149107
700.097	0.0149495
700.175	0.0148788
700.253	0.0148096
700.331	0.0148730
700.409	0.0147688
700.487	0.0147561
700.566	0.0147906
700.644	0.0148271
700.722	0.0149700
700.800	0.0147971
700.878	0.0150457
700.956	0.0148314
701.034	0.0147935
701.112	0.0147484
701.191	0.0147883
701.269	0.0148260
701.347	0.0148544
701.425	0.0147955
701.503	0.0148109
701.581	0.0148773
701.659	0.0149078
701.737	0.0149795
701.816	0.0149170
701.894	0.0148011
701.972	0.0148866
702.050	0.0148915
702.128	0.0149171
702.206	0.0149010
702.284	0.0147072
702.362	0.0149511
702.441	0.0148841
702.519	0.0148367
702.597	0.0148441
702.675	0.0147138
702.753	0.0148703
702.831	0.0148354
702.909	0.0149039
702.987	0.0147930
703.066	0.0147826
703.144	0.0148302
703.222	0.0148521
703.300	0.0149075
703.378	0.0148818
703.456	0.0148711
703.534	0.0149732
703.612	0.0150756
703.691	0.0148505
703.769	0.0147955
703.847	0.0148036
703.925	0.0147683
704.003	0.0148083
704.081	0.0148317
704.159	0.0147789
704.237	0.0148461
704.316	0.0148951
704.394	0.0149741
704.472	0.0149100
704.550	0.0149082
704.628	0.0149828
704.706	0.0148463
704.784	0.0147367
704.862	0.0148605
704.941	0.0148930
705.019	0.0150263
705.097	0.0148086
705.175	0.0148924
705.253	0.0148097
705.331	0.0147388
705.409	0.0149216
705.487	0.0148556
705.566	0.0147752
705.644	0.0149188
705.722	0.0148391
705.800	0.0148541
705.878	0.0149437
705.956	0.0147687
706.034	0.0148057
706.112	0.0147399
706.191	0.0148286
706.269	0.0148470
706.347	0.0149131
706.425	0.0148009
706.503	0.0147904
706.581	0.0148118
706.659	0.0148034
706.737	0.0148907
706.816	0.0148032
706.894	0.0146855
706.972	0.0147493
707.050	0.0148785
707.128	0.0148463
707.206	0.0148164
707.284	0.0147235
707.362	0.0147363
707.441	0.0147509
707.519	0.0149028
707.597	0.0148708
707.675	0.0148519
707.753	0.0148994
707.831	0.0147396
707.909	0.0147420
707.987	0.0148648
708.066	0.0147179
708.144	0.0148872
708.222	0.0147996
708.300	0.0147570
708.378	0.0148021
708.456	0.0148618
708.534	0.0149716
708.612	0.0147878
708.691	0.0149007
708.769	0.0149288
708.847	0.0148396
708.925	0.0147406
709.003	0.0148235
709.081	0.0148417
709.159	0.0148910
709.237	0.0147285
709.316	0.0148158
709.394	0.0148283
709.472	0.0147746
709.550	0.0148036
709.628	0.0147413
709.706	0.0147590
709.784	0.0148576
709.862	0.0147562
709.941	0.0147253
710.019	0.0148062
710.097	0.0149178
710.175	0.0147624
710.253	0.0147934
710.331	0.0148672
710.409	0.0150634
710.487	0.0148920
710.566	0.0147742
710.644	0.0148408
710.722	0.0148864
710.800	0.0147247
710.878	0.0148113
710.956	0.0149022
711.034	0.0147870
711.112	0.0148697
711.191	0.0149594
711.269	0.0148346
711.347	0.0148174
711.425	0.0147683
711.503	0.0148202
711.581	0.0148138
711.659	0.0148581
711.737	0.0149127
711.816	0.0147391
711.894	0.0147401
711.972	0.0148452
712.050	0.0148040
712.128	0.0148635
712.206	0.0148757
712.284	0.0148356
712.362	0.0149075
712.441	0.0149666
712.519	0.0147848
712.597	0.0148423
712.675	0.0148289
712.753	0.0148453
712.831	0.0147076
712.909	0.0147609
712.987	0.0148644
713.066	0.0148029
713.144	0.0148181
713.222	0.0149130
713.300	0.0148301
713.378	0.0149255
713.456	0.0146995
713.534	0.0148708
713.612	0.0148949
713.691	0.0149323
713.769	0.0148780
713.847	0.0147155
713.925	0.0147718
714.003	0.0147260
714.081	0.0147514
714.159	0.0149312
714.237	0.0149613
714.316	0.0148840
714.394	0.0148476
714.472	0.0149834
714.550	0.0148634
714.628	0.0149099
714.706	0.0148370
714.784	0.0147826
714.862	0.0149312
714.941	0.0147755
715.019	0.0148685
715.097	0.0150469
715.175	0.0149126
715.253	0.0149183
715.331	0.0149203
715.409	0.0148624
715.487	0.0150610
715.566	0.0149342
715.644	0.0149653
715.722	0.0148817
715.800	0.0148811
715.878	0.0149515
715.956	0.0148431
716.034	0.0148070
716.112	0.0149974
716.191	0.0148824
716.269	0.0149407
716.347	0.0147339
716.425	0.0148216
716.503	0.0148323
716.581	0.0148091
716.659	0.0148678
716.737	0.0148209
716.816	0.0147990
716.894	0.0147856
716.972	0.0148543
717.050	0.0148103
717.128	0.0146829
717.206	0.0147913
717.284	0.0148798
717.362	0.0148817
717.441	0.0148321
717.519	0.0149368
717.597	0.0149156
717.675	0.0148811
717.753	0.0148316
717.831	0.0148934
717.909	0.0148312
717.987	0.0147260
718.066	0.0150259
718.144	0.0149543
718.222	0.0148151
718.300	0.0147919
718.378	0.0149834
718.456	0.0149035
718.534	0.0148974
718.612	0.0148679
718.691	0.0149457
718.769	0.0150204
718.847	0.0149007
718.925	0.0149059
719.003	0.0147630
719.081	0.0147153
719.159	0.0148824
719.237	0.0147395
719.316	0.0148411
719.394	0.0147767
719.472	0.0147659
719.550	0.0149485
719.628	0.0147522
719.706	0.0148524
719.784	0.0149741
719.862	0.0147272
719.941	0.0147353
720.019	0.0148255
720.097	0.0146564
720.175	0.0147018
720.253	0.0148306
720.331	0.0147506
720.409	0.0147895
720.487	0.0147451
720.566	0.0148541
720.644	0.0146733
720.722	0.0148673
720.800	0.0147046
720.878	0.0146421
720.956	0.0148077
721.034	0.0147639
721.112	0.0148272
721.191	0.0148507
721.269	0.0149054
721.347	0.0147384
721.425	0.0147743
721.503	0.0148056
721.581	0.0147644
721.659	0.0149052
721.737	0.0149482
721.816	0.0148621
721.894	0.0150654
721.972	0.0149576
722.050	0.0148648
722.128	0.0148728
722.206	0.0148070
722.284	0.0148437
722.362	0.0147900
722.441	0.0147180
722.519	0.0147261
722.597	0.0146617
722.675	0.0146726
722.753	0.0146415
722.831	0.0148219
722.909	0.0148907
722.987	0.0146848
723.066	0.0148761
723.144	0.0148460
723.222	0.0146785
723.300	0.0146692
723.378	0.0148584
723.456	0.0147236
723.534	0.0147846
723.612	0.0147272
723.691	0.0147343
723.769	0.0148122
723.847	0.0149166
723.925	0.0148991
724.003	0.0148283
724.081	0.0148646
724.159	0.0149191
724.237	0.0149168
724.316	0.0147926
724.394	0.0148687
724.472	0.0149281
724.550	0.0147692
724.628	0.0148867
724.706	0.0149224
724.784	0.0147921
724.862	0.0149651
724.941	0.0148367
725.019	0.0148435
725.097	0.0147499
725.175	0.0147900
725.253	0.0148298
725.331	0.0148811
725.409	0.0147563
725.487	0.0148466
725.566	0.0147044
725.644	0.0148221
725.722	0.0147614
725.800	0.0147289
725.878	0.0147230
725.956	0.0147442
726.034	0.0148186
726.112	0.0148138
726.191	0.0148504
726.269	0.0148362
726.347	0.0149049
726.425	0.0148413
726.503	0.0147199
726.581	0.0149244
726.659	0.0149358
726.737	0.0149040
726.816	0.0148648
726.894	0.0148917
726.972	0.0148737
727.050	0.0149026
727.128	0.0147669
727.206	0.0148141
727.284	0.0148231
727.362	0.0148885
727.441	0.0148856
727.519	0.0148325
727.597	0.0148132
727.675	0.0148965
727.753	0.0148161
727.831	0.0147289
727.909	0.0147678
727.987	0.0148663
728.066	0.0146223
728.144	0.0147852
728.222	0.0149234
728.300	0.0148820
728.378	0.0148152
728.456	0.0147379
728.534	0.0147555
728.612	0.0148909
728.691	0.0148249
728.769	0.0148442
728.847	0.0147741
728.925	0.0148994
729.003	0.0147948
729.081	0.0148190
729.159	0.0148699
729.237	0.0149612
729.316	0.0149502
729.394	0.0149088
729.472	0.0148186
729.550	0.0148946
729.628	0.0150488
729.706	0.0149926
729.784	0.0150453
729.862	0.0150112
729.941	0.0149165
730.019	0.0149651
730.097	0.0150813
730.175	0.0149443
730.253	0.0148922
730.331	0.0149006
730.409	0.0149023
730.487	0.0149312
730.566	0.0148952
730.644	0.0149516
730.722	0.0150726
730.800	0.0148383
730.878	0.0149935
730.956	0.0148705
731.034	0.0147602
731.112	0.0148631
731.191	0.0150084
731.269	0.0149133
731.347	0.0148566
731.425	0.0148512
731.503	0.0148945
731.581	0.0149628
731.659	0.0148611
731.737	0.0148598
731.816	0.0149219
731.894	0.0147686
731.972	0.0151409
732.050	0.0148916
732.128	0.0146936
732.206	0.0148672
732.284	0.0147721
732.362	0.0149462
732.441	0.0148442
732.519	0.0146801
732.597	0.0147676
732.675	0.0147867
732.753	0.0147768
732.831	0.0147945
732.909	0.0148089
732.987	0.0146567
733.066	0.0148845
733.144	0.0147371
733.222	0.0147528
733.300	0.0146770
733.378	0.0145605
733.456	0.0148244
733.534	0.0148938
733.612	0.0147914
733.691	0.0146534
733.769	0.0147151
733.847	0.0148277
733.925	0.0148920
734.003	0.0148428
734.081	0.0148914
734.159	0.0148050
734.237	0.0147160
734.316	0.0146621
734.394	0.0146883
734.472	0.0148029
734.550	0.0147707
734.628	0.0148105
734.706	0.0147007
734.784	0.0148221
734.862	0.0148552
734.941	0.0147669
735.019	0.0148673
735.097	0.0148631
735.175	0.0148547
735.253	0.0149340
735.331	0.0148034
735.409	0.0149003
735.487	0.0150272
735.566	0.0148161
735.644	0.0149670
735.722	0.0149207
735.800	0.0148563
735.878	0.0148094
735.956	0.0149955
736.034	0.0149562
736.112	0.0149599
736.191	0.0148018
736.269	0.0149018
736.347	0.0148983
736.425	0.0148698
736.503	0.0150171
736.581	0.0148795
736.659	0.0147920
736.737	0.0147966
736.816	0.0148399
736.894	0.0146606
736.972	0.0148022
737.050	0.0147218
737.128	0.0148016
737.206	0.0148839
737.284	0.0147413
737.362	0.0148288
737.441	0.0147436
737.519	0.0149261
737.597	0.0148378
737.675	0.0146829
737.753	0.0147803
737.831	0.0148850
737.909	0.0148553
737.987	0.0148737
738.066	0.0149365
738.144	0.0149272
738.222	0.0148772
738.300	0.0147929
738.378	0.0148333
738.456	0.0148695
738.534	0.0149361
738.612	0.0149231
738.691	0.0147521
738.769	0.0146031
738.847	0.0147241
738.925	0.0147739
739.003	0.0147427
739.081	0.0148084
739.159	0.0148169
739.237	0.0147422
739.316	0.0147490
739.394	0.0148671
739.472	0.0147522
739.550	0.0147837
739.628	0.0146146
739.706	0.0147361
739.784	0.0148808
739.862	0.0148669
739.941	0.0149020
740.019	0.0148174
740.097	0.0148785
740.175	0.0147809
740.253	0.0147979
740.331	0.0149092
740.409	0.0148280
740.487	0.0148254
740.566	0.0147861
740.644	0.0148051
740.722	0.0147845
740.800	0.0148057
740.878	0.0147550
740.956	0.0147311
741.034	0.0146739
741.112	0.0147414
741.191	0.0146845
741.269	0.0147406
741.347	0.0147904
741.425	0.0149381
741.503	0.0147569
741.581	0.0147157
741.659	0.0147623
741.737	0.0147445
741.816	0.0147770
741.894	0.0147392
741.972	0.0149127
742.050	0.0146833
742.128	0.0147649
742.206	0.0148191
742.284	0.0148241
742.362	0.0147381
742.441	0.0148420
742.519	0.0147309
742.597	0.0147964
742.675	0.0147668
742.753	0.0147329
742.831	0.0148596
742.909	0.0146663
742.987	0.0146916
743.066	0.0147887
743.144	0.0148293
743.222	0.0148376
743.300	0.0148421
743.378	0.0148471
743.456	0.0147723
743.534	0.0150928
743.612	0.0147266
743.691	0.0148005
743.769	0.0148125
743.847	0.0148183
743.925	0.0149226
744.003	0.0148093
744.081	0.0148556
744.159	0.0148505
744.237	0.0149104
744.316	0.0149043
744.394	0.0147532
744.472	0.0148004
744.550	0.0149023
744.628	0.0148780
744.706	0.0148473
744.784	0.0148753
744.862	0.0148434
744.941	0.0148788
745.019	0.0148798
745.097	0.0149340
745.175	0.0149273
745.253	0.0149425
745.331	0.0148351
745.409	0.0148859
745.487	0.0148660
745.566	0.0148775
745.644	0.0148768
745.722	0.0149368
745.800	0.0148592
745.878	0.0149114
745.956	0.0148921
746.034	0.0148368
746.112	0.0148725
746.191	0.0148486
746.269	0.0148316
746.347	0.0148950
746.425	0.0147711
746.503	0.0148431
746.581	0.0148820
746.659	0.0149163
746.737	0.0149077
746.816	0.0149213
746.894	0.0148085
746.972	0.0148854
747.050	0.0148714
747.128	0.0148003
747.206	0.0148621
747.284	0.0149545
747.362	0.0148222
747.441	0.0148277
747.519	0.0148975
747.597	0.0146841
747.675	0.0148565
747.753	0.0148235
747.831	0.0147819
747.909	0.0148683
747.987	0.0148058
748.066	0.0150137
748.144	0.0148610
748.222	0.0149242
748.300	0.0148078
748.378	0.0149310
748.456	0.0149152
748.534	0.0148374
748.612	0.0148745
748.691	0.0146915
748.769	0.0148733
748.847	0.0148156
748.925	0.0147824
749.003	0.0148003
749.081	0.0148505
749.159	0.0147683
749.237	0.0148898
749.316	0.0148285
749.394	0.0148700
749.472	0.0149020
749.550	0.0148587
749.628	0.0147005
749.706	0.0148480
749.784	0.0148082
749.862	0.0147793
749.941	0.0147004
750.019	0.0147939
750.097	0.0148064
750.175	0.0147530
750.253	0.0148667
750.331	0.0148049
750.409	0.0148590
750.487	0.0147901
750.566	0.0148066
750.644	0.0146853
750.722	0.0147855
750.800	0.0149098
750.878	0.0147131
750.956	0.0147928
751.034	0.0147815
751.112	0.0146902
751.191	0.0147102
751.269	0.0146378
751.347	0.0148277
751.425	0.0148333
751.503	0.0147295
751.581	0.0147157
751.659	0.0148049
751.737	0.0149070
751.816	0.0148456
751.894	0.0147690
751.972	0.0146809
752.050	0.0148427
752.128	0.0148292
752.206	0.0149664
752.284	0.0148179
752.362	0.0148052
752.441	0.0149728
752.519	0.0148798
752.597	0.0149067
752.675	0.0147816
752.753	0.0147978
752.831	0.0147883
752.909	0.0148550
752.987	0.0148236
753.066	0.0148660
753.144	0.0148137
753.222	0.0148859
753.300	0.0148066
753.378	0.0147495
753.456	0.0148696
753.534	0.0149020
753.612	0.0148800
753.691	0.0147349
753.769	0.0148946
753.847	0.0148404
753.925	0.0147777
754.003	0.0146864
754.081	0.0147538
754.159	0.0149110
754.237	0.0147464
754.316	0.0147095
754.394	0.0147311
754.472	0.0148461
754.550	0.0147446
754.628	0.0147444
754.706	0.0145960
754.784	0.0147052
754.862	0.0146335
754.941	0.0147366
755.019	0.0145469
755.097	0.0145850
755.175	0.0145674
755.253	0.0147939
755.331	0.0147457
755.409	0.0147484
755.487	0.0148283
755.566	0.0146550
755.644	0.0147105
755.722	0.0148835
755.800	0.0147243
755.878	0.0148328
755.956	0.0148206
756.034	0.0148309
756.112	0.0148917
756.191	0.0149332
756.269	0.0147790
756.347	0.0148352
756.425	0.0149278
756.503	0.0148030
756.581	0.0148494
756.659	0.0150055
756.737	0.0148808
756.816	0.0149525
756.894	0.0149182
756.972	0.0149006
757.050	0.0149628
757.128	0.0149146
757.206	0.0149086
757.284	0.0148393
757.362	0.0149503
757.441	0.0149423
757.519	0.0148566
757.597	0.0148862
757.675	0.0150334
757.753	0.0149184
757.831	0.0150191
757.909	0.0150639
757.987	0.0150033
758.066	0.0149012
758.144	0.0150127
758.222	0.0150043
758.300	0.0149750
758.378	0.0148125
758.456	0.0149437
758.534	0.0150313
758.612	0.0149339
758.691	0.0149371
758.769	0.0147913
758.847	0.0148605
758.925	0.0150327
759.003	0.0149944
759.081	0.0148485
759.159	0.0148222
759.237	0.0148124
759.316	0.0148106
759.394	0.0147600
759.472	0.0148229
759.550	0.0148553
759.628	0.0148035
759.706	0.0147682
759.784	0.0149153
759.862	0.0149641
759.941	0.0147274
760.019	0.0147858
760.097	0.0147951
760.175	0.0148268
760.253	0.0148133
760.331	0.0148526
760.409	0.0149430
760.487	0.0148724
760.566	0.0148686
760.644	0.0148966
760.722	0.0148928
760.800	0.0148510
760.878	0.0148082
760.956	0.0148529
761.034	0.0148289
761.112	0.0148204
761.191	0.0149277
761.269	0.0148755
761.347	0.0147986
761.425	0.0148232
761.503	0.0148302
761.581	0.0147701
761.659	0.0147991
761.737	0.0148723
761.816	0.0148283
761.894	0.0149307
761.972	0.0149489
762.050	0.0147861
762.128	0.0148759
762.206	0.0149033
762.284	0.0148380
762.362	0.0147981
762.441	0.0149345
762.519	0.0149290
762.597	0.0148824
762.675	0.0147781
762.753	0.0147803
762.831	0.0148101
762.909	0.0148129
762.987	0.0149835
763.066	0.0148647
763.144	0.0149152
763.222	0.0149963
763.300	0.0148141
763.378	0.0148639
763.456	0.0150332
763.534	0.0149776
763.612	0.0149362
763.691	0.0149255
763.769	0.0149337
763.847	0.0148837
763.925	0.0149501
764.003	0.0147913
764.081	0.0148422
764.159	0.0149248
764.237	0.0149464
764.316	0.0148962
764.394	0.0149886
764.472	0.0149015
764.550	0.0148310
764.628	0.0149876
764.706	0.0147636
