05/04/2022	20:46:56	Ver.	4.1	UNKNOWN
Optical Delay	678.996401	Delta X		0.078125	Sweeps	1	Scan Rate	0/0
Coordinates	Axis 1	NaN	Axis 2	NaN	Axis 3	NaN	Axis 4	NaN	Axis 5	NaN	Axis 6	0.000000
TX Power	0.000000	RX Power	0.000000

678.996	0.0147532
679.075	0.0147544
679.153	0.0148933
679.231	0.0147558
679.309	0.0147998
679.387	0.0148183
679.465	0.0147260
679.543	0.0148147
679.621	0.0147437
679.700	0.0148316
679.778	0.0147591
679.856	0.0147759
679.934	0.0147541
680.012	0.0148109
680.090	0.0147560
680.168	0.0148609
680.246	0.0147913
680.325	0.0147176
680.403	0.0149147
680.481	0.0148441
680.559	0.0147649
680.637	0.0148428
680.715	0.0146819
680.793	0.0146123
680.871	0.0148514
680.950	0.0147848
681.028	0.0147009
681.106	0.0146836
681.184	0.0147916
681.262	0.0148206
681.340	0.0147218
681.418	0.0147940
681.496	0.0147855
681.575	0.0147377
681.653	0.0147657
681.731	0.0146667
681.809	0.0147625
681.887	0.0147269
681.965	0.0145974
682.043	0.0146625
682.121	0.0147758
682.200	0.0147002
682.278	0.0148147
682.356	0.0148408
682.434	0.0148388
682.512	0.0147846
682.590	0.0148360
682.668	0.0146732
682.746	0.0147382
682.825	0.0148035
682.903	0.0148640
682.981	0.0147011
683.059	0.0147141
683.137	0.0148386
683.215	0.0146362
683.293	0.0147395
683.371	0.0147160
683.450	0.0147095
683.528	0.0147108
683.606	0.0146984
683.684	0.0146951
683.762	0.0145440
683.840	0.0147469
683.918	0.0146471
683.996	0.0148691
684.075	0.0148199
684.153	0.0146989
684.231	0.0147147
684.309	0.0149341
684.387	0.0147710
684.465	0.0147745
684.543	0.0146275
684.621	0.0149067
684.700	0.0145483
684.778	0.0147619
684.856	0.0147554
684.934	0.0147448
685.012	0.0148611
685.090	0.0147215
685.168	0.0146017
685.246	0.0147596
685.325	0.0147169
685.403	0.0147051
685.481	0.0148201
685.559	0.0147005
685.637	0.0148014
685.715	0.0147825
685.793	0.0147557
685.871	0.0147003
685.950	0.0148225
686.028	0.0148211
686.106	0.0147919
686.184	0.0147344
686.262	0.0146387
686.340	0.0146071
686.418	0.0146977
686.496	0.0146180
686.575	0.0147958
686.653	0.0148085
686.731	0.0146917
686.809	0.0147374
686.887	0.0147723
686.965	0.0147324
687.043	0.0146175
687.121	0.0147528
687.200	0.0147417
687.278	0.0146972
687.356	0.0147782
687.434	0.0146091
687.512	0.0147609
687.590	0.0147932
687.668	0.0147070
687.746	0.0145972
687.825	0.0146794
687.903	0.0147499
687.981	0.0148362
688.059	0.0148086
688.137	0.0147940
688.215	0.0146780
688.293	0.0146700
688.371	0.0148846
688.450	0.0147170
688.528	0.0148141
688.606	0.0147081
688.684	0.0147478
688.762	0.0148479
688.840	0.0147403
688.918	0.0147213
688.996	0.0147992
689.075	0.0149162
689.153	0.0147977
689.231	0.0147157
689.309	0.0147522
689.387	0.0147420
689.465	0.0146663
689.543	0.0147212
689.621	0.0147955
689.700	0.0149079
689.778	0.0148219
689.856	0.0148633
689.934	0.0146025
690.012	0.0148215
690.090	0.0147063
690.168	0.0148267
690.246	0.0148194
690.325	0.0148009
690.403	0.0146754
690.481	0.0146481
690.559	0.0146837
690.637	0.0148753
690.715	0.0148325
690.793	0.0147408
690.871	0.0146326
690.950	0.0146883
691.028	0.0149112
691.106	0.0148095
691.184	0.0147200
691.262	0.0148339
691.340	0.0148421
691.418	0.0148804
691.496	0.0148140
691.575	0.0147195
691.653	0.0147970
691.731	0.0148523
691.809	0.0148417
691.887	0.0146937
691.965	0.0147820
692.043	0.0147279
692.121	0.0147152
692.200	0.0146551
692.278	0.0149460
692.356	0.0147630
692.434	0.0147956
692.512	0.0147940
692.590	0.0149499
692.668	0.0148513
692.746	0.0147598
692.825	0.0147879
692.903	0.0148585
692.981	0.0147264
693.059	0.0148146
693.137	0.0148681
693.215	0.0147691
693.293	0.0147239
693.371	0.0147077
693.450	0.0147391
693.528	0.0147104
693.606	0.0147819
693.684	0.0147126
693.762	0.0148184
693.840	0.0147816
693.918	0.0147404
693.996	0.0146986
694.075	0.0147033
694.153	0.0147816
694.231	0.0147164
694.309	0.0147398
694.387	0.0147520
694.465	0.0148220
694.543	0.0145921
694.621	0.0147102
694.700	0.0148742
694.778	0.0148292
694.856	0.0148183
694.934	0.0148145
695.012	0.0147848
695.090	0.0148644
695.168	0.0148973
695.246	0.0149086
695.325	0.0148103
695.403	0.0146188
695.481	0.0147990
695.559	0.0147460
695.637	0.0147909
695.715	0.0148009
695.793	0.0148840
695.871	0.0147781
695.950	0.0147566
696.028	0.0147262
696.106	0.0146417
696.184	0.0148416
696.262	0.0148242
696.340	0.0147533
696.418	0.0146427
696.496	0.0147326
696.575	0.0147459
696.653	0.0147041
696.731	0.0146992
696.809	0.0145240
696.887	0.0147783
696.965	0.0147581
697.043	0.0147958
697.121	0.0147796
697.200	0.0146905
697.278	0.0147614
697.356	0.0147517
697.434	0.0146212
697.512	0.0147952
697.590	0.0147311
697.668	0.0147969
697.746	0.0147590
697.825	0.0147707
697.903	0.0147070
697.981	0.0146986
698.059	0.0146605
698.137	0.0148811
698.215	0.0147454
698.293	0.0147273
698.371	0.0146262
698.450	0.0146461
698.528	0.0147641
698.606	0.0147158
698.684	0.0147115
698.762	0.0147689
698.840	0.0147794
698.918	0.0146146
698.996	0.0147168
699.075	0.0147382
699.153	0.0147012
699.231	0.0147775
699.309	0.0147720
699.387	0.0146347
699.465	0.0146564
699.543	0.0145487
699.621	0.0148092
699.700	0.0148981
699.778	0.0147857
699.856	0.0147264
699.934	0.0146799
700.012	0.0148201
700.090	0.0148502
700.168	0.0147736
700.246	0.0146821
700.325	0.0147078
700.403	0.0146356
700.481	0.0149271
700.559	0.0148621
700.637	0.0149223
700.715	0.0147908
700.793	0.0147575
700.871	0.0147824
700.950	0.0147813
701.028	0.0148828
701.106	0.0148859
701.184	0.0149226
701.262	0.0147807
701.340	0.0146185
701.418	0.0148089
701.496	0.0147461
701.575	0.0148432
701.653	0.0147775
701.731	0.0146752
701.809	0.0146167
701.887	0.0147930
701.965	0.0148182
702.043	0.0147667
702.121	0.0146765
702.200	0.0147364
702.278	0.0146231
702.356	0.0147881
702.434	0.0148424
702.512	0.0148866
702.590	0.0148108
702.668	0.0148687
702.746	0.0148978
702.825	0.0146896
702.903	0.0147903
702.981	0.0148126
703.059	0.0146782
703.137	0.0148350
703.215	0.0148084
703.293	0.0147569
703.371	0.0148032
703.450	0.0148757
703.528	0.0148634
703.606	0.0147146
703.684	0.0148181
703.762	0.0148559
703.840	0.0148682
703.918	0.0147712
703.996	0.0147246
704.075	0.0147036
704.153	0.0147143
704.231	0.0147788
704.309	0.0147808
704.387	0.0146755
704.465	0.0147945
704.543	0.0147788
704.621	0.0147800
704.700	0.0148599
704.778	0.0148929
704.856	0.0148206
704.934	0.0146887
705.012	0.0147282
705.090	0.0147727
705.168	0.0145856
705.246	0.0146918
705.325	0.0148920
705.403	0.0147028
705.481	0.0147012
705.559	0.0149017
705.637	0.0147543
705.715	0.0147297
705.793	0.0149093
705.871	0.0148495
705.950	0.0147179
706.028	0.0146765
706.106	0.0146902
706.184	0.0146523
706.262	0.0146454
706.340	0.0145925
706.418	0.0147248
706.496	0.0147869
706.575	0.0148218
706.653	0.0148218
706.731	0.0147127
706.809	0.0147967
706.887	0.0147489
706.965	0.0147800
707.043	0.0146868
707.121	0.0149160
707.200	0.0148132
707.278	0.0146501
707.356	0.0147392
707.434	0.0147790
707.512	0.0147403
707.590	0.0147796
707.668	0.0147800
707.746	0.0148401
707.825	0.0148389
707.903	0.0148133
707.981	0.0147416
708.059	0.0146403
708.137	0.0147887
708.215	0.0147188
708.293	0.0148049
708.371	0.0147996
708.450	0.0147473
708.528	0.0146995
708.606	0.0146384
708.684	0.0145847
708.762	0.0148577
708.840	0.0147710
708.918	0.0145947
708.996	0.0147772
709.075	0.0147381
709.153	0.0148089
709.231	0.0148005
709.309	0.0146445
709.387	0.0147407
709.465	0.0146506
709.543	0.0147217
709.621	0.0146062
709.700	0.0147263
709.778	0.0147371
709.856	0.0146278
709.934	0.0147768
710.012	0.0147308
710.090	0.0147517
710.168	0.0147483
710.246	0.0147168
710.325	0.0146806
710.403	0.0148286
710.481	0.0147889
710.559	0.0147941
710.637	0.0147156
710.715	0.0148190
710.793	0.0147620
710.871	0.0145943
710.950	0.0147832
711.028	0.0147842
711.106	0.0147670
711.184	0.0147503
711.262	0.0148310
711.340	0.0147161
711.418	0.0146133
711.496	0.0148232
711.575	0.0148444
711.653	0.0146806
711.731	0.0146107
711.809	0.0147194
711.887	0.0146841
711.965	0.0147459
712.043	0.0148174
712.121	0.0150233
712.200	0.0148004
712.278	0.0146064
712.356	0.0148065
712.434	0.0148551
712.512	0.0147173
712.590	0.0148077
712.668	0.0147060
712.746	0.0148219
712.825	0.0148202
712.903	0.0146707
712.981	0.0147472
713.059	0.0148074
713.137	0.0147029
713.215	0.0147105
713.293	0.0147826
713.371	0.0149237
713.450	0.0147958
713.528	0.0148113
713.606	0.0148856
713.684	0.0147557
713.762	0.0148305
713.840	0.0147660
713.918	0.0147976
713.996	0.0148880
714.075	0.0148011
714.153	0.0148115
714.231	0.0146550
714.309	0.0147806
714.387	0.0147334
714.465	0.0148042
714.543	0.0149509
714.621	0.0148789
714.700	0.0149486
714.778	0.0147489
714.856	0.0147963
714.934	0.0147780
715.012	0.0147408
715.090	0.0147752
715.168	0.0148157
715.246	0.0147768
715.325	0.0146552
715.403	0.0148612
715.481	0.0148689
715.559	0.0149157
715.637	0.0148641
715.715	0.0147903
715.793	0.0148101
715.871	0.0148577
715.950	0.0148918
716.028	0.0148392
716.106	0.0148342
716.184	0.0147059
716.262	0.0149613
716.340	0.0146446
716.418	0.0146259
716.496	0.0147337
716.575	0.0146770
716.653	0.0146635
716.731	0.0147771
716.809	0.0147393
716.887	0.0147265
716.965	0.0148492
717.043	0.0147087
717.121	0.0146137
717.200	0.0147037
717.278	0.0147687
717.356	0.0147857
717.434	0.0146818
717.512	0.0149014
717.590	0.0147264
717.668	0.0147054
717.746	0.0147421
717.825	0.0149086
717.903	0.0149127
717.981	0.0148539
718.059	0.0147314
718.137	0.0146349
718.215	0.0148029
718.293	0.0147508
718.371	0.0145604
718.450	0.0146739
718.528	0.0147746
718.606	0.0148407
718.684	0.0147856
718.762	0.0149009
718.840	0.0147504
718.918	0.0148033
718.996	0.0146961
719.075	0.0147397
719.153	0.0146828
719.231	0.0147227
719.309	0.0147245
719.387	0.0146643
719.465	0.0146932
719.543	0.0145964
719.621	0.0147854
719.700	0.0147482
719.778	0.0148721
719.856	0.0149838
719.934	0.0149046
720.012	0.0149594
720.090	0.0148061
720.168	0.0148848
720.246	0.0147494
720.325	0.0147650
720.403	0.0148611
720.481	0.0148384
720.559	0.0148841
720.637	0.0147970
720.715	0.0147655
720.793	0.0147862
720.871	0.0148569
720.950	0.0148594
721.028	0.0146810
721.106	0.0148466
721.184	0.0148534
721.262	0.0147646
721.340	0.0147832
721.418	0.0147962
721.496	0.0147206
721.575	0.0147819
721.653	0.0147839
721.731	0.0148354
721.809	0.0149121
721.887	0.0149342
721.965	0.0148067
722.043	0.0148206
722.121	0.0148242
722.200	0.0147636
722.278	0.0147794
722.356	0.0146130
722.434	0.0145895
722.512	0.0145932
722.590	0.0145260
722.668	0.0145036
722.746	0.0146900
722.825	0.0146507
722.903	0.0146798
722.981	0.0147343
723.059	0.0148081
723.137	0.0145963
723.215	0.0147510
723.293	0.0148716
723.371	0.0148552
723.450	0.0149210
723.528	0.0149608
723.606	0.0147678
723.684	0.0147469
723.762	0.0148847
723.840	0.0147390
723.918	0.0148026
723.996	0.0147518
724.075	0.0148134
724.153	0.0148732
724.231	0.0148133
724.309	0.0149660
724.387	0.0149024
724.465	0.0148448
724.543	0.0147858
724.621	0.0148373
724.700	0.0148195
724.778	0.0147333
724.856	0.0147732
724.934	0.0147881
725.012	0.0148435
725.090	0.0148866
725.168	0.0147339
725.246	0.0148319
725.325	0.0148307
725.403	0.0147569
725.481	0.0145711
725.559	0.0145466
725.637	0.0146508
725.715	0.0146976
725.793	0.0146931
725.871	0.0147637
725.950	0.0147385
726.028	0.0147465
726.106	0.0146781
726.184	0.0147383
726.262	0.0146777
726.340	0.0147283
726.418	0.0147372
726.496	0.0148130
726.575	0.0147820
726.653	0.0146861
726.731	0.0146850
726.809	0.0147952
726.887	0.0148183
726.965	0.0147990
727.043	0.0147810
727.121	0.0146838
727.200	0.0148768
727.278	0.0145409
727.356	0.0146239
727.434	0.0146391
727.512	0.0146897
727.590	0.0146492
727.668	0.0145988
727.746	0.0145550
727.825	0.0147166
727.903	0.0147064
727.981	0.0145702
728.059	0.0146890
728.137	0.0146951
728.215	0.0147272
728.293	0.0147753
728.371	0.0147848
728.450	0.0146921
728.528	0.0146745
728.606	0.0148063
728.684	0.0147034
728.762	0.0146772
728.840	0.0147726
728.918	0.0147977
728.996	0.0147914
729.075	0.0147410
729.153	0.0147941
729.231	0.0148381
729.309	0.0147364
729.387	0.0148367
729.465	0.0147540
729.543	0.0149467
729.621	0.0147512
729.700	0.0147972
729.778	0.0148235
729.856	0.0148635
729.934	0.0149249
730.012	0.0148844
730.090	0.0149118
730.168	0.0149778
730.246	0.0148257
730.325	0.0149763
730.403	0.0149597
730.481	0.0147646
730.559	0.0147793
730.637	0.0148155
730.715	0.0148173
730.793	0.0148327
730.871	0.0148328
730.950	0.0148612
731.028	0.0146688
731.106	0.0146926
731.184	0.0147479
731.262	0.0146946
731.340	0.0147598
731.418	0.0148316
731.496	0.0148409
731.575	0.0149410
731.653	0.0148308
731.731	0.0147954
731.809	0.0148283
731.887	0.0146683
731.965	0.0147487
732.043	0.0148508
732.121	0.0147794
732.200	0.0147000
732.278	0.0146864
732.356	0.0146831
732.434	0.0148344
732.512	0.0146328
732.590	0.0147560
732.668	0.0145219
732.746	0.0146059
732.825	0.0146377
732.903	0.0146579
732.981	0.0146820
733.059	0.0145834
733.137	0.0146003
733.215	0.0145844
733.293	0.0148852
733.371	0.0146343
733.450	0.0146937
733.528	0.0146617
733.606	0.0146591
733.684	0.0146610
733.762	0.0146552
733.840	0.0146172
733.918	0.0145966
733.996	0.0147431
734.075	0.0146368
734.153	0.0146136
734.231	0.0146836
734.309	0.0147815
734.387	0.0147681
734.465	0.0146243
734.543	0.0147693
734.621	0.0147706
734.700	0.0147331
734.778	0.0148251
734.856	0.0147918
734.934	0.0149027
735.012	0.0149316
735.090	0.0148634
735.168	0.0147634
735.246	0.0149127
735.325	0.0148317
735.403	0.0150449
735.481	0.0148405
735.559	0.0148637
735.637	0.0149483
735.715	0.0148582
735.793	0.0149485
735.871	0.0148932
735.950	0.0148999
736.028	0.0147261
736.106	0.0147987
736.184	0.0150076
736.262	0.0148936
736.340	0.0147267
736.418	0.0149235
736.496	0.0148986
736.575	0.0149180
736.653	0.0148579
736.731	0.0148126
736.809	0.0147627
736.887	0.0147639
736.965	0.0147124
737.043	0.0147555
737.121	0.0148289
737.200	0.0148148
737.278	0.0147012
737.356	0.0146560
737.434	0.0147614
737.512	0.0147435
737.590	0.0146862
737.668	0.0147081
737.746	0.0146522
737.825	0.0146510
737.903	0.0147218
737.981	0.0146211
738.059	0.0146986
738.137	0.0146326
738.215	0.0147511
738.293	0.0148456
738.371	0.0148693
738.450	0.0148531
738.528	0.0146717
738.606	0.0145204
738.684	0.0145485
738.762	0.0146839
738.840	0.0147235
738.918	0.0144673
738.996	0.0145831
739.075	0.0146030
739.153	0.0145151
739.231	0.0145541
739.309	0.0146522
739.387	0.0147385
739.465	0.0146988
739.543	0.0147131
739.621	0.0146089
739.700	0.0146988
739.778	0.0145860
739.856	0.0148386
739.934	0.0146779
740.012	0.0147072
740.090	0.0147205
740.168	0.0148377
740.246	0.0147845
740.325	0.0148600
740.403	0.0147809
740.481	0.0147358
740.559	0.0148039
740.637	0.0149171
740.715	0.0147939
740.793	0.0148389
740.871	0.0148074
740.950	0.0147323
741.028	0.0146420
741.106	0.0147186
741.184	0.0147772
741.262	0.0147872
741.340	0.0146844
741.418	0.0147582
741.496	0.0146735
741.575	0.0146247
741.653	0.0146857
741.731	0.0146474
741.809	0.0147115
741.887	0.0145265
741.965	0.0146497
742.043	0.0147256
742.121	0.0147257
742.200	0.0146716
742.278	0.0146444
742.356	0.0148204
742.434	0.0147618
742.512	0.0147395
742.590	0.0147566
742.668	0.0148502
742.746	0.0147860
742.825	0.0148203
742.903	0.0146600
742.981	0.0146903
743.059	0.0146490
743.137	0.0147052
743.215	0.0146825
743.293	0.0147516
743.371	0.0146620
743.450	0.0148394
743.528	0.0147552
743.606	0.0146702
743.684	0.0145762
743.762	0.0147366
743.840	0.0145850
743.918	0.0145460
743.996	0.0145546
744.075	0.0146471
744.153	0.0145415
744.231	0.0146749
744.309	0.0145451
744.387	0.0146110
744.465	0.0146749
744.543	0.0146833
744.621	0.0146661
744.700	0.0147761
744.778	0.0145544
744.856	0.0147411
744.934	0.0147727
745.012	0.0146786
745.090	0.0147738
745.168	0.0147280
745.246	0.0148717
745.325	0.0147614
745.403	0.0147618
745.481	0.0144407
745.559	0.0147288
745.637	0.0147729
745.715	0.0147437
745.793	0.0148172
745.871	0.0146552
745.950	0.0146670
746.028	0.0147775
746.106	0.0147221
746.184	0.0148113
746.262	0.0147835
746.340	0.0148145
746.418	0.0147575
746.496	0.0148142
746.575	0.0149078
746.653	0.0147916
746.731	0.0147266
746.809	0.0146967
746.887	0.0147722
746.965	0.0148049
747.043	0.0148489
747.121	0.0148125
747.200	0.0148141
747.278	0.0148141
747.356	0.0149103
747.434	0.0149289
747.512	0.0147661
747.590	0.0147035
747.668	0.0147892
747.746	0.0147462
747.825	0.0148381
747.903	0.0147307
747.981	0.0146222
748.059	0.0149128
748.137	0.0148128
748.215	0.0146069
748.293	0.0146767
748.371	0.0148537
748.450	0.0147588
748.528	0.0148132
748.606	0.0148996
748.684	0.0148751
748.762	0.0147395
748.840	0.0148162
748.918	0.0149160
748.996	0.0149223
749.075	0.0148508
749.153	0.0149055
749.231	0.0149403
749.309	0.0149305
749.387	0.0149921
749.465	0.0149426
749.543	0.0148345
749.621	0.0150137
749.700	0.0149374
749.778	0.0148392
749.856	0.0147327
749.934	0.0148877
750.012	0.0149039
750.090	0.0148432
750.168	0.0147199
750.246	0.0148963
750.325	0.0148778
750.403	0.0148451
750.481	0.0148273
750.559	0.0149806
750.637	0.0148437
750.715	0.0147914
750.793	0.0148138
750.871	0.0149086
750.950	0.0148474
751.028	0.0147858
751.106	0.0148643
751.184	0.0148177
751.262	0.0147344
751.340	0.0147238
751.418	0.0147928
751.496	0.0146631
751.575	0.0146855
751.653	0.0146590
751.731	0.0147288
751.809	0.0146460
751.887	0.0147430
751.965	0.0145442
752.043	0.0145350
752.121	0.0147325
752.200	0.0147530
752.278	0.0147793
752.356	0.0148824
752.434	0.0147581
752.512	0.0147399
752.590	0.0147697
752.668	0.0145692
752.746	0.0148369
752.825	0.0148832
752.903	0.0147655
752.981	0.0146345
753.059	0.0147450
753.137	0.0146841
753.215	0.0146713
753.293	0.0147716
753.371	0.0146703
753.450	0.0147003
753.528	0.0147771
753.606	0.0146688
753.684	0.0147330
753.762	0.0146787
753.840	0.0147365
753.918	0.0146152
753.996	0.0146216
754.075	0.0146734
754.153	0.0147379
754.231	0.0147082
754.309	0.0147891
754.387	0.0147130
754.465	0.0144924
754.543	0.0147213
754.621	0.0147839
754.700	0.0145618
754.778	0.0147381
754.856	0.0147045
754.934	0.0145464
755.012	0.0147149
755.090	0.0146329
755.168	0.0146297
755.246	0.0147173
755.325	0.0146382
755.403	0.0145981
755.481	0.0146185
755.559	0.0146481
755.637	0.0147021
755.715	0.0146355
755.793	0.0145818
755.871	0.0145359
755.950	0.0146992
756.028	0.0146058
756.106	0.0145877
756.184	0.0146036
756.262	0.0147321
756.340	0.0146671
756.418	0.0145197
756.496	0.0145743
756.575	0.0147002
756.653	0.0147276
756.731	0.0148093
756.809	0.0148125
756.887	0.0146482
756.965	0.0147442
757.043	0.0147471
757.121	0.0146961
757.200	0.0146664
757.278	0.0148814
757.356	0.0146775
757.434	0.0147439
757.512	0.0148511
757.590	0.0147932
757.668	0.0148032
757.746	0.0147702
757.825	0.0147453
757.903	0.0146503
757.981	0.0146677
758.059	0.0148351
758.137	0.0149017
758.215	0.0149064
758.293	0.0149621
758.371	0.0147926
758.450	0.0148114
758.528	0.0147775
758.606	0.0148479
758.684	0.0149876
758.762	0.0148629
758.840	0.0148327
758.918	0.0149683
758.996	0.0148184
759.075	0.0147966
759.153	0.0147430
759.231	0.0148714
759.309	0.0147654
759.387	0.0148338
759.465	0.0147327
759.543	0.0147353
759.621	0.0150474
759.700	0.0146893
759.778	0.0147537
759.856	0.0148726
759.934	0.0148779
760.012	0.0145917
760.090	0.0148154
760.168	0.0149203
760.246	0.0148151
760.325	0.0147057
760.403	0.0149088
760.481	0.0147954
760.559	0.0147885
760.637	0.0147750
760.715	0.0148727
760.793	0.0148470
760.871	0.0146951
760.950	0.0147702
761.028	0.0147787
761.106	0.0147971
761.184	0.0147192
761.262	0.0147357
761.340	0.0147888
761.418	0.0146824
761.496	0.0146111
761.575	0.0146456
761.653	0.0146951
761.731	0.0147974
761.809	0.0146024
761.887	0.0146716
761.965	0.0146062
762.043	0.0147901
762.121	0.0147723
762.200	0.0146482
762.278	0.0146323
762.356	0.0149158
762.434	0.0146725
762.512	0.0147086
762.590	0.0148479
762.668	0.0148420
762.746	0.0147482
762.825	0.0148795
762.903	0.0147767
762.981	0.0148584
763.059	0.0148217
763.137	0.0149086
763.215	0.0149281
763.293	0.0148547
763.371	0.0149934
763.450	0.0150510
763.528	0.0149260
763.606	0.0147550
763.684	0.0149375
763.762	0.0147163
763.840	0.0148912
763.918	0.0148909
763.996	0.0147992
764.075	0.0147656
764.153	0.0148968
764.231	0.0149370
764.309	0.0147973
764.387	0.0147541
764.465	0.0147913
764.543	0.0148692
764.621	0.0148758
764.700	0.0148253
