05/04/2022	21:32:18	Ver.	4.1	UNKNOWN
Optical Delay	678.996401	Delta X		0.078125	Sweeps	1	Scan Rate	0/0
Coordinates	Axis 1	NaN	Axis 2	NaN	Axis 3	NaN	Axis 4	NaN	Axis 5	NaN	Axis 6	0.000000
TX Power	0.000000	RX Power	0.000000

678.996	0.0145330
679.075	0.0145523
679.153	0.0146603
679.231	0.0146429
679.309	0.0144632
679.387	0.0146649
679.465	0.0146049
679.543	0.0145092
679.621	0.0146017
679.700	0.0146166
679.778	0.0145826
679.856	0.0146377
679.934	0.0145757
680.012	0.0145580
680.090	0.0145442
680.168	0.0146081
680.246	0.0145305
680.325	0.0145511
680.403	0.0144390
680.481	0.0143895
680.559	0.0144984
680.637	0.0144908
680.715	0.0145320
680.793	0.0144491
680.871	0.0144568
680.950	0.0145691
681.028	0.0146054
681.106	0.0145726
681.184	0.0147145
681.262	0.0145857
681.340	0.0145134
681.418	0.0145779
681.496	0.0145885
681.575	0.0144923
681.653	0.0145815
681.731	0.0145652
681.809	0.0144851
681.887	0.0145753
681.965	0.0146303
682.043	0.0146077
682.121	0.0146324
682.200	0.0144152
682.278	0.0144798
682.356	0.0144202
682.434	0.0144521
682.512	0.0144481
682.590	0.0145426
682.668	0.0146424
682.746	0.0146014
682.825	0.0144218
682.903	0.0145515
682.981	0.0146571
683.059	0.0147115
683.137	0.0146891
683.215	0.0146228
683.293	0.0146716
683.371	0.0145313
683.450	0.0146195
683.528	0.0145307
683.606	0.0145157
683.684	0.0145735
683.762	0.0146380
683.840	0.0147486
683.918	0.0145567
683.996	0.0146311
684.075	0.0145407
684.153	0.0145326
684.231	0.0144264
684.309	0.0144556
684.387	0.0144550
684.465	0.0144336
684.543	0.0145366
684.621	0.0145585
684.700	0.0144574
684.778	0.0144949
684.856	0.0145449
684.934	0.0146750
685.012	0.0147206
685.090	0.0146059
685.168	0.0146159
685.246	0.0147792
685.325	0.0146285
685.403	0.0146055
685.481	0.0148550
685.559	0.0147905
685.637	0.0146404
685.715	0.0146232
685.793	0.0146578
685.871	0.0146375
685.950	0.0147154
686.028	0.0145818
686.106	0.0144639
686.184	0.0145453
686.262	0.0144674
686.340	0.0143971
686.418	0.0143052
686.496	0.0142520
686.575	0.0143517
686.653	0.0143256
686.731	0.0142303
686.809	0.0143570
686.887	0.0143420
686.965	0.0145954
687.043	0.0144433
687.121	0.0144975
687.200	0.0144760
687.278	0.0145773
687.356	0.0146420
687.434	0.0147141
687.512	0.0146850
687.590	0.0147105
687.668	0.0148289
687.746	0.0147992
687.825	0.0148927
687.903	0.0149976
687.981	0.0149542
688.059	0.0150454
688.137	0.0148747
688.215	0.0148727
688.293	0.0148091
688.371	0.0147807
688.450	0.0145097
688.528	0.0144870
688.606	0.0144916
688.684	0.0142272
688.762	0.0141659
688.840	0.0142485
688.918	0.0142042
688.996	0.0141989
689.075	0.0140947
689.153	0.0139627
689.231	0.0141935
689.309	0.0142339
689.387	0.0142194
689.465	0.0142492
689.543	0.0143027
689.621	0.0144470
689.700	0.0145596
689.778	0.0147672
689.856	0.0148850
689.934	0.0148920
690.012	0.0149024
690.090	0.0149405
690.168	0.0149480
690.246	0.0149546
690.325	0.0147469
690.403	0.0150111
690.481	0.0148462
690.559	0.0146775
690.637	0.0147530
690.715	0.0147144
690.793	0.0145901
690.871	0.0145950
690.950	0.0147404
691.028	0.0147543
691.106	0.0147323
691.184	0.0145927
691.262	0.0146927
691.340	0.0146254
691.418	0.0146027
691.496	0.0145525
691.575	0.0144646
691.653	0.0144550
691.731	0.0144207
691.809	0.0143459
691.887	0.0142997
691.965	0.0142464
692.043	0.0143338
692.121	0.0141109
692.200	0.0141589
692.278	0.0141975
692.356	0.0140961
692.434	0.0142133
692.512	0.0142587
692.590	0.0141615
692.668	0.0143575
692.746	0.0145901
692.825	0.0145525
692.903	0.0148042
692.981	0.0148033
693.059	0.0147491
693.137	0.0150459
693.215	0.0150267
693.293	0.0150317
693.371	0.0150739
693.450	0.0149752
693.528	0.0150826
693.606	0.0149728
693.684	0.0147871
693.762	0.0148192
693.840	0.0149515
693.918	0.0150025
693.996	0.0148228
694.075	0.0146866
694.153	0.0148671
694.231	0.0146950
694.309	0.0146709
694.387	0.0146802
694.465	0.0144891
694.543	0.0144892
694.621	0.0142757
694.700	0.0143146
694.778	0.0142675
694.856	0.0141933
694.934	0.0143276
695.012	0.0143356
695.090	0.0141992
695.168	0.0142846
695.246	0.0143544
695.325	0.0142381
695.403	0.0142632
695.481	0.0143640
695.559	0.0144295
695.637	0.0142374
695.715	0.0144136
695.793	0.0144304
695.871	0.0146268
695.950	0.0145650
696.028	0.0147752
696.106	0.0148415
696.184	0.0150484
696.262	0.0152053
696.340	0.0152998
696.418	0.0152384
696.496	0.0152673
696.575	0.0152264
696.653	0.0150003
696.731	0.0151118
696.809	0.0148866
696.887	0.0147369
696.965	0.0147842
697.043	0.0146924
697.121	0.0146431
697.200	0.0145229
697.278	0.0145171
697.356	0.0144869
697.434	0.0143863
697.512	0.0143282
697.590	0.0143906
697.668	0.0143398
697.746	0.0140430
697.825	0.0142468
697.903	0.0142946
697.981	0.0143270
698.059	0.0143884
698.137	0.0142749
698.215	0.0143957
698.293	0.0144415
698.371	0.0144443
698.450	0.0144942
698.528	0.0145380
698.606	0.0145452
698.684	0.0143141
698.762	0.0144190
698.840	0.0143329
698.918	0.0143107
698.996	0.0143381
699.075	0.0143907
699.153	0.0143699
699.231	0.0143346
699.309	0.0145148
699.387	0.0146288
699.465	0.0147216
699.543	0.0146529
699.621	0.0148946
699.700	0.0149711
699.778	0.0149726
699.856	0.0150623
699.934	0.0150687
700.012	0.0149438
700.090	0.0149159
700.168	0.0149471
700.246	0.0149294
700.325	0.0148285
700.403	0.0146920
700.481	0.0145992
700.559	0.0144745
700.637	0.0144953
700.715	0.0144576
700.793	0.0143412
700.871	0.0141968
700.950	0.0141720
701.028	0.0142905
701.106	0.0141227
701.184	0.0141468
701.262	0.0142560
701.340	0.0142990
701.418	0.0143472
701.496	0.0144264
701.575	0.0145898
701.653	0.0147427
701.731	0.0146248
701.809	0.0148769
701.887	0.0148011
701.965	0.0147717
702.043	0.0150169
702.121	0.0146648
702.200	0.0146829
702.278	0.0147627
702.356	0.0146105
702.434	0.0146180
702.512	0.0146988
702.590	0.0147079
702.668	0.0146864
702.746	0.0145885
702.825	0.0146278
702.903	0.0146551
702.981	0.0147513
703.059	0.0147717
703.137	0.0147807
703.215	0.0147625
703.293	0.0147446
703.371	0.0146082
703.450	0.0145422
703.528	0.0146084
703.606	0.0147130
703.684	0.0145508
703.762	0.0145075
703.840	0.0146643
703.918	0.0144812
703.996	0.0143598
704.075	0.0144671
704.153	0.0143594
704.231	0.0142670
704.309	0.0144421
704.387	0.0143042
704.465	0.0142252
704.543	0.0144324
704.621	0.0144788
704.700	0.0145490
704.778	0.0145443
704.856	0.0146521
704.934	0.0147038
705.012	0.0146720
705.090	0.0145821
705.168	0.0146358
705.246	0.0146295
705.325	0.0145377
705.403	0.0144604
705.481	0.0145286
705.559	0.0145313
705.637	0.0144402
705.715	0.0145335
705.793	0.0145541
705.871	0.0144765
705.950	0.0145706
706.028	0.0146456
706.106	0.0148084
706.184	0.0147372
706.262	0.0147902
706.340	0.0150655
706.418	0.0149658
706.496	0.0149213
706.575	0.0147839
706.653	0.0146871
706.731	0.0147311
706.809	0.0146079
706.887	0.0145013
706.965	0.0144510
707.043	0.0144990
707.121	0.0144626
707.200	0.0143932
707.278	0.0143787
707.356	0.0142772
707.434	0.0143588
707.512	0.0145227
707.590	0.0144714
707.668	0.0145536
707.746	0.0145137
707.825	0.0146127
707.903	0.0146380
707.981	0.0144846
708.059	0.0146724
708.137	0.0148114
708.215	0.0148208
708.293	0.0145594
708.371	0.0147157
708.450	0.0145847
708.528	0.0146122
708.606	0.0146495
708.684	0.0144979
708.762	0.0145357
708.840	0.0145161
708.918	0.0146840
708.996	0.0144786
709.075	0.0146719
709.153	0.0146888
709.231	0.0146151
709.309	0.0147345
709.387	0.0146793
709.465	0.0147209
709.543	0.0146065
709.621	0.0146665
709.700	0.0145267
709.778	0.0143616
709.856	0.0144267
709.934	0.0145927
710.012	0.0143862
710.090	0.0144026
710.168	0.0144831
710.246	0.0145621
710.325	0.0144250
710.403	0.0145064
710.481	0.0145945
710.559	0.0145047
710.637	0.0144529
710.715	0.0146849
710.793	0.0148354
710.871	0.0147404
710.950	0.0146603
711.028	0.0147728
711.106	0.0148396
711.184	0.0149002
711.262	0.0148180
711.340	0.0147288
711.418	0.0147713
711.496	0.0146696
711.575	0.0145553
711.653	0.0144167
711.731	0.0143935
711.809	0.0144274
711.887	0.0144543
711.965	0.0145080
712.043	0.0144328
712.121	0.0145575
712.200	0.0146491
712.278	0.0146263
712.356	0.0146623
712.434	0.0147765
712.512	0.0147218
712.590	0.0146382
712.668	0.0145799
712.746	0.0144419
712.825	0.0144331
712.903	0.0146046
712.981	0.0145646
713.059	0.0144765
713.137	0.0143926
713.215	0.0145268
713.293	0.0144726
713.371	0.0144508
713.450	0.0145674
713.528	0.0145203
713.606	0.0144313
713.684	0.0145311
713.762	0.0145837
713.840	0.0146455
713.918	0.0147550
713.996	0.0148024
714.075	0.0146586
714.153	0.0146696
714.231	0.0146706
714.309	0.0146976
714.387	0.0145890
714.465	0.0146444
714.543	0.0144901
714.621	0.0145952
714.700	0.0145278
714.778	0.0145908
714.856	0.0146138
714.934	0.0146072
715.012	0.0146789
715.090	0.0145052
715.168	0.0144952
715.246	0.0144933
715.325	0.0146420
715.403	0.0146784
715.481	0.0145726
715.559	0.0145257
715.637	0.0146178
715.715	0.0145151
715.793	0.0144666
715.871	0.0143911
715.950	0.0143742
716.028	0.0145081
716.106	0.0143681
716.184	0.0143877
716.262	0.0145219
716.340	0.0144718
716.418	0.0144317
716.496	0.0144095
716.575	0.0145280
716.653	0.0144170
716.731	0.0145782
716.809	0.0145137
716.887	0.0145327
716.965	0.0146412
717.043	0.0145811
717.121	0.0145325
717.200	0.0146783
717.278	0.0146432
717.356	0.0146207
717.434	0.0146241
717.512	0.0147640
717.590	0.0146603
717.668	0.0146987
717.746	0.0145893
717.825	0.0146473
717.903	0.0146727
717.981	0.0144711
718.059	0.0145186
718.137	0.0144177
718.215	0.0147208
718.293	0.0145661
718.371	0.0146085
718.450	0.0147051
718.528	0.0146513
718.606	0.0148170
718.684	0.0147531
718.762	0.0147099
718.840	0.0147550
718.918	0.0149203
718.996	0.0147991
719.075	0.0147901
719.153	0.0147678
719.231	0.0145897
719.309	0.0146854
719.387	0.0148050
719.465	0.0147437
719.543	0.0146290
719.621	0.0145526
719.700	0.0145533
719.778	0.0144611
719.856	0.0145152
719.934	0.0144392
720.012	0.0145586
720.090	0.0146394
720.168	0.0145728
720.246	0.0145542
720.325	0.0145292
720.403	0.0144721
720.481	0.0145200
720.559	0.0144831
720.637	0.0146259
720.715	0.0144781
720.793	0.0147137
720.871	0.0145112
720.950	0.0144128
721.028	0.0145034
721.106	0.0144241
721.184	0.0144625
721.262	0.0145782
721.340	0.0147134
721.418	0.0144283
721.496	0.0145125
721.575	0.0147041
721.653	0.0146584
721.731	0.0145216
721.809	0.0145934
721.887	0.0146678
721.965	0.0147607
722.043	0.0145409
722.121	0.0146388
722.200	0.0147001
722.278	0.0147095
722.356	0.0148406
722.434	0.0147659
722.512	0.0148328
722.590	0.0147707
722.668	0.0146613
722.746	0.0148286
722.825	0.0148855
722.903	0.0147843
722.981	0.0144535
723.059	0.0146634
723.137	0.0147375
723.215	0.0146088
723.293	0.0144954
723.371	0.0144213
723.450	0.0144866
723.528	0.0144041
723.606	0.0144390
723.684	0.0143842
723.762	0.0144193
723.840	0.0143224
723.918	0.0143759
723.996	0.0144662
724.075	0.0144984
724.153	0.0145396
724.231	0.0146001
724.309	0.0146035
724.387	0.0144452
724.465	0.0146902
724.543	0.0147414
724.621	0.0145252
724.700	0.0146033
724.778	0.0146729
724.856	0.0147822
724.934	0.0147649
725.012	0.0145300
725.090	0.0148547
725.168	0.0148162
725.246	0.0146067
725.325	0.0146591
725.403	0.0147703
725.481	0.0146442
725.559	0.0147121
725.637	0.0147192
725.715	0.0146242
725.793	0.0146430
725.871	0.0146240
725.950	0.0145852
726.028	0.0146332
726.106	0.0145993
726.184	0.0146143
726.262	0.0146247
726.340	0.0145847
726.418	0.0144342
726.496	0.0144908
726.575	0.0145393
726.653	0.0144551
726.731	0.0143828
726.809	0.0145033
726.887	0.0144968
726.965	0.0144936
727.043	0.0145835
727.121	0.0146067
727.200	0.0145765
727.278	0.0146056
727.356	0.0144882
727.434	0.0144256
727.512	0.0144896
727.590	0.0146510
727.668	0.0145300
727.746	0.0145150
727.825	0.0144224
727.903	0.0144708
727.981	0.0145852
728.059	0.0145120
728.137	0.0145312
728.215	0.0145336
728.293	0.0145179
728.371	0.0146400
728.450	0.0147067
728.528	0.0145763
728.606	0.0145763
728.684	0.0146281
728.762	0.0145750
728.840	0.0147025
728.918	0.0145931
728.996	0.0146432
729.075	0.0148942
729.153	0.0147943
729.231	0.0146493
729.309	0.0146864
729.387	0.0146635
729.465	0.0146814
729.543	0.0146935
729.621	0.0145644
729.700	0.0148048
729.778	0.0146054
729.856	0.0146614
729.934	0.0145065
730.012	0.0144176
730.090	0.0145306
730.168	0.0144372
730.246	0.0144899
730.325	0.0143998
730.403	0.0145856
730.481	0.0144431
730.559	0.0145583
730.637	0.0145987
730.715	0.0143375
730.793	0.0144595
730.871	0.0145173
730.950	0.0145683
731.028	0.0146030
731.106	0.0144497
731.184	0.0143684
731.262	0.0143668
731.340	0.0145364
731.418	0.0144340
731.496	0.0144428
731.575	0.0143821
731.653	0.0144831
731.731	0.0145574
731.809	0.0146200
731.887	0.0146218
731.965	0.0145284
732.043	0.0145356
732.121	0.0147161
732.200	0.0147309
732.278	0.0148289
732.356	0.0146546
732.434	0.0147729
732.512	0.0146976
732.590	0.0148280
732.668	0.0147313
732.746	0.0146899
732.825	0.0146866
732.903	0.0146554
732.981	0.0147604
733.059	0.0145916
733.137	0.0146793
733.215	0.0145890
733.293	0.0143745
733.371	0.0145940
733.450	0.0144795
733.528	0.0145503
733.606	0.0143888
733.684	0.0143279
733.762	0.0143729
733.840	0.0143221
733.918	0.0143636
733.996	0.0143189
734.075	0.0143909
734.153	0.0143398
734.231	0.0141682
734.309	0.0143892
734.387	0.0144401
734.465	0.0143908
734.543	0.0144176
734.621	0.0145385
734.700	0.0145612
734.778	0.0145036
734.856	0.0145834
734.934	0.0145869
735.012	0.0147019
735.090	0.0146522
735.168	0.0147382
735.246	0.0148147
735.325	0.0146535
735.403	0.0146000
735.481	0.0148112
735.559	0.0147330
735.637	0.0146684
735.715	0.0146677
735.793	0.0146358
735.871	0.0146419
735.950	0.0147506
736.028	0.0147045
736.106	0.0145091
736.184	0.0146260
736.262	0.0145683
736.340	0.0144955
736.418	0.0143449
736.496	0.0145293
736.575	0.0145443
736.653	0.0144531
736.731	0.0143689
736.809	0.0144195
736.887	0.0143774
736.965	0.0144036
737.043	0.0146414
737.121	0.0144511
737.200	0.0144416
737.278	0.0144506
737.356	0.0143671
737.434	0.0145099
737.512	0.0145812
737.590	0.0146008
737.668	0.0146189
737.746	0.0145435
737.825	0.0146459
737.903	0.0148729
737.981	0.0147141
738.059	0.0145108
738.137	0.0145609
738.215	0.0146650
738.293	0.0145688
738.371	0.0147414
738.450	0.0147092
738.528	0.0144677
738.606	0.0145118
738.684	0.0146350
738.762	0.0145827
738.840	0.0145421
738.918	0.0146760
738.996	0.0144961
739.075	0.0144015
739.153	0.0146492
739.231	0.0146091
739.309	0.0146452
739.387	0.0145514
739.465	0.0144748
739.543	0.0147031
739.621	0.0146980
739.700	0.0144774
739.778	0.0146571
739.856	0.0146284
739.934	0.0145667
740.012	0.0145833
740.090	0.0144838
740.168	0.0146342
740.246	0.0146575
740.325	0.0145928
740.403	0.0146044
740.481	0.0147545
740.559	0.0146506
740.637	0.0145358
740.715	0.0146100
740.793	0.0145721
740.871	0.0145948
740.950	0.0146841
741.028	0.0145831
741.106	0.0145155
741.184	0.0144897
741.262	0.0145848
741.340	0.0145837
741.418	0.0145844
741.496	0.0144571
741.575	0.0146514
741.653	0.0146696
741.731	0.0145934
741.809	0.0146085
741.887	0.0146593
741.965	0.0145927
742.043	0.0148010
742.121	0.0146473
742.200	0.0148569
742.278	0.0147335
742.356	0.0146889
742.434	0.0149162
742.512	0.0147075
742.590	0.0146742
742.668	0.0147086
742.746	0.0146117
742.825	0.0146741
742.903	0.0146797
742.981	0.0145504
743.059	0.0145489
743.137	0.0146819
743.215	0.0145019
743.293	0.0145511
743.371	0.0145883
743.450	0.0144765
743.528	0.0143930
743.606	0.0143964
743.684	0.0144727
743.762	0.0144077
743.840	0.0143197
743.918	0.0143585
743.996	0.0143008
744.075	0.0143175
744.153	0.0142200
744.231	0.0144255
744.309	0.0145462
744.387	0.0143934
744.465	0.0145596
744.543	0.0145001
744.621	0.0146234
744.700	0.0145911
744.778	0.0147141
744.856	0.0146693
744.934	0.0148215
745.012	0.0148063
745.090	0.0147266
745.168	0.0146609
745.246	0.0147286
745.325	0.0149404
745.403	0.0147726
745.481	0.0147369
745.559	0.0147278
745.637	0.0148260
745.715	0.0146653
745.793	0.0146410
745.871	0.0146787
745.950	0.0145071
746.028	0.0146141
746.106	0.0146501
746.184	0.0145497
746.262	0.0144876
746.340	0.0144070
746.418	0.0144133
746.496	0.0144608
746.575	0.0145272
746.653	0.0143071
746.731	0.0143409
746.809	0.0144301
746.887	0.0145067
746.965	0.0143618
747.043	0.0144653
747.121	0.0145194
747.200	0.0144194
747.278	0.0144630
747.356	0.0146188
747.434	0.0146244
747.512	0.0146889
747.590	0.0145827
747.668	0.0146559
747.746	0.0144535
747.825	0.0147295
747.903	0.0146422
747.981	0.0147188
748.059	0.0146909
748.137	0.0145872
748.215	0.0145518
748.293	0.0145635
748.371	0.0146404
748.450	0.0145879
748.528	0.0145249
748.606	0.0144490
748.684	0.0146754
748.762	0.0147273
748.840	0.0146970
748.918	0.0144786
748.996	0.0143842
749.075	0.0145674
749.153	0.0145744
749.231	0.0146574
749.309	0.0146614
749.387	0.0144883
749.465	0.0145460
749.543	0.0147011
749.621	0.0146500
749.700	0.0147094
749.778	0.0146544
749.856	0.0145853
749.934	0.0145925
750.012	0.0147161
750.090	0.0147041
750.168	0.0146490
750.246	0.0147747
750.325	0.0145866
750.403	0.0145565
750.481	0.0146561
750.559	0.0146143
750.637	0.0145706
750.715	0.0145687
750.793	0.0144096
750.871	0.0143680
750.950	0.0145345
751.028	0.0145255
751.106	0.0145077
751.184	0.0144995
751.262	0.0144633
751.340	0.0144659
751.418	0.0144865
751.496	0.0144912
751.575	0.0145191
751.653	0.0145461
751.731	0.0143855
751.809	0.0144163
751.887	0.0145640
751.965	0.0146393
752.043	0.0144410
752.121	0.0145161
752.200	0.0146227
752.278	0.0145850
752.356	0.0145808
752.434	0.0147116
752.512	0.0147307
752.590	0.0147569
752.668	0.0147174
752.746	0.0146796
752.825	0.0148138
752.903	0.0146597
752.981	0.0146873
753.059	0.0147031
753.137	0.0147873
753.215	0.0147270
753.293	0.0147359
753.371	0.0146603
753.450	0.0147964
753.528	0.0148165
753.606	0.0145921
753.684	0.0145696
753.762	0.0146144
753.840	0.0144988
753.918	0.0145206
753.996	0.0146586
754.075	0.0145407
754.153	0.0144737
754.231	0.0145167
754.309	0.0144569
754.387	0.0145995
754.465	0.0145953
754.543	0.0145503
754.621	0.0145861
754.700	0.0147224
754.778	0.0145982
754.856	0.0145649
754.934	0.0145509
755.012	0.0144926
755.090	0.0145750
755.168	0.0145781
755.246	0.0146442
755.325	0.0145377
755.403	0.0146565
755.481	0.0146229
755.559	0.0147086
755.637	0.0145670
755.715	0.0146766
755.793	0.0147631
755.871	0.0146832
755.950	0.0146194
756.028	0.0146330
756.106	0.0145317
756.184	0.0146394
756.262	0.0145717
756.340	0.0144218
756.418	0.0145058
756.496	0.0144539
756.575	0.0145993
756.653	0.0144851
756.731	0.0143645
756.809	0.0144370
756.887	0.0144375
756.965	0.0144589
757.043	0.0144167
757.121	0.0145435
757.200	0.0145805
757.278	0.0144919
757.356	0.0144951
757.434	0.0146459
757.512	0.0144479
757.590	0.0145601
757.668	0.0145392
757.746	0.0145795
757.825	0.0146104
757.903	0.0145318
757.981	0.0146622
758.059	0.0146468
758.137	0.0145914
758.215	0.0146113
758.293	0.0146124
758.371	0.0145957
758.450	0.0146817
758.528	0.0145931
758.606	0.0145083
758.684	0.0146548
758.762	0.0145454
758.840	0.0145048
758.918	0.0144847
758.996	0.0144879
759.075	0.0145118
759.153	0.0144883
759.231	0.0146307
759.309	0.0144461
759.387	0.0144238
759.465	0.0145156
759.543	0.0144323
759.621	0.0144198
759.700	0.0144698
759.778	0.0144944
759.856	0.0145461
759.934	0.0144322
760.012	0.0145173
760.090	0.0145638
760.168	0.0143898
760.246	0.0145789
760.325	0.0146328
760.403	0.0145458
760.481	0.0147335
760.559	0.0145988
760.637	0.0144208
760.715	0.0146206
760.793	0.0146356
760.871	0.0147214
760.950	0.0146449
761.028	0.0146020
761.106	0.0146779
761.184	0.0146095
761.262	0.0144902
761.340	0.0145555
761.418	0.0145112
761.496	0.0144887
761.575	0.0146394
761.653	0.0145493
761.731	0.0144323
761.809	0.0146010
761.887	0.0145529
761.965	0.0145991
762.043	0.0145519
762.121	0.0144862
762.200	0.0145671
762.278	0.0146938
762.356	0.0145636
762.434	0.0145726
762.512	0.0145159
762.590	0.0145302
762.668	0.0146646
762.746	0.0146788
762.825	0.0145647
762.903	0.0145995
762.981	0.0146654
763.059	0.0145386
763.137	0.0144622
763.215	0.0143747
763.293	0.0145448
763.371	0.0143230
763.450	0.0144571
763.528	0.0144466
763.606	0.0144234
763.684	0.0142601
763.762	0.0144289
763.840	0.0144244
763.918	0.0143668
763.996	0.0144512
764.075	0.0144699
764.153	0.0144542
764.231	0.0145792
764.309	0.0144118
764.387	0.0144688
764.465	0.0145936
764.543	0.0144653
764.621	0.0146234
764.700	0.0146295
