05/04/2022	21:32:33	Ver.	4.1	UNKNOWN
Optical Delay	678.996401	Delta X		0.078125	Sweeps	1	Scan Rate	0/0
Coordinates	Axis 1	NaN	Axis 2	NaN	Axis 3	NaN	Axis 4	NaN	Axis 5	NaN	Axis 6	0.000000
TX Power	0.000000	RX Power	0.000000

678.996	0.0142853
679.075	0.0142328
679.153	0.0142702
679.231	0.0143083
679.309	0.0141338
679.387	0.0142652
679.465	0.0142872
679.543	0.0142069
679.621	0.0142880
679.700	0.0143677
679.778	0.0142191
679.856	0.0143808
679.934	0.0143995
680.012	0.0143506
680.090	0.0142332
680.168	0.0143748
680.246	0.0143785
680.325	0.0142954
680.403	0.0142632
680.481	0.0143237
680.559	0.0143238
680.637	0.0143272
680.715	0.0142621
680.793	0.0143549
680.871	0.0142568
680.950	0.0144472
681.028	0.0144127
681.106	0.0143851
681.184	0.0144254
681.262	0.0142551
681.340	0.0143418
681.418	0.0144007
681.496	0.0142831
681.575	0.0142380
681.653	0.0143491
681.731	0.0143555
681.809	0.0142739
681.887	0.0142799
681.965	0.0142878
682.043	0.0141952
682.121	0.0142029
682.200	0.0142188
682.278	0.0142834
682.356	0.0142419
682.434	0.0142641
682.512	0.0141587
682.590	0.0144312
682.668	0.0143635
682.746	0.0142983
682.825	0.0142902
682.903	0.0142721
682.981	0.0143789
683.059	0.0144466
683.137	0.0143139
683.215	0.0142956
683.293	0.0142168
683.371	0.0143408
683.450	0.0143731
683.528	0.0143769
683.606	0.0141280
683.684	0.0142085
683.762	0.0141358
683.840	0.0142219
683.918	0.0142512
683.996	0.0141651
684.075	0.0141980
684.153	0.0142995
684.231	0.0141341
684.309	0.0141589
684.387	0.0142087
684.465	0.0141892
684.543	0.0140954
684.621	0.0142252
684.700	0.0142319
684.778	0.0142570
684.856	0.0144029
684.934	0.0143208
685.012	0.0142886
685.090	0.0142874
685.168	0.0141905
685.246	0.0143124
685.325	0.0143498
685.403	0.0144640
685.481	0.0142336
685.559	0.0143436
685.637	0.0144111
685.715	0.0141692
685.793	0.0143958
685.871	0.0142975
685.950	0.0143005
686.028	0.0142307
686.106	0.0142068
686.184	0.0142267
686.262	0.0142390
686.340	0.0142216
686.418	0.0139970
686.496	0.0140480
686.575	0.0141604
686.653	0.0141607
686.731	0.0140575
686.809	0.0141098
686.887	0.0141618
686.965	0.0142706
687.043	0.0142823
687.121	0.0141695
687.200	0.0142564
687.278	0.0142443
687.356	0.0142832
687.434	0.0143930
687.512	0.0143271
687.590	0.0144840
687.668	0.0145077
687.746	0.0146033
687.825	0.0147299
687.903	0.0146934
687.981	0.0146068
688.059	0.0145198
688.137	0.0146024
688.215	0.0144040
688.293	0.0143752
688.371	0.0142960
688.450	0.0142105
688.528	0.0140854
688.606	0.0141190
688.684	0.0139585
688.762	0.0139924
688.840	0.0140252
688.918	0.0139299
688.996	0.0139190
689.075	0.0137838
689.153	0.0139506
689.231	0.0139639
689.309	0.0138028
689.387	0.0139656
689.465	0.0141129
689.543	0.0143060
689.621	0.0142405
689.700	0.0143340
689.778	0.0144042
689.856	0.0144833
689.934	0.0145253
690.012	0.0145596
690.090	0.0145823
690.168	0.0145464
690.246	0.0144952
690.325	0.0145356
690.403	0.0146835
690.481	0.0143466
690.559	0.0143488
690.637	0.0144530
690.715	0.0145116
690.793	0.0144046
690.871	0.0143601
690.950	0.0144959
691.028	0.0143360
691.106	0.0142785
691.184	0.0143017
691.262	0.0143981
691.340	0.0142961
691.418	0.0142088
691.496	0.0141055
691.575	0.0140333
691.653	0.0140539
691.731	0.0140675
691.809	0.0139270
691.887	0.0139356
691.965	0.0138091
692.043	0.0138357
692.121	0.0138862
692.200	0.0138325
692.278	0.0138289
692.356	0.0137521
692.434	0.0138944
692.512	0.0140358
692.590	0.0140863
692.668	0.0140985
692.746	0.0141814
692.825	0.0142803
692.903	0.0143150
692.981	0.0144198
693.059	0.0146254
693.137	0.0145361
693.215	0.0145413
693.293	0.0146698
693.371	0.0146778
693.450	0.0147260
693.528	0.0145517
693.606	0.0146223
693.684	0.0144790
693.762	0.0144154
693.840	0.0144604
693.918	0.0144974
693.996	0.0143955
694.075	0.0144436
694.153	0.0143893
694.231	0.0143970
694.309	0.0143622
694.387	0.0140945
694.465	0.0140733
694.543	0.0141959
694.621	0.0140486
694.700	0.0139417
694.778	0.0138039
694.856	0.0139148
694.934	0.0139453
695.012	0.0139520
695.090	0.0140453
695.168	0.0138803
695.246	0.0139072
695.325	0.0138910
695.403	0.0140221
695.481	0.0138400
695.559	0.0138484
695.637	0.0139816
695.715	0.0141299
695.793	0.0141625
695.871	0.0142314
695.950	0.0144518
696.028	0.0145791
696.106	0.0147008
696.184	0.0147306
696.262	0.0146697
696.340	0.0148540
696.418	0.0148270
696.496	0.0148257
696.575	0.0147730
696.653	0.0145979
696.731	0.0144653
696.809	0.0146226
696.887	0.0143936
696.965	0.0142307
697.043	0.0143126
697.121	0.0142729
697.200	0.0141540
697.278	0.0140903
697.356	0.0142030
697.434	0.0141703
697.512	0.0139856
697.590	0.0140569
697.668	0.0140618
697.746	0.0140066
697.825	0.0139957
697.903	0.0139331
697.981	0.0140579
698.059	0.0140546
698.137	0.0140556
698.215	0.0141290
698.293	0.0142538
698.371	0.0142762
698.450	0.0142471
698.528	0.0140401
698.606	0.0140439
698.684	0.0141375
698.762	0.0141558
698.840	0.0141460
698.918	0.0140823
698.996	0.0139936
699.075	0.0141395
699.153	0.0142113
699.231	0.0143147
699.309	0.0142727
699.387	0.0144617
699.465	0.0143304
699.543	0.0145523
699.621	0.0144491
699.700	0.0144682
699.778	0.0147166
699.856	0.0147603
699.934	0.0147623
700.012	0.0146275
700.090	0.0146994
700.168	0.0146323
700.246	0.0145677
700.325	0.0145502
700.403	0.0143990
700.481	0.0143764
700.559	0.0142084
700.637	0.0140862
700.715	0.0139917
700.793	0.0139497
700.871	0.0138245
700.950	0.0137361
701.028	0.0138566
701.106	0.0139609
701.184	0.0140192
701.262	0.0139159
701.340	0.0140341
701.418	0.0141833
701.496	0.0142628
701.575	0.0143592
701.653	0.0143778
701.731	0.0143826
701.809	0.0144308
701.887	0.0143983
701.965	0.0144315
702.043	0.0145606
702.121	0.0143758
702.200	0.0143649
702.278	0.0143637
702.356	0.0142764
702.434	0.0142507
702.512	0.0141846
702.590	0.0141425
702.668	0.0142067
702.746	0.0141933
702.825	0.0142493
702.903	0.0144124
702.981	0.0146329
703.059	0.0144781
703.137	0.0144261
703.215	0.0145689
703.293	0.0144576
703.371	0.0144915
703.450	0.0146140
703.528	0.0144801
703.606	0.0143353
703.684	0.0143083
703.762	0.0141602
703.840	0.0139970
703.918	0.0140434
703.996	0.0140651
704.075	0.0140594
704.153	0.0139956
704.231	0.0138571
704.309	0.0140173
704.387	0.0140359
704.465	0.0140637
704.543	0.0141032
704.621	0.0141852
704.700	0.0142068
704.778	0.0142170
704.856	0.0142854
704.934	0.0143600
705.012	0.0143496
705.090	0.0143240
705.168	0.0142313
705.246	0.0143511
705.325	0.0141354
705.403	0.0140691
705.481	0.0140723
705.559	0.0139078
705.637	0.0140783
705.715	0.0139898
705.793	0.0141634
705.871	0.0142173
705.950	0.0143969
706.028	0.0144083
706.106	0.0144341
706.184	0.0146517
706.262	0.0147092
706.340	0.0146003
706.418	0.0146063
706.496	0.0145974
706.575	0.0145606
706.653	0.0145310
706.731	0.0143934
706.809	0.0141821
706.887	0.0143046
706.965	0.0141660
707.043	0.0140473
707.121	0.0141615
707.200	0.0141259
707.278	0.0141338
707.356	0.0139133
707.434	0.0140148
707.512	0.0142101
707.590	0.0143068
707.668	0.0141846
707.746	0.0141623
707.825	0.0142921
707.903	0.0143366
707.981	0.0143300
708.059	0.0142312
708.137	0.0143227
708.215	0.0142728
708.293	0.0141491
708.371	0.0141766
708.450	0.0142036
708.528	0.0141351
708.606	0.0142073
708.684	0.0142235
708.762	0.0143166
708.840	0.0143057
708.918	0.0141008
708.996	0.0144485
709.075	0.0144616
709.153	0.0144398
709.231	0.0145003
709.309	0.0143861
709.387	0.0144601
709.465	0.0144086
709.543	0.0143673
709.621	0.0144059
709.700	0.0142149
709.778	0.0141909
709.856	0.0141563
709.934	0.0141995
710.012	0.0141840
710.090	0.0141566
710.168	0.0140091
710.246	0.0138834
710.325	0.0140108
710.403	0.0140940
710.481	0.0139390
710.559	0.0140595
710.637	0.0141476
710.715	0.0141926
710.793	0.0144202
710.871	0.0143378
710.950	0.0142780
711.028	0.0143977
711.106	0.0142808
711.184	0.0142268
711.262	0.0142371
711.340	0.0142004
711.418	0.0142531
711.496	0.0141471
711.575	0.0142258
711.653	0.0140639
711.731	0.0141812
711.809	0.0142567
711.887	0.0143124
711.965	0.0141651
712.043	0.0143441
712.121	0.0142403
712.200	0.0142533
712.278	0.0141650
712.356	0.0142617
712.434	0.0144276
712.512	0.0142976
712.590	0.0143882
712.668	0.0142549
712.746	0.0142742
712.825	0.0142994
712.903	0.0142672
712.981	0.0141930
713.059	0.0142887
713.137	0.0142977
713.215	0.0140691
713.293	0.0141170
713.371	0.0141850
713.450	0.0141049
713.528	0.0141492
713.606	0.0142309
713.684	0.0142587
713.762	0.0143636
713.840	0.0142487
713.918	0.0143504
713.996	0.0145184
714.075	0.0143421
714.153	0.0142103
714.231	0.0142948
714.309	0.0143362
714.387	0.0142265
714.465	0.0142886
714.543	0.0143384
714.621	0.0143910
714.700	0.0142963
714.778	0.0143605
714.856	0.0143807
714.934	0.0142905
715.012	0.0143372
715.090	0.0142412
715.168	0.0143357
715.246	0.0143999
715.325	0.0144756
715.403	0.0142773
715.481	0.0141424
715.559	0.0142141
715.637	0.0142710
715.715	0.0142853
715.793	0.0141425
715.871	0.0142545
715.950	0.0141392
716.028	0.0140437
716.106	0.0141953
716.184	0.0142476
716.262	0.0141771
716.340	0.0141933
716.418	0.0143375
716.496	0.0142697
716.575	0.0142233
716.653	0.0143993
716.731	0.0144303
716.809	0.0144786
716.887	0.0145620
716.965	0.0144105
717.043	0.0144370
717.121	0.0143951
717.200	0.0143243
717.278	0.0143865
717.356	0.0143095
717.434	0.0143443
717.512	0.0142717
717.590	0.0141637
717.668	0.0142671
717.746	0.0141955
717.825	0.0139428
717.903	0.0139705
717.981	0.0141067
718.059	0.0141370
718.137	0.0142231
718.215	0.0141356
718.293	0.0142020
718.371	0.0142173
718.450	0.0141920
718.528	0.0143572
718.606	0.0142004
718.684	0.0144068
718.762	0.0144946
718.840	0.0144531
718.918	0.0144978
718.996	0.0145303
719.075	0.0144979
719.153	0.0144875
719.231	0.0144145
719.309	0.0144626
719.387	0.0145132
719.465	0.0145799
719.543	0.0143839
719.621	0.0144249
719.700	0.0143669
719.778	0.0142989
719.856	0.0142475
719.934	0.0143437
720.012	0.0141240
720.090	0.0142217
720.168	0.0142886
720.246	0.0141540
720.325	0.0141633
720.403	0.0142088
720.481	0.0140802
720.559	0.0140786
720.637	0.0141727
720.715	0.0141332
720.793	0.0141454
720.871	0.0142076
720.950	0.0140887
721.028	0.0141894
721.106	0.0142947
721.184	0.0141182
721.262	0.0141671
721.340	0.0142245
721.418	0.0143023
721.496	0.0142044
721.575	0.0142108
721.653	0.0142547
721.731	0.0144070
721.809	0.0143684
721.887	0.0142392
721.965	0.0142342
722.043	0.0143413
722.121	0.0143452
722.200	0.0143467
722.278	0.0145129
722.356	0.0144235
722.434	0.0143217
722.512	0.0145439
722.590	0.0144572
722.668	0.0142198
722.746	0.0145329
722.825	0.0144321
722.903	0.0143262
722.981	0.0145027
723.059	0.0142686
723.137	0.0141488
723.215	0.0143334
723.293	0.0142419
723.371	0.0140266
723.450	0.0141809
723.528	0.0141508
723.606	0.0142191
723.684	0.0140997
723.762	0.0141408
723.840	0.0140734
723.918	0.0142503
723.996	0.0141328
724.075	0.0139946
724.153	0.0141478
724.231	0.0141991
724.309	0.0141463
724.387	0.0141533
724.465	0.0143887
724.543	0.0143707
724.621	0.0143921
724.700	0.0142905
724.778	0.0142876
724.856	0.0143511
724.934	0.0142596
725.012	0.0142730
725.090	0.0144073
725.168	0.0142410
725.246	0.0142539
725.325	0.0144181
725.403	0.0143382
725.481	0.0142819
725.559	0.0143805
725.637	0.0143501
725.715	0.0142398
725.793	0.0143374
725.871	0.0142168
725.950	0.0143059
726.028	0.0142801
726.106	0.0140409
726.184	0.0141589
726.262	0.0141579
726.340	0.0142862
726.418	0.0140759
726.496	0.0142844
726.575	0.0142410
726.653	0.0142500
726.731	0.0143153
726.809	0.0142619
726.887	0.0141585
726.965	0.0142444
727.043	0.0142553
727.121	0.0142433
727.200	0.0142434
727.278	0.0142636
727.356	0.0142873
727.434	0.0143247
727.512	0.0139784
727.590	0.0140337
727.668	0.0141215
727.746	0.0140051
727.825	0.0142402
727.903	0.0141581
727.981	0.0142072
728.059	0.0141075
728.137	0.0141925
728.215	0.0141184
728.293	0.0141122
728.371	0.0140262
728.450	0.0140852
728.528	0.0141066
728.606	0.0141270
728.684	0.0143302
728.762	0.0142157
728.840	0.0143018
728.918	0.0142329
728.996	0.0142186
729.075	0.0143848
729.153	0.0143446
729.231	0.0144471
729.309	0.0143578
729.387	0.0144350
729.465	0.0145455
729.543	0.0146035
729.621	0.0145401
729.700	0.0143678
729.778	0.0144081
729.856	0.0144145
729.934	0.0144469
730.012	0.0142769
730.090	0.0141834
730.168	0.0140327
730.246	0.0140547
730.325	0.0140116
730.403	0.0142261
730.481	0.0141380
730.559	0.0140979
730.637	0.0140540
730.715	0.0138921
730.793	0.0140444
730.871	0.0140942
730.950	0.0140614
731.028	0.0141543
731.106	0.0142585
731.184	0.0142399
731.262	0.0141351
731.340	0.0142509
731.418	0.0143687
731.496	0.0142912
731.575	0.0142318
731.653	0.0142883
731.731	0.0142245
731.809	0.0143176
731.887	0.0143031
731.965	0.0143323
732.043	0.0144588
732.121	0.0144556
732.200	0.0143680
732.278	0.0145135
732.356	0.0143089
732.434	0.0143250
732.512	0.0142963
732.590	0.0144099
732.668	0.0142993
732.746	0.0143092
732.825	0.0141514
732.903	0.0143092
732.981	0.0142282
733.059	0.0141080
733.137	0.0141768
733.215	0.0141168
733.293	0.0140488
733.371	0.0141733
733.450	0.0142192
733.528	0.0140059
733.606	0.0141183
733.684	0.0141383
733.762	0.0141136
733.840	0.0141978
733.918	0.0140179
733.996	0.0141427
734.075	0.0141306
734.153	0.0140202
734.231	0.0141579
734.309	0.0142510
734.387	0.0142282
734.465	0.0141622
734.543	0.0142789
734.621	0.0143407
734.700	0.0143201
734.778	0.0144350
734.856	0.0142667
734.934	0.0143559
735.012	0.0144397
735.090	0.0143529
735.168	0.0143651
735.246	0.0144121
735.325	0.0143816
735.403	0.0142528
735.481	0.0143412
735.559	0.0143699
735.637	0.0143407
735.715	0.0141969
735.793	0.0141994
735.871	0.0142933
735.950	0.0143666
736.028	0.0142416
736.106	0.0143516
736.184	0.0143242
736.262	0.0143278
736.340	0.0141775
736.418	0.0142862
736.496	0.0142274
736.575	0.0143277
736.653	0.0141508
736.731	0.0143111
736.809	0.0142851
736.887	0.0142992
736.965	0.0142022
737.043	0.0142775
737.121	0.0142280
737.200	0.0142131
737.278	0.0142431
737.356	0.0141513
737.434	0.0143002
737.512	0.0141248
737.590	0.0143925
737.668	0.0143604
737.746	0.0143237
737.825	0.0143741
737.903	0.0143081
737.981	0.0143789
738.059	0.0143067
738.137	0.0142422
738.215	0.0143023
738.293	0.0143929
738.371	0.0143493
738.450	0.0141441
738.528	0.0143633
738.606	0.0143684
738.684	0.0143048
738.762	0.0143946
738.840	0.0143856
738.918	0.0142848
738.996	0.0142532
739.075	0.0143915
739.153	0.0143365
739.231	0.0142448
739.309	0.0144328
739.387	0.0144399
739.465	0.0142383
739.543	0.0143462
739.621	0.0143748
739.700	0.0142992
739.778	0.0143770
739.856	0.0143656
739.934	0.0142663
740.012	0.0142784
740.090	0.0142055
740.168	0.0141293
740.246	0.0142182
740.325	0.0143085
740.403	0.0142185
740.481	0.0143195
740.559	0.0142061
740.637	0.0141505
740.715	0.0141152
740.793	0.0141734
740.871	0.0141118
740.950	0.0140771
741.028	0.0142229
741.106	0.0141653
741.184	0.0141866
741.262	0.0141873
741.340	0.0142126
741.418	0.0142416
741.496	0.0143753
741.575	0.0143955
741.653	0.0142185
741.731	0.0142096
741.809	0.0143163
741.887	0.0143070
741.965	0.0141697
742.043	0.0143536
742.121	0.0143591
742.200	0.0143157
742.278	0.0142825
742.356	0.0143375
742.434	0.0142505
742.512	0.0142567
742.590	0.0142907
742.668	0.0141091
742.746	0.0142707
742.825	0.0144126
742.903	0.0141925
742.981	0.0142358
743.059	0.0141403
743.137	0.0141949
743.215	0.0142116
743.293	0.0141879
743.371	0.0141902
743.450	0.0142274
743.528	0.0141429
743.606	0.0142461
743.684	0.0139861
743.762	0.0141830
743.840	0.0141138
743.918	0.0141544
743.996	0.0141482
744.075	0.0140278
744.153	0.0142382
744.231	0.0141025
744.309	0.0141230
744.387	0.0141948
744.465	0.0141666
744.543	0.0143164
744.621	0.0142045
744.700	0.0142117
744.778	0.0144526
744.856	0.0143259
744.934	0.0142499
745.012	0.0144260
745.090	0.0144432
745.168	0.0143073
745.246	0.0142590
745.325	0.0143214
745.403	0.0144897
745.481	0.0144010
745.559	0.0142700
745.637	0.0143754
745.715	0.0144856
745.793	0.0144225
745.871	0.0144000
745.950	0.0144199
746.028	0.0143147
746.106	0.0143147
746.184	0.0142564
746.262	0.0142958
746.340	0.0141164
746.418	0.0142352
746.496	0.0141788
746.575	0.0141386
746.653	0.0142422
746.731	0.0141852
746.809	0.0142837
746.887	0.0141783
746.965	0.0140227
747.043	0.0140697
747.121	0.0141609
747.200	0.0142297
747.278	0.0141727
747.356	0.0142203
747.434	0.0141914
747.512	0.0141965
747.590	0.0143414
747.668	0.0143416
747.746	0.0142759
747.825	0.0144095
747.903	0.0143236
747.981	0.0142885
748.059	0.0143848
748.137	0.0143420
748.215	0.0143333
748.293	0.0143015
748.371	0.0143510
748.450	0.0143733
748.528	0.0143549
748.606	0.0141930
748.684	0.0142760
748.762	0.0142381
748.840	0.0143110
748.918	0.0144093
748.996	0.0143640
749.075	0.0141540
749.153	0.0141809
749.231	0.0142871
749.309	0.0141734
749.387	0.0142916
749.465	0.0142818
749.543	0.0143034
749.621	0.0142952
749.700	0.0141392
749.778	0.0142761
749.856	0.0142490
749.934	0.0143472
750.012	0.0144032
750.090	0.0144682
750.168	0.0144174
750.246	0.0143758
750.325	0.0142115
750.403	0.0143307
750.481	0.0142181
750.559	0.0141732
750.637	0.0142467
750.715	0.0142052
750.793	0.0142613
750.871	0.0141090
750.950	0.0141542
751.028	0.0142837
751.106	0.0142483
751.184	0.0141345
751.262	0.0140638
751.340	0.0142388
751.418	0.0143110
751.496	0.0141723
751.575	0.0142934
751.653	0.0142583
751.731	0.0142695
751.809	0.0142657
751.887	0.0143154
751.965	0.0143356
752.043	0.0142217
752.121	0.0141277
752.200	0.0142297
752.278	0.0143082
752.356	0.0142747
752.434	0.0140416
752.512	0.0141515
752.590	0.0141727
752.668	0.0143360
752.746	0.0141924
752.825	0.0141855
752.903	0.0143317
752.981	0.0142772
753.059	0.0142728
753.137	0.0142947
753.215	0.0141846
753.293	0.0140739
753.371	0.0141449
753.450	0.0143844
753.528	0.0142409
753.606	0.0141956
753.684	0.0142981
753.762	0.0143175
753.840	0.0142507
753.918	0.0140320
753.996	0.0141101
754.075	0.0141634
754.153	0.0142083
754.231	0.0140211
754.309	0.0140353
754.387	0.0142528
754.465	0.0141945
754.543	0.0140903
754.621	0.0141889
754.700	0.0140907
754.778	0.0140535
754.856	0.0141560
754.934	0.0141857
755.012	0.0141970
755.090	0.0140437
755.168	0.0140794
755.246	0.0141261
755.325	0.0141466
755.403	0.0141674
755.481	0.0141255
755.559	0.0141440
755.637	0.0142963
755.715	0.0143026
755.793	0.0142365
755.871	0.0141799
755.950	0.0142109
756.028	0.0142284
756.106	0.0142604
756.184	0.0141894
756.262	0.0141990
756.340	0.0141818
756.418	0.0142213
756.496	0.0141750
756.575	0.0140792
756.653	0.0139773
756.731	0.0141575
756.809	0.0141522
756.887	0.0140167
756.965	0.0142045
757.043	0.0141473
757.121	0.0142583
757.200	0.0142690
757.278	0.0142820
757.356	0.0143249
757.434	0.0142982
757.512	0.0143619
757.590	0.0141982
757.668	0.0144478
757.746	0.0142127
757.825	0.0142377
757.903	0.0143433
757.981	0.0143618
758.059	0.0142419
758.137	0.0143906
758.215	0.0142698
758.293	0.0143616
758.371	0.0142009
758.450	0.0144814
758.528	0.0143544
758.606	0.0143027
758.684	0.0140912
758.762	0.0142546
758.840	0.0142667
758.918	0.0142635
758.996	0.0140685
759.075	0.0142106
759.153	0.0143207
759.231	0.0142018
759.309	0.0141417
759.387	0.0142884
759.465	0.0143581
759.543	0.0143624
759.621	0.0141718
759.700	0.0142910
759.778	0.0142496
759.856	0.0143305
759.934	0.0141993
760.012	0.0142294
760.090	0.0143893
760.168	0.0143168
760.246	0.0142208
760.325	0.0143674
760.403	0.0142530
760.481	0.0142110
760.559	0.0142487
760.637	0.0142923
760.715	0.0144003
760.793	0.0144024
760.871	0.0142930
760.950	0.0142841
761.028	0.0143647
761.106	0.0143678
761.184	0.0143921
761.262	0.0143740
761.340	0.0143996
761.418	0.0143967
761.496	0.0143834
761.575	0.0142271
761.653	0.0142366
761.731	0.0142280
761.809	0.0143671
761.887	0.0142258
761.965	0.0141104
762.043	0.0142286
762.121	0.0141842
762.200	0.0141291
762.278	0.0141373
762.356	0.0141257
762.434	0.0142030
762.512	0.0142699
762.590	0.0141646
762.668	0.0141778
762.746	0.0143214
762.825	0.0143394
762.903	0.0142821
762.981	0.0140868
763.059	0.0142316
763.137	0.0141473
763.215	0.0142430
763.293	0.0143954
763.371	0.0141531
763.450	0.0142371
763.528	0.0142640
763.606	0.0142449
763.684	0.0142986
763.762	0.0142056
763.840	0.0142365
763.918	0.0142591
763.996	0.0142464
764.075	0.0142204
764.153	0.0143536
764.231	0.0143887
764.309	0.0141744
764.387	0.0141482
764.465	0.0141117
764.543	0.0140710
764.621	0.0142316
764.700	0.0142472
