05/04/2022	21:32:58	Ver.	4.1	UNKNOWN
Optical Delay	678.996401	Delta X		0.078125	Sweeps	1	Scan Rate	0/0
Coordinates	Axis 1	NaN	Axis 2	NaN	Axis 3	NaN	Axis 4	NaN	Axis 5	NaN	Axis 6	0.000000
TX Power	0.000000	RX Power	0.000000

678.996	0.0147220
679.075	0.0147758
679.153	0.0148346
679.231	0.0145928
679.309	0.0146621
679.387	0.0146224
679.465	0.0147557
679.543	0.0147919
679.621	0.0147116
679.700	0.0147623
679.778	0.0148549
679.856	0.0147413
679.934	0.0147746
680.012	0.0148595
680.090	0.0146822
680.168	0.0145998
680.246	0.0147173
680.325	0.0149031
680.403	0.0146011
680.481	0.0146218
680.559	0.0147097
680.637	0.0146605
680.715	0.0147848
680.793	0.0146384
680.871	0.0146464
680.950	0.0145771
681.028	0.0146485
681.106	0.0146122
681.184	0.0147332
681.262	0.0146870
681.340	0.0145760
681.418	0.0145161
681.496	0.0146136
681.575	0.0147266
681.653	0.0146393
681.731	0.0147329
681.809	0.0146512
681.887	0.0147626
681.965	0.0146482
682.043	0.0147036
682.121	0.0147758
682.200	0.0147302
682.278	0.0148367
682.356	0.0147536
682.434	0.0146876
682.512	0.0148042
682.590	0.0147086
682.668	0.0147361
682.746	0.0147975
682.825	0.0145841
682.903	0.0146805
682.981	0.0146767
683.059	0.0147330
683.137	0.0145721
683.215	0.0145332
683.293	0.0145831
683.371	0.0144366
683.450	0.0145698
683.528	0.0145763
683.606	0.0147463
683.684	0.0146492
683.762	0.0147045
683.840	0.0147554
683.918	0.0146778
683.996	0.0148919
684.075	0.0148849
684.153	0.0148648
684.231	0.0147887
684.309	0.0147544
684.387	0.0148282
684.465	0.0147973
684.543	0.0148856
684.621	0.0148129
684.700	0.0147888
684.778	0.0148084
684.856	0.0146547
684.934	0.0147964
685.012	0.0146906
685.090	0.0145856
685.168	0.0146771
685.246	0.0145918
685.325	0.0144338
685.403	0.0145982
685.481	0.0144682
685.559	0.0145257
685.637	0.0144339
685.715	0.0144650
685.793	0.0145249
685.871	0.0144601
685.950	0.0144483
686.028	0.0145007
686.106	0.0146633
686.184	0.0146347
686.262	0.0147365
686.340	0.0146732
686.418	0.0147541
686.496	0.0147580
686.575	0.0147096
686.653	0.0148735
686.731	0.0149371
686.809	0.0148888
686.887	0.0150094
686.965	0.0150803
687.043	0.0150796
687.121	0.0150101
687.200	0.0150918
687.278	0.0149265
687.356	0.0146347
687.434	0.0147544
687.512	0.0145523
687.590	0.0144080
687.668	0.0143241
687.746	0.0143766
687.825	0.0143557
687.903	0.0142497
687.981	0.0142230
688.059	0.0143626
688.137	0.0142690
688.215	0.0142408
688.293	0.0142385
688.371	0.0142609
688.450	0.0141832
688.528	0.0144249
688.606	0.0145554
688.684	0.0146282
688.762	0.0148910
688.840	0.0148367
688.918	0.0148814
688.996	0.0148660
689.075	0.0150468
689.153	0.0151405
689.231	0.0150093
689.309	0.0149978
689.387	0.0150469
689.465	0.0147703
689.543	0.0148575
689.621	0.0148740
689.700	0.0148610
689.778	0.0147926
689.856	0.0149009
689.934	0.0147983
690.012	0.0149098
690.090	0.0148171
690.168	0.0147541
690.246	0.0147920
690.325	0.0146767
690.403	0.0147577
690.481	0.0146018
690.559	0.0146248
690.637	0.0145567
690.715	0.0144713
690.793	0.0145314
690.871	0.0144112
690.950	0.0144344
691.028	0.0142852
691.106	0.0142720
691.184	0.0143796
691.262	0.0143657
691.340	0.0143193
691.418	0.0143827
691.496	0.0142767
691.575	0.0143517
691.653	0.0144346
691.731	0.0145689
691.809	0.0146101
691.887	0.0146311
691.965	0.0147399
692.043	0.0149454
692.121	0.0149924
692.200	0.0150334
692.278	0.0149883
692.356	0.0150444
692.434	0.0151060
692.512	0.0152018
692.590	0.0150561
692.668	0.0150298
692.746	0.0149776
692.825	0.0150182
692.903	0.0151019
692.981	0.0149625
693.059	0.0149039
693.137	0.0150063
693.215	0.0147888
693.293	0.0147050
693.371	0.0147543
693.450	0.0146853
693.528	0.0148100
693.606	0.0147065
693.684	0.0145877
693.762	0.0145492
693.840	0.0144292
693.918	0.0145690
693.996	0.0144041
694.075	0.0143314
694.153	0.0143876
694.231	0.0144382
694.309	0.0145678
694.387	0.0144354
694.465	0.0144426
694.543	0.0143188
694.621	0.0143985
694.700	0.0144067
694.778	0.0145713
694.856	0.0146638
694.934	0.0146328
695.012	0.0146899
695.090	0.0147569
695.168	0.0149889
695.246	0.0150816
695.325	0.0150969
695.403	0.0152151
695.481	0.0152553
695.559	0.0153555
695.637	0.0153384
695.715	0.0151997
695.793	0.0152503
695.871	0.0150916
695.950	0.0148631
696.028	0.0148932
696.106	0.0148638
696.184	0.0148204
696.262	0.0149378
696.340	0.0147478
696.418	0.0148230
696.496	0.0146057
696.575	0.0146204
696.653	0.0146452
696.731	0.0145663
696.809	0.0144954
696.887	0.0144147
696.965	0.0143822
697.043	0.0144238
697.121	0.0144354
697.200	0.0142309
697.278	0.0143317
697.356	0.0145502
697.434	0.0144469
697.512	0.0145600
697.590	0.0145976
697.668	0.0145683
697.746	0.0145415
697.825	0.0146068
697.903	0.0146104
697.981	0.0145149
698.059	0.0145741
698.137	0.0145898
698.215	0.0147095
698.293	0.0146485
698.371	0.0146053
698.450	0.0147093
698.528	0.0147487
698.606	0.0149945
698.684	0.0150263
698.762	0.0147627
698.840	0.0149931
698.918	0.0149350
698.996	0.0151675
699.075	0.0151653
699.153	0.0151222
699.231	0.0151736
699.309	0.0153391
699.387	0.0153184
699.465	0.0150365
699.543	0.0151305
699.621	0.0149062
699.700	0.0147967
699.778	0.0145442
699.856	0.0144907
699.934	0.0142887
700.012	0.0142740
700.090	0.0140404
700.168	0.0142305
700.246	0.0141508
700.325	0.0141513
700.403	0.0144042
700.481	0.0142478
700.559	0.0143530
700.637	0.0144084
700.715	0.0145648
700.793	0.0147306
700.871	0.0148222
700.950	0.0148191
701.028	0.0149068
701.106	0.0148317
701.184	0.0149064
701.262	0.0150722
701.340	0.0150450
701.418	0.0149781
701.496	0.0149754
701.575	0.0148189
701.653	0.0148162
701.731	0.0147028
701.809	0.0145214
701.887	0.0146186
701.965	0.0147308
702.043	0.0147388
702.121	0.0148048
702.200	0.0150748
702.278	0.0149839
702.356	0.0150274
702.434	0.0150348
702.512	0.0150429
702.590	0.0149338
702.668	0.0149947
702.746	0.0149503
702.825	0.0147495
702.903	0.0146026
702.981	0.0144899
703.059	0.0143533
703.137	0.0144196
703.215	0.0142041
703.293	0.0143532
703.371	0.0142388
703.450	0.0142177
703.528	0.0143051
703.606	0.0144984
703.684	0.0144186
703.762	0.0144813
703.840	0.0146272
703.918	0.0145893
703.996	0.0147591
704.075	0.0148889
704.153	0.0147719
704.231	0.0148450
704.309	0.0149303
704.387	0.0147177
704.465	0.0146252
704.543	0.0146033
704.621	0.0145161
704.700	0.0144651
704.778	0.0145757
704.856	0.0144415
704.934	0.0144970
705.012	0.0145596
705.090	0.0145070
705.168	0.0146871
705.246	0.0147906
705.325	0.0149819
705.403	0.0150320
705.481	0.0152666
705.559	0.0151884
705.637	0.0151454
705.715	0.0151115
705.793	0.0148608
705.871	0.0148361
705.950	0.0148473
706.028	0.0147566
706.106	0.0146412
706.184	0.0144628
706.262	0.0143241
706.340	0.0143142
706.418	0.0144885
706.496	0.0143703
706.575	0.0144255
706.653	0.0145129
706.731	0.0144549
706.809	0.0147430
706.887	0.0148822
706.965	0.0148508
707.043	0.0148183
707.121	0.0149855
707.200	0.0147432
707.278	0.0148333
707.356	0.0148119
707.434	0.0146315
707.512	0.0145213
707.590	0.0146587
707.668	0.0145798
707.746	0.0146790
707.825	0.0145796
707.903	0.0145969
707.981	0.0146618
708.059	0.0146636
708.137	0.0147902
708.215	0.0147852
708.293	0.0147765
708.371	0.0148989
708.450	0.0150065
708.528	0.0150364
708.606	0.0149421
708.684	0.0149423
708.762	0.0149957
708.840	0.0149574
708.918	0.0147874
708.996	0.0147569
709.075	0.0147529
709.153	0.0147430
709.231	0.0146252
709.309	0.0145242
709.387	0.0145140
709.465	0.0145662
709.543	0.0145251
709.621	0.0147678
709.700	0.0147778
709.778	0.0146595
709.856	0.0146752
709.934	0.0148786
710.012	0.0149020
710.090	0.0148544
710.168	0.0149110
710.246	0.0148257
710.325	0.0146776
710.403	0.0146445
710.481	0.0146583
710.559	0.0145274
710.637	0.0146120
710.715	0.0146284
710.793	0.0145465
710.871	0.0145214
710.950	0.0147364
711.028	0.0146153
711.106	0.0146435
711.184	0.0145534
711.262	0.0147732
711.340	0.0147932
711.418	0.0147680
711.496	0.0146277
711.575	0.0148666
711.653	0.0148395
711.731	0.0148361
711.809	0.0148327
711.887	0.0147478
711.965	0.0148685
712.043	0.0146349
712.121	0.0146090
712.200	0.0146990
712.278	0.0146569
712.356	0.0147053
712.434	0.0146403
712.512	0.0146276
712.590	0.0145724
712.668	0.0145676
712.746	0.0146401
712.825	0.0146841
712.903	0.0147771
712.981	0.0148308
713.059	0.0147008
713.137	0.0149491
713.215	0.0147357
713.293	0.0147031
713.371	0.0147137
713.450	0.0148045
713.528	0.0146597
713.606	0.0146151
713.684	0.0147279
713.762	0.0147032
713.840	0.0146830
713.918	0.0146395
713.996	0.0146296
714.075	0.0146445
714.153	0.0147508
714.231	0.0148950
714.309	0.0149338
714.387	0.0148551
714.465	0.0148424
714.543	0.0147843
714.621	0.0147812
714.700	0.0146629
714.778	0.0146976
714.856	0.0146589
714.934	0.0147116
715.012	0.0145199
715.090	0.0145876
715.168	0.0146202
715.246	0.0145885
715.325	0.0145938
715.403	0.0145895
715.481	0.0147324
715.559	0.0147222
715.637	0.0145726
715.715	0.0146546
715.793	0.0147501
715.871	0.0149735
715.950	0.0149871
716.028	0.0148881
716.106	0.0149786
716.184	0.0149141
716.262	0.0149941
716.340	0.0148443
716.418	0.0147801
716.496	0.0148911
716.575	0.0148592
716.653	0.0146754
716.731	0.0147021
716.809	0.0146483
716.887	0.0145000
716.965	0.0146319
717.043	0.0145497
717.121	0.0146016
717.200	0.0144759
717.278	0.0145771
717.356	0.0145410
717.434	0.0145286
717.512	0.0146397
717.590	0.0146156
717.668	0.0145629
717.746	0.0146379
717.825	0.0148365
717.903	0.0146950
717.981	0.0146271
718.059	0.0147915
718.137	0.0148497
718.215	0.0149604
718.293	0.0150067
718.371	0.0149233
718.450	0.0149984
718.528	0.0150571
718.606	0.0149645
718.684	0.0149076
718.762	0.0148096
718.840	0.0147841
718.918	0.0146793
718.996	0.0148092
719.075	0.0146605
719.153	0.0146171
719.231	0.0146596
719.309	0.0147601
719.387	0.0146159
719.465	0.0144858
719.543	0.0145390
719.621	0.0144941
719.700	0.0145752
719.778	0.0145853
719.856	0.0144863
719.934	0.0144763
720.012	0.0145309
720.090	0.0144115
720.168	0.0144887
720.246	0.0145391
720.325	0.0144306
720.403	0.0145422
720.481	0.0147222
720.559	0.0145274
720.637	0.0146102
720.715	0.0145731
720.793	0.0146664
720.871	0.0146063
720.950	0.0146944
721.028	0.0147636
721.106	0.0147180
721.184	0.0146458
721.262	0.0146841
721.340	0.0148019
721.418	0.0148315
721.496	0.0149289
721.575	0.0148730
721.653	0.0149314
721.731	0.0147117
721.809	0.0148257
721.887	0.0148281
721.965	0.0148193
722.043	0.0148790
722.121	0.0147456
722.200	0.0147163
722.278	0.0147908
722.356	0.0146962
722.434	0.0145919
722.512	0.0145906
722.590	0.0146468
722.668	0.0146203
722.746	0.0145986
722.825	0.0146516
722.903	0.0146768
722.981	0.0146334
723.059	0.0145119
723.137	0.0146524
723.215	0.0145403
723.293	0.0145679
723.371	0.0146036
723.450	0.0148218
723.528	0.0146273
723.606	0.0146387
723.684	0.0147942
723.762	0.0146717
723.840	0.0145943
723.918	0.0148238
723.996	0.0147217
724.075	0.0146542
724.153	0.0145798
724.231	0.0146528
724.309	0.0148072
724.387	0.0146906
724.465	0.0145980
724.543	0.0145539
724.621	0.0146131
724.700	0.0146557
724.778	0.0147787
724.856	0.0147765
724.934	0.0147853
725.012	0.0145951
725.090	0.0148065
725.168	0.0148283
725.246	0.0148196
725.325	0.0148183
725.403	0.0148401
725.481	0.0149170
725.559	0.0147697
725.637	0.0147035
725.715	0.0147925
725.793	0.0148283
725.871	0.0147966
725.950	0.0149020
726.028	0.0147990
726.106	0.0147914
726.184	0.0148817
726.262	0.0146157
726.340	0.0146711
726.418	0.0145812
726.496	0.0146054
726.575	0.0146700
726.653	0.0145701
726.731	0.0147223
726.809	0.0144106
726.887	0.0145194
726.965	0.0144782
727.043	0.0144698
727.121	0.0144321
727.200	0.0145227
727.278	0.0146028
727.356	0.0145886
727.434	0.0147014
727.512	0.0146369
727.590	0.0145996
727.668	0.0146160
727.746	0.0147288
727.825	0.0147740
727.903	0.0147176
727.981	0.0148264
728.059	0.0147402
728.137	0.0149081
728.215	0.0148851
728.293	0.0147469
728.371	0.0148114
728.450	0.0149363
728.528	0.0148666
728.606	0.0148196
728.684	0.0149585
728.762	0.0149088
728.840	0.0149131
728.918	0.0148295
728.996	0.0148914
729.075	0.0148839
729.153	0.0148101
729.231	0.0148810
729.309	0.0147495
729.387	0.0146568
729.465	0.0146796
729.543	0.0145650
729.621	0.0146163
729.700	0.0145618
729.778	0.0145323
729.856	0.0144872
729.934	0.0145206
730.012	0.0145364
730.090	0.0144478
730.168	0.0144636
730.246	0.0145738
730.325	0.0145161
730.403	0.0147632
730.481	0.0148035
730.559	0.0146473
730.637	0.0146060
730.715	0.0146316
730.793	0.0146685
730.871	0.0147752
730.950	0.0146366
731.028	0.0146146
731.106	0.0147745
731.184	0.0147845
731.262	0.0148231
731.340	0.0147891
731.418	0.0146811
731.496	0.0147964
731.575	0.0146972
731.653	0.0148795
731.731	0.0147474
731.809	0.0148649
731.887	0.0149081
731.965	0.0148266
732.043	0.0149084
732.121	0.0147922
732.200	0.0148170
732.278	0.0148090
732.356	0.0147105
732.434	0.0149234
732.512	0.0148224
732.590	0.0146875
732.668	0.0148039
732.746	0.0148221
732.825	0.0146970
732.903	0.0146936
732.981	0.0146909
733.059	0.0146445
733.137	0.0146568
733.215	0.0148038
733.293	0.0147201
733.371	0.0146836
733.450	0.0146356
733.528	0.0145974
733.606	0.0144805
733.684	0.0145770
733.762	0.0146613
733.840	0.0145724
733.918	0.0146870
733.996	0.0148051
734.075	0.0145161
734.153	0.0145832
734.231	0.0146618
734.309	0.0145460
734.387	0.0146362
734.465	0.0146297
734.543	0.0147953
734.621	0.0147464
734.700	0.0147653
734.778	0.0147795
734.856	0.0148444
734.934	0.0149200
735.012	0.0148486
735.090	0.0148931
735.168	0.0148380
735.246	0.0148588
735.325	0.0148112
735.403	0.0148734
735.481	0.0148064
735.559	0.0147964
735.637	0.0147131
735.715	0.0146387
735.793	0.0146864
735.871	0.0147313
735.950	0.0145841
736.028	0.0146072
736.106	0.0146385
736.184	0.0145461
736.262	0.0146598
736.340	0.0147665
736.418	0.0146684
736.496	0.0144755
736.575	0.0145568
736.653	0.0146834
736.731	0.0147669
736.809	0.0146254
736.887	0.0147926
736.965	0.0147071
737.043	0.0147021
737.121	0.0147124
737.200	0.0147655
737.278	0.0147418
737.356	0.0147374
737.434	0.0146960
737.512	0.0147323
737.590	0.0147449
737.668	0.0146564
737.746	0.0147476
737.825	0.0146662
737.903	0.0147680
737.981	0.0147778
738.059	0.0146798
738.137	0.0147775
738.215	0.0146706
738.293	0.0146401
738.371	0.0147079
738.450	0.0148874
738.528	0.0147139
738.606	0.0145050
738.684	0.0148342
738.762	0.0147164
738.840	0.0146467
738.918	0.0147124
738.996	0.0147856
739.075	0.0147063
739.153	0.0147193
739.231	0.0148460
739.309	0.0147308
739.387	0.0146704
739.465	0.0146942
739.543	0.0145824
739.621	0.0145813
739.700	0.0145993
739.778	0.0145975
739.856	0.0145790
739.934	0.0145164
740.012	0.0143516
740.090	0.0146586
740.168	0.0146049
740.246	0.0143092
740.325	0.0144765
740.403	0.0145863
740.481	0.0145516
740.559	0.0146180
740.637	0.0146273
740.715	0.0145982
740.793	0.0146640
740.871	0.0146771
740.950	0.0147713
741.028	0.0147591
741.106	0.0147422
741.184	0.0147662
741.262	0.0149240
741.340	0.0147931
741.418	0.0149671
741.496	0.0147781
741.575	0.0147539
741.653	0.0147533
741.731	0.0147108
741.809	0.0147540
741.887	0.0147269
741.965	0.0146950
742.043	0.0146783
742.121	0.0146322
742.200	0.0146394
742.278	0.0147570
742.356	0.0146405
742.434	0.0145651
742.512	0.0145609
742.590	0.0146806
742.668	0.0146251
742.746	0.0145947
742.825	0.0146362
742.903	0.0146218
742.981	0.0145997
743.059	0.0145670
743.137	0.0145763
743.215	0.0145845
743.293	0.0145522
743.371	0.0144983
743.450	0.0144934
743.528	0.0146584
743.606	0.0146453
743.684	0.0146284
743.762	0.0146632
743.840	0.0147088
743.918	0.0147800
743.996	0.0147392
744.075	0.0146500
744.153	0.0147706
744.231	0.0145920
744.309	0.0148597
744.387	0.0147783
744.465	0.0147534
744.543	0.0146307
744.621	0.0146937
744.700	0.0147623
744.778	0.0147256
744.856	0.0147447
744.934	0.0148831
745.012	0.0146495
745.090	0.0146992
745.168	0.0147496
745.246	0.0147074
745.325	0.0147996
745.403	0.0147246
745.481	0.0146987
745.559	0.0146668
745.637	0.0146149
745.715	0.0146554
745.793	0.0147694
745.871	0.0147867
745.950	0.0145763
746.028	0.0147064
746.106	0.0145650
746.184	0.0145123
746.262	0.0145308
746.340	0.0145435
746.418	0.0145410
746.496	0.0146178
746.575	0.0145396
746.653	0.0145401
746.731	0.0145072
746.809	0.0145822
746.887	0.0147171
746.965	0.0146513
747.043	0.0145881
747.121	0.0146343
747.200	0.0146569
747.278	0.0146440
747.356	0.0145692
747.434	0.0147472
747.512	0.0146848
747.590	0.0146902
747.668	0.0146970
747.746	0.0146594
747.825	0.0147141
747.903	0.0147369
747.981	0.0147103
748.059	0.0147741
748.137	0.0146311
748.215	0.0147121
748.293	0.0147069
748.371	0.0146490
748.450	0.0146079
748.528	0.0146530
748.606	0.0146169
748.684	0.0145628
748.762	0.0147532
748.840	0.0146806
748.918	0.0146384
748.996	0.0145356
749.075	0.0146701
749.153	0.0145703
749.231	0.0146798
749.309	0.0146871
749.387	0.0147751
749.465	0.0147347
749.543	0.0147568
749.621	0.0147032
749.700	0.0146542
749.778	0.0147141
749.856	0.0146619
749.934	0.0146861
750.012	0.0146761
750.090	0.0145692
750.168	0.0146139
750.246	0.0146126
750.325	0.0146419
750.403	0.0145675
750.481	0.0145624
750.559	0.0146911
750.637	0.0145593
750.715	0.0145403
750.793	0.0145419
750.871	0.0145835
750.950	0.0145427
751.028	0.0146423
751.106	0.0147291
751.184	0.0146288
751.262	0.0144526
751.340	0.0146554
751.418	0.0145612
751.496	0.0147567
751.575	0.0146097
751.653	0.0148946
751.731	0.0146378
751.809	0.0146202
751.887	0.0148027
751.965	0.0147330
752.043	0.0148566
752.121	0.0147867
752.200	0.0148003
752.278	0.0148978
752.356	0.0149352
752.434	0.0149162
752.512	0.0147865
752.590	0.0146554
752.668	0.0147581
752.746	0.0149210
752.825	0.0147571
752.903	0.0145826
752.981	0.0146078
753.059	0.0147301
753.137	0.0147220
753.215	0.0146177
753.293	0.0145987
753.371	0.0146925
753.450	0.0144753
753.528	0.0145651
753.606	0.0147615
753.684	0.0146727
753.762	0.0145299
753.840	0.0146198
753.918	0.0147001
753.996	0.0146770
754.075	0.0147012
754.153	0.0148141
754.231	0.0146262
754.309	0.0146618
754.387	0.0145695
754.465	0.0147550
754.543	0.0146923
754.621	0.0146339
754.700	0.0146276
754.778	0.0146677
754.856	0.0148006
754.934	0.0147086
755.012	0.0147121
755.090	0.0146744
755.168	0.0147603
755.246	0.0146652
755.325	0.0146812
755.403	0.0148066
755.481	0.0147382
755.559	0.0146314
755.637	0.0147195
755.715	0.0148261
755.793	0.0146352
755.871	0.0146065
755.950	0.0146977
756.028	0.0146581
756.106	0.0146661
756.184	0.0147504
756.262	0.0146848
756.340	0.0145825
756.418	0.0146300
756.496	0.0146934
756.575	0.0147511
756.653	0.0146221
756.731	0.0146394
756.809	0.0147923
756.887	0.0146726
756.965	0.0145238
757.043	0.0146762
757.121	0.0148656
757.200	0.0148000
757.278	0.0148442
757.356	0.0148409
757.434	0.0147969
757.512	0.0148656
757.590	0.0147268
757.668	0.0148090
757.746	0.0148036
757.825	0.0148524
757.903	0.0149929
757.981	0.0147281
758.059	0.0148639
758.137	0.0148013
758.215	0.0147234
758.293	0.0146219
758.371	0.0146631
758.450	0.0146828
758.528	0.0146951
758.606	0.0147806
758.684	0.0146453
758.762	0.0146992
758.840	0.0147395
758.918	0.0146631
758.996	0.0146159
759.075	0.0146288
759.153	0.0147685
759.231	0.0145820
759.309	0.0147176
759.387	0.0146992
759.465	0.0147126
759.543	0.0146684
759.621	0.0146851
759.700	0.0148136
759.778	0.0148190
759.856	0.0145724
759.934	0.0146837
760.012	0.0146531
760.090	0.0147142
760.168	0.0145671
760.246	0.0146886
760.325	0.0147957
760.403	0.0146795
760.481	0.0146211
760.559	0.0146054
760.637	0.0146279
760.715	0.0147101
760.793	0.0147372
760.871	0.0146607
760.950	0.0147085
761.028	0.0147687
761.106	0.0147353
761.184	0.0146423
761.262	0.0148615
761.340	0.0148726
761.418	0.0148380
761.496	0.0147588
761.575	0.0145174
761.653	0.0146236
761.731	0.0146458
761.809	0.0147798
761.887	0.0146687
761.965	0.0146403
762.043	0.0147070
762.121	0.0147466
762.200	0.0146140
762.278	0.0146800
762.356	0.0145879
762.434	0.0145560
762.512	0.0146116
762.590	0.0147044
762.668	0.0146273
762.746	0.0146155
762.825	0.0147351
762.903	0.0146204
762.981	0.0145683
763.059	0.0146430
763.137	0.0146924
763.215	0.0146780
763.293	0.0144849
763.371	0.0145851
763.450	0.0147434
763.528	0.0146531
763.606	0.0147710
763.684	0.0145435
763.762	0.0144299
763.840	0.0148008
763.918	0.0147783
763.996	0.0148309
764.075	0.0147563
764.153	0.0145369
764.231	0.0146157
764.309	0.0147501
764.387	0.0147746
764.465	0.0148252
764.543	0.0146822
764.621	0.0147284
764.700	0.0147057
