05/04/2022	21:33:18	Ver.	4.1	UNKNOWN
Optical Delay	678.989730	Delta X		0.078125	Sweeps	1	Scan Rate	0/0
Coordinates	Axis 1	NaN	Axis 2	NaN	Axis 3	NaN	Axis 4	NaN	Axis 5	NaN	Axis 6	0.000000
TX Power	0.000000	RX Power	0.000000

678.990	0.0148734
679.068	0.0148921
679.146	0.0149158
679.224	0.0148485
679.302	0.0149413
679.380	0.0147894
679.458	0.0149245
679.537	0.0149217
679.615	0.0148591
679.693	0.0148383
679.771	0.0150597
679.849	0.0149384
679.927	0.0148621
680.005	0.0149557
680.083	0.0149248
680.162	0.0149302
680.240	0.0148615
680.318	0.0148095
680.396	0.0149534
680.474	0.0150204
680.552	0.0148081
680.630	0.0147080
680.708	0.0149192
680.787	0.0148265
680.865	0.0147060
680.943	0.0147859
681.021	0.0147485
681.099	0.0147698
681.177	0.0147655
681.255	0.0146812
681.333	0.0146486
681.412	0.0146941
681.490	0.0147216
681.568	0.0147214
681.646	0.0148640
681.724	0.0150640
681.802	0.0150139
681.880	0.0148827
681.958	0.0149860
682.037	0.0148596
682.115	0.0147840
682.193	0.0147662
682.271	0.0148439
682.349	0.0149326
682.427	0.0147607
682.505	0.0146413
682.583	0.0148388
682.662	0.0148543
682.740	0.0147192
682.818	0.0147490
682.896	0.0148186
682.974	0.0148019
683.052	0.0148166
683.130	0.0148942
683.208	0.0148550
683.287	0.0147228
683.365	0.0148792
683.443	0.0147623
683.521	0.0148257
683.599	0.0148293
683.677	0.0147991
683.755	0.0148395
683.833	0.0148116
683.912	0.0148612
683.990	0.0149607
684.068	0.0149673
684.146	0.0148141
684.224	0.0149001
684.302	0.0149744
684.380	0.0148638
684.458	0.0148499
684.537	0.0146864
684.615	0.0148676
684.693	0.0149216
684.771	0.0150191
684.849	0.0148898
684.927	0.0148761
685.005	0.0148461
685.083	0.0148716
685.162	0.0148418
685.240	0.0148366
685.318	0.0148411
685.396	0.0146618
685.474	0.0147183
685.552	0.0146624
685.630	0.0146942
685.708	0.0146774
685.787	0.0146786
685.865	0.0148142
685.943	0.0147623
686.021	0.0148672
686.099	0.0148783
686.177	0.0149479
686.255	0.0150017
686.333	0.0149305
686.412	0.0148232
686.490	0.0148274
686.568	0.0149041
686.646	0.0149493
686.724	0.0150422
686.802	0.0150809
686.880	0.0151286
686.958	0.0150705
687.037	0.0151839
687.115	0.0151004
687.193	0.0151476
687.271	0.0152534
687.349	0.0150686
687.427	0.0149913
687.505	0.0149242
687.583	0.0149715
687.662	0.0147476
687.740	0.0146510
687.818	0.0147035
687.896	0.0145206
687.974	0.0146763
688.052	0.0145859
688.130	0.0143569
688.208	0.0144212
688.287	0.0145531
688.365	0.0146954
688.443	0.0145488
688.521	0.0143654
688.599	0.0146554
688.677	0.0145932
688.755	0.0148052
688.833	0.0148577
688.912	0.0150260
688.990	0.0150707
689.068	0.0151902
689.146	0.0151567
689.224	0.0153066
689.302	0.0153113
689.380	0.0153293
689.458	0.0153466
689.537	0.0151405
689.615	0.0151562
689.693	0.0150544
689.771	0.0149982
689.849	0.0151003
689.927	0.0151719
690.005	0.0151214
690.083	0.0149483
690.162	0.0150457
690.240	0.0151291
690.318	0.0149326
690.396	0.0150459
690.474	0.0150188
690.552	0.0148821
690.630	0.0148243
690.708	0.0147404
690.787	0.0148637
690.865	0.0147520
690.943	0.0146612
691.021	0.0146762
691.099	0.0146150
691.177	0.0146210
691.255	0.0146979
691.333	0.0146624
691.412	0.0146889
691.490	0.0145165
691.568	0.0145532
691.646	0.0147977
691.724	0.0147041
691.802	0.0146419
691.880	0.0147170
691.958	0.0147520
692.037	0.0148635
692.115	0.0149174
692.193	0.0150758
692.271	0.0149876
692.349	0.0152003
692.427	0.0151205
692.505	0.0152143
692.583	0.0153870
692.662	0.0153170
692.740	0.0151037
692.818	0.0152474
692.896	0.0152901
692.974	0.0152197
693.052	0.0151931
693.130	0.0152014
693.208	0.0152193
693.287	0.0150755
693.365	0.0150830
693.443	0.0151392
693.521	0.0148907
693.599	0.0148944
693.677	0.0149368
693.755	0.0148280
693.833	0.0147857
693.912	0.0148396
693.990	0.0147438
694.068	0.0147369
694.146	0.0145527
694.224	0.0146410
694.302	0.0144918
694.380	0.0145972
694.458	0.0146934
694.537	0.0146407
694.615	0.0146764
694.693	0.0146432
694.771	0.0146349
694.849	0.0146098
694.927	0.0146143
695.005	0.0147611
695.083	0.0148820
695.162	0.0148845
695.240	0.0148586
695.318	0.0151457
695.396	0.0152374
695.474	0.0153062
695.552	0.0154679
695.630	0.0153358
695.708	0.0154584
695.787	0.0153686
695.865	0.0152715
695.943	0.0152725
696.021	0.0153259
696.099	0.0150500
696.177	0.0149960
696.255	0.0149561
696.333	0.0149323
696.412	0.0149744
696.490	0.0150117
696.568	0.0149445
696.646	0.0149731
696.724	0.0148589
696.802	0.0145850
696.880	0.0147661
696.958	0.0148045
697.037	0.0146756
697.115	0.0145424
697.193	0.0144072
697.271	0.0143861
697.349	0.0144852
697.427	0.0145049
697.505	0.0145595
697.583	0.0147338
697.662	0.0147054
697.740	0.0146489
697.818	0.0147005
697.896	0.0147326
697.974	0.0146568
698.052	0.0147121
698.130	0.0147462
698.208	0.0148318
698.287	0.0147733
698.365	0.0147414
698.443	0.0148392
698.521	0.0148466
698.599	0.0148966
698.677	0.0150524
698.755	0.0150046
698.833	0.0149768
698.912	0.0150023
698.990	0.0149337
699.068	0.0148997
699.146	0.0150185
699.224	0.0151043
699.302	0.0150819
699.380	0.0151707
699.458	0.0153409
699.537	0.0152387
699.615	0.0153585
699.693	0.0153127
699.771	0.0152126
699.849	0.0149964
699.927	0.0149226
700.005	0.0147741
700.083	0.0147554
700.162	0.0145683
700.240	0.0143900
700.318	0.0143472
700.396	0.0144035
700.474	0.0142043
700.552	0.0141831
700.630	0.0143545
700.708	0.0145097
700.787	0.0145470
700.865	0.0145529
700.943	0.0147047
701.021	0.0148122
701.099	0.0149160
701.177	0.0149907
701.255	0.0150494
701.333	0.0150965
701.412	0.0150932
701.490	0.0151308
701.568	0.0151456
701.646	0.0150626
701.724	0.0150163
701.802	0.0151458
701.880	0.0149241
701.958	0.0149341
702.037	0.0148647
702.115	0.0148705
702.193	0.0148434
702.271	0.0148975
702.349	0.0149580
702.427	0.0151386
702.505	0.0152067
702.583	0.0152158
702.662	0.0151746
702.740	0.0152940
702.818	0.0154518
702.896	0.0153019
702.974	0.0150961
703.052	0.0148397
703.130	0.0148428
703.208	0.0147256
703.287	0.0145953
703.365	0.0145378
703.443	0.0145897
703.521	0.0143907
703.599	0.0144323
703.677	0.0143822
703.755	0.0144031
703.833	0.0144461
703.912	0.0145187
703.990	0.0146809
704.068	0.0146634
704.146	0.0149491
704.224	0.0149812
704.302	0.0150292
704.380	0.0150714
704.458	0.0149623
704.537	0.0151081
704.615	0.0150759
704.693	0.0148993
704.771	0.0148014
704.849	0.0147676
704.927	0.0146734
705.005	0.0146218
705.083	0.0145824
705.162	0.0146061
705.240	0.0146362
705.318	0.0147917
705.396	0.0149374
705.474	0.0150058
705.552	0.0149839
705.630	0.0150456
705.708	0.0152944
705.787	0.0153825
705.865	0.0151976
705.943	0.0152750
706.021	0.0153476
706.099	0.0151105
706.177	0.0149936
706.255	0.0150876
706.333	0.0149422
706.412	0.0147327
706.490	0.0147050
706.568	0.0146529
706.646	0.0145219
706.724	0.0146889
706.802	0.0147445
706.880	0.0147711
706.958	0.0148204
707.037	0.0148328
707.115	0.0150024
707.193	0.0149410
707.271	0.0150809
707.349	0.0149221
707.427	0.0150347
707.505	0.0148979
707.583	0.0148625
707.662	0.0147932
707.740	0.0146991
707.818	0.0147417
707.896	0.0146565
707.974	0.0145705
708.052	0.0145855
708.130	0.0148733
708.208	0.0148032
708.287	0.0148060
708.365	0.0147206
708.443	0.0148003
708.521	0.0149673
708.599	0.0150768
708.677	0.0150286
708.755	0.0150890
708.833	0.0152215
708.912	0.0151689
708.990	0.0151694
709.068	0.0152757
709.146	0.0149757
709.224	0.0150605
709.302	0.0150301
709.380	0.0148342
709.458	0.0148403
709.537	0.0146908
709.615	0.0148037
709.693	0.0146043
709.771	0.0146703
709.849	0.0148270
709.927	0.0147034
710.005	0.0147606
710.083	0.0147563
710.162	0.0149369
710.240	0.0148148
710.318	0.0150849
710.396	0.0150696
710.474	0.0148170
710.552	0.0149017
710.630	0.0146699
710.708	0.0146088
710.787	0.0147567
710.865	0.0147036
710.943	0.0148135
711.021	0.0147952
711.099	0.0146989
711.177	0.0146543
711.255	0.0146909
711.333	0.0149643
711.412	0.0148457
711.490	0.0147947
711.568	0.0149323
711.646	0.0149957
711.724	0.0150345
711.802	0.0149622
711.880	0.0150666
711.958	0.0149677
712.037	0.0150611
712.115	0.0149471
712.193	0.0150144
712.271	0.0150084
712.349	0.0148107
712.427	0.0149152
712.505	0.0146883
712.583	0.0147047
712.662	0.0148353
712.740	0.0149549
712.818	0.0148257
712.896	0.0147782
712.974	0.0147863
713.052	0.0147839
713.130	0.0148260
713.208	0.0148356
713.287	0.0148958
713.365	0.0149664
713.443	0.0149136
713.521	0.0150182
713.599	0.0148515
713.677	0.0149844
713.755	0.0150691
713.833	0.0149577
713.912	0.0148208
713.990	0.0147890
714.068	0.0148227
714.146	0.0148891
714.224	0.0148971
714.302	0.0148746
714.380	0.0149059
714.458	0.0147877
714.537	0.0150043
714.615	0.0149335
714.693	0.0147663
714.771	0.0149829
714.849	0.0149155
714.927	0.0149551
715.005	0.0146930
715.083	0.0148625
715.162	0.0148750
715.240	0.0148357
715.318	0.0147070
715.396	0.0147034
715.474	0.0147144
715.552	0.0147430
715.630	0.0146340
715.708	0.0146972
715.787	0.0148385
715.865	0.0148515
715.943	0.0148917
716.021	0.0149798
716.099	0.0149971
716.177	0.0151259
716.255	0.0151062
716.333	0.0151399
716.412	0.0151555
716.490	0.0151101
716.568	0.0150449
716.646	0.0150598
716.724	0.0151424
716.802	0.0150695
716.880	0.0149072
716.958	0.0147198
717.037	0.0147231
717.115	0.0147395
717.193	0.0146827
717.271	0.0145760
717.349	0.0145055
717.427	0.0145087
717.505	0.0146281
717.583	0.0146139
717.662	0.0146303
717.740	0.0146244
717.818	0.0146882
717.896	0.0147002
717.974	0.0148756
718.052	0.0149474
718.130	0.0150104
718.208	0.0148176
718.287	0.0149514
718.365	0.0150073
718.443	0.0151743
718.521	0.0151366
718.599	0.0150835
718.677	0.0151678
718.755	0.0150451
718.833	0.0151842
718.912	0.0150510
718.990	0.0149676
719.068	0.0151969
719.146	0.0151247
719.224	0.0148840
719.302	0.0149216
719.380	0.0148955
719.458	0.0148925
719.537	0.0148425
719.615	0.0147558
719.693	0.0148418
719.771	0.0148226
719.849	0.0146925
719.927	0.0148292
720.005	0.0147617
720.083	0.0146394
720.162	0.0145487
720.240	0.0145411
720.318	0.0145399
720.396	0.0145360
720.474	0.0146214
720.552	0.0145242
720.630	0.0148305
720.708	0.0146159
720.787	0.0147063
720.865	0.0147046
720.943	0.0148014
721.021	0.0146917
721.099	0.0147739
721.177	0.0149219
721.255	0.0149405
721.333	0.0149745
721.412	0.0148175
721.490	0.0148556
721.568	0.0150336
721.646	0.0150554
721.724	0.0149991
721.802	0.0150815
721.880	0.0150097
721.958	0.0151196
722.037	0.0149347
722.115	0.0149612
722.193	0.0151089
722.271	0.0150108
722.349	0.0149812
722.427	0.0148973
722.505	0.0148969
722.583	0.0149902
722.662	0.0148097
722.740	0.0148893
722.818	0.0148775
722.896	0.0148373
722.974	0.0148196
723.052	0.0147689
723.130	0.0148125
723.208	0.0148152
723.287	0.0147649
723.365	0.0148232
723.443	0.0146938
723.521	0.0147720
723.599	0.0148684
723.677	0.0150069
723.755	0.0147678
723.833	0.0149590
723.912	0.0148284
723.990	0.0147707
724.068	0.0150597
724.146	0.0149404
724.224	0.0149860
724.302	0.0149371
724.380	0.0147876
724.458	0.0148692
724.537	0.0147888
724.615	0.0147313
724.693	0.0146410
724.771	0.0147668
724.849	0.0148236
724.927	0.0147812
725.005	0.0148650
725.083	0.0147881
725.162	0.0148354
725.240	0.0150366
725.318	0.0150048
725.396	0.0150064
725.474	0.0150563
725.552	0.0150104
725.630	0.0149546
725.708	0.0150772
725.787	0.0149948
725.865	0.0149120
725.943	0.0148021
726.021	0.0150139
726.099	0.0150774
726.177	0.0150211
726.255	0.0150113
726.333	0.0149546
726.412	0.0149825
726.490	0.0148876
726.568	0.0149650
726.646	0.0149206
726.724	0.0149808
726.802	0.0148737
726.880	0.0148571
726.958	0.0147517
727.037	0.0147144
727.115	0.0147852
727.193	0.0147676
727.271	0.0146176
727.349	0.0146146
727.427	0.0146265
727.505	0.0147114
727.583	0.0147793
727.662	0.0147849
727.740	0.0145321
727.818	0.0146302
727.896	0.0146582
727.974	0.0147623
728.052	0.0147747
728.130	0.0148662
728.208	0.0148512
728.287	0.0149596
728.365	0.0149571
728.443	0.0151954
728.521	0.0150023
728.599	0.0150939
728.677	0.0150320
728.755	0.0151616
728.833	0.0152158
728.912	0.0152001
728.990	0.0152050
729.068	0.0150262
729.146	0.0150455
729.224	0.0151049
729.302	0.0150250
729.380	0.0149831
729.458	0.0149772
729.537	0.0148088
729.615	0.0148813
729.693	0.0148148
729.771	0.0148874
729.849	0.0148149
729.927	0.0146431
730.005	0.0145970
730.083	0.0145657
730.162	0.0146302
730.240	0.0146606
730.318	0.0144649
730.396	0.0145867
730.474	0.0147482
730.552	0.0147900
730.630	0.0146593
730.708	0.0148102
730.787	0.0148431
730.865	0.0149265
730.943	0.0149040
731.021	0.0147953
731.099	0.0147719
731.177	0.0148802
731.255	0.0148321
731.333	0.0149195
731.412	0.0148926
731.490	0.0148533
731.568	0.0150416
731.646	0.0148703
731.724	0.0148759
731.802	0.0148915
731.880	0.0148972
731.958	0.0147782
732.037	0.0148739
732.115	0.0148145
732.193	0.0149246
732.271	0.0149562
732.349	0.0148820
732.427	0.0150153
732.505	0.0149487
732.583	0.0149934
732.662	0.0149061
732.740	0.0148947
732.818	0.0148194
732.896	0.0147461
732.974	0.0147432
733.052	0.0147201
733.130	0.0148035
733.208	0.0147709
733.287	0.0147589
733.365	0.0146064
733.443	0.0145809
733.521	0.0146894
733.599	0.0148819
733.677	0.0147031
733.755	0.0146062
733.833	0.0147662
733.912	0.0147525
733.990	0.0149609
734.068	0.0148299
734.146	0.0147709
734.224	0.0148047
734.302	0.0148200
734.380	0.0146758
734.458	0.0148993
734.537	0.0147826
734.615	0.0146371
734.693	0.0147177
734.771	0.0148042
734.849	0.0148293
734.927	0.0148701
735.005	0.0148252
735.083	0.0149563
735.162	0.0150819
735.240	0.0148820
735.318	0.0149616
735.396	0.0150500
735.474	0.0150047
735.552	0.0149335
735.630	0.0148849
735.708	0.0149156
735.787	0.0149316
735.865	0.0149692
735.943	0.0149661
736.021	0.0149459
736.099	0.0149036
736.177	0.0149683
736.255	0.0149825
736.333	0.0148086
736.412	0.0150414
736.490	0.0148937
736.568	0.0148425
736.646	0.0148238
736.724	0.0148172
736.802	0.0148626
736.880	0.0149539
736.958	0.0149090
737.037	0.0148683
737.115	0.0149188
737.193	0.0149008
737.271	0.0146770
737.349	0.0148554
737.427	0.0148006
737.505	0.0148025
737.583	0.0147575
737.662	0.0147554
737.740	0.0149071
737.818	0.0148450
737.896	0.0148529
737.974	0.0148262
738.052	0.0148416
738.130	0.0149719
738.208	0.0149746
738.287	0.0150165
738.365	0.0149046
738.443	0.0149823
738.521	0.0148562
738.599	0.0149537
738.677	0.0148539
738.755	0.0149520
738.833	0.0148943
738.912	0.0148875
738.990	0.0149153
739.068	0.0148775
739.146	0.0148399
739.224	0.0149016
739.302	0.0148706
739.380	0.0147916
739.458	0.0148589
739.537	0.0148707
739.615	0.0147920
739.693	0.0148818
739.771	0.0147943
739.849	0.0148019
739.927	0.0146899
740.005	0.0147248
740.083	0.0146598
740.162	0.0146995
740.240	0.0146329
740.318	0.0146754
740.396	0.0147187
740.474	0.0148138
740.552	0.0147047
740.630	0.0148454
740.708	0.0147325
740.787	0.0148335
740.865	0.0149190
740.943	0.0148218
741.021	0.0149389
741.099	0.0148793
741.177	0.0148462
741.255	0.0150285
741.333	0.0149704
741.412	0.0148371
741.490	0.0148904
741.568	0.0148833
741.646	0.0149123
741.724	0.0150102
741.802	0.0149269
741.880	0.0148450
741.958	0.0149922
742.037	0.0147890
742.115	0.0149429
742.193	0.0148222
742.271	0.0148172
742.349	0.0148432
742.427	0.0148930
742.505	0.0148288
742.583	0.0146686
742.662	0.0147073
742.740	0.0148656
742.818	0.0148548
742.896	0.0147845
742.974	0.0149239
743.052	0.0149097
743.130	0.0147333
743.208	0.0148832
743.287	0.0147673
743.365	0.0147567
743.443	0.0148672
743.521	0.0149450
743.599	0.0147361
743.677	0.0148115
743.755	0.0148375
743.833	0.0147623
743.912	0.0147382
743.990	0.0147961
744.068	0.0149248
744.146	0.0148509
744.224	0.0148059
744.302	0.0149455
744.380	0.0147211
744.458	0.0147725
744.537	0.0148083
744.615	0.0147437
744.693	0.0147688
744.771	0.0146439
744.849	0.0147894
744.927	0.0147958
745.005	0.0149224
745.083	0.0149186
745.162	0.0149693
745.240	0.0148430
745.318	0.0149264
745.396	0.0151012
745.474	0.0151057
745.552	0.0151384
745.630	0.0150041
745.708	0.0150512
745.787	0.0149235
745.865	0.0149451
745.943	0.0150138
746.021	0.0149870
746.099	0.0150132
746.177	0.0147371
746.255	0.0148746
746.333	0.0147589
746.412	0.0148295
746.490	0.0147677
746.568	0.0146648
746.646	0.0147858
746.724	0.0147520
746.802	0.0147539
746.880	0.0147280
746.958	0.0147611
747.037	0.0148423
747.115	0.0147834
747.193	0.0147457
747.271	0.0146881
747.349	0.0148662
747.427	0.0147043
747.505	0.0146082
747.583	0.0146886
747.662	0.0148444
747.740	0.0148788
747.818	0.0146588
747.896	0.0148558
747.974	0.0147794
748.052	0.0149251
748.130	0.0148418
748.208	0.0148235
748.287	0.0148943
748.365	0.0149561
748.443	0.0149237
748.521	0.0149324
748.599	0.0149286
748.677	0.0148505
748.755	0.0148917
748.833	0.0150909
748.912	0.0149235
748.990	0.0148605
749.068	0.0149103
749.146	0.0147908
749.224	0.0148499
749.302	0.0148402
749.380	0.0148180
749.458	0.0149028
749.537	0.0148811
749.615	0.0148973
749.693	0.0150350
749.771	0.0148618
749.849	0.0147659
749.927	0.0148460
750.005	0.0148971
750.083	0.0148322
750.162	0.0148291
750.240	0.0147311
750.318	0.0148680
750.396	0.0148914
750.474	0.0148804
750.552	0.0148236
750.630	0.0148849
750.708	0.0148791
750.787	0.0147112
750.865	0.0148045
750.943	0.0147364
751.021	0.0148945
751.099	0.0148502
751.177	0.0147957
751.255	0.0149532
751.333	0.0148555
751.412	0.0147727
751.490	0.0149582
751.568	0.0151192
751.646	0.0148545
751.724	0.0148157
751.802	0.0147205
751.880	0.0150090
751.958	0.0149909
752.037	0.0149538
752.115	0.0148167
752.193	0.0149084
752.271	0.0147601
752.349	0.0149569
752.427	0.0148965
752.505	0.0148061
752.583	0.0148257
752.662	0.0149319
752.740	0.0150194
752.818	0.0149298
752.896	0.0148781
752.974	0.0148114
753.052	0.0147449
753.130	0.0148858
753.208	0.0149220
753.287	0.0148460
753.365	0.0149576
753.443	0.0149033
753.521	0.0149426
753.599	0.0148363
753.677	0.0147586
753.755	0.0147679
753.833	0.0148303
753.912	0.0147906
753.990	0.0147623
754.068	0.0147581
754.146	0.0147552
754.224	0.0147707
754.302	0.0148689
754.380	0.0148176
754.458	0.0146188
754.537	0.0147768
754.615	0.0148137
754.693	0.0148528
754.771	0.0150536
754.849	0.0148278
754.927	0.0147840
755.005	0.0149095
755.083	0.0149058
755.162	0.0150137
755.240	0.0148366
755.318	0.0148096
755.396	0.0150476
755.474	0.0149474
755.552	0.0148558
755.630	0.0148564
755.708	0.0148814
755.787	0.0148698
755.865	0.0148580
755.943	0.0149275
756.021	0.0149325
756.099	0.0149858
756.177	0.0148542
756.255	0.0148621
756.333	0.0147932
756.412	0.0149593
756.490	0.0149095
756.568	0.0148884
756.646	0.0149059
756.724	0.0148565
756.802	0.0149280
756.880	0.0149213
756.958	0.0149844
757.037	0.0150330
757.115	0.0150385
757.193	0.0148892
757.271	0.0148325
757.349	0.0147661
757.427	0.0148135
757.505	0.0148403
757.583	0.0148698
757.662	0.0148266
757.740	0.0148908
757.818	0.0147783
757.896	0.0148588
757.974	0.0148524
758.052	0.0148866
758.130	0.0147580
758.208	0.0148444
758.287	0.0150321
758.365	0.0149936
758.443	0.0148595
758.521	0.0149220
758.599	0.0147893
758.677	0.0147858
758.755	0.0148804
758.833	0.0146935
758.912	0.0149754
758.990	0.0147063
759.068	0.0147057
759.146	0.0145870
759.224	0.0148260
759.302	0.0146498
759.380	0.0147592
759.458	0.0145551
759.537	0.0146303
759.615	0.0146519
759.693	0.0148016
759.771	0.0147885
759.849	0.0147733
759.927	0.0146201
760.005	0.0147702
760.083	0.0147182
760.162	0.0147787
760.240	0.0148406
760.318	0.0148106
760.396	0.0149096
760.474	0.0149046
760.552	0.0147972
760.630	0.0149984
760.708	0.0150634
760.787	0.0149030
760.865	0.0149118
760.943	0.0149336
761.021	0.0150780
761.099	0.0150153
761.177	0.0147716
761.255	0.0149420
761.333	0.0148833
761.412	0.0148854
761.490	0.0147841
761.568	0.0148322
761.646	0.0146883
761.724	0.0149515
761.802	0.0148122
761.880	0.0147249
761.958	0.0147010
762.037	0.0148321
762.115	0.0147658
762.193	0.0147755
762.271	0.0147786
762.349	0.0147644
762.427	0.0147547
762.505	0.0146075
762.583	0.0149866
762.662	0.0149079
762.740	0.0148051
762.818	0.0148434
762.896	0.0148671
762.974	0.0149799
763.052	0.0149263
763.130	0.0147651
763.208	0.0147898
763.287	0.0148792
763.365	0.0149510
763.443	0.0148107
763.521	0.0148178
763.599	0.0149578
763.677	0.0148530
763.755	0.0148537
763.833	0.0149159
763.912	0.0148751
763.990	0.0146677
764.068	0.0147520
764.146	0.0148016
764.224	0.0148690
764.302	0.0147279
764.380	0.0147953
764.458	0.0147919
764.537	0.0148680
764.615	0.0148151
764.693	0.0147808
