05/04/2022	21:33:58	Ver.	4.1	UNKNOWN
Optical Delay	678.996401	Delta X		0.078125	Sweeps	1	Scan Rate	0/0
Coordinates	Axis 1	NaN	Axis 2	NaN	Axis 3	NaN	Axis 4	NaN	Axis 5	NaN	Axis 6	0.000000
TX Power	0.000000	RX Power	0.000000

678.996	0.0147153
679.075	0.0148271
679.153	0.0147077
679.231	0.0146999
679.309	0.0147903
679.387	0.0146680
679.465	0.0146322
679.543	0.0146853
679.621	0.0146489
679.700	0.0147227
679.778	0.0148923
679.856	0.0146767
679.934	0.0146875
680.012	0.0147548
680.090	0.0146545
680.168	0.0146774
680.246	0.0147565
680.325	0.0147699
680.403	0.0146680
680.481	0.0146622
680.559	0.0146140
680.637	0.0148109
680.715	0.0147017
680.793	0.0146955
680.871	0.0146894
680.950	0.0146818
681.028	0.0148071
681.106	0.0147422
681.184	0.0148090
681.262	0.0147543
681.340	0.0148707
681.418	0.0146978
681.496	0.0147533
681.575	0.0148493
681.653	0.0146857
681.731	0.0147652
681.809	0.0147386
681.887	0.0146950
681.965	0.0147639
682.043	0.0147236
682.121	0.0146281
682.200	0.0147635
682.278	0.0146883
682.356	0.0146313
682.434	0.0146689
682.512	0.0146233
682.590	0.0146078
682.668	0.0145968
682.746	0.0144672
682.825	0.0145227
682.903	0.0147577
682.981	0.0147670
683.059	0.0147530
683.137	0.0147832
683.215	0.0147186
683.293	0.0148660
683.371	0.0148999
683.450	0.0148666
683.528	0.0147826
683.606	0.0147411
683.684	0.0147536
683.762	0.0148668
683.840	0.0148379
683.918	0.0147815
683.996	0.0148279
684.075	0.0149423
684.153	0.0149258
684.231	0.0148831
684.309	0.0148135
684.387	0.0146642
684.465	0.0148253
684.543	0.0147958
684.621	0.0147412
684.700	0.0147101
684.778	0.0145850
684.856	0.0145246
684.934	0.0144893
685.012	0.0145750
685.090	0.0147002
685.168	0.0146474
685.246	0.0146816
685.325	0.0146354
685.403	0.0148255
685.481	0.0146653
685.559	0.0146412
685.637	0.0147414
685.715	0.0148107
685.793	0.0147090
685.871	0.0146725
685.950	0.0148730
686.028	0.0147169
686.106	0.0147878
686.184	0.0148964
686.262	0.0149924
686.340	0.0149696
686.418	0.0152042
686.496	0.0151061
686.575	0.0150582
686.653	0.0149339
686.731	0.0149818
686.809	0.0148752
686.887	0.0148244
686.965	0.0147558
687.043	0.0146706
687.121	0.0146147
687.200	0.0145852
687.278	0.0144671
687.356	0.0141911
687.434	0.0142205
687.512	0.0142886
687.590	0.0143259
687.668	0.0142981
687.746	0.0145119
687.825	0.0143693
687.903	0.0144200
687.981	0.0146673
688.059	0.0146448
688.137	0.0146943
688.215	0.0149087
688.293	0.0149889
688.371	0.0148658
688.450	0.0149971
688.528	0.0150913
688.606	0.0151155
688.684	0.0150298
688.762	0.0150571
688.840	0.0152012
688.918	0.0151237
688.996	0.0150166
689.075	0.0150027
689.153	0.0148515
689.231	0.0149447
689.309	0.0148635
689.387	0.0148680
689.465	0.0149448
689.543	0.0149490
689.621	0.0150223
689.700	0.0148605
689.778	0.0147986
689.856	0.0148007
689.934	0.0149178
690.012	0.0146613
690.090	0.0146615
690.168	0.0146560
690.246	0.0145830
690.325	0.0145005
690.403	0.0144510
690.481	0.0145093
690.559	0.0144450
690.637	0.0144547
690.715	0.0144808
690.793	0.0145752
690.871	0.0144898
690.950	0.0146432
691.028	0.0146853
691.106	0.0145728
691.184	0.0146495
691.262	0.0145055
691.340	0.0146555
691.418	0.0146706
691.496	0.0146855
691.575	0.0147701
691.653	0.0150029
691.731	0.0149760
691.809	0.0149307
691.887	0.0150554
691.965	0.0149657
692.043	0.0149052
692.121	0.0149540
692.200	0.0150011
692.278	0.0150434
692.356	0.0151128
692.434	0.0149978
692.512	0.0150632
692.590	0.0149522
692.668	0.0148457
692.746	0.0148634
692.825	0.0148344
692.903	0.0149146
692.981	0.0148812
693.059	0.0147398
693.137	0.0147366
693.215	0.0146244
693.293	0.0145229
693.371	0.0145913
693.450	0.0145383
693.528	0.0145258
693.606	0.0145005
693.684	0.0145916
693.762	0.0144926
693.840	0.0142610
693.918	0.0145919
693.996	0.0145094
694.075	0.0143668
694.153	0.0143341
694.231	0.0144588
694.309	0.0144291
694.387	0.0142798
694.465	0.0145222
694.543	0.0145670
694.621	0.0145276
694.700	0.0148378
694.778	0.0149712
694.856	0.0148995
694.934	0.0150660
695.012	0.0152009
695.090	0.0151720
695.168	0.0152669
695.246	0.0152255
695.325	0.0151841
695.403	0.0151498
695.481	0.0150616
695.559	0.0151049
695.637	0.0150616
695.715	0.0148325
695.793	0.0147776
695.871	0.0149298
695.950	0.0147365
696.028	0.0147770
696.106	0.0146935
696.184	0.0147752
696.262	0.0146509
696.340	0.0146486
696.418	0.0146239
696.496	0.0144896
696.575	0.0144289
696.653	0.0142516
696.731	0.0142453
696.809	0.0143728
696.887	0.0143913
696.965	0.0142498
697.043	0.0143869
697.121	0.0144545
697.200	0.0143713
697.278	0.0143423
697.356	0.0145146
697.434	0.0145329
697.512	0.0144717
697.590	0.0146897
697.668	0.0146350
697.746	0.0146833
697.825	0.0148727
697.903	0.0147247
697.981	0.0147096
698.059	0.0149753
698.137	0.0149575
698.215	0.0150748
698.293	0.0148913
698.371	0.0151183
698.450	0.0151113
698.528	0.0148233
698.606	0.0149979
698.684	0.0149847
698.762	0.0149316
698.840	0.0148539
698.918	0.0150251
698.996	0.0150349
699.075	0.0150850
699.153	0.0150887
699.231	0.0151549
699.309	0.0150806
699.387	0.0150832
699.465	0.0148327
699.543	0.0148414
699.621	0.0147730
699.700	0.0146137
699.778	0.0144610
699.856	0.0142412
699.934	0.0142719
700.012	0.0142143
700.090	0.0141222
700.168	0.0140947
700.246	0.0142154
700.325	0.0142522
700.403	0.0145119
700.481	0.0143193
700.559	0.0143976
700.637	0.0146568
700.715	0.0147245
700.793	0.0149840
700.871	0.0148791
700.950	0.0149869
701.028	0.0148373
701.106	0.0148717
701.184	0.0150530
701.262	0.0150727
701.340	0.0148795
701.418	0.0148856
701.496	0.0149403
701.575	0.0150089
701.653	0.0149222
701.731	0.0148328
701.809	0.0148416
701.887	0.0147755
701.965	0.0149201
702.043	0.0149625
702.121	0.0150394
702.200	0.0151264
702.278	0.0152077
702.356	0.0150874
702.434	0.0151048
702.512	0.0151485
702.590	0.0149066
702.668	0.0149786
702.746	0.0148582
702.825	0.0146282
702.903	0.0146152
702.981	0.0145134
703.059	0.0145078
703.137	0.0144146
703.215	0.0144227
703.293	0.0144113
703.371	0.0142131
703.450	0.0143163
703.528	0.0145404
703.606	0.0144959
703.684	0.0144542
703.762	0.0145440
703.840	0.0145903
703.918	0.0147485
703.996	0.0146770
704.075	0.0147702
704.153	0.0148390
704.231	0.0148045
704.309	0.0148009
704.387	0.0148061
704.465	0.0147523
704.543	0.0148907
704.621	0.0147930
704.700	0.0146506
704.778	0.0148812
704.856	0.0147938
704.934	0.0147832
705.012	0.0148472
705.090	0.0149249
705.168	0.0149357
705.246	0.0149085
705.325	0.0151332
705.403	0.0150569
705.481	0.0150365
705.559	0.0151512
705.637	0.0151167
705.715	0.0150767
705.793	0.0149399
705.871	0.0147149
705.950	0.0147112
706.028	0.0146700
706.106	0.0145964
706.184	0.0145969
706.262	0.0145618
706.340	0.0145937
706.418	0.0145837
706.496	0.0146571
706.575	0.0146453
706.653	0.0145422
706.731	0.0146146
706.809	0.0146619
706.887	0.0146462
706.965	0.0148379
707.043	0.0146252
707.121	0.0147879
707.200	0.0144897
707.278	0.0146594
707.356	0.0146190
707.434	0.0145779
707.512	0.0145544
707.590	0.0145714
707.668	0.0147280
707.746	0.0145953
707.825	0.0147446
707.903	0.0147258
707.981	0.0147011
708.059	0.0146893
708.137	0.0147962
708.215	0.0148114
708.293	0.0148376
708.371	0.0148605
708.450	0.0150684
708.528	0.0150476
708.606	0.0150488
708.684	0.0149428
708.762	0.0148457
708.840	0.0149720
708.918	0.0149894
708.996	0.0148334
709.075	0.0147724
709.153	0.0150102
709.231	0.0148040
709.309	0.0149178
709.387	0.0149751
709.465	0.0148159
709.543	0.0147818
709.621	0.0147266
709.700	0.0147562
709.778	0.0145742
709.856	0.0145865
709.934	0.0146092
710.012	0.0144968
710.090	0.0144942
710.168	0.0145255
710.246	0.0144616
710.325	0.0143655
710.403	0.0144173
710.481	0.0145801
710.559	0.0143761
710.637	0.0144517
710.715	0.0145996
710.793	0.0146446
710.871	0.0145368
710.950	0.0147694
711.028	0.0147305
711.106	0.0145535
711.184	0.0147816
711.262	0.0146976
711.340	0.0149171
711.418	0.0148876
711.496	0.0148856
711.575	0.0149296
711.653	0.0150894
711.731	0.0150137
711.809	0.0150709
711.887	0.0151030
711.965	0.0150359
712.043	0.0149351
712.121	0.0150020
712.200	0.0149624
712.278	0.0147807
712.356	0.0148766
712.434	0.0147094
712.512	0.0146918
712.590	0.0147789
712.668	0.0147382
712.746	0.0148032
712.825	0.0147339
712.903	0.0145452
712.981	0.0146986
713.059	0.0148283
713.137	0.0147770
713.215	0.0147350
713.293	0.0146861
713.371	0.0147318
713.450	0.0147832
713.528	0.0146387
713.606	0.0147742
713.684	0.0148206
713.762	0.0147861
713.840	0.0147762
713.918	0.0147342
713.996	0.0147407
714.075	0.0146552
714.153	0.0147610
714.231	0.0147895
714.309	0.0147057
714.387	0.0146049
714.465	0.0145088
714.543	0.0146778
714.621	0.0146725
714.700	0.0146523
714.778	0.0146590
714.856	0.0146770
714.934	0.0147572
715.012	0.0146917
715.090	0.0147173
715.168	0.0147772
715.246	0.0149174
715.325	0.0148673
715.403	0.0147904
715.481	0.0148584
715.559	0.0148153
715.637	0.0148122
715.715	0.0148225
715.793	0.0149625
715.871	0.0149393
715.950	0.0149240
716.028	0.0149586
716.106	0.0149796
716.184	0.0147956
716.262	0.0150175
716.340	0.0149639
716.418	0.0147083
716.496	0.0149093
716.575	0.0147536
716.653	0.0147052
716.731	0.0146126
716.809	0.0146908
716.887	0.0147591
716.965	0.0146854
717.043	0.0146204
717.121	0.0143230
717.200	0.0144730
717.278	0.0146455
717.356	0.0145188
717.434	0.0143166
717.512	0.0145722
717.590	0.0145097
717.668	0.0145032
717.746	0.0143510
717.825	0.0144910
717.903	0.0146609
717.981	0.0147907
718.059	0.0149010
718.137	0.0148611
718.215	0.0148290
718.293	0.0149741
718.371	0.0149268
718.450	0.0148727
718.528	0.0150359
718.606	0.0151398
718.684	0.0148846
718.762	0.0150315
718.840	0.0148195
718.918	0.0148047
718.996	0.0148272
719.075	0.0148694
719.153	0.0148153
719.231	0.0147573
719.309	0.0145686
719.387	0.0147787
719.465	0.0145918
719.543	0.0146200
719.621	0.0145609
719.700	0.0146418
719.778	0.0146160
719.856	0.0145260
719.934	0.0146030
720.012	0.0145598
720.090	0.0145782
720.168	0.0145265
720.246	0.0145126
720.325	0.0145100
720.403	0.0145801
720.481	0.0145385
720.559	0.0145983
720.637	0.0144291
720.715	0.0146004
720.793	0.0146235
720.871	0.0147157
720.950	0.0148124
721.028	0.0147088
721.106	0.0147041
721.184	0.0147202
721.262	0.0147588
721.340	0.0149233
721.418	0.0148986
721.496	0.0148241
721.575	0.0149118
721.653	0.0150513
721.731	0.0149419
721.809	0.0147070
721.887	0.0148208
721.965	0.0149469
722.043	0.0147904
722.121	0.0147144
722.200	0.0148344
722.278	0.0147150
722.356	0.0147058
722.434	0.0147106
722.512	0.0147211
722.590	0.0146523
722.668	0.0146534
722.746	0.0146814
722.825	0.0147973
722.903	0.0147227
722.981	0.0146923
723.059	0.0147641
723.137	0.0146829
723.215	0.0146461
723.293	0.0148100
723.371	0.0149844
723.450	0.0148173
723.528	0.0146428
723.606	0.0148231
723.684	0.0148240
723.762	0.0147797
723.840	0.0147841
723.918	0.0146346
723.996	0.0147243
724.075	0.0146089
724.153	0.0145085
724.231	0.0147196
724.309	0.0146577
724.387	0.0146194
724.465	0.0145611
724.543	0.0145303
724.621	0.0145324
724.700	0.0147661
724.778	0.0147641
724.856	0.0146626
724.934	0.0147472
725.012	0.0148093
725.090	0.0148868
725.168	0.0147916
725.246	0.0148635
725.325	0.0150439
725.403	0.0149681
725.481	0.0150765
725.559	0.0151007
725.637	0.0150702
725.715	0.0150380
725.793	0.0150377
725.871	0.0150639
725.950	0.0150198
726.028	0.0149323
726.106	0.0150153
726.184	0.0150520
726.262	0.0148100
726.340	0.0147436
726.418	0.0147986
726.496	0.0146908
726.575	0.0147339
726.653	0.0146727
726.731	0.0146682
726.809	0.0146165
726.887	0.0145674
726.965	0.0143450
727.043	0.0143730
727.121	0.0143843
727.200	0.0144809
727.278	0.0145290
727.356	0.0144034
727.434	0.0145390
727.512	0.0144438
727.590	0.0146435
727.668	0.0147549
727.746	0.0147744
727.825	0.0147652
727.903	0.0148457
727.981	0.0149168
728.059	0.0149021
728.137	0.0149408
728.215	0.0150980
728.293	0.0149641
728.371	0.0149745
728.450	0.0149692
728.528	0.0149570
728.606	0.0148878
728.684	0.0149989
728.762	0.0149321
728.840	0.0149773
728.918	0.0147961
728.996	0.0148565
729.075	0.0150747
729.153	0.0149069
729.231	0.0148335
729.309	0.0149442
729.387	0.0149161
729.465	0.0148098
729.543	0.0147518
729.621	0.0146867
729.700	0.0146983
729.778	0.0145977
729.856	0.0146343
729.934	0.0146263
730.012	0.0146539
730.090	0.0147150
730.168	0.0145822
730.246	0.0147614
730.325	0.0147249
730.403	0.0145849
730.481	0.0147784
730.559	0.0146687
730.637	0.0147047
730.715	0.0148511
730.793	0.0148802
730.871	0.0147588
730.950	0.0147877
731.028	0.0147678
731.106	0.0147108
731.184	0.0147720
731.262	0.0150127
731.340	0.0147206
731.418	0.0147948
731.496	0.0146310
731.575	0.0146438
731.653	0.0147842
731.731	0.0146701
731.809	0.0146807
731.887	0.0147030
731.965	0.0147684
732.043	0.0149310
732.121	0.0148176
732.200	0.0148414
732.278	0.0148506
732.356	0.0148465
732.434	0.0148326
732.512	0.0148127
732.590	0.0147456
732.668	0.0148853
732.746	0.0147388
732.825	0.0146883
732.903	0.0148048
732.981	0.0146297
733.059	0.0146602
733.137	0.0147375
733.215	0.0146974
733.293	0.0147697
733.371	0.0147845
733.450	0.0146568
733.528	0.0145418
733.606	0.0146552
733.684	0.0147147
733.762	0.0147778
733.840	0.0145851
733.918	0.0146821
733.996	0.0145206
734.075	0.0146246
734.153	0.0145924
734.231	0.0146661
734.309	0.0144994
734.387	0.0146289
734.465	0.0145493
734.543	0.0144337
734.621	0.0146983
734.700	0.0146568
734.778	0.0146718
734.856	0.0146690
734.934	0.0146953
735.012	0.0148816
735.090	0.0150454
735.168	0.0149194
735.246	0.0148474
735.325	0.0149689
735.403	0.0150938
735.481	0.0150747
735.559	0.0150174
735.637	0.0150383
735.715	0.0149704
735.793	0.0148221
735.871	0.0149683
735.950	0.0148038
736.028	0.0147642
736.106	0.0147911
736.184	0.0147684
736.262	0.0147473
736.340	0.0146101
736.418	0.0146290
736.496	0.0147108
736.575	0.0146590
736.653	0.0146344
736.731	0.0146005
736.809	0.0146043
736.887	0.0147416
736.965	0.0147054
737.043	0.0147319
737.121	0.0145633
737.200	0.0146576
737.278	0.0146635
737.356	0.0145464
737.434	0.0147241
737.512	0.0147794
737.590	0.0147456
737.668	0.0146964
737.746	0.0148309
737.825	0.0147408
737.903	0.0148691
737.981	0.0149600
738.059	0.0148408
738.137	0.0148071
738.215	0.0148129
738.293	0.0148045
738.371	0.0148730
738.450	0.0148540
738.528	0.0147083
738.606	0.0148402
738.684	0.0149383
738.762	0.0148257
738.840	0.0146933
738.918	0.0148397
738.996	0.0147665
739.075	0.0147900
739.153	0.0147160
739.231	0.0146685
739.309	0.0148437
739.387	0.0148158
739.465	0.0146873
739.543	0.0147394
739.621	0.0147511
739.700	0.0148035
739.778	0.0146056
739.856	0.0148269
739.934	0.0146987
740.012	0.0146549
740.090	0.0146913
740.168	0.0146904
740.246	0.0147036
740.325	0.0146684
740.403	0.0146087
740.481	0.0147663
740.559	0.0145502
740.637	0.0148165
740.715	0.0148030
740.793	0.0147446
740.871	0.0148143
740.950	0.0147643
741.028	0.0148001
741.106	0.0148747
741.184	0.0149574
741.262	0.0147469
741.340	0.0148925
741.418	0.0149512
741.496	0.0147903
741.575	0.0147020
741.653	0.0147549
741.731	0.0147365
741.809	0.0148164
741.887	0.0147688
741.965	0.0146609
742.043	0.0147476
742.121	0.0149433
742.200	0.0148401
742.278	0.0147038
742.356	0.0147400
742.434	0.0147296
742.512	0.0147344
742.590	0.0147710
742.668	0.0148753
742.746	0.0147467
742.825	0.0147858
742.903	0.0149477
742.981	0.0148177
743.059	0.0147468
743.137	0.0148051
743.215	0.0148389
743.293	0.0148571
743.371	0.0148640
743.450	0.0148550
743.528	0.0147480
743.606	0.0147798
743.684	0.0147914
743.762	0.0148085
743.840	0.0147518
743.918	0.0147913
743.996	0.0146735
744.075	0.0145692
744.153	0.0146409
744.231	0.0147143
744.309	0.0148301
744.387	0.0144759
744.465	0.0147266
744.543	0.0147475
744.621	0.0147186
744.700	0.0148158
744.778	0.0147172
744.856	0.0147722
744.934	0.0148236
745.012	0.0146637
745.090	0.0147452
745.168	0.0149348
745.246	0.0149171
745.325	0.0148824
745.403	0.0147601
745.481	0.0149076
745.559	0.0149467
745.637	0.0150031
745.715	0.0148488
745.793	0.0148907
745.871	0.0148541
745.950	0.0149632
746.028	0.0149536
746.106	0.0148347
746.184	0.0148373
746.262	0.0147797
746.340	0.0146869
746.418	0.0146590
746.496	0.0147958
746.575	0.0147438
746.653	0.0146738
746.731	0.0145471
746.809	0.0145700
746.887	0.0146516
746.965	0.0146319
747.043	0.0144772
747.121	0.0145567
747.200	0.0146127
747.278	0.0146347
747.356	0.0146493
747.434	0.0146837
747.512	0.0147629
747.590	0.0147599
747.668	0.0146944
747.746	0.0148515
747.825	0.0149665
747.903	0.0149490
747.981	0.0146999
748.059	0.0147709
748.137	0.0149812
748.215	0.0149554
748.293	0.0150031
748.371	0.0148862
748.450	0.0148656
748.528	0.0148729
748.606	0.0150374
748.684	0.0149092
748.762	0.0148498
748.840	0.0147793
748.918	0.0148473
748.996	0.0148728
749.075	0.0147565
749.153	0.0147606
749.231	0.0147453
749.309	0.0146178
749.387	0.0146870
749.465	0.0148408
749.543	0.0146796
749.621	0.0146844
749.700	0.0145911
749.778	0.0146599
749.856	0.0145997
749.934	0.0147272
750.012	0.0148428
750.090	0.0147334
750.168	0.0148085
750.246	0.0146718
750.325	0.0147649
750.403	0.0147218
750.481	0.0148374
750.559	0.0147820
750.637	0.0148508
750.715	0.0147843
750.793	0.0147958
750.871	0.0146317
750.950	0.0147015
751.028	0.0146630
751.106	0.0146177
751.184	0.0146148
751.262	0.0145555
751.340	0.0145885
751.418	0.0147271
751.496	0.0146358
751.575	0.0146499
751.653	0.0146555
751.731	0.0146576
751.809	0.0147085
751.887	0.0146915
751.965	0.0146227
752.043	0.0147387
752.121	0.0147787
752.200	0.0146973
752.278	0.0146430
752.356	0.0147751
752.434	0.0147992
752.512	0.0147901
752.590	0.0148301
752.668	0.0146326
752.746	0.0148011
752.825	0.0147887
752.903	0.0148009
752.981	0.0147890
753.059	0.0146883
753.137	0.0147639
753.215	0.0148050
753.293	0.0145874
753.371	0.0148346
753.450	0.0147473
753.528	0.0146995
753.606	0.0148949
753.684	0.0147563
753.762	0.0146616
753.840	0.0147465
753.918	0.0146179
753.996	0.0147918
754.075	0.0146999
754.153	0.0146000
754.231	0.0147630
754.309	0.0147502
754.387	0.0145939
754.465	0.0147437
754.543	0.0146944
754.621	0.0147910
754.700	0.0145909
754.778	0.0146378
754.856	0.0146090
754.934	0.0146728
755.012	0.0146861
755.090	0.0147020
755.168	0.0147102
755.246	0.0146814
755.325	0.0146994
755.403	0.0147917
755.481	0.0148150
755.559	0.0146502
755.637	0.0147388
755.715	0.0147556
755.793	0.0149208
755.871	0.0148283
755.950	0.0147276
756.028	0.0148026
756.106	0.0147743
756.184	0.0148017
756.262	0.0147361
756.340	0.0147559
756.418	0.0145894
756.496	0.0146311
756.575	0.0145983
756.653	0.0146301
756.731	0.0146423
756.809	0.0146614
756.887	0.0145909
756.965	0.0146058
757.043	0.0145782
757.121	0.0145482
757.200	0.0145834
757.278	0.0145667
757.356	0.0147443
757.434	0.0147337
757.512	0.0146251
757.590	0.0146767
757.668	0.0146880
757.746	0.0147736
757.825	0.0148126
757.903	0.0147557
757.981	0.0147157
758.059	0.0147044
758.137	0.0146957
758.215	0.0148280
758.293	0.0147964
758.371	0.0146678
758.450	0.0147129
758.528	0.0146810
758.606	0.0147255
758.684	0.0147122
758.762	0.0147148
758.840	0.0146652
758.918	0.0146063
758.996	0.0146435
759.075	0.0146310
759.153	0.0146653
759.231	0.0146741
759.309	0.0145673
759.387	0.0147940
759.465	0.0145967
759.543	0.0146242
759.621	0.0145895
759.700	0.0146410
759.778	0.0147875
759.856	0.0146616
759.934	0.0146913
760.012	0.0145950
760.090	0.0146634
760.168	0.0147675
760.246	0.0147690
760.325	0.0149142
760.403	0.0148107
760.481	0.0148437
760.559	0.0149664
760.637	0.0148933
760.715	0.0148753
760.793	0.0148343
760.871	0.0147711
760.950	0.0148225
761.028	0.0147958
761.106	0.0147088
761.184	0.0147156
761.262	0.0148307
761.340	0.0147050
761.418	0.0146842
761.496	0.0147507
761.575	0.0148555
761.653	0.0147921
761.731	0.0147709
761.809	0.0148438
761.887	0.0147613
761.965	0.0147341
762.043	0.0145441
762.121	0.0146889
762.200	0.0148158
762.278	0.0147943
762.356	0.0147274
762.434	0.0147131
762.512	0.0147427
762.590	0.0147933
762.668	0.0147604
762.746	0.0148225
762.825	0.0147025
762.903	0.0146816
762.981	0.0146799
763.059	0.0147034
763.137	0.0147007
763.215	0.0147488
763.293	0.0148275
763.371	0.0148607
763.450	0.0147616
763.528	0.0147005
763.606	0.0147941
763.684	0.0148373
763.762	0.0146865
763.840	0.0146957
763.918	0.0149050
763.996	0.0147794
764.075	0.0146894
764.153	0.0147514
764.231	0.0147415
764.309	0.0148094
764.387	0.0149557
764.465	0.0147832
764.543	0.0148075
764.621	0.0147728
764.700	0.0147111
