05/04/2022	21:34:18	Ver.	4.1	UNKNOWN
Optical Delay	678.996401	Delta X		0.078125	Sweeps	1	Scan Rate	0/0
Coordinates	Axis 1	NaN	Axis 2	NaN	Axis 3	NaN	Axis 4	NaN	Axis 5	NaN	Axis 6	0.000000
TX Power	0.000000	RX Power	0.000000

678.996	0.0139996
679.075	0.0140643
679.153	0.0140710
679.231	0.0140098
679.309	0.0140431
679.387	0.0140079
679.465	0.0140692
679.543	0.0141016
679.621	0.0140179
679.700	0.0141003
679.778	0.0141222
679.856	0.0139877
679.934	0.0138132
680.012	0.0139059
680.090	0.0139986
680.168	0.0139056
680.246	0.0138596
680.325	0.0138831
680.403	0.0140726
680.481	0.0139988
680.559	0.0139114
680.637	0.0141351
680.715	0.0140455
680.793	0.0138929
680.871	0.0140536
680.950	0.0139227
681.028	0.0140911
681.106	0.0140990
681.184	0.0138409
681.262	0.0140690
681.340	0.0139314
681.418	0.0139840
681.496	0.0139163
681.575	0.0141775
681.653	0.0141164
681.731	0.0139226
681.809	0.0138705
681.887	0.0138169
681.965	0.0138825
682.043	0.0140051
682.121	0.0138835
682.200	0.0138314
682.278	0.0137446
682.356	0.0137954
682.434	0.0138950
682.512	0.0138856
682.590	0.0138669
682.668	0.0138844
682.746	0.0139848
682.825	0.0139886
682.903	0.0139577
682.981	0.0139915
683.059	0.0140243
683.137	0.0140031
683.215	0.0140337
683.293	0.0140432
683.371	0.0139446
683.450	0.0139067
683.528	0.0141830
683.606	0.0140191
683.684	0.0140337
683.762	0.0142367
683.840	0.0141260
683.918	0.0140527
683.996	0.0141209
684.075	0.0141335
684.153	0.0140110
684.231	0.0139953
684.309	0.0138001
684.387	0.0139122
684.465	0.0137787
684.543	0.0137788
684.621	0.0138670
684.700	0.0138718
684.778	0.0137756
684.856	0.0138258
684.934	0.0138787
685.012	0.0137862
685.090	0.0137944
685.168	0.0139009
685.246	0.0139179
685.325	0.0139845
685.403	0.0138856
685.481	0.0138517
685.559	0.0140031
685.637	0.0141961
685.715	0.0140439
685.793	0.0140855
685.871	0.0142722
685.950	0.0142098
686.028	0.0143726
686.106	0.0143351
686.184	0.0142769
686.262	0.0142337
686.340	0.0141846
686.418	0.0140246
686.496	0.0139692
686.575	0.0139682
686.653	0.0140083
686.731	0.0137897
686.809	0.0138896
686.887	0.0136777
686.965	0.0137215
687.043	0.0137122
687.121	0.0135804
687.200	0.0135305
687.278	0.0135259
687.356	0.0136229
687.434	0.0136779
687.512	0.0137775
687.590	0.0138680
687.668	0.0139147
687.746	0.0139542
687.825	0.0140009
687.903	0.0140629
687.981	0.0140710
688.059	0.0142034
688.137	0.0143327
688.215	0.0140971
688.293	0.0141135
688.371	0.0142572
688.450	0.0143118
688.528	0.0143063
688.606	0.0141641
688.684	0.0142173
688.762	0.0140992
688.840	0.0140849
688.918	0.0139925
688.996	0.0140834
689.075	0.0141753
689.153	0.0141197
689.231	0.0140419
689.309	0.0140100
689.387	0.0140207
689.465	0.0140321
689.543	0.0138976
689.621	0.0140011
689.700	0.0137881
689.778	0.0137917
689.856	0.0137776
689.934	0.0136913
690.012	0.0135715
690.090	0.0135144
690.168	0.0135580
690.246	0.0135484
690.325	0.0136806
690.403	0.0136684
690.481	0.0137437
690.559	0.0137937
690.637	0.0139157
690.715	0.0138496
690.793	0.0137515
690.871	0.0139252
690.950	0.0138373
691.028	0.0139654
691.106	0.0140001
691.184	0.0140736
691.262	0.0141787
691.340	0.0140594
691.418	0.0140071
691.496	0.0140906
691.575	0.0139895
691.653	0.0141248
691.731	0.0142607
691.809	0.0141138
691.887	0.0140794
691.965	0.0141792
692.043	0.0139991
692.121	0.0141930
692.200	0.0141168
692.278	0.0140260
692.356	0.0140437
692.434	0.0140889
692.512	0.0140034
692.590	0.0141209
692.668	0.0139435
692.746	0.0139532
692.825	0.0137575
692.903	0.0138451
692.981	0.0137106
693.059	0.0136452
693.137	0.0136137
693.215	0.0136372
693.293	0.0136966
693.371	0.0135373
693.450	0.0136379
693.528	0.0136868
693.606	0.0136951
693.684	0.0136543
693.762	0.0136227
693.840	0.0136520
693.918	0.0136877
693.996	0.0136313
694.075	0.0136856
694.153	0.0138052
694.231	0.0138531
694.309	0.0139767
694.387	0.0139496
694.465	0.0142810
694.543	0.0143235
694.621	0.0143531
694.700	0.0144530
694.778	0.0143988
694.856	0.0144682
694.934	0.0143313
695.012	0.0144218
695.090	0.0143002
695.168	0.0141947
695.246	0.0142962
695.325	0.0141875
695.403	0.0140915
695.481	0.0140695
695.559	0.0141431
695.637	0.0141195
695.715	0.0139803
695.793	0.0139884
695.871	0.0139774
695.950	0.0137356
696.028	0.0139172
696.106	0.0138475
696.184	0.0137566
696.262	0.0136695
696.340	0.0136863
696.418	0.0136340
696.496	0.0135524
696.575	0.0135786
696.653	0.0136632
696.731	0.0136857
696.809	0.0137630
696.887	0.0135694
696.965	0.0137124
697.043	0.0138175
697.121	0.0137402
697.200	0.0136697
697.278	0.0138273
697.356	0.0138425
697.434	0.0139291
697.512	0.0140126
697.590	0.0141315
697.668	0.0140726
697.746	0.0141376
697.825	0.0141582
697.903	0.0142077
697.981	0.0142597
698.059	0.0142426
698.137	0.0143193
698.215	0.0142447
698.293	0.0143496
698.371	0.0141313
698.450	0.0142278
698.528	0.0142339
698.606	0.0143678
698.684	0.0141527
698.762	0.0142783
698.840	0.0141762
698.918	0.0142526
698.996	0.0143226
699.075	0.0142218
699.153	0.0139280
699.231	0.0139906
699.309	0.0140045
699.387	0.0138165
699.465	0.0136702
699.543	0.0135153
699.621	0.0135450
699.700	0.0134250
699.778	0.0134300
699.856	0.0134860
699.934	0.0136181
700.012	0.0135094
700.090	0.0135434
700.168	0.0137345
700.246	0.0137805
700.325	0.0138697
700.403	0.0139293
700.481	0.0139921
700.559	0.0140065
700.637	0.0141008
700.715	0.0141557
700.793	0.0140994
700.871	0.0141781
700.950	0.0142163
701.028	0.0140742
701.106	0.0140390
701.184	0.0140889
701.262	0.0139635
701.340	0.0140583
701.418	0.0140900
701.496	0.0142178
701.575	0.0142831
701.653	0.0143056
701.731	0.0141782
701.809	0.0142707
701.887	0.0143257
701.965	0.0144472
702.043	0.0143385
702.121	0.0143048
702.200	0.0142068
702.278	0.0141451
702.356	0.0140520
702.434	0.0140476
702.512	0.0140973
702.590	0.0139068
702.668	0.0137469
702.746	0.0137777
702.825	0.0137296
702.903	0.0137231
702.981	0.0136334
703.059	0.0137183
703.137	0.0136170
703.215	0.0135529
703.293	0.0135252
703.371	0.0136914
703.450	0.0135233
703.528	0.0137897
703.606	0.0136658
703.684	0.0137385
703.762	0.0136485
703.840	0.0137371
703.918	0.0137778
703.996	0.0138616
704.075	0.0138463
704.153	0.0138894
704.231	0.0141256
704.309	0.0140407
704.387	0.0141154
704.465	0.0141821
704.543	0.0142405
704.621	0.0142828
704.700	0.0142599
704.778	0.0143867
704.856	0.0144292
704.934	0.0143121
705.012	0.0143744
705.090	0.0144582
705.168	0.0143272
705.246	0.0142647
705.325	0.0143462
705.403	0.0142256
705.481	0.0141624
705.559	0.0140019
705.637	0.0139648
705.715	0.0137730
705.793	0.0138539
705.871	0.0138593
705.950	0.0137141
706.028	0.0137249
706.106	0.0138349
706.184	0.0137371
706.262	0.0137920
706.340	0.0137794
706.418	0.0138711
706.496	0.0137182
706.575	0.0139194
706.653	0.0139001
706.731	0.0139298
706.809	0.0139056
706.887	0.0138294
706.965	0.0140251
707.043	0.0139075
707.121	0.0139955
707.200	0.0138139
707.278	0.0138286
707.356	0.0139575
707.434	0.0138479
707.512	0.0138079
707.590	0.0138915
707.668	0.0140057
707.746	0.0138951
707.825	0.0140326
707.903	0.0140575
707.981	0.0140500
708.059	0.0140863
708.137	0.0140875
708.215	0.0141329
708.293	0.0140204
708.371	0.0140777
708.450	0.0142861
708.528	0.0141190
708.606	0.0140624
708.684	0.0142021
708.762	0.0142963
708.840	0.0141928
708.918	0.0143063
708.996	0.0143724
709.075	0.0141690
709.153	0.0141759
709.231	0.0141203
709.309	0.0140116
709.387	0.0141016
709.465	0.0141222
709.543	0.0139278
709.621	0.0138663
709.700	0.0138014
709.778	0.0137256
709.856	0.0136926
709.934	0.0136729
710.012	0.0136172
710.090	0.0135783
710.168	0.0136221
710.246	0.0136111
710.325	0.0136654
710.403	0.0135239
710.481	0.0135857
710.559	0.0138238
710.637	0.0137776
710.715	0.0139065
710.793	0.0138890
710.871	0.0138594
710.950	0.0141306
711.028	0.0141654
711.106	0.0141020
711.184	0.0140803
711.262	0.0141290
711.340	0.0142430
711.418	0.0142673
711.496	0.0142540
711.575	0.0143523
711.653	0.0142950
711.731	0.0143063
711.809	0.0142495
711.887	0.0141927
711.965	0.0140578
712.043	0.0140417
712.121	0.0141003
712.200	0.0140163
712.278	0.0140914
712.356	0.0139467
712.434	0.0138234
712.512	0.0139116
712.590	0.0139282
712.668	0.0138876
712.746	0.0138091
712.825	0.0138567
712.903	0.0138131
712.981	0.0138046
713.059	0.0138878
713.137	0.0137773
713.215	0.0136679
713.293	0.0138390
713.371	0.0140279
713.450	0.0138146
713.528	0.0137891
713.606	0.0137903
713.684	0.0137273
713.762	0.0138963
713.840	0.0138202
713.918	0.0138741
713.996	0.0138498
714.075	0.0138894
714.153	0.0138499
714.231	0.0138553
714.309	0.0138119
714.387	0.0137511
714.465	0.0138107
714.543	0.0138500
714.621	0.0139342
714.700	0.0139983
714.778	0.0139705
714.856	0.0140501
714.934	0.0140975
715.012	0.0139043
715.090	0.0140424
715.168	0.0139458
715.246	0.0141814
715.325	0.0141051
715.403	0.0139677
715.481	0.0138220
715.559	0.0139304
715.637	0.0140458
715.715	0.0139535
715.793	0.0141914
715.871	0.0140557
715.950	0.0139037
716.028	0.0140109
716.106	0.0138982
716.184	0.0139302
716.262	0.0139059
716.340	0.0139973
716.418	0.0137940
716.496	0.0138717
716.575	0.0137914
716.653	0.0138659
716.731	0.0138508
716.809	0.0137654
716.887	0.0137392
716.965	0.0137637
717.043	0.0135698
717.121	0.0136070
717.200	0.0136768
717.278	0.0137804
717.356	0.0138316
717.434	0.0137354
717.512	0.0137627
717.590	0.0138728
717.668	0.0137826
717.746	0.0137791
717.825	0.0138803
717.903	0.0140226
717.981	0.0140271
718.059	0.0140862
718.137	0.0140633
718.215	0.0141850
718.293	0.0142213
718.371	0.0144206
718.450	0.0142852
718.528	0.0141917
718.606	0.0140594
718.684	0.0142353
718.762	0.0141428
718.840	0.0140513
718.918	0.0141084
718.996	0.0140164
719.075	0.0139621
719.153	0.0139149
719.231	0.0139012
719.309	0.0138415
719.387	0.0139912
719.465	0.0138749
719.543	0.0138525
719.621	0.0139898
719.700	0.0140160
719.778	0.0138956
719.856	0.0138090
719.934	0.0137587
720.012	0.0138014
720.090	0.0137072
720.168	0.0138016
720.246	0.0136404
720.325	0.0137793
720.403	0.0139679
720.481	0.0140296
720.559	0.0139227
720.637	0.0137560
720.715	0.0139649
720.793	0.0140800
720.871	0.0140289
720.950	0.0139838
721.028	0.0139721
721.106	0.0139910
721.184	0.0140356
721.262	0.0140190
721.340	0.0141658
721.418	0.0140907
721.496	0.0138483
721.575	0.0139098
721.653	0.0139992
721.731	0.0139928
721.809	0.0140002
721.887	0.0140666
721.965	0.0139386
722.043	0.0139186
722.121	0.0138759
722.200	0.0138490
722.278	0.0139340
722.356	0.0138915
722.434	0.0140072
722.512	0.0139436
722.590	0.0140315
722.668	0.0139645
722.746	0.0139406
722.825	0.0140580
722.903	0.0140424
722.981	0.0140274
723.059	0.0140190
723.137	0.0140380
723.215	0.0139931
723.293	0.0140945
723.371	0.0139844
723.450	0.0138866
723.528	0.0139052
723.606	0.0137991
723.684	0.0137484
723.762	0.0137776
723.840	0.0135480
723.918	0.0136584
723.996	0.0138481
724.075	0.0137993
724.153	0.0138557
724.231	0.0137726
724.309	0.0138374
724.387	0.0139567
724.465	0.0139078
724.543	0.0140187
724.621	0.0139703
724.700	0.0140603
724.778	0.0141569
724.856	0.0141756
724.934	0.0140204
725.012	0.0140672
725.090	0.0140913
725.168	0.0140631
725.246	0.0141935
725.325	0.0142683
725.403	0.0141876
725.481	0.0141689
725.559	0.0140491
725.637	0.0142199
725.715	0.0140943
725.793	0.0141623
725.871	0.0140076
725.950	0.0141539
726.028	0.0141232
726.106	0.0139578
726.184	0.0139529
726.262	0.0137638
726.340	0.0138193
726.418	0.0137901
726.496	0.0136954
726.575	0.0137263
726.653	0.0135753
726.731	0.0137256
726.809	0.0135841
726.887	0.0135166
726.965	0.0136745
727.043	0.0135981
727.121	0.0136633
727.200	0.0137511
727.278	0.0138079
727.356	0.0138063
727.434	0.0139053
727.512	0.0138114
727.590	0.0140112
727.668	0.0140472
727.746	0.0141175
727.825	0.0140840
727.903	0.0140907
727.981	0.0140095
728.059	0.0140273
728.137	0.0140593
728.215	0.0140919
728.293	0.0140683
728.371	0.0140812
728.450	0.0139678
728.528	0.0139697
728.606	0.0140091
728.684	0.0139970
728.762	0.0139497
728.840	0.0140085
728.918	0.0138833
728.996	0.0138335
729.075	0.0139473
729.153	0.0138642
729.231	0.0138480
729.309	0.0137376
729.387	0.0138741
729.465	0.0139138
729.543	0.0138758
729.621	0.0138267
729.700	0.0138853
729.778	0.0139233
729.856	0.0138155
729.934	0.0139615
730.012	0.0139855
730.090	0.0139593
730.168	0.0139716
730.246	0.0141188
730.325	0.0141266
730.403	0.0139185
730.481	0.0140084
730.559	0.0139442
730.637	0.0139246
730.715	0.0139986
730.793	0.0139248
730.871	0.0139363
730.950	0.0139820
731.028	0.0138659
731.106	0.0138297
731.184	0.0139394
731.262	0.0139202
731.340	0.0136883
731.418	0.0139639
731.496	0.0139019
731.575	0.0138968
731.653	0.0139345
731.731	0.0138925
731.809	0.0139384
731.887	0.0141000
731.965	0.0139185
732.043	0.0141290
732.121	0.0141530
732.200	0.0141485
732.278	0.0141499
732.356	0.0141267
732.434	0.0141030
732.512	0.0140961
732.590	0.0140726
732.668	0.0140523
732.746	0.0140165
732.825	0.0140685
732.903	0.0140192
732.981	0.0140400
733.059	0.0139892
733.137	0.0139241
733.215	0.0137582
733.293	0.0138470
733.371	0.0139336
733.450	0.0138500
733.528	0.0137599
733.606	0.0137227
733.684	0.0138466
733.762	0.0138708
733.840	0.0136834
733.918	0.0137242
733.996	0.0138291
734.075	0.0138051
734.153	0.0137514
734.231	0.0138343
734.309	0.0138236
734.387	0.0138570
734.465	0.0139532
734.543	0.0139228
734.621	0.0139319
734.700	0.0140907
734.778	0.0141253
734.856	0.0140629
734.934	0.0143089
735.012	0.0142931
735.090	0.0143525
735.168	0.0142889
735.246	0.0142558
735.325	0.0142764
735.403	0.0143066
735.481	0.0141918
735.559	0.0143351
735.637	0.0141971
735.715	0.0140345
735.793	0.0139941
735.871	0.0139135
735.950	0.0140137
736.028	0.0139161
736.106	0.0137846
736.184	0.0139557
736.262	0.0139065
736.340	0.0138268
736.418	0.0138434
736.496	0.0138004
736.575	0.0138509
736.653	0.0139371
736.731	0.0138925
736.809	0.0138506
736.887	0.0138374
736.965	0.0139002
737.043	0.0138004
737.121	0.0139396
737.200	0.0139632
737.278	0.0140083
737.356	0.0140298
737.434	0.0140402
737.512	0.0140282
737.590	0.0138551
737.668	0.0141129
737.746	0.0140836
737.825	0.0140313
737.903	0.0140431
737.981	0.0141576
738.059	0.0138712
738.137	0.0139967
738.215	0.0140330
738.293	0.0140622
738.371	0.0139477
738.450	0.0139503
738.528	0.0140759
738.606	0.0139262
738.684	0.0139309
738.762	0.0139993
738.840	0.0139661
738.918	0.0138664
738.996	0.0140177
739.075	0.0139864
739.153	0.0138895
739.231	0.0140144
739.309	0.0140205
739.387	0.0138416
739.465	0.0139532
739.543	0.0140871
739.621	0.0139594
739.700	0.0139244
739.778	0.0140508
739.856	0.0140263
739.934	0.0139211
740.012	0.0139149
740.090	0.0138636
740.168	0.0139177
740.246	0.0139032
740.325	0.0139713
740.403	0.0139635
740.481	0.0139017
740.559	0.0140350
740.637	0.0140589
740.715	0.0139529
740.793	0.0140001
740.871	0.0141078
740.950	0.0139851
741.028	0.0140524
741.106	0.0139458
741.184	0.0140808
741.262	0.0139595
741.340	0.0138814
741.418	0.0138703
741.496	0.0141163
741.575	0.0139682
741.653	0.0139279
741.731	0.0139645
741.809	0.0137832
741.887	0.0140257
741.965	0.0139025
742.043	0.0139009
742.121	0.0139145
742.200	0.0139445
742.278	0.0138940
742.356	0.0140046
742.434	0.0140753
742.512	0.0141874
742.590	0.0139970
742.668	0.0138994
742.746	0.0140444
742.825	0.0140813
742.903	0.0140913
742.981	0.0140913
743.059	0.0138560
743.137	0.0139554
743.215	0.0141043
743.293	0.0138694
743.371	0.0139318
743.450	0.0140892
743.528	0.0140394
743.606	0.0139088
743.684	0.0137624
743.762	0.0139028
743.840	0.0137818
743.918	0.0137130
743.996	0.0138024
744.075	0.0139352
744.153	0.0138281
744.231	0.0139046
744.309	0.0138728
744.387	0.0137604
744.465	0.0139906
744.543	0.0138727
744.621	0.0138599
744.700	0.0139419
744.778	0.0138989
744.856	0.0140433
744.934	0.0140523
745.012	0.0140160
745.090	0.0140079
745.168	0.0141963
745.246	0.0141298
745.325	0.0140208
745.403	0.0139828
745.481	0.0141554
745.559	0.0141566
745.637	0.0141116
745.715	0.0140496
745.793	0.0141154
745.871	0.0140188
745.950	0.0140218
746.028	0.0138725
746.106	0.0139542
746.184	0.0139571
746.262	0.0137835
746.340	0.0138682
746.418	0.0138892
746.496	0.0138129
746.575	0.0138303
746.653	0.0138071
746.731	0.0138249
746.809	0.0138443
746.887	0.0138126
746.965	0.0138419
747.043	0.0138868
747.121	0.0138741
747.200	0.0139246
747.278	0.0138903
747.356	0.0140115
747.434	0.0139855
747.512	0.0140421
747.590	0.0141537
747.668	0.0141552
747.746	0.0141418
747.825	0.0140072
747.903	0.0139620
747.981	0.0139883
748.059	0.0141495
748.137	0.0141052
748.215	0.0140098
748.293	0.0139159
748.371	0.0140529
748.450	0.0139655
748.528	0.0140500
748.606	0.0139140
748.684	0.0138816
748.762	0.0138129
748.840	0.0138099
748.918	0.0138489
748.996	0.0139241
749.075	0.0139857
749.153	0.0139413
749.231	0.0137727
749.309	0.0137479
749.387	0.0137419
749.465	0.0138422
749.543	0.0138622
749.621	0.0138743
749.700	0.0137985
749.778	0.0138416
749.856	0.0138837
749.934	0.0138636
750.012	0.0138502
750.090	0.0139828
750.168	0.0139137
750.246	0.0138419
750.325	0.0137949
750.403	0.0139908
750.481	0.0139863
750.559	0.0138618
750.637	0.0140710
750.715	0.0139167
750.793	0.0140982
750.871	0.0139310
750.950	0.0139310
751.028	0.0138374
751.106	0.0139714
751.184	0.0139380
751.262	0.0137862
751.340	0.0139978
751.418	0.0140350
751.496	0.0138947
751.575	0.0137934
751.653	0.0138754
751.731	0.0138805
751.809	0.0138308
751.887	0.0137556
751.965	0.0138312
752.043	0.0140290
752.121	0.0139636
752.200	0.0140585
752.278	0.0139745
752.356	0.0140187
752.434	0.0139970
752.512	0.0140160
752.590	0.0140145
752.668	0.0140376
752.746	0.0140463
752.825	0.0140523
752.903	0.0139938
752.981	0.0139446
753.059	0.0141522
753.137	0.0139682
753.215	0.0139037
753.293	0.0139151
753.371	0.0139901
753.450	0.0140630
753.528	0.0139664
753.606	0.0138860
753.684	0.0140413
753.762	0.0139172
753.840	0.0137460
753.918	0.0140203
753.996	0.0139456
754.075	0.0138577
754.153	0.0138670
754.231	0.0140376
754.309	0.0140028
754.387	0.0139744
754.465	0.0138721
754.543	0.0137724
754.621	0.0138336
754.700	0.0140026
754.778	0.0138795
754.856	0.0139233
754.934	0.0139412
755.012	0.0140296
755.090	0.0139333
755.168	0.0140649
755.246	0.0138906
755.325	0.0138320
755.403	0.0140282
755.481	0.0140119
755.559	0.0139899
755.637	0.0139038
755.715	0.0139768
755.793	0.0139156
755.871	0.0140516
755.950	0.0141325
756.028	0.0140536
756.106	0.0140427
756.184	0.0140094
756.262	0.0140095
756.340	0.0139637
756.418	0.0139436
756.496	0.0140389
756.575	0.0139274
756.653	0.0138825
756.731	0.0139565
756.809	0.0138499
756.887	0.0138731
756.965	0.0139802
757.043	0.0137325
757.121	0.0139404
757.200	0.0139227
757.278	0.0139925
757.356	0.0139349
757.434	0.0139684
757.512	0.0141170
757.590	0.0140083
757.668	0.0138628
757.746	0.0140026
757.825	0.0139497
757.903	0.0139680
757.981	0.0139294
758.059	0.0139046
758.137	0.0139294
758.215	0.0140858
758.293	0.0139845
758.371	0.0140161
758.450	0.0139962
758.528	0.0138787
758.606	0.0138502
758.684	0.0139919
758.762	0.0139795
758.840	0.0139647
758.918	0.0139364
758.996	0.0139857
759.075	0.0138826
759.153	0.0139484
759.231	0.0139807
759.309	0.0140649
759.387	0.0139836
759.465	0.0139016
759.543	0.0139512
759.621	0.0139928
759.700	0.0139447
759.778	0.0138345
759.856	0.0139363
759.934	0.0140260
760.012	0.0139157
760.090	0.0140161
760.168	0.0141812
760.246	0.0141590
760.325	0.0140076
760.403	0.0140416
760.481	0.0140588
760.559	0.0140704
760.637	0.0140166
760.715	0.0140413
760.793	0.0139964
760.871	0.0139986
760.950	0.0139489
761.028	0.0140728
761.106	0.0140701
761.184	0.0140508
761.262	0.0139864
761.340	0.0139094
761.418	0.0138218
761.496	0.0139317
761.575	0.0138288
761.653	0.0137886
761.731	0.0139414
761.809	0.0138645
761.887	0.0139902
761.965	0.0138935
762.043	0.0140189
762.121	0.0138413
762.200	0.0139190
762.278	0.0139170
762.356	0.0140666
762.434	0.0139269
762.512	0.0139338
762.590	0.0139193
762.668	0.0139295
762.746	0.0139240
762.825	0.0139658
762.903	0.0140052
762.981	0.0139342
763.059	0.0138663
763.137	0.0139518
763.215	0.0141688
763.293	0.0140701
763.371	0.0139932
763.450	0.0139795
763.528	0.0139941
763.606	0.0140180
763.684	0.0139439
763.762	0.0139001
763.840	0.0138922
763.918	0.0139458
763.996	0.0140220
764.075	0.0140370
764.153	0.0140318
764.231	0.0139611
764.309	0.0139890
764.387	0.0138614
764.465	0.0140968
764.543	0.0139088
764.621	0.0138559
764.700	0.0140047
