05/04/2022	21:34:38	Ver.	4.1	UNKNOWN
Optical Delay	678.996401	Delta X		0.078125	Sweeps	1	Scan Rate	0/0
Coordinates	Axis 1	NaN	Axis 2	NaN	Axis 3	NaN	Axis 4	NaN	Axis 5	NaN	Axis 6	0.000000
TX Power	0.000000	RX Power	0.000000

678.996	0.0142854
679.075	0.0142859
679.153	0.0143533
679.231	0.0143851
679.309	0.0142527
679.387	0.0143621
679.465	0.0143961
679.543	0.0142815
679.621	0.0143619
679.700	0.0142540
679.778	0.0142983
679.856	0.0142542
679.934	0.0143633
680.012	0.0144273
680.090	0.0142870
680.168	0.0143414
680.246	0.0145096
680.325	0.0143295
680.403	0.0143485
680.481	0.0143713
680.559	0.0144794
680.637	0.0143684
680.715	0.0144788
680.793	0.0143507
680.871	0.0143238
680.950	0.0143588
681.028	0.0142841
681.106	0.0142207
681.184	0.0143440
681.262	0.0143387
681.340	0.0144128
681.418	0.0142004
681.496	0.0143076
681.575	0.0143578
681.653	0.0143323
681.731	0.0143814
681.809	0.0143697
681.887	0.0142439
681.965	0.0143419
682.043	0.0142345
682.121	0.0141641
682.200	0.0142892
682.278	0.0142667
682.356	0.0142679
682.434	0.0142705
682.512	0.0142854
682.590	0.0143877
682.668	0.0144743
682.746	0.0145088
682.825	0.0143752
682.903	0.0144274
682.981	0.0143487
683.059	0.0144202
683.137	0.0142745
683.215	0.0142540
683.293	0.0144972
683.371	0.0143224
683.450	0.0143192
683.528	0.0145145
683.606	0.0144807
683.684	0.0146276
683.762	0.0145013
683.840	0.0142677
683.918	0.0143573
683.996	0.0142155
684.075	0.0141832
684.153	0.0141573
684.231	0.0140189
684.309	0.0141535
684.387	0.0143149
684.465	0.0142175
684.543	0.0141959
684.621	0.0142834
684.700	0.0141994
684.778	0.0143465
684.856	0.0143419
684.934	0.0143027
685.012	0.0142519
685.090	0.0141698
685.168	0.0142618
685.246	0.0142812
685.325	0.0142541
685.403	0.0143480
685.481	0.0143395
685.559	0.0144816
685.637	0.0145668
685.715	0.0144590
685.793	0.0145664
685.871	0.0146714
685.950	0.0146310
686.028	0.0144229
686.106	0.0143338
686.184	0.0145327
686.262	0.0145203
686.340	0.0143860
686.418	0.0142262
686.496	0.0140622
686.575	0.0141396
686.653	0.0140763
686.731	0.0139272
686.809	0.0138992
686.887	0.0137801
686.965	0.0138979
687.043	0.0137157
687.121	0.0138576
687.200	0.0138822
687.278	0.0138712
687.356	0.0141299
687.434	0.0142625
687.512	0.0142845
687.590	0.0143287
687.668	0.0143970
687.746	0.0144332
687.825	0.0144881
687.903	0.0144212
687.981	0.0145221
688.059	0.0145364
688.137	0.0145790
688.215	0.0146014
688.293	0.0146998
688.371	0.0145831
688.450	0.0145530
688.528	0.0144880
688.606	0.0144987
688.684	0.0144193
688.762	0.0142775
688.840	0.0142769
688.918	0.0144228
688.996	0.0144060
689.075	0.0143223
689.153	0.0143510
689.231	0.0143211
689.309	0.0143428
689.387	0.0142759
689.465	0.0142466
689.543	0.0143636
689.621	0.0141257
689.700	0.0140654
689.778	0.0140028
689.856	0.0139852
689.934	0.0138943
690.012	0.0139603
690.090	0.0138512
690.168	0.0140665
690.246	0.0140720
690.325	0.0141989
690.403	0.0142454
690.481	0.0143416
690.559	0.0141447
690.637	0.0142903
690.715	0.0143408
690.793	0.0144009
690.871	0.0143432
690.950	0.0142974
691.028	0.0143965
691.106	0.0144543
691.184	0.0144797
691.262	0.0143342
691.340	0.0144408
691.418	0.0144790
691.496	0.0144693
691.575	0.0144580
691.653	0.0144223
691.731	0.0143527
691.809	0.0143759
691.887	0.0145589
691.965	0.0143584
692.043	0.0143260
692.121	0.0144641
692.200	0.0144780
692.278	0.0143520
692.356	0.0144501
692.434	0.0142958
692.512	0.0144343
692.590	0.0142776
692.668	0.0141203
692.746	0.0140000
692.825	0.0140462
692.903	0.0140812
692.981	0.0140226
693.059	0.0138962
693.137	0.0139413
693.215	0.0139776
693.293	0.0139783
693.371	0.0139874
693.450	0.0141240
693.528	0.0141956
693.606	0.0140238
693.684	0.0140941
693.762	0.0142730
693.840	0.0141331
693.918	0.0141277
693.996	0.0141516
694.075	0.0142827
694.153	0.0143370
694.231	0.0144189
694.309	0.0145280
694.387	0.0147287
694.465	0.0145898
694.543	0.0147115
694.621	0.0146755
694.700	0.0147520
694.778	0.0145429
694.856	0.0146072
694.934	0.0145559
695.012	0.0146656
695.090	0.0147099
695.168	0.0145035
695.246	0.0144902
695.325	0.0144398
695.403	0.0145629
695.481	0.0144221
695.559	0.0145940
695.637	0.0145063
695.715	0.0144022
695.793	0.0143620
695.871	0.0142444
695.950	0.0141122
696.028	0.0141010
696.106	0.0138961
696.184	0.0140415
696.262	0.0138395
696.340	0.0138378
696.418	0.0139362
696.496	0.0139287
696.575	0.0139925
696.653	0.0140409
696.731	0.0141093
696.809	0.0140308
696.887	0.0139675
696.965	0.0140439
697.043	0.0141102
697.121	0.0142686
697.200	0.0141505
697.278	0.0139791
697.356	0.0143137
697.434	0.0143584
697.512	0.0143264
697.590	0.0143670
697.668	0.0144756
697.746	0.0145074
697.825	0.0146045
697.903	0.0146318
697.981	0.0146564
698.059	0.0144877
698.137	0.0146333
698.215	0.0147070
698.293	0.0146781
698.371	0.0148631
698.450	0.0147268
698.528	0.0146642
698.606	0.0146869
698.684	0.0146848
698.762	0.0145601
698.840	0.0144815
698.918	0.0145043
698.996	0.0143922
699.075	0.0143173
699.153	0.0142506
699.231	0.0140826
699.309	0.0140144
699.387	0.0139755
699.465	0.0139102
699.543	0.0138496
699.621	0.0137987
699.700	0.0137976
699.778	0.0140390
699.856	0.0141067
699.934	0.0140994
700.012	0.0141514
700.090	0.0140263
700.168	0.0142061
700.246	0.0143041
700.325	0.0142618
700.403	0.0143531
700.481	0.0143095
700.559	0.0143639
700.637	0.0144686
700.715	0.0145106
700.793	0.0142683
700.871	0.0143842
700.950	0.0145219
701.028	0.0145290
701.106	0.0145737
701.184	0.0145126
701.262	0.0145240
701.340	0.0146770
701.418	0.0146738
701.496	0.0146912
701.575	0.0147738
701.653	0.0147301
701.731	0.0147340
701.809	0.0147156
701.887	0.0145927
701.965	0.0148464
702.043	0.0146101
702.121	0.0144793
702.200	0.0143868
702.278	0.0143859
702.356	0.0142715
702.434	0.0141751
702.512	0.0141430
702.590	0.0141533
702.668	0.0140952
702.746	0.0141599
702.825	0.0140192
702.903	0.0139767
702.981	0.0140808
703.059	0.0140190
703.137	0.0140419
703.215	0.0140331
703.293	0.0139582
703.371	0.0139449
703.450	0.0140202
703.528	0.0139025
703.606	0.0139086
703.684	0.0139121
703.762	0.0140138
703.840	0.0141341
703.918	0.0141463
703.996	0.0141904
704.075	0.0143300
704.153	0.0143983
704.231	0.0144181
704.309	0.0146974
704.387	0.0147097
704.465	0.0149140
704.543	0.0148244
704.621	0.0147778
704.700	0.0148824
704.778	0.0147914
704.856	0.0148407
704.934	0.0147305
705.012	0.0146819
705.090	0.0147340
705.168	0.0145290
705.246	0.0145094
705.325	0.0142645
705.403	0.0142509
705.481	0.0142018
705.559	0.0142204
705.637	0.0140495
705.715	0.0140737
705.793	0.0141608
705.871	0.0140848
705.950	0.0139841
706.028	0.0141675
706.106	0.0142715
706.184	0.0143031
706.262	0.0141631
706.340	0.0142819
706.418	0.0142709
706.496	0.0142530
706.575	0.0142798
706.653	0.0142146
706.731	0.0141479
706.809	0.0142636
706.887	0.0141970
706.965	0.0142220
707.043	0.0139984
707.121	0.0142055
707.200	0.0142277
707.278	0.0141797
707.356	0.0141992
707.434	0.0143050
707.512	0.0143336
707.590	0.0142731
707.668	0.0143288
707.746	0.0144198
707.825	0.0143521
707.903	0.0145111
707.981	0.0145074
708.059	0.0145075
708.137	0.0144101
708.215	0.0143879
708.293	0.0144325
708.371	0.0144431
708.450	0.0144405
708.528	0.0143722
708.606	0.0144319
708.684	0.0145136
708.762	0.0144660
708.840	0.0144889
708.918	0.0144331
708.996	0.0145760
709.075	0.0145712
709.153	0.0145805
709.231	0.0144421
709.309	0.0144523
709.387	0.0144404
709.465	0.0143252
709.543	0.0139781
709.621	0.0140538
709.700	0.0140795
709.778	0.0137572
709.856	0.0137523
709.934	0.0138465
710.012	0.0138551
710.090	0.0137788
710.168	0.0138009
710.246	0.0138799
710.325	0.0137588
710.403	0.0139252
710.481	0.0140836
710.559	0.0140496
710.637	0.0141279
710.715	0.0140794
710.793	0.0142856
710.871	0.0143391
710.950	0.0144183
711.028	0.0144022
711.106	0.0146237
711.184	0.0146780
711.262	0.0145927
711.340	0.0146926
711.418	0.0147286
711.496	0.0145702
711.575	0.0146254
711.653	0.0145897
711.731	0.0146371
711.809	0.0145587
711.887	0.0144518
711.965	0.0144667
712.043	0.0144009
712.121	0.0144502
712.200	0.0142599
712.278	0.0143963
712.356	0.0143793
712.434	0.0142360
712.512	0.0141402
712.590	0.0142599
712.668	0.0140851
712.746	0.0141254
712.825	0.0141148
712.903	0.0140957
712.981	0.0140429
713.059	0.0140779
713.137	0.0140518
713.215	0.0142320
713.293	0.0141396
713.371	0.0140936
713.450	0.0141312
713.528	0.0141316
713.606	0.0141621
713.684	0.0142635
713.762	0.0143465
713.840	0.0142220
713.918	0.0141665
713.996	0.0141756
714.075	0.0144073
714.153	0.0143039
714.231	0.0142085
714.309	0.0141538
714.387	0.0142333
714.465	0.0144202
714.543	0.0143520
714.621	0.0143066
714.700	0.0142731
714.778	0.0144957
714.856	0.0146216
714.934	0.0144116
715.012	0.0144127
715.090	0.0143561
715.168	0.0143407
715.246	0.0144640
715.325	0.0144019
715.403	0.0144188
715.481	0.0144762
715.559	0.0143124
715.637	0.0144270
715.715	0.0143107
715.793	0.0142701
715.871	0.0142766
715.950	0.0144729
716.028	0.0143623
716.106	0.0143208
716.184	0.0144299
716.262	0.0142684
716.340	0.0141551
716.418	0.0141418
716.496	0.0141800
716.575	0.0142479
716.653	0.0142142
716.731	0.0141493
716.809	0.0141063
716.887	0.0140520
716.965	0.0141101
717.043	0.0141651
717.121	0.0141177
717.200	0.0140769
717.278	0.0140722
717.356	0.0142190
717.434	0.0142368
717.512	0.0142701
717.590	0.0142834
717.668	0.0142417
717.746	0.0143763
717.825	0.0143151
717.903	0.0144044
717.981	0.0144936
718.059	0.0144543
718.137	0.0145548
718.215	0.0145205
718.293	0.0146001
718.371	0.0143772
718.450	0.0144350
718.528	0.0146284
718.606	0.0146443
718.684	0.0145923
718.762	0.0145423
718.840	0.0145896
718.918	0.0144412
718.996	0.0143444
719.075	0.0143458
719.153	0.0143565
719.231	0.0143726
719.309	0.0140350
719.387	0.0143436
719.465	0.0142002
719.543	0.0142545
719.621	0.0143461
719.700	0.0140796
719.778	0.0141560
719.856	0.0142426
719.934	0.0140334
720.012	0.0140220
720.090	0.0140945
720.168	0.0142935
720.246	0.0140748
720.325	0.0140060
720.403	0.0141313
720.481	0.0140424
720.559	0.0141415
720.637	0.0141886
720.715	0.0143843
720.793	0.0143220
720.871	0.0142860
720.950	0.0143002
721.028	0.0144375
721.106	0.0144035
721.184	0.0141605
721.262	0.0143537
721.340	0.0144479
721.418	0.0145235
721.496	0.0144800
721.575	0.0143877
721.653	0.0143272
721.731	0.0143434
721.809	0.0144110
721.887	0.0144100
721.965	0.0144265
722.043	0.0144930
722.121	0.0141961
722.200	0.0142612
722.278	0.0142902
722.356	0.0143073
722.434	0.0141825
722.512	0.0142236
722.590	0.0143318
722.668	0.0144170
722.746	0.0143385
722.825	0.0143460
722.903	0.0143747
722.981	0.0144438
723.059	0.0142988
723.137	0.0143922
723.215	0.0142673
723.293	0.0144083
723.371	0.0142977
723.450	0.0142706
723.528	0.0140892
723.606	0.0140851
723.684	0.0142533
723.762	0.0142007
723.840	0.0141051
723.918	0.0139277
723.996	0.0140051
724.075	0.0141029
724.153	0.0139725
724.231	0.0140932
724.309	0.0142902
724.387	0.0143564
724.465	0.0142525
724.543	0.0144067
724.621	0.0143108
724.700	0.0143023
724.778	0.0143757
724.856	0.0143395
724.934	0.0144077
725.012	0.0144035
725.090	0.0145510
725.168	0.0144258
725.246	0.0144039
725.325	0.0144529
725.403	0.0144647
725.481	0.0144668
725.559	0.0145274
725.637	0.0145750
725.715	0.0145662
725.793	0.0144111
725.871	0.0144998
725.950	0.0144953
726.028	0.0143657
726.106	0.0143879
726.184	0.0143778
726.262	0.0141301
726.340	0.0140714
726.418	0.0140325
726.496	0.0139970
726.575	0.0139510
726.653	0.0140543
726.731	0.0138983
726.809	0.0139632
726.887	0.0140228
726.965	0.0141089
727.043	0.0139703
727.121	0.0140630
727.200	0.0142007
727.278	0.0142340
727.356	0.0143262
727.434	0.0144241
727.512	0.0144363
727.590	0.0145065
727.668	0.0144319
727.746	0.0144395
727.825	0.0145006
727.903	0.0143853
727.981	0.0145374
728.059	0.0145081
728.137	0.0144104
728.215	0.0142891
728.293	0.0145378
728.371	0.0144539
728.450	0.0144234
728.528	0.0143519
728.606	0.0144882
728.684	0.0146287
728.762	0.0142945
728.840	0.0143076
728.918	0.0143524
728.996	0.0144278
729.075	0.0143632
729.153	0.0143038
729.231	0.0142658
729.309	0.0142574
729.387	0.0143187
729.465	0.0142169
729.543	0.0142236
729.621	0.0142636
729.700	0.0142946
729.778	0.0143587
729.856	0.0143168
729.934	0.0142571
730.012	0.0142878
730.090	0.0142657
730.168	0.0143495
730.246	0.0143872
730.325	0.0145445
730.403	0.0143346
730.481	0.0143489
730.559	0.0142795
730.637	0.0143006
730.715	0.0143172
730.793	0.0142845
730.871	0.0142625
730.950	0.0143583
731.028	0.0141879
731.106	0.0142896
731.184	0.0142619
731.262	0.0142189
731.340	0.0141760
731.418	0.0141259
731.496	0.0144207
731.575	0.0143172
731.653	0.0144080
731.731	0.0144414
731.809	0.0142930
731.887	0.0142988
731.965	0.0143566
732.043	0.0144114
732.121	0.0144728
732.200	0.0145660
732.278	0.0144498
732.356	0.0144862
732.434	0.0144341
732.512	0.0144262
732.590	0.0144643
732.668	0.0145728
732.746	0.0142906
732.825	0.0144326
732.903	0.0143212
732.981	0.0144096
733.059	0.0142761
733.137	0.0143695
733.215	0.0142720
733.293	0.0143146
733.371	0.0144167
733.450	0.0141308
733.528	0.0142081
733.606	0.0142088
733.684	0.0141071
733.762	0.0141310
733.840	0.0141349
733.918	0.0139981
733.996	0.0139517
734.075	0.0140104
734.153	0.0140840
734.231	0.0142215
734.309	0.0140666
734.387	0.0141525
734.465	0.0142435
734.543	0.0144646
734.621	0.0144299
734.700	0.0144371
734.778	0.0146661
734.856	0.0145351
734.934	0.0144415
735.012	0.0145635
735.090	0.0145587
735.168	0.0146344
735.246	0.0147931
735.325	0.0146099
735.403	0.0145303
735.481	0.0144488
735.559	0.0144479
735.637	0.0143883
735.715	0.0143995
735.793	0.0143422
735.871	0.0143881
735.950	0.0141805
736.028	0.0141740
736.106	0.0141936
736.184	0.0141866
736.262	0.0142538
736.340	0.0141105
736.418	0.0141235
736.496	0.0141469
736.575	0.0141956
736.653	0.0141097
736.731	0.0140868
736.809	0.0141877
736.887	0.0142860
736.965	0.0143346
737.043	0.0142713
737.121	0.0142744
737.200	0.0143626
737.278	0.0142982
737.356	0.0142239
737.434	0.0143648
737.512	0.0143462
737.590	0.0143996
737.668	0.0144875
737.746	0.0143617
737.825	0.0144476
737.903	0.0143453
737.981	0.0144269
738.059	0.0144331
738.137	0.0144077
738.215	0.0143597
738.293	0.0143452
738.371	0.0142717
738.450	0.0143793
738.528	0.0144118
738.606	0.0143562
738.684	0.0143405
738.762	0.0142339
738.840	0.0142170
738.918	0.0142274
738.996	0.0142627
739.075	0.0143134
739.153	0.0142387
739.231	0.0143396
739.309	0.0143301
739.387	0.0142610
739.465	0.0142605
739.543	0.0144965
739.621	0.0144020
739.700	0.0143491
739.778	0.0142558
739.856	0.0143813
739.934	0.0144097
740.012	0.0143273
740.090	0.0144513
740.168	0.0142439
740.246	0.0144197
740.325	0.0142998
740.403	0.0142443
740.481	0.0141988
740.559	0.0142561
740.637	0.0144101
740.715	0.0142032
740.793	0.0142656
740.871	0.0143060
740.950	0.0142633
741.028	0.0143170
741.106	0.0142386
741.184	0.0142382
741.262	0.0143794
741.340	0.0143241
741.418	0.0142429
741.496	0.0143141
741.575	0.0143529
741.653	0.0143683
741.731	0.0144602
741.809	0.0143335
741.887	0.0141643
741.965	0.0142667
742.043	0.0143098
742.121	0.0143229
742.200	0.0142013
742.278	0.0143149
742.356	0.0143026
742.434	0.0143244
742.512	0.0144109
742.590	0.0144212
742.668	0.0143681
742.746	0.0144789
742.825	0.0142455
742.903	0.0144344
742.981	0.0143781
743.059	0.0144183
743.137	0.0143106
743.215	0.0141919
743.293	0.0143356
743.371	0.0144349
743.450	0.0142571
743.528	0.0140940
743.606	0.0142520
743.684	0.0141756
743.762	0.0142298
743.840	0.0142119
743.918	0.0142747
743.996	0.0141407
744.075	0.0142380
744.153	0.0142135
744.231	0.0141798
744.309	0.0142731
744.387	0.0142785
744.465	0.0142760
744.543	0.0142983
744.621	0.0142666
744.700	0.0144170
744.778	0.0142712
744.856	0.0142680
744.934	0.0144067
745.012	0.0142921
745.090	0.0144196
745.168	0.0142999
745.246	0.0144100
745.325	0.0144379
745.403	0.0143204
745.481	0.0144134
745.559	0.0143106
745.637	0.0144249
745.715	0.0144857
745.793	0.0143400
745.871	0.0142767
745.950	0.0142696
746.028	0.0142262
746.106	0.0142832
746.184	0.0141509
746.262	0.0141395
746.340	0.0141911
746.418	0.0143353
746.496	0.0141867
746.575	0.0140189
746.653	0.0141582
746.731	0.0140733
746.809	0.0141545
746.887	0.0141103
746.965	0.0142092
747.043	0.0142521
747.121	0.0141723
747.200	0.0141143
747.278	0.0142085
747.356	0.0143951
747.434	0.0142728
747.512	0.0142892
747.590	0.0143375
747.668	0.0143597
747.746	0.0143606
747.825	0.0143288
747.903	0.0143456
747.981	0.0144620
748.059	0.0143249
748.137	0.0144765
748.215	0.0143999
748.293	0.0143672
748.371	0.0143206
748.450	0.0142368
748.528	0.0143204
748.606	0.0143580
748.684	0.0142007
748.762	0.0143242
748.840	0.0141199
748.918	0.0142498
748.996	0.0141298
749.075	0.0142267
749.153	0.0144257
749.231	0.0141631
749.309	0.0143017
749.387	0.0141562
749.465	0.0143437
749.543	0.0142901
749.621	0.0141773
749.700	0.0143021
749.778	0.0142704
749.856	0.0143787
749.934	0.0143342
750.012	0.0144369
750.090	0.0141915
750.168	0.0142648
750.246	0.0142168
750.325	0.0143336
750.403	0.0142466
750.481	0.0143258
750.559	0.0143745
750.637	0.0144073
750.715	0.0143019
750.793	0.0142328
750.871	0.0142532
750.950	0.0144445
751.028	0.0143330
751.106	0.0141829
751.184	0.0142355
751.262	0.0143649
751.340	0.0143854
751.418	0.0142627
751.496	0.0141058
751.575	0.0144137
751.653	0.0143732
751.731	0.0143376
751.809	0.0144130
751.887	0.0141927
751.965	0.0144553
752.043	0.0144202
752.121	0.0142990
752.200	0.0142942
752.278	0.0143152
752.356	0.0142265
752.434	0.0143475
752.512	0.0143207
752.590	0.0142918
752.668	0.0143771
752.746	0.0144775
752.825	0.0144789
752.903	0.0143813
752.981	0.0144839
753.059	0.0144102
753.137	0.0144883
753.215	0.0142986
753.293	0.0143965
753.371	0.0145269
753.450	0.0143227
753.528	0.0144388
753.606	0.0143047
753.684	0.0142823
753.762	0.0143111
753.840	0.0142893
753.918	0.0143512
753.996	0.0142150
754.075	0.0141806
754.153	0.0142130
754.231	0.0143758
754.309	0.0141905
754.387	0.0140805
754.465	0.0142017
754.543	0.0141438
754.621	0.0142178
754.700	0.0142622
754.778	0.0143127
754.856	0.0142570
754.934	0.0143292
755.012	0.0144588
755.090	0.0144978
755.168	0.0143767
755.246	0.0144481
755.325	0.0145399
755.403	0.0144296
755.481	0.0143354
755.559	0.0142838
755.637	0.0144563
755.715	0.0144662
755.793	0.0144843
755.871	0.0144032
755.950	0.0143578
756.028	0.0144631
756.106	0.0143542
756.184	0.0144097
756.262	0.0143428
756.340	0.0143217
756.418	0.0142916
756.496	0.0142659
756.575	0.0142770
756.653	0.0142223
756.731	0.0143126
756.809	0.0143593
756.887	0.0141525
756.965	0.0142934
757.043	0.0142458
757.121	0.0142186
757.200	0.0142722
757.278	0.0142637
757.356	0.0143479
757.434	0.0143741
757.512	0.0142728
757.590	0.0143693
757.668	0.0142957
757.746	0.0143400
757.825	0.0144163
757.903	0.0144083
757.981	0.0143848
758.059	0.0144504
758.137	0.0144637
758.215	0.0143619
758.293	0.0144242
758.371	0.0144125
758.450	0.0143867
758.528	0.0144467
758.606	0.0143350
758.684	0.0142966
758.762	0.0143592
758.840	0.0143365
758.918	0.0142372
758.996	0.0143431
759.075	0.0143452
759.153	0.0141135
759.231	0.0141587
759.309	0.0142846
759.387	0.0143359
759.465	0.0142336
759.543	0.0143681
759.621	0.0143884
759.700	0.0143475
759.778	0.0142580
759.856	0.0143908
759.934	0.0144532
760.012	0.0143166
760.090	0.0143256
760.168	0.0143285
760.246	0.0143327
760.325	0.0142747
760.403	0.0144884
760.481	0.0143736
760.559	0.0143175
760.637	0.0144308
760.715	0.0144163
760.793	0.0142384
760.871	0.0143813
760.950	0.0143305
761.028	0.0143428
761.106	0.0143132
761.184	0.0143179
761.262	0.0142825
761.340	0.0142778
761.418	0.0142079
761.496	0.0141965
761.575	0.0141831
761.653	0.0143416
761.731	0.0143082
761.809	0.0142448
761.887	0.0143145
761.965	0.0144333
762.043	0.0142210
762.121	0.0142542
762.200	0.0142536
762.278	0.0142612
762.356	0.0143138
762.434	0.0142415
762.512	0.0143492
762.590	0.0143060
762.668	0.0144521
762.746	0.0143593
762.825	0.0144854
762.903	0.0143197
762.981	0.0142731
763.059	0.0144330
763.137	0.0142970
763.215	0.0144169
763.293	0.0143185
763.371	0.0143392
763.450	0.0143510
763.528	0.0141638
763.606	0.0142194
763.684	0.0143447
763.762	0.0142620
763.840	0.0143115
763.918	0.0143084
763.996	0.0141785
764.075	0.0143372
764.153	0.0142741
764.231	0.0142351
764.309	0.0143698
764.387	0.0142327
764.465	0.0143513
764.543	0.0143889
764.621	0.0142730
764.700	0.0142381
