05/04/2022	21:34:59	Ver.	4.1	UNKNOWN
Optical Delay	678.996401	Delta X		0.078125	Sweeps	1	Scan Rate	0/0
Coordinates	Axis 1	NaN	Axis 2	NaN	Axis 3	NaN	Axis 4	NaN	Axis 5	NaN	Axis 6	0.000000
TX Power	0.000000	RX Power	0.000000

678.996	0.0147408
679.075	0.0147382
679.153	0.0145528
679.231	0.0147042
679.309	0.0148628
679.387	0.0147302
679.465	0.0147051
679.543	0.0147822
679.621	0.0146574
679.700	0.0148341
679.778	0.0147199
679.856	0.0146294
679.934	0.0146949
680.012	0.0146490
680.090	0.0147057
680.168	0.0146461
680.246	0.0146519
680.325	0.0146692
680.403	0.0148270
680.481	0.0147121
680.559	0.0145179
680.637	0.0146307
680.715	0.0147011
680.793	0.0145937
680.871	0.0145557
680.950	0.0147941
681.028	0.0146214
681.106	0.0146483
681.184	0.0148051
681.262	0.0147731
681.340	0.0148283
681.418	0.0146849
681.496	0.0148120
681.575	0.0147334
681.653	0.0147063
681.731	0.0146410
681.809	0.0146735
681.887	0.0146285
681.965	0.0146810
682.043	0.0145819
682.121	0.0146816
682.200	0.0147356
682.278	0.0148495
682.356	0.0148273
682.434	0.0145525
682.512	0.0147776
682.590	0.0147540
682.668	0.0147467
682.746	0.0147114
682.825	0.0145412
682.903	0.0147527
682.981	0.0146396
683.059	0.0146563
683.137	0.0147993
683.215	0.0147422
683.293	0.0147755
683.371	0.0146715
683.450	0.0148806
683.528	0.0147366
683.606	0.0145818
683.684	0.0147453
683.762	0.0146206
683.840	0.0146061
683.918	0.0145770
683.996	0.0145963
684.075	0.0145229
684.153	0.0146221
684.231	0.0144812
684.309	0.0146095
684.387	0.0146493
684.465	0.0144879
684.543	0.0146705
684.621	0.0145296
684.700	0.0145255
684.778	0.0146209
684.856	0.0146430
684.934	0.0146000
685.012	0.0146987
685.090	0.0148400
685.168	0.0148112
685.246	0.0149062
685.325	0.0150730
685.403	0.0149522
685.481	0.0148598
685.559	0.0149888
685.637	0.0149296
685.715	0.0149398
685.793	0.0148883
685.871	0.0147874
685.950	0.0146575
686.028	0.0146977
686.106	0.0146919
686.184	0.0144701
686.262	0.0146317
686.340	0.0144405
686.418	0.0144097
686.496	0.0144436
686.575	0.0143980
686.653	0.0143219
686.731	0.0143042
686.809	0.0142854
686.887	0.0144189
686.965	0.0143297
687.043	0.0143748
687.121	0.0145781
687.200	0.0147430
687.278	0.0146999
687.356	0.0148059
687.434	0.0148940
687.512	0.0149008
687.590	0.0149574
687.668	0.0150227
687.746	0.0149004
687.825	0.0149046
687.903	0.0148665
687.981	0.0150639
688.059	0.0149812
688.137	0.0149037
688.215	0.0147529
688.293	0.0147813
688.371	0.0148372
688.450	0.0148283
688.528	0.0146834
688.606	0.0146942
688.684	0.0146188
688.762	0.0147514
688.840	0.0146156
688.918	0.0146337
688.996	0.0146242
689.075	0.0146156
689.153	0.0146596
689.231	0.0147272
689.309	0.0146992
689.387	0.0145323
689.465	0.0144128
689.543	0.0144776
689.621	0.0143574
689.700	0.0144195
689.778	0.0144294
689.856	0.0143375
689.934	0.0144852
690.012	0.0145363
690.090	0.0145703
690.168	0.0144896
690.246	0.0146133
690.325	0.0146426
690.403	0.0147057
690.481	0.0146861
690.559	0.0147292
690.637	0.0148384
690.715	0.0146831
690.793	0.0149574
690.871	0.0149229
690.950	0.0148275
691.028	0.0148898
691.106	0.0149648
691.184	0.0148950
691.262	0.0149366
691.340	0.0147892
691.418	0.0147285
691.496	0.0148210
691.575	0.0148743
691.653	0.0149261
691.731	0.0150082
691.809	0.0149097
691.887	0.0148540
691.965	0.0150050
692.043	0.0150172
692.121	0.0148509
692.200	0.0147706
692.278	0.0146581
692.356	0.0145186
692.434	0.0144633
692.512	0.0145363
692.590	0.0142935
692.668	0.0143592
692.746	0.0142213
692.825	0.0142197
692.903	0.0144182
692.981	0.0144334
693.059	0.0145116
693.137	0.0146087
693.215	0.0145048
693.293	0.0146591
693.371	0.0145615
693.450	0.0145036
693.528	0.0145791
693.606	0.0146917
693.684	0.0147076
693.762	0.0147557
693.840	0.0147454
693.918	0.0150281
693.996	0.0149496
694.075	0.0149822
694.153	0.0151039
694.231	0.0151336
694.309	0.0150732
694.387	0.0150783
694.465	0.0150948
694.543	0.0150002
694.621	0.0148796
694.700	0.0148959
694.778	0.0150223
694.856	0.0150292
694.934	0.0150735
695.012	0.0150507
695.090	0.0152148
695.168	0.0150901
695.246	0.0149654
695.325	0.0148530
695.403	0.0148502
695.481	0.0149122
695.559	0.0147240
695.637	0.0146825
695.715	0.0145438
695.793	0.0143266
695.871	0.0143570
695.950	0.0144358
696.028	0.0143421
696.106	0.0143814
696.184	0.0143629
696.262	0.0142987
696.340	0.0143147
696.418	0.0145501
696.496	0.0143590
696.575	0.0142934
696.653	0.0145956
696.731	0.0146790
696.809	0.0145004
696.887	0.0144460
696.965	0.0147340
697.043	0.0147685
697.121	0.0146554
697.200	0.0146744
697.278	0.0148081
697.356	0.0148681
697.434	0.0148164
697.512	0.0149454
697.590	0.0149741
697.668	0.0150703
697.746	0.0152265
697.825	0.0152737
697.903	0.0151614
697.981	0.0152328
698.059	0.0153378
698.137	0.0152223
698.215	0.0153483
698.293	0.0151794
698.371	0.0151654
698.450	0.0151308
698.528	0.0148029
698.606	0.0149136
698.684	0.0147866
698.762	0.0146428
698.840	0.0146130
698.918	0.0144252
698.996	0.0142994
699.075	0.0141900
699.153	0.0142123
699.231	0.0142879
699.309	0.0142290
699.387	0.0143088
699.465	0.0143713
699.543	0.0144790
699.621	0.0145480
699.700	0.0144168
699.778	0.0146159
699.856	0.0148050
699.934	0.0147948
700.012	0.0148991
700.090	0.0146545
700.168	0.0147047
700.246	0.0148225
700.325	0.0147319
700.403	0.0149309
700.481	0.0147500
700.559	0.0147472
700.637	0.0148143
700.715	0.0148914
700.793	0.0149918
700.871	0.0149109
700.950	0.0149380
701.028	0.0150255
701.106	0.0150219
701.184	0.0151929
701.262	0.0151628
701.340	0.0151341
701.418	0.0152163
701.496	0.0151714
701.575	0.0150993
701.653	0.0151502
701.731	0.0149650
701.809	0.0148068
701.887	0.0149026
701.965	0.0147760
702.043	0.0146090
702.121	0.0144515
702.200	0.0145332
702.278	0.0145478
702.356	0.0143739
702.434	0.0144453
702.512	0.0144897
702.590	0.0143296
702.668	0.0145290
702.746	0.0145275
702.825	0.0144778
702.903	0.0144368
702.981	0.0145734
703.059	0.0143633
703.137	0.0143459
703.215	0.0143476
703.293	0.0143945
703.371	0.0142081
703.450	0.0142203
703.528	0.0143634
703.606	0.0143358
703.684	0.0142443
703.762	0.0144090
703.840	0.0145653
703.918	0.0146754
703.996	0.0148565
704.075	0.0151172
704.153	0.0152359
704.231	0.0152419
704.309	0.0153222
704.387	0.0153936
704.465	0.0154182
704.543	0.0154356
704.621	0.0152133
704.700	0.0153799
704.778	0.0151499
704.856	0.0148882
704.934	0.0148560
705.012	0.0148975
705.090	0.0146468
705.168	0.0145233
705.246	0.0145415
705.325	0.0145466
705.403	0.0145762
705.481	0.0143645
705.559	0.0145322
705.637	0.0144402
705.715	0.0144458
705.793	0.0145380
705.871	0.0145148
705.950	0.0145315
706.028	0.0146753
706.106	0.0144425
706.184	0.0145795
706.262	0.0146749
706.340	0.0146527
706.418	0.0146545
706.496	0.0145455
706.575	0.0145552
706.653	0.0145409
706.731	0.0144855
706.809	0.0146474
706.887	0.0145654
706.965	0.0146336
707.043	0.0147171
707.121	0.0145876
707.200	0.0146590
707.278	0.0147481
707.356	0.0148232
707.434	0.0148109
707.512	0.0148915
707.590	0.0149166
707.668	0.0149589
707.746	0.0149287
707.825	0.0150708
707.903	0.0149932
707.981	0.0148143
708.059	0.0148174
708.137	0.0148401
708.215	0.0147324
708.293	0.0147802
708.371	0.0147723
708.450	0.0147408
708.528	0.0148383
708.606	0.0148343
708.684	0.0147836
708.762	0.0147896
708.840	0.0148456
708.918	0.0149059
708.996	0.0148920
709.075	0.0147448
709.153	0.0147830
709.231	0.0147784
709.309	0.0146644
709.387	0.0145691
709.465	0.0145171
709.543	0.0143514
709.621	0.0144118
709.700	0.0142878
709.778	0.0142919
709.856	0.0142460
709.934	0.0141846
710.012	0.0142522
710.090	0.0143423
710.168	0.0142789
710.246	0.0143248
710.325	0.0144248
710.403	0.0144804
710.481	0.0145082
710.559	0.0146900
710.637	0.0148445
710.715	0.0148830
710.793	0.0148854
710.871	0.0150045
710.950	0.0149500
711.028	0.0148959
711.106	0.0150225
711.184	0.0151900
711.262	0.0152310
711.340	0.0151943
711.418	0.0150129
711.496	0.0150501
711.575	0.0149382
711.653	0.0149293
711.731	0.0148395
711.809	0.0148729
711.887	0.0148291
711.965	0.0148660
712.043	0.0147594
712.121	0.0147993
712.200	0.0146908
712.278	0.0146733
712.356	0.0146893
712.434	0.0145329
712.512	0.0145029
712.590	0.0145238
712.668	0.0144966
712.746	0.0145104
712.825	0.0146317
712.903	0.0143822
712.981	0.0142678
713.059	0.0144129
713.137	0.0144866
713.215	0.0145142
713.293	0.0144736
713.371	0.0144672
713.450	0.0145245
713.528	0.0146198
713.606	0.0144258
713.684	0.0146351
713.762	0.0148412
713.840	0.0147299
713.918	0.0148590
713.996	0.0147668
714.075	0.0147351
714.153	0.0147959
714.231	0.0147862
714.309	0.0149551
714.387	0.0148499
714.465	0.0147725
714.543	0.0148477
714.621	0.0149755
714.700	0.0148969
714.778	0.0148887
714.856	0.0149214
714.934	0.0148815
715.012	0.0148645
715.090	0.0147669
715.168	0.0146612
715.246	0.0148587
715.325	0.0146964
715.403	0.0147421
715.481	0.0146786
715.559	0.0146774
715.637	0.0147330
715.715	0.0146579
715.793	0.0146429
715.871	0.0146239
715.950	0.0148147
716.028	0.0147554
716.106	0.0145264
716.184	0.0146908
716.262	0.0146008
716.340	0.0146384
716.418	0.0144941
716.496	0.0146165
716.575	0.0146291
716.653	0.0146307
716.731	0.0146365
716.809	0.0145356
716.887	0.0144692
716.965	0.0145291
717.043	0.0145253
717.121	0.0146141
717.200	0.0146150
717.278	0.0145652
717.356	0.0145306
717.434	0.0145776
717.512	0.0147564
717.590	0.0147669
717.668	0.0146708
717.746	0.0146910
717.825	0.0145525
717.903	0.0148135
717.981	0.0147543
718.059	0.0148952
718.137	0.0149401
718.215	0.0149841
718.293	0.0149744
718.371	0.0149601
718.450	0.0151166
718.528	0.0149730
718.606	0.0150462
718.684	0.0148569
718.762	0.0147628
718.840	0.0150024
718.918	0.0148651
718.996	0.0147905
719.075	0.0146874
719.153	0.0146131
719.231	0.0147951
719.309	0.0147826
719.387	0.0146175
719.465	0.0145145
719.543	0.0146542
719.621	0.0145958
719.700	0.0144265
719.778	0.0144603
719.856	0.0144608
719.934	0.0145124
720.012	0.0144844
720.090	0.0145499
720.168	0.0144492
720.246	0.0145122
720.325	0.0146764
720.403	0.0148000
720.481	0.0146764
720.559	0.0146393
720.637	0.0147267
720.715	0.0148027
720.793	0.0147301
720.871	0.0148610
720.950	0.0148381
721.028	0.0148960
721.106	0.0149815
721.184	0.0148944
721.262	0.0149796
721.340	0.0148217
721.418	0.0147181
721.496	0.0149799
721.575	0.0148338
721.653	0.0148197
721.731	0.0148352
721.809	0.0148975
721.887	0.0149535
721.965	0.0147983
722.043	0.0147988
722.121	0.0146658
722.200	0.0147710
722.278	0.0148295
722.356	0.0149162
722.434	0.0147549
722.512	0.0147852
722.590	0.0148510
722.668	0.0147882
722.746	0.0148632
722.825	0.0148457
722.903	0.0148807
722.981	0.0148174
723.059	0.0148466
723.137	0.0147863
723.215	0.0148782
723.293	0.0147303
723.371	0.0146298
723.450	0.0147140
723.528	0.0147561
723.606	0.0146239
723.684	0.0145435
723.762	0.0146523
723.840	0.0146368
723.918	0.0146606
723.996	0.0147163
724.075	0.0147176
724.153	0.0146591
724.231	0.0147150
724.309	0.0145756
724.387	0.0146614
724.465	0.0148016
724.543	0.0148743
724.621	0.0146872
724.700	0.0148738
724.778	0.0149656
724.856	0.0149467
724.934	0.0150274
725.012	0.0150108
725.090	0.0149964
725.168	0.0149490
725.246	0.0149976
725.325	0.0150744
725.403	0.0152105
725.481	0.0151656
725.559	0.0149691
725.637	0.0149510
725.715	0.0151228
725.793	0.0149976
725.871	0.0148934
725.950	0.0148273
726.028	0.0147786
726.106	0.0146803
726.184	0.0147172
726.262	0.0146516
726.340	0.0147718
726.418	0.0144104
726.496	0.0143541
726.575	0.0143089
726.653	0.0144304
726.731	0.0144196
726.809	0.0144914
726.887	0.0146399
726.965	0.0146033
727.043	0.0146360
727.121	0.0147378
727.200	0.0147098
727.278	0.0148483
727.356	0.0148667
727.434	0.0149068
727.512	0.0149215
727.590	0.0148947
727.668	0.0147822
727.746	0.0150323
727.825	0.0149171
727.903	0.0148644
727.981	0.0149232
728.059	0.0149081
728.137	0.0147901
728.215	0.0147514
728.293	0.0148346
728.371	0.0148051
728.450	0.0148679
728.528	0.0148318
728.606	0.0147781
728.684	0.0147424
728.762	0.0147581
728.840	0.0146633
728.918	0.0146069
728.996	0.0146826
729.075	0.0148093
729.153	0.0146469
729.231	0.0145289
729.309	0.0146127
729.387	0.0145866
729.465	0.0145928
729.543	0.0145425
729.621	0.0147250
729.700	0.0145951
729.778	0.0148956
729.856	0.0147837
729.934	0.0146719
730.012	0.0147043
730.090	0.0148064
730.168	0.0149188
730.246	0.0148764
730.325	0.0147238
730.403	0.0147729
730.481	0.0146835
730.559	0.0146061
730.637	0.0147756
730.715	0.0147475
730.793	0.0147009
730.871	0.0146782
730.950	0.0146482
731.028	0.0145454
731.106	0.0146529
731.184	0.0145252
731.262	0.0145308
731.340	0.0146328
731.418	0.0146926
731.496	0.0147208
731.575	0.0148474
731.653	0.0147749
731.731	0.0148102
731.809	0.0148864
731.887	0.0147559
731.965	0.0148038
732.043	0.0148965
732.121	0.0147182
732.200	0.0148418
732.278	0.0149190
732.356	0.0148998
732.434	0.0149064
732.512	0.0147855
732.590	0.0146290
732.668	0.0148174
732.746	0.0149539
732.825	0.0147666
732.903	0.0146657
732.981	0.0147662
733.059	0.0146108
733.137	0.0147124
733.215	0.0148122
733.293	0.0145856
733.371	0.0145733
733.450	0.0144995
733.528	0.0145206
733.606	0.0144825
733.684	0.0144316
733.762	0.0145035
733.840	0.0144221
733.918	0.0145194
733.996	0.0144223
734.075	0.0145237
734.153	0.0146819
734.231	0.0147034
734.309	0.0146570
734.387	0.0146709
734.465	0.0147901
734.543	0.0148826
734.621	0.0149723
734.700	0.0147892
734.778	0.0148183
734.856	0.0150837
734.934	0.0151224
735.012	0.0149016
735.090	0.0149619
735.168	0.0150169
735.246	0.0149875
735.325	0.0149418
735.403	0.0148573
735.481	0.0147789
735.559	0.0147945
735.637	0.0146933
735.715	0.0146387
735.793	0.0146635
735.871	0.0145608
735.950	0.0145425
736.028	0.0144455
736.106	0.0144959
736.184	0.0144301
736.262	0.0145284
736.340	0.0144049
736.418	0.0144833
736.496	0.0144576
736.575	0.0145149
736.653	0.0146261
736.731	0.0145902
736.809	0.0145337
736.887	0.0146759
736.965	0.0146744
737.043	0.0146933
737.121	0.0147801
737.200	0.0148143
737.278	0.0148507
737.356	0.0148956
737.434	0.0147045
737.512	0.0149013
737.590	0.0148429
737.668	0.0147767
737.746	0.0148963
737.825	0.0148969
737.903	0.0147514
737.981	0.0147919
738.059	0.0148098
738.137	0.0147823
738.215	0.0146677
738.293	0.0146502
738.371	0.0148550
738.450	0.0146291
738.528	0.0145052
738.606	0.0146799
738.684	0.0146780
738.762	0.0145970
738.840	0.0145350
738.918	0.0146421
738.996	0.0146829
739.075	0.0146778
739.153	0.0146006
739.231	0.0146557
739.309	0.0148335
739.387	0.0147630
739.465	0.0146686
739.543	0.0147239
739.621	0.0146896
739.700	0.0147903
739.778	0.0147282
739.856	0.0147777
739.934	0.0147594
740.012	0.0146503
740.090	0.0147411
740.168	0.0146554
740.246	0.0145116
740.325	0.0146312
740.403	0.0145250
740.481	0.0145619
740.559	0.0145571
740.637	0.0145455
740.715	0.0146820
740.793	0.0146041
740.871	0.0146220
740.950	0.0147263
741.028	0.0147596
741.106	0.0147162
741.184	0.0146447
741.262	0.0146466
741.340	0.0146863
741.418	0.0147257
741.496	0.0147641
741.575	0.0147226
741.653	0.0145863
741.731	0.0147935
741.809	0.0147604
741.887	0.0147402
741.965	0.0148495
742.043	0.0146223
742.121	0.0146960
742.200	0.0147490
742.278	0.0148709
742.356	0.0149483
742.434	0.0148267
742.512	0.0149998
742.590	0.0147697
742.668	0.0148411
742.746	0.0148524
742.825	0.0148268
742.903	0.0147598
742.981	0.0147462
743.059	0.0144948
743.137	0.0146368
743.215	0.0146030
743.293	0.0147182
743.371	0.0147178
743.450	0.0145121
743.528	0.0144851
743.606	0.0146338
743.684	0.0145774
743.762	0.0145048
743.840	0.0146056
743.918	0.0146664
743.996	0.0146951
744.075	0.0146744
744.153	0.0146837
744.231	0.0146277
744.309	0.0146725
744.387	0.0146529
744.465	0.0147493
744.543	0.0148290
744.621	0.0145387
744.700	0.0148702
744.778	0.0148543
744.856	0.0147777
744.934	0.0149437
745.012	0.0147518
745.090	0.0149414
745.168	0.0148950
745.246	0.0150216
745.325	0.0148454
745.403	0.0149178
745.481	0.0148199
745.559	0.0148545
745.637	0.0146862
745.715	0.0147863
745.793	0.0146539
745.871	0.0147004
745.950	0.0146577
746.028	0.0145979
746.106	0.0145937
746.184	0.0146283
746.262	0.0147281
746.340	0.0146034
746.418	0.0145664
746.496	0.0146204
746.575	0.0146438
746.653	0.0146739
746.731	0.0144918
746.809	0.0145784
746.887	0.0147536
746.965	0.0148032
747.043	0.0146222
747.121	0.0148062
747.200	0.0148528
747.278	0.0146757
747.356	0.0149140
747.434	0.0147916
747.512	0.0148824
747.590	0.0147470
747.668	0.0147626
747.746	0.0148407
747.825	0.0148425
747.903	0.0147008
747.981	0.0147931
748.059	0.0148521
748.137	0.0147573
748.215	0.0147623
748.293	0.0148559
748.371	0.0145831
748.450	0.0147410
748.528	0.0147491
748.606	0.0147204
748.684	0.0147128
748.762	0.0147131
748.840	0.0146564
748.918	0.0146509
748.996	0.0148706
749.075	0.0147711
749.153	0.0147099
749.231	0.0146824
749.309	0.0145900
749.387	0.0146074
749.465	0.0145973
749.543	0.0147003
749.621	0.0147050
749.700	0.0145520
749.778	0.0147038
749.856	0.0148019
749.934	0.0147688
750.012	0.0147404
750.090	0.0145786
750.168	0.0147243
750.246	0.0148369
750.325	0.0147488
750.403	0.0147395
750.481	0.0147663
750.559	0.0148650
750.637	0.0147071
750.715	0.0146346
750.793	0.0146230
750.871	0.0146043
750.950	0.0147329
751.028	0.0147106
751.106	0.0147052
751.184	0.0146613
751.262	0.0145911
751.340	0.0147084
751.418	0.0146770
751.496	0.0146515
751.575	0.0146725
751.653	0.0146225
751.731	0.0147069
751.809	0.0147198
751.887	0.0147456
751.965	0.0147207
752.043	0.0148036
752.121	0.0146833
752.200	0.0147341
752.278	0.0147825
752.356	0.0147577
752.434	0.0148500
752.512	0.0147389
752.590	0.0147115
752.668	0.0148282
752.746	0.0147752
752.825	0.0148080
752.903	0.0148815
752.981	0.0147814
753.059	0.0148584
753.137	0.0147721
753.215	0.0147750
753.293	0.0147575
753.371	0.0145538
753.450	0.0146374
753.528	0.0147456
753.606	0.0148177
753.684	0.0147568
753.762	0.0147601
753.840	0.0148056
753.918	0.0146668
753.996	0.0145891
754.075	0.0147186
754.153	0.0147337
754.231	0.0146918
754.309	0.0147642
754.387	0.0146979
754.465	0.0147159
754.543	0.0147632
754.621	0.0146960
754.700	0.0146796
754.778	0.0147696
754.856	0.0147972
754.934	0.0148631
755.012	0.0147662
755.090	0.0147707
755.168	0.0149195
755.246	0.0147371
755.325	0.0147254
755.403	0.0147092
755.481	0.0147794
755.559	0.0147769
755.637	0.0147014
755.715	0.0148456
755.793	0.0147530
755.871	0.0147903
755.950	0.0148141
756.028	0.0147370
756.106	0.0146392
756.184	0.0147932
756.262	0.0146841
756.340	0.0147678
756.418	0.0146287
756.496	0.0146040
756.575	0.0148281
756.653	0.0148086
756.731	0.0147139
756.809	0.0146468
756.887	0.0147424
756.965	0.0145937
757.043	0.0147406
757.121	0.0147676
757.200	0.0147623
757.278	0.0147734
757.356	0.0146854
757.434	0.0147090
757.512	0.0149447
757.590	0.0147702
757.668	0.0147169
757.746	0.0148478
757.825	0.0148045
757.903	0.0146159
757.981	0.0147540
758.059	0.0146417
758.137	0.0146740
758.215	0.0148077
758.293	0.0146159
758.371	0.0148080
758.450	0.0146939
758.528	0.0147455
758.606	0.0146800
758.684	0.0147115
758.762	0.0147692
758.840	0.0146711
758.918	0.0147905
758.996	0.0145222
759.075	0.0147256
759.153	0.0146771
759.231	0.0145943
759.309	0.0144827
759.387	0.0145763
759.465	0.0147157
759.543	0.0146209
759.621	0.0147296
759.700	0.0147807
759.778	0.0145673
759.856	0.0147875
759.934	0.0150212
760.012	0.0148856
760.090	0.0146970
760.168	0.0146832
760.246	0.0148300
760.325	0.0148203
760.403	0.0147133
760.481	0.0146565
760.559	0.0146491
760.637	0.0147793
760.715	0.0146974
760.793	0.0147260
760.871	0.0147089
760.950	0.0147183
761.028	0.0147396
761.106	0.0147421
761.184	0.0145820
761.262	0.0147327
761.340	0.0144868
761.418	0.0146722
761.496	0.0146363
761.575	0.0146724
761.653	0.0147048
761.731	0.0147036
761.809	0.0145708
761.887	0.0145602
761.965	0.0145776
762.043	0.0147216
762.121	0.0146463
762.200	0.0148413
762.278	0.0146996
762.356	0.0146975
762.434	0.0147109
762.512	0.0145751
762.590	0.0147632
762.668	0.0147061
762.746	0.0147498
762.825	0.0147033
762.903	0.0147900
762.981	0.0148802
763.059	0.0147197
763.137	0.0146100
763.215	0.0146571
763.293	0.0147135
763.371	0.0148287
763.450	0.0148932
763.528	0.0147041
763.606	0.0145934
763.684	0.0146947
763.762	0.0148032
763.840	0.0148200
763.918	0.0147035
763.996	0.0148095
764.075	0.0147648
764.153	0.0147602
764.231	0.0147297
764.309	0.0148196
764.387	0.0145697
764.465	0.0148729
764.543	0.0148222
764.621	0.0147614
764.700	0.0146004
