05/04/2022	20:50:36	Ver.	4.1	UNKNOWN
Optical Delay	678.996401	Delta X		0.078125	Sweeps	1	Scan Rate	0/0
Coordinates	Axis 1	NaN	Axis 2	NaN	Axis 3	NaN	Axis 4	NaN	Axis 5	NaN	Axis 6	0.000000
TX Power	0.000000	RX Power	0.000000

678.996	0.0142696
679.075	0.0142747
679.153	0.0142648
679.231	0.0143021
679.309	0.0142632
679.387	0.0141863
679.465	0.0142149
679.543	0.0142085
679.621	0.0143157
679.700	0.0143097
679.778	0.0142447
679.856	0.0143071
679.934	0.0142593
680.012	0.0143525
680.090	0.0143696
680.168	0.0142010
680.246	0.0140810
680.325	0.0142854
680.403	0.0142036
680.481	0.0142003
680.559	0.0142438
680.637	0.0143836
680.715	0.0142065
680.793	0.0142477
680.871	0.0142686
680.950	0.0141921
681.028	0.0140411
681.106	0.0141280
681.184	0.0142910
681.262	0.0142454
681.340	0.0142645
681.418	0.0142081
681.496	0.0142761
681.575	0.0141102
681.653	0.0142016
681.731	0.0142946
681.809	0.0143666
681.887	0.0141650
681.965	0.0141981
682.043	0.0143504
682.121	0.0142419
682.200	0.0142432
682.278	0.0143018
682.356	0.0142408
682.434	0.0142381
682.512	0.0142084
682.590	0.0141975
682.668	0.0143424
682.746	0.0144630
682.825	0.0142583
682.903	0.0142825
682.981	0.0141446
683.059	0.0141653
683.137	0.0143140
683.215	0.0143176
683.293	0.0143980
683.371	0.0142536
683.450	0.0143110
683.528	0.0142999
683.606	0.0142677
683.684	0.0143010
683.762	0.0143773
683.840	0.0143412
683.918	0.0143153
683.996	0.0141708
684.075	0.0143445
684.153	0.0143837
684.231	0.0142033
684.309	0.0141744
684.387	0.0143990
684.465	0.0143044
684.543	0.0142004
684.621	0.0142599
684.700	0.0143131
684.778	0.0143173
684.856	0.0142216
684.934	0.0142080
685.012	0.0143056
685.090	0.0142651
685.168	0.0142371
685.246	0.0142807
685.325	0.0142130
685.403	0.0142914
685.481	0.0143089
685.559	0.0142104
685.637	0.0142539
685.715	0.0142183
685.793	0.0143354
685.871	0.0142550
685.950	0.0142354
686.028	0.0143565
686.106	0.0143165
686.184	0.0144373
686.262	0.0142860
686.340	0.0143247
686.418	0.0143489
686.496	0.0141979
686.575	0.0143377
686.653	0.0143430
686.731	0.0143713
686.809	0.0142448
686.887	0.0142738
686.965	0.0143820
687.043	0.0141380
687.121	0.0142222
687.200	0.0142101
687.278	0.0142608
687.356	0.0143417
687.434	0.0143040
687.512	0.0142645
687.590	0.0143531
687.668	0.0142365
687.746	0.0143259
687.825	0.0143529
687.903	0.0142429
687.981	0.0142535
688.059	0.0142094
688.137	0.0141853
688.215	0.0141873
688.293	0.0142879
688.371	0.0142774
688.450	0.0143304
688.528	0.0142646
688.606	0.0143094
688.684	0.0142873
688.762	0.0143758
688.840	0.0141608
688.918	0.0142146
688.996	0.0143852
689.075	0.0143188
689.153	0.0142431
689.231	0.0142712
689.309	0.0143139
689.387	0.0143589
689.465	0.0142792
689.543	0.0141273
689.621	0.0143015
689.700	0.0142279
689.778	0.0142601
689.856	0.0142195
689.934	0.0143060
690.012	0.0143408
690.090	0.0143592
690.168	0.0142273
690.246	0.0141380
690.325	0.0142509
690.403	0.0142448
690.481	0.0142035
690.559	0.0142807
690.637	0.0142906
690.715	0.0143111
690.793	0.0141905
690.871	0.0143105
690.950	0.0143671
691.028	0.0142725
691.106	0.0141382
691.184	0.0143364
691.262	0.0142967
691.340	0.0143066
691.418	0.0142897
691.496	0.0143387
691.575	0.0143238
691.653	0.0142202
691.731	0.0142110
691.809	0.0143120
691.887	0.0143912
691.965	0.0143015
692.043	0.0142583
692.121	0.0142518
692.200	0.0143266
692.278	0.0141952
692.356	0.0143105
692.434	0.0143618
692.512	0.0142690
692.590	0.0141809
692.668	0.0140892
692.746	0.0144544
692.825	0.0143124
692.903	0.0142230
692.981	0.0141726
693.059	0.0142177
693.137	0.0142918
693.215	0.0142493
693.293	0.0141772
693.371	0.0143078
693.450	0.0142367
693.528	0.0143158
693.606	0.0141114
693.684	0.0143362
693.762	0.0141826
693.840	0.0141920
693.918	0.0142159
693.996	0.0141661
694.075	0.0142285
694.153	0.0142605
694.231	0.0143401
694.309	0.0142161
694.387	0.0142864
694.465	0.0143018
694.543	0.0142678
694.621	0.0141499
694.700	0.0142535
694.778	0.0143325
694.856	0.0142593
694.934	0.0142982
695.012	0.0143167
695.090	0.0143266
695.168	0.0141682
695.246	0.0143008
695.325	0.0142921
695.403	0.0142567
695.481	0.0142932
695.559	0.0141839
695.637	0.0143592
695.715	0.0141663
695.793	0.0142142
695.871	0.0142345
695.950	0.0142585
696.028	0.0142193
696.106	0.0142673
696.184	0.0142337
696.262	0.0143615
696.340	0.0142696
696.418	0.0142114
696.496	0.0142632
696.575	0.0142858
696.653	0.0142013
696.731	0.0143065
696.809	0.0143058
696.887	0.0140808
696.965	0.0142097
697.043	0.0143880
697.121	0.0142820
697.200	0.0142174
697.278	0.0142507
697.356	0.0143143
697.434	0.0142135
697.512	0.0143066
697.590	0.0143077
697.668	0.0141314
697.746	0.0141992
697.825	0.0141644
697.903	0.0142324
697.981	0.0142142
698.059	0.0143126
698.137	0.0143196
698.215	0.0142660
698.293	0.0142358
698.371	0.0142109
698.450	0.0141972
698.528	0.0140273
698.606	0.0141836
698.684	0.0141541
698.762	0.0143607
698.840	0.0142970
698.918	0.0140996
698.996	0.0142715
699.075	0.0142275
699.153	0.0142576
699.231	0.0143919
699.309	0.0143294
699.387	0.0142614
699.465	0.0142184
699.543	0.0142979
699.621	0.0144261
699.700	0.0142055
699.778	0.0141613
699.856	0.0142802
699.934	0.0140652
700.012	0.0142693
700.090	0.0143854
700.168	0.0142104
700.246	0.0141158
700.325	0.0141986
700.403	0.0142938
700.481	0.0141415
700.559	0.0142071
700.637	0.0143277
700.715	0.0141922
700.793	0.0142902
700.871	0.0142867
700.950	0.0142673
701.028	0.0142606
701.106	0.0142886
701.184	0.0142521
701.262	0.0143552
701.340	0.0141805
701.418	0.0141817
701.496	0.0142102
701.575	0.0141891
701.653	0.0142345
701.731	0.0144197
701.809	0.0142687
701.887	0.0142646
701.965	0.0141620
702.043	0.0142609
702.121	0.0143812
702.200	0.0142608
702.278	0.0141451
702.356	0.0142440
702.434	0.0142371
702.512	0.0141071
702.590	0.0141933
702.668	0.0142958
702.746	0.0142332
702.825	0.0142905
702.903	0.0142509
702.981	0.0142082
703.059	0.0142007
703.137	0.0142036
703.215	0.0142200
703.293	0.0143945
703.371	0.0142989
703.450	0.0143213
703.528	0.0140924
703.606	0.0142355
703.684	0.0143029
703.762	0.0142061
703.840	0.0141100
703.918	0.0142209
703.996	0.0142754
704.075	0.0141671
704.153	0.0142453
704.231	0.0142693
704.309	0.0141749
704.387	0.0143121
704.465	0.0141918
704.543	0.0142032
704.621	0.0144215
704.700	0.0141876
704.778	0.0141437
704.856	0.0142029
704.934	0.0142632
705.012	0.0143411
705.090	0.0142664
705.168	0.0143179
705.246	0.0142970
705.325	0.0143615
705.403	0.0141888
705.481	0.0142252
705.559	0.0142194
705.637	0.0141971
705.715	0.0142798
705.793	0.0141183
705.871	0.0141354
705.950	0.0142575
706.028	0.0141782
706.106	0.0142298
706.184	0.0141561
706.262	0.0141692
706.340	0.0140479
706.418	0.0142206
706.496	0.0141565
706.575	0.0141438
706.653	0.0141939
706.731	0.0141782
706.809	0.0141436
706.887	0.0142454
706.965	0.0141574
707.043	0.0142348
707.121	0.0142426
707.200	0.0141419
707.278	0.0140685
707.356	0.0142899
707.434	0.0142548
707.512	0.0142700
707.590	0.0142173
707.668	0.0142777
707.746	0.0142657
707.825	0.0142760
707.903	0.0143152
707.981	0.0142666
708.059	0.0142348
708.137	0.0141293
708.215	0.0142314
708.293	0.0144495
708.371	0.0142596
708.450	0.0142311
708.528	0.0143774
708.606	0.0141958
708.684	0.0141908
708.762	0.0141621
708.840	0.0141882
708.918	0.0141297
708.996	0.0141917
709.075	0.0141971
709.153	0.0143291
709.231	0.0143930
709.309	0.0140972
709.387	0.0142245
709.465	0.0142638
709.543	0.0141798
709.621	0.0142857
709.700	0.0143460
709.778	0.0141389
709.856	0.0141282
709.934	0.0143578
710.012	0.0142885
710.090	0.0143325
710.168	0.0142025
710.246	0.0143484
710.325	0.0141868
710.403	0.0142438
710.481	0.0141254
710.559	0.0141539
710.637	0.0141965
710.715	0.0141993
710.793	0.0142104
710.871	0.0140709
710.950	0.0141779
711.028	0.0142783
711.106	0.0142351
711.184	0.0142461
711.262	0.0143418
711.340	0.0142396
711.418	0.0143498
711.496	0.0143124
711.575	0.0143553
711.653	0.0144576
711.731	0.0143549
711.809	0.0143701
711.887	0.0141934
711.965	0.0144020
712.043	0.0143704
712.121	0.0142643
712.200	0.0142805
712.278	0.0143159
712.356	0.0143468
712.434	0.0144218
712.512	0.0145055
712.590	0.0143162
712.668	0.0143451
712.746	0.0142885
712.825	0.0140131
712.903	0.0139925
712.981	0.0140810
713.059	0.0138974
713.137	0.0140128
713.215	0.0141495
713.293	0.0142423
713.371	0.0143486
713.450	0.0146128
713.528	0.0144244
713.606	0.0145219
713.684	0.0145640
713.762	0.0145503
713.840	0.0143735
713.918	0.0143250
713.996	0.0144140
714.075	0.0143334
714.153	0.0143153
714.231	0.0143692
714.309	0.0143470
714.387	0.0145142
714.465	0.0144245
714.543	0.0144606
714.621	0.0143977
714.700	0.0144202
714.778	0.0143739
714.856	0.0142908
714.934	0.0141199
715.012	0.0141914
715.090	0.0141176
715.168	0.0141457
715.246	0.0140421
715.325	0.0141177
715.403	0.0140426
715.481	0.0139303
715.559	0.0139729
715.637	0.0139201
715.715	0.0139439
715.793	0.0140103
715.871	0.0139909
715.950	0.0139754
716.028	0.0139728
716.106	0.0141393
716.184	0.0141694
716.262	0.0143526
716.340	0.0146704
716.418	0.0146278
716.496	0.0148966
716.575	0.0148182
716.653	0.0147620
716.731	0.0146247
716.809	0.0144661
716.887	0.0142988
716.965	0.0139980
717.043	0.0137045
717.121	0.0135072
717.200	0.0133497
717.278	0.0132057
717.356	0.0130343
717.434	0.0132538
717.512	0.0134557
717.590	0.0136224
717.668	0.0137151
717.746	0.0139082
717.825	0.0141283
717.903	0.0145572
717.981	0.0146471
718.059	0.0148176
718.137	0.0147984
718.215	0.0147684
718.293	0.0148523
718.371	0.0148548
718.450	0.0149567
718.528	0.0148021
718.606	0.0147110
718.684	0.0145527
718.762	0.0144855
718.840	0.0143501
718.918	0.0143118
718.996	0.0142025
719.075	0.0143019
719.153	0.0142628
719.231	0.0143729
719.309	0.0144965
719.387	0.0143884
719.465	0.0145840
719.543	0.0147303
719.621	0.0148016
719.700	0.0148662
719.778	0.0149659
719.856	0.0146956
719.934	0.0147002
720.012	0.0145570
720.090	0.0142329
720.168	0.0139854
720.246	0.0136233
720.325	0.0133913
720.403	0.0133352
720.481	0.0131288
720.559	0.0131883
720.637	0.0132534
720.715	0.0135795
720.793	0.0137762
720.871	0.0140327
720.950	0.0142552
721.028	0.0146275
721.106	0.0146150
721.184	0.0147424
721.262	0.0149142
721.340	0.0148779
721.418	0.0149763
721.496	0.0145982
721.575	0.0143396
721.653	0.0143171
721.731	0.0141296
721.809	0.0139400
721.887	0.0137896
721.965	0.0137940
722.043	0.0137540
722.121	0.0138515
722.200	0.0137804
722.278	0.0138725
722.356	0.0139943
722.434	0.0140853
722.512	0.0142037
722.590	0.0142355
722.668	0.0145886
722.746	0.0146077
722.825	0.0145929
722.903	0.0146801
722.981	0.0147276
723.059	0.0146893
723.137	0.0146763
723.215	0.0145538
723.293	0.0142847
723.371	0.0141376
723.450	0.0140314
723.528	0.0137913
723.606	0.0138000
723.684	0.0137338
723.762	0.0137904
723.840	0.0137972
723.918	0.0139154
723.996	0.0141595
724.075	0.0142680
724.153	0.0145272
724.231	0.0147663
724.309	0.0147704
724.387	0.0147935
724.465	0.0149913
724.543	0.0149242
724.621	0.0151688
724.700	0.0150262
724.778	0.0149635
724.856	0.0148944
724.934	0.0146605
725.012	0.0144267
725.090	0.0144406
725.168	0.0142713
725.246	0.0139948
725.325	0.0138427
725.403	0.0136831
725.481	0.0137070
725.559	0.0136768
725.637	0.0135726
725.715	0.0138529
725.793	0.0138241
725.871	0.0138290
725.950	0.0140858
726.028	0.0142174
726.106	0.0142788
726.184	0.0144498
726.262	0.0144593
726.340	0.0146212
726.418	0.0146210
726.496	0.0146056
726.575	0.0146186
726.653	0.0147249
726.731	0.0145677
726.809	0.0143658
726.887	0.0142780
726.965	0.0140900
727.043	0.0139438
727.121	0.0136688
727.200	0.0137005
727.278	0.0135611
727.356	0.0135773
727.434	0.0136690
727.512	0.0138098
727.590	0.0137831
727.668	0.0139265
727.746	0.0140616
727.825	0.0142905
727.903	0.0144714
727.981	0.0145251
728.059	0.0146910
728.137	0.0146862
728.215	0.0148283
728.293	0.0148711
728.371	0.0147883
728.450	0.0149476
728.528	0.0147301
728.606	0.0145837
728.684	0.0144495
728.762	0.0141216
728.840	0.0140931
728.918	0.0140015
728.996	0.0138902
729.075	0.0138425
729.153	0.0139257
729.231	0.0138271
729.309	0.0140446
729.387	0.0140013
729.465	0.0141419
729.543	0.0142078
729.621	0.0143721
729.700	0.0145997
729.778	0.0146038
729.856	0.0146915
729.934	0.0146967
730.012	0.0147534
730.090	0.0148052
730.168	0.0148251
730.246	0.0147584
730.325	0.0146595
730.403	0.0144518
730.481	0.0143001
730.559	0.0143397
730.637	0.0143321
730.715	0.0141495
730.793	0.0140562
730.871	0.0140831
730.950	0.0142093
731.028	0.0141798
731.106	0.0141272
731.184	0.0140835
731.262	0.0141228
731.340	0.0141840
731.418	0.0141433
731.496	0.0142309
731.575	0.0142474
731.653	0.0142436
731.731	0.0142895
731.809	0.0143190
731.887	0.0143196
731.965	0.0141692
732.043	0.0142510
732.121	0.0142112
732.200	0.0140843
732.278	0.0140682
732.356	0.0141006
732.434	0.0139890
732.512	0.0140759
732.590	0.0140019
732.668	0.0141499
732.746	0.0141259
732.825	0.0141072
732.903	0.0143521
732.981	0.0143369
733.059	0.0142970
733.137	0.0141351
733.215	0.0143118
733.293	0.0143724
733.371	0.0142519
733.450	0.0142356
733.528	0.0142902
733.606	0.0140967
733.684	0.0142211
733.762	0.0141710
733.840	0.0141177
733.918	0.0142779
733.996	0.0142326
734.075	0.0141883
734.153	0.0141812
734.231	0.0142112
734.309	0.0141025
734.387	0.0143311
734.465	0.0143147
734.543	0.0142419
734.621	0.0142406
734.700	0.0142431
734.778	0.0142526
734.856	0.0143726
734.934	0.0142458
735.012	0.0142360
735.090	0.0141787
735.168	0.0142995
735.246	0.0140451
735.325	0.0140890
735.403	0.0141972
735.481	0.0142228
735.559	0.0142497
735.637	0.0143335
735.715	0.0143999
735.793	0.0143864
735.871	0.0143812
735.950	0.0144229
736.028	0.0145135
736.106	0.0144226
736.184	0.0145006
736.262	0.0145054
736.340	0.0143730
736.418	0.0143407
736.496	0.0143230
736.575	0.0141526
736.653	0.0142014
736.731	0.0142392
736.809	0.0142126
736.887	0.0142177
736.965	0.0141401
737.043	0.0140822
737.121	0.0140907
737.200	0.0141576
737.278	0.0142215
737.356	0.0139411
737.434	0.0140507
737.512	0.0141549
737.590	0.0142374
737.668	0.0141342
737.746	0.0141432
737.825	0.0142340
737.903	0.0141082
737.981	0.0142399
738.059	0.0143877
738.137	0.0145128
738.215	0.0145016
738.293	0.0145341
738.371	0.0145693
738.450	0.0144808
738.528	0.0145477
738.606	0.0144865
738.684	0.0143280
738.762	0.0144449
738.840	0.0143760
738.918	0.0143490
738.996	0.0141594
739.075	0.0140580
739.153	0.0141882
739.231	0.0139597
739.309	0.0139481
739.387	0.0139823
739.465	0.0140843
739.543	0.0140450
739.621	0.0141873
739.700	0.0141750
739.778	0.0142947
739.856	0.0144360
739.934	0.0143218
740.012	0.0144493
740.090	0.0144820
740.168	0.0145416
740.246	0.0145397
740.325	0.0145886
740.403	0.0145188
740.481	0.0144637
740.559	0.0145251
740.637	0.0143138
740.715	0.0142789
740.793	0.0140828
740.871	0.0141797
740.950	0.0139595
741.028	0.0140037
741.106	0.0140581
741.184	0.0141697
741.262	0.0141120
741.340	0.0141348
741.418	0.0140401
741.496	0.0139951
741.575	0.0142014
741.653	0.0140502
741.731	0.0140963
741.809	0.0140150
741.887	0.0141109
741.965	0.0141590
742.043	0.0139419
742.121	0.0140370
742.200	0.0141079
742.278	0.0142857
742.356	0.0140938
742.434	0.0141096
742.512	0.0142268
742.590	0.0142264
742.668	0.0144108
742.746	0.0144476
742.825	0.0145196
742.903	0.0145148
742.981	0.0145956
743.059	0.0145982
743.137	0.0145213
743.215	0.0145621
743.293	0.0144254
743.371	0.0144835
743.450	0.0144344
743.528	0.0142883
743.606	0.0141566
743.684	0.0141886
743.762	0.0140921
743.840	0.0140957
743.918	0.0140894
743.996	0.0140064
744.075	0.0138959
744.153	0.0139344
744.231	0.0142260
744.309	0.0141264
744.387	0.0141855
744.465	0.0141818
744.543	0.0142100
744.621	0.0144397
744.700	0.0144521
744.778	0.0142976
744.856	0.0143206
744.934	0.0143662
745.012	0.0144347
745.090	0.0144963
745.168	0.0145416
745.246	0.0143864
745.325	0.0143435
745.403	0.0144453
745.481	0.0142986
745.559	0.0143301
745.637	0.0143489
745.715	0.0143774
745.793	0.0141888
745.871	0.0141460
745.950	0.0142939
746.028	0.0141884
746.106	0.0141778
746.184	0.0140028
746.262	0.0141521
746.340	0.0142989
746.418	0.0140097
746.496	0.0139169
746.575	0.0141663
746.653	0.0141231
746.731	0.0141355
746.809	0.0141518
746.887	0.0142281
746.965	0.0142363
747.043	0.0143427
747.121	0.0145275
747.200	0.0145288
747.278	0.0144163
747.356	0.0144057
747.434	0.0143823
747.512	0.0143182
747.590	0.0144006
747.668	0.0142322
747.746	0.0143343
747.825	0.0142780
747.903	0.0142403
747.981	0.0139645
748.059	0.0139410
748.137	0.0139445
748.215	0.0140028
748.293	0.0139484
748.371	0.0141066
748.450	0.0140868
748.528	0.0140512
748.606	0.0141194
748.684	0.0142545
748.762	0.0143204
748.840	0.0144166
748.918	0.0145677
748.996	0.0145348
749.075	0.0144172
749.153	0.0144005
749.231	0.0144510
749.309	0.0144160
749.387	0.0143311
749.465	0.0142872
749.543	0.0142223
749.621	0.0141505
749.700	0.0141422
749.778	0.0141727
749.856	0.0142698
749.934	0.0142531
750.012	0.0141944
750.090	0.0142369
750.168	0.0142660
750.246	0.0142736
750.325	0.0144126
750.403	0.0143241
750.481	0.0144661
750.559	0.0144533
750.637	0.0146357
750.715	0.0145539
750.793	0.0144574
750.871	0.0145738
750.950	0.0145009
751.028	0.0143272
751.106	0.0144604
751.184	0.0144048
751.262	0.0141940
751.340	0.0140993
751.418	0.0141741
751.496	0.0140733
751.575	0.0139895
751.653	0.0140245
751.731	0.0140881
751.809	0.0139048
751.887	0.0141051
751.965	0.0141402
752.043	0.0142097
752.121	0.0143266
752.200	0.0142805
752.278	0.0141895
752.356	0.0141434
752.434	0.0141637
752.512	0.0142697
752.590	0.0144112
752.668	0.0143851
752.746	0.0143214
752.825	0.0143037
752.903	0.0142770
752.981	0.0141476
753.059	0.0143706
753.137	0.0141713
753.215	0.0141674
753.293	0.0141465
753.371	0.0142281
753.450	0.0141821
753.528	0.0141302
753.606	0.0141372
753.684	0.0140709
753.762	0.0140873
753.840	0.0140482
753.918	0.0142056
753.996	0.0141201
754.075	0.0141554
754.153	0.0140686
754.231	0.0141193
754.309	0.0143211
754.387	0.0142091
754.465	0.0140996
754.543	0.0142212
754.621	0.0145218
754.700	0.0144830
754.778	0.0143169
754.856	0.0143633
754.934	0.0142609
755.012	0.0143708
755.090	0.0143525
755.168	0.0144844
755.246	0.0144762
755.325	0.0143607
755.403	0.0142702
755.481	0.0141860
755.559	0.0142319
755.637	0.0142216
755.715	0.0140928
755.793	0.0140887
755.871	0.0141144
755.950	0.0140962
756.028	0.0142252
756.106	0.0142837
756.184	0.0142097
756.262	0.0141241
756.340	0.0142657
756.418	0.0143046
756.496	0.0143573
756.575	0.0144109
756.653	0.0146236
756.731	0.0144036
756.809	0.0142461
756.887	0.0143193
756.965	0.0143520
757.043	0.0142521
757.121	0.0143647
757.200	0.0144312
757.278	0.0142390
757.356	0.0142328
757.434	0.0142091
757.512	0.0142807
757.590	0.0143877
757.668	0.0141303
757.746	0.0142200
757.825	0.0144390
757.903	0.0141999
757.981	0.0144096
758.059	0.0143331
758.137	0.0143233
758.215	0.0141357
758.293	0.0142039
758.371	0.0142725
758.450	0.0142542
758.528	0.0142783
758.606	0.0142204
758.684	0.0141814
758.762	0.0141407
758.840	0.0141032
758.918	0.0141460
758.996	0.0141120
759.075	0.0140964
759.153	0.0140234
759.231	0.0140637
759.309	0.0141326
759.387	0.0142102
759.465	0.0142487
759.543	0.0143957
759.621	0.0141791
759.700	0.0142934
759.778	0.0142738
759.856	0.0140598
759.934	0.0142612
760.012	0.0143782
760.090	0.0142848
760.168	0.0142333
760.246	0.0141474
760.325	0.0141634
760.403	0.0141428
760.481	0.0141715
760.559	0.0141875
760.637	0.0142168
760.715	0.0142944
760.793	0.0142805
760.871	0.0142122
760.950	0.0142860
761.028	0.0142602
761.106	0.0141711
761.184	0.0142896
761.262	0.0143748
761.340	0.0142771
761.418	0.0141807
761.496	0.0142221
761.575	0.0142088
761.653	0.0141716
761.731	0.0143502
761.809	0.0143053
761.887	0.0142134
761.965	0.0141862
762.043	0.0141485
762.121	0.0142075
762.200	0.0143698
762.278	0.0143491
762.356	0.0143612
762.434	0.0142783
762.512	0.0143755
762.590	0.0144371
762.668	0.0144714
762.746	0.0145210
762.825	0.0145055
762.903	0.0144685
762.981	0.0145055
763.059	0.0144255
763.137	0.0144200
763.215	0.0144608
763.293	0.0144562
763.371	0.0144859
763.450	0.0142390
763.528	0.0141954
763.606	0.0142847
763.684	0.0142516
763.762	0.0143262
763.840	0.0141284
763.918	0.0141678
763.996	0.0141953
764.075	0.0142412
764.153	0.0141299
764.231	0.0141987
764.309	0.0143004
764.387	0.0142911
764.465	0.0143043
764.543	0.0142837
764.621	0.0142671
764.700	0.0141559
