05/04/2022	21:37:19	Ver.	4.1	UNKNOWN
Optical Delay	678.989730	Delta X		0.078125	Sweeps	1	Scan Rate	0/0
Coordinates	Axis 1	NaN	Axis 2	NaN	Axis 3	NaN	Axis 4	NaN	Axis 5	NaN	Axis 6	0.000000
TX Power	0.000000	RX Power	0.000000

678.990	0.0144717
679.068	0.0142361
679.146	0.0143710
679.224	0.0143291
679.302	0.0143681
679.380	0.0143053
679.458	0.0143125
679.537	0.0145218
679.615	0.0144675
679.693	0.0144553
679.771	0.0144438
679.849	0.0145262
679.927	0.0145516
680.005	0.0145219
680.083	0.0145728
680.162	0.0146913
680.240	0.0146210
680.318	0.0144870
680.396	0.0143734
680.474	0.0141855
680.552	0.0142233
680.630	0.0140365
680.708	0.0139312
680.787	0.0141361
680.865	0.0140931
680.943	0.0142104
681.021	0.0144289
681.099	0.0146549
681.177	0.0147227
681.255	0.0147128
681.333	0.0148343
681.412	0.0150011
681.490	0.0149245
681.568	0.0149342
681.646	0.0147302
681.724	0.0147103
681.802	0.0144485
681.880	0.0142979
681.958	0.0142623
682.037	0.0140788
682.115	0.0141532
682.193	0.0141729
682.271	0.0141067
682.349	0.0142538
682.427	0.0143973
682.505	0.0143948
682.583	0.0144019
682.662	0.0145377
682.740	0.0145170
682.818	0.0144713
682.896	0.0145673
682.974	0.0144641
683.052	0.0143241
683.130	0.0142044
683.208	0.0141702
683.287	0.0140955
683.365	0.0140137
683.443	0.0140186
683.521	0.0141855
683.599	0.0142199
683.677	0.0143271
683.755	0.0144510
683.833	0.0148720
683.912	0.0147921
683.990	0.0148044
684.068	0.0149614
684.146	0.0150745
684.224	0.0151298
684.302	0.0152062
684.380	0.0150814
684.458	0.0150991
684.537	0.0149438
684.615	0.0148320
684.693	0.0144564
684.771	0.0143568
684.849	0.0141435
684.927	0.0140756
685.005	0.0138750
685.083	0.0139274
685.162	0.0138499
685.240	0.0137978
685.318	0.0139606
685.396	0.0141792
685.474	0.0141286
685.552	0.0141618
685.630	0.0141013
685.708	0.0140893
685.787	0.0140750
685.865	0.0140692
685.943	0.0138462
686.021	0.0140207
686.099	0.0139359
686.177	0.0140013
686.255	0.0141045
686.333	0.0141402
686.412	0.0143502
686.490	0.0145918
686.568	0.0146758
686.646	0.0146723
686.724	0.0148320
686.802	0.0149310
686.880	0.0148409
686.958	0.0151379
687.037	0.0151385
687.115	0.0153678
687.193	0.0152144
687.271	0.0152177
687.349	0.0151614
687.427	0.0150123
687.505	0.0149747
687.583	0.0147624
687.662	0.0145225
687.740	0.0142352
687.818	0.0139235
687.896	0.0139395
687.974	0.0138472
688.052	0.0136474
688.130	0.0134264
688.208	0.0136162
688.287	0.0136544
688.365	0.0136078
688.443	0.0138986
688.521	0.0139619
688.599	0.0141066
688.677	0.0142419
688.755	0.0143789
688.833	0.0144674
688.912	0.0145901
688.990	0.0144788
689.068	0.0145054
689.146	0.0145438
689.224	0.0145345
689.302	0.0144242
689.380	0.0145000
689.458	0.0142661
689.537	0.0144016
689.615	0.0144255
689.693	0.0143972
689.771	0.0143703
689.849	0.0146992
689.927	0.0147478
690.005	0.0149142
690.083	0.0151595
690.162	0.0151984
690.240	0.0154079
690.318	0.0152636
690.396	0.0152782
690.474	0.0151171
690.552	0.0147678
690.630	0.0146138
690.708	0.0143708
690.787	0.0139930
690.865	0.0137464
690.943	0.0133743
691.021	0.0134418
691.099	0.0132101
691.177	0.0132956
691.255	0.0132956
691.333	0.0134417
691.412	0.0136874
691.490	0.0139568
691.568	0.0139639
691.646	0.0142357
691.724	0.0142109
691.802	0.0145612
691.880	0.0145503
691.958	0.0144937
692.037	0.0145016
692.115	0.0143948
692.193	0.0143088
692.271	0.0141977
692.349	0.0141251
692.427	0.0140820
692.505	0.0143272
692.583	0.0144868
692.662	0.0146672
692.740	0.0148157
692.818	0.0148153
692.896	0.0152214
692.974	0.0153352
693.052	0.0154344
693.130	0.0153908
693.208	0.0155190
693.287	0.0154721
693.365	0.0153817
693.443	0.0151414
693.521	0.0150433
693.599	0.0146944
693.677	0.0146281
693.755	0.0141903
693.833	0.0139426
693.912	0.0135730
693.990	0.0137086
694.068	0.0135392
694.146	0.0134552
694.224	0.0135928
694.302	0.0135445
694.380	0.0137750
694.458	0.0138716
694.537	0.0138923
694.615	0.0141708
694.693	0.0140985
694.771	0.0143976
694.849	0.0144066
694.927	0.0145056
695.005	0.0145636
695.083	0.0146767
695.162	0.0144154
695.240	0.0143967
695.318	0.0145805
695.396	0.0142667
695.474	0.0141871
695.552	0.0140491
695.630	0.0141358
695.708	0.0140952
695.787	0.0141573
695.865	0.0142348
695.943	0.0144224
696.021	0.0143935
696.099	0.0146290
696.177	0.0148148
696.255	0.0147676
696.333	0.0148434
696.412	0.0146989
696.490	0.0147727
696.568	0.0148810
696.646	0.0149242
696.724	0.0149303
696.802	0.0149101
696.880	0.0147369
696.958	0.0148023
697.037	0.0148428
697.115	0.0147390
697.193	0.0147820
697.271	0.0146414
697.349	0.0145124
697.427	0.0146983
697.505	0.0147276
697.583	0.0145024
697.662	0.0143757
697.740	0.0143792
697.818	0.0144433
697.896	0.0142310
697.974	0.0142616
698.052	0.0143718
698.130	0.0142815
698.208	0.0141710
698.287	0.0140137
698.365	0.0138210
698.443	0.0136646
698.521	0.0136852
698.599	0.0136429
698.677	0.0136574
698.755	0.0135611
698.833	0.0137683
698.912	0.0136726
698.990	0.0137819
699.068	0.0142083
699.146	0.0143991
699.224	0.0144277
699.302	0.0147371
699.380	0.0150625
699.458	0.0152195
699.537	0.0153370
699.615	0.0153148
699.693	0.0154868
699.771	0.0154933
699.849	0.0153017
699.927	0.0151860
700.005	0.0152000
700.083	0.0150003
700.162	0.0148017
700.240	0.0145970
700.318	0.0143842
700.396	0.0144256
700.474	0.0144682
700.552	0.0143422
700.630	0.0141673
700.708	0.0142332
700.787	0.0145906
700.865	0.0143266
700.943	0.0143356
701.021	0.0145722
701.099	0.0145712
701.177	0.0146484
701.255	0.0145720
701.333	0.0145840
701.412	0.0144319
701.490	0.0143484
701.568	0.0140346
701.646	0.0139618
701.724	0.0139115
701.802	0.0137261
701.880	0.0137174
701.958	0.0135362
702.037	0.0136053
702.115	0.0137584
702.193	0.0138799
702.271	0.0139914
702.349	0.0140448
702.427	0.0141940
702.505	0.0143452
702.583	0.0144525
702.662	0.0144258
702.740	0.0146897
702.818	0.0147598
702.896	0.0150330
702.974	0.0149987
703.052	0.0149307
703.130	0.0150716
703.208	0.0150848
703.287	0.0149075
703.365	0.0149996
703.443	0.0149236
703.521	0.0146519
703.599	0.0147672
703.677	0.0148219
703.755	0.0146788
703.833	0.0146748
703.912	0.0145746
703.990	0.0146845
704.068	0.0147578
704.146	0.0147520
704.224	0.0146787
704.302	0.0148035
704.380	0.0147618
704.458	0.0146883
704.537	0.0144257
704.615	0.0144441
704.693	0.0142206
704.771	0.0141840
704.849	0.0140051
704.927	0.0140012
705.005	0.0139555
705.083	0.0137772
705.162	0.0137708
705.240	0.0138089
705.318	0.0138738
705.396	0.0138463
705.474	0.0140063
705.552	0.0141482
705.630	0.0142352
705.708	0.0143130
705.787	0.0144594
705.865	0.0145015
705.943	0.0146220
706.021	0.0145831
706.099	0.0145264
706.177	0.0146048
706.255	0.0147018
706.333	0.0145130
706.412	0.0145737
706.490	0.0146501
706.568	0.0145959
706.646	0.0145415
706.724	0.0147681
706.802	0.0147839
706.880	0.0146618
706.958	0.0147138
707.037	0.0149135
707.115	0.0148846
707.193	0.0148253
707.271	0.0148509
707.349	0.0146561
707.427	0.0145567
707.505	0.0146316
707.583	0.0145593
707.662	0.0147260
707.740	0.0143532
707.818	0.0144377
707.896	0.0142818
707.974	0.0142548
708.052	0.0141399
708.130	0.0141164
708.208	0.0140867
708.287	0.0139953
708.365	0.0140130
708.443	0.0141965
708.521	0.0141634
708.599	0.0140969
708.677	0.0142261
708.755	0.0142358
708.833	0.0143407
708.912	0.0142142
708.990	0.0144102
709.068	0.0142813
709.146	0.0143993
709.224	0.0144318
709.302	0.0144777
709.380	0.0146790
709.458	0.0145386
709.537	0.0145187
709.615	0.0144761
709.693	0.0145583
709.771	0.0145605
709.849	0.0145253
709.927	0.0145740
710.005	0.0143522
710.083	0.0145524
710.162	0.0143182
710.240	0.0143005
710.318	0.0143094
710.396	0.0142663
710.474	0.0141248
710.552	0.0140854
710.630	0.0142962
710.708	0.0142039
710.787	0.0141447
710.865	0.0141487
710.943	0.0144291
711.021	0.0145619
711.099	0.0144198
711.177	0.0146669
711.255	0.0147348
711.333	0.0147334
711.412	0.0148160
711.490	0.0148296
711.568	0.0148096
711.646	0.0148860
711.724	0.0148699
711.802	0.0146880
711.880	0.0147557
711.958	0.0146292
712.037	0.0147126
712.115	0.0144865
712.193	0.0143153
712.271	0.0142998
712.349	0.0141749
712.427	0.0141412
712.505	0.0141969
712.583	0.0140417
712.662	0.0140604
712.740	0.0140030
712.818	0.0139485
712.896	0.0139780
712.974	0.0139887
713.052	0.0139949
713.130	0.0141752
713.208	0.0140560
713.287	0.0142578
713.365	0.0143266
713.443	0.0143257
713.521	0.0144003
713.599	0.0144485
713.677	0.0146682
713.755	0.0145885
713.833	0.0146910
713.912	0.0145353
713.990	0.0147684
714.068	0.0147611
714.146	0.0147663
714.224	0.0148644
714.302	0.0149472
714.380	0.0149733
714.458	0.0148779
714.537	0.0147439
714.615	0.0147114
714.693	0.0146845
714.771	0.0147364
714.849	0.0145162
714.927	0.0144254
715.005	0.0143153
715.083	0.0143447
715.162	0.0141399
715.240	0.0141443
715.318	0.0139284
715.396	0.0139192
715.474	0.0138625
715.552	0.0139030
715.630	0.0138704
715.708	0.0138583
715.787	0.0139590
715.865	0.0139887
715.943	0.0139841
716.021	0.0140658
716.099	0.0140581
716.177	0.0142571
716.255	0.0143090
716.333	0.0144450
716.412	0.0146498
716.490	0.0144533
716.568	0.0146322
716.646	0.0146068
716.724	0.0146440
716.802	0.0145798
716.880	0.0147083
716.958	0.0146745
717.037	0.0145002
717.115	0.0145449
717.193	0.0146710
717.271	0.0147474
717.349	0.0145750
717.427	0.0143867
717.505	0.0144971
717.583	0.0144580
717.662	0.0143449
717.740	0.0143054
717.818	0.0143005
717.896	0.0143226
717.974	0.0144094
718.052	0.0144449
718.130	0.0143785
718.208	0.0144167
718.287	0.0142932
718.365	0.0145609
718.443	0.0144715
718.521	0.0145116
718.599	0.0145385
718.677	0.0145161
718.755	0.0145514
718.833	0.0145178
718.912	0.0144270
718.990	0.0144979
719.068	0.0145090
719.146	0.0143792
719.224	0.0145282
719.302	0.0144035
719.380	0.0143952
719.458	0.0143330
719.537	0.0144053
719.615	0.0143460
719.693	0.0144836
719.771	0.0146179
719.849	0.0143442
719.927	0.0143724
720.005	0.0145159
720.083	0.0145699
720.162	0.0144680
720.240	0.0143841
720.318	0.0142709
720.396	0.0143073
720.474	0.0144022
720.552	0.0144448
720.630	0.0142366
720.708	0.0143024
720.787	0.0142663
720.865	0.0144250
720.943	0.0145471
721.021	0.0144599
721.099	0.0146194
721.177	0.0145815
721.255	0.0146739
721.333	0.0147983
721.412	0.0148437
721.490	0.0147342
721.568	0.0147699
721.646	0.0147783
721.724	0.0147688
721.802	0.0148128
721.880	0.0146558
721.958	0.0145714
722.037	0.0144511
722.115	0.0143620
722.193	0.0143210
722.271	0.0141084
722.349	0.0141448
722.427	0.0142020
722.505	0.0141051
722.583	0.0141229
722.662	0.0140881
722.740	0.0141908
722.818	0.0140961
722.896	0.0142651
722.974	0.0144832
723.052	0.0144803
723.130	0.0144299
723.208	0.0145829
723.287	0.0145793
723.365	0.0146691
723.443	0.0144730
723.521	0.0145420
723.599	0.0144341
723.677	0.0144926
723.755	0.0144711
723.833	0.0145137
723.912	0.0144912
723.990	0.0145112
724.068	0.0146174
724.146	0.0145844
724.224	0.0144329
724.302	0.0145567
724.380	0.0145562
724.458	0.0146550
724.537	0.0146540
724.615	0.0144759
724.693	0.0144266
724.771	0.0145297
724.849	0.0143855
724.927	0.0142862
725.005	0.0143377
725.083	0.0143571
725.162	0.0142049
725.240	0.0141833
725.318	0.0142336
725.396	0.0144459
725.474	0.0143497
725.552	0.0143561
725.630	0.0144920
725.708	0.0145742
725.787	0.0145658
725.865	0.0146047
725.943	0.0146961
726.021	0.0147485
726.099	0.0145889
726.177	0.0144958
726.255	0.0145959
726.333	0.0144576
726.412	0.0144308
726.490	0.0144181
726.568	0.0143140
726.646	0.0141797
726.724	0.0141931
726.802	0.0141519
726.880	0.0140872
726.958	0.0141222
727.037	0.0140637
727.115	0.0140881
727.193	0.0141952
727.271	0.0142640
727.349	0.0143832
727.427	0.0142995
727.505	0.0143909
727.583	0.0144925
727.662	0.0145101
727.740	0.0145368
727.818	0.0145674
727.896	0.0145161
727.974	0.0145515
728.052	0.0146546
728.130	0.0146907
728.208	0.0147511
728.287	0.0146208
728.365	0.0148116
728.443	0.0147438
728.521	0.0148398
728.599	0.0147037
728.677	0.0148208
728.755	0.0146773
728.833	0.0146393
728.912	0.0143758
728.990	0.0144588
729.068	0.0144033
729.146	0.0144740
729.224	0.0144171
729.302	0.0143137
729.380	0.0142554
729.458	0.0142229
729.537	0.0139998
729.615	0.0140917
729.693	0.0139825
729.771	0.0141827
729.849	0.0142110
729.927	0.0141718
730.005	0.0141876
730.083	0.0142787
730.162	0.0144748
730.240	0.0143671
730.318	0.0144810
730.396	0.0145686
730.474	0.0146103
730.552	0.0146935
730.630	0.0147157
730.708	0.0147853
730.787	0.0146040
730.865	0.0146719
730.943	0.0145879
731.021	0.0144109
731.099	0.0144848
731.177	0.0145911
731.255	0.0145277
731.333	0.0144010
731.412	0.0142990
731.490	0.0144011
731.568	0.0142608
731.646	0.0142186
731.724	0.0143163
731.802	0.0143704
731.880	0.0143584
731.958	0.0142587
732.037	0.0144852
732.115	0.0144704
732.193	0.0144535
732.271	0.0143079
732.349	0.0143774
732.427	0.0144553
732.505	0.0144405
732.583	0.0143799
732.662	0.0144886
732.740	0.0144682
732.818	0.0145826
732.896	0.0145351
732.974	0.0144246
733.052	0.0144081
733.130	0.0144485
733.208	0.0144929
733.287	0.0144771
733.365	0.0144395
733.443	0.0144904
733.521	0.0144775
733.599	0.0145202
733.677	0.0144814
733.755	0.0143731
733.833	0.0143817
733.912	0.0142162
733.990	0.0143347
734.068	0.0144237
734.146	0.0145232
734.224	0.0143742
734.302	0.0142685
734.380	0.0143747
734.458	0.0142838
734.537	0.0143472
734.615	0.0143960
734.693	0.0144646
734.771	0.0144820
734.849	0.0144859
734.927	0.0145695
735.005	0.0144856
735.083	0.0145571
735.162	0.0146461
735.240	0.0145921
735.318	0.0147541
735.396	0.0146174
735.474	0.0146173
735.552	0.0146062
735.630	0.0145369
735.708	0.0144871
735.787	0.0144240
735.865	0.0143140
735.943	0.0143990
736.021	0.0143637
736.099	0.0140977
736.177	0.0143073
736.255	0.0141545
736.333	0.0143556
736.412	0.0144356
736.490	0.0143461
736.568	0.0143105
736.646	0.0144272
736.724	0.0143263
736.802	0.0144041
736.880	0.0144316
736.958	0.0144076
737.037	0.0145058
737.115	0.0145309
737.193	0.0144794
737.271	0.0146111
737.349	0.0145158
737.427	0.0145139
737.505	0.0145575
737.583	0.0145090
737.662	0.0145097
737.740	0.0145391
737.818	0.0144516
737.896	0.0146411
737.974	0.0145474
738.052	0.0143866
738.130	0.0144051
738.208	0.0144688
738.287	0.0143710
738.365	0.0144225
738.443	0.0144516
738.521	0.0144389
738.599	0.0145379
738.677	0.0145116
738.755	0.0144759
738.833	0.0143871
738.912	0.0145494
738.990	0.0145432
739.068	0.0146188
739.146	0.0144457
739.224	0.0143436
739.302	0.0145049
739.380	0.0144368
739.458	0.0144116
739.537	0.0145393
739.615	0.0145848
739.693	0.0143858
739.771	0.0143613
739.849	0.0144344
739.927	0.0143796
740.005	0.0143079
740.083	0.0144489
740.162	0.0143851
740.240	0.0143420
740.318	0.0141948
740.396	0.0143941
740.474	0.0143026
740.552	0.0143353
740.630	0.0142078
740.708	0.0143089
740.787	0.0143167
740.865	0.0143079
740.943	0.0143472
741.021	0.0142930
741.099	0.0144227
741.177	0.0144170
741.255	0.0144161
741.333	0.0144725
741.412	0.0145448
741.490	0.0146095
741.568	0.0145685
741.646	0.0145655
741.724	0.0144609
741.802	0.0144046
741.880	0.0145692
741.958	0.0144865
742.037	0.0145007
742.115	0.0145766
742.193	0.0144505
742.271	0.0145683
742.349	0.0144623
742.427	0.0146231
742.505	0.0144675
742.583	0.0144331
742.662	0.0145462
742.740	0.0145792
742.818	0.0144070
742.896	0.0143867
742.974	0.0145312
743.052	0.0145112
743.130	0.0145136
743.208	0.0144823
743.287	0.0145449
743.365	0.0144577
743.443	0.0145031
743.521	0.0144665
743.599	0.0144679
743.677	0.0144398
743.755	0.0145499
743.833	0.0142477
743.912	0.0143067
743.990	0.0143612
744.068	0.0144652
744.146	0.0144065
744.224	0.0143397
744.302	0.0143818
744.380	0.0143854
744.458	0.0143839
744.537	0.0144071
744.615	0.0143668
744.693	0.0143089
744.771	0.0143867
744.849	0.0143824
744.927	0.0145024
745.005	0.0143691
745.083	0.0144830
745.162	0.0145187
745.240	0.0144942
745.318	0.0144800
745.396	0.0145071
745.474	0.0145469
745.552	0.0145210
745.630	0.0145670
745.708	0.0145409
745.787	0.0144048
745.865	0.0144028
745.943	0.0145130
746.021	0.0146059
746.099	0.0144072
746.177	0.0144926
746.255	0.0143115
746.333	0.0144012
746.412	0.0143813
746.490	0.0142717
746.568	0.0142997
746.646	0.0143755
746.724	0.0144458
746.802	0.0143893
746.880	0.0143295
746.958	0.0142969
747.037	0.0144142
747.115	0.0144685
747.193	0.0144256
747.271	0.0144044
747.349	0.0144142
747.427	0.0143862
747.505	0.0144324
747.583	0.0144720
747.662	0.0143866
747.740	0.0145781
747.818	0.0143385
747.896	0.0143620
747.974	0.0144955
748.052	0.0145859
748.130	0.0144547
748.208	0.0145455
748.287	0.0145015
748.365	0.0143771
748.443	0.0143156
748.521	0.0144881
748.599	0.0146099
748.677	0.0144228
748.755	0.0144070
748.833	0.0145549
748.912	0.0145085
748.990	0.0144701
749.068	0.0144305
749.146	0.0144450
749.224	0.0145277
749.302	0.0145741
749.380	0.0145527
749.458	0.0145645
749.537	0.0145078
749.615	0.0145165
749.693	0.0144704
749.771	0.0146115
749.849	0.0144727
749.927	0.0144637
750.005	0.0145905
750.083	0.0143606
750.162	0.0143926
750.240	0.0144347
750.318	0.0144631
750.396	0.0144267
750.474	0.0144694
750.552	0.0144555
750.630	0.0144098
750.708	0.0144090
750.787	0.0144447
750.865	0.0142026
750.943	0.0142850
751.021	0.0144283
751.099	0.0143836
751.177	0.0144273
751.255	0.0143681
751.333	0.0143495
751.412	0.0145057
751.490	0.0143466
751.568	0.0143871
751.646	0.0144090
751.724	0.0143864
751.802	0.0144090
751.880	0.0144195
751.958	0.0144386
752.037	0.0145507
752.115	0.0144253
752.193	0.0144907
752.271	0.0144514
752.349	0.0143944
752.427	0.0142974
752.505	0.0144444
752.583	0.0143906
752.662	0.0143939
752.740	0.0144595
752.818	0.0144003
752.896	0.0143929
752.974	0.0143663
753.052	0.0145366
753.130	0.0143493
753.208	0.0143674
753.287	0.0145382
753.365	0.0143436
753.443	0.0144872
753.521	0.0144997
753.599	0.0145261
753.677	0.0144953
753.755	0.0145151
753.833	0.0145087
753.912	0.0142862
753.990	0.0144676
754.068	0.0146171
754.146	0.0144398
754.224	0.0144896
754.302	0.0144664
754.380	0.0143100
754.458	0.0142564
754.537	0.0144872
754.615	0.0145575
754.693	0.0144537
754.771	0.0143253
754.849	0.0143884
754.927	0.0143716
755.005	0.0144272
755.083	0.0144787
755.162	0.0145429
755.240	0.0144672
755.318	0.0145220
755.396	0.0145045
755.474	0.0145585
755.552	0.0144914
755.630	0.0143839
755.708	0.0144923
755.787	0.0145015
755.865	0.0146159
755.943	0.0145520
756.021	0.0144353
756.099	0.0144810
756.177	0.0144369
756.255	0.0145398
756.333	0.0146037
756.412	0.0145896
756.490	0.0144429
756.568	0.0143217
756.646	0.0144925
756.724	0.0145470
756.802	0.0144273
756.880	0.0145081
756.958	0.0144298
757.037	0.0143478
757.115	0.0143478
757.193	0.0144299
757.271	0.0145338
757.349	0.0144407
757.427	0.0144220
757.505	0.0146774
757.583	0.0144346
757.662	0.0144423
757.740	0.0144746
757.818	0.0144850
757.896	0.0144589
757.974	0.0143811
758.052	0.0146027
758.130	0.0145915
758.208	0.0145065
758.287	0.0144324
758.365	0.0144325
758.443	0.0144756
758.521	0.0145141
758.599	0.0145646
758.677	0.0146375
758.755	0.0144257
758.833	0.0143238
758.912	0.0143266
758.990	0.0145985
759.068	0.0143305
759.146	0.0144532
759.224	0.0145638
759.302	0.0145038
759.380	0.0144676
759.458	0.0144763
759.537	0.0144537
759.615	0.0144158
759.693	0.0145278
759.771	0.0143833
759.849	0.0143592
759.927	0.0144717
760.005	0.0144297
760.083	0.0144260
760.162	0.0143928
760.240	0.0144868
760.318	0.0144588
760.396	0.0145973
760.474	0.0144646
760.552	0.0144823
760.630	0.0143030
760.708	0.0144283
760.787	0.0145818
760.865	0.0144783
760.943	0.0143577
761.021	0.0143873
761.099	0.0142909
761.177	0.0142812
761.255	0.0144180
761.333	0.0144921
761.412	0.0144894
761.490	0.0143466
761.568	0.0144989
761.646	0.0145077
761.724	0.0142472
761.802	0.0144503
761.880	0.0145466
761.958	0.0144650
762.037	0.0143517
762.115	0.0142288
762.193	0.0143546
762.271	0.0144592
762.349	0.0145404
762.427	0.0144989
762.505	0.0143401
762.583	0.0145473
762.662	0.0142810
762.740	0.0144419
762.818	0.0145031
762.896	0.0144952
762.974	0.0145850
763.052	0.0145238
763.130	0.0144053
763.208	0.0145287
763.287	0.0144537
763.365	0.0145029
763.443	0.0144406
763.521	0.0145255
763.599	0.0143962
763.677	0.0144154
763.755	0.0145438
763.833	0.0144406
763.912	0.0144699
763.990	0.0145087
764.068	0.0143878
764.146	0.0144231
764.224	0.0144598
764.302	0.0143819
764.380	0.0143765
764.458	0.0143916
764.537	0.0144853
764.615	0.0145035
764.693	0.0145385
