05/04/2022	21:37:39	Ver.	4.1	UNKNOWN
Optical Delay	678.996401	Delta X		0.078125	Sweeps	1	Scan Rate	0/0
Coordinates	Axis 1	NaN	Axis 2	NaN	Axis 3	NaN	Axis 4	NaN	Axis 5	NaN	Axis 6	0.000000
TX Power	0.000000	RX Power	0.000000

678.996	0.0146878
679.075	0.0144592
679.153	0.0146279
679.231	0.0144019
679.309	0.0147527
679.387	0.0146666
679.465	0.0145701
679.543	0.0147342
679.621	0.0148151
679.700	0.0148418
679.778	0.0147314
679.856	0.0147662
679.934	0.0148474
680.012	0.0148193
680.090	0.0147968
680.168	0.0146628
680.246	0.0145062
680.325	0.0143890
680.403	0.0144442
680.481	0.0143501
680.559	0.0143117
680.637	0.0144555
680.715	0.0144309
680.793	0.0145892
680.871	0.0147323
680.950	0.0147289
681.028	0.0149541
681.106	0.0150816
681.184	0.0152894
681.262	0.0151965
681.340	0.0149904
681.418	0.0150211
681.496	0.0147758
681.575	0.0146427
681.653	0.0144910
681.731	0.0144511
681.809	0.0143838
681.887	0.0141367
681.965	0.0141704
682.043	0.0142475
682.121	0.0143469
682.200	0.0143164
682.278	0.0144389
682.356	0.0145478
682.434	0.0147500
682.512	0.0148259
682.590	0.0148275
682.668	0.0147594
682.746	0.0146571
682.825	0.0145804
682.903	0.0144539
682.981	0.0143551
683.059	0.0144225
683.137	0.0143141
683.215	0.0141573
683.293	0.0143366
683.371	0.0144337
683.450	0.0143611
683.528	0.0145412
683.606	0.0147745
683.684	0.0148402
683.762	0.0148807
683.840	0.0150860
683.918	0.0151958
683.996	0.0153624
684.075	0.0154405
684.153	0.0154782
684.231	0.0152935
684.309	0.0151418
684.387	0.0148894
684.465	0.0146920
684.543	0.0147781
684.621	0.0144059
684.700	0.0143336
684.778	0.0141454
684.856	0.0140595
684.934	0.0140548
685.012	0.0140781
685.090	0.0142124
685.168	0.0141409
685.246	0.0143027
685.325	0.0143108
685.403	0.0143207
685.481	0.0143700
685.559	0.0144395
685.637	0.0142535
685.715	0.0142632
685.793	0.0142659
685.871	0.0142957
685.950	0.0144141
686.028	0.0144182
686.106	0.0147193
686.184	0.0146090
686.262	0.0146427
686.340	0.0147583
686.418	0.0149331
686.496	0.0150720
686.575	0.0151887
686.653	0.0153416
686.731	0.0152129
686.809	0.0153278
686.887	0.0154887
686.965	0.0154456
687.043	0.0154481
687.121	0.0154150
687.200	0.0152919
687.278	0.0152689
687.356	0.0151225
687.434	0.0147551
687.512	0.0145647
687.590	0.0143774
687.668	0.0142490
687.746	0.0139388
687.825	0.0138098
687.903	0.0137651
687.981	0.0137288
688.059	0.0137992
688.137	0.0138564
688.215	0.0139786
688.293	0.0140352
688.371	0.0141805
688.450	0.0143282
688.528	0.0145084
688.606	0.0147533
688.684	0.0147684
688.762	0.0147821
688.840	0.0148824
688.918	0.0150067
688.996	0.0148011
689.075	0.0147277
689.153	0.0148137
689.231	0.0146410
689.309	0.0145448
689.387	0.0144934
689.465	0.0146327
689.543	0.0147412
689.621	0.0146475
689.700	0.0149182
689.778	0.0149358
689.856	0.0152173
689.934	0.0152610
690.012	0.0156084
690.090	0.0155062
690.168	0.0156528
690.246	0.0153979
690.325	0.0152081
690.403	0.0151247
690.481	0.0147166
690.559	0.0145140
690.637	0.0141541
690.715	0.0139283
690.793	0.0138095
690.871	0.0136603
690.950	0.0134924
691.028	0.0136546
691.106	0.0137466
691.184	0.0138683
691.262	0.0140089
691.340	0.0140584
691.418	0.0144195
691.496	0.0145745
691.575	0.0145889
691.653	0.0147554
691.731	0.0149019
691.809	0.0150127
691.887	0.0148466
691.965	0.0148415
692.043	0.0146246
692.121	0.0147032
692.200	0.0146011
692.278	0.0145996
692.356	0.0146300
692.434	0.0147255
692.512	0.0147831
692.590	0.0150919
692.668	0.0153047
692.746	0.0153426
692.825	0.0156075
692.903	0.0156859
692.981	0.0157037
693.059	0.0157849
693.137	0.0156539
693.215	0.0155363
693.293	0.0153839
693.371	0.0152780
693.450	0.0149302
693.528	0.0147055
693.606	0.0143841
693.684	0.0141845
693.762	0.0140020
693.840	0.0137968
693.918	0.0137561
693.996	0.0136706
694.075	0.0137388
694.153	0.0138518
694.231	0.0137904
694.309	0.0140199
694.387	0.0142455
694.465	0.0144363
694.543	0.0145775
694.621	0.0147478
694.700	0.0147619
694.778	0.0149017
694.856	0.0151305
694.934	0.0149154
695.012	0.0149438
695.090	0.0149229
695.168	0.0147359
695.246	0.0147166
695.325	0.0144975
695.403	0.0145023
695.481	0.0144857
695.559	0.0144917
695.637	0.0144477
695.715	0.0143980
695.793	0.0145515
695.871	0.0145905
695.950	0.0147843
696.028	0.0148045
696.106	0.0148888
696.184	0.0150945
696.262	0.0151869
696.340	0.0151788
696.418	0.0149905
696.496	0.0150853
696.575	0.0152537
696.653	0.0152688
696.731	0.0149802
696.809	0.0150318
696.887	0.0151592
696.965	0.0149910
697.043	0.0150147
697.121	0.0150538
697.200	0.0147849
697.278	0.0148589
697.356	0.0147591
697.434	0.0146732
697.512	0.0145544
697.590	0.0146477
697.668	0.0147154
697.746	0.0146412
697.825	0.0144993
697.903	0.0144814
697.981	0.0146181
698.059	0.0145604
698.137	0.0143573
698.215	0.0142827
698.293	0.0141028
698.371	0.0140354
698.450	0.0140002
698.528	0.0139316
698.606	0.0140299
698.684	0.0140247
698.762	0.0139712
698.840	0.0141903
698.918	0.0142268
698.996	0.0146088
699.075	0.0148883
699.153	0.0150134
699.231	0.0151819
699.309	0.0154605
699.387	0.0154811
699.465	0.0156126
699.543	0.0157471
699.621	0.0156078
699.700	0.0157705
699.778	0.0154713
699.856	0.0153413
699.934	0.0153429
700.012	0.0152193
700.090	0.0150685
700.168	0.0148254
700.246	0.0146929
700.325	0.0144238
700.403	0.0143855
700.481	0.0145868
700.559	0.0144284
700.637	0.0146236
700.715	0.0144899
700.793	0.0144988
700.871	0.0146018
700.950	0.0148339
701.028	0.0147144
701.106	0.0147064
701.184	0.0147874
701.262	0.0146378
701.340	0.0144923
701.418	0.0144083
701.496	0.0141972
701.575	0.0141721
701.653	0.0141177
701.731	0.0140523
701.809	0.0139917
701.887	0.0139668
701.965	0.0139371
702.043	0.0141514
702.121	0.0141091
702.200	0.0142225
702.278	0.0144548
702.356	0.0144793
702.434	0.0146631
702.512	0.0149195
702.590	0.0149831
702.668	0.0151506
702.746	0.0151531
702.825	0.0153721
702.903	0.0153033
702.981	0.0152362
703.059	0.0152549
703.137	0.0153841
703.215	0.0152627
703.293	0.0151043
703.371	0.0150791
703.450	0.0149245
703.528	0.0150247
703.606	0.0148348
703.684	0.0148058
703.762	0.0148497
703.840	0.0148680
703.918	0.0147805
703.996	0.0147831
704.075	0.0147567
704.153	0.0150105
704.231	0.0149612
704.309	0.0148075
704.387	0.0147599
704.465	0.0146416
704.543	0.0146484
704.621	0.0144892
704.700	0.0142606
704.778	0.0140751
704.856	0.0141502
704.934	0.0141666
705.012	0.0139970
705.090	0.0140815
705.168	0.0141285
705.246	0.0142393
705.325	0.0143427
705.403	0.0144934
705.481	0.0144633
705.559	0.0145629
705.637	0.0146479
705.715	0.0146799
705.793	0.0147421
705.871	0.0147273
705.950	0.0146927
706.028	0.0147085
706.106	0.0148428
706.184	0.0148023
706.262	0.0147409
706.340	0.0148662
706.418	0.0147676
706.496	0.0148975
706.575	0.0149026
706.653	0.0150892
706.731	0.0149831
706.809	0.0149897
706.887	0.0151965
706.965	0.0150912
707.043	0.0149833
707.121	0.0149712
707.200	0.0150720
707.278	0.0149678
707.356	0.0147736
707.434	0.0147273
707.512	0.0148282
707.590	0.0146492
707.668	0.0145082
707.746	0.0145570
707.825	0.0144425
707.903	0.0144926
707.981	0.0142439
708.059	0.0143735
708.137	0.0143393
708.215	0.0141454
708.293	0.0142400
708.371	0.0143293
708.450	0.0143629
708.528	0.0143562
708.606	0.0144804
708.684	0.0145710
708.762	0.0144726
708.840	0.0144975
708.918	0.0145744
708.996	0.0146212
709.075	0.0146542
709.153	0.0147695
709.231	0.0148560
709.309	0.0148884
709.387	0.0148756
709.465	0.0149511
709.543	0.0150330
709.621	0.0151356
709.700	0.0149419
709.778	0.0149235
709.856	0.0149889
709.934	0.0148817
710.012	0.0146468
710.090	0.0145990
710.168	0.0146542
710.246	0.0144474
710.325	0.0143675
710.403	0.0144933
710.481	0.0144354
710.559	0.0142951
710.637	0.0144066
710.715	0.0144993
710.793	0.0145267
710.871	0.0145268
710.950	0.0148504
711.028	0.0146345
711.106	0.0149102
711.184	0.0149780
711.262	0.0151244
711.340	0.0151568
711.418	0.0150040
711.496	0.0151709
711.575	0.0152065
711.653	0.0150383
711.731	0.0151257
711.809	0.0150490
711.887	0.0149706
711.965	0.0147944
712.043	0.0146283
712.121	0.0146539
712.200	0.0145070
712.278	0.0144043
712.356	0.0142554
712.434	0.0142175
712.512	0.0142493
712.590	0.0142755
712.668	0.0143064
712.746	0.0142016
712.825	0.0143336
712.903	0.0143282
712.981	0.0143255
713.059	0.0143665
713.137	0.0144251
713.215	0.0145959
713.293	0.0145869
713.371	0.0146324
713.450	0.0147382
713.528	0.0146960
713.606	0.0147594
713.684	0.0148302
713.762	0.0148809
713.840	0.0149286
713.918	0.0150481
713.996	0.0150244
714.075	0.0151038
714.153	0.0150159
714.231	0.0151135
714.309	0.0151876
714.387	0.0151155
714.465	0.0151921
714.543	0.0150179
714.621	0.0149477
714.700	0.0148483
714.778	0.0148936
714.856	0.0147969
714.934	0.0145959
715.012	0.0144362
715.090	0.0144340
715.168	0.0142924
715.246	0.0141668
715.325	0.0141501
715.403	0.0142087
715.481	0.0140348
715.559	0.0140595
715.637	0.0140580
715.715	0.0142302
715.793	0.0142226
715.871	0.0143550
715.950	0.0143905
716.028	0.0146552
716.106	0.0146873
716.184	0.0147742
716.262	0.0147829
716.340	0.0149324
716.418	0.0150820
716.496	0.0149097
716.575	0.0150798
716.653	0.0150234
716.731	0.0150124
716.809	0.0150864
716.887	0.0151118
716.965	0.0149454
717.043	0.0148632
717.121	0.0149503
717.200	0.0147869
717.278	0.0147947
717.356	0.0149818
717.434	0.0147342
717.512	0.0147390
717.590	0.0145642
717.668	0.0144644
717.746	0.0146001
717.825	0.0146609
717.903	0.0147752
717.981	0.0147659
718.059	0.0146569
718.137	0.0147787
718.215	0.0147599
718.293	0.0147486
718.371	0.0147685
718.450	0.0149329
718.528	0.0146336
718.606	0.0147849
718.684	0.0148968
718.762	0.0147315
718.840	0.0146910
718.918	0.0147030
718.996	0.0146124
719.075	0.0147820
719.153	0.0147673
719.231	0.0147797
719.309	0.0146380
719.387	0.0146768
719.465	0.0145804
719.543	0.0147424
719.621	0.0146127
719.700	0.0146782
719.778	0.0147863
719.856	0.0147561
719.934	0.0145695
720.012	0.0146601
720.090	0.0147009
720.168	0.0145358
720.246	0.0146159
720.325	0.0145837
720.403	0.0145009
720.481	0.0145899
720.559	0.0145837
720.637	0.0145304
720.715	0.0144964
720.793	0.0146404
720.871	0.0147392
720.950	0.0146992
721.028	0.0148528
721.106	0.0149364
721.184	0.0149220
721.262	0.0149639
721.340	0.0151254
721.418	0.0150859
721.496	0.0149844
721.575	0.0149706
721.653	0.0148427
721.731	0.0148688
721.809	0.0148054
721.887	0.0147698
721.965	0.0146040
722.043	0.0145505
722.121	0.0144717
722.200	0.0144043
722.278	0.0142963
722.356	0.0143624
722.434	0.0142455
722.512	0.0144428
722.590	0.0145071
722.668	0.0145160
722.746	0.0144602
722.825	0.0146120
722.903	0.0147134
722.981	0.0147984
723.059	0.0146658
723.137	0.0146871
723.215	0.0149104
723.293	0.0148589
723.371	0.0148260
723.450	0.0148210
723.528	0.0149288
723.606	0.0147327
723.684	0.0147620
723.762	0.0148330
723.840	0.0147805
723.918	0.0148231
723.996	0.0148409
724.075	0.0148292
724.153	0.0148331
724.231	0.0146764
724.309	0.0146805
724.387	0.0148835
724.465	0.0147357
724.543	0.0147501
724.621	0.0145910
724.700	0.0147467
724.778	0.0145252
724.856	0.0146046
724.934	0.0144983
725.012	0.0145869
725.090	0.0144957
725.168	0.0145840
725.246	0.0145479
725.325	0.0145515
725.403	0.0145563
725.481	0.0148903
725.559	0.0148088
725.637	0.0149334
725.715	0.0149261
725.793	0.0150089
725.871	0.0149936
725.950	0.0148798
726.028	0.0149009
726.106	0.0148798
726.184	0.0147443
726.262	0.0147347
726.340	0.0147463
726.418	0.0145895
726.496	0.0144144
726.575	0.0144185
726.653	0.0144780
726.731	0.0144537
726.809	0.0144982
726.887	0.0144568
726.965	0.0143733
727.043	0.0143282
727.121	0.0143747
727.200	0.0145085
727.278	0.0145297
727.356	0.0146807
727.434	0.0146941
727.512	0.0147871
727.590	0.0147261
727.668	0.0147788
727.746	0.0147530
727.825	0.0148595
727.903	0.0150502
727.981	0.0149212
728.059	0.0149695
728.137	0.0150040
728.215	0.0149776
728.293	0.0150169
728.371	0.0149569
728.450	0.0148172
728.528	0.0149347
728.606	0.0148997
728.684	0.0151448
728.762	0.0149362
728.840	0.0147153
728.918	0.0147012
728.996	0.0147148
729.075	0.0145190
729.153	0.0145580
729.231	0.0144720
729.309	0.0144712
729.387	0.0144807
729.465	0.0142631
729.543	0.0144011
729.621	0.0143557
729.700	0.0142283
729.778	0.0143490
729.856	0.0143429
729.934	0.0144106
730.012	0.0144418
730.090	0.0146420
730.168	0.0146616
730.246	0.0146990
730.325	0.0148610
730.403	0.0147327
730.481	0.0147909
730.559	0.0148314
730.637	0.0147411
730.715	0.0148580
730.793	0.0147718
730.871	0.0147707
730.950	0.0148623
731.028	0.0146810
731.106	0.0146259
731.184	0.0146471
731.262	0.0145416
731.340	0.0146308
731.418	0.0146377
731.496	0.0145602
731.575	0.0145245
731.653	0.0145444
731.731	0.0144944
731.809	0.0146323
731.887	0.0147272
731.965	0.0145937
732.043	0.0147514
732.121	0.0146636
732.200	0.0146233
732.278	0.0145361
732.356	0.0146989
732.434	0.0148014
732.512	0.0146006
732.590	0.0144903
732.668	0.0147362
732.746	0.0148136
732.825	0.0147813
732.903	0.0147120
732.981	0.0147428
733.059	0.0147727
733.137	0.0147539
733.215	0.0146550
733.293	0.0146211
733.371	0.0148331
733.450	0.0148336
733.528	0.0147602
733.606	0.0147654
733.684	0.0146420
733.762	0.0146247
733.840	0.0145507
733.918	0.0146053
733.996	0.0146034
734.075	0.0146623
734.153	0.0146906
734.231	0.0145303
734.309	0.0145728
734.387	0.0146075
734.465	0.0147772
734.543	0.0146011
734.621	0.0147416
734.700	0.0148251
734.778	0.0146455
734.856	0.0147289
734.934	0.0148814
735.012	0.0148280
735.090	0.0148380
735.168	0.0149600
735.246	0.0149280
735.325	0.0148666
735.403	0.0147569
735.481	0.0149412
735.559	0.0148956
735.637	0.0147482
735.715	0.0147559
735.793	0.0147025
735.871	0.0146255
735.950	0.0147005
736.028	0.0147459
736.106	0.0145374
736.184	0.0144817
736.262	0.0146198
736.340	0.0145129
736.418	0.0147298
736.496	0.0146658
736.575	0.0145728
736.653	0.0146092
736.731	0.0147243
736.809	0.0148566
736.887	0.0147990
736.965	0.0146902
737.043	0.0146889
737.121	0.0147269
737.200	0.0146576
737.278	0.0147891
737.356	0.0146757
737.434	0.0147847
737.512	0.0147581
737.590	0.0148849
737.668	0.0149422
737.746	0.0147237
737.825	0.0146147
737.903	0.0147240
737.981	0.0146963
738.059	0.0147906
738.137	0.0146676
738.215	0.0146152
738.293	0.0147654
738.371	0.0147245
738.450	0.0146760
738.528	0.0147371
738.606	0.0146926
738.684	0.0146662
738.762	0.0147498
738.840	0.0147720
738.918	0.0147036
738.996	0.0147103
739.075	0.0147778
739.153	0.0146665
739.231	0.0148391
739.309	0.0147280
739.387	0.0147675
739.465	0.0146842
739.543	0.0146867
739.621	0.0146222
739.700	0.0147047
739.778	0.0146716
739.856	0.0146089
739.934	0.0145603
740.012	0.0145644
740.090	0.0145788
740.168	0.0146340
740.246	0.0145945
740.325	0.0147661
740.403	0.0145572
740.481	0.0144917
740.559	0.0144348
740.637	0.0145367
740.715	0.0147016
740.793	0.0146802
740.871	0.0146268
740.950	0.0146011
741.028	0.0145554
741.106	0.0147194
741.184	0.0147208
741.262	0.0146781
741.340	0.0148090
741.418	0.0147952
741.496	0.0146961
741.575	0.0148249
741.653	0.0148823
741.731	0.0147660
741.809	0.0146782
741.887	0.0148026
741.965	0.0147816
742.043	0.0147117
742.121	0.0147966
742.200	0.0146410
742.278	0.0145123
742.356	0.0146288
742.434	0.0146796
742.512	0.0146538
742.590	0.0146435
742.668	0.0146958
742.746	0.0145974
742.825	0.0146973
742.903	0.0146082
742.981	0.0146591
743.059	0.0146918
743.137	0.0146462
743.215	0.0146932
743.293	0.0146275
743.371	0.0145853
743.450	0.0146234
743.528	0.0146812
743.606	0.0146328
743.684	0.0146780
743.762	0.0145673
743.840	0.0144559
743.918	0.0144839
743.996	0.0145292
744.075	0.0146411
744.153	0.0144833
744.231	0.0145052
744.309	0.0145594
744.387	0.0145523
744.465	0.0145377
744.543	0.0145746
744.621	0.0144623
744.700	0.0145723
744.778	0.0145985
744.856	0.0146545
744.934	0.0147269
745.012	0.0147226
745.090	0.0147800
745.168	0.0148201
745.246	0.0147533
745.325	0.0145695
745.403	0.0148385
745.481	0.0147665
745.559	0.0147856
745.637	0.0148316
745.715	0.0146793
745.793	0.0147548
745.871	0.0147919
745.950	0.0148015
746.028	0.0147449
746.106	0.0147162
746.184	0.0146308
746.262	0.0145393
746.340	0.0144518
746.418	0.0146094
746.496	0.0145525
746.575	0.0145475
746.653	0.0146955
746.731	0.0145231
746.809	0.0146104
746.887	0.0145647
746.965	0.0145720
747.043	0.0147032
747.121	0.0145936
747.200	0.0146715
747.278	0.0147559
747.356	0.0146816
747.434	0.0146349
747.512	0.0146943
747.590	0.0146873
747.668	0.0146701
747.746	0.0147737
747.825	0.0147453
747.903	0.0146489
747.981	0.0146819
748.059	0.0145969
748.137	0.0146667
748.215	0.0145985
748.293	0.0146352
748.371	0.0146746
748.450	0.0147802
748.528	0.0147919
748.606	0.0146970
748.684	0.0146455
748.762	0.0145927
748.840	0.0147333
748.918	0.0148421
748.996	0.0147585
749.075	0.0147160
749.153	0.0146666
749.231	0.0146558
749.309	0.0147581
749.387	0.0147345
749.465	0.0149168
749.543	0.0147463
749.621	0.0146517
749.700	0.0146882
749.778	0.0147370
749.856	0.0147639
749.934	0.0147587
750.012	0.0146399
750.090	0.0146676
750.168	0.0146831
750.246	0.0147971
750.325	0.0146078
750.403	0.0146524
750.481	0.0146758
750.559	0.0147594
750.637	0.0146853
750.715	0.0146380
750.793	0.0146049
750.871	0.0146172
750.950	0.0145348
751.028	0.0146502
751.106	0.0147881
751.184	0.0146111
751.262	0.0144254
751.340	0.0146814
751.418	0.0147182
751.496	0.0146454
751.575	0.0147478
751.653	0.0144806
751.731	0.0145952
751.809	0.0148360
751.887	0.0147926
751.965	0.0147211
752.043	0.0146652
752.121	0.0147845
752.200	0.0148777
752.278	0.0145975
752.356	0.0146276
752.434	0.0145746
752.512	0.0146517
752.590	0.0147635
752.668	0.0147334
752.746	0.0146281
752.825	0.0147298
752.903	0.0147495
752.981	0.0146799
753.059	0.0146906
753.137	0.0147835
753.215	0.0146595
753.293	0.0146949
753.371	0.0147460
753.450	0.0147495
753.528	0.0147623
753.606	0.0146310
753.684	0.0146498
753.762	0.0147160
753.840	0.0146870
753.918	0.0146402
753.996	0.0147480
754.075	0.0147276
754.153	0.0147401
754.231	0.0146553
754.309	0.0146864
754.387	0.0146527
754.465	0.0145338
754.543	0.0147066
754.621	0.0145868
754.700	0.0146413
754.778	0.0145879
754.856	0.0146999
754.934	0.0146407
755.012	0.0147564
755.090	0.0145162
755.168	0.0146486
755.246	0.0147484
755.325	0.0147277
755.403	0.0147557
755.481	0.0146770
755.559	0.0147005
755.637	0.0147137
755.715	0.0147268
755.793	0.0145462
755.871	0.0146600
755.950	0.0147228
756.028	0.0146533
756.106	0.0146253
756.184	0.0146719
756.262	0.0146245
756.340	0.0146582
756.418	0.0146466
756.496	0.0146194
756.575	0.0145856
756.653	0.0146786
756.731	0.0146914
756.809	0.0146592
756.887	0.0146394
756.965	0.0145859
757.043	0.0147076
757.121	0.0147017
757.200	0.0146682
757.278	0.0146469
757.356	0.0146375
757.434	0.0147465
757.512	0.0146809
757.590	0.0147906
757.668	0.0147663
757.746	0.0145671
757.825	0.0146544
757.903	0.0147419
757.981	0.0146875
758.059	0.0147102
758.137	0.0148363
758.215	0.0148419
758.293	0.0146839
758.371	0.0147393
758.450	0.0147566
758.528	0.0146944
758.606	0.0146408
758.684	0.0147133
758.762	0.0147322
758.840	0.0146339
758.918	0.0146695
758.996	0.0147520
759.075	0.0146574
759.153	0.0145679
759.231	0.0148209
759.309	0.0147752
759.387	0.0145728
759.465	0.0146120
759.543	0.0146895
759.621	0.0146529
759.700	0.0147259
759.778	0.0145758
759.856	0.0147086
759.934	0.0147961
760.012	0.0147866
760.090	0.0147353
760.168	0.0146354
760.246	0.0146641
760.325	0.0147229
760.403	0.0146590
760.481	0.0146564
760.559	0.0146831
760.637	0.0146512
760.715	0.0147028
760.793	0.0146205
760.871	0.0146278
760.950	0.0147195
761.028	0.0146505
761.106	0.0147614
761.184	0.0146695
761.262	0.0146104
761.340	0.0147021
761.418	0.0147382
761.496	0.0146921
761.575	0.0147104
761.653	0.0147614
761.731	0.0146837
761.809	0.0146113
761.887	0.0147623
761.965	0.0147017
762.043	0.0146393
762.121	0.0145399
762.200	0.0147104
762.278	0.0146690
762.356	0.0146099
762.434	0.0146230
762.512	0.0146081
762.590	0.0147727
762.668	0.0146679
762.746	0.0147594
762.825	0.0147316
762.903	0.0147537
762.981	0.0146874
763.059	0.0147009
763.137	0.0148245
763.215	0.0146897
763.293	0.0146803
763.371	0.0146569
763.450	0.0146152
763.528	0.0146425
763.606	0.0146591
763.684	0.0146466
763.762	0.0144714
763.840	0.0145599
763.918	0.0145631
763.996	0.0146307
764.075	0.0146325
764.153	0.0146204
764.231	0.0146188
764.309	0.0146523
764.387	0.0147729
764.465	0.0146480
764.543	0.0146837
764.621	0.0147018
764.700	0.0145302
