05/04/2022	21:38:59	Ver.	4.1	UNKNOWN
Optical Delay	678.996401	Delta X		0.078125	Sweeps	1	Scan Rate	0/0
Coordinates	Axis 1	NaN	Axis 2	NaN	Axis 3	NaN	Axis 4	NaN	Axis 5	NaN	Axis 6	0.000000
TX Power	0.000000	RX Power	0.000000

678.996	0.0139433
679.075	0.0137677
679.153	0.0139224
679.231	0.0138035
679.309	0.0137919
679.387	0.0139665
679.465	0.0140758
679.543	0.0139717
679.621	0.0141335
679.700	0.0141332
679.778	0.0143018
679.856	0.0141853
679.934	0.0139577
680.012	0.0138026
680.090	0.0137624
680.168	0.0138045
680.246	0.0136811
680.325	0.0135242
680.403	0.0135638
680.481	0.0136420
680.559	0.0136292
680.637	0.0137968
680.715	0.0140617
680.793	0.0141871
680.871	0.0143618
680.950	0.0143615
681.028	0.0144890
681.106	0.0144670
681.184	0.0143594
681.262	0.0143075
681.340	0.0140720
681.418	0.0140252
681.496	0.0138573
681.575	0.0136466
681.653	0.0135606
681.731	0.0134606
681.809	0.0135116
681.887	0.0134953
681.965	0.0135311
682.043	0.0136069
682.121	0.0138237
682.200	0.0139691
682.278	0.0140639
682.356	0.0141573
682.434	0.0141675
682.512	0.0141951
682.590	0.0141248
682.668	0.0139572
682.746	0.0139365
682.825	0.0138531
682.903	0.0138745
682.981	0.0137560
683.059	0.0136331
683.137	0.0135883
683.215	0.0136408
683.293	0.0137823
683.371	0.0138337
683.450	0.0140025
683.528	0.0141184
683.606	0.0142407
683.684	0.0144218
683.762	0.0145979
683.840	0.0145976
683.918	0.0145964
683.996	0.0146315
684.075	0.0146023
684.153	0.0145966
684.231	0.0143984
684.309	0.0141431
684.387	0.0139341
684.465	0.0137492
684.543	0.0136212
684.621	0.0132503
684.700	0.0133686
684.778	0.0133854
684.856	0.0132629
684.934	0.0133535
685.012	0.0134700
685.090	0.0135146
685.168	0.0134687
685.246	0.0134682
685.325	0.0136895
685.403	0.0136889
685.481	0.0137807
685.559	0.0135647
685.637	0.0135288
685.715	0.0136911
685.793	0.0138476
685.871	0.0137946
685.950	0.0139546
686.028	0.0138935
686.106	0.0140803
686.184	0.0141599
686.262	0.0142715
686.340	0.0143329
686.418	0.0143827
686.496	0.0144647
686.575	0.0146096
686.653	0.0146621
686.731	0.0147482
686.809	0.0148631
686.887	0.0148144
686.965	0.0148783
687.043	0.0147674
687.121	0.0146786
687.200	0.0145324
687.278	0.0144858
687.356	0.0141298
687.434	0.0139211
687.512	0.0135013
687.590	0.0132391
687.668	0.0130104
687.746	0.0129202
687.825	0.0128710
687.903	0.0128323
687.981	0.0129339
688.059	0.0131094
688.137	0.0131683
688.215	0.0134035
688.293	0.0136735
688.371	0.0138268
688.450	0.0139598
688.528	0.0141792
688.606	0.0143108
688.684	0.0144310
688.762	0.0146706
688.840	0.0144997
688.918	0.0144267
688.996	0.0143185
689.075	0.0142195
689.153	0.0137740
689.231	0.0138889
689.309	0.0137357
689.387	0.0136623
689.465	0.0137962
689.543	0.0138639
689.621	0.0140565
689.700	0.0142277
689.778	0.0142278
689.856	0.0144889
689.934	0.0146940
690.012	0.0146868
690.090	0.0146507
690.168	0.0146262
690.246	0.0145889
690.325	0.0144273
690.403	0.0141492
690.481	0.0137113
690.559	0.0134381
690.637	0.0133041
690.715	0.0131243
690.793	0.0129282
690.871	0.0129056
690.950	0.0128575
691.028	0.0129285
691.106	0.0130344
691.184	0.0133621
691.262	0.0133874
691.340	0.0135242
691.418	0.0136537
691.496	0.0139548
691.575	0.0141668
691.653	0.0142316
691.731	0.0143193
691.809	0.0143076
691.887	0.0143792
691.965	0.0143374
692.043	0.0141747
692.121	0.0140368
692.200	0.0141098
692.278	0.0141522
692.356	0.0140031
692.434	0.0141994
692.512	0.0142978
692.590	0.0143146
692.668	0.0145329
692.746	0.0146560
692.825	0.0148096
692.903	0.0148052
692.981	0.0149236
693.059	0.0149406
693.137	0.0147233
693.215	0.0145314
693.293	0.0143098
693.371	0.0141632
693.450	0.0140714
693.528	0.0138943
693.606	0.0136236
693.684	0.0134293
693.762	0.0131981
693.840	0.0130309
693.918	0.0130150
693.996	0.0130285
694.075	0.0128722
694.153	0.0129836
694.231	0.0130917
694.309	0.0132884
694.387	0.0136584
694.465	0.0136072
694.543	0.0138615
694.621	0.0140476
694.700	0.0142686
694.778	0.0143423
694.856	0.0144531
694.934	0.0144478
695.012	0.0145413
695.090	0.0143520
695.168	0.0141943
695.246	0.0140513
695.325	0.0140215
695.403	0.0137609
695.481	0.0136472
695.559	0.0137123
695.637	0.0134930
695.715	0.0136713
695.793	0.0137394
695.871	0.0139189
695.950	0.0139300
696.028	0.0140086
696.106	0.0141107
696.184	0.0141077
696.262	0.0142593
696.340	0.0143927
696.418	0.0144668
696.496	0.0144484
696.575	0.0144846
696.653	0.0145105
696.731	0.0145015
696.809	0.0144525
696.887	0.0142754
696.965	0.0141887
697.043	0.0141457
697.121	0.0139854
697.200	0.0139587
697.278	0.0138940
697.356	0.0139756
697.434	0.0137421
697.512	0.0138547
697.590	0.0137257
697.668	0.0137093
697.746	0.0137681
697.825	0.0138558
697.903	0.0136399
697.981	0.0135743
698.059	0.0136317
698.137	0.0137095
698.215	0.0135508
698.293	0.0134945
698.371	0.0133353
698.450	0.0133005
698.528	0.0133877
698.606	0.0133674
698.684	0.0135298
698.762	0.0136392
698.840	0.0135586
698.918	0.0136225
698.996	0.0138636
699.075	0.0139036
699.153	0.0141940
699.231	0.0144931
699.309	0.0146101
699.387	0.0148295
699.465	0.0148145
699.543	0.0147458
699.621	0.0148791
699.700	0.0148161
699.778	0.0146032
699.856	0.0146625
699.934	0.0145461
700.012	0.0145181
700.090	0.0141119
700.168	0.0140566
700.246	0.0140338
700.325	0.0140865
700.403	0.0138379
700.481	0.0135363
700.559	0.0136662
700.637	0.0137740
700.715	0.0136007
700.793	0.0136501
700.871	0.0137030
700.950	0.0138385
701.028	0.0137814
701.106	0.0137004
701.184	0.0137045
701.262	0.0136357
701.340	0.0136169
701.418	0.0136807
701.496	0.0136530
701.575	0.0134007
701.653	0.0134705
701.731	0.0134901
701.809	0.0133721
701.887	0.0135401
701.965	0.0132146
702.043	0.0135141
702.121	0.0135654
702.200	0.0136382
702.278	0.0138093
702.356	0.0138721
702.434	0.0139436
702.512	0.0141762
702.590	0.0143211
702.668	0.0143060
702.746	0.0145461
702.825	0.0146614
702.903	0.0146098
702.981	0.0146302
703.059	0.0147199
703.137	0.0146455
703.215	0.0144627
703.293	0.0143366
703.371	0.0142022
703.450	0.0142094
703.528	0.0142197
703.606	0.0140838
703.684	0.0140223
703.762	0.0139247
703.840	0.0139874
703.918	0.0138927
703.996	0.0140007
704.075	0.0139976
704.153	0.0141163
704.231	0.0139084
704.309	0.0139805
704.387	0.0138052
704.465	0.0138086
704.543	0.0137757
704.621	0.0137212
704.700	0.0137466
704.778	0.0137073
704.856	0.0136195
704.934	0.0135356
705.012	0.0135506
705.090	0.0135971
705.168	0.0136950
705.246	0.0137582
705.325	0.0138075
705.403	0.0137989
705.481	0.0138495
705.559	0.0138042
705.637	0.0138514
705.715	0.0139339
705.793	0.0138107
705.871	0.0136546
705.950	0.0139276
706.028	0.0139585
706.106	0.0138843
706.184	0.0138947
706.262	0.0139627
706.340	0.0139185
706.418	0.0141237
706.496	0.0141957
706.575	0.0143616
706.653	0.0145657
706.731	0.0146346
706.809	0.0144927
706.887	0.0145610
706.965	0.0145007
707.043	0.0144563
707.121	0.0144002
707.200	0.0144662
707.278	0.0143393
707.356	0.0143022
707.434	0.0142399
707.512	0.0141071
707.590	0.0140078
707.668	0.0139514
707.746	0.0139094
707.825	0.0137253
707.903	0.0136340
707.981	0.0136432
708.059	0.0135224
708.137	0.0135579
708.215	0.0135268
708.293	0.0134869
708.371	0.0135140
708.450	0.0136301
708.528	0.0134978
708.606	0.0135806
708.684	0.0136597
708.762	0.0135239
708.840	0.0135764
708.918	0.0137753
708.996	0.0139209
709.075	0.0138863
709.153	0.0140025
709.231	0.0140279
709.309	0.0140736
709.387	0.0141763
709.465	0.0142007
709.543	0.0144016
709.621	0.0142911
709.700	0.0143773
709.778	0.0143936
709.856	0.0143333
709.934	0.0143705
710.012	0.0142474
710.090	0.0140323
710.168	0.0140163
710.246	0.0139114
710.325	0.0137748
710.403	0.0137259
710.481	0.0137083
710.559	0.0135271
710.637	0.0134747
710.715	0.0135872
710.793	0.0137868
710.871	0.0136818
710.950	0.0137564
711.028	0.0139641
711.106	0.0141597
711.184	0.0141132
711.262	0.0142334
711.340	0.0141980
711.418	0.0143822
711.496	0.0145044
711.575	0.0144286
711.653	0.0143799
711.731	0.0142377
711.809	0.0144018
711.887	0.0141933
711.965	0.0142450
712.043	0.0141664
712.121	0.0139618
712.200	0.0138233
712.278	0.0137986
712.356	0.0136117
712.434	0.0137128
712.512	0.0136113
712.590	0.0135340
712.668	0.0135348
712.746	0.0135841
712.825	0.0135635
712.903	0.0137131
712.981	0.0135403
713.059	0.0135806
713.137	0.0138197
713.215	0.0139142
713.293	0.0138184
713.371	0.0139947
713.450	0.0141246
713.528	0.0141079
713.606	0.0141666
713.684	0.0142584
713.762	0.0142036
713.840	0.0142924
713.918	0.0144183
713.996	0.0143343
714.075	0.0143335
714.153	0.0143775
714.231	0.0143552
714.309	0.0145255
714.387	0.0143610
714.465	0.0144244
714.543	0.0143768
714.621	0.0143845
714.700	0.0142935
714.778	0.0142117
714.856	0.0141141
714.934	0.0139090
715.012	0.0138371
715.090	0.0138345
715.168	0.0136823
715.246	0.0134687
715.325	0.0135595
715.403	0.0133253
715.481	0.0133319
715.559	0.0133179
715.637	0.0134961
715.715	0.0134004
715.793	0.0133968
715.871	0.0134879
715.950	0.0136761
716.028	0.0136954
716.106	0.0139352
716.184	0.0140269
716.262	0.0141425
716.340	0.0141639
716.418	0.0142097
716.496	0.0142460
716.575	0.0143188
716.653	0.0143567
716.731	0.0141575
716.809	0.0141783
716.887	0.0143861
716.965	0.0142471
717.043	0.0142486
717.121	0.0140742
717.200	0.0140690
717.278	0.0141383
717.356	0.0141813
717.434	0.0139684
717.512	0.0140470
717.590	0.0138167
717.668	0.0138692
717.746	0.0137867
717.825	0.0138237
717.903	0.0137988
717.981	0.0136978
718.059	0.0139619
718.137	0.0138472
718.215	0.0139617
718.293	0.0138490
718.371	0.0138908
718.450	0.0138922
718.528	0.0139155
718.606	0.0139738
718.684	0.0139272
718.762	0.0137087
718.840	0.0138809
718.918	0.0138090
718.996	0.0139010
719.075	0.0138652
719.153	0.0139145
719.231	0.0138744
719.309	0.0139104
719.387	0.0140356
719.465	0.0139339
719.543	0.0140184
719.621	0.0139211
719.700	0.0139323
719.778	0.0139399
719.856	0.0140405
719.934	0.0138853
720.012	0.0139812
720.090	0.0138716
720.168	0.0138309
720.246	0.0139545
720.325	0.0138501
720.403	0.0138418
720.481	0.0137210
720.559	0.0137926
720.637	0.0139192
720.715	0.0140221
720.793	0.0140439
720.871	0.0140427
720.950	0.0139930
721.028	0.0141196
721.106	0.0141532
721.184	0.0141467
721.262	0.0142782
721.340	0.0142663
721.418	0.0141769
721.496	0.0142754
721.575	0.0142220
721.653	0.0141795
721.731	0.0139828
721.809	0.0139957
721.887	0.0140549
721.965	0.0137648
722.043	0.0138418
722.121	0.0136834
722.200	0.0136845
722.278	0.0136867
722.356	0.0136806
722.434	0.0137653
722.512	0.0137104
722.590	0.0136462
722.668	0.0139486
722.746	0.0137920
722.825	0.0139523
722.903	0.0139871
722.981	0.0138523
723.059	0.0140631
723.137	0.0140228
723.215	0.0140510
723.293	0.0140594
723.371	0.0141367
723.450	0.0140914
723.528	0.0141892
723.606	0.0142300
723.684	0.0143084
723.762	0.0139862
723.840	0.0141579
723.918	0.0141529
723.996	0.0141800
724.075	0.0141291
724.153	0.0140926
724.231	0.0140517
724.309	0.0140476
724.387	0.0140976
724.465	0.0140849
724.543	0.0138586
724.621	0.0138229
724.700	0.0137057
724.778	0.0136886
724.856	0.0137380
724.934	0.0137431
725.012	0.0136945
725.090	0.0137666
725.168	0.0137210
725.246	0.0138164
725.325	0.0137428
725.403	0.0138709
725.481	0.0139321
725.559	0.0139013
725.637	0.0139836
725.715	0.0140915
725.793	0.0141861
725.871	0.0142191
725.950	0.0141628
726.028	0.0142169
726.106	0.0141548
726.184	0.0141316
726.262	0.0139816
726.340	0.0140286
726.418	0.0138082
726.496	0.0137386
726.575	0.0137222
726.653	0.0137260
726.731	0.0137030
726.809	0.0136330
726.887	0.0137592
726.965	0.0136466
727.043	0.0135265
727.121	0.0138216
727.200	0.0138668
727.278	0.0137900
727.356	0.0138623
727.434	0.0139343
727.512	0.0140025
727.590	0.0139370
727.668	0.0139088
727.746	0.0141891
727.825	0.0141630
727.903	0.0140459
727.981	0.0140755
728.059	0.0141307
728.137	0.0141509
728.215	0.0142359
728.293	0.0141892
728.371	0.0143936
728.450	0.0142313
728.528	0.0142374
728.606	0.0141953
728.684	0.0142052
728.762	0.0141766
728.840	0.0141154
728.918	0.0139375
728.996	0.0138920
729.075	0.0137443
729.153	0.0138568
729.231	0.0138222
729.309	0.0136885
729.387	0.0136219
729.465	0.0137413
729.543	0.0135789
729.621	0.0135499
729.700	0.0136279
729.778	0.0136604
729.856	0.0136973
729.934	0.0137218
730.012	0.0137383
730.090	0.0139590
730.168	0.0140947
730.246	0.0141478
730.325	0.0142071
730.403	0.0141331
730.481	0.0141186
730.559	0.0143161
730.637	0.0142748
730.715	0.0142507
730.793	0.0141984
730.871	0.0142284
730.950	0.0140543
731.028	0.0140801
731.106	0.0140312
731.184	0.0140184
731.262	0.0140685
731.340	0.0139198
731.418	0.0138449
731.496	0.0139943
731.575	0.0138203
731.653	0.0138625
731.731	0.0139249
731.809	0.0139543
731.887	0.0138456
731.965	0.0139224
732.043	0.0139280
732.121	0.0138639
732.200	0.0139287
732.278	0.0139099
732.356	0.0139518
732.434	0.0138544
732.512	0.0140073
732.590	0.0140321
732.668	0.0139764
732.746	0.0140535
732.825	0.0140515
732.903	0.0141166
732.981	0.0139398
733.059	0.0141058
733.137	0.0142064
733.215	0.0140278
733.293	0.0141296
733.371	0.0139935
733.450	0.0140362
733.528	0.0139012
733.606	0.0139903
733.684	0.0141398
733.762	0.0138580
733.840	0.0139332
733.918	0.0140466
733.996	0.0139151
734.075	0.0139456
734.153	0.0138879
734.231	0.0139613
734.309	0.0139680
734.387	0.0140906
734.465	0.0140106
734.543	0.0138734
734.621	0.0139005
734.700	0.0139340
734.778	0.0139339
734.856	0.0139877
734.934	0.0141397
735.012	0.0141962
735.090	0.0141116
735.168	0.0142352
735.246	0.0141373
735.325	0.0140001
735.403	0.0140195
735.481	0.0139978
735.559	0.0140421
735.637	0.0139941
735.715	0.0139114
735.793	0.0138406
735.871	0.0138632
735.950	0.0139415
736.028	0.0137972
736.106	0.0137083
736.184	0.0137671
736.262	0.0137836
736.340	0.0137862
736.418	0.0136790
736.496	0.0139970
736.575	0.0139586
736.653	0.0139422
736.731	0.0139104
736.809	0.0138853
736.887	0.0139551
736.965	0.0140468
737.043	0.0138760
737.121	0.0138372
737.200	0.0138542
737.278	0.0140279
737.356	0.0139684
737.434	0.0140195
737.512	0.0140038
737.590	0.0140508
737.668	0.0139311
737.746	0.0139758
737.825	0.0139958
737.903	0.0140804
737.981	0.0140166
738.059	0.0140601
738.137	0.0140170
738.215	0.0139775
738.293	0.0139321
738.371	0.0138853
738.450	0.0138541
738.528	0.0140369
738.606	0.0138962
738.684	0.0139989
738.762	0.0140073
738.840	0.0138944
738.918	0.0139104
738.996	0.0139768
739.075	0.0141032
739.153	0.0139828
739.231	0.0139854
739.309	0.0140528
739.387	0.0139271
739.465	0.0138126
739.543	0.0140495
739.621	0.0140008
739.700	0.0137862
739.778	0.0137342
739.856	0.0138489
739.934	0.0139207
740.012	0.0138742
740.090	0.0138081
740.168	0.0137817
740.246	0.0137623
740.325	0.0138171
740.403	0.0137572
740.481	0.0137770
740.559	0.0138285
740.637	0.0139744
740.715	0.0137946
740.793	0.0138947
740.871	0.0140383
740.950	0.0139390
741.028	0.0141360
741.106	0.0140439
741.184	0.0139635
741.262	0.0141056
741.340	0.0139633
741.418	0.0141467
741.496	0.0138835
741.575	0.0141164
741.653	0.0141725
741.731	0.0140158
741.809	0.0140147
741.887	0.0140282
741.965	0.0139686
742.043	0.0139192
742.121	0.0139836
742.200	0.0140048
742.278	0.0139603
742.356	0.0140578
742.434	0.0139369
742.512	0.0139278
742.590	0.0139599
742.668	0.0140311
742.746	0.0139576
742.825	0.0139829
742.903	0.0139947
742.981	0.0139592
743.059	0.0140662
743.137	0.0140302
743.215	0.0138348
743.293	0.0137843
743.371	0.0138541
743.450	0.0137605
743.528	0.0139658
743.606	0.0138760
743.684	0.0138490
743.762	0.0139780
743.840	0.0138715
743.918	0.0138589
743.996	0.0139919
744.075	0.0138908
744.153	0.0136800
744.231	0.0139169
744.309	0.0139392
744.387	0.0139392
744.465	0.0137514
744.543	0.0138892
744.621	0.0138838
744.700	0.0138439
744.778	0.0139274
744.856	0.0140073
744.934	0.0138647
745.012	0.0138770
745.090	0.0139437
745.168	0.0139855
745.246	0.0141885
745.325	0.0141344
745.403	0.0141135
745.481	0.0141386
745.559	0.0140524
745.637	0.0140894
745.715	0.0140855
745.793	0.0142068
745.871	0.0141174
745.950	0.0140253
746.028	0.0140112
746.106	0.0139930
746.184	0.0139804
746.262	0.0139694
746.340	0.0140209
746.418	0.0137869
746.496	0.0138650
746.575	0.0138988
746.653	0.0139269
746.731	0.0139269
746.809	0.0138070
746.887	0.0136049
746.965	0.0138531
747.043	0.0140408
747.121	0.0139811
747.200	0.0138360
747.278	0.0139516
747.356	0.0139194
747.434	0.0139522
747.512	0.0140116
747.590	0.0139036
747.668	0.0139676
747.746	0.0138237
747.825	0.0140070
747.903	0.0140405
747.981	0.0138719
748.059	0.0139178
748.137	0.0138519
748.215	0.0139093
748.293	0.0138703
748.371	0.0139397
748.450	0.0139507
748.528	0.0138813
748.606	0.0138931
748.684	0.0140104
748.762	0.0139484
748.840	0.0140246
748.918	0.0139940
748.996	0.0138493
749.075	0.0139490
749.153	0.0139888
749.231	0.0139793
749.309	0.0140594
749.387	0.0139874
749.465	0.0139783
749.543	0.0138942
749.621	0.0139278
749.700	0.0139577
749.778	0.0140742
749.856	0.0140337
749.934	0.0139594
750.012	0.0139689
750.090	0.0139706
750.168	0.0139092
750.246	0.0139546
750.325	0.0139686
750.403	0.0138651
750.481	0.0138492
750.559	0.0139042
750.637	0.0139774
750.715	0.0139642
750.793	0.0138386
750.871	0.0139301
750.950	0.0140154
751.028	0.0137587
751.106	0.0137624
751.184	0.0139032
751.262	0.0139137
751.340	0.0138792
751.418	0.0139690
751.496	0.0140540
751.575	0.0138931
751.653	0.0139827
751.731	0.0137711
751.809	0.0139480
751.887	0.0139684
751.965	0.0140945
752.043	0.0142796
752.121	0.0140277
752.200	0.0138541
752.278	0.0140013
752.356	0.0139100
752.434	0.0139698
752.512	0.0138274
752.590	0.0139146
752.668	0.0139140
752.746	0.0140935
752.825	0.0140186
752.903	0.0140580
752.981	0.0138747
753.059	0.0139085
753.137	0.0139904
753.215	0.0140550
753.293	0.0140733
753.371	0.0140837
753.450	0.0140174
753.528	0.0141106
753.606	0.0140563
753.684	0.0139693
753.762	0.0140205
753.840	0.0138699
753.918	0.0140823
753.996	0.0139599
754.075	0.0141328
754.153	0.0139577
754.231	0.0139301
754.309	0.0140094
754.387	0.0138850
754.465	0.0138663
754.543	0.0138169
754.621	0.0140252
754.700	0.0139288
754.778	0.0138351
754.856	0.0138163
754.934	0.0139509
755.012	0.0139256
755.090	0.0140446
755.168	0.0139964
755.246	0.0139657
755.325	0.0140484
755.403	0.0138696
755.481	0.0140060
755.559	0.0139985
755.637	0.0140166
755.715	0.0139622
755.793	0.0138632
755.871	0.0139868
755.950	0.0140471
756.028	0.0140688
756.106	0.0141029
756.184	0.0139622
756.262	0.0141101
756.340	0.0139574
756.418	0.0139915
756.496	0.0139582
756.575	0.0139484
756.653	0.0139503
756.731	0.0138729
756.809	0.0138437
756.887	0.0139444
756.965	0.0139185
757.043	0.0139632
757.121	0.0139790
757.200	0.0139261
757.278	0.0140347
757.356	0.0140986
757.434	0.0139684
757.512	0.0140010
757.590	0.0140826
757.668	0.0141506
757.746	0.0139613
757.825	0.0139719
757.903	0.0140334
757.981	0.0138815
758.059	0.0139810
758.137	0.0140155
758.215	0.0139825
758.293	0.0140255
758.371	0.0140744
758.450	0.0141336
758.528	0.0139925
758.606	0.0138582
758.684	0.0141164
758.762	0.0140931
758.840	0.0138887
758.918	0.0140387
758.996	0.0140234
759.075	0.0140719
759.153	0.0140405
759.231	0.0139736
759.309	0.0141212
759.387	0.0139138
759.465	0.0139538
759.543	0.0139822
759.621	0.0139712
759.700	0.0139977
759.778	0.0139839
759.856	0.0139182
759.934	0.0140301
760.012	0.0140152
760.090	0.0138490
760.168	0.0137729
760.246	0.0139987
760.325	0.0139418
760.403	0.0140273
760.481	0.0139317
760.559	0.0138515
760.637	0.0138910
760.715	0.0139609
760.793	0.0138998
760.871	0.0138818
760.950	0.0140376
761.028	0.0139669
761.106	0.0139887
761.184	0.0139722
761.262	0.0139795
761.340	0.0140248
761.418	0.0139973
761.496	0.0139255
761.575	0.0140460
761.653	0.0141130
761.731	0.0139921
761.809	0.0138684
761.887	0.0139536
761.965	0.0139189
762.043	0.0138869
762.121	0.0141220
762.200	0.0139510
762.278	0.0138179
762.356	0.0139279
762.434	0.0139805
762.512	0.0138656
762.590	0.0140052
762.668	0.0139960
762.746	0.0140185
762.825	0.0140175
762.903	0.0140137
762.981	0.0140373
763.059	0.0141159
763.137	0.0139271
763.215	0.0140260
763.293	0.0139690
763.371	0.0138812
763.450	0.0139925
763.528	0.0139078
763.606	0.0139999
763.684	0.0139258
763.762	0.0138756
763.840	0.0139958
763.918	0.0141196
763.996	0.0139455
764.075	0.0138293
764.153	0.0137855
764.231	0.0140047
764.309	0.0139555
764.387	0.0139845
764.465	0.0139307
764.543	0.0138686
764.621	0.0140160
764.700	0.0141365
