05/04/2022	21:39:54	Ver.	4.1	UNKNOWN
Optical Delay	678.996401	Delta X		0.078125	Sweeps	1	Scan Rate	0/0
Coordinates	Axis 1	NaN	Axis 2	NaN	Axis 3	NaN	Axis 4	NaN	Axis 5	NaN	Axis 6	0.000000
TX Power	0.000000	RX Power	0.000000

678.996	0.0142225
679.075	0.0143645
679.153	0.0144925
679.231	0.0144423
679.309	0.0146282
679.387	0.0145827
679.465	0.0144349
679.543	0.0143936
679.621	0.0143064
679.700	0.0141254
679.778	0.0139947
679.856	0.0138876
679.934	0.0138326
680.012	0.0139114
680.090	0.0139104
680.168	0.0140068
680.246	0.0140810
680.325	0.0144427
680.403	0.0145905
680.481	0.0146021
680.559	0.0147332
680.637	0.0146680
680.715	0.0147042
680.793	0.0145851
680.871	0.0144291
680.950	0.0143701
681.028	0.0143030
681.106	0.0140233
681.184	0.0140114
681.262	0.0138352
681.340	0.0138158
681.418	0.0138077
681.496	0.0138719
681.575	0.0138588
681.653	0.0140965
681.731	0.0141247
681.809	0.0142710
681.887	0.0143105
681.965	0.0144557
682.043	0.0145898
682.121	0.0146334
682.200	0.0146489
682.278	0.0144627
682.356	0.0144516
682.434	0.0144672
682.512	0.0141177
682.590	0.0141560
682.668	0.0141002
682.746	0.0141223
682.825	0.0141198
682.903	0.0139405
682.981	0.0140486
683.059	0.0142751
683.137	0.0142548
683.215	0.0143411
683.293	0.0146545
683.371	0.0146601
683.450	0.0146905
683.528	0.0148833
683.606	0.0149519
683.684	0.0146745
683.762	0.0148142
683.840	0.0148947
683.918	0.0146864
683.996	0.0145427
684.075	0.0143713
684.153	0.0142128
684.231	0.0139095
684.309	0.0137228
684.387	0.0136895
684.465	0.0134992
684.543	0.0135215
684.621	0.0133565
684.700	0.0132778
684.778	0.0134447
684.856	0.0134975
684.934	0.0136857
685.012	0.0137386
685.090	0.0138550
685.168	0.0139798
685.246	0.0140183
685.325	0.0142097
685.403	0.0143072
685.481	0.0144332
685.559	0.0144343
685.637	0.0145355
685.715	0.0144909
685.793	0.0146810
685.871	0.0146652
685.950	0.0147404
686.028	0.0147685
686.106	0.0148565
686.184	0.0147182
686.262	0.0147546
686.340	0.0147012
686.418	0.0148174
686.496	0.0148513
686.575	0.0148147
686.653	0.0146624
686.731	0.0147115
686.809	0.0148592
686.887	0.0146512
686.965	0.0147100
687.043	0.0144071
687.121	0.0141169
687.200	0.0139852
687.278	0.0136520
687.356	0.0134372
687.434	0.0131463
687.512	0.0129690
687.590	0.0128758
687.668	0.0128821
687.746	0.0130222
687.825	0.0131422
687.903	0.0134063
687.981	0.0136714
688.059	0.0139990
688.137	0.0143027
688.215	0.0147285
688.293	0.0147745
688.371	0.0149313
688.450	0.0152850
688.528	0.0153056
688.606	0.0152935
688.684	0.0150602
688.762	0.0150156
688.840	0.0147532
688.918	0.0143456
688.996	0.0142284
689.075	0.0140224
689.153	0.0137130
689.231	0.0139803
689.309	0.0138710
689.387	0.0138207
689.465	0.0139407
689.543	0.0140875
689.621	0.0142671
689.700	0.0144996
689.778	0.0146124
689.856	0.0147181
689.934	0.0145711
690.012	0.0145728
690.090	0.0145490
690.168	0.0144206
690.246	0.0141872
690.325	0.0138708
690.403	0.0136653
690.481	0.0134643
690.559	0.0133550
690.637	0.0133350
690.715	0.0132955
690.793	0.0132923
690.871	0.0134003
690.950	0.0135384
691.028	0.0137042
691.106	0.0137512
691.184	0.0139065
691.262	0.0141241
691.340	0.0144294
691.418	0.0146737
691.496	0.0147735
691.575	0.0149186
691.653	0.0149270
691.731	0.0149055
691.809	0.0148103
691.887	0.0149288
691.965	0.0149069
692.043	0.0145325
692.121	0.0146444
692.200	0.0146685
692.278	0.0144485
692.356	0.0145164
692.434	0.0146169
692.512	0.0144800
692.590	0.0145213
692.668	0.0145642
692.746	0.0144910
692.825	0.0146098
692.903	0.0145227
692.981	0.0144557
693.059	0.0144236
693.137	0.0143639
693.215	0.0142913
693.293	0.0141276
693.371	0.0141641
693.450	0.0138448
693.528	0.0138599
693.606	0.0135988
693.684	0.0134726
693.762	0.0135179
693.840	0.0132752
693.918	0.0133126
693.996	0.0133250
694.075	0.0135661
694.153	0.0136198
694.231	0.0137711
694.309	0.0138675
694.387	0.0141930
694.465	0.0144982
694.543	0.0145588
694.621	0.0147696
694.700	0.0148043
694.778	0.0147775
694.856	0.0149125
694.934	0.0147241
695.012	0.0147092
695.090	0.0146484
695.168	0.0146668
695.246	0.0144478
695.325	0.0143345
695.403	0.0141531
695.481	0.0140401
695.559	0.0139394
695.637	0.0138010
695.715	0.0139471
695.793	0.0139180
695.871	0.0140199
695.950	0.0140005
696.028	0.0141328
696.106	0.0142814
696.184	0.0144153
696.262	0.0146379
696.340	0.0148092
696.418	0.0148773
696.496	0.0149399
696.575	0.0147036
696.653	0.0147394
696.731	0.0145667
696.809	0.0143828
696.887	0.0144027
696.965	0.0141354
697.043	0.0142332
697.121	0.0140598
697.200	0.0139475
697.278	0.0137742
697.356	0.0137200
697.434	0.0137793
697.512	0.0139301
697.590	0.0139441
697.668	0.0139880
697.746	0.0140033
697.825	0.0139071
697.903	0.0139249
697.981	0.0140270
698.059	0.0140550
698.137	0.0141364
698.215	0.0141654
698.293	0.0139807
698.371	0.0140697
698.450	0.0142035
698.528	0.0141511
698.606	0.0141628
698.684	0.0141277
698.762	0.0141396
698.840	0.0141588
698.918	0.0142130
698.996	0.0142153
699.075	0.0144009
699.153	0.0145760
699.231	0.0145714
699.309	0.0147090
699.387	0.0149026
699.465	0.0150398
699.543	0.0148775
699.621	0.0149199
699.700	0.0151630
699.778	0.0149145
699.856	0.0147583
699.934	0.0150008
700.012	0.0146673
700.090	0.0144951
700.168	0.0145156
700.246	0.0145338
700.325	0.0143930
700.403	0.0141145
700.481	0.0140247
700.559	0.0141265
700.637	0.0139042
700.715	0.0137491
700.793	0.0136025
700.871	0.0135120
700.950	0.0136148
701.028	0.0134840
701.106	0.0135892
701.184	0.0137347
701.262	0.0137344
701.340	0.0138848
701.418	0.0138233
701.496	0.0139763
701.575	0.0141162
701.653	0.0141953
701.731	0.0142281
701.809	0.0143005
701.887	0.0143296
701.965	0.0141509
702.043	0.0142052
702.121	0.0144484
702.200	0.0143855
702.278	0.0145142
702.356	0.0144522
702.434	0.0145082
702.512	0.0147705
702.590	0.0147254
702.668	0.0149326
702.746	0.0149490
702.825	0.0149567
702.903	0.0149100
702.981	0.0148013
703.059	0.0148286
703.137	0.0147207
703.215	0.0147413
703.293	0.0146241
703.371	0.0145173
703.450	0.0144141
703.528	0.0141793
703.606	0.0141962
703.684	0.0141631
703.762	0.0139679
703.840	0.0138773
703.918	0.0138045
703.996	0.0137403
704.075	0.0137881
704.153	0.0137889
704.231	0.0136810
704.309	0.0137234
704.387	0.0138891
704.465	0.0139400
704.543	0.0140028
704.621	0.0140401
704.700	0.0142368
704.778	0.0143887
704.856	0.0143875
704.934	0.0143491
705.012	0.0143254
705.090	0.0143755
705.168	0.0143530
705.246	0.0143199
705.325	0.0141354
705.403	0.0141228
705.481	0.0141627
705.559	0.0140987
705.637	0.0139893
705.715	0.0139450
705.793	0.0139336
705.871	0.0138483
705.950	0.0139519
706.028	0.0139606
706.106	0.0141594
706.184	0.0142012
706.262	0.0143573
706.340	0.0143993
706.418	0.0144241
706.496	0.0147015
706.575	0.0147421
706.653	0.0147205
706.731	0.0147566
706.809	0.0149310
706.887	0.0149567
706.965	0.0149162
707.043	0.0148207
707.121	0.0148456
707.200	0.0146535
707.278	0.0146779
707.356	0.0147104
707.434	0.0144014
707.512	0.0144798
707.590	0.0140787
707.668	0.0140649
707.746	0.0140611
707.825	0.0140427
707.903	0.0137443
707.981	0.0136938
708.059	0.0138336
708.137	0.0136770
708.215	0.0136585
708.293	0.0136961
708.371	0.0137600
708.450	0.0136481
708.528	0.0137729
708.606	0.0137686
708.684	0.0137614
708.762	0.0136978
708.840	0.0139065
708.918	0.0140781
708.996	0.0141021
709.075	0.0143269
709.153	0.0144347
709.231	0.0143916
709.309	0.0144637
709.387	0.0148024
709.465	0.0146780
709.543	0.0146725
709.621	0.0147797
709.700	0.0149442
709.778	0.0146872
709.856	0.0147835
709.934	0.0147072
710.012	0.0147481
710.090	0.0146616
710.168	0.0143400
710.246	0.0142902
710.325	0.0140589
710.403	0.0139516
710.481	0.0140401
710.559	0.0139072
710.637	0.0137906
710.715	0.0138191
710.793	0.0139101
710.871	0.0137751
710.950	0.0137427
711.028	0.0140256
711.106	0.0140615
711.184	0.0140372
711.262	0.0142486
711.340	0.0142821
711.418	0.0142489
711.496	0.0143653
711.575	0.0145628
711.653	0.0145985
711.731	0.0146593
711.809	0.0145850
711.887	0.0144928
711.965	0.0144193
712.043	0.0144579
712.121	0.0144291
712.200	0.0143420
712.278	0.0141914
712.356	0.0142387
712.434	0.0141622
712.512	0.0140253
712.590	0.0141574
712.668	0.0140822
712.746	0.0139353
712.825	0.0139554
712.903	0.0138948
712.981	0.0140707
713.059	0.0141155
713.137	0.0139735
713.215	0.0138918
713.293	0.0141691
713.371	0.0142784
713.450	0.0142891
713.528	0.0142757
713.606	0.0143229
713.684	0.0144485
713.762	0.0144052
713.840	0.0144097
713.918	0.0145245
713.996	0.0144967
714.075	0.0145807
714.153	0.0144488
714.231	0.0144792
714.309	0.0145818
714.387	0.0145371
714.465	0.0144894
714.543	0.0145887
714.621	0.0144875
714.700	0.0145438
714.778	0.0142754
714.856	0.0141150
714.934	0.0141815
715.012	0.0140943
715.090	0.0139883
715.168	0.0138681
715.246	0.0138731
715.325	0.0138817
715.403	0.0137215
715.481	0.0138506
715.559	0.0137917
715.637	0.0137978
715.715	0.0138276
715.793	0.0139391
715.871	0.0139574
715.950	0.0140948
716.028	0.0140755
716.106	0.0142558
716.184	0.0143862
716.262	0.0143140
716.340	0.0143880
716.418	0.0143771
716.496	0.0145369
716.575	0.0145291
716.653	0.0144956
716.731	0.0146021
716.809	0.0146756
716.887	0.0146976
716.965	0.0145251
717.043	0.0144627
717.121	0.0145161
717.200	0.0145596
717.278	0.0144170
717.356	0.0142857
717.434	0.0144114
717.512	0.0142778
717.590	0.0142222
717.668	0.0142849
717.746	0.0141367
717.825	0.0142985
717.903	0.0142133
717.981	0.0140779
718.059	0.0141348
718.137	0.0141563
718.215	0.0140112
718.293	0.0140754
718.371	0.0140746
718.450	0.0140376
718.528	0.0141603
718.606	0.0141535
718.684	0.0142638
718.762	0.0141898
718.840	0.0141050
718.918	0.0142361
718.996	0.0142620
719.075	0.0143421
719.153	0.0143455
719.231	0.0144478
719.309	0.0143624
719.387	0.0145338
719.465	0.0144781
719.543	0.0144289
719.621	0.0145427
719.700	0.0144766
719.778	0.0144261
719.856	0.0142786
719.934	0.0141839
720.012	0.0143214
720.090	0.0144316
720.168	0.0141953
720.246	0.0142903
720.325	0.0143705
720.403	0.0140933
720.481	0.0143076
720.559	0.0143456
720.637	0.0143370
720.715	0.0143976
720.793	0.0142827
720.871	0.0142424
720.950	0.0145235
721.028	0.0143503
721.106	0.0143879
721.184	0.0144568
721.262	0.0145663
721.340	0.0143193
721.418	0.0143310
721.496	0.0142718
721.575	0.0142297
721.653	0.0141909
721.731	0.0141975
721.809	0.0140723
721.887	0.0140191
721.965	0.0142790
722.043	0.0141072
722.121	0.0140962
722.200	0.0142242
722.278	0.0142745
722.356	0.0141557
722.434	0.0141654
722.512	0.0141423
722.590	0.0141011
722.668	0.0141852
722.746	0.0141551
722.825	0.0140772
722.903	0.0142198
722.981	0.0141938
723.059	0.0143378
723.137	0.0141376
723.215	0.0141698
723.293	0.0142092
723.371	0.0143712
723.450	0.0144255
723.528	0.0144304
723.606	0.0147119
723.684	0.0146230
723.762	0.0146144
723.840	0.0146861
723.918	0.0146489
723.996	0.0145140
724.075	0.0145333
724.153	0.0144604
724.231	0.0144695
724.309	0.0143220
724.387	0.0142804
724.465	0.0139460
724.543	0.0141729
724.621	0.0140878
724.700	0.0139308
724.778	0.0139965
724.856	0.0140879
724.934	0.0139979
725.012	0.0140338
725.090	0.0139745
725.168	0.0140700
725.246	0.0142255
725.325	0.0144238
725.403	0.0143818
725.481	0.0142195
725.559	0.0144260
725.637	0.0143554
725.715	0.0143353
725.793	0.0144374
725.871	0.0142812
725.950	0.0143922
726.028	0.0144079
726.106	0.0142548
726.184	0.0142712
726.262	0.0141991
726.340	0.0140942
726.418	0.0140560
726.496	0.0141447
726.575	0.0141069
726.653	0.0140661
726.731	0.0141672
726.809	0.0140189
726.887	0.0140361
726.965	0.0141821
727.043	0.0141685
727.121	0.0141393
727.200	0.0142150
727.278	0.0142242
727.356	0.0143376
727.434	0.0142491
727.512	0.0143552
727.590	0.0143745
727.668	0.0143060
727.746	0.0142885
727.825	0.0144125
727.903	0.0143425
727.981	0.0143035
728.059	0.0144621
728.137	0.0145641
728.215	0.0145858
728.293	0.0146531
728.371	0.0144220
728.450	0.0145483
728.528	0.0143520
728.606	0.0144477
728.684	0.0143991
728.762	0.0143087
728.840	0.0141786
728.918	0.0141631
728.996	0.0142424
729.075	0.0140369
729.153	0.0141434
729.231	0.0141077
729.309	0.0139817
729.387	0.0138743
729.465	0.0137790
729.543	0.0139485
729.621	0.0139801
729.700	0.0139601
729.778	0.0139999
729.856	0.0141180
729.934	0.0142186
730.012	0.0142432
730.090	0.0142302
730.168	0.0143700
730.246	0.0144727
730.325	0.0144184
730.403	0.0143903
730.481	0.0143464
730.559	0.0143700
730.637	0.0144058
730.715	0.0144534
730.793	0.0143587
730.871	0.0143722
730.950	0.0142447
731.028	0.0141712
731.106	0.0141185
731.184	0.0141652
731.262	0.0140377
731.340	0.0140708
731.418	0.0142014
731.496	0.0141335
731.575	0.0141099
731.653	0.0140737
731.731	0.0139676
731.809	0.0141512
731.887	0.0141958
731.965	0.0141209
732.043	0.0140211
732.121	0.0140405
732.200	0.0141811
732.278	0.0140698
732.356	0.0141568
732.434	0.0141833
732.512	0.0141023
732.590	0.0143344
732.668	0.0142287
732.746	0.0141676
732.825	0.0144660
732.903	0.0144191
732.981	0.0143541
733.059	0.0143816
733.137	0.0144058
733.215	0.0144127
733.293	0.0142733
733.371	0.0143065
733.450	0.0142714
733.528	0.0142562
733.606	0.0142519
733.684	0.0141504
733.762	0.0141769
733.840	0.0142117
733.918	0.0142036
733.996	0.0142393
734.075	0.0141515
734.153	0.0141170
734.231	0.0141930
734.309	0.0142981
734.387	0.0142471
734.465	0.0142835
734.543	0.0142731
734.621	0.0141763
734.700	0.0142300
734.778	0.0145531
734.856	0.0143198
734.934	0.0143758
735.012	0.0142990
735.090	0.0142027
735.168	0.0143784
735.246	0.0143489
735.325	0.0141981
735.403	0.0143269
735.481	0.0143739
735.559	0.0142207
735.637	0.0141887
735.715	0.0141928
735.793	0.0142728
735.871	0.0140160
735.950	0.0142193
736.028	0.0141530
736.106	0.0140847
736.184	0.0142564
736.262	0.0142495
736.340	0.0142253
736.418	0.0143396
736.496	0.0142133
736.575	0.0142455
736.653	0.0142651
736.731	0.0141196
736.809	0.0142395
736.887	0.0141868
736.965	0.0141901
737.043	0.0143069
737.121	0.0141969
737.200	0.0141111
737.278	0.0142310
737.356	0.0142352
737.434	0.0142043
737.512	0.0143209
737.590	0.0142477
737.668	0.0142318
737.746	0.0142789
737.825	0.0143952
737.903	0.0142741
737.981	0.0142173
738.059	0.0143044
738.137	0.0142807
738.215	0.0144245
738.293	0.0144185
738.371	0.0142104
738.450	0.0143819
738.528	0.0143269
738.606	0.0142370
738.684	0.0142369
738.762	0.0142014
738.840	0.0142217
738.918	0.0142197
738.996	0.0143775
739.075	0.0143086
739.153	0.0142146
739.231	0.0141848
739.309	0.0142593
739.387	0.0142732
739.465	0.0141887
739.543	0.0142736
739.621	0.0142899
739.700	0.0141921
739.778	0.0140530
739.856	0.0140401
739.934	0.0140540
740.012	0.0141391
740.090	0.0140865
740.168	0.0140800
740.246	0.0141290
740.325	0.0141763
740.403	0.0141183
740.481	0.0141216
740.559	0.0142017
740.637	0.0144034
740.715	0.0142767
740.793	0.0141581
740.871	0.0143204
740.950	0.0143690
741.028	0.0144196
741.106	0.0142747
741.184	0.0144395
741.262	0.0143932
741.340	0.0144630
741.418	0.0142889
741.496	0.0142218
741.575	0.0142751
741.653	0.0143272
741.731	0.0142575
741.809	0.0142052
741.887	0.0141828
741.965	0.0141804
742.043	0.0141222
742.121	0.0142172
742.200	0.0143057
742.278	0.0143628
742.356	0.0141529
742.434	0.0142294
742.512	0.0142527
742.590	0.0142562
742.668	0.0142592
742.746	0.0142522
742.825	0.0143357
742.903	0.0142493
742.981	0.0141065
743.059	0.0141532
743.137	0.0143240
743.215	0.0141657
743.293	0.0141373
743.371	0.0142172
743.450	0.0142416
743.528	0.0141969
743.606	0.0140583
743.684	0.0142111
743.762	0.0141372
743.840	0.0142022
743.918	0.0142024
743.996	0.0140871
744.075	0.0141392
744.153	0.0140940
744.231	0.0141348
744.309	0.0141331
744.387	0.0141571
744.465	0.0142450
744.543	0.0140751
744.621	0.0140594
744.700	0.0142213
744.778	0.0141055
744.856	0.0142110
744.934	0.0141927
745.012	0.0142765
745.090	0.0143164
745.168	0.0143221
745.246	0.0142252
745.325	0.0143546
745.403	0.0142840
745.481	0.0142551
745.559	0.0143698
745.637	0.0142455
745.715	0.0141428
745.793	0.0143460
745.871	0.0142492
745.950	0.0142422
746.028	0.0141740
746.106	0.0142256
746.184	0.0142762
746.262	0.0140659
746.340	0.0140929
746.418	0.0142715
746.496	0.0141793
746.575	0.0140864
746.653	0.0142450
746.731	0.0139722
746.809	0.0140330
746.887	0.0142134
746.965	0.0142157
747.043	0.0142490
747.121	0.0141828
747.200	0.0143128
747.278	0.0142368
747.356	0.0142571
747.434	0.0142777
747.512	0.0140977
747.590	0.0143224
747.668	0.0142543
747.746	0.0142115
747.825	0.0141948
747.903	0.0142288
747.981	0.0142702
748.059	0.0143088
748.137	0.0141895
748.215	0.0142199
748.293	0.0142707
748.371	0.0143582
748.450	0.0142390
748.528	0.0142680
748.606	0.0143344
748.684	0.0143535
748.762	0.0145203
748.840	0.0143749
748.918	0.0144827
748.996	0.0145030
749.075	0.0145335
749.153	0.0144683
749.231	0.0144447
749.309	0.0144779
749.387	0.0142783
749.465	0.0144505
749.543	0.0144559
749.621	0.0143676
749.700	0.0144048
749.778	0.0143434
749.856	0.0142460
749.934	0.0143123
750.012	0.0143863
750.090	0.0142801
750.168	0.0142810
750.246	0.0142672
750.325	0.0142865
750.403	0.0144470
750.481	0.0143754
750.559	0.0143882
750.637	0.0141846
750.715	0.0143872
750.793	0.0143898
750.871	0.0142558
750.950	0.0142686
751.028	0.0143916
751.106	0.0143018
751.184	0.0142610
751.262	0.0145072
751.340	0.0144912
751.418	0.0143227
751.496	0.0143089
751.575	0.0142751
751.653	0.0142806
751.731	0.0142864
751.809	0.0142355
751.887	0.0143274
751.965	0.0143526
752.043	0.0142738
752.121	0.0143597
752.200	0.0143650
752.278	0.0142369
752.356	0.0142598
752.434	0.0142262
752.512	0.0141804
752.590	0.0143005
752.668	0.0143324
752.746	0.0143058
752.825	0.0144020
752.903	0.0142491
752.981	0.0142439
753.059	0.0143384
753.137	0.0143311
753.215	0.0144334
753.293	0.0144653
753.371	0.0143018
753.450	0.0143369
753.528	0.0143147
753.606	0.0144637
753.684	0.0143371
753.762	0.0142581
753.840	0.0142834
753.918	0.0142884
753.996	0.0143374
754.075	0.0141583
754.153	0.0142740
754.231	0.0143180
754.309	0.0142454
754.387	0.0141511
754.465	0.0140948
754.543	0.0141948
754.621	0.0141936
754.700	0.0141573
754.778	0.0141300
754.856	0.0140737
754.934	0.0141948
755.012	0.0139290
755.090	0.0140941
755.168	0.0142238
755.246	0.0142446
755.325	0.0141502
755.403	0.0141475
755.481	0.0142772
755.559	0.0141363
755.637	0.0142676
755.715	0.0142187
755.793	0.0141356
755.871	0.0140906
755.950	0.0142090
756.028	0.0142570
756.106	0.0142231
756.184	0.0142082
756.262	0.0143728
756.340	0.0142348
756.418	0.0142272
756.496	0.0141506
756.575	0.0142384
756.653	0.0142528
756.731	0.0143368
756.809	0.0143121
756.887	0.0141189
756.965	0.0141100
757.043	0.0141803
757.121	0.0141725
757.200	0.0142092
757.278	0.0141301
757.356	0.0141555
757.434	0.0141452
757.512	0.0140736
757.590	0.0141933
757.668	0.0142039
757.746	0.0141535
757.825	0.0142868
757.903	0.0143081
757.981	0.0141844
758.059	0.0141554
758.137	0.0143847
758.215	0.0143429
758.293	0.0143536
758.371	0.0142934
758.450	0.0142657
758.528	0.0142918
758.606	0.0143452
758.684	0.0143444
758.762	0.0142476
758.840	0.0142758
758.918	0.0143037
758.996	0.0142867
759.075	0.0143404
759.153	0.0142572
759.231	0.0142677
759.309	0.0142698
759.387	0.0142659
759.465	0.0141409
759.543	0.0143515
759.621	0.0142216
759.700	0.0141937
759.778	0.0143450
759.856	0.0142059
759.934	0.0141560
760.012	0.0141598
760.090	0.0143070
760.168	0.0143179
760.246	0.0142111
760.325	0.0143147
760.403	0.0142085
760.481	0.0142650
760.559	0.0142142
760.637	0.0142860
760.715	0.0141795
760.793	0.0141340
760.871	0.0142355
760.950	0.0142742
761.028	0.0142548
761.106	0.0142183
761.184	0.0141521
761.262	0.0140596
761.340	0.0142323
761.418	0.0141985
761.496	0.0141873
761.575	0.0143121
761.653	0.0141797
761.731	0.0142007
761.809	0.0141686
761.887	0.0142485
761.965	0.0143276
762.043	0.0142843
762.121	0.0144031
762.200	0.0142652
762.278	0.0142881
762.356	0.0143771
762.434	0.0143588
762.512	0.0143279
762.590	0.0143771
762.668	0.0142881
762.746	0.0142519
762.825	0.0142769
762.903	0.0142615
762.981	0.0142346
763.059	0.0143447
763.137	0.0142008
763.215	0.0142636
763.293	0.0142204
763.371	0.0141910
763.450	0.0142233
763.528	0.0142697
763.606	0.0142538
763.684	0.0141657
763.762	0.0142233
763.840	0.0141202
763.918	0.0142762
763.996	0.0141376
764.075	0.0140772
764.153	0.0140888
764.231	0.0141972
764.309	0.0141968
764.387	0.0140923
764.465	0.0141895
764.543	0.0142168
764.621	0.0142161
764.700	0.0142707
