05/04/2022	21:40:34	Ver.	4.1	UNKNOWN
Optical Delay	678.996401	Delta X		0.078125	Sweeps	1	Scan Rate	0/0
Coordinates	Axis 1	NaN	Axis 2	NaN	Axis 3	NaN	Axis 4	NaN	Axis 5	NaN	Axis 6	0.000000
TX Power	0.000000	RX Power	0.000000

678.996	0.0144316
679.075	0.0143980
679.153	0.0144872
679.231	0.0147482
679.309	0.0148261
679.387	0.0149782
679.465	0.0148988
679.543	0.0148987
679.621	0.0147299
679.700	0.0146622
679.778	0.0146632
679.856	0.0144565
679.934	0.0141872
680.012	0.0142038
680.090	0.0140891
680.168	0.0140167
680.246	0.0139219
680.325	0.0138587
680.403	0.0141447
680.481	0.0142052
680.559	0.0143393
680.637	0.0145741
680.715	0.0146793
680.793	0.0147324
680.871	0.0147469
680.950	0.0147054
681.028	0.0147314
681.106	0.0147203
681.184	0.0148105
681.262	0.0147277
681.340	0.0145538
681.418	0.0145718
681.496	0.0144413
681.575	0.0142693
681.653	0.0142442
681.731	0.0140779
681.809	0.0141576
681.887	0.0142910
681.965	0.0144086
682.043	0.0143235
682.121	0.0144716
682.200	0.0147484
682.278	0.0147618
682.356	0.0149692
682.434	0.0149951
682.512	0.0149901
682.590	0.0149168
682.668	0.0151299
682.746	0.0149677
682.825	0.0148006
682.903	0.0148956
682.981	0.0146180
683.059	0.0143291
683.137	0.0141972
683.215	0.0140526
683.293	0.0138024
683.371	0.0136185
683.450	0.0134993
683.528	0.0135074
683.606	0.0135020
683.684	0.0135079
683.762	0.0135209
683.840	0.0138145
683.918	0.0138142
683.996	0.0141818
684.075	0.0142571
684.153	0.0146037
684.231	0.0147622
684.309	0.0147994
684.387	0.0150525
684.465	0.0151445
684.543	0.0151364
684.621	0.0151939
684.700	0.0153249
684.778	0.0152557
684.856	0.0149266
684.934	0.0149983
685.012	0.0148283
685.090	0.0147162
685.168	0.0147392
685.246	0.0148554
685.325	0.0147585
685.403	0.0147296
685.481	0.0148270
685.559	0.0148262
685.637	0.0147649
685.715	0.0149963
685.793	0.0148502
685.871	0.0147142
685.950	0.0146405
686.028	0.0144552
686.106	0.0142191
686.184	0.0139365
686.262	0.0136706
686.340	0.0133662
686.418	0.0132963
686.496	0.0131898
686.575	0.0129585
686.653	0.0133088
686.731	0.0135229
686.809	0.0135276
686.887	0.0138225
686.965	0.0142353
687.043	0.0146033
687.121	0.0149643
687.200	0.0153848
687.278	0.0155984
687.356	0.0157465
687.434	0.0156734
687.512	0.0157098
687.590	0.0155803
687.668	0.0152901
687.746	0.0151582
687.825	0.0148179
687.903	0.0144102
687.981	0.0143089
688.059	0.0138627
688.137	0.0137917
688.215	0.0138355
688.293	0.0137672
688.371	0.0138401
688.450	0.0139365
688.528	0.0140376
688.606	0.0144572
688.684	0.0145756
688.762	0.0146851
688.840	0.0147369
688.918	0.0147456
688.996	0.0146779
689.075	0.0145982
689.153	0.0144873
689.231	0.0143385
689.309	0.0141559
689.387	0.0141006
689.465	0.0139310
689.543	0.0138199
689.621	0.0137951
689.700	0.0137698
689.778	0.0136470
689.856	0.0138035
689.934	0.0138914
690.012	0.0141668
690.090	0.0143665
690.168	0.0145496
690.246	0.0146452
690.325	0.0150045
690.403	0.0152058
690.481	0.0151555
690.559	0.0152568
690.637	0.0153493
690.715	0.0153931
690.793	0.0151907
690.871	0.0151453
690.950	0.0150900
691.028	0.0148637
691.106	0.0148306
691.184	0.0146725
691.262	0.0145789
691.340	0.0145462
691.418	0.0145187
691.496	0.0144888
691.575	0.0146454
691.653	0.0146425
691.731	0.0146281
691.809	0.0144783
691.887	0.0145573
691.965	0.0146885
692.043	0.0145900
692.121	0.0146026
692.200	0.0145221
692.278	0.0144700
692.356	0.0145013
692.434	0.0141501
692.512	0.0140479
692.590	0.0143801
692.668	0.0140299
692.746	0.0138668
692.825	0.0139352
692.903	0.0138618
692.981	0.0140360
693.059	0.0139410
693.137	0.0139935
693.215	0.0140034
693.293	0.0142833
693.371	0.0144579
693.450	0.0146368
693.528	0.0147807
693.606	0.0148238
693.684	0.0149523
693.762	0.0150531
693.840	0.0149199
693.918	0.0151277
693.996	0.0151832
694.075	0.0149860
694.153	0.0149557
694.231	0.0149297
694.309	0.0148367
694.387	0.0147202
694.465	0.0144195
694.543	0.0144277
694.621	0.0143707
694.700	0.0144304
694.778	0.0142267
694.856	0.0141404
694.934	0.0142148
695.012	0.0142176
695.090	0.0144395
695.168	0.0145102
695.246	0.0146523
695.325	0.0147001
695.403	0.0148839
695.481	0.0149290
695.559	0.0149223
695.637	0.0148673
695.715	0.0148977
695.793	0.0147793
695.871	0.0145789
695.950	0.0144706
696.028	0.0143884
696.106	0.0145123
696.184	0.0142795
696.262	0.0141623
696.340	0.0143246
696.418	0.0141037
696.496	0.0142470
696.575	0.0141852
696.653	0.0143499
696.731	0.0144732
696.809	0.0144757
696.887	0.0145395
696.965	0.0144465
697.043	0.0144419
697.121	0.0145643
697.200	0.0144106
697.278	0.0144621
697.356	0.0144722
697.434	0.0143987
697.512	0.0145109
697.590	0.0144489
697.668	0.0144337
697.746	0.0143383
697.825	0.0143158
697.903	0.0143713
697.981	0.0144289
698.059	0.0144536
698.137	0.0143451
698.215	0.0145578
698.293	0.0148138
698.371	0.0147595
698.450	0.0148869
698.528	0.0149119
698.606	0.0151737
698.684	0.0150718
698.762	0.0150575
698.840	0.0151195
698.918	0.0149525
698.996	0.0149816
699.075	0.0149905
699.153	0.0147997
699.231	0.0146554
699.309	0.0144424
699.387	0.0144465
699.465	0.0142873
699.543	0.0140855
699.621	0.0138627
699.700	0.0137480
699.778	0.0138598
699.856	0.0136078
699.934	0.0135430
700.012	0.0134982
700.090	0.0135888
700.168	0.0135967
700.246	0.0136501
700.325	0.0137380
700.403	0.0139664
700.481	0.0139339
700.559	0.0142479
700.637	0.0141777
700.715	0.0143662
700.793	0.0145551
700.871	0.0146519
700.950	0.0146392
701.028	0.0147672
701.106	0.0145097
701.184	0.0146884
701.262	0.0147530
701.340	0.0148111
701.418	0.0147298
701.496	0.0148372
701.575	0.0149538
701.653	0.0149718
701.731	0.0149514
701.809	0.0149611
701.887	0.0148645
701.965	0.0150286
702.043	0.0149213
702.121	0.0150349
702.200	0.0150253
702.278	0.0149046
702.356	0.0146857
702.434	0.0146213
702.512	0.0144274
702.590	0.0142211
702.668	0.0141161
702.746	0.0140296
702.825	0.0138097
702.903	0.0137319
702.981	0.0135833
703.059	0.0136295
703.137	0.0138495
703.215	0.0137787
703.293	0.0138161
703.371	0.0140378
703.450	0.0141985
703.528	0.0144264
703.606	0.0145206
703.684	0.0145752
703.762	0.0148809
703.840	0.0148933
703.918	0.0148182
703.996	0.0148451
704.075	0.0147852
704.153	0.0148331
704.231	0.0146999
704.309	0.0145374
704.387	0.0144308
704.465	0.0142845
704.543	0.0142097
704.621	0.0141159
704.700	0.0141486
704.778	0.0142582
704.856	0.0141795
704.934	0.0142320
705.012	0.0142089
705.090	0.0143656
705.168	0.0145512
705.246	0.0145401
705.325	0.0145544
705.403	0.0146054
705.481	0.0146278
705.559	0.0146523
705.637	0.0146871
705.715	0.0148362
705.793	0.0149409
705.871	0.0147127
705.950	0.0148251
706.028	0.0150089
706.106	0.0150539
706.184	0.0149841
706.262	0.0151873
706.340	0.0150322
706.418	0.0150067
706.496	0.0148851
706.575	0.0148878
706.653	0.0145926
706.731	0.0144280
706.809	0.0143530
706.887	0.0139822
706.965	0.0138992
707.043	0.0138948
707.121	0.0138250
707.200	0.0138115
707.278	0.0136361
707.356	0.0136234
707.434	0.0137776
707.512	0.0136763
707.590	0.0138967
707.668	0.0138651
707.746	0.0139311
707.825	0.0140386
707.903	0.0141379
707.981	0.0141816
708.059	0.0144288
708.137	0.0144266
708.215	0.0145783
708.293	0.0148424
708.371	0.0149532
708.450	0.0149564
708.528	0.0149065
708.606	0.0151144
708.684	0.0151797
708.762	0.0151456
708.840	0.0152392
708.918	0.0151445
708.996	0.0150913
709.075	0.0150816
709.153	0.0148669
709.231	0.0148276
709.309	0.0147295
709.387	0.0144342
709.465	0.0145602
709.543	0.0144404
709.621	0.0141858
709.700	0.0141856
709.778	0.0141746
709.856	0.0141759
709.934	0.0140358
710.012	0.0140040
710.090	0.0140652
710.168	0.0141115
710.246	0.0142262
710.325	0.0142648
710.403	0.0144170
710.481	0.0144151
710.559	0.0145431
710.637	0.0147076
710.715	0.0147002
710.793	0.0148576
710.871	0.0148044
710.950	0.0148479
711.028	0.0148621
711.106	0.0149612
711.184	0.0149565
711.262	0.0147906
711.340	0.0148036
711.418	0.0146943
711.496	0.0147913
711.575	0.0146194
711.653	0.0145278
711.731	0.0144451
711.809	0.0145893
711.887	0.0145727
711.965	0.0144801
712.043	0.0143375
712.121	0.0143288
712.200	0.0141726
712.278	0.0143050
712.356	0.0143172
712.434	0.0143913
712.512	0.0143970
712.590	0.0145442
712.668	0.0145660
712.746	0.0145698
712.825	0.0147015
712.903	0.0148432
712.981	0.0149430
713.059	0.0149139
713.137	0.0150333
713.215	0.0148859
713.293	0.0149688
713.371	0.0149955
713.450	0.0149941
713.528	0.0148483
713.606	0.0147711
713.684	0.0146368
713.762	0.0145210
713.840	0.0144829
713.918	0.0144283
713.996	0.0144400
714.075	0.0142115
714.153	0.0142694
714.231	0.0143314
714.309	0.0142535
714.387	0.0142445
714.465	0.0142653
714.543	0.0140659
714.621	0.0142225
714.700	0.0143211
714.778	0.0142476
714.856	0.0142680
714.934	0.0143047
715.012	0.0144586
715.090	0.0143635
715.168	0.0143498
715.246	0.0145329
715.325	0.0144058
715.403	0.0145997
715.481	0.0146835
715.559	0.0146487
715.637	0.0147787
715.715	0.0147525
715.793	0.0146908
715.871	0.0147698
715.950	0.0147396
716.028	0.0148499
716.106	0.0147794
716.184	0.0147177
716.262	0.0147252
716.340	0.0145715
716.418	0.0146217
716.496	0.0145408
716.575	0.0144655
716.653	0.0144283
716.731	0.0143533
716.809	0.0141832
716.887	0.0143085
716.965	0.0143315
717.043	0.0142958
717.121	0.0142635
717.200	0.0141321
717.278	0.0142670
717.356	0.0142570
717.434	0.0140883
717.512	0.0141798
717.590	0.0142592
717.668	0.0142784
717.746	0.0143904
717.825	0.0143771
717.903	0.0143338
717.981	0.0144862
718.059	0.0144688
718.137	0.0144159
718.215	0.0145377
718.293	0.0148126
718.371	0.0145744
718.450	0.0145913
718.528	0.0145390
718.606	0.0145995
718.684	0.0145329
718.762	0.0145161
718.840	0.0145052
718.918	0.0144904
718.996	0.0143608
719.075	0.0144723
719.153	0.0146034
719.231	0.0145985
719.309	0.0144266
719.387	0.0145550
719.465	0.0145428
719.543	0.0144640
719.621	0.0145012
719.700	0.0146428
719.778	0.0146902
719.856	0.0145597
719.934	0.0145981
720.012	0.0146428
720.090	0.0146349
720.168	0.0146301
720.246	0.0144868
720.325	0.0143510
720.403	0.0142944
720.481	0.0143976
720.559	0.0143391
720.637	0.0143273
720.715	0.0143258
720.793	0.0143747
720.871	0.0143333
720.950	0.0143429
721.028	0.0142665
721.106	0.0144440
721.184	0.0144366
721.262	0.0142607
721.340	0.0144614
721.418	0.0144241
721.496	0.0143877
721.575	0.0143812
721.653	0.0143520
721.731	0.0144663
721.809	0.0144089
721.887	0.0143553
721.965	0.0144994
722.043	0.0145823
722.121	0.0145567
722.200	0.0144897
722.278	0.0145744
722.356	0.0145462
722.434	0.0146670
722.512	0.0146827
722.590	0.0147008
722.668	0.0147878
722.746	0.0147861
722.825	0.0148293
722.903	0.0148841
722.981	0.0146129
723.059	0.0146700
723.137	0.0146999
723.215	0.0145509
723.293	0.0145098
723.371	0.0145909
723.450	0.0144016
723.528	0.0143745
723.606	0.0143967
723.684	0.0142963
723.762	0.0144196
723.840	0.0142714
723.918	0.0141958
723.996	0.0141551
724.075	0.0143679
724.153	0.0142005
724.231	0.0142963
724.309	0.0142471
724.387	0.0144304
724.465	0.0143427
724.543	0.0143506
724.621	0.0144738
724.700	0.0146660
724.778	0.0145837
724.856	0.0145009
724.934	0.0145048
725.012	0.0143658
725.090	0.0143736
725.168	0.0144367
725.246	0.0144540
725.325	0.0144012
725.403	0.0143565
725.481	0.0145009
725.559	0.0144090
725.637	0.0144143
725.715	0.0144328
725.793	0.0142210
725.871	0.0143875
725.950	0.0143487
726.028	0.0144547
726.106	0.0143961
726.184	0.0142893
726.262	0.0142940
726.340	0.0143728
726.418	0.0143613
726.496	0.0143655
726.575	0.0143953
726.653	0.0144471
726.731	0.0143531
726.809	0.0144707
726.887	0.0145517
726.965	0.0144495
727.043	0.0145669
727.121	0.0146291
727.200	0.0145708
727.278	0.0147272
727.356	0.0146574
727.434	0.0146200
727.512	0.0146479
727.590	0.0146081
727.668	0.0144207
727.746	0.0145447
727.825	0.0144352
727.903	0.0145203
727.981	0.0143776
728.059	0.0143447
728.137	0.0143012
728.215	0.0142523
728.293	0.0142193
728.371	0.0141708
728.450	0.0140987
728.528	0.0142222
728.606	0.0142888
728.684	0.0142982
728.762	0.0141874
728.840	0.0143144
728.918	0.0143597
728.996	0.0144215
729.075	0.0144638
729.153	0.0145556
729.231	0.0147031
729.309	0.0146872
729.387	0.0146632
729.465	0.0147005
729.543	0.0147483
729.621	0.0147258
729.700	0.0146676
729.778	0.0147327
729.856	0.0146931
729.934	0.0144813
730.012	0.0145328
730.090	0.0145195
730.168	0.0144889
730.246	0.0144925
730.325	0.0144535
730.403	0.0145438
730.481	0.0142723
730.559	0.0143551
730.637	0.0143782
730.715	0.0141347
730.793	0.0142466
730.871	0.0143301
730.950	0.0142339
731.028	0.0143810
731.106	0.0143872
731.184	0.0143123
731.262	0.0144675
731.340	0.0143481
731.418	0.0143937
731.496	0.0144494
731.575	0.0145306
731.653	0.0146071
731.731	0.0145622
731.809	0.0145433
731.887	0.0146156
731.965	0.0148110
732.043	0.0146084
732.121	0.0145433
732.200	0.0145704
732.278	0.0144190
732.356	0.0144821
732.434	0.0145127
732.512	0.0144397
732.590	0.0144374
732.668	0.0143980
732.746	0.0144525
732.825	0.0144020
732.903	0.0144157
732.981	0.0145625
733.059	0.0145422
733.137	0.0145608
733.215	0.0144838
733.293	0.0144981
733.371	0.0143698
733.450	0.0145846
733.528	0.0144930
733.606	0.0144604
733.684	0.0145797
733.762	0.0143908
733.840	0.0144193
733.918	0.0145975
733.996	0.0145595
734.075	0.0144872
734.153	0.0144904
734.231	0.0145319
734.309	0.0143716
734.387	0.0144302
734.465	0.0144681
734.543	0.0145517
734.621	0.0145098
734.700	0.0144350
734.778	0.0143784
734.856	0.0144273
734.934	0.0145812
735.012	0.0144702
735.090	0.0145524
735.168	0.0144184
735.246	0.0143597
735.325	0.0143212
735.403	0.0144763
735.481	0.0143615
735.559	0.0144235
735.637	0.0143301
735.715	0.0143448
735.793	0.0142513
735.871	0.0144881
735.950	0.0143459
736.028	0.0144096
736.106	0.0142854
736.184	0.0143742
736.262	0.0143306
736.340	0.0144480
736.418	0.0144650
736.496	0.0145289
736.575	0.0146247
736.653	0.0143707
736.731	0.0145159
736.809	0.0145199
736.887	0.0146072
736.965	0.0146073
737.043	0.0145237
737.121	0.0145323
737.200	0.0145589
737.278	0.0144436
737.356	0.0145916
737.434	0.0145340
737.512	0.0147507
737.590	0.0145482
737.668	0.0144705
737.746	0.0145370
737.825	0.0143637
737.903	0.0144262
737.981	0.0144227
738.059	0.0143584
738.137	0.0142882
738.215	0.0144067
738.293	0.0143263
738.371	0.0143328
738.450	0.0143929
738.528	0.0143938
738.606	0.0143139
738.684	0.0143827
738.762	0.0143639
738.840	0.0142546
738.918	0.0142154
738.996	0.0141976
739.075	0.0143176
739.153	0.0142863
739.231	0.0143234
739.309	0.0143719
739.387	0.0144885
739.465	0.0143246
739.543	0.0143582
739.621	0.0144237
739.700	0.0145184
739.778	0.0145101
739.856	0.0145821
739.934	0.0145247
740.012	0.0146048
740.090	0.0146578
740.168	0.0146904
740.246	0.0146379
740.325	0.0146162
740.403	0.0144605
740.481	0.0145803
740.559	0.0145959
740.637	0.0146552
740.715	0.0145977
740.793	0.0145671
740.871	0.0143512
740.950	0.0144885
741.028	0.0145293
741.106	0.0145921
741.184	0.0145056
741.262	0.0144938
741.340	0.0144227
741.418	0.0145258
741.496	0.0145277
741.575	0.0145464
741.653	0.0144711
741.731	0.0145221
741.809	0.0145190
741.887	0.0144598
741.965	0.0145255
742.043	0.0144505
742.121	0.0145556
742.200	0.0144955
742.278	0.0144498
742.356	0.0145613
742.434	0.0145730
742.512	0.0144379
742.590	0.0145763
742.668	0.0144730
742.746	0.0144814
742.825	0.0144588
742.903	0.0144794
742.981	0.0144797
743.059	0.0144186
743.137	0.0145115
743.215	0.0145332
743.293	0.0144204
743.371	0.0144568
743.450	0.0143713
743.528	0.0144505
743.606	0.0144642
743.684	0.0145056
743.762	0.0143909
743.840	0.0144201
743.918	0.0144408
743.996	0.0145122
744.075	0.0145503
744.153	0.0147560
744.231	0.0147782
744.309	0.0146809
744.387	0.0145985
744.465	0.0146929
744.543	0.0146512
744.621	0.0146828
744.700	0.0145990
744.778	0.0144308
744.856	0.0145419
744.934	0.0145888
745.012	0.0144585
745.090	0.0143779
745.168	0.0145306
745.246	0.0146271
745.325	0.0145322
745.403	0.0143415
745.481	0.0145063
745.559	0.0144505
745.637	0.0145245
745.715	0.0146019
745.793	0.0144592
745.871	0.0143876
745.950	0.0143958
746.028	0.0144806
746.106	0.0144181
746.184	0.0145294
746.262	0.0145415
746.340	0.0144333
746.418	0.0143305
746.496	0.0143803
746.575	0.0144865
746.653	0.0144490
746.731	0.0144167
746.809	0.0144044
746.887	0.0143568
746.965	0.0144117
747.043	0.0144321
747.121	0.0144205
747.200	0.0144556
747.278	0.0144596
747.356	0.0144572
747.434	0.0144891
747.512	0.0144250
747.590	0.0145800
747.668	0.0146786
747.746	0.0146069
747.825	0.0146060
747.903	0.0146246
747.981	0.0145052
748.059	0.0144690
748.137	0.0147468
748.215	0.0146497
748.293	0.0145516
748.371	0.0143813
748.450	0.0145511
748.528	0.0145895
748.606	0.0144370
748.684	0.0144556
748.762	0.0144250
748.840	0.0144970
748.918	0.0142878
748.996	0.0144251
749.075	0.0143748
749.153	0.0143577
749.231	0.0144495
749.309	0.0143559
749.387	0.0143877
749.465	0.0142918
749.543	0.0143069
749.621	0.0144012
749.700	0.0143392
749.778	0.0143240
749.856	0.0143938
749.934	0.0143478
750.012	0.0143318
750.090	0.0143422
750.168	0.0144283
750.246	0.0144297
750.325	0.0145282
750.403	0.0144775
750.481	0.0146068
750.559	0.0144987
750.637	0.0145860
750.715	0.0146100
750.793	0.0145917
750.871	0.0145399
750.950	0.0143693
751.028	0.0145114
751.106	0.0144324
751.184	0.0145087
751.262	0.0143283
751.340	0.0144077
751.418	0.0143838
751.496	0.0143042
751.575	0.0143403
751.653	0.0143365
751.731	0.0143724
751.809	0.0145335
751.887	0.0144400
751.965	0.0142774
752.043	0.0145460
752.121	0.0145395
752.200	0.0144716
752.278	0.0146181
752.356	0.0146195
752.434	0.0145979
752.512	0.0144923
752.590	0.0145464
752.668	0.0145712
752.746	0.0145624
752.825	0.0145851
752.903	0.0146204
752.981	0.0144347
753.059	0.0144901
753.137	0.0144514
753.215	0.0143347
753.293	0.0144328
753.371	0.0144788
753.450	0.0144591
753.528	0.0143345
753.606	0.0144196
753.684	0.0143859
753.762	0.0142747
753.840	0.0143619
753.918	0.0143666
753.996	0.0145874
754.075	0.0144270
754.153	0.0143771
754.231	0.0143763
754.309	0.0144253
754.387	0.0142407
754.465	0.0144102
754.543	0.0144601
754.621	0.0143894
754.700	0.0145341
754.778	0.0145055
754.856	0.0144630
754.934	0.0144772
755.012	0.0143976
755.090	0.0146394
755.168	0.0142947
755.246	0.0144371
755.325	0.0145494
755.403	0.0144635
755.481	0.0143797
755.559	0.0144303
755.637	0.0143884
755.715	0.0143751
755.793	0.0144167
755.871	0.0144205
755.950	0.0143771
756.028	0.0144516
756.106	0.0144004
756.184	0.0143607
756.262	0.0144135
756.340	0.0143451
756.418	0.0142770
756.496	0.0145040
756.575	0.0144902
756.653	0.0143742
756.731	0.0143359
756.809	0.0144106
756.887	0.0144693
756.965	0.0143198
757.043	0.0144798
757.121	0.0144244
757.200	0.0144726
757.278	0.0145134
757.356	0.0144937
757.434	0.0145148
757.512	0.0144411
757.590	0.0144597
757.668	0.0145110
757.746	0.0146341
757.825	0.0143388
757.903	0.0145825
757.981	0.0145222
758.059	0.0145179
758.137	0.0144386
758.215	0.0144830
758.293	0.0144965
758.371	0.0145079
758.450	0.0144415
758.528	0.0145548
758.606	0.0144219
758.684	0.0144786
758.762	0.0144144
758.840	0.0144841
758.918	0.0144217
758.996	0.0144312
759.075	0.0143511
759.153	0.0145620
759.231	0.0144186
759.309	0.0144014
759.387	0.0143831
759.465	0.0142850
759.543	0.0145216
759.621	0.0144011
759.700	0.0143797
759.778	0.0144172
759.856	0.0143703
759.934	0.0144845
760.012	0.0144558
760.090	0.0144915
760.168	0.0146216
760.246	0.0144478
760.325	0.0143913
760.403	0.0144216
760.481	0.0145163
760.559	0.0144661
760.637	0.0143498
760.715	0.0144110
760.793	0.0144628
760.871	0.0144257
760.950	0.0144055
761.028	0.0143486
761.106	0.0144570
761.184	0.0145312
761.262	0.0145209
761.340	0.0145074
761.418	0.0145636
761.496	0.0145200
761.575	0.0144601
761.653	0.0144783
761.731	0.0145046
761.809	0.0145790
761.887	0.0145585
761.965	0.0145277
762.043	0.0145712
762.121	0.0144954
762.200	0.0144283
762.278	0.0144293
762.356	0.0143379
762.434	0.0143787
762.512	0.0144749
762.590	0.0144698
762.668	0.0143557
762.746	0.0144357
762.825	0.0143868
762.903	0.0144263
762.981	0.0144286
763.059	0.0144616
763.137	0.0144846
763.215	0.0143680
763.293	0.0143653
763.371	0.0143716
763.450	0.0144834
763.528	0.0143353
763.606	0.0143690
763.684	0.0143869
763.762	0.0144459
763.840	0.0143603
763.918	0.0143257
763.996	0.0143697
764.075	0.0144411
764.153	0.0144222
764.231	0.0144311
764.309	0.0143855
764.387	0.0143836
764.465	0.0143957
764.543	0.0144488
764.621	0.0143716
764.700	0.0144023
