05/04/2022	21:41:29	Ver.	4.1	UNKNOWN
Optical Delay	678.996401	Delta X		0.078125	Sweeps	1	Scan Rate	0/0
Coordinates	Axis 1	NaN	Axis 2	NaN	Axis 3	NaN	Axis 4	NaN	Axis 5	NaN	Axis 6	0.000000
TX Power	0.000000	RX Power	0.000000

678.996	0.0145008
679.075	0.0144877
679.153	0.0145645
679.231	0.0148082
679.309	0.0148917
679.387	0.0149336
679.465	0.0148718
679.543	0.0148165
679.621	0.0145028
679.700	0.0145023
679.778	0.0143934
679.856	0.0143134
679.934	0.0142335
680.012	0.0142339
680.090	0.0142799
680.168	0.0143197
680.246	0.0142957
680.325	0.0143793
680.403	0.0145539
680.481	0.0145995
680.559	0.0146516
680.637	0.0146922
680.715	0.0147545
680.793	0.0147054
680.871	0.0147449
680.950	0.0149392
681.028	0.0149143
681.106	0.0147786
681.184	0.0149107
681.262	0.0147906
681.340	0.0147842
681.418	0.0146968
681.496	0.0146487
681.575	0.0144820
681.653	0.0144508
681.731	0.0144559
681.809	0.0141925
681.887	0.0142828
681.965	0.0142579
682.043	0.0142072
682.121	0.0143743
682.200	0.0145496
682.278	0.0146404
682.356	0.0147302
682.434	0.0149368
682.512	0.0149250
682.590	0.0151540
682.668	0.0153059
682.746	0.0153195
682.825	0.0153239
682.903	0.0152105
682.981	0.0150769
683.059	0.0148585
683.137	0.0146057
683.215	0.0142809
683.293	0.0139642
683.371	0.0136831
683.450	0.0134155
683.528	0.0132890
683.606	0.0131713
683.684	0.0131794
683.762	0.0132686
683.840	0.0134031
683.918	0.0135802
683.996	0.0139621
684.075	0.0143825
684.153	0.0146526
684.231	0.0150345
684.309	0.0154621
684.387	0.0155442
684.465	0.0156339
684.543	0.0157179
684.621	0.0158213
684.700	0.0155279
684.778	0.0153955
684.856	0.0151305
684.934	0.0149348
685.012	0.0146949
685.090	0.0144813
685.168	0.0142746
685.246	0.0142695
685.325	0.0141460
685.403	0.0142120
685.481	0.0143060
685.559	0.0143744
685.637	0.0145112
685.715	0.0145792
685.793	0.0146163
685.871	0.0145161
685.950	0.0145739
686.028	0.0145908
686.106	0.0144798
686.184	0.0142536
686.262	0.0140955
686.340	0.0139279
686.418	0.0137577
686.496	0.0135004
686.575	0.0133939
686.653	0.0134323
686.731	0.0135818
686.809	0.0135835
686.887	0.0138751
686.965	0.0142023
687.043	0.0144265
687.121	0.0148502
687.200	0.0151118
687.278	0.0155855
687.356	0.0156966
687.434	0.0157658
687.512	0.0159983
687.590	0.0159839
687.668	0.0157597
687.746	0.0155820
687.825	0.0153790
687.903	0.0150169
687.981	0.0146322
688.059	0.0144488
688.137	0.0142194
688.215	0.0139235
688.293	0.0137516
688.371	0.0137003
688.450	0.0135215
688.528	0.0137043
688.606	0.0136758
688.684	0.0137106
688.762	0.0136789
688.840	0.0139837
688.918	0.0140559
688.996	0.0142171
689.075	0.0144027
689.153	0.0144273
689.231	0.0143166
689.309	0.0142867
689.387	0.0141738
689.465	0.0141545
689.543	0.0143307
689.621	0.0142224
689.700	0.0144206
689.778	0.0141506
689.856	0.0142549
689.934	0.0141828
690.012	0.0143700
690.090	0.0146050
690.168	0.0146125
690.246	0.0146603
690.325	0.0146675
690.403	0.0148944
690.481	0.0149358
690.559	0.0150836
690.637	0.0151579
690.715	0.0151588
690.793	0.0151312
690.871	0.0149521
690.950	0.0149291
691.028	0.0149407
691.106	0.0146188
691.184	0.0145410
691.262	0.0144828
691.340	0.0143412
691.418	0.0142036
691.496	0.0141822
691.575	0.0142995
691.653	0.0142388
691.731	0.0142245
691.809	0.0143805
691.887	0.0143567
691.965	0.0145277
692.043	0.0144682
692.121	0.0142847
692.200	0.0145051
692.278	0.0143652
692.356	0.0142357
692.434	0.0142311
692.512	0.0143185
692.590	0.0142165
692.668	0.0143380
692.746	0.0142684
692.825	0.0143769
692.903	0.0143217
692.981	0.0142853
693.059	0.0143100
693.137	0.0143728
693.215	0.0144611
693.293	0.0144326
693.371	0.0144189
693.450	0.0143851
693.528	0.0144759
693.606	0.0144511
693.684	0.0143147
693.762	0.0143895
693.840	0.0143696
693.918	0.0144324
693.996	0.0144373
694.075	0.0142602
694.153	0.0145695
694.231	0.0144388
694.309	0.0147139
694.387	0.0147554
694.465	0.0147972
694.543	0.0148356
694.621	0.0150953
694.700	0.0151648
694.778	0.0150490
694.856	0.0150781
694.934	0.0148956
695.012	0.0147260
695.090	0.0145890
695.168	0.0143510
695.246	0.0142873
695.325	0.0142374
695.403	0.0141048
695.481	0.0138393
695.559	0.0139906
695.637	0.0139876
695.715	0.0140890
695.793	0.0141485
695.871	0.0142842
695.950	0.0144732
696.028	0.0146423
696.106	0.0146246
696.184	0.0147969
696.262	0.0149178
696.340	0.0148495
696.418	0.0148363
696.496	0.0147384
696.575	0.0146290
696.653	0.0146569
696.731	0.0145112
696.809	0.0144703
696.887	0.0145229
696.965	0.0145052
697.043	0.0144508
697.121	0.0144197
697.200	0.0145005
697.278	0.0146122
697.356	0.0146023
697.434	0.0146790
697.512	0.0146933
697.590	0.0146830
697.668	0.0145889
697.746	0.0145142
697.825	0.0146185
697.903	0.0145355
697.981	0.0144466
698.059	0.0145477
698.137	0.0144247
698.215	0.0144714
698.293	0.0143708
698.371	0.0142708
698.450	0.0144340
698.528	0.0146745
698.606	0.0145981
698.684	0.0146521
698.762	0.0149429
698.840	0.0149595
698.918	0.0149311
698.996	0.0149850
699.075	0.0150822
699.153	0.0150645
699.231	0.0150854
699.309	0.0149258
699.387	0.0149398
699.465	0.0146389
699.543	0.0146204
699.621	0.0144769
699.700	0.0143506
699.778	0.0141749
699.856	0.0140282
699.934	0.0139557
700.012	0.0138874
700.090	0.0138921
700.168	0.0138530
700.246	0.0137717
700.325	0.0135662
700.403	0.0136593
700.481	0.0138102
700.559	0.0139919
700.637	0.0139442
700.715	0.0141894
700.793	0.0142937
700.871	0.0143511
700.950	0.0144285
701.028	0.0144933
701.106	0.0147413
701.184	0.0147085
701.262	0.0147576
701.340	0.0149658
701.418	0.0150105
701.496	0.0151068
701.575	0.0152534
701.653	0.0151204
701.731	0.0152306
701.809	0.0153937
701.887	0.0152198
701.965	0.0152035
702.043	0.0152932
702.121	0.0152473
702.200	0.0151850
702.278	0.0151035
702.356	0.0149274
702.434	0.0149377
702.512	0.0147970
702.590	0.0147516
702.668	0.0145776
702.746	0.0144592
702.825	0.0141411
702.903	0.0140715
702.981	0.0139350
703.059	0.0138596
703.137	0.0137150
703.215	0.0136781
703.293	0.0136606
703.371	0.0138248
703.450	0.0139056
703.528	0.0140872
703.606	0.0142044
703.684	0.0145452
703.762	0.0147156
703.840	0.0148170
703.918	0.0150723
703.996	0.0150668
704.075	0.0151321
704.153	0.0152991
704.231	0.0149928
704.309	0.0150707
704.387	0.0150296
704.465	0.0148524
704.543	0.0146923
704.621	0.0146227
704.700	0.0145939
704.778	0.0145245
704.856	0.0146239
704.934	0.0145947
705.012	0.0146320
705.090	0.0146741
705.168	0.0144286
705.246	0.0145245
705.325	0.0144975
705.403	0.0145140
705.481	0.0145216
705.559	0.0144241
705.637	0.0142954
705.715	0.0143722
705.793	0.0144368
705.871	0.0144415
705.950	0.0146092
706.028	0.0146577
706.106	0.0147040
706.184	0.0148163
706.262	0.0148742
706.340	0.0149797
706.418	0.0149151
706.496	0.0148411
706.575	0.0149738
706.653	0.0149944
706.731	0.0150317
706.809	0.0149123
706.887	0.0148979
706.965	0.0147958
707.043	0.0147272
707.121	0.0145560
707.200	0.0143388
707.278	0.0140981
707.356	0.0141211
707.434	0.0139776
707.512	0.0138847
707.590	0.0137698
707.668	0.0136755
707.746	0.0137022
707.825	0.0137988
707.903	0.0140293
707.981	0.0140575
708.059	0.0140932
708.137	0.0142101
708.215	0.0142104
708.293	0.0144156
708.371	0.0146523
708.450	0.0147406
708.528	0.0149358
708.606	0.0148472
708.684	0.0151531
708.762	0.0150062
708.840	0.0151573
708.918	0.0152614
708.996	0.0152354
709.075	0.0151014
709.153	0.0151303
709.231	0.0151260
709.309	0.0147879
709.387	0.0148378
709.465	0.0148797
709.543	0.0149616
709.621	0.0147583
709.700	0.0146323
709.778	0.0144810
709.856	0.0144359
709.934	0.0142529
710.012	0.0141540
710.090	0.0141701
710.168	0.0141464
710.246	0.0139756
710.325	0.0138760
710.403	0.0140123
710.481	0.0141155
710.559	0.0139087
710.637	0.0139774
710.715	0.0141338
710.793	0.0141557
710.871	0.0143461
710.950	0.0144691
711.028	0.0144676
711.106	0.0146198
711.184	0.0145742
711.262	0.0146865
711.340	0.0149024
711.418	0.0147538
711.496	0.0148930
711.575	0.0148900
711.653	0.0148066
711.731	0.0146719
711.809	0.0147372
711.887	0.0147373
711.965	0.0147658
712.043	0.0146233
712.121	0.0145515
712.200	0.0147106
712.278	0.0145847
712.356	0.0144862
712.434	0.0144810
712.512	0.0145840
712.590	0.0144846
712.668	0.0145512
712.746	0.0142672
712.825	0.0142905
712.903	0.0143032
712.981	0.0143145
713.059	0.0143425
713.137	0.0144057
713.215	0.0145044
713.293	0.0145053
713.371	0.0146244
713.450	0.0147710
713.528	0.0146356
713.606	0.0147125
713.684	0.0146725
713.762	0.0145916
713.840	0.0146141
713.918	0.0145681
713.996	0.0145841
714.075	0.0146339
714.153	0.0144615
714.231	0.0144308
714.309	0.0143368
714.387	0.0143783
714.465	0.0143463
714.543	0.0142725
714.621	0.0144006
714.700	0.0142056
714.778	0.0142007
714.856	0.0144086
714.934	0.0143657
715.012	0.0144552
715.090	0.0144658
715.168	0.0145216
715.246	0.0145718
715.325	0.0146502
715.403	0.0145564
715.481	0.0145614
715.559	0.0145651
715.637	0.0145663
715.715	0.0147093
715.793	0.0146320
715.871	0.0146693
715.950	0.0145988
716.028	0.0145232
716.106	0.0146247
716.184	0.0145483
716.262	0.0143507
716.340	0.0144788
716.418	0.0145826
716.496	0.0144346
716.575	0.0144167
716.653	0.0142816
716.731	0.0145205
716.809	0.0144040
716.887	0.0143908
716.965	0.0143204
717.043	0.0142843
717.121	0.0142028
717.200	0.0141752
717.278	0.0140249
717.356	0.0141381
717.434	0.0142177
717.512	0.0142197
717.590	0.0143633
717.668	0.0144018
717.746	0.0143525
717.825	0.0143587
717.903	0.0145384
717.981	0.0146092
718.059	0.0145188
718.137	0.0144920
718.215	0.0147122
718.293	0.0146926
718.371	0.0145885
718.450	0.0145765
718.528	0.0145694
718.606	0.0145232
718.684	0.0144593
718.762	0.0143683
718.840	0.0144244
718.918	0.0142520
718.996	0.0144068
719.075	0.0144244
719.153	0.0143056
719.231	0.0142870
719.309	0.0143128
719.387	0.0144474
719.465	0.0144559
719.543	0.0142974
719.621	0.0144243
719.700	0.0145275
719.778	0.0145912
719.856	0.0145559
719.934	0.0146360
720.012	0.0146700
720.090	0.0147161
720.168	0.0146085
720.246	0.0145863
720.325	0.0146024
720.403	0.0145541
720.481	0.0147446
720.559	0.0147365
720.637	0.0145199
720.715	0.0144874
720.793	0.0143903
720.871	0.0144819
720.950	0.0145010
721.028	0.0143600
721.106	0.0144306
721.184	0.0142935
721.262	0.0141878
721.340	0.0142201
721.418	0.0143214
721.496	0.0141999
721.575	0.0142196
721.653	0.0142358
721.731	0.0142413
721.809	0.0141939
721.887	0.0143595
721.965	0.0144051
722.043	0.0143674
722.121	0.0143801
722.200	0.0143723
722.278	0.0146133
722.356	0.0147313
722.434	0.0147397
722.512	0.0147647
722.590	0.0149290
722.668	0.0149075
722.746	0.0149226
722.825	0.0148460
722.903	0.0149970
722.981	0.0150488
723.059	0.0147979
723.137	0.0149352
723.215	0.0149552
723.293	0.0148777
723.371	0.0145205
723.450	0.0145766
723.528	0.0144508
723.606	0.0144598
723.684	0.0144405
723.762	0.0142339
723.840	0.0143736
723.918	0.0141182
723.996	0.0141892
724.075	0.0141592
724.153	0.0141187
724.231	0.0140310
724.309	0.0140798
724.387	0.0141820
724.465	0.0142436
724.543	0.0140977
724.621	0.0141785
724.700	0.0143598
724.778	0.0144630
724.856	0.0145425
724.934	0.0144872
725.012	0.0145055
725.090	0.0145090
725.168	0.0145537
725.246	0.0146519
725.325	0.0145041
725.403	0.0146471
725.481	0.0146453
725.559	0.0146101
725.637	0.0145251
725.715	0.0145712
725.793	0.0146579
725.871	0.0147195
725.950	0.0146492
726.028	0.0146512
726.106	0.0145815
726.184	0.0144624
726.262	0.0144752
726.340	0.0144614
726.418	0.0145056
726.496	0.0144990
726.575	0.0143940
726.653	0.0143819
726.731	0.0143426
726.809	0.0144427
726.887	0.0144006
726.965	0.0144008
727.043	0.0144702
727.121	0.0145071
727.200	0.0145159
727.278	0.0144416
727.356	0.0145125
727.434	0.0146114
727.512	0.0147328
727.590	0.0146434
727.668	0.0145701
727.746	0.0146770
727.825	0.0146802
727.903	0.0146486
727.981	0.0145488
728.059	0.0145979
728.137	0.0145924
728.215	0.0143724
728.293	0.0145316
728.371	0.0144355
728.450	0.0143661
728.528	0.0145208
728.606	0.0144418
728.684	0.0143290
728.762	0.0144738
728.840	0.0144551
728.918	0.0143603
728.996	0.0143656
729.075	0.0144472
729.153	0.0142489
729.231	0.0144722
729.309	0.0145591
729.387	0.0145137
729.465	0.0143612
729.543	0.0144559
729.621	0.0145786
729.700	0.0145543
729.778	0.0146843
729.856	0.0146304
729.934	0.0146585
730.012	0.0146393
730.090	0.0146509
730.168	0.0147670
730.246	0.0147269
730.325	0.0147986
730.403	0.0149070
730.481	0.0147607
730.559	0.0148096
730.637	0.0148272
730.715	0.0147202
730.793	0.0147526
730.871	0.0145247
730.950	0.0145230
731.028	0.0143207
731.106	0.0144343
731.184	0.0143429
731.262	0.0145069
731.340	0.0144542
731.418	0.0143954
731.496	0.0143722
731.575	0.0144628
731.653	0.0142963
731.731	0.0143533
731.809	0.0143940
731.887	0.0143679
731.965	0.0144547
732.043	0.0143833
732.121	0.0144820
732.200	0.0144921
732.278	0.0144547
732.356	0.0144989
732.434	0.0145674
732.512	0.0145047
732.590	0.0146375
732.668	0.0145512
732.746	0.0146303
732.825	0.0144543
732.903	0.0146651
732.981	0.0146929
733.059	0.0146400
733.137	0.0146227
733.215	0.0147530
733.293	0.0146872
733.371	0.0146507
733.450	0.0148164
733.528	0.0147342
733.606	0.0146291
733.684	0.0146397
733.762	0.0145335
733.840	0.0146519
733.918	0.0146085
733.996	0.0145058
734.075	0.0144592
734.153	0.0143900
734.231	0.0144193
734.309	0.0144896
734.387	0.0143243
734.465	0.0144113
734.543	0.0145038
734.621	0.0144797
734.700	0.0143639
734.778	0.0144565
734.856	0.0144765
734.934	0.0144810
735.012	0.0145909
735.090	0.0146828
735.168	0.0146526
735.246	0.0146391
735.325	0.0146328
735.403	0.0145785
735.481	0.0147157
735.559	0.0146870
735.637	0.0146709
735.715	0.0146764
735.793	0.0146026
735.871	0.0145808
735.950	0.0146048
736.028	0.0144955
736.106	0.0143782
736.184	0.0145554
736.262	0.0143777
736.340	0.0142591
736.418	0.0144588
736.496	0.0144312
736.575	0.0144324
736.653	0.0144363
736.731	0.0144960
736.809	0.0145412
736.887	0.0144091
736.965	0.0144032
737.043	0.0145695
737.121	0.0146676
737.200	0.0145083
737.278	0.0146317
737.356	0.0145456
737.434	0.0145683
737.512	0.0146364
737.590	0.0146023
737.668	0.0146659
737.746	0.0146008
737.825	0.0147908
737.903	0.0147350
737.981	0.0147728
738.059	0.0147477
738.137	0.0146684
738.215	0.0145657
738.293	0.0145674
738.371	0.0144867
738.450	0.0144673
738.528	0.0144259
738.606	0.0145908
738.684	0.0144475
738.762	0.0144023
738.840	0.0143895
738.918	0.0144884
738.996	0.0142834
739.075	0.0142757
739.153	0.0143005
739.231	0.0144303
739.309	0.0143900
739.387	0.0144402
739.465	0.0143246
739.543	0.0144658
739.621	0.0144482
739.700	0.0144015
739.778	0.0145152
739.856	0.0144498
739.934	0.0145825
740.012	0.0144190
740.090	0.0144626
740.168	0.0145844
740.246	0.0145222
740.325	0.0146482
740.403	0.0146564
740.481	0.0145180
740.559	0.0145158
740.637	0.0145986
740.715	0.0146500
740.793	0.0145551
740.871	0.0145475
740.950	0.0146559
741.028	0.0147456
741.106	0.0146174
741.184	0.0144702
741.262	0.0144468
741.340	0.0144908
741.418	0.0143988
741.496	0.0144912
741.575	0.0143479
741.653	0.0143742
741.731	0.0143774
741.809	0.0141822
741.887	0.0141843
741.965	0.0142638
742.043	0.0142768
742.121	0.0143408
742.200	0.0143185
742.278	0.0143084
742.356	0.0144613
742.434	0.0142046
742.512	0.0145378
742.590	0.0142355
742.668	0.0143655
742.746	0.0143867
742.825	0.0143189
742.903	0.0143964
742.981	0.0144164
743.059	0.0144708
743.137	0.0143323
743.215	0.0143798
743.293	0.0144650
743.371	0.0145219
743.450	0.0145239
743.528	0.0145392
743.606	0.0144836
743.684	0.0144938
743.762	0.0143977
743.840	0.0144714
743.918	0.0145153
743.996	0.0145261
744.075	0.0144322
744.153	0.0143167
744.231	0.0144243
744.309	0.0144561
744.387	0.0144521
744.465	0.0145008
744.543	0.0143050
744.621	0.0143708
744.700	0.0142738
744.778	0.0143064
744.856	0.0143253
744.934	0.0144153
745.012	0.0144804
745.090	0.0144398
745.168	0.0143664
745.246	0.0142406
745.325	0.0143839
745.403	0.0143890
745.481	0.0143889
745.559	0.0144472
745.637	0.0143948
745.715	0.0145074
745.793	0.0144703
745.871	0.0144316
745.950	0.0144866
746.028	0.0145444
746.106	0.0145493
746.184	0.0144674
746.262	0.0145210
746.340	0.0145614
746.418	0.0145703
746.496	0.0144227
746.575	0.0144630
746.653	0.0144910
746.731	0.0144698
746.809	0.0144411
746.887	0.0144934
746.965	0.0143768
747.043	0.0144902
747.121	0.0145275
747.200	0.0143237
747.278	0.0142686
747.356	0.0144183
747.434	0.0144357
747.512	0.0145958
747.590	0.0145997
747.668	0.0145094
747.746	0.0145439
747.825	0.0145026
747.903	0.0145981
747.981	0.0145793
748.059	0.0146147
748.137	0.0146763
748.215	0.0147108
748.293	0.0147213
748.371	0.0146246
748.450	0.0146572
748.528	0.0146408
748.606	0.0145817
748.684	0.0146675
748.762	0.0147432
748.840	0.0145753
748.918	0.0144869
748.996	0.0144500
749.075	0.0144385
749.153	0.0145794
749.231	0.0145127
749.309	0.0144043
749.387	0.0143108
749.465	0.0143475
749.543	0.0143121
749.621	0.0143618
749.700	0.0144310
749.778	0.0144613
749.856	0.0145346
749.934	0.0144144
750.012	0.0144450
750.090	0.0143778
750.168	0.0144931
750.246	0.0145099
750.325	0.0145377
750.403	0.0144730
750.481	0.0146108
750.559	0.0145895
750.637	0.0146723
750.715	0.0146899
750.793	0.0147619
750.871	0.0146935
750.950	0.0145040
751.028	0.0146606
751.106	0.0148361
751.184	0.0146348
751.262	0.0147568
751.340	0.0145355
751.418	0.0145718
751.496	0.0147302
751.575	0.0146382
751.653	0.0145971
751.731	0.0146241
751.809	0.0145338
751.887	0.0143755
751.965	0.0145215
752.043	0.0145219
752.121	0.0143296
752.200	0.0143835
752.278	0.0143672
752.356	0.0144797
752.434	0.0144297
752.512	0.0145788
752.590	0.0146933
752.668	0.0144357
752.746	0.0145476
752.825	0.0144753
752.903	0.0145345
752.981	0.0145334
753.059	0.0146372
753.137	0.0145963
753.215	0.0145390
753.293	0.0143915
753.371	0.0145795
753.450	0.0146954
753.528	0.0145142
753.606	0.0145159
753.684	0.0144939
753.762	0.0146752
753.840	0.0144876
753.918	0.0143967
753.996	0.0145709
754.075	0.0145193
754.153	0.0143978
754.231	0.0145124
754.309	0.0144556
754.387	0.0144824
754.465	0.0143918
754.543	0.0145446
754.621	0.0146192
754.700	0.0144243
754.778	0.0142876
754.856	0.0142966
754.934	0.0144519
755.012	0.0145083
755.090	0.0145776
755.168	0.0143723
755.246	0.0143997
755.325	0.0145163
755.403	0.0144638
755.481	0.0145923
755.559	0.0146434
755.637	0.0145250
755.715	0.0146743
755.793	0.0145607
755.871	0.0145200
755.950	0.0145901
756.028	0.0146493
756.106	0.0146320
756.184	0.0145490
756.262	0.0145400
756.340	0.0144743
756.418	0.0145590
756.496	0.0146079
756.575	0.0145507
756.653	0.0145103
756.731	0.0144231
756.809	0.0144990
756.887	0.0145627
756.965	0.0144090
757.043	0.0144393
757.121	0.0145206
757.200	0.0145904
757.278	0.0143903
757.356	0.0144859
757.434	0.0144496
757.512	0.0144913
757.590	0.0143267
757.668	0.0144973
757.746	0.0145418
757.825	0.0144153
757.903	0.0145798
757.981	0.0145659
758.059	0.0144726
758.137	0.0144518
758.215	0.0145953
758.293	0.0145740
758.371	0.0144882
758.450	0.0146436
758.528	0.0146935
758.606	0.0146130
758.684	0.0145255
758.762	0.0146116
758.840	0.0145341
758.918	0.0145874
758.996	0.0145178
759.075	0.0146336
759.153	0.0145335
759.231	0.0145760
759.309	0.0145068
759.387	0.0146111
759.465	0.0144281
759.543	0.0145048
759.621	0.0145064
759.700	0.0144268
759.778	0.0144131
759.856	0.0144434
759.934	0.0145264
760.012	0.0145201
760.090	0.0144144
760.168	0.0143892
760.246	0.0143494
760.325	0.0145322
760.403	0.0145313
760.481	0.0145417
760.559	0.0146061
760.637	0.0146004
760.715	0.0144997
760.793	0.0144107
760.871	0.0145739
760.950	0.0147245
761.028	0.0145879
761.106	0.0145819
761.184	0.0146259
761.262	0.0145821
761.340	0.0147307
761.418	0.0145998
761.496	0.0146162
761.575	0.0146331
761.653	0.0145774
761.731	0.0145956
761.809	0.0145551
761.887	0.0146339
761.965	0.0144775
762.043	0.0146925
762.121	0.0146549
762.200	0.0145123
762.278	0.0145641
762.356	0.0145010
762.434	0.0143963
762.512	0.0144464
762.590	0.0146260
762.668	0.0143547
762.746	0.0144746
762.825	0.0144662
762.903	0.0145022
762.981	0.0144417
763.059	0.0144562
763.137	0.0145451
763.215	0.0145078
763.293	0.0145442
763.371	0.0145657
763.450	0.0145645
763.528	0.0145799
763.606	0.0144476
763.684	0.0145113
763.762	0.0147407
763.840	0.0144160
763.918	0.0145116
763.996	0.0147601
764.075	0.0145494
764.153	0.0144837
764.231	0.0144781
764.309	0.0145555
764.387	0.0145066
764.465	0.0144257
764.543	0.0144475
764.621	0.0142462
764.700	0.0143614
