05/04/2022	21:41:49	Ver.	4.1	UNKNOWN
Optical Delay	678.989730	Delta X		0.078125	Sweeps	1	Scan Rate	0/0
Coordinates	Axis 1	NaN	Axis 2	NaN	Axis 3	NaN	Axis 4	NaN	Axis 5	NaN	Axis 6	0.000000
TX Power	0.000000	RX Power	0.000000

678.990	0.0146722
679.068	0.0146082
679.146	0.0146418
679.224	0.0147926
679.302	0.0148463
679.380	0.0148545
679.458	0.0148099
679.537	0.0147184
679.615	0.0147314
679.693	0.0146439
679.771	0.0145836
679.849	0.0145181
679.927	0.0143817
680.005	0.0144048
680.083	0.0144955
680.162	0.0144569
680.240	0.0145348
680.318	0.0145826
680.396	0.0147150
680.474	0.0149441
680.552	0.0148391
680.630	0.0147461
680.708	0.0148698
680.787	0.0147954
680.865	0.0148499
680.943	0.0149525
681.021	0.0148361
681.099	0.0149221
681.177	0.0148582
681.255	0.0148524
681.333	0.0147831
681.412	0.0148529
681.490	0.0148375
681.568	0.0146722
681.646	0.0144576
681.724	0.0144286
681.802	0.0142689
681.880	0.0141705
681.958	0.0144164
682.037	0.0144971
682.115	0.0144177
682.193	0.0144286
682.271	0.0147029
682.349	0.0149459
682.427	0.0149885
682.505	0.0150303
682.583	0.0152538
682.662	0.0153593
682.740	0.0154930
682.818	0.0154575
682.896	0.0154009
682.974	0.0153312
683.052	0.0148546
683.130	0.0147449
683.208	0.0144631
683.287	0.0141390
683.365	0.0139481
683.443	0.0135738
683.521	0.0132737
683.599	0.0132992
683.677	0.0132953
683.755	0.0132898
683.833	0.0134578
683.912	0.0137767
683.990	0.0140444
684.068	0.0145562
684.146	0.0150257
684.224	0.0153435
684.302	0.0154763
684.380	0.0158313
684.458	0.0160825
684.537	0.0161348
684.615	0.0158949
684.693	0.0158337
684.771	0.0155507
684.849	0.0152769
684.927	0.0150108
685.005	0.0147221
685.083	0.0144958
685.162	0.0144202
685.240	0.0143768
685.318	0.0142747
685.396	0.0144022
685.474	0.0145141
685.552	0.0146938
685.630	0.0145909
685.708	0.0147618
685.787	0.0147800
685.865	0.0148119
685.943	0.0148644
686.021	0.0147084
686.099	0.0145647
686.177	0.0143977
686.255	0.0142979
686.333	0.0139916
686.412	0.0139049
686.490	0.0138137
686.568	0.0135896
686.646	0.0135773
686.724	0.0138117
686.802	0.0139699
686.880	0.0140151
686.958	0.0143824
687.037	0.0147107
687.115	0.0149594
687.193	0.0152124
687.271	0.0155499
687.349	0.0159330
687.427	0.0160423
687.505	0.0159600
687.583	0.0160635
687.662	0.0160622
687.740	0.0158035
687.818	0.0155006
687.896	0.0152708
687.974	0.0148689
688.052	0.0146111
688.130	0.0143677
688.208	0.0140952
688.287	0.0137905
688.365	0.0139430
688.443	0.0138425
688.521	0.0137354
688.599	0.0137212
688.677	0.0137652
688.755	0.0139491
688.833	0.0139534
688.912	0.0141454
688.990	0.0142786
689.068	0.0143491
689.146	0.0143013
689.224	0.0143673
689.302	0.0143333
689.380	0.0143324
689.458	0.0144013
689.537	0.0143176
689.615	0.0143780
689.693	0.0146006
689.771	0.0146128
689.849	0.0144896
689.927	0.0145850
690.005	0.0147171
690.083	0.0148325
690.162	0.0149813
690.240	0.0148933
690.318	0.0148923
690.396	0.0150349
690.474	0.0151701
690.552	0.0152328
690.630	0.0152372
690.708	0.0152582
690.787	0.0150246
690.865	0.0151147
690.943	0.0149988
691.021	0.0147748
691.099	0.0147272
691.177	0.0146178
691.255	0.0145628
691.333	0.0144063
691.412	0.0145572
691.490	0.0142167
691.568	0.0142384
691.646	0.0142504
691.724	0.0143194
691.802	0.0145341
691.880	0.0145123
691.958	0.0145848
692.037	0.0145708
692.115	0.0145214
692.193	0.0147072
692.271	0.0145918
692.349	0.0145180
692.427	0.0144068
692.505	0.0144048
692.583	0.0144527
692.662	0.0142463
692.740	0.0143475
692.818	0.0143976
692.896	0.0143101
692.974	0.0144342
693.052	0.0145469
693.130	0.0146276
693.208	0.0147528
693.287	0.0146373
693.365	0.0147918
693.443	0.0148643
693.521	0.0148415
693.599	0.0146514
693.677	0.0145055
693.755	0.0145324
693.833	0.0144830
693.912	0.0144010
693.990	0.0143140
694.068	0.0143379
694.146	0.0144568
694.224	0.0144818
694.302	0.0144253
694.380	0.0146127
694.458	0.0147740
694.537	0.0149475
694.615	0.0150771
694.693	0.0152342
694.771	0.0153648
694.849	0.0153708
694.927	0.0153412
695.005	0.0152684
695.083	0.0151395
695.162	0.0147940
695.240	0.0145425
695.318	0.0143900
695.396	0.0141335
695.474	0.0140718
695.552	0.0138888
695.630	0.0139420
695.708	0.0139550
695.787	0.0139945
695.865	0.0140356
695.943	0.0142609
696.021	0.0144750
696.099	0.0146513
696.177	0.0148040
696.255	0.0149586
696.333	0.0149158
696.412	0.0150889
696.490	0.0150658
696.568	0.0152200
696.646	0.0149321
696.724	0.0146527
696.802	0.0147795
696.880	0.0146020
696.958	0.0145252
697.037	0.0144318
697.115	0.0143868
697.193	0.0143751
697.271	0.0144296
697.349	0.0145441
697.427	0.0146395
697.505	0.0148367
697.583	0.0148223
697.662	0.0149323
697.740	0.0148144
697.818	0.0148233
697.896	0.0147068
697.974	0.0147118
698.052	0.0146387
698.130	0.0144636
698.208	0.0144973
698.287	0.0145119
698.365	0.0141586
698.443	0.0141505
698.521	0.0143008
698.599	0.0146062
698.677	0.0146195
698.755	0.0145991
698.833	0.0145959
698.912	0.0148561
698.990	0.0149401
699.068	0.0151781
699.146	0.0151588
699.224	0.0152344
699.302	0.0151710
699.380	0.0152029
699.458	0.0149081
699.537	0.0148100
699.615	0.0148981
699.693	0.0146381
699.771	0.0144241
699.849	0.0143459
699.927	0.0141887
700.005	0.0141473
700.083	0.0141396
700.162	0.0139187
700.240	0.0139342
700.318	0.0139014
700.396	0.0139715
700.474	0.0139742
700.552	0.0140667
700.630	0.0141650
700.708	0.0142429
700.787	0.0143299
700.865	0.0143754
700.943	0.0144681
701.021	0.0146817
701.099	0.0146861
701.177	0.0149260
701.255	0.0147656
701.333	0.0150522
701.412	0.0150970
701.490	0.0150821
701.568	0.0151431
701.646	0.0153957
701.724	0.0154060
701.802	0.0153387
701.880	0.0154632
701.958	0.0154354
702.037	0.0152148
702.115	0.0153742
702.193	0.0153671
702.271	0.0152085
702.349	0.0152152
702.427	0.0150657
702.505	0.0148610
702.583	0.0147723
702.662	0.0147119
702.740	0.0145238
702.818	0.0143378
702.896	0.0142943
702.974	0.0141130
703.052	0.0140244
703.130	0.0138540
703.208	0.0139073
703.287	0.0138072
703.365	0.0138826
703.443	0.0139561
703.521	0.0140997
703.599	0.0143220
703.677	0.0145638
703.755	0.0147734
703.833	0.0147694
703.912	0.0148051
703.990	0.0148491
704.068	0.0150858
704.146	0.0150613
704.224	0.0151055
704.302	0.0150500
704.380	0.0149934
704.458	0.0148159
704.537	0.0148631
704.615	0.0146912
704.693	0.0146020
704.771	0.0147447
704.849	0.0146643
704.927	0.0145824
705.005	0.0146609
705.083	0.0146844
705.162	0.0147124
705.240	0.0145605
705.318	0.0147511
705.396	0.0146809
705.474	0.0145383
705.552	0.0144934
705.630	0.0145354
705.708	0.0144610
705.787	0.0143447
705.865	0.0144898
705.943	0.0145518
706.021	0.0146819
706.099	0.0148824
706.177	0.0147472
706.255	0.0148986
706.333	0.0148965
706.412	0.0150108
706.490	0.0149146
706.568	0.0149131
706.646	0.0149778
706.724	0.0149236
706.802	0.0149946
706.880	0.0148056
706.958	0.0147110
707.037	0.0148282
707.115	0.0146667
707.193	0.0146135
707.271	0.0144179
707.349	0.0143863
707.427	0.0142870
707.505	0.0142159
707.583	0.0140842
707.662	0.0140256
707.740	0.0139034
707.818	0.0140646
707.896	0.0139291
707.974	0.0140347
708.052	0.0141614
708.130	0.0143131
708.208	0.0143705
708.287	0.0144849
708.365	0.0146571
708.443	0.0147985
708.521	0.0149263
708.599	0.0150806
708.677	0.0151070
708.755	0.0149659
708.833	0.0150544
708.912	0.0151007
708.990	0.0151795
709.068	0.0152245
709.146	0.0151997
709.224	0.0151083
709.302	0.0151633
709.380	0.0149994
709.458	0.0147809
709.537	0.0148923
709.615	0.0148460
709.693	0.0147161
709.771	0.0146094
709.849	0.0145236
709.927	0.0145595
710.005	0.0144901
710.083	0.0142985
710.162	0.0142893
710.240	0.0142590
710.318	0.0140353
710.396	0.0141159
710.474	0.0141438
710.552	0.0141419
710.630	0.0140657
710.708	0.0141227
710.787	0.0142197
710.865	0.0142094
710.943	0.0144250
711.021	0.0144659
711.099	0.0145023
711.177	0.0146526
711.255	0.0147887
711.333	0.0146467
711.412	0.0148113
711.490	0.0147807
711.568	0.0147225
711.646	0.0148269
711.724	0.0147387
711.802	0.0147575
711.880	0.0147945
711.958	0.0146777
712.037	0.0147427
712.115	0.0148219
712.193	0.0147657
712.271	0.0147047
712.349	0.0145824
712.427	0.0146613
712.505	0.0146759
712.583	0.0146085
712.662	0.0145885
712.740	0.0143768
712.818	0.0145153
712.896	0.0145673
712.974	0.0144767
713.052	0.0144077
713.130	0.0144389
713.208	0.0144833
713.287	0.0145206
713.365	0.0145404
713.443	0.0146869
713.521	0.0147594
713.599	0.0147155
713.677	0.0146223
713.755	0.0147229
713.833	0.0147847
713.912	0.0146372
713.990	0.0146369
714.068	0.0146854
714.146	0.0144881
714.224	0.0144529
714.302	0.0145582
714.380	0.0145296
714.458	0.0143446
714.537	0.0143057
714.615	0.0144351
714.693	0.0143348
714.771	0.0143746
714.849	0.0143655
714.927	0.0143973
715.005	0.0145448
715.083	0.0146155
715.162	0.0145586
715.240	0.0145870
715.318	0.0147065
715.396	0.0147502
715.474	0.0147456
715.552	0.0148351
715.630	0.0148480
715.708	0.0148441
715.787	0.0147117
715.865	0.0147815
715.943	0.0147366
716.021	0.0145969
716.099	0.0145769
716.177	0.0145362
716.255	0.0144628
716.333	0.0145140
716.412	0.0143939
716.490	0.0143700
716.568	0.0144293
716.646	0.0144121
716.724	0.0143909
716.802	0.0144363
716.880	0.0143778
716.958	0.0143324
717.037	0.0143442
717.115	0.0143895
717.193	0.0143060
717.271	0.0143655
717.349	0.0144278
717.427	0.0144252
717.505	0.0144221
717.583	0.0144644
717.662	0.0144670
717.740	0.0144436
717.818	0.0145741
717.896	0.0146434
717.974	0.0148176
718.052	0.0147388
718.130	0.0148363
718.208	0.0148119
718.287	0.0148457
718.365	0.0148458
718.443	0.0149422
718.521	0.0147492
718.599	0.0146706
718.677	0.0147208
718.755	0.0146958
718.833	0.0145084
718.912	0.0146332
718.990	0.0145822
719.068	0.0144053
719.146	0.0145152
719.224	0.0143764
719.302	0.0144284
719.380	0.0144617
719.458	0.0144391
719.537	0.0144015
719.615	0.0145335
719.693	0.0146603
719.771	0.0147247
719.849	0.0145985
719.927	0.0146767
720.005	0.0147041
720.083	0.0147583
720.162	0.0148050
720.240	0.0146748
720.318	0.0148132
720.396	0.0147564
720.474	0.0147450
720.552	0.0147202
720.630	0.0147244
720.708	0.0147231
720.787	0.0146746
720.865	0.0147302
720.943	0.0145199
721.021	0.0145996
721.099	0.0144924
721.177	0.0144781
721.255	0.0145415
721.333	0.0143230
721.412	0.0143795
721.490	0.0142574
721.568	0.0143044
721.646	0.0142007
721.724	0.0142107
721.802	0.0142432
721.880	0.0141842
721.958	0.0141140
722.037	0.0142746
722.115	0.0143600
722.193	0.0144321
722.271	0.0144303
722.349	0.0145799
722.427	0.0146150
722.505	0.0147408
722.583	0.0148677
722.662	0.0147282
722.740	0.0149218
722.818	0.0149488
722.896	0.0149657
722.974	0.0149170
723.052	0.0149270
723.130	0.0148985
723.208	0.0149155
723.287	0.0148704
723.365	0.0148033
723.443	0.0147912
723.521	0.0146881
723.599	0.0145452
723.677	0.0144815
723.755	0.0143742
723.833	0.0143400
723.912	0.0144405
723.990	0.0142498
724.068	0.0142081
724.146	0.0141470
724.224	0.0143536
724.302	0.0142283
724.380	0.0141782
724.458	0.0143443
724.537	0.0142616
724.615	0.0143112
724.693	0.0144365
724.771	0.0144250
724.849	0.0146149
724.927	0.0146278
725.005	0.0146507
725.083	0.0144833
725.162	0.0146660
725.240	0.0146947
725.318	0.0148808
725.396	0.0147857
725.474	0.0148779
725.552	0.0149505
725.630	0.0149213
725.708	0.0149609
725.787	0.0148969
725.865	0.0149718
725.943	0.0150449
726.021	0.0149647
726.099	0.0148368
726.177	0.0149474
726.255	0.0147318
726.333	0.0148114
726.412	0.0147653
726.490	0.0147797
726.568	0.0146053
726.646	0.0146297
726.724	0.0145415
726.802	0.0145170
726.880	0.0146006
726.958	0.0145254
727.037	0.0145403
727.115	0.0146375
727.193	0.0145484
727.271	0.0146355
727.349	0.0148178
727.427	0.0148925
727.505	0.0147905
727.583	0.0148549
727.662	0.0148564
727.740	0.0149080
727.818	0.0148688
727.896	0.0148106
727.974	0.0147333
728.052	0.0147457
728.130	0.0146818
728.208	0.0146353
728.287	0.0145097
728.365	0.0146394
728.443	0.0146706
728.521	0.0144897
728.599	0.0147143
728.677	0.0147108
728.755	0.0146598
728.833	0.0145279
728.912	0.0145341
728.990	0.0145294
729.068	0.0144884
729.146	0.0146108
729.224	0.0145135
729.302	0.0144818
729.380	0.0144995
729.458	0.0146722
729.537	0.0144202
729.615	0.0146503
729.693	0.0144875
729.771	0.0145394
729.849	0.0145480
729.927	0.0146433
730.005	0.0146651
730.083	0.0146532
730.162	0.0149517
730.240	0.0148599
730.318	0.0147684
730.396	0.0148506
730.474	0.0148233
730.552	0.0148382
730.630	0.0148812
730.708	0.0147652
730.787	0.0147507
730.865	0.0147249
730.943	0.0146835
731.021	0.0147733
731.099	0.0145705
731.177	0.0145702
731.255	0.0145272
731.333	0.0144880
731.412	0.0145313
731.490	0.0145033
731.568	0.0144616
731.646	0.0144365
731.724	0.0144596
731.802	0.0145510
731.880	0.0145026
731.958	0.0144454
732.037	0.0144022
732.115	0.0144685
732.193	0.0144455
732.271	0.0143613
732.349	0.0145902
732.427	0.0145534
732.505	0.0145656
732.583	0.0145277
732.662	0.0145985
732.740	0.0145789
732.818	0.0147262
732.896	0.0147815
732.974	0.0147559
733.052	0.0149200
733.130	0.0148360
733.208	0.0148473
733.287	0.0147818
733.365	0.0149959
733.443	0.0150607
733.521	0.0149956
733.599	0.0147876
733.677	0.0149914
733.755	0.0148759
733.833	0.0147997
733.912	0.0147186
733.990	0.0145376
734.068	0.0146538
734.146	0.0146387
734.224	0.0145237
734.302	0.0145316
734.380	0.0145088
734.458	0.0144052
734.537	0.0144136
734.615	0.0144012
734.693	0.0145285
734.771	0.0145922
734.849	0.0144904
734.927	0.0145109
735.005	0.0146407
735.083	0.0146840
735.162	0.0146708
735.240	0.0147631
735.318	0.0147057
735.396	0.0148009
735.474	0.0148783
735.552	0.0147021
735.630	0.0149343
735.708	0.0149050
735.787	0.0146634
735.865	0.0147174
735.943	0.0147793
736.021	0.0147482
736.099	0.0146543
736.177	0.0145914
736.255	0.0146649
736.333	0.0146094
736.412	0.0145856
736.490	0.0146510
736.568	0.0147348
736.646	0.0144218
736.724	0.0144932
736.802	0.0146630
736.880	0.0146200
736.958	0.0146566
737.037	0.0147315
737.115	0.0146474
737.193	0.0145200
737.271	0.0146386
737.349	0.0145945
737.427	0.0146633
737.505	0.0146449
737.583	0.0147303
737.662	0.0148154
737.740	0.0147247
737.818	0.0148190
737.896	0.0147435
737.974	0.0146648
738.052	0.0147548
738.130	0.0147025
738.208	0.0146276
738.287	0.0147398
738.365	0.0146039
738.443	0.0145299
738.521	0.0144938
738.599	0.0145515
738.677	0.0145522
738.755	0.0142942
738.833	0.0143336
738.912	0.0144477
738.990	0.0143353
739.068	0.0145099
739.146	0.0145786
739.224	0.0142635
739.302	0.0144638
739.380	0.0143124
739.458	0.0143304
739.537	0.0144370
739.615	0.0143896
739.693	0.0143640
739.771	0.0142985
739.849	0.0145277
739.927	0.0144662
740.005	0.0143740
740.083	0.0143655
740.162	0.0145899
740.240	0.0144370
740.318	0.0145945
740.396	0.0144922
740.474	0.0144158
740.552	0.0145647
740.630	0.0145805
740.708	0.0144798
740.787	0.0146889
740.865	0.0146774
740.943	0.0145541
741.021	0.0145621
741.099	0.0147145
741.177	0.0146694
741.255	0.0145273
741.333	0.0145606
741.412	0.0146614
741.490	0.0145117
741.568	0.0144360
741.646	0.0144101
741.724	0.0143407
741.802	0.0142766
741.880	0.0143993
741.958	0.0143556
742.037	0.0143610
742.115	0.0144116
742.193	0.0145094
742.271	0.0143863
742.349	0.0143765
742.427	0.0144338
742.505	0.0145585
742.583	0.0144884
742.662	0.0144535
742.740	0.0146281
742.818	0.0145412
742.896	0.0145981
742.974	0.0146625
743.052	0.0145551
743.130	0.0145177
743.208	0.0145402
743.287	0.0146043
743.365	0.0145998
743.443	0.0146918
743.521	0.0145434
743.599	0.0148117
743.677	0.0146261
743.755	0.0146362
743.833	0.0147195
743.912	0.0146703
743.990	0.0146235
744.068	0.0147112
744.146	0.0146701
744.224	0.0146477
744.302	0.0146490
744.380	0.0147305
744.458	0.0146011
744.537	0.0146165
744.615	0.0145880
744.693	0.0144825
744.771	0.0145534
744.849	0.0144439
744.927	0.0145428
745.005	0.0145052
745.083	0.0145876
745.162	0.0144505
745.240	0.0145490
745.318	0.0144889
745.396	0.0146576
745.474	0.0146571
745.552	0.0147237
745.630	0.0147141
745.708	0.0147578
745.787	0.0148404
745.865	0.0146610
745.943	0.0146120
746.021	0.0147838
746.099	0.0147263
746.177	0.0149120
746.255	0.0146512
746.333	0.0146517
746.412	0.0146648
746.490	0.0145522
746.568	0.0147117
746.646	0.0146176
746.724	0.0146611
746.802	0.0146691
746.880	0.0145477
746.958	0.0145191
747.037	0.0146260
747.115	0.0145425
747.193	0.0145191
747.271	0.0144855
747.349	0.0146677
747.427	0.0146446
747.505	0.0145928
747.583	0.0145370
747.662	0.0146233
747.740	0.0147022
747.818	0.0147248
747.896	0.0147354
747.974	0.0147639
748.052	0.0147078
748.130	0.0147798
748.208	0.0147027
748.287	0.0147998
748.365	0.0147474
748.443	0.0148984
748.521	0.0148116
748.599	0.0149247
748.677	0.0148557
748.755	0.0146896
748.833	0.0147176
748.912	0.0147861
748.990	0.0146791
749.068	0.0148318
749.146	0.0146814
749.224	0.0146499
749.302	0.0145931
749.380	0.0145244
749.458	0.0146161
749.537	0.0145616
749.615	0.0145853
749.693	0.0145502
749.771	0.0146220
749.849	0.0145831
749.927	0.0145361
750.005	0.0145245
750.083	0.0145377
750.162	0.0146065
750.240	0.0145296
750.318	0.0144958
750.396	0.0146338
750.474	0.0146667
750.552	0.0147008
750.630	0.0146999
750.708	0.0147446
750.787	0.0146971
750.865	0.0146644
750.943	0.0147959
751.021	0.0148225
751.099	0.0147436
751.177	0.0145652
751.255	0.0147440
751.333	0.0148722
751.412	0.0147956
751.490	0.0146659
751.568	0.0147952
751.646	0.0145798
751.724	0.0145334
751.802	0.0147278
751.880	0.0146994
751.958	0.0146906
752.037	0.0145023
752.115	0.0145321
752.193	0.0145093
752.271	0.0143980
752.349	0.0144705
752.427	0.0144917
752.505	0.0146606
752.583	0.0145914
752.662	0.0144712
752.740	0.0146839
752.818	0.0145756
752.896	0.0145512
752.974	0.0146464
753.052	0.0146323
753.130	0.0145512
753.208	0.0145811
753.287	0.0146210
753.365	0.0145815
753.443	0.0147265
753.521	0.0145935
753.599	0.0146656
753.677	0.0146379
753.755	0.0146004
753.833	0.0146486
753.912	0.0146617
753.990	0.0145778
754.068	0.0145940
754.146	0.0144762
754.224	0.0145234
754.302	0.0146928
754.380	0.0146190
754.458	0.0146191
754.537	0.0146622
754.615	0.0145204
754.693	0.0146250
754.771	0.0146915
754.849	0.0145062
754.927	0.0147095
755.005	0.0146828
755.083	0.0145414
755.162	0.0146267
755.240	0.0146272
755.318	0.0145387
755.396	0.0147290
755.474	0.0145435
755.552	0.0145891
755.630	0.0146593
755.708	0.0147089
755.787	0.0146273
755.865	0.0146602
755.943	0.0145557
756.021	0.0145826
756.099	0.0146741
756.177	0.0147446
756.255	0.0146600
756.333	0.0146052
756.412	0.0145369
756.490	0.0146286
756.568	0.0145959
756.646	0.0145763
756.724	0.0145941
756.802	0.0147231
756.880	0.0147419
756.958	0.0145646
757.037	0.0146426
757.115	0.0146072
757.193	0.0147723
757.271	0.0145660
757.349	0.0144741
757.427	0.0145899
757.505	0.0146262
757.583	0.0145148
757.662	0.0146082
757.740	0.0143962
757.818	0.0146570
757.896	0.0145966
757.974	0.0146639
758.052	0.0145840
758.130	0.0146487
758.208	0.0146753
758.287	0.0146999
758.365	0.0148098
758.443	0.0147753
758.521	0.0146550
758.599	0.0148228
758.677	0.0147686
758.755	0.0146661
758.833	0.0147562
758.912	0.0149105
758.990	0.0147478
759.068	0.0147198
759.146	0.0147247
759.224	0.0147688
759.302	0.0146423
759.380	0.0145694
759.458	0.0146473
759.537	0.0145997
759.615	0.0146689
759.693	0.0146232
759.771	0.0146238
759.849	0.0145833
759.927	0.0145370
760.005	0.0146172
760.083	0.0145931
760.162	0.0145882
760.240	0.0144716
760.318	0.0146120
760.396	0.0146220
760.474	0.0145858
760.552	0.0145675
760.630	0.0145717
760.708	0.0145807
760.787	0.0146024
760.865	0.0145377
760.943	0.0144656
761.021	0.0145213
761.099	0.0147774
761.177	0.0146130
761.255	0.0145312
761.333	0.0145998
761.412	0.0147176
761.490	0.0147406
761.568	0.0146434
761.646	0.0145620
761.724	0.0145940
761.802	0.0147382
761.880	0.0145548
761.958	0.0145477
762.037	0.0145189
762.115	0.0144891
762.193	0.0147230
762.271	0.0146883
762.349	0.0145575
762.427	0.0145234
762.505	0.0144194
762.583	0.0144827
762.662	0.0144810
762.740	0.0145809
762.818	0.0145039
762.896	0.0145338
762.974	0.0144972
763.052	0.0146101
763.130	0.0145691
763.208	0.0145004
763.287	0.0146030
763.365	0.0146269
763.443	0.0146698
763.521	0.0146749
763.599	0.0146877
763.677	0.0145863
763.755	0.0147279
763.833	0.0146517
763.912	0.0146413
763.990	0.0147393
764.068	0.0146049
764.146	0.0146360
764.224	0.0148009
764.302	0.0147684
764.380	0.0146404
764.458	0.0146934
764.537	0.0147356
764.615	0.0147521
764.693	0.0144763
