05/04/2022	21:44:24	Ver.	4.1	UNKNOWN
Optical Delay	630.015849	Delta X		0.078125	Sweeps	1	Scan Rate	0/0
Coordinates	Axis 1	NaN	Axis 2	NaN	Axis 3	NaN	Axis 4	NaN	Axis 5	NaN	Axis 6	0.000000
TX Power	0.000000	RX Power	0.000000

630.016	0.0141679
630.094	0.0142260
630.172	0.0142222
630.250	0.0142209
630.328	0.0140608
630.406	0.0141979
630.485	0.0142682
630.563	0.0142671
630.641	0.0142971
630.719	0.0142958
630.797	0.0142427
630.875	0.0142692
630.953	0.0142114
631.031	0.0141190
631.110	0.0142004
631.188	0.0142425
631.266	0.0141658
631.344	0.0141834
631.422	0.0142329
631.500	0.0142102
631.578	0.0141978
631.656	0.0142179
631.735	0.0141122
631.813	0.0141439
631.891	0.0140425
631.969	0.0141784
632.047	0.0141169
632.125	0.0140479
632.203	0.0141756
632.281	0.0142674
632.360	0.0142152
632.438	0.0141964
632.516	0.0142251
632.594	0.0140555
632.672	0.0141124
632.750	0.0140665
632.828	0.0141707
632.906	0.0142043
632.985	0.0141888
633.063	0.0142647
633.141	0.0140348
633.219	0.0141743
633.297	0.0141932
633.375	0.0141145
633.453	0.0140959
633.531	0.0141987
633.610	0.0141042
633.688	0.0141199
633.766	0.0141052
633.844	0.0141067
633.922	0.0140991
634.000	0.0140896
634.078	0.0140556
634.156	0.0141461
634.235	0.0141200
634.313	0.0140794
634.391	0.0142042
634.469	0.0140389
634.547	0.0140733
634.625	0.0143176
634.703	0.0142075
634.781	0.0141156
634.860	0.0141199
634.938	0.0140401
635.016	0.0141131
635.094	0.0141582
635.172	0.0141492
635.250	0.0141048
635.328	0.0141147
635.406	0.0140570
635.485	0.0141930
635.563	0.0140671
635.641	0.0139005
635.719	0.0140681
635.797	0.0141267
635.875	0.0141978
635.953	0.0141323
636.031	0.0140189
636.110	0.0140997
636.188	0.0141105
636.266	0.0141984
636.344	0.0141724
636.422	0.0140845
636.500	0.0141021
636.578	0.0140963
636.656	0.0140859
636.735	0.0141776
636.813	0.0140611
636.891	0.0140301
636.969	0.0141165
637.047	0.0140958
637.125	0.0140050
637.203	0.0140565
637.281	0.0140759
637.360	0.0140970
637.438	0.0140486
637.516	0.0140146
637.594	0.0140608
637.672	0.0139887
637.750	0.0140232
637.828	0.0140289
637.906	0.0140828
637.985	0.0141324
638.063	0.0140006
638.141	0.0139916
638.219	0.0140407
638.297	0.0138394
638.375	0.0140101
638.453	0.0141291
638.531	0.0141492
638.610	0.0140056
638.688	0.0140350
638.766	0.0140279
638.844	0.0139838
638.922	0.0141512
639.000	0.0141673
639.078	0.0140473
639.156	0.0139889
639.235	0.0141685
639.313	0.0139594
639.391	0.0139560
639.469	0.0139803
639.547	0.0141360
639.625	0.0140696
639.703	0.0141512
639.781	0.0141422
639.860	0.0141434
639.938	0.0141750
640.016	0.0142580
640.094	0.0141380
640.172	0.0140449
640.250	0.0141354
640.328	0.0141932
640.406	0.0141044
640.485	0.0141231
640.563	0.0140678
640.641	0.0141161
640.719	0.0140407
640.797	0.0140955
640.875	0.0143139
640.953	0.0142064
641.031	0.0141565
641.110	0.0141163
641.188	0.0141538
641.266	0.0142607
641.344	0.0141311
641.422	0.0141547
641.500	0.0141378
641.578	0.0142710
641.656	0.0142779
641.735	0.0141835
641.813	0.0143214
641.891	0.0141386
641.969	0.0141735
642.047	0.0142724
642.125	0.0143150
642.203	0.0142770
642.281	0.0143365
642.360	0.0142068
642.438	0.0141553
642.516	0.0143246
642.594	0.0142924
642.672	0.0141929
642.750	0.0142516
642.828	0.0143178
642.906	0.0142188
642.985	0.0141942
643.063	0.0142642
643.141	0.0143902
643.219	0.0144938
643.297	0.0142891
643.375	0.0142450
643.453	0.0142159
643.531	0.0143159
643.610	0.0143776
643.688	0.0141624
643.766	0.0143958
643.844	0.0143490
643.922	0.0143245
644.000	0.0143105
644.078	0.0141753
644.156	0.0141747
644.235	0.0143204
644.313	0.0142188
644.391	0.0142705
644.469	0.0142616
644.547	0.0142516
644.625	0.0142612
644.703	0.0142491
644.781	0.0142703
644.860	0.0142854
644.938	0.0142989
645.016	0.0143367
645.094	0.0142716
645.172	0.0141073
645.250	0.0143266
645.328	0.0143535
645.406	0.0141844
645.485	0.0141630
645.563	0.0142435
645.641	0.0143415
645.719	0.0142655
645.797	0.0142944
645.875	0.0142449
645.953	0.0142681
646.031	0.0142391
646.110	0.0143853
646.188	0.0142440
646.266	0.0142203
646.344	0.0142206
646.422	0.0142392
646.500	0.0143222
646.578	0.0143549
646.656	0.0143005
646.735	0.0142967
646.813	0.0142799
646.891	0.0142038
646.969	0.0142306
647.047	0.0142265
647.125	0.0142789
647.203	0.0141502
647.281	0.0141614
647.360	0.0142655
647.438	0.0141640
647.516	0.0140974
647.594	0.0141727
647.672	0.0142180
647.750	0.0142048
647.828	0.0141959
647.906	0.0141373
647.985	0.0141874
648.063	0.0141507
648.141	0.0140365
648.219	0.0142928
648.297	0.0143306
648.375	0.0141820
648.453	0.0141389
648.531	0.0141602
648.610	0.0141473
648.688	0.0142970
648.766	0.0140808
648.844	0.0141281
648.922	0.0142695
649.000	0.0141672
649.078	0.0140923
649.156	0.0140454
649.235	0.0141631
649.313	0.0142136
649.391	0.0141739
649.469	0.0141167
649.547	0.0140747
649.625	0.0141602
649.703	0.0141661
649.781	0.0140295
649.860	0.0142741
649.938	0.0141626
650.016	0.0141297
650.094	0.0142050
650.172	0.0143114
650.250	0.0141975
650.328	0.0142381
650.406	0.0141132
650.485	0.0141161
650.563	0.0141460
650.641	0.0143269
650.719	0.0142041
650.797	0.0141428
650.875	0.0141507
650.953	0.0142868
651.031	0.0142527
651.110	0.0142597
651.188	0.0141257
651.266	0.0143047
651.344	0.0142538
651.422	0.0142037
651.500	0.0143354
651.578	0.0143394
651.656	0.0143354
651.735	0.0144121
651.813	0.0142652
651.891	0.0142522
651.969	0.0142809
652.047	0.0142916
652.125	0.0142432
652.203	0.0143744
652.281	0.0142122
652.360	0.0142825
652.438	0.0143938
652.516	0.0142115
652.594	0.0142088
652.672	0.0142790
652.750	0.0143143
652.828	0.0142507
652.906	0.0142117
652.985	0.0142783
653.063	0.0144726
653.141	0.0144816
653.219	0.0143022
653.297	0.0142049
653.375	0.0143018
653.453	0.0143114
653.531	0.0143786
653.610	0.0143423
653.688	0.0143922
653.766	0.0143164
653.844	0.0143645
653.922	0.0143491
654.000	0.0142458
654.078	0.0142175
654.156	0.0143514
654.235	0.0143120
654.313	0.0142169
654.391	0.0142464
654.469	0.0142421
654.547	0.0144069
654.625	0.0142107
654.703	0.0142320
654.781	0.0142867
654.860	0.0142216
654.938	0.0142709
655.016	0.0142630
655.094	0.0141861
655.172	0.0143071
655.250	0.0143454
655.328	0.0143082
655.406	0.0141213
655.485	0.0142170
655.563	0.0142673
655.641	0.0142749
655.719	0.0144472
655.797	0.0142522
655.875	0.0140553
655.953	0.0142343
656.031	0.0141924
656.110	0.0141956
656.188	0.0142935
656.266	0.0142249
656.344	0.0142207
656.422	0.0141930
656.500	0.0141537
656.578	0.0142248
656.656	0.0142452
656.735	0.0141995
656.813	0.0143333
656.891	0.0141660
656.969	0.0140723
657.047	0.0141653
657.125	0.0142641
657.203	0.0140631
657.281	0.0141921
657.360	0.0142336
657.438	0.0141170
657.516	0.0141191
657.594	0.0141533
657.672	0.0140372
657.750	0.0140213
657.828	0.0141541
657.906	0.0141117
657.985	0.0140983
658.063	0.0140698
658.141	0.0141756
658.219	0.0142594
658.297	0.0141181
658.375	0.0139845
658.453	0.0141508
658.531	0.0142731
658.610	0.0140385
658.688	0.0141473
658.766	0.0141341
658.844	0.0142439
658.922	0.0142113
659.000	0.0142619
659.078	0.0142513
659.156	0.0141670
659.235	0.0142254
659.313	0.0143006
659.391	0.0142800
659.469	0.0142989
659.547	0.0141830
659.625	0.0141711
659.703	0.0141638
659.781	0.0140983
659.860	0.0141467
659.938	0.0140958
660.016	0.0142287
660.094	0.0141914
660.172	0.0141812
660.250	0.0142226
660.328	0.0140974
660.406	0.0141190
660.485	0.0141566
660.563	0.0141240
660.641	0.0141262
660.719	0.0140628
660.797	0.0141474
660.875	0.0141897
660.953	0.0142970
661.031	0.0141053
661.110	0.0142043
661.188	0.0143191
661.266	0.0143524
661.344	0.0142466
661.422	0.0142812
661.500	0.0141856
661.578	0.0143761
661.656	0.0141331
661.735	0.0141905
661.813	0.0143219
661.891	0.0142476
661.969	0.0141497
662.047	0.0141101
662.125	0.0141241
662.203	0.0141582
662.281	0.0141525
662.360	0.0142007
662.438	0.0141650
662.516	0.0140878
662.594	0.0140723
662.672	0.0142045
662.750	0.0140292
662.828	0.0141570
662.906	0.0141212
662.985	0.0141915
663.063	0.0142205
663.141	0.0141225
663.219	0.0141689
663.297	0.0142861
663.375	0.0141483
663.453	0.0143513
663.531	0.0141872
663.610	0.0141963
663.688	0.0141375
663.766	0.0141219
663.844	0.0140294
663.922	0.0140925
664.000	0.0141513
664.078	0.0140891
664.156	0.0141264
664.235	0.0141892
664.313	0.0142090
664.391	0.0141591
664.469	0.0141159
664.547	0.0140423
664.625	0.0140475
664.703	0.0143179
664.781	0.0143260
664.860	0.0141146
664.938	0.0141134
665.016	0.0142735
665.094	0.0142072
665.172	0.0140680
665.250	0.0141608
665.328	0.0142883
665.406	0.0142928
665.485	0.0141504
665.563	0.0141539
665.641	0.0141402
665.719	0.0141344
665.797	0.0143244
665.875	0.0142477
665.953	0.0143158
666.031	0.0142067
666.110	0.0141965
666.188	0.0141913
666.266	0.0140714
666.344	0.0142116
666.422	0.0141793
666.500	0.0140166
666.578	0.0141566
666.656	0.0140419
666.735	0.0143163
666.813	0.0142229
666.891	0.0142316
666.969	0.0142474
667.047	0.0142498
667.125	0.0142046
667.203	0.0142953
667.281	0.0140854
667.360	0.0142216
667.438	0.0141731
667.516	0.0142231
667.594	0.0143053
667.672	0.0142413
667.750	0.0143004
667.828	0.0142679
667.906	0.0142856
667.985	0.0143405
668.063	0.0142398
668.141	0.0143214
668.219	0.0143806
668.297	0.0142891
668.375	0.0142230
668.453	0.0142574
668.531	0.0144135
668.610	0.0143214
668.688	0.0143454
668.766	0.0144346
668.844	0.0143089
668.922	0.0143461
669.000	0.0142732
669.078	0.0141882
669.156	0.0144175
669.235	0.0143442
669.313	0.0141466
669.391	0.0141700
669.469	0.0141891
669.547	0.0143455
669.625	0.0141022
669.703	0.0139611
669.781	0.0141544
669.860	0.0141551
669.938	0.0139716
670.016	0.0140710
670.094	0.0140185
670.172	0.0141361
670.250	0.0140941
670.328	0.0141573
670.406	0.0142642
670.485	0.0142638
670.563	0.0141715
670.641	0.0142576
670.719	0.0144021
670.797	0.0143879
670.875	0.0143036
670.953	0.0144448
671.031	0.0142061
671.110	0.0142678
671.188	0.0143413
671.266	0.0142593
671.344	0.0142018
671.422	0.0143083
671.500	0.0143359
671.578	0.0141973
671.656	0.0141812
671.735	0.0141679
671.813	0.0143056
671.891	0.0142000
671.969	0.0142417
672.047	0.0143330
672.125	0.0142573
672.203	0.0143643
672.281	0.0141070
672.360	0.0142083
672.438	0.0140768
672.516	0.0140597
672.594	0.0141327
672.672	0.0140972
672.750	0.0140954
672.828	0.0141605
672.906	0.0141846
672.985	0.0142419
673.063	0.0142313
673.141	0.0144830
673.219	0.0143311
673.297	0.0143030
673.375	0.0144782
673.453	0.0144866
673.531	0.0144354
673.610	0.0143177
673.688	0.0142699
673.766	0.0143053
673.844	0.0141405
673.922	0.0140806
674.000	0.0139062
674.078	0.0139450
674.156	0.0138557
674.235	0.0137228
674.313	0.0137036
674.391	0.0137489
674.469	0.0137243
674.547	0.0136510
674.625	0.0140437
674.703	0.0139245
674.781	0.0142135
674.860	0.0144044
674.938	0.0144807
675.016	0.0145599
675.094	0.0146568
675.172	0.0146263
675.250	0.0146435
675.328	0.0145966
675.406	0.0143573
675.485	0.0143623
675.563	0.0142398
675.641	0.0141302
675.719	0.0141386
675.797	0.0138210
675.875	0.0137918
675.953	0.0139302
676.031	0.0140317
676.110	0.0139632
676.188	0.0141431
676.266	0.0142128
676.344	0.0142580
676.422	0.0144641
676.500	0.0145196
676.578	0.0144274
676.656	0.0145805
676.735	0.0145310
676.813	0.0145059
676.891	0.0145615
676.969	0.0145992
677.047	0.0144027
677.125	0.0142240
677.203	0.0141527
677.281	0.0140766
677.360	0.0138762
677.438	0.0137856
677.516	0.0136507
677.594	0.0135654
677.672	0.0136179
677.750	0.0138036
677.828	0.0139519
677.906	0.0138122
677.985	0.0139283
678.063	0.0140240
678.141	0.0143119
678.219	0.0143371
678.297	0.0143085
678.375	0.0144375
678.453	0.0144511
678.531	0.0143999
678.610	0.0145496
678.688	0.0145296
678.766	0.0142742
678.844	0.0144942
678.922	0.0144540
679.000	0.0144698
679.078	0.0142912
679.156	0.0143486
679.235	0.0144641
679.313	0.0141694
679.391	0.0142491
679.469	0.0142348
679.547	0.0140816
679.625	0.0141505
679.703	0.0140821
679.781	0.0141787
679.860	0.0141216
679.938	0.0140894
680.016	0.0140723
680.094	0.0142293
680.172	0.0142775
680.250	0.0143148
680.328	0.0143292
680.406	0.0144405
680.485	0.0141914
680.563	0.0141654
680.641	0.0140996
680.719	0.0138734
680.797	0.0140598
680.875	0.0139565
680.953	0.0137280
681.031	0.0139335
681.110	0.0140541
681.188	0.0140702
681.266	0.0143438
681.344	0.0144933
681.422	0.0146988
681.500	0.0148296
681.578	0.0148140
681.656	0.0149899
681.735	0.0148164
681.813	0.0147787
681.891	0.0146330
681.969	0.0143070
682.047	0.0140768
682.125	0.0138671
682.203	0.0136594
682.281	0.0132893
682.360	0.0133327
682.438	0.0130363
682.516	0.0129959
682.594	0.0128412
682.672	0.0130354
682.750	0.0131511
682.828	0.0133296
682.906	0.0137953
682.985	0.0140317
683.063	0.0142673
683.141	0.0146069
683.219	0.0148643
683.297	0.0149577
683.375	0.0149958
683.453	0.0152127
683.531	0.0152876
683.610	0.0151444
683.688	0.0149310
683.766	0.0147023
683.844	0.0145676
683.922	0.0145021
684.000	0.0143949
684.078	0.0141903
684.156	0.0140976
684.235	0.0140083
684.313	0.0140025
684.391	0.0141225
684.469	0.0142639
684.547	0.0141302
684.625	0.0142696
684.703	0.0143444
684.781	0.0142541
684.860	0.0141348
684.938	0.0139044
685.016	0.0137830
685.094	0.0136553
685.172	0.0135138
685.250	0.0132279
685.328	0.0130032
685.406	0.0132471
685.485	0.0130855
685.563	0.0129686
685.641	0.0131318
685.719	0.0135371
685.797	0.0137299
685.875	0.0138462
685.953	0.0142053
686.031	0.0145497
686.110	0.0148017
686.188	0.0150037
686.266	0.0150608
686.344	0.0152902
686.422	0.0152216
686.500	0.0152299
686.578	0.0150098
686.656	0.0151556
686.735	0.0149490
686.813	0.0147749
686.891	0.0146950
686.969	0.0144563
687.047	0.0140682
687.125	0.0138288
687.203	0.0138487
687.281	0.0136549
687.360	0.0135741
687.438	0.0136514
687.516	0.0135136
687.594	0.0135278
687.672	0.0135625
687.750	0.0135148
687.828	0.0135875
687.906	0.0136576
687.985	0.0135146
688.063	0.0135567
688.141	0.0135984
688.219	0.0134789
688.297	0.0135813
688.375	0.0136171
688.453	0.0137277
688.531	0.0137740
688.610	0.0139716
688.688	0.0140168
688.766	0.0142711
688.844	0.0144193
688.922	0.0146013
689.000	0.0147198
689.078	0.0150185
689.156	0.0150243
689.235	0.0151470
689.313	0.0151401
689.391	0.0151218
689.469	0.0150695
689.547	0.0148602
689.625	0.0148415
689.703	0.0145989
689.781	0.0143874
689.860	0.0142443
689.938	0.0141129
690.016	0.0138864
690.094	0.0136774
690.172	0.0136390
690.250	0.0135559
690.328	0.0135867
690.406	0.0135316
690.485	0.0136762
690.563	0.0137789
690.641	0.0138400
690.719	0.0138732
690.797	0.0139424
690.875	0.0140899
690.953	0.0141853
691.031	0.0141994
691.110	0.0141543
691.188	0.0142421
691.266	0.0140376
691.344	0.0140536
691.422	0.0140965
691.500	0.0142101
691.578	0.0142015
691.656	0.0141659
691.735	0.0141932
691.813	0.0143591
691.891	0.0143218
691.969	0.0143395
692.047	0.0143331
692.125	0.0144247
692.203	0.0141991
692.281	0.0142344
692.360	0.0142851
692.438	0.0142358
692.516	0.0141140
692.594	0.0139470
692.672	0.0139592
692.750	0.0139192
692.828	0.0136928
692.906	0.0136009
692.985	0.0137682
693.063	0.0134692
693.141	0.0135313
693.219	0.0136626
693.297	0.0136945
693.375	0.0137216
693.453	0.0138580
693.531	0.0141347
693.610	0.0142849
693.688	0.0143778
693.766	0.0145310
693.844	0.0146145
693.922	0.0147192
694.000	0.0148252
694.078	0.0149475
694.156	0.0147873
694.235	0.0146562
694.313	0.0145335
694.391	0.0145556
694.469	0.0142799
694.547	0.0139727
694.625	0.0137753
694.703	0.0136331
694.781	0.0134263
694.860	0.0132504
694.938	0.0135013
695.016	0.0133298
695.094	0.0134325
695.172	0.0135812
695.250	0.0136656
695.328	0.0138903
695.406	0.0140194
695.485	0.0141386
695.563	0.0142291
695.641	0.0145709
695.719	0.0145341
695.797	0.0145373
695.875	0.0145207
695.953	0.0144485
696.031	0.0146896
696.110	0.0144371
696.188	0.0142444
696.266	0.0141999
696.344	0.0141969
696.422	0.0141981
696.500	0.0142390
696.578	0.0142822
696.656	0.0142034
696.735	0.0143192
696.813	0.0145940
696.891	0.0145570
696.969	0.0145167
697.047	0.0145587
697.125	0.0144852
697.203	0.0143006
697.281	0.0142110
697.360	0.0141862
697.438	0.0139950
697.516	0.0139111
697.594	0.0139090
697.672	0.0136647
697.750	0.0136797
697.828	0.0136089
697.906	0.0136810
697.985	0.0138614
698.063	0.0139030
698.141	0.0140169
698.219	0.0142268
698.297	0.0143757
698.375	0.0144160
698.453	0.0144814
698.531	0.0144791
698.610	0.0145000
698.688	0.0145267
698.766	0.0143773
698.844	0.0142592
698.922	0.0141424
699.000	0.0139159
699.078	0.0138210
699.156	0.0137991
699.235	0.0136391
699.313	0.0136621
699.391	0.0134348
699.469	0.0135345
699.547	0.0135666
699.625	0.0135694
699.703	0.0136524
699.781	0.0138789
699.860	0.0139659
699.938	0.0139147
700.016	0.0139671
700.094	0.0139794
700.172	0.0140170
700.250	0.0140637
700.328	0.0141458
700.406	0.0141518
700.485	0.0142366
700.563	0.0143043
700.641	0.0144351
700.719	0.0145484
700.797	0.0144366
700.875	0.0146117
700.953	0.0146596
701.031	0.0147412
701.110	0.0146429
701.188	0.0146315
701.266	0.0145786
701.344	0.0144913
701.422	0.0142606
701.500	0.0141805
701.578	0.0142587
701.656	0.0141673
701.735	0.0139969
701.813	0.0140125
701.891	0.0139759
701.969	0.0138664
702.047	0.0138597
702.125	0.0139491
702.203	0.0139202
702.281	0.0139991
702.360	0.0138214
702.438	0.0139046
702.516	0.0140771
702.594	0.0138548
702.672	0.0139249
702.750	0.0140041
702.828	0.0138116
702.906	0.0137413
702.985	0.0139194
703.063	0.0139158
703.141	0.0139597
703.219	0.0139842
703.297	0.0140949
703.375	0.0141562
703.453	0.0141260
703.531	0.0141447
703.610	0.0141286
703.688	0.0144421
703.766	0.0145631
703.844	0.0143370
703.922	0.0146420
704.000	0.0144951
704.078	0.0145562
704.156	0.0144173
704.235	0.0144028
704.313	0.0141187
704.391	0.0141108
704.469	0.0141791
704.547	0.0140725
704.625	0.0141262
704.703	0.0140050
704.781	0.0140317
704.860	0.0140254
704.938	0.0140202
705.016	0.0141135
705.094	0.0141318
705.172	0.0141010
705.250	0.0141014
705.328	0.0141117
705.406	0.0140168
705.485	0.0139721
705.563	0.0139989
705.641	0.0139816
705.719	0.0138874
705.797	0.0139328
705.875	0.0138358
705.953	0.0137421
706.031	0.0136796
706.110	0.0137123
706.188	0.0138618
706.266	0.0137046
706.344	0.0137865
706.422	0.0139964
706.500	0.0138445
706.578	0.0139376
706.656	0.0138036
706.735	0.0139270
706.813	0.0140690
706.891	0.0139581
706.969	0.0141171
707.047	0.0139805
707.125	0.0140995
707.203	0.0141487
707.281	0.0142256
707.360	0.0142085
707.438	0.0143398
707.516	0.0142292
707.594	0.0142484
707.672	0.0141740
707.750	0.0142033
707.828	0.0142920
707.906	0.0143185
707.985	0.0142825
708.063	0.0142648
708.141	0.0143356
708.219	0.0142664
708.297	0.0143473
708.375	0.0143801
708.453	0.0143581
708.531	0.0142028
708.610	0.0141719
708.688	0.0140930
708.766	0.0140237
708.844	0.0139148
708.922	0.0140392
709.000	0.0139844
709.078	0.0139142
709.156	0.0138352
709.235	0.0139612
709.313	0.0137735
709.391	0.0139406
709.469	0.0140108
709.547	0.0139988
709.625	0.0140454
709.703	0.0140822
709.781	0.0140842
709.860	0.0140829
709.938	0.0141019
710.016	0.0140416
710.094	0.0141235
710.172	0.0141591
710.250	0.0142457
710.328	0.0140618
710.406	0.0141495
710.485	0.0142175
710.563	0.0140516
710.641	0.0141516
710.719	0.0139317
710.797	0.0139559
710.875	0.0140589
710.953	0.0140479
711.031	0.0139618
711.110	0.0139249
711.188	0.0139015
711.266	0.0140446
711.344	0.0140379
711.422	0.0139394
711.500	0.0140360
711.578	0.0142010
711.656	0.0141176
711.735	0.0140409
711.813	0.0142426
711.891	0.0141554
711.969	0.0142525
712.047	0.0143774
712.125	0.0143334
712.203	0.0143608
712.281	0.0144617
712.360	0.0146151
712.438	0.0145166
712.516	0.0146027
712.594	0.0143501
712.672	0.0145180
712.750	0.0142896
712.828	0.0142852
712.906	0.0142209
712.985	0.0141914
713.063	0.0141224
713.141	0.0138448
713.219	0.0138995
713.297	0.0137614
713.375	0.0136460
713.453	0.0135617
713.531	0.0135597
713.610	0.0136318
713.688	0.0134370
713.766	0.0135394
713.844	0.0134543
713.922	0.0134903
714.000	0.0136647
714.078	0.0137718
714.156	0.0138039
714.235	0.0139780
714.313	0.0140109
714.391	0.0142546
714.469	0.0144096
714.547	0.0143655
714.625	0.0145248
714.703	0.0146797
714.781	0.0148821
714.860	0.0147765
714.938	0.0148441
715.016	0.0146805
715.094	0.0145406
715.172	0.0145639
715.250	0.0142906
715.328	0.0145522
715.406	0.0142209
715.485	0.0139510
715.563	0.0139871
715.641	0.0138237
715.719	0.0137537
