05/04/2022	21:45:49	Ver.	4.1	UNKNOWN
Optical Delay	630.015849	Delta X		0.078125	Sweeps	1	Scan Rate	0/0
Coordinates	Axis 1	NaN	Axis 2	NaN	Axis 3	NaN	Axis 4	NaN	Axis 5	NaN	Axis 6	0.000000
TX Power	0.000000	RX Power	0.000000

630.016	0.0148873
630.094	0.0149007
630.172	0.0149851
630.250	0.0148190
630.328	0.0148641
630.406	0.0147340
630.485	0.0147782
630.563	0.0148390
630.641	0.0148479
630.719	0.0148451
630.797	0.0148808
630.875	0.0147787
630.953	0.0147987
631.031	0.0148489
631.110	0.0149225
631.188	0.0147177
631.266	0.0146341
631.344	0.0146522
631.422	0.0147684
631.500	0.0148357
631.578	0.0147173
631.656	0.0148076
631.735	0.0148669
631.813	0.0147516
631.891	0.0148661
631.969	0.0148401
632.047	0.0147143
632.125	0.0147736
632.203	0.0148011
632.281	0.0148267
632.360	0.0148618
632.438	0.0148269
632.516	0.0148090
632.594	0.0147308
632.672	0.0149883
632.750	0.0149516
632.828	0.0148705
632.906	0.0149458
632.985	0.0148388
633.063	0.0148615
633.141	0.0149789
633.219	0.0148593
633.297	0.0148046
633.375	0.0148763
633.453	0.0149465
633.531	0.0150283
633.610	0.0150259
633.688	0.0149384
633.766	0.0148747
633.844	0.0148083
633.922	0.0147706
634.000	0.0150128
634.078	0.0149353
634.156	0.0150018
634.235	0.0148571
634.313	0.0148505
634.391	0.0149616
634.469	0.0149648
634.547	0.0148647
634.625	0.0150169
634.703	0.0148519
634.781	0.0148830
634.860	0.0148859
634.938	0.0148777
635.016	0.0148801
635.094	0.0150375
635.172	0.0148936
635.250	0.0149473
635.328	0.0149033
635.406	0.0149726
635.485	0.0148753
635.563	0.0150162
635.641	0.0149113
635.719	0.0148811
635.797	0.0148932
635.875	0.0148991
635.953	0.0148718
636.031	0.0149735
636.110	0.0148799
636.188	0.0147822
636.266	0.0150043
636.344	0.0149508
636.422	0.0149118
636.500	0.0149171
636.578	0.0149387
636.656	0.0149294
636.735	0.0147833
636.813	0.0148663
636.891	0.0150348
636.969	0.0148540
637.047	0.0148100
637.125	0.0148065
637.203	0.0148777
637.281	0.0148653
637.360	0.0147872
637.438	0.0147850
637.516	0.0148871
637.594	0.0149000
637.672	0.0147157
637.750	0.0148373
637.828	0.0148552
637.906	0.0148258
637.985	0.0149620
638.063	0.0148466
638.141	0.0147929
638.219	0.0148848
638.297	0.0148645
638.375	0.0149480
638.453	0.0149706
638.531	0.0149110
638.610	0.0148122
638.688	0.0150034
638.766	0.0148344
638.844	0.0147652
638.922	0.0149010
639.000	0.0149802
639.078	0.0148785
639.156	0.0147633
639.235	0.0148502
639.313	0.0147841
639.391	0.0149433
639.469	0.0148965
639.547	0.0148560
639.625	0.0148784
639.703	0.0147813
639.781	0.0148063
639.860	0.0148960
639.938	0.0149109
640.016	0.0146814
640.094	0.0147604
640.172	0.0148653
640.250	0.0148181
640.328	0.0148343
640.406	0.0147610
640.485	0.0147829
640.563	0.0147215
640.641	0.0148116
640.719	0.0147836
640.797	0.0147129
640.875	0.0147019
640.953	0.0147634
641.031	0.0148547
641.110	0.0146532
641.188	0.0147571
641.266	0.0147031
641.344	0.0148350
641.422	0.0148276
641.500	0.0146516
641.578	0.0147510
641.656	0.0147805
641.735	0.0148844
641.813	0.0147907
641.891	0.0147548
641.969	0.0149092
642.047	0.0148446
642.125	0.0147620
642.203	0.0147785
642.281	0.0147881
642.360	0.0148090
642.438	0.0147516
642.516	0.0147703
642.594	0.0146385
642.672	0.0145831
642.750	0.0147676
642.828	0.0147134
642.906	0.0147664
642.985	0.0147912
643.063	0.0147108
643.141	0.0147511
643.219	0.0147712
643.297	0.0147215
643.375	0.0147849
643.453	0.0147145
643.531	0.0149629
643.610	0.0149179
643.688	0.0150100
643.766	0.0150113
643.844	0.0148254
643.922	0.0147662
644.000	0.0149391
644.078	0.0148743
644.156	0.0148359
644.235	0.0148157
644.313	0.0148555
644.391	0.0147717
644.469	0.0148492
644.547	0.0149578
644.625	0.0149596
644.703	0.0148416
644.781	0.0148534
644.860	0.0149187
644.938	0.0149935
645.016	0.0148631
645.094	0.0150758
645.172	0.0149249
645.250	0.0148735
645.328	0.0149917
645.406	0.0149860
645.485	0.0149532
645.563	0.0150318
645.641	0.0148833
645.719	0.0149413
645.797	0.0148934
645.875	0.0150182
645.953	0.0148880
646.031	0.0148460
646.110	0.0148885
646.188	0.0148164
646.266	0.0149407
646.344	0.0150330
646.422	0.0150485
646.500	0.0148672
646.578	0.0147871
646.656	0.0149106
646.735	0.0148592
646.813	0.0149387
646.891	0.0148599
646.969	0.0149162
647.047	0.0149137
647.125	0.0149055
647.203	0.0150568
647.281	0.0148294
647.360	0.0148347
647.438	0.0148015
647.516	0.0148923
647.594	0.0149545
647.672	0.0148591
647.750	0.0149932
647.828	0.0149086
647.906	0.0148591
647.985	0.0149078
648.063	0.0147137
648.141	0.0147147
648.219	0.0147594
648.297	0.0148314
648.375	0.0148320
648.453	0.0147938
648.531	0.0147433
648.610	0.0147218
648.688	0.0148602
648.766	0.0147411
648.844	0.0148737
648.922	0.0147923
649.000	0.0147585
649.078	0.0147424
649.156	0.0147561
649.235	0.0148750
649.313	0.0146557
649.391	0.0146886
649.469	0.0147272
649.547	0.0147324
649.625	0.0149111
649.703	0.0147521
649.781	0.0146818
649.860	0.0147927
649.938	0.0147414
650.016	0.0147210
650.094	0.0147256
650.172	0.0147974
650.250	0.0147755
650.328	0.0147247
650.406	0.0147457
650.485	0.0148722
650.563	0.0148595
650.641	0.0147364
650.719	0.0147644
650.797	0.0146062
650.875	0.0148829
650.953	0.0147159
651.031	0.0148489
651.110	0.0146942
651.188	0.0148125
651.266	0.0147433
651.344	0.0148396
651.422	0.0147519
651.500	0.0147383
651.578	0.0147605
651.656	0.0149316
651.735	0.0147356
651.813	0.0149303
651.891	0.0148016
651.969	0.0147391
652.047	0.0147913
652.125	0.0147405
652.203	0.0148608
652.281	0.0148898
652.360	0.0147369
652.438	0.0146720
652.516	0.0149175
652.594	0.0149109
652.672	0.0148470
652.750	0.0146919
652.828	0.0148714
652.906	0.0149692
652.985	0.0147189
653.063	0.0147474
653.141	0.0149825
653.219	0.0147914
653.297	0.0147595
653.375	0.0148735
653.453	0.0149106
653.531	0.0148199
653.610	0.0148438
653.688	0.0148310
653.766	0.0147611
653.844	0.0148101
653.922	0.0148656
654.000	0.0148343
654.078	0.0148036
654.156	0.0148490
654.235	0.0147917
654.313	0.0148119
654.391	0.0148921
654.469	0.0147179
654.547	0.0147900
654.625	0.0147228
654.703	0.0148587
654.781	0.0149081
654.860	0.0148146
654.938	0.0147744
655.016	0.0147392
655.094	0.0148294
655.172	0.0148933
655.250	0.0147270
655.328	0.0148369
655.406	0.0147827
655.485	0.0147698
655.563	0.0148192
655.641	0.0147970
655.719	0.0147243
655.797	0.0147427
655.875	0.0146717
655.953	0.0147393
656.031	0.0148322
656.110	0.0148466
656.188	0.0147488
656.266	0.0146846
656.344	0.0148127
656.422	0.0148511
656.500	0.0148715
656.578	0.0148510
656.656	0.0147343
656.735	0.0147606
656.813	0.0148676
656.891	0.0148446
656.969	0.0148587
657.047	0.0147239
657.125	0.0148000
657.203	0.0147866
657.281	0.0148095
657.360	0.0147958
657.438	0.0148694
657.516	0.0148361
657.594	0.0149081
657.672	0.0149400
657.750	0.0148811
657.828	0.0146913
657.906	0.0149529
657.985	0.0147394
658.063	0.0149137
658.141	0.0150360
658.219	0.0149490
658.297	0.0148474
658.375	0.0148000
658.453	0.0147104
658.531	0.0148412
658.610	0.0148357
658.688	0.0149306
658.766	0.0148463
658.844	0.0148134
658.922	0.0147717
659.000	0.0147345
659.078	0.0146752
659.156	0.0148630
659.235	0.0148404
659.313	0.0147185
659.391	0.0147292
659.469	0.0147958
659.547	0.0147092
659.625	0.0147674
659.703	0.0147255
659.781	0.0147429
659.860	0.0148027
659.938	0.0148643
660.016	0.0147359
660.094	0.0147221
660.172	0.0146864
660.250	0.0146691
660.328	0.0147963
660.406	0.0148484
660.485	0.0146233
660.563	0.0148704
660.641	0.0148183
660.719	0.0150063
660.797	0.0149762
660.875	0.0149784
660.953	0.0148451
661.031	0.0148991
661.110	0.0150008
661.188	0.0147904
661.266	0.0150156
661.344	0.0148150
661.422	0.0149888
661.500	0.0149925
661.578	0.0147449
661.656	0.0148783
661.735	0.0148019
661.813	0.0147260
661.891	0.0148248
661.969	0.0148852
662.047	0.0149437
662.125	0.0149605
662.203	0.0148833
662.281	0.0149731
662.360	0.0148635
662.438	0.0149482
662.516	0.0148939
662.594	0.0150094
662.672	0.0151170
662.750	0.0150681
662.828	0.0149995
662.906	0.0149062
662.985	0.0149304
663.063	0.0150303
663.141	0.0149804
663.219	0.0148849
663.297	0.0150284
663.375	0.0148550
663.453	0.0148330
663.531	0.0149932
663.610	0.0148218
663.688	0.0148566
663.766	0.0148447
663.844	0.0148033
663.922	0.0147582
664.000	0.0147919
664.078	0.0148975
664.156	0.0147789
664.235	0.0148008
664.313	0.0148020
664.391	0.0149026
664.469	0.0149530
664.547	0.0150139
664.625	0.0147912
664.703	0.0149812
664.781	0.0150488
664.860	0.0147488
664.938	0.0148058
665.016	0.0149669
665.094	0.0149160
665.172	0.0148235
665.250	0.0148367
665.328	0.0148273
665.406	0.0148133
665.485	0.0148483
665.563	0.0149767
665.641	0.0149152
665.719	0.0148324
665.797	0.0148376
665.875	0.0147904
665.953	0.0147164
666.031	0.0147181
666.110	0.0148499
666.188	0.0149111
666.266	0.0146856
666.344	0.0147456
666.422	0.0148322
666.500	0.0147612
666.578	0.0147455
666.656	0.0147373
666.735	0.0147813
666.813	0.0149245
666.891	0.0147400
666.969	0.0147377
667.047	0.0149849
667.125	0.0147330
667.203	0.0147459
667.281	0.0148916
667.360	0.0148339
667.438	0.0149831
667.516	0.0150806
667.594	0.0150329
667.672	0.0149402
667.750	0.0149142
667.828	0.0147655
667.906	0.0148650
667.985	0.0147621
668.063	0.0147515
668.141	0.0147459
668.219	0.0148135
668.297	0.0148371
668.375	0.0147554
668.453	0.0148492
668.531	0.0146794
668.610	0.0147568
668.688	0.0149041
668.766	0.0149355
668.844	0.0148808
668.922	0.0147415
669.000	0.0149983
669.078	0.0148380
669.156	0.0147910
669.235	0.0147002
669.313	0.0146323
669.391	0.0145152
669.469	0.0144180
669.547	0.0143736
669.625	0.0144482
669.703	0.0145181
669.781	0.0143555
669.860	0.0143539
669.938	0.0145001
670.016	0.0144331
670.094	0.0145539
670.172	0.0145715
670.250	0.0147224
670.328	0.0148009
670.406	0.0147433
670.485	0.0149135
670.563	0.0150135
670.641	0.0151488
670.719	0.0150985
670.797	0.0151402
670.875	0.0148486
670.953	0.0150477
671.031	0.0149110
671.110	0.0148317
671.188	0.0148054
671.266	0.0147958
671.344	0.0146147
671.422	0.0145824
671.500	0.0146650
671.578	0.0146615
671.656	0.0146200
671.735	0.0144770
671.813	0.0145096
671.891	0.0146039
671.969	0.0146719
672.047	0.0147474
672.125	0.0146858
672.203	0.0146158
672.281	0.0148264
672.360	0.0146139
672.438	0.0145747
672.516	0.0146068
672.594	0.0145052
672.672	0.0146783
672.750	0.0146204
672.828	0.0146857
672.906	0.0145628
672.985	0.0146327
673.063	0.0147954
673.141	0.0146828
673.219	0.0149345
673.297	0.0148512
673.375	0.0148146
673.453	0.0148669
673.531	0.0149036
673.610	0.0148261
673.688	0.0148006
673.766	0.0145403
673.844	0.0145763
673.922	0.0145715
674.000	0.0144237
674.078	0.0143938
674.156	0.0143219
674.235	0.0143458
674.313	0.0143219
674.391	0.0142468
674.469	0.0142405
674.547	0.0143703
674.625	0.0143850
674.703	0.0145699
674.781	0.0146004
674.860	0.0146075
674.938	0.0148084
675.016	0.0150943
675.094	0.0150974
675.172	0.0151756
675.250	0.0152029
675.328	0.0151919
675.406	0.0152459
675.485	0.0152117
675.563	0.0150485
675.641	0.0148876
675.719	0.0148033
675.797	0.0146152
675.875	0.0145824
675.953	0.0145110
676.031	0.0143217
676.110	0.0143815
676.188	0.0143359
676.266	0.0143435
676.344	0.0144567
676.422	0.0144730
676.500	0.0145144
676.578	0.0145951
676.656	0.0146881
676.735	0.0146976
676.813	0.0147730
676.891	0.0149484
676.969	0.0148026
677.047	0.0149886
677.125	0.0149726
677.203	0.0149766
677.281	0.0149019
677.360	0.0149541
677.438	0.0148446
677.516	0.0148132
677.594	0.0145528
677.672	0.0144808
677.750	0.0143503
677.828	0.0141963
677.906	0.0141322
677.985	0.0141491
678.063	0.0140414
678.141	0.0141394
678.219	0.0143193
678.297	0.0144534
678.375	0.0145785
678.453	0.0147292
678.531	0.0146572
678.610	0.0148409
678.688	0.0149764
678.766	0.0151455
678.844	0.0150386
678.922	0.0151126
679.000	0.0152278
679.078	0.0151126
679.156	0.0152087
679.235	0.0151178
679.313	0.0152469
679.391	0.0152528
679.469	0.0150724
679.547	0.0150086
679.625	0.0150057
679.703	0.0149595
679.781	0.0147846
679.860	0.0146841
679.938	0.0147057
680.016	0.0145727
680.094	0.0146643
680.172	0.0146098
680.250	0.0146806
680.328	0.0145989
680.406	0.0145013
680.485	0.0144542
680.563	0.0145432
680.641	0.0146668
680.719	0.0144016
680.797	0.0144985
680.875	0.0145578
680.953	0.0144726
681.031	0.0143625
681.110	0.0145947
681.188	0.0147902
681.266	0.0147939
681.344	0.0149268
681.422	0.0150302
681.500	0.0150484
681.578	0.0151887
681.656	0.0152160
681.735	0.0152969
681.813	0.0153313
681.891	0.0154520
681.969	0.0152090
682.047	0.0151282
682.125	0.0150004
682.203	0.0148189
682.281	0.0146299
682.360	0.0144805
682.438	0.0141866
682.516	0.0140025
682.594	0.0139489
682.672	0.0138539
682.750	0.0137308
682.828	0.0138689
682.906	0.0140232
682.985	0.0139405
683.063	0.0141950
683.141	0.0144249
683.219	0.0147072
683.297	0.0149450
683.375	0.0148854
683.453	0.0150480
683.531	0.0152310
683.610	0.0153193
683.688	0.0153217
683.766	0.0153828
683.844	0.0153685
683.922	0.0155754
684.000	0.0153689
684.078	0.0152164
684.156	0.0152887
684.235	0.0152843
684.313	0.0151958
684.391	0.0152337
684.469	0.0152444
684.547	0.0150011
684.625	0.0149683
684.703	0.0150415
684.781	0.0148697
684.860	0.0148291
684.938	0.0149219
685.016	0.0147721
685.094	0.0146984
685.172	0.0144279
685.250	0.0142477
685.328	0.0141270
685.406	0.0139034
685.485	0.0138824
685.563	0.0136888
685.641	0.0136662
685.719	0.0134986
685.797	0.0136474
685.875	0.0138473
685.953	0.0139899
686.031	0.0143065
686.110	0.0142732
686.188	0.0145634
686.266	0.0149369
686.344	0.0150341
686.422	0.0154092
686.500	0.0155720
686.578	0.0156484
686.656	0.0157847
686.735	0.0157854
686.813	0.0159995
686.891	0.0159129
686.969	0.0158652
687.047	0.0158224
687.125	0.0158021
687.203	0.0153897
687.281	0.0152533
687.360	0.0148997
687.438	0.0147519
687.516	0.0147735
687.594	0.0144491
687.672	0.0141815
687.750	0.0142188
687.828	0.0141693
687.906	0.0141875
687.985	0.0140363
688.063	0.0139574
688.141	0.0139712
688.219	0.0140648
688.297	0.0140173
688.375	0.0140363
688.453	0.0141801
688.531	0.0143442
688.610	0.0142210
688.688	0.0144260
688.766	0.0144720
688.844	0.0144324
688.922	0.0147645
689.000	0.0147542
689.078	0.0150603
689.156	0.0150984
689.235	0.0152462
689.313	0.0152625
689.391	0.0154352
689.469	0.0156111
689.547	0.0156395
689.625	0.0156964
689.703	0.0156090
689.781	0.0156566
689.860	0.0155784
689.938	0.0153837
690.016	0.0151512
690.094	0.0149290
690.172	0.0146355
690.250	0.0143770
690.328	0.0142342
690.406	0.0141998
690.485	0.0140849
690.563	0.0139259
690.641	0.0139290
690.719	0.0138493
690.797	0.0140966
690.875	0.0141180
690.953	0.0139856
691.031	0.0141652
691.110	0.0143234
691.188	0.0143494
691.266	0.0145727
691.344	0.0146521
691.422	0.0146645
691.500	0.0146230
691.578	0.0147240
691.656	0.0147456
691.735	0.0148966
691.813	0.0149383
691.891	0.0150040
691.969	0.0152014
692.047	0.0150935
692.125	0.0150524
692.203	0.0150977
692.281	0.0151276
692.360	0.0151182
692.438	0.0151437
692.516	0.0152132
692.594	0.0150713
692.672	0.0149084
692.750	0.0148194
692.828	0.0145112
692.906	0.0145009
692.985	0.0141711
693.063	0.0140256
693.141	0.0140324
693.219	0.0138937
693.297	0.0138912
693.375	0.0139219
693.453	0.0139452
693.531	0.0140412
693.610	0.0142289
693.688	0.0143848
693.766	0.0146791
693.844	0.0147715
693.922	0.0147814
694.000	0.0149702
694.078	0.0152311
694.156	0.0151982
694.235	0.0152724
694.313	0.0152708
694.391	0.0154047
694.469	0.0152112
694.547	0.0152690
694.625	0.0149640
694.703	0.0149736
694.781	0.0149536
694.860	0.0147073
694.938	0.0146317
695.016	0.0145263
695.094	0.0143307
695.172	0.0141582
695.250	0.0140562
695.328	0.0142312
695.406	0.0141050
695.485	0.0140925
695.563	0.0142533
695.641	0.0142442
695.719	0.0142824
695.797	0.0142722
695.875	0.0143644
695.953	0.0145488
696.031	0.0147305
696.110	0.0148514
696.188	0.0149419
696.266	0.0149200
696.344	0.0149833
696.422	0.0151604
696.500	0.0152137
696.578	0.0150840
696.656	0.0151201
696.735	0.0151198
696.813	0.0150954
696.891	0.0151038
696.969	0.0150357
697.047	0.0151340
697.125	0.0149732
697.203	0.0148964
697.281	0.0150040
697.360	0.0148699
697.438	0.0148270
697.516	0.0147723
697.594	0.0148756
697.672	0.0147397
697.750	0.0147600
697.828	0.0147594
697.906	0.0146634
697.985	0.0146665
698.063	0.0146633
698.141	0.0146355
698.219	0.0144907
698.297	0.0146584
698.375	0.0146082
698.453	0.0144061
698.531	0.0144650
698.610	0.0144821
698.688	0.0144976
698.766	0.0145807
698.844	0.0146578
698.922	0.0145167
699.000	0.0146644
699.078	0.0147642
699.156	0.0148399
699.235	0.0148153
699.313	0.0148631
699.391	0.0148595
699.469	0.0149810
699.547	0.0149521
699.625	0.0147713
699.703	0.0146963
699.781	0.0148697
699.860	0.0148145
699.938	0.0146899
700.016	0.0147958
700.094	0.0149564
700.172	0.0148222
700.250	0.0148481
700.328	0.0149387
700.406	0.0147636
700.485	0.0148622
700.563	0.0147047
700.641	0.0148222
700.719	0.0147100
700.797	0.0145740
700.875	0.0146158
700.953	0.0147427
701.031	0.0147851
701.110	0.0146001
701.188	0.0148782
701.266	0.0148013
701.344	0.0148148
701.422	0.0148337
701.500	0.0148172
701.578	0.0147449
701.656	0.0148016
701.735	0.0149419
701.813	0.0149160
701.891	0.0148248
701.969	0.0149417
702.047	0.0148865
702.125	0.0148832
702.203	0.0149263
702.281	0.0148869
702.360	0.0147028
702.438	0.0148350
702.516	0.0146318
702.594	0.0148602
702.672	0.0148746
702.750	0.0146185
702.828	0.0148259
702.906	0.0149427
702.985	0.0146571
703.063	0.0146146
703.141	0.0145749
703.219	0.0146597
703.297	0.0145808
703.375	0.0147235
703.453	0.0146678
703.531	0.0147342
703.610	0.0146556
703.688	0.0147127
703.766	0.0147377
703.844	0.0148779
703.922	0.0149389
704.000	0.0149023
704.078	0.0149693
704.156	0.0149841
704.235	0.0149923
704.313	0.0149747
704.391	0.0150031
704.469	0.0149419
704.547	0.0149290
704.625	0.0147921
704.703	0.0148878
704.781	0.0149503
704.860	0.0148807
704.938	0.0148662
705.016	0.0148138
705.094	0.0149074
705.172	0.0149586
705.250	0.0149318
705.328	0.0149110
705.406	0.0148396
705.485	0.0148133
705.563	0.0149187
705.641	0.0149972
705.719	0.0149780
705.797	0.0149078
705.875	0.0149626
705.953	0.0148236
706.031	0.0147533
706.110	0.0148065
706.188	0.0148665
706.266	0.0146211
706.344	0.0146126
706.422	0.0145820
706.500	0.0146566
706.578	0.0145703
706.656	0.0146200
706.735	0.0145060
706.813	0.0146313
706.891	0.0146077
706.969	0.0145593
707.047	0.0147752
707.125	0.0149946
707.203	0.0149715
707.281	0.0149582
707.360	0.0149624
707.438	0.0150934
707.516	0.0152067
707.594	0.0152155
707.672	0.0152020
707.750	0.0151745
707.828	0.0153025
707.906	0.0151966
707.985	0.0151605
708.063	0.0151328
708.141	0.0150648
708.219	0.0150237
708.297	0.0149242
708.375	0.0150384
708.453	0.0148578
708.531	0.0147153
708.610	0.0147284
708.688	0.0147154
708.766	0.0147073
708.844	0.0146769
708.922	0.0147056
709.000	0.0145815
709.078	0.0146040
709.156	0.0144627
709.235	0.0145361
709.313	0.0144930
709.391	0.0146401
709.469	0.0145250
709.547	0.0145284
709.625	0.0146243
709.703	0.0147375
709.781	0.0146758
709.860	0.0145352
709.938	0.0147121
710.016	0.0148569
710.094	0.0148413
710.172	0.0149251
710.250	0.0149612
710.328	0.0148925
710.406	0.0149696
710.485	0.0149545
710.563	0.0148690
710.641	0.0149422
710.719	0.0148852
710.797	0.0147736
710.875	0.0148074
710.953	0.0147191
711.031	0.0147848
711.110	0.0147260
711.188	0.0147370
711.266	0.0146963
711.344	0.0146126
711.422	0.0145029
711.500	0.0145486
711.578	0.0146221
711.656	0.0146782
711.735	0.0145472
711.813	0.0147075
711.891	0.0145804
711.969	0.0147070
712.047	0.0146717
712.125	0.0147245
712.203	0.0147094
712.281	0.0146958
712.360	0.0147497
712.438	0.0147060
712.516	0.0148927
712.594	0.0147652
712.672	0.0149120
712.750	0.0152206
712.828	0.0152299
712.906	0.0151073
712.985	0.0151290
713.063	0.0152431
713.141	0.0151472
713.219	0.0150938
713.297	0.0150410
713.375	0.0149678
713.453	0.0149035
713.531	0.0148723
713.610	0.0148232
713.688	0.0147382
713.766	0.0145858
713.844	0.0145192
713.922	0.0144862
714.000	0.0143215
714.078	0.0142117
714.156	0.0142575
714.235	0.0144105
714.313	0.0142767
714.391	0.0143001
714.469	0.0143814
714.547	0.0144798
714.625	0.0145155
714.703	0.0147430
714.781	0.0148589
714.860	0.0148891
714.938	0.0150233
715.016	0.0152317
715.094	0.0151781
715.172	0.0152188
715.250	0.0153014
715.328	0.0153339
715.406	0.0154712
715.485	0.0153952
715.563	0.0153407
715.641	0.0153860
715.719	0.0153249
