05/04/2022	20:52:46	Ver.	4.1	UNKNOWN
Optical Delay	678.996401	Delta X		0.078125	Sweeps	1	Scan Rate	0/0
Coordinates	Axis 1	NaN	Axis 2	NaN	Axis 3	NaN	Axis 4	NaN	Axis 5	NaN	Axis 6	0.000000
TX Power	0.000000	RX Power	0.000000

678.996	0.0138309
679.075	0.0138824
679.153	0.0138563
679.231	0.0138431
679.309	0.0138350
679.387	0.0138738
679.465	0.0138786
679.543	0.0138026
679.621	0.0138495
679.700	0.0139583
679.778	0.0138062
679.856	0.0139114
679.934	0.0138009
680.012	0.0139248
680.090	0.0138699
680.168	0.0138415
680.246	0.0139657
680.325	0.0137530
680.403	0.0138386
680.481	0.0140018
680.559	0.0139942
680.637	0.0139194
680.715	0.0139219
680.793	0.0138043
680.871	0.0139176
680.950	0.0139118
681.028	0.0137193
681.106	0.0138066
681.184	0.0138771
681.262	0.0138619
681.340	0.0138663
681.418	0.0138347
681.496	0.0140131
681.575	0.0137611
681.653	0.0138500
681.731	0.0138663
681.809	0.0140122
681.887	0.0137939
681.965	0.0138042
682.043	0.0138906
682.121	0.0139010
682.200	0.0138387
682.278	0.0138931
682.356	0.0138215
682.434	0.0138684
682.512	0.0139027
682.590	0.0138702
682.668	0.0139476
682.746	0.0138600
682.825	0.0139030
682.903	0.0137428
682.981	0.0137768
683.059	0.0139226
683.137	0.0139523
683.215	0.0138966
683.293	0.0138547
683.371	0.0139565
683.450	0.0138298
683.528	0.0139203
683.606	0.0138621
683.684	0.0137890
683.762	0.0139563
683.840	0.0138383
683.918	0.0137641
683.996	0.0137435
684.075	0.0138393
684.153	0.0138744
684.231	0.0138884
684.309	0.0138274
684.387	0.0137988
684.465	0.0138741
684.543	0.0138634
684.621	0.0139875
684.700	0.0139125
684.778	0.0138982
684.856	0.0139217
684.934	0.0138211
685.012	0.0139329
685.090	0.0137215
685.168	0.0138971
685.246	0.0138863
685.325	0.0138546
685.403	0.0139832
685.481	0.0139152
685.559	0.0137527
685.637	0.0138956
685.715	0.0139121
685.793	0.0138547
685.871	0.0139794
685.950	0.0140508
686.028	0.0139626
686.106	0.0138815
686.184	0.0138927
686.262	0.0139246
686.340	0.0137945
686.418	0.0138332
686.496	0.0139556
686.575	0.0139336
686.653	0.0139336
686.731	0.0138860
686.809	0.0138245
686.887	0.0138898
686.965	0.0137619
687.043	0.0137546
687.121	0.0138922
687.200	0.0139368
687.278	0.0138559
687.356	0.0138714
687.434	0.0139362
687.512	0.0138959
687.590	0.0139015
687.668	0.0138385
687.746	0.0139616
687.825	0.0138247
687.903	0.0138688
687.981	0.0137714
688.059	0.0138426
688.137	0.0139526
688.215	0.0139117
688.293	0.0138310
688.371	0.0137827
688.450	0.0138478
688.528	0.0138604
688.606	0.0138857
688.684	0.0137558
688.762	0.0138748
688.840	0.0139065
688.918	0.0138493
688.996	0.0139433
689.075	0.0139500
689.153	0.0138181
689.231	0.0138306
689.309	0.0138428
689.387	0.0140003
689.465	0.0138944
689.543	0.0137917
689.621	0.0138000
689.700	0.0139458
689.778	0.0139381
689.856	0.0138742
689.934	0.0138573
690.012	0.0139240
690.090	0.0138912
690.168	0.0138036
690.246	0.0139533
690.325	0.0138263
690.403	0.0138197
690.481	0.0138912
690.559	0.0138821
690.637	0.0138358
690.715	0.0138922
690.793	0.0137199
690.871	0.0139118
690.950	0.0139500
691.028	0.0138353
691.106	0.0138850
691.184	0.0139305
691.262	0.0138201
691.340	0.0139035
691.418	0.0139137
691.496	0.0138319
691.575	0.0137566
691.653	0.0139002
691.731	0.0137394
691.809	0.0138989
691.887	0.0138661
691.965	0.0138221
692.043	0.0138458
692.121	0.0136613
692.200	0.0137635
692.278	0.0139754
692.356	0.0139162
692.434	0.0138557
692.512	0.0138918
692.590	0.0137332
692.668	0.0138187
692.746	0.0138628
692.825	0.0138240
692.903	0.0138189
692.981	0.0139015
693.059	0.0137747
693.137	0.0138508
693.215	0.0138241
693.293	0.0137708
693.371	0.0138258
693.450	0.0138879
693.528	0.0138859
693.606	0.0138470
693.684	0.0138495
693.762	0.0138345
693.840	0.0137458
693.918	0.0138639
693.996	0.0139162
694.075	0.0138293
694.153	0.0138686
694.231	0.0138810
694.309	0.0138340
694.387	0.0138555
694.465	0.0138580
694.543	0.0139462
694.621	0.0139861
694.700	0.0140987
694.778	0.0137466
694.856	0.0138675
694.934	0.0138330
695.012	0.0139101
695.090	0.0138557
695.168	0.0138733
695.246	0.0137928
695.325	0.0138190
695.403	0.0138742
695.481	0.0140370
695.559	0.0137982
695.637	0.0137869
695.715	0.0139539
695.793	0.0138351
695.871	0.0137646
695.950	0.0137396
696.028	0.0139059
696.106	0.0138012
696.184	0.0137855
696.262	0.0139442
696.340	0.0139455
696.418	0.0137533
696.496	0.0138960
696.575	0.0138521
696.653	0.0137709
696.731	0.0138040
696.809	0.0137910
696.887	0.0137938
696.965	0.0137128
697.043	0.0139341
697.121	0.0138638
697.200	0.0137837
697.278	0.0137602
697.356	0.0138512
697.434	0.0138626
697.512	0.0138880
697.590	0.0140290
697.668	0.0138226
697.746	0.0138148
697.825	0.0137349
697.903	0.0137598
697.981	0.0138338
698.059	0.0137815
698.137	0.0138252
698.215	0.0138287
698.293	0.0138693
698.371	0.0137558
698.450	0.0137424
698.528	0.0138895
698.606	0.0138940
698.684	0.0138801
698.762	0.0137916
698.840	0.0139061
698.918	0.0137295
698.996	0.0138720
699.075	0.0138023
699.153	0.0138674
699.231	0.0138437
699.309	0.0138637
699.387	0.0138199
699.465	0.0138639
699.543	0.0138273
699.621	0.0139325
699.700	0.0137351
699.778	0.0137868
699.856	0.0139080
699.934	0.0137675
700.012	0.0137444
700.090	0.0138171
700.168	0.0138200
700.246	0.0138061
700.325	0.0138512
700.403	0.0138249
700.481	0.0137306
700.559	0.0136978
700.637	0.0138379
700.715	0.0138757
700.793	0.0138048
700.871	0.0137988
700.950	0.0138638
701.028	0.0138614
701.106	0.0138380
701.184	0.0138188
701.262	0.0137714
701.340	0.0136691
701.418	0.0139014
701.496	0.0139020
701.575	0.0138059
701.653	0.0138334
701.731	0.0138297
701.809	0.0137554
701.887	0.0138455
701.965	0.0137354
702.043	0.0137706
702.121	0.0137660
702.200	0.0139338
702.278	0.0138799
702.356	0.0138846
702.434	0.0139088
702.512	0.0139419
702.590	0.0138527
702.668	0.0138525
702.746	0.0138860
702.825	0.0137132
702.903	0.0138651
702.981	0.0137008
703.059	0.0137996
703.137	0.0138317
703.215	0.0138522
703.293	0.0137310
703.371	0.0138766
703.450	0.0137473
703.528	0.0138377
703.606	0.0137927
703.684	0.0138052
703.762	0.0138715
703.840	0.0138397
703.918	0.0138232
703.996	0.0137818
704.075	0.0138909
704.153	0.0138238
704.231	0.0138638
704.309	0.0138209
704.387	0.0138533
704.465	0.0137060
704.543	0.0137670
704.621	0.0139132
704.700	0.0138102
704.778	0.0137883
704.856	0.0138329
704.934	0.0138353
705.012	0.0138348
705.090	0.0138733
705.168	0.0139697
705.246	0.0138366
705.325	0.0138755
705.403	0.0138899
705.481	0.0138204
705.559	0.0137676
705.637	0.0137730
705.715	0.0137569
705.793	0.0138877
705.871	0.0139301
705.950	0.0137865
706.028	0.0135781
706.106	0.0138585
706.184	0.0139967
706.262	0.0138941
706.340	0.0137201
706.418	0.0138519
706.496	0.0140546
706.575	0.0137437
706.653	0.0139491
706.731	0.0139204
706.809	0.0137382
706.887	0.0137936
706.965	0.0140239
707.043	0.0138553
707.121	0.0139075
707.200	0.0139458
707.278	0.0138440
707.356	0.0137251
707.434	0.0138180
707.512	0.0138581
707.590	0.0138676
707.668	0.0138467
707.746	0.0140030
707.825	0.0137836
707.903	0.0138377
707.981	0.0139211
708.059	0.0138692
708.137	0.0138551
708.215	0.0139171
708.293	0.0138850
708.371	0.0138990
708.450	0.0138062
708.528	0.0139320
708.606	0.0138157
708.684	0.0138799
708.762	0.0138689
708.840	0.0139314
708.918	0.0139250
708.996	0.0139580
709.075	0.0138380
709.153	0.0138568
709.231	0.0139498
709.309	0.0139880
709.387	0.0139861
709.465	0.0138072
709.543	0.0138953
709.621	0.0139127
709.700	0.0138498
709.778	0.0139262
709.856	0.0138391
709.934	0.0136656
710.012	0.0137852
710.090	0.0138337
710.168	0.0139682
710.246	0.0138935
710.325	0.0139935
710.403	0.0139376
710.481	0.0137534
710.559	0.0136916
710.637	0.0139001
710.715	0.0139626
710.793	0.0139251
710.871	0.0139639
710.950	0.0140441
711.028	0.0141466
711.106	0.0140966
711.184	0.0140707
711.262	0.0140970
711.340	0.0139396
711.418	0.0138663
711.496	0.0137843
711.575	0.0139214
711.653	0.0138674
711.731	0.0140630
711.809	0.0138463
711.887	0.0139535
711.965	0.0140839
712.043	0.0138557
712.121	0.0137337
712.200	0.0137693
712.278	0.0136924
712.356	0.0135134
712.434	0.0135278
712.512	0.0134806
712.590	0.0136222
712.668	0.0137605
712.746	0.0140764
712.825	0.0143374
712.903	0.0144344
712.981	0.0145235
713.059	0.0145472
713.137	0.0145892
713.215	0.0145826
713.293	0.0141756
713.371	0.0141972
713.450	0.0140955
713.528	0.0139532
713.606	0.0135314
713.684	0.0135023
713.762	0.0134045
713.840	0.0132157
713.918	0.0134308
713.996	0.0135057
714.075	0.0134689
714.153	0.0136133
714.231	0.0139419
714.309	0.0140977
714.387	0.0141138
714.465	0.0142657
714.543	0.0143140
714.621	0.0142361
714.700	0.0142110
714.778	0.0141455
714.856	0.0142977
714.934	0.0142421
715.012	0.0139783
715.090	0.0137008
715.168	0.0135998
715.246	0.0135228
715.325	0.0132343
715.403	0.0130760
715.481	0.0128342
715.559	0.0128722
715.637	0.0129059
715.715	0.0131888
715.793	0.0136774
715.871	0.0138063
715.950	0.0141582
716.028	0.0143004
716.106	0.0145930
716.184	0.0145762
716.262	0.0144624
716.340	0.0142789
716.418	0.0138343
716.496	0.0135542
716.575	0.0133244
716.653	0.0128802
716.731	0.0125294
716.809	0.0126011
716.887	0.0122529
716.965	0.0122392
717.043	0.0127776
717.121	0.0131873
717.200	0.0135145
717.278	0.0140633
717.356	0.0145675
717.434	0.0148396
717.512	0.0153250
717.590	0.0156772
717.668	0.0157014
717.746	0.0158102
717.825	0.0157788
717.903	0.0154063
717.981	0.0151665
718.059	0.0150751
718.137	0.0146626
718.215	0.0140340
718.293	0.0136006
718.371	0.0132604
718.450	0.0128751
718.528	0.0126711
718.606	0.0126240
718.684	0.0124395
718.762	0.0126141
718.840	0.0130895
718.918	0.0133571
718.996	0.0136947
719.075	0.0140969
719.153	0.0144930
719.231	0.0146443
719.309	0.0148613
719.387	0.0148816
719.465	0.0148633
719.543	0.0146125
719.621	0.0143307
719.700	0.0140096
719.778	0.0136716
719.856	0.0134493
719.934	0.0130030
720.012	0.0127389
720.090	0.0127285
720.168	0.0127902
720.246	0.0129230
720.325	0.0132877
720.403	0.0135915
720.481	0.0139621
720.559	0.0142843
720.637	0.0146573
720.715	0.0147773
720.793	0.0149080
720.871	0.0147876
720.950	0.0147744
721.028	0.0144509
721.106	0.0142558
721.184	0.0138522
721.262	0.0135663
721.340	0.0130823
721.418	0.0130362
721.496	0.0127936
721.575	0.0128021
721.653	0.0126745
721.731	0.0126707
721.809	0.0128757
721.887	0.0131429
721.965	0.0133718
722.043	0.0136659
722.121	0.0136856
722.200	0.0140231
722.278	0.0144008
722.356	0.0147379
722.434	0.0147383
722.512	0.0148729
722.590	0.0149284
722.668	0.0148830
722.746	0.0147097
722.825	0.0146562
722.903	0.0143861
722.981	0.0140907
723.059	0.0136750
723.137	0.0134029
723.215	0.0133189
723.293	0.0133765
723.371	0.0133107
723.450	0.0132843
723.528	0.0133469
723.606	0.0134319
723.684	0.0135585
723.762	0.0138895
723.840	0.0141024
723.918	0.0142612
723.996	0.0144186
724.075	0.0147309
724.153	0.0149468
724.231	0.0150602
724.309	0.0150351
724.387	0.0148985
724.465	0.0148107
724.543	0.0145076
724.621	0.0142631
724.700	0.0141302
724.778	0.0138813
724.856	0.0135172
724.934	0.0132217
725.012	0.0130745
725.090	0.0128957
725.168	0.0127721
725.246	0.0127645
725.325	0.0129713
725.403	0.0129546
725.481	0.0131235
725.559	0.0135279
725.637	0.0136182
725.715	0.0137538
725.793	0.0142203
725.871	0.0144447
725.950	0.0145549
726.028	0.0149030
726.106	0.0148870
726.184	0.0147783
726.262	0.0145901
726.340	0.0145805
726.418	0.0143552
726.496	0.0139823
726.575	0.0138675
726.653	0.0134657
726.731	0.0132045
726.809	0.0129535
726.887	0.0128396
726.965	0.0127473
727.043	0.0128155
727.121	0.0129597
727.200	0.0130847
727.278	0.0131594
727.356	0.0132431
727.434	0.0133811
727.512	0.0138541
727.590	0.0140691
727.668	0.0144700
727.746	0.0146688
727.825	0.0146571
727.903	0.0148091
727.981	0.0148572
728.059	0.0148854
728.137	0.0148360
728.215	0.0144292
728.293	0.0142564
728.371	0.0140977
728.450	0.0139205
728.528	0.0136929
728.606	0.0134035
728.684	0.0132277
728.762	0.0133306
728.840	0.0133668
728.918	0.0131810
728.996	0.0132883
729.075	0.0134780
729.153	0.0135938
729.231	0.0136792
729.309	0.0138050
729.387	0.0139697
729.465	0.0141942
729.543	0.0142317
729.621	0.0143482
729.700	0.0143815
729.778	0.0143565
729.856	0.0143076
729.934	0.0142676
730.012	0.0142108
730.090	0.0140554
730.168	0.0140975
730.246	0.0139819
730.325	0.0138501
730.403	0.0138501
730.481	0.0137077
730.559	0.0136595
730.637	0.0136694
730.715	0.0136580
730.793	0.0136619
730.871	0.0136464
730.950	0.0136144
731.028	0.0134629
731.106	0.0133870
731.184	0.0135348
731.262	0.0136100
731.340	0.0135440
731.418	0.0136754
731.496	0.0136366
731.575	0.0133406
731.653	0.0135551
731.731	0.0136689
731.809	0.0137276
731.887	0.0138295
731.965	0.0138200
732.043	0.0138619
732.121	0.0140499
732.200	0.0140833
732.278	0.0141226
732.356	0.0142321
732.434	0.0142130
732.512	0.0143618
732.590	0.0141172
732.668	0.0140825
732.746	0.0139244
732.825	0.0136242
732.903	0.0134912
732.981	0.0134418
733.059	0.0133797
733.137	0.0131421
733.215	0.0130810
733.293	0.0130093
733.371	0.0131090
733.450	0.0131216
733.528	0.0131850
733.606	0.0133354
733.684	0.0134195
733.762	0.0136243
733.840	0.0137695
733.918	0.0139374
733.996	0.0141481
734.075	0.0141422
734.153	0.0141998
734.231	0.0143382
734.309	0.0143707
734.387	0.0142616
734.465	0.0143362
734.543	0.0143812
734.621	0.0142498
734.700	0.0140854
734.778	0.0141108
734.856	0.0138980
734.934	0.0140573
735.012	0.0137579
735.090	0.0137370
735.168	0.0136543
735.246	0.0136322
735.325	0.0135626
735.403	0.0135380
735.481	0.0134581
735.559	0.0134161
735.637	0.0133857
735.715	0.0135469
735.793	0.0135650
735.871	0.0135641
735.950	0.0136844
736.028	0.0136483
736.106	0.0137460
736.184	0.0138183
736.262	0.0139207
736.340	0.0141714
736.418	0.0142060
736.496	0.0143369
736.575	0.0142872
736.653	0.0143854
736.731	0.0144110
736.809	0.0142488
736.887	0.0141919
736.965	0.0141677
737.043	0.0139297
737.121	0.0139763
737.200	0.0137840
737.278	0.0136565
737.356	0.0137180
737.434	0.0135038
737.512	0.0136919
737.590	0.0135280
737.668	0.0135390
737.746	0.0137579
737.825	0.0137905
737.903	0.0138686
737.981	0.0140871
738.059	0.0140798
738.137	0.0141157
738.215	0.0140185
738.293	0.0140855
738.371	0.0141329
738.450	0.0140566
738.528	0.0141433
738.606	0.0141293
738.684	0.0141171
738.762	0.0139684
738.840	0.0140427
738.918	0.0139886
738.996	0.0140435
739.075	0.0139220
739.153	0.0140112
739.231	0.0140205
739.309	0.0139383
739.387	0.0139381
739.465	0.0139498
739.543	0.0140319
739.621	0.0139840
739.700	0.0139026
739.778	0.0137360
739.856	0.0138491
739.934	0.0134835
740.012	0.0135023
740.090	0.0134144
740.168	0.0133311
740.246	0.0132705
740.325	0.0133982
740.403	0.0133834
740.481	0.0134021
740.559	0.0135587
740.637	0.0136137
740.715	0.0137522
740.793	0.0140176
740.871	0.0138866
740.950	0.0141696
741.028	0.0143628
741.106	0.0143120
741.184	0.0143374
741.262	0.0142421
741.340	0.0141609
741.418	0.0140953
741.496	0.0139281
741.575	0.0138140
741.653	0.0138697
741.731	0.0138620
741.809	0.0137460
741.887	0.0137057
741.965	0.0137958
742.043	0.0137014
742.121	0.0137672
742.200	0.0136944
742.278	0.0136121
742.356	0.0138032
742.434	0.0137605
742.512	0.0139152
742.590	0.0138706
742.668	0.0139257
742.746	0.0140334
742.825	0.0139943
742.903	0.0139110
742.981	0.0138004
743.059	0.0137942
743.137	0.0138785
743.215	0.0138350
743.293	0.0136819
743.371	0.0136903
743.450	0.0137116
743.528	0.0136938
743.606	0.0138305
743.684	0.0137869
743.762	0.0137364
743.840	0.0138728
743.918	0.0138362
743.996	0.0138469
744.075	0.0138480
744.153	0.0138339
744.231	0.0137791
744.309	0.0139235
744.387	0.0137559
744.465	0.0138343
744.543	0.0137388
744.621	0.0137897
744.700	0.0137764
744.778	0.0139456
744.856	0.0140418
744.934	0.0140321
745.012	0.0140962
745.090	0.0141168
745.168	0.0140919
745.246	0.0140739
745.325	0.0139708
745.403	0.0138075
745.481	0.0137928
745.559	0.0137592
745.637	0.0136372
745.715	0.0135435
745.793	0.0135754
745.871	0.0135281
745.950	0.0135341
746.028	0.0135100
746.106	0.0135844
746.184	0.0136720
746.262	0.0138318
746.340	0.0138044
746.418	0.0139385
746.496	0.0140538
746.575	0.0141268
746.653	0.0141325
746.731	0.0141134
746.809	0.0142258
746.887	0.0143353
746.965	0.0143963
747.043	0.0143403
747.121	0.0142326
747.200	0.0142277
747.278	0.0141453
747.356	0.0139320
747.434	0.0138882
747.512	0.0136584
747.590	0.0134996
747.668	0.0134754
747.746	0.0133686
747.825	0.0134261
747.903	0.0133624
747.981	0.0134564
748.059	0.0135928
748.137	0.0135766
748.215	0.0136127
748.293	0.0137823
748.371	0.0138791
748.450	0.0141069
748.528	0.0141534
748.606	0.0142535
748.684	0.0142274
748.762	0.0142887
748.840	0.0143040
748.918	0.0141936
748.996	0.0142152
749.075	0.0141355
749.153	0.0141467
749.231	0.0140544
749.309	0.0139543
749.387	0.0136582
749.465	0.0135513
749.543	0.0135979
749.621	0.0137190
749.700	0.0137013
749.778	0.0136511
749.856	0.0136020
749.934	0.0137566
750.012	0.0136879
750.090	0.0137357
750.168	0.0138386
750.246	0.0139999
750.325	0.0139462
750.403	0.0139063
750.481	0.0139268
750.559	0.0139336
750.637	0.0139426
750.715	0.0138402
750.793	0.0136806
750.871	0.0138470
750.950	0.0138434
751.028	0.0137941
751.106	0.0137052
751.184	0.0136659
751.262	0.0137537
751.340	0.0137326
751.418	0.0139314
751.496	0.0139576
751.575	0.0138613
751.653	0.0138865
751.731	0.0138393
751.809	0.0138741
751.887	0.0140289
751.965	0.0140147
752.043	0.0138512
752.121	0.0139198
752.200	0.0138605
752.278	0.0137981
752.356	0.0137376
752.434	0.0139043
752.512	0.0139212
752.590	0.0137665
752.668	0.0138667
752.746	0.0139803
752.825	0.0139568
752.903	0.0138313
752.981	0.0139245
753.059	0.0139331
753.137	0.0139419
753.215	0.0140364
753.293	0.0138902
753.371	0.0139027
753.450	0.0139666
753.528	0.0137833
753.606	0.0138752
753.684	0.0138592
753.762	0.0139577
753.840	0.0137933
753.918	0.0138300
753.996	0.0138126
754.075	0.0139456
754.153	0.0140135
754.231	0.0139053
754.309	0.0141125
754.387	0.0140971
754.465	0.0142028
754.543	0.0141000
754.621	0.0140688
754.700	0.0140553
754.778	0.0139938
754.856	0.0138924
754.934	0.0138284
755.012	0.0138448
755.090	0.0138623
755.168	0.0137498
755.246	0.0135155
755.325	0.0135788
755.403	0.0135120
755.481	0.0133394
755.559	0.0135716
755.637	0.0136465
755.715	0.0136438
755.793	0.0137090
755.871	0.0136916
755.950	0.0137961
756.028	0.0139809
756.106	0.0140646
756.184	0.0140612
756.262	0.0141100
756.340	0.0141906
756.418	0.0140767
756.496	0.0140580
756.575	0.0140902
756.653	0.0140670
756.731	0.0137478
756.809	0.0139365
756.887	0.0138141
756.965	0.0138467
757.043	0.0136925
757.121	0.0136735
757.200	0.0137432
757.278	0.0136697
757.356	0.0137103
757.434	0.0136241
757.512	0.0137122
757.590	0.0137616
757.668	0.0137360
757.746	0.0136747
757.825	0.0137407
757.903	0.0137459
757.981	0.0136452
758.059	0.0136783
758.137	0.0137162
758.215	0.0137935
758.293	0.0138105
758.371	0.0138641
758.450	0.0138301
758.528	0.0137228
758.606	0.0138180
758.684	0.0138568
758.762	0.0139368
758.840	0.0139021
758.918	0.0139633
758.996	0.0139438
759.075	0.0139069
759.153	0.0139786
759.231	0.0140858
759.309	0.0139761
759.387	0.0140274
759.465	0.0138915
759.543	0.0139594
759.621	0.0140040
759.700	0.0138097
759.778	0.0137668
759.856	0.0137579
759.934	0.0137008
760.012	0.0136441
760.090	0.0137662
760.168	0.0137183
760.246	0.0136021
760.325	0.0138326
760.403	0.0138995
760.481	0.0137551
760.559	0.0139365
760.637	0.0139516
760.715	0.0140105
760.793	0.0139554
760.871	0.0139539
760.950	0.0141100
761.028	0.0140318
761.106	0.0139033
761.184	0.0140163
761.262	0.0139941
761.340	0.0139174
761.418	0.0138657
761.496	0.0138513
761.575	0.0139093
761.653	0.0138749
761.731	0.0138963
761.809	0.0139387
761.887	0.0138023
761.965	0.0139468
762.043	0.0139086
762.121	0.0140673
762.200	0.0139739
762.278	0.0138631
762.356	0.0139079
762.434	0.0140024
762.512	0.0141241
762.590	0.0139634
762.668	0.0139634
762.746	0.0139575
762.825	0.0139132
762.903	0.0138406
762.981	0.0140026
763.059	0.0139242
763.137	0.0137489
763.215	0.0137572
763.293	0.0137160
763.371	0.0136904
763.450	0.0137765
763.528	0.0138009
763.606	0.0138422
763.684	0.0138673
763.762	0.0137571
763.840	0.0137974
763.918	0.0138714
763.996	0.0138582
764.075	0.0139774
764.153	0.0138660
764.231	0.0139146
764.309	0.0140073
764.387	0.0139835
764.465	0.0140133
764.543	0.0139279
764.621	0.0140103
764.700	0.0138730
