05/04/2022	20:53:16	Ver.	4.1	UNKNOWN
Optical Delay	678.996401	Delta X		0.078125	Sweeps	1	Scan Rate	0/0
Coordinates	Axis 1	NaN	Axis 2	NaN	Axis 3	NaN	Axis 4	NaN	Axis 5	NaN	Axis 6	0.000000
TX Power	0.000000	RX Power	0.000000

678.996	0.0143735
679.075	0.0143862
679.153	0.0144306
679.231	0.0144272
679.309	0.0143074
679.387	0.0144493
679.465	0.0144942
679.543	0.0145797
679.621	0.0143795
679.700	0.0142019
679.778	0.0143912
679.856	0.0141727
679.934	0.0142703
680.012	0.0142821
680.090	0.0144257
680.168	0.0143437
680.246	0.0144214
680.325	0.0143468
680.403	0.0142708
680.481	0.0145097
680.559	0.0144012
680.637	0.0143928
680.715	0.0143094
680.793	0.0142424
680.871	0.0142558
680.950	0.0142595
681.028	0.0144415
681.106	0.0145024
681.184	0.0143866
681.262	0.0144874
681.340	0.0144794
681.418	0.0143860
681.496	0.0143653
681.575	0.0143568
681.653	0.0144027
681.731	0.0143546
681.809	0.0143139
681.887	0.0144030
681.965	0.0143983
682.043	0.0144081
682.121	0.0142882
682.200	0.0144838
682.278	0.0144902
682.356	0.0143721
682.434	0.0144411
682.512	0.0143776
682.590	0.0143172
682.668	0.0143060
682.746	0.0143846
682.825	0.0145977
682.903	0.0142915
682.981	0.0143179
683.059	0.0144252
683.137	0.0145014
683.215	0.0143959
683.293	0.0144386
683.371	0.0143765
683.450	0.0143264
683.528	0.0142773
683.606	0.0143322
683.684	0.0144053
683.762	0.0145339
683.840	0.0144730
683.918	0.0143164
683.996	0.0143730
684.075	0.0143491
684.153	0.0143201
684.231	0.0143903
684.309	0.0143678
684.387	0.0143517
684.465	0.0144602
684.543	0.0143041
684.621	0.0144607
684.700	0.0143687
684.778	0.0143324
684.856	0.0144894
684.934	0.0143107
685.012	0.0144546
685.090	0.0143037
685.168	0.0143121
685.246	0.0143513
685.325	0.0143189
685.403	0.0143053
685.481	0.0143348
685.559	0.0143429
685.637	0.0143226
685.715	0.0144013
685.793	0.0145945
685.871	0.0143626
685.950	0.0143498
686.028	0.0142041
686.106	0.0143312
686.184	0.0143500
686.262	0.0143697
686.340	0.0143185
686.418	0.0143724
686.496	0.0143745
686.575	0.0143611
686.653	0.0141481
686.731	0.0143456
686.809	0.0143937
686.887	0.0144167
686.965	0.0144535
687.043	0.0144603
687.121	0.0143389
687.200	0.0143871
687.278	0.0143105
687.356	0.0143052
687.434	0.0143587
687.512	0.0143755
687.590	0.0144913
687.668	0.0143999
687.746	0.0143069
687.825	0.0143598
687.903	0.0143545
687.981	0.0145002
688.059	0.0143472
688.137	0.0144000
688.215	0.0144181
688.293	0.0142856
688.371	0.0144830
688.450	0.0143082
688.528	0.0143114
688.606	0.0142904
688.684	0.0142299
688.762	0.0143111
688.840	0.0143494
688.918	0.0143695
688.996	0.0143722
689.075	0.0143079
689.153	0.0143633
689.231	0.0143747
689.309	0.0144099
689.387	0.0142430
689.465	0.0142736
689.543	0.0143360
689.621	0.0142551
689.700	0.0143067
689.778	0.0143255
689.856	0.0143145
689.934	0.0144579
690.012	0.0143334
690.090	0.0143440
690.168	0.0142896
690.246	0.0142224
690.325	0.0142598
690.403	0.0143000
690.481	0.0144611
690.559	0.0142890
690.637	0.0142508
690.715	0.0143887
690.793	0.0143394
690.871	0.0143172
690.950	0.0142059
691.028	0.0141425
691.106	0.0142594
691.184	0.0144176
691.262	0.0142146
691.340	0.0143076
691.418	0.0144364
691.496	0.0142966
691.575	0.0144118
691.653	0.0143669
691.731	0.0143829
691.809	0.0143655
691.887	0.0142491
691.965	0.0144552
692.043	0.0143742
692.121	0.0142181
692.200	0.0143588
692.278	0.0143195
692.356	0.0144106
692.434	0.0144630
692.512	0.0143653
692.590	0.0142398
692.668	0.0143783
692.746	0.0143754
692.825	0.0143308
692.903	0.0143935
692.981	0.0143057
693.059	0.0142809
693.137	0.0143105
693.215	0.0143481
693.293	0.0143382
693.371	0.0143840
693.450	0.0143730
693.528	0.0143050
693.606	0.0144246
693.684	0.0144108
693.762	0.0142886
693.840	0.0144351
693.918	0.0143628
693.996	0.0141948
694.075	0.0143513
694.153	0.0143576
694.231	0.0144189
694.309	0.0144534
694.387	0.0143839
694.465	0.0143958
694.543	0.0143589
694.621	0.0143657
694.700	0.0143446
694.778	0.0142783
694.856	0.0143114
694.934	0.0144033
695.012	0.0143298
695.090	0.0142624
695.168	0.0143603
695.246	0.0144210
695.325	0.0144794
695.403	0.0144752
695.481	0.0143137
695.559	0.0144929
695.637	0.0144110
695.715	0.0143657
695.793	0.0143674
695.871	0.0144411
695.950	0.0144262
696.028	0.0144276
696.106	0.0142852
696.184	0.0142995
696.262	0.0143920
696.340	0.0144188
696.418	0.0143934
696.496	0.0144247
696.575	0.0143497
696.653	0.0142919
696.731	0.0143237
696.809	0.0143279
696.887	0.0143826
696.965	0.0143281
697.043	0.0142915
697.121	0.0142211
697.200	0.0143970
697.278	0.0143398
697.356	0.0143095
697.434	0.0143556
697.512	0.0143868
697.590	0.0142924
697.668	0.0143276
697.746	0.0142775
697.825	0.0142906
697.903	0.0143197
697.981	0.0143729
698.059	0.0143454
698.137	0.0144061
698.215	0.0142645
698.293	0.0143360
698.371	0.0143418
698.450	0.0143948
698.528	0.0143269
698.606	0.0143400
698.684	0.0142516
698.762	0.0143732
698.840	0.0142920
698.918	0.0143565
698.996	0.0142529
699.075	0.0143688
699.153	0.0143562
699.231	0.0142944
699.309	0.0144349
699.387	0.0143381
699.465	0.0144514
699.543	0.0144471
699.621	0.0143002
699.700	0.0142712
699.778	0.0142995
699.856	0.0144051
699.934	0.0143118
700.012	0.0141613
700.090	0.0143337
700.168	0.0142261
700.246	0.0143644
700.325	0.0142579
700.403	0.0142384
700.481	0.0143290
700.559	0.0144170
700.637	0.0143449
700.715	0.0143855
700.793	0.0143868
700.871	0.0143443
700.950	0.0142987
701.028	0.0142937
701.106	0.0143605
701.184	0.0144495
701.262	0.0143068
701.340	0.0143726
701.418	0.0142571
701.496	0.0143696
701.575	0.0144262
701.653	0.0143964
701.731	0.0143511
701.809	0.0144234
701.887	0.0143243
701.965	0.0142339
702.043	0.0142874
702.121	0.0142909
702.200	0.0142970
702.278	0.0143713
702.356	0.0143242
702.434	0.0144688
702.512	0.0143511
702.590	0.0143625
702.668	0.0143478
702.746	0.0142327
702.825	0.0144110
702.903	0.0143821
702.981	0.0143052
703.059	0.0143737
703.137	0.0145404
703.215	0.0143563
703.293	0.0143310
703.371	0.0143690
703.450	0.0142890
703.528	0.0144231
703.606	0.0143998
703.684	0.0143080
703.762	0.0143567
703.840	0.0143453
703.918	0.0143100
703.996	0.0143901
704.075	0.0145132
704.153	0.0144246
704.231	0.0143864
704.309	0.0144966
704.387	0.0143944
704.465	0.0143851
704.543	0.0144415
704.621	0.0143292
704.700	0.0143763
704.778	0.0143265
704.856	0.0144082
704.934	0.0143669
705.012	0.0143745
705.090	0.0144347
705.168	0.0143265
705.246	0.0143992
705.325	0.0144434
705.403	0.0143574
705.481	0.0144078
705.559	0.0144196
705.637	0.0143372
705.715	0.0143460
705.793	0.0144216
705.871	0.0143433
705.950	0.0144956
706.028	0.0144260
706.106	0.0143819
706.184	0.0143184
706.262	0.0143573
706.340	0.0143690
706.418	0.0144281
706.496	0.0143105
706.575	0.0143436
706.653	0.0145058
706.731	0.0143157
706.809	0.0143224
706.887	0.0143201
706.965	0.0143255
707.043	0.0142599
707.121	0.0143708
707.200	0.0144491
707.278	0.0143494
707.356	0.0142983
707.434	0.0143728
707.512	0.0142944
707.590	0.0144180
707.668	0.0144141
707.746	0.0144164
707.825	0.0144034
707.903	0.0143944
707.981	0.0143771
708.059	0.0144057
708.137	0.0144786
708.215	0.0143451
708.293	0.0142049
708.371	0.0145073
708.450	0.0143961
708.528	0.0145031
708.606	0.0145192
708.684	0.0145501
708.762	0.0144308
708.840	0.0145969
708.918	0.0144723
708.996	0.0144254
709.075	0.0145007
709.153	0.0143403
709.231	0.0143003
709.309	0.0143347
709.387	0.0142823
709.465	0.0143478
709.543	0.0143761
709.621	0.0142458
709.700	0.0143312
709.778	0.0143614
709.856	0.0143578
709.934	0.0144252
710.012	0.0144078
710.090	0.0143425
710.168	0.0143613
710.246	0.0142709
710.325	0.0143600
710.403	0.0144789
710.481	0.0142520
710.559	0.0144849
710.637	0.0145539
710.715	0.0147327
710.793	0.0145972
710.871	0.0147174
710.950	0.0147229
711.028	0.0145821
711.106	0.0144540
711.184	0.0143530
711.262	0.0142478
711.340	0.0142936
711.418	0.0141485
711.496	0.0143791
711.575	0.0143138
711.653	0.0144098
711.731	0.0145316
711.809	0.0143530
711.887	0.0143293
711.965	0.0141475
712.043	0.0141586
712.121	0.0141971
712.200	0.0141129
712.278	0.0141100
712.356	0.0141001
712.434	0.0142275
712.512	0.0145626
712.590	0.0146094
712.668	0.0149799
712.746	0.0148528
712.825	0.0149223
712.903	0.0150862
712.981	0.0148673
713.059	0.0148197
713.137	0.0148679
713.215	0.0146252
713.293	0.0144730
713.371	0.0141335
713.450	0.0140858
713.528	0.0138966
713.606	0.0138588
713.684	0.0140295
713.762	0.0139924
713.840	0.0140243
713.918	0.0142151
713.996	0.0142880
714.075	0.0145579
714.153	0.0145639
714.231	0.0147577
714.309	0.0148479
714.387	0.0149171
714.465	0.0148815
714.543	0.0148750
714.621	0.0149196
714.700	0.0148011
714.778	0.0147882
714.856	0.0145191
714.934	0.0142651
715.012	0.0139912
715.090	0.0136841
715.168	0.0134902
715.246	0.0132620
715.325	0.0131313
715.403	0.0132345
715.481	0.0133404
715.559	0.0136266
715.637	0.0139026
715.715	0.0141116
715.793	0.0145129
715.871	0.0147643
715.950	0.0149995
716.028	0.0152184
716.106	0.0151039
716.184	0.0147996
716.262	0.0146381
716.340	0.0142785
716.418	0.0139174
716.496	0.0135573
716.575	0.0133553
716.653	0.0130888
716.731	0.0131937
716.809	0.0132933
716.887	0.0135651
716.965	0.0137788
717.043	0.0142172
717.121	0.0147231
717.200	0.0150401
717.278	0.0156532
717.356	0.0158727
717.434	0.0159610
717.512	0.0161536
717.590	0.0162447
717.668	0.0161830
717.746	0.0160635
717.825	0.0156882
717.903	0.0154654
717.981	0.0150642
718.059	0.0145435
718.137	0.0140702
718.215	0.0136235
718.293	0.0132805
718.371	0.0129992
718.450	0.0128856
718.528	0.0128160
718.606	0.0130634
718.684	0.0135173
718.762	0.0138167
718.840	0.0140993
718.918	0.0146411
718.996	0.0149919
719.075	0.0153442
719.153	0.0154640
719.231	0.0155025
719.309	0.0153990
719.387	0.0152688
719.465	0.0150869
719.543	0.0145987
719.621	0.0141761
719.700	0.0140802
719.778	0.0137038
719.856	0.0133987
719.934	0.0133681
720.012	0.0133776
720.090	0.0134550
720.168	0.0137797
720.246	0.0140173
720.325	0.0144151
720.403	0.0147968
720.481	0.0151173
720.559	0.0151648
720.637	0.0153310
720.715	0.0152426
720.793	0.0152020
720.871	0.0149499
720.950	0.0147250
721.028	0.0144409
721.106	0.0141113
721.184	0.0137530
721.262	0.0135202
721.340	0.0132531
721.418	0.0129721
721.496	0.0130302
721.575	0.0130794
721.653	0.0133722
721.731	0.0135458
721.809	0.0136610
721.887	0.0138711
721.965	0.0143649
722.043	0.0146753
722.121	0.0151292
722.200	0.0154598
722.278	0.0156676
722.356	0.0156918
722.434	0.0156909
722.512	0.0154989
722.590	0.0154505
722.668	0.0152379
722.746	0.0149612
722.825	0.0148596
722.903	0.0144855
722.981	0.0142583
723.059	0.0139903
723.137	0.0138496
723.215	0.0135995
723.293	0.0136890
723.371	0.0137275
723.450	0.0136871
723.528	0.0138051
723.606	0.0140140
723.684	0.0142712
723.762	0.0144886
723.840	0.0148065
723.918	0.0151527
723.996	0.0154490
724.075	0.0154281
724.153	0.0156857
724.231	0.0156301
724.309	0.0154819
724.387	0.0152183
724.465	0.0150311
724.543	0.0147948
724.621	0.0144492
724.700	0.0142690
724.778	0.0139671
724.856	0.0136715
724.934	0.0136021
725.012	0.0134318
725.090	0.0133015
725.168	0.0132410
725.246	0.0133658
725.325	0.0132343
725.403	0.0134910
725.481	0.0139570
725.559	0.0141573
725.637	0.0144084
725.715	0.0146610
725.793	0.0149219
725.871	0.0152060
725.950	0.0151900
726.028	0.0153976
726.106	0.0154304
726.184	0.0152586
726.262	0.0151557
726.340	0.0150230
726.418	0.0146938
726.496	0.0144041
726.575	0.0141872
726.653	0.0137162
726.731	0.0135196
726.809	0.0134760
726.887	0.0134051
726.965	0.0133435
727.043	0.0133390
727.121	0.0134550
727.200	0.0135638
727.278	0.0137242
727.356	0.0140564
727.434	0.0143568
727.512	0.0147070
727.590	0.0147851
727.668	0.0150957
727.746	0.0152222
727.825	0.0153532
727.903	0.0153804
727.981	0.0151727
728.059	0.0150557
728.137	0.0149787
728.215	0.0149238
728.293	0.0148190
728.371	0.0144028
728.450	0.0142712
728.528	0.0141506
728.606	0.0140131
728.684	0.0139162
728.762	0.0139136
728.840	0.0139197
728.918	0.0140779
728.996	0.0140179
729.075	0.0142681
729.153	0.0143206
729.231	0.0142690
729.309	0.0145061
729.387	0.0146989
729.465	0.0146162
729.543	0.0146545
729.621	0.0147794
729.700	0.0146719
729.778	0.0146580
729.856	0.0147356
729.934	0.0146626
730.012	0.0146211
730.090	0.0144533
730.168	0.0144221
730.246	0.0144019
730.325	0.0143890
730.403	0.0143427
730.481	0.0141530
730.559	0.0141502
730.637	0.0142720
730.715	0.0142755
730.793	0.0142026
730.871	0.0142352
730.950	0.0142208
731.028	0.0140446
731.106	0.0140601
731.184	0.0142598
731.262	0.0142175
731.340	0.0140457
731.418	0.0140285
731.496	0.0141171
731.575	0.0141070
731.653	0.0142272
731.731	0.0141888
731.809	0.0144435
731.887	0.0145334
731.965	0.0146799
732.043	0.0146211
732.121	0.0147475
732.200	0.0147342
732.278	0.0148801
732.356	0.0149055
732.434	0.0146939
732.512	0.0145915
732.590	0.0144111
732.668	0.0142699
732.746	0.0141660
732.825	0.0138834
732.903	0.0137081
732.981	0.0136962
733.059	0.0136306
733.137	0.0134711
733.215	0.0136234
733.293	0.0136297
733.371	0.0136897
733.450	0.0137870
733.528	0.0139255
733.606	0.0141660
733.684	0.0143786
733.762	0.0145302
733.840	0.0146453
733.918	0.0147173
733.996	0.0149068
734.075	0.0150172
734.153	0.0148995
734.231	0.0151211
734.309	0.0148668
734.387	0.0146761
734.465	0.0147504
734.543	0.0148576
734.621	0.0146760
734.700	0.0145672
734.778	0.0145062
734.856	0.0143563
734.934	0.0142773
735.012	0.0141486
735.090	0.0140445
735.168	0.0138575
735.246	0.0137876
735.325	0.0138771
735.403	0.0138181
735.481	0.0139072
735.559	0.0138953
735.637	0.0139542
735.715	0.0139877
735.793	0.0141666
735.871	0.0143499
735.950	0.0142839
736.028	0.0144299
736.106	0.0145651
736.184	0.0147168
736.262	0.0147962
736.340	0.0149782
736.418	0.0149404
736.496	0.0150697
736.575	0.0150611
736.653	0.0149654
736.731	0.0148775
736.809	0.0146811
736.887	0.0144009
736.965	0.0144808
737.043	0.0144028
737.121	0.0144283
737.200	0.0141953
737.278	0.0141637
737.356	0.0139719
737.434	0.0140058
737.512	0.0141203
737.590	0.0141548
737.668	0.0142300
737.746	0.0142412
737.825	0.0142613
737.903	0.0145288
737.981	0.0145178
738.059	0.0145681
738.137	0.0147269
738.215	0.0146562
738.293	0.0146127
738.371	0.0146933
738.450	0.0146059
738.528	0.0146658
738.606	0.0144952
738.684	0.0147105
738.762	0.0146249
738.840	0.0144061
738.918	0.0144159
738.996	0.0144633
739.075	0.0145047
739.153	0.0144134
739.231	0.0143491
739.309	0.0142758
739.387	0.0142418
739.465	0.0141232
739.543	0.0142592
739.621	0.0142350
739.700	0.0141544
739.778	0.0140080
739.856	0.0138770
739.934	0.0137572
740.012	0.0138583
740.090	0.0137450
740.168	0.0138313
740.246	0.0139389
740.325	0.0139877
740.403	0.0141573
740.481	0.0143399
740.559	0.0143095
740.637	0.0147585
740.715	0.0146983
740.793	0.0150417
740.871	0.0150155
740.950	0.0149379
741.028	0.0148957
741.106	0.0148739
741.184	0.0148096
741.262	0.0147773
741.340	0.0146719
741.418	0.0143214
741.496	0.0142413
741.575	0.0142999
741.653	0.0140948
741.731	0.0139620
741.809	0.0138916
741.887	0.0138453
741.965	0.0138565
742.043	0.0139120
742.121	0.0139320
742.200	0.0140255
742.278	0.0142511
742.356	0.0141898
742.434	0.0142425
742.512	0.0142985
742.590	0.0142892
742.668	0.0144740
742.746	0.0144638
742.825	0.0145152
742.903	0.0145411
742.981	0.0145272
743.059	0.0144312
743.137	0.0145457
743.215	0.0145087
743.293	0.0145145
743.371	0.0144872
743.450	0.0144289
743.528	0.0144189
743.606	0.0143418
743.684	0.0143829
743.762	0.0142370
743.840	0.0143272
743.918	0.0144257
743.996	0.0142161
744.075	0.0141711
744.153	0.0141754
744.231	0.0142775
744.309	0.0139973
744.387	0.0141177
744.465	0.0141276
744.543	0.0142405
744.621	0.0143967
744.700	0.0143901
744.778	0.0144878
744.856	0.0146080
744.934	0.0146870
745.012	0.0146284
745.090	0.0145882
745.168	0.0146900
745.246	0.0146046
745.325	0.0145512
745.403	0.0144989
745.481	0.0144978
745.559	0.0142612
745.637	0.0141320
745.715	0.0141190
745.793	0.0141628
745.871	0.0140993
745.950	0.0141235
746.028	0.0141542
746.106	0.0142099
746.184	0.0142661
746.262	0.0143008
746.340	0.0142652
746.418	0.0144753
746.496	0.0144344
746.575	0.0146786
746.653	0.0148318
746.731	0.0148790
746.809	0.0147783
746.887	0.0146429
746.965	0.0147318
747.043	0.0146838
747.121	0.0145215
747.200	0.0146416
747.278	0.0144322
747.356	0.0143469
747.434	0.0140713
747.512	0.0140247
747.590	0.0141474
747.668	0.0140714
747.746	0.0140685
747.825	0.0140476
747.903	0.0140575
747.981	0.0141130
748.059	0.0143080
748.137	0.0144717
748.215	0.0144397
748.293	0.0145020
748.371	0.0146028
748.450	0.0146642
748.528	0.0148309
748.606	0.0147362
748.684	0.0147764
748.762	0.0147250
748.840	0.0148413
748.918	0.0146581
748.996	0.0145175
749.075	0.0145113
749.153	0.0143258
749.231	0.0143555
749.309	0.0142246
749.387	0.0141820
749.465	0.0140396
749.543	0.0140837
749.621	0.0140181
749.700	0.0141606
749.778	0.0141483
749.856	0.0140565
749.934	0.0141942
750.012	0.0142545
750.090	0.0144479
750.168	0.0145409
750.246	0.0143153
750.325	0.0144089
750.403	0.0145010
750.481	0.0145466
750.559	0.0144415
750.637	0.0145565
750.715	0.0143556
750.793	0.0142956
750.871	0.0144416
750.950	0.0143169
751.028	0.0143741
751.106	0.0144724
751.184	0.0144086
751.262	0.0142950
751.340	0.0144098
751.418	0.0143878
751.496	0.0143695
751.575	0.0144272
751.653	0.0143900
751.731	0.0144014
751.809	0.0143336
751.887	0.0143368
751.965	0.0142548
752.043	0.0142136
752.121	0.0143661
752.200	0.0142214
752.278	0.0142565
752.356	0.0141532
752.434	0.0143053
752.512	0.0144165
752.590	0.0144839
752.668	0.0146085
752.746	0.0146088
752.825	0.0145280
752.903	0.0145797
752.981	0.0146520
753.059	0.0145383
753.137	0.0143784
753.215	0.0144749
753.293	0.0145217
753.371	0.0143850
753.450	0.0145171
753.528	0.0144193
753.606	0.0143497
753.684	0.0142616
753.762	0.0143959
753.840	0.0143542
753.918	0.0144680
753.996	0.0143304
754.075	0.0143568
754.153	0.0144352
754.231	0.0144658
754.309	0.0144921
754.387	0.0145453
754.465	0.0144078
754.543	0.0144827
754.621	0.0144421
754.700	0.0144939
754.778	0.0144008
754.856	0.0144467
754.934	0.0143001
755.012	0.0143227
755.090	0.0143092
755.168	0.0140973
755.246	0.0140887
755.325	0.0141290
755.403	0.0140891
755.481	0.0141187
755.559	0.0142287
755.637	0.0143462
755.715	0.0142783
755.793	0.0142953
755.871	0.0144510
755.950	0.0144113
756.028	0.0145839
756.106	0.0145406
756.184	0.0145644
756.262	0.0146911
756.340	0.0145584
756.418	0.0145403
756.496	0.0144396
756.575	0.0143803
756.653	0.0142842
756.731	0.0142764
756.809	0.0142524
756.887	0.0141804
756.965	0.0142123
757.043	0.0141039
757.121	0.0139585
757.200	0.0141618
757.278	0.0142028
757.356	0.0141661
757.434	0.0142119
757.512	0.0142640
757.590	0.0142540
757.668	0.0142564
757.746	0.0143516
757.825	0.0142794
757.903	0.0142772
757.981	0.0143234
758.059	0.0142928
758.137	0.0143059
758.215	0.0143376
758.293	0.0143941
758.371	0.0142961
758.450	0.0142963
758.528	0.0143893
758.606	0.0142459
758.684	0.0144128
758.762	0.0144827
758.840	0.0145169
758.918	0.0145553
758.996	0.0145934
759.075	0.0146422
759.153	0.0144731
759.231	0.0145361
759.309	0.0144542
759.387	0.0143204
759.465	0.0143533
759.543	0.0142882
759.621	0.0142876
759.700	0.0143321
759.778	0.0143066
759.856	0.0141496
759.934	0.0141351
760.012	0.0142421
760.090	0.0142046
760.168	0.0142858
760.246	0.0142444
760.325	0.0144157
760.403	0.0145010
760.481	0.0144437
760.559	0.0145892
760.637	0.0145719
760.715	0.0146571
760.793	0.0146397
760.871	0.0146620
760.950	0.0146092
761.028	0.0145159
761.106	0.0144316
761.184	0.0144671
761.262	0.0144806
761.340	0.0145418
761.418	0.0144396
761.496	0.0144422
761.575	0.0143524
761.653	0.0143913
761.731	0.0143698
761.809	0.0144105
761.887	0.0145277
761.965	0.0143644
762.043	0.0143659
762.121	0.0143980
762.200	0.0145110
762.278	0.0145570
762.356	0.0144939
762.434	0.0145753
762.512	0.0144447
762.590	0.0144157
762.668	0.0144822
762.746	0.0144131
762.825	0.0144565
762.903	0.0143961
762.981	0.0143266
763.059	0.0143215
763.137	0.0143417
763.215	0.0142345
763.293	0.0143484
763.371	0.0143793
763.450	0.0143824
763.528	0.0142755
763.606	0.0142449
763.684	0.0144770
763.762	0.0143172
763.840	0.0144085
763.918	0.0144785
763.996	0.0145329
764.075	0.0144299
764.153	0.0144143
764.231	0.0144109
764.309	0.0143678
764.387	0.0143933
764.465	0.0144566
764.543	0.0144127
764.621	0.0142904
764.700	0.0144469
