05/04/2022	20:53:41	Ver.	4.1	UNKNOWN
Optical Delay	678.996401	Delta X		0.078125	Sweeps	1	Scan Rate	0/0
Coordinates	Axis 1	NaN	Axis 2	NaN	Axis 3	NaN	Axis 4	NaN	Axis 5	NaN	Axis 6	0.000000
TX Power	0.000000	RX Power	0.000000

678.996	0.0141946
679.075	0.0141858
679.153	0.0142826
679.231	0.0141217
679.309	0.0142628
679.387	0.0141898
679.465	0.0142437
679.543	0.0142853
679.621	0.0142534
679.700	0.0143168
679.778	0.0142248
679.856	0.0141813
679.934	0.0142701
680.012	0.0142089
680.090	0.0142192
680.168	0.0142187
680.246	0.0141722
680.325	0.0142951
680.403	0.0143705
680.481	0.0143233
680.559	0.0141866
680.637	0.0141599
680.715	0.0141502
680.793	0.0142532
680.871	0.0143018
680.950	0.0142116
681.028	0.0141624
681.106	0.0141783
681.184	0.0143235
681.262	0.0142092
681.340	0.0141916
681.418	0.0143083
681.496	0.0144475
681.575	0.0143413
681.653	0.0143066
681.731	0.0142580
681.809	0.0143244
681.887	0.0142374
681.965	0.0140504
682.043	0.0142735
682.121	0.0143838
682.200	0.0141927
682.278	0.0143676
682.356	0.0142429
682.434	0.0143633
682.512	0.0141847
682.590	0.0141023
682.668	0.0142582
682.746	0.0141859
682.825	0.0142118
682.903	0.0142020
682.981	0.0143938
683.059	0.0143692
683.137	0.0142643
683.215	0.0141717
683.293	0.0143073
683.371	0.0141879
683.450	0.0140525
683.528	0.0142364
683.606	0.0142593
683.684	0.0142130
683.762	0.0143112
683.840	0.0142883
683.918	0.0142854
683.996	0.0143324
684.075	0.0142947
684.153	0.0142744
684.231	0.0140665
684.309	0.0141916
684.387	0.0141917
684.465	0.0143245
684.543	0.0142937
684.621	0.0142155
684.700	0.0142751
684.778	0.0141685
684.856	0.0142069
684.934	0.0142476
685.012	0.0143530
685.090	0.0143447
685.168	0.0143450
685.246	0.0141562
685.325	0.0142036
685.403	0.0143044
685.481	0.0141550
685.559	0.0142004
685.637	0.0142906
685.715	0.0142313
685.793	0.0143050
685.871	0.0143490
685.950	0.0141720
686.028	0.0142891
686.106	0.0141647
686.184	0.0140884
686.262	0.0141898
686.340	0.0141569
686.418	0.0142596
686.496	0.0141068
686.575	0.0141479
686.653	0.0142453
686.731	0.0141941
686.809	0.0143192
686.887	0.0142110
686.965	0.0141300
687.043	0.0141531
687.121	0.0142210
687.200	0.0142576
687.278	0.0141438
687.356	0.0142229
687.434	0.0140896
687.512	0.0142043
687.590	0.0142211
687.668	0.0142027
687.746	0.0143192
687.825	0.0140051
687.903	0.0141751
687.981	0.0142683
688.059	0.0140961
688.137	0.0142726
688.215	0.0142275
688.293	0.0142085
688.371	0.0142844
688.450	0.0141595
688.528	0.0142342
688.606	0.0140578
688.684	0.0140829
688.762	0.0141335
688.840	0.0142167
688.918	0.0142547
688.996	0.0143539
689.075	0.0142779
689.153	0.0142534
689.231	0.0142204
689.309	0.0142482
689.387	0.0142790
689.465	0.0142278
689.543	0.0142133
689.621	0.0142601
689.700	0.0142738
689.778	0.0143067
689.856	0.0141508
689.934	0.0141467
690.012	0.0142175
690.090	0.0142793
690.168	0.0142396
690.246	0.0142316
690.325	0.0141377
690.403	0.0142094
690.481	0.0141302
690.559	0.0143620
690.637	0.0144009
690.715	0.0143217
690.793	0.0143295
690.871	0.0142741
690.950	0.0143347
691.028	0.0142348
691.106	0.0141808
691.184	0.0142814
691.262	0.0143330
691.340	0.0143164
691.418	0.0142232
691.496	0.0141827
691.575	0.0141687
691.653	0.0141645
691.731	0.0141137
691.809	0.0142168
691.887	0.0142118
691.965	0.0141977
692.043	0.0141718
692.121	0.0141411
692.200	0.0141128
692.278	0.0141708
692.356	0.0142406
692.434	0.0142583
692.512	0.0141747
692.590	0.0140545
692.668	0.0141188
692.746	0.0140778
692.825	0.0141287
692.903	0.0141833
692.981	0.0143388
693.059	0.0143086
693.137	0.0142779
693.215	0.0140994
693.293	0.0141652
693.371	0.0142121
693.450	0.0141800
693.528	0.0143352
693.606	0.0142195
693.684	0.0142090
693.762	0.0141627
693.840	0.0143114
693.918	0.0141164
693.996	0.0142188
694.075	0.0142365
694.153	0.0141946
694.231	0.0142733
694.309	0.0142586
694.387	0.0142648
694.465	0.0141425
694.543	0.0141623
694.621	0.0142599
694.700	0.0141832
694.778	0.0141162
694.856	0.0142017
694.934	0.0142325
695.012	0.0142790
695.090	0.0141916
695.168	0.0142293
695.246	0.0141577
695.325	0.0143221
695.403	0.0143225
695.481	0.0142218
695.559	0.0141072
695.637	0.0141785
695.715	0.0142298
695.793	0.0141677
695.871	0.0142945
695.950	0.0142924
696.028	0.0141490
696.106	0.0141833
696.184	0.0141616
696.262	0.0142388
696.340	0.0142800
696.418	0.0142531
696.496	0.0142033
696.575	0.0141830
696.653	0.0140843
696.731	0.0142951
696.809	0.0143229
696.887	0.0142586
696.965	0.0143599
697.043	0.0142003
697.121	0.0140957
697.200	0.0142030
697.278	0.0141926
697.356	0.0143868
697.434	0.0143404
697.512	0.0141158
697.590	0.0142413
697.668	0.0141222
697.746	0.0141724
697.825	0.0142696
697.903	0.0142382
697.981	0.0140876
698.059	0.0143226
698.137	0.0142411
698.215	0.0141975
698.293	0.0141183
698.371	0.0144072
698.450	0.0142325
698.528	0.0142093
698.606	0.0141441
698.684	0.0141189
698.762	0.0142525
698.840	0.0143189
698.918	0.0142176
698.996	0.0141701
699.075	0.0141694
699.153	0.0142638
699.231	0.0141994
699.309	0.0141856
699.387	0.0142365
699.465	0.0141566
699.543	0.0143410
699.621	0.0142171
699.700	0.0142390
699.778	0.0143016
699.856	0.0141634
699.934	0.0141788
700.012	0.0141660
700.090	0.0141882
700.168	0.0142634
700.246	0.0142223
700.325	0.0141255
700.403	0.0142465
700.481	0.0143116
700.559	0.0142144
700.637	0.0142109
700.715	0.0142912
700.793	0.0142751
700.871	0.0142512
700.950	0.0142194
701.028	0.0143138
701.106	0.0142332
701.184	0.0142602
701.262	0.0142256
701.340	0.0141263
701.418	0.0142616
701.496	0.0142178
701.575	0.0141493
701.653	0.0140529
701.731	0.0141070
701.809	0.0142393
701.887	0.0142194
701.965	0.0142535
702.043	0.0142165
702.121	0.0141933
702.200	0.0141039
702.278	0.0142099
702.356	0.0141751
702.434	0.0141887
702.512	0.0141909
702.590	0.0141223
702.668	0.0142168
702.746	0.0141191
702.825	0.0141362
702.903	0.0141878
702.981	0.0141859
703.059	0.0141869
703.137	0.0144245
703.215	0.0140849
703.293	0.0142290
703.371	0.0142622
703.450	0.0141743
703.528	0.0142131
703.606	0.0142068
703.684	0.0141083
703.762	0.0140540
703.840	0.0142271
703.918	0.0141549
703.996	0.0142870
704.075	0.0141505
704.153	0.0142425
704.231	0.0142426
704.309	0.0141686
704.387	0.0142783
704.465	0.0142947
704.543	0.0141740
704.621	0.0140836
704.700	0.0143335
704.778	0.0142762
704.856	0.0142496
704.934	0.0143274
705.012	0.0141510
705.090	0.0141621
705.168	0.0142519
705.246	0.0142453
705.325	0.0140953
705.403	0.0142909
705.481	0.0141335
705.559	0.0142484
705.637	0.0141619
705.715	0.0142696
705.793	0.0143694
705.871	0.0141004
705.950	0.0142393
706.028	0.0142538
706.106	0.0141257
706.184	0.0142437
706.262	0.0142376
706.340	0.0142196
706.418	0.0141953
706.496	0.0141031
706.575	0.0142752
706.653	0.0141272
706.731	0.0141162
706.809	0.0143280
706.887	0.0141316
706.965	0.0141612
707.043	0.0141188
707.121	0.0141663
707.200	0.0140614
707.278	0.0141473
707.356	0.0142395
707.434	0.0142408
707.512	0.0142484
707.590	0.0142577
707.668	0.0142123
707.746	0.0141943
707.825	0.0141596
707.903	0.0141981
707.981	0.0141107
708.059	0.0141736
708.137	0.0142532
708.215	0.0143215
708.293	0.0142988
708.371	0.0142087
708.450	0.0142592
708.528	0.0143045
708.606	0.0142931
708.684	0.0142541
708.762	0.0143652
708.840	0.0142252
708.918	0.0141460
708.996	0.0142683
709.075	0.0141656
709.153	0.0141528
709.231	0.0141812
709.309	0.0141719
709.387	0.0141438
709.465	0.0141369
709.543	0.0141523
709.621	0.0140678
709.700	0.0140590
709.778	0.0142360
709.856	0.0142739
709.934	0.0141887
710.012	0.0141125
710.090	0.0141925
710.168	0.0142662
710.246	0.0141596
710.325	0.0139951
710.403	0.0141474
710.481	0.0142314
710.559	0.0142540
710.637	0.0144584
710.715	0.0146011
710.793	0.0145579
710.871	0.0144542
710.950	0.0144182
711.028	0.0142735
711.106	0.0140771
711.184	0.0140877
711.262	0.0139799
711.340	0.0139203
711.418	0.0140398
711.496	0.0140440
711.575	0.0140822
711.653	0.0143269
711.731	0.0143773
711.809	0.0142942
711.887	0.0142406
711.965	0.0142512
712.043	0.0142419
712.121	0.0141537
712.200	0.0140533
712.278	0.0140667
712.356	0.0141321
712.434	0.0142255
712.512	0.0142230
712.590	0.0144791
712.668	0.0146153
712.746	0.0146684
712.825	0.0145129
712.903	0.0147398
712.981	0.0149122
713.059	0.0144516
713.137	0.0144995
713.215	0.0143301
713.293	0.0141564
713.371	0.0140620
713.450	0.0138840
713.528	0.0139967
713.606	0.0138454
713.684	0.0138844
713.762	0.0139523
713.840	0.0139740
713.918	0.0141891
713.996	0.0142046
714.075	0.0141389
714.153	0.0143501
714.231	0.0144704
714.309	0.0146440
714.387	0.0147082
714.465	0.0146178
714.543	0.0147746
714.621	0.0150023
714.700	0.0148607
714.778	0.0146724
714.856	0.0145651
714.934	0.0143941
715.012	0.0140382
715.090	0.0137359
715.168	0.0132523
715.246	0.0129815
715.325	0.0128602
715.403	0.0126446
715.481	0.0125164
715.559	0.0129332
715.637	0.0130952
715.715	0.0132294
715.793	0.0138290
715.871	0.0142041
715.950	0.0143996
716.028	0.0146358
716.106	0.0149842
716.184	0.0149973
716.262	0.0148406
716.340	0.0147995
716.418	0.0144028
716.496	0.0142905
716.575	0.0141019
716.653	0.0138295
716.731	0.0135110
716.809	0.0136897
716.887	0.0137185
716.965	0.0137099
717.043	0.0139066
717.121	0.0141328
717.200	0.0144257
717.278	0.0145812
717.356	0.0149706
717.434	0.0151770
717.512	0.0154450
717.590	0.0156195
717.668	0.0156287
717.746	0.0155398
717.825	0.0154170
717.903	0.0153582
717.981	0.0151434
718.059	0.0146814
718.137	0.0144619
718.215	0.0141205
718.293	0.0135306
718.371	0.0132507
718.450	0.0128935
718.528	0.0128408
718.606	0.0127369
718.684	0.0128387
718.762	0.0128986
718.840	0.0133896
718.918	0.0137891
718.996	0.0142970
719.075	0.0148133
719.153	0.0150485
719.231	0.0152957
719.309	0.0154440
719.387	0.0153436
719.465	0.0152222
719.543	0.0149677
719.621	0.0148081
719.700	0.0141180
719.778	0.0137704
719.856	0.0134478
719.934	0.0133762
720.012	0.0131740
720.090	0.0131036
720.168	0.0133111
720.246	0.0134904
720.325	0.0139092
720.403	0.0140462
720.481	0.0143826
720.559	0.0147186
720.637	0.0147696
720.715	0.0150213
720.793	0.0150366
720.871	0.0148916
720.950	0.0148519
721.028	0.0145063
721.106	0.0142087
721.184	0.0139738
721.262	0.0138921
721.340	0.0135948
721.418	0.0131189
721.496	0.0128293
721.575	0.0127125
721.653	0.0127296
721.731	0.0127328
721.809	0.0131320
721.887	0.0132065
721.965	0.0136021
722.043	0.0141433
722.121	0.0146399
722.200	0.0149639
722.278	0.0153622
722.356	0.0156401
722.434	0.0157371
722.512	0.0158833
722.590	0.0158383
722.668	0.0156163
722.746	0.0153067
722.825	0.0151210
722.903	0.0147585
722.981	0.0144884
723.059	0.0141645
723.137	0.0140259
723.215	0.0136469
723.293	0.0134441
723.371	0.0133125
723.450	0.0131033
723.528	0.0131052
723.606	0.0133077
723.684	0.0134802
723.762	0.0135291
723.840	0.0139317
723.918	0.0141669
723.996	0.0144411
724.075	0.0150129
724.153	0.0153307
724.231	0.0153975
724.309	0.0154869
724.387	0.0155835
724.465	0.0155442
724.543	0.0153671
724.621	0.0150739
724.700	0.0147995
724.778	0.0145523
724.856	0.0140072
724.934	0.0138783
725.012	0.0135815
725.090	0.0133813
725.168	0.0131887
725.246	0.0131561
725.325	0.0128986
725.403	0.0129283
725.481	0.0130726
725.559	0.0132743
725.637	0.0135694
725.715	0.0137246
725.793	0.0140844
725.871	0.0143424
725.950	0.0145774
726.028	0.0148792
726.106	0.0150032
726.184	0.0151263
726.262	0.0152048
726.340	0.0150987
726.418	0.0150655
726.496	0.0148795
726.575	0.0146324
726.653	0.0144000
726.731	0.0140790
726.809	0.0138734
726.887	0.0136377
726.965	0.0134050
727.043	0.0132796
727.121	0.0131066
727.200	0.0131641
727.278	0.0133153
727.356	0.0134148
727.434	0.0136484
727.512	0.0137996
727.590	0.0140374
727.668	0.0141747
727.746	0.0144694
727.825	0.0146767
727.903	0.0147742
727.981	0.0150238
728.059	0.0150603
728.137	0.0149281
728.215	0.0151200
728.293	0.0150954
728.371	0.0149011
728.450	0.0148687
728.528	0.0145074
728.606	0.0144048
728.684	0.0143203
728.762	0.0141145
728.840	0.0139126
728.918	0.0137815
728.996	0.0137447
729.075	0.0138223
729.153	0.0137392
729.231	0.0137318
729.309	0.0137291
729.387	0.0138034
729.465	0.0139671
729.543	0.0139759
729.621	0.0141884
729.700	0.0141951
729.778	0.0143896
729.856	0.0143295
729.934	0.0142910
730.012	0.0143233
730.090	0.0145696
730.168	0.0144213
730.246	0.0144039
730.325	0.0143627
730.403	0.0144257
730.481	0.0144753
730.559	0.0142847
730.637	0.0142609
730.715	0.0142267
730.793	0.0142529
730.871	0.0143027
730.950	0.0143031
731.028	0.0142364
731.106	0.0141775
731.184	0.0140328
731.262	0.0139840
731.340	0.0139678
731.418	0.0138127
731.496	0.0137666
731.575	0.0137180
731.653	0.0137044
731.731	0.0138602
731.809	0.0140535
731.887	0.0140091
731.965	0.0140142
732.043	0.0141382
732.121	0.0143227
732.200	0.0143350
732.278	0.0144296
732.356	0.0143886
732.434	0.0144324
732.512	0.0143365
732.590	0.0143472
732.668	0.0143098
732.746	0.0142344
732.825	0.0141692
732.903	0.0140347
732.981	0.0139023
733.059	0.0136516
733.137	0.0138780
733.215	0.0136028
733.293	0.0134943
733.371	0.0136567
733.450	0.0136531
733.528	0.0137360
733.606	0.0138425
733.684	0.0138479
733.762	0.0140621
733.840	0.0141496
733.918	0.0144050
733.996	0.0145541
734.075	0.0143707
734.153	0.0146039
734.231	0.0147428
734.309	0.0146115
734.387	0.0148022
734.465	0.0147773
734.543	0.0146600
734.621	0.0146754
734.700	0.0144957
734.778	0.0142524
734.856	0.0142137
734.934	0.0143150
735.012	0.0142935
735.090	0.0139736
735.168	0.0138730
735.246	0.0140290
735.325	0.0139494
735.403	0.0139133
735.481	0.0138817
735.559	0.0137291
735.637	0.0137298
735.715	0.0137961
735.793	0.0138854
735.871	0.0139863
735.950	0.0141212
736.028	0.0140896
736.106	0.0142098
736.184	0.0143833
736.262	0.0144395
736.340	0.0147777
736.418	0.0147392
736.496	0.0149213
736.575	0.0148934
736.653	0.0148571
736.731	0.0149075
736.809	0.0148941
736.887	0.0146754
736.965	0.0146539
737.043	0.0144806
737.121	0.0143665
737.200	0.0141792
737.278	0.0139700
737.356	0.0140073
737.434	0.0138776
737.512	0.0139186
737.590	0.0139292
737.668	0.0139223
737.746	0.0138393
737.825	0.0139999
737.903	0.0141363
737.981	0.0142562
738.059	0.0142354
738.137	0.0143134
738.215	0.0144996
738.293	0.0145145
738.371	0.0145457
738.450	0.0147269
738.528	0.0145520
738.606	0.0146461
738.684	0.0146457
738.762	0.0146301
738.840	0.0144784
738.918	0.0143943
738.996	0.0144016
739.075	0.0142190
739.153	0.0142580
739.231	0.0141790
739.309	0.0142924
739.387	0.0141969
739.465	0.0139370
739.543	0.0139466
739.621	0.0139214
739.700	0.0138558
739.778	0.0137103
739.856	0.0136638
739.934	0.0136409
740.012	0.0135678
740.090	0.0135507
740.168	0.0136036
740.246	0.0136205
740.325	0.0137802
740.403	0.0139442
740.481	0.0140139
740.559	0.0141364
740.637	0.0143164
740.715	0.0146136
740.793	0.0147258
740.871	0.0147925
740.950	0.0150126
741.028	0.0150166
741.106	0.0150074
741.184	0.0149767
741.262	0.0149094
741.340	0.0148815
741.418	0.0145660
741.496	0.0145162
741.575	0.0142153
741.653	0.0140739
741.731	0.0138965
741.809	0.0138435
741.887	0.0137840
741.965	0.0136653
742.043	0.0136333
742.121	0.0136890
742.200	0.0135991
742.278	0.0136301
742.356	0.0137883
742.434	0.0137498
742.512	0.0138766
742.590	0.0141188
742.668	0.0142304
742.746	0.0142921
742.825	0.0143978
742.903	0.0145040
742.981	0.0146150
743.059	0.0144559
743.137	0.0145901
743.215	0.0144408
743.293	0.0145715
743.371	0.0146621
743.450	0.0146311
743.528	0.0146029
743.606	0.0145331
743.684	0.0144951
743.762	0.0143132
743.840	0.0142087
743.918	0.0141309
743.996	0.0140799
744.075	0.0140422
744.153	0.0139718
744.231	0.0136880
744.309	0.0138029
744.387	0.0138059
744.465	0.0138115
744.543	0.0138544
744.621	0.0137401
744.700	0.0139901
744.778	0.0140936
744.856	0.0144200
744.934	0.0144221
745.012	0.0145096
745.090	0.0145735
745.168	0.0146163
745.246	0.0146864
745.325	0.0146379
745.403	0.0147075
745.481	0.0146323
745.559	0.0143204
745.637	0.0144296
745.715	0.0144522
745.793	0.0142441
745.871	0.0142896
745.950	0.0140901
746.028	0.0140726
746.106	0.0140915
746.184	0.0139131
746.262	0.0139841
746.340	0.0139615
746.418	0.0140286
746.496	0.0140805
746.575	0.0141393
746.653	0.0142810
746.731	0.0142296
746.809	0.0143918
746.887	0.0143440
746.965	0.0144443
747.043	0.0144307
747.121	0.0146392
747.200	0.0144337
747.278	0.0144173
747.356	0.0142123
747.434	0.0141169
747.512	0.0142654
747.590	0.0140382
747.668	0.0138809
747.746	0.0140232
747.825	0.0140039
747.903	0.0141218
747.981	0.0138436
748.059	0.0140032
748.137	0.0139854
748.215	0.0142227
748.293	0.0141973
748.371	0.0142465
748.450	0.0143835
748.528	0.0145504
748.606	0.0147278
748.684	0.0144936
748.762	0.0144965
748.840	0.0146217
748.918	0.0145257
748.996	0.0146062
749.075	0.0144811
749.153	0.0142702
749.231	0.0141945
749.309	0.0142246
749.387	0.0140063
749.465	0.0138938
749.543	0.0139370
749.621	0.0136877
749.700	0.0137765
749.778	0.0138436
749.856	0.0139987
749.934	0.0139615
750.012	0.0139816
750.090	0.0138752
750.168	0.0141676
750.246	0.0142721
750.325	0.0142969
750.403	0.0143033
750.481	0.0143731
750.559	0.0145842
750.637	0.0143479
750.715	0.0144080
750.793	0.0146204
750.871	0.0144358
750.950	0.0144482
751.028	0.0143676
751.106	0.0143425
751.184	0.0143133
751.262	0.0143105
751.340	0.0142910
751.418	0.0142712
751.496	0.0141568
751.575	0.0141405
751.653	0.0140804
751.731	0.0141089
751.809	0.0140043
751.887	0.0140988
751.965	0.0140669
752.043	0.0140512
752.121	0.0139008
752.200	0.0139613
752.278	0.0139175
752.356	0.0139835
752.434	0.0141384
752.512	0.0141467
752.590	0.0144015
752.668	0.0143147
752.746	0.0143828
752.825	0.0144214
752.903	0.0145001
752.981	0.0146348
753.059	0.0146043
753.137	0.0145810
753.215	0.0146474
753.293	0.0144903
753.371	0.0144480
753.450	0.0144543
753.528	0.0142972
753.606	0.0141770
753.684	0.0140728
753.762	0.0141288
753.840	0.0139464
753.918	0.0137720
753.996	0.0138366
754.075	0.0138955
754.153	0.0140591
754.231	0.0141121
754.309	0.0140776
754.387	0.0141103
754.465	0.0141531
754.543	0.0142355
754.621	0.0143601
754.700	0.0144240
754.778	0.0144141
754.856	0.0143408
754.934	0.0143391
755.012	0.0143337
755.090	0.0143359
755.168	0.0143825
755.246	0.0142295
755.325	0.0142075
755.403	0.0140759
755.481	0.0140878
755.559	0.0141253
755.637	0.0142797
755.715	0.0141426
755.793	0.0141404
755.871	0.0141966
755.950	0.0142077
756.028	0.0142789
756.106	0.0142656
756.184	0.0142269
756.262	0.0142454
756.340	0.0141667
756.418	0.0141291
756.496	0.0141801
756.575	0.0140792
756.653	0.0141528
756.731	0.0141747
756.809	0.0141386
756.887	0.0140506
756.965	0.0140694
757.043	0.0140395
757.121	0.0139852
757.200	0.0141048
757.278	0.0141277
757.356	0.0140205
757.434	0.0140354
757.512	0.0141309
757.590	0.0142109
757.668	0.0140859
757.746	0.0142271
757.825	0.0143140
757.903	0.0143347
757.981	0.0143092
758.059	0.0141876
758.137	0.0141770
758.215	0.0141309
758.293	0.0141228
758.371	0.0143077
758.450	0.0141956
758.528	0.0141326
758.606	0.0141118
758.684	0.0142081
758.762	0.0140936
758.840	0.0142035
758.918	0.0142324
758.996	0.0141805
759.075	0.0142621
759.153	0.0142724
759.231	0.0142451
759.309	0.0143650
759.387	0.0141763
759.465	0.0143132
759.543	0.0142731
759.621	0.0141540
759.700	0.0141750
759.778	0.0140208
759.856	0.0141047
759.934	0.0140665
760.012	0.0140009
760.090	0.0140002
760.168	0.0141445
760.246	0.0141898
760.325	0.0141608
760.403	0.0142863
760.481	0.0141363
760.559	0.0142639
760.637	0.0143699
760.715	0.0142406
760.793	0.0143421
760.871	0.0144247
760.950	0.0143742
761.028	0.0144059
761.106	0.0142902
761.184	0.0143245
761.262	0.0143598
761.340	0.0141468
761.418	0.0142107
761.496	0.0141425
761.575	0.0142085
761.653	0.0141444
761.731	0.0141615
761.809	0.0142767
761.887	0.0140505
761.965	0.0141427
762.043	0.0140897
762.121	0.0141722
762.200	0.0141647
762.278	0.0142361
762.356	0.0142294
762.434	0.0143836
762.512	0.0142236
762.590	0.0143470
762.668	0.0144755
762.746	0.0143452
762.825	0.0141980
762.903	0.0142885
762.981	0.0144291
763.059	0.0143108
763.137	0.0141855
763.215	0.0141360
763.293	0.0142727
763.371	0.0142389
763.450	0.0141628
763.528	0.0142874
763.606	0.0139215
763.684	0.0140683
763.762	0.0142772
763.840	0.0141973
763.918	0.0140042
763.996	0.0140420
764.075	0.0140128
764.153	0.0141901
764.231	0.0140788
764.309	0.0141328
764.387	0.0140951
764.465	0.0141637
764.543	0.0142067
764.621	0.0142738
764.700	0.0142492
