05/04/2022	20:54:41	Ver.	4.1	UNKNOWN
Optical Delay	678.996401	Delta X		0.078125	Sweeps	1	Scan Rate	0/0
Coordinates	Axis 1	NaN	Axis 2	NaN	Axis 3	NaN	Axis 4	NaN	Axis 5	NaN	Axis 6	0.000000
TX Power	0.000000	RX Power	0.000000

678.996	0.0142757
679.075	0.0141791
679.153	0.0142714
679.231	0.0141930
679.309	0.0143775
679.387	0.0143799
679.465	0.0142513
679.543	0.0142094
679.621	0.0142117
679.700	0.0142128
679.778	0.0143826
679.856	0.0142686
679.934	0.0142884
680.012	0.0141798
680.090	0.0142793
680.168	0.0144426
680.246	0.0143941
680.325	0.0141096
680.403	0.0142233
680.481	0.0143034
680.559	0.0143706
680.637	0.0144031
680.715	0.0143724
680.793	0.0142522
680.871	0.0141962
680.950	0.0141456
681.028	0.0142294
681.106	0.0142559
681.184	0.0142345
681.262	0.0144355
681.340	0.0143468
681.418	0.0140807
681.496	0.0143061
681.575	0.0143055
681.653	0.0142530
681.731	0.0142649
681.809	0.0142992
681.887	0.0142663
681.965	0.0142690
682.043	0.0143371
682.121	0.0143008
682.200	0.0143264
682.278	0.0142716
682.356	0.0143085
682.434	0.0142735
682.512	0.0143913
682.590	0.0144202
682.668	0.0142953
682.746	0.0143172
682.825	0.0142481
682.903	0.0141802
682.981	0.0142887
683.059	0.0143189
683.137	0.0142313
683.215	0.0142694
683.293	0.0142805
683.371	0.0143320
683.450	0.0143720
683.528	0.0141715
683.606	0.0142688
683.684	0.0143469
683.762	0.0142638
683.840	0.0142274
683.918	0.0141127
683.996	0.0144272
684.075	0.0143752
684.153	0.0142233
684.231	0.0142574
684.309	0.0143517
684.387	0.0142455
684.465	0.0143464
684.543	0.0142853
684.621	0.0141967
684.700	0.0141746
684.778	0.0143153
684.856	0.0142625
684.934	0.0140913
685.012	0.0143019
685.090	0.0143861
685.168	0.0141808
685.246	0.0142467
685.325	0.0143246
685.403	0.0144064
685.481	0.0142235
685.559	0.0142516
685.637	0.0144249
685.715	0.0142303
685.793	0.0142591
685.871	0.0141612
685.950	0.0143891
686.028	0.0142792
686.106	0.0142590
686.184	0.0141964
686.262	0.0142536
686.340	0.0143810
686.418	0.0144486
686.496	0.0143224
686.575	0.0142449
686.653	0.0142803
686.731	0.0142597
686.809	0.0141148
686.887	0.0143962
686.965	0.0141972
687.043	0.0141744
687.121	0.0142809
687.200	0.0142884
687.278	0.0142889
687.356	0.0142200
687.434	0.0143208
687.512	0.0144131
687.590	0.0142489
687.668	0.0142480
687.746	0.0143568
687.825	0.0142702
687.903	0.0141650
687.981	0.0142879
688.059	0.0143452
688.137	0.0142996
688.215	0.0142339
688.293	0.0141489
688.371	0.0143649
688.450	0.0142561
688.528	0.0142369
688.606	0.0143623
688.684	0.0143528
688.762	0.0143134
688.840	0.0143505
688.918	0.0142323
688.996	0.0141166
689.075	0.0142916
689.153	0.0142875
689.231	0.0143111
689.309	0.0141468
689.387	0.0142884
689.465	0.0141833
689.543	0.0142554
689.621	0.0143665
689.700	0.0144188
689.778	0.0143264
689.856	0.0142965
689.934	0.0143726
690.012	0.0143603
690.090	0.0144041
690.168	0.0142691
690.246	0.0142090
690.325	0.0143481
690.403	0.0141995
690.481	0.0142880
690.559	0.0142368
690.637	0.0144357
690.715	0.0144060
690.793	0.0143182
690.871	0.0143208
690.950	0.0142730
691.028	0.0143436
691.106	0.0142934
691.184	0.0141981
691.262	0.0143552
691.340	0.0142551
691.418	0.0143313
691.496	0.0142759
691.575	0.0143933
691.653	0.0143641
691.731	0.0144432
691.809	0.0143430
691.887	0.0144295
691.965	0.0142897
692.043	0.0142960
692.121	0.0142439
692.200	0.0143454
692.278	0.0142306
692.356	0.0142815
692.434	0.0144229
692.512	0.0142578
692.590	0.0143523
692.668	0.0144761
692.746	0.0143215
692.825	0.0142049
692.903	0.0142374
692.981	0.0141695
693.059	0.0142675
693.137	0.0142866
693.215	0.0143349
693.293	0.0143258
693.371	0.0141669
693.450	0.0143727
693.528	0.0143492
693.606	0.0141682
693.684	0.0144170
693.762	0.0144029
693.840	0.0144379
693.918	0.0143236
693.996	0.0143377
694.075	0.0142534
694.153	0.0143001
694.231	0.0142030
694.309	0.0143729
694.387	0.0143634
694.465	0.0143476
694.543	0.0142781
694.621	0.0143483
694.700	0.0143061
694.778	0.0143645
694.856	0.0143569
694.934	0.0142841
695.012	0.0142870
695.090	0.0143333
695.168	0.0143523
695.246	0.0142579
695.325	0.0143041
695.403	0.0141753
695.481	0.0144113
695.559	0.0142818
695.637	0.0142770
695.715	0.0143868
695.793	0.0142436
695.871	0.0142654
695.950	0.0141750
696.028	0.0144095
696.106	0.0142814
696.184	0.0143011
696.262	0.0143991
696.340	0.0142831
696.418	0.0143069
696.496	0.0143842
696.575	0.0143707
696.653	0.0143256
696.731	0.0143636
696.809	0.0142838
696.887	0.0143459
696.965	0.0142903
697.043	0.0142701
697.121	0.0142625
697.200	0.0143900
697.278	0.0141672
697.356	0.0144341
697.434	0.0143741
697.512	0.0142157
697.590	0.0142582
697.668	0.0143652
697.746	0.0143976
697.825	0.0143990
697.903	0.0142563
697.981	0.0144165
698.059	0.0142457
698.137	0.0143935
698.215	0.0143520
698.293	0.0142713
698.371	0.0143552
698.450	0.0142262
698.528	0.0142544
698.606	0.0143078
698.684	0.0143977
698.762	0.0142108
698.840	0.0142217
698.918	0.0143171
698.996	0.0143615
699.075	0.0142384
699.153	0.0141808
699.231	0.0142503
699.309	0.0142708
699.387	0.0142252
699.465	0.0143362
699.543	0.0142777
699.621	0.0143501
699.700	0.0143048
699.778	0.0144162
699.856	0.0142416
699.934	0.0141880
700.012	0.0142269
700.090	0.0143689
700.168	0.0142715
700.246	0.0142174
700.325	0.0142978
700.403	0.0142592
700.481	0.0141847
700.559	0.0142952
700.637	0.0142104
700.715	0.0142185
700.793	0.0142801
700.871	0.0143308
700.950	0.0143174
701.028	0.0141630
701.106	0.0141817
701.184	0.0142561
701.262	0.0142905
701.340	0.0143658
701.418	0.0143491
701.496	0.0142696
701.575	0.0142672
701.653	0.0142216
701.731	0.0142289
701.809	0.0142415
701.887	0.0142023
701.965	0.0143123
702.043	0.0141956
702.121	0.0143311
702.200	0.0142120
702.278	0.0143269
702.356	0.0142229
702.434	0.0142584
702.512	0.0143222
702.590	0.0142458
702.668	0.0141868
702.746	0.0142933
702.825	0.0142861
702.903	0.0143602
702.981	0.0142607
703.059	0.0143021
703.137	0.0142495
703.215	0.0141178
703.293	0.0142880
703.371	0.0142790
703.450	0.0142534
703.528	0.0142604
703.606	0.0144138
703.684	0.0143820
703.762	0.0143532
703.840	0.0142226
703.918	0.0141748
703.996	0.0141368
704.075	0.0140808
704.153	0.0142075
704.231	0.0142657
704.309	0.0141579
704.387	0.0143334
704.465	0.0142052
704.543	0.0141916
704.621	0.0140993
704.700	0.0142587
704.778	0.0143773
704.856	0.0143031
704.934	0.0142086
705.012	0.0142110
705.090	0.0144029
705.168	0.0143621
705.246	0.0141782
705.325	0.0142875
705.403	0.0141323
705.481	0.0142276
705.559	0.0143011
705.637	0.0143837
705.715	0.0143603
705.793	0.0143225
705.871	0.0142896
705.950	0.0143247
706.028	0.0142638
706.106	0.0141919
706.184	0.0143541
706.262	0.0142747
706.340	0.0142268
706.418	0.0142194
706.496	0.0143024
706.575	0.0142841
706.653	0.0141950
706.731	0.0142973
706.809	0.0143232
706.887	0.0143344
706.965	0.0141659
707.043	0.0143414
707.121	0.0141074
707.200	0.0142645
707.278	0.0141659
707.356	0.0144930
707.434	0.0143014
707.512	0.0142770
707.590	0.0143159
707.668	0.0141637
707.746	0.0142381
707.825	0.0143707
707.903	0.0141554
707.981	0.0142352
708.059	0.0143008
708.137	0.0143564
708.215	0.0142770
708.293	0.0142606
708.371	0.0143802
708.450	0.0142984
708.528	0.0141248
708.606	0.0142767
708.684	0.0141716
708.762	0.0142030
708.840	0.0143780
708.918	0.0143801
708.996	0.0142227
709.075	0.0142789
709.153	0.0143414
709.231	0.0142288
709.309	0.0142086
709.387	0.0142320
709.465	0.0141063
709.543	0.0141184
709.621	0.0142118
709.700	0.0142294
709.778	0.0141853
709.856	0.0142785
709.934	0.0142107
710.012	0.0142340
710.090	0.0141059
710.168	0.0140878
710.246	0.0141807
710.325	0.0143476
710.403	0.0143899
710.481	0.0144781
710.559	0.0146032
710.637	0.0146750
710.715	0.0145426
710.793	0.0145230
710.871	0.0142728
710.950	0.0141914
711.028	0.0140742
711.106	0.0138482
711.184	0.0138781
711.262	0.0140124
711.340	0.0139586
711.418	0.0142211
711.496	0.0143230
711.575	0.0143545
711.653	0.0144753
711.731	0.0144714
711.809	0.0143621
711.887	0.0143283
711.965	0.0142560
712.043	0.0143111
712.121	0.0141718
712.200	0.0142006
712.278	0.0142526
712.356	0.0141808
712.434	0.0143400
712.512	0.0144572
712.590	0.0146724
712.668	0.0145986
712.746	0.0146753
712.825	0.0146255
712.903	0.0145471
712.981	0.0147649
713.059	0.0145401
713.137	0.0144682
713.215	0.0143460
713.293	0.0141611
713.371	0.0140246
713.450	0.0140241
713.528	0.0140454
713.606	0.0141467
713.684	0.0141103
713.762	0.0141458
713.840	0.0141348
713.918	0.0143224
713.996	0.0143319
714.075	0.0142770
714.153	0.0144844
714.231	0.0143510
714.309	0.0145506
714.387	0.0147045
714.465	0.0148321
714.543	0.0148498
714.621	0.0147931
714.700	0.0147491
714.778	0.0145470
714.856	0.0143831
714.934	0.0139593
715.012	0.0136253
715.090	0.0133031
715.168	0.0130439
715.246	0.0127573
715.325	0.0125436
715.403	0.0125855
715.481	0.0128295
715.559	0.0129214
715.637	0.0133310
715.715	0.0137551
715.793	0.0141823
715.871	0.0144727
715.950	0.0149135
716.028	0.0151359
716.106	0.0151843
716.184	0.0150410
716.262	0.0151582
716.340	0.0150519
716.418	0.0146265
716.496	0.0144334
716.575	0.0141982
716.653	0.0140381
716.731	0.0138917
716.809	0.0140147
716.887	0.0139120
716.965	0.0138727
717.043	0.0138912
717.121	0.0141759
717.200	0.0144926
717.278	0.0147614
717.356	0.0149567
717.434	0.0150322
717.512	0.0152840
717.590	0.0154774
717.668	0.0155360
717.746	0.0154675
717.825	0.0152845
717.903	0.0152545
717.981	0.0150501
718.059	0.0146059
718.137	0.0142142
718.215	0.0136882
718.293	0.0135172
718.371	0.0132439
718.450	0.0128854
718.528	0.0127746
718.606	0.0128090
718.684	0.0130125
718.762	0.0134702
718.840	0.0139527
718.918	0.0142875
718.996	0.0146970
719.075	0.0150782
719.153	0.0153022
719.231	0.0155164
719.309	0.0153638
719.387	0.0153111
719.465	0.0150459
719.543	0.0146633
719.621	0.0143364
719.700	0.0139628
719.778	0.0136639
719.856	0.0135430
719.934	0.0133744
720.012	0.0133540
720.090	0.0133369
720.168	0.0137962
720.246	0.0139460
720.325	0.0142078
720.403	0.0142251
720.481	0.0145654
720.559	0.0147836
720.637	0.0148946
720.715	0.0148011
720.793	0.0147637
720.871	0.0147984
720.950	0.0145634
721.028	0.0142892
721.106	0.0140531
721.184	0.0138762
721.262	0.0136196
721.340	0.0131944
721.418	0.0130698
721.496	0.0127965
721.575	0.0126974
721.653	0.0128905
721.731	0.0131473
721.809	0.0134264
721.887	0.0139162
721.965	0.0142804
722.043	0.0147766
722.121	0.0150767
722.200	0.0155268
722.278	0.0158507
722.356	0.0158697
722.434	0.0157520
722.512	0.0157005
722.590	0.0155151
722.668	0.0152950
722.746	0.0152850
722.825	0.0148505
722.903	0.0145436
722.981	0.0142536
723.059	0.0139080
723.137	0.0137328
723.215	0.0134559
723.293	0.0133080
723.371	0.0130915
723.450	0.0130795
723.528	0.0132025
723.606	0.0133369
723.684	0.0133996
723.762	0.0138369
723.840	0.0141434
723.918	0.0145520
723.996	0.0149837
724.075	0.0152376
724.153	0.0154449
724.231	0.0155869
724.309	0.0156999
724.387	0.0156709
724.465	0.0155400
724.543	0.0152766
724.621	0.0150483
724.700	0.0145615
724.778	0.0143257
724.856	0.0140718
724.934	0.0137597
725.012	0.0136054
725.090	0.0132973
725.168	0.0131018
725.246	0.0130036
725.325	0.0128489
725.403	0.0130381
725.481	0.0131329
725.559	0.0132319
725.637	0.0136004
725.715	0.0140051
725.793	0.0143949
725.871	0.0145936
725.950	0.0147347
726.028	0.0149458
726.106	0.0151254
726.184	0.0152869
726.262	0.0152630
726.340	0.0152039
726.418	0.0149412
726.496	0.0149699
726.575	0.0148494
726.653	0.0144693
726.731	0.0140772
726.809	0.0137820
726.887	0.0135427
726.965	0.0133961
727.043	0.0130629
727.121	0.0131899
727.200	0.0132133
727.278	0.0131327
727.356	0.0135020
727.434	0.0136569
727.512	0.0138721
727.590	0.0140488
727.668	0.0143483
727.746	0.0145403
727.825	0.0147826
727.903	0.0149372
727.981	0.0149861
728.059	0.0152251
728.137	0.0150946
728.215	0.0151024
728.293	0.0151171
728.371	0.0150330
728.450	0.0148677
728.528	0.0145525
728.606	0.0144522
728.684	0.0141303
728.762	0.0139596
728.840	0.0139269
728.918	0.0136575
728.996	0.0135876
729.075	0.0136472
729.153	0.0135490
729.231	0.0136005
729.309	0.0138636
729.387	0.0138928
729.465	0.0139604
729.543	0.0141756
729.621	0.0141435
729.700	0.0143995
729.778	0.0142910
729.856	0.0144292
729.934	0.0144834
730.012	0.0145852
730.090	0.0143755
730.168	0.0145280
730.246	0.0145802
730.325	0.0146075
730.403	0.0143694
730.481	0.0145005
730.559	0.0145052
730.637	0.0143839
730.715	0.0143655
730.793	0.0144884
730.871	0.0145636
730.950	0.0143032
731.028	0.0141380
731.106	0.0141430
731.184	0.0139473
731.262	0.0138068
731.340	0.0137285
731.418	0.0137983
731.496	0.0136652
731.575	0.0137702
731.653	0.0137692
731.731	0.0139046
731.809	0.0139838
731.887	0.0140044
731.965	0.0140788
732.043	0.0143170
732.121	0.0143273
732.200	0.0144231
732.278	0.0145105
732.356	0.0145258
732.434	0.0144545
732.512	0.0145444
732.590	0.0145065
732.668	0.0144639
732.746	0.0142901
732.825	0.0139635
732.903	0.0140092
732.981	0.0137740
733.059	0.0136680
733.137	0.0136722
733.215	0.0138510
733.293	0.0136939
733.371	0.0135914
733.450	0.0136710
733.528	0.0139285
733.606	0.0139728
733.684	0.0141915
733.762	0.0141138
733.840	0.0142548
733.918	0.0145103
733.996	0.0145132
734.075	0.0146628
734.153	0.0146771
734.231	0.0146404
734.309	0.0146589
734.387	0.0145690
734.465	0.0146706
734.543	0.0146361
734.621	0.0145275
734.700	0.0143396
734.778	0.0144161
734.856	0.0144135
734.934	0.0141610
735.012	0.0142157
735.090	0.0141456
735.168	0.0141075
735.246	0.0140644
735.325	0.0139689
735.403	0.0137839
735.481	0.0137717
735.559	0.0138493
735.637	0.0137335
735.715	0.0139457
735.793	0.0140033
735.871	0.0140446
735.950	0.0140987
736.028	0.0141593
736.106	0.0143913
736.184	0.0145765
736.262	0.0146930
736.340	0.0147746
736.418	0.0149488
736.496	0.0150585
736.575	0.0150444
736.653	0.0150237
736.731	0.0150171
736.809	0.0148862
736.887	0.0147520
736.965	0.0144941
737.043	0.0144893
737.121	0.0143859
737.200	0.0143164
737.278	0.0141177
737.356	0.0138472
737.434	0.0138562
737.512	0.0139585
737.590	0.0138997
737.668	0.0139224
737.746	0.0139510
737.825	0.0139940
737.903	0.0142506
737.981	0.0142918
738.059	0.0143999
738.137	0.0144643
738.215	0.0146581
738.293	0.0145920
738.371	0.0145721
738.450	0.0145860
738.528	0.0145117
738.606	0.0146118
738.684	0.0145528
738.762	0.0144827
738.840	0.0144846
738.918	0.0143922
738.996	0.0141849
739.075	0.0141973
739.153	0.0141658
739.231	0.0140652
739.309	0.0140942
739.387	0.0139703
739.465	0.0138938
739.543	0.0139099
739.621	0.0138712
739.700	0.0136647
739.778	0.0137925
739.856	0.0137280
739.934	0.0135921
740.012	0.0136411
740.090	0.0135716
740.168	0.0135746
740.246	0.0137856
740.325	0.0136751
740.403	0.0141208
740.481	0.0142247
740.559	0.0144865
740.637	0.0147085
740.715	0.0148595
740.793	0.0149564
740.871	0.0151291
740.950	0.0150744
741.028	0.0150706
741.106	0.0150903
741.184	0.0150609
741.262	0.0148874
741.340	0.0147977
741.418	0.0147224
741.496	0.0143293
741.575	0.0140643
741.653	0.0138287
741.731	0.0136646
741.809	0.0135387
741.887	0.0135139
741.965	0.0135198
742.043	0.0135280
742.121	0.0136254
742.200	0.0135547
742.278	0.0138351
742.356	0.0138486
742.434	0.0138325
742.512	0.0141264
742.590	0.0143035
742.668	0.0143193
742.746	0.0144693
742.825	0.0145950
742.903	0.0147813
742.981	0.0147091
743.059	0.0147145
743.137	0.0147705
743.215	0.0147653
743.293	0.0148332
743.371	0.0147224
743.450	0.0146049
743.528	0.0145997
743.606	0.0145875
743.684	0.0145128
743.762	0.0144498
743.840	0.0142255
743.918	0.0140305
743.996	0.0139994
744.075	0.0138902
744.153	0.0137246
744.231	0.0138531
744.309	0.0137881
744.387	0.0137276
744.465	0.0137712
744.543	0.0137642
744.621	0.0139735
744.700	0.0142353
744.778	0.0142576
744.856	0.0143294
744.934	0.0143511
745.012	0.0146174
745.090	0.0148329
745.168	0.0147224
745.246	0.0147620
745.325	0.0147832
745.403	0.0147518
745.481	0.0146243
745.559	0.0145123
745.637	0.0144232
745.715	0.0143605
745.793	0.0142435
745.871	0.0142651
745.950	0.0139449
746.028	0.0140032
746.106	0.0139399
746.184	0.0139584
746.262	0.0139764
746.340	0.0139926
746.418	0.0140259
746.496	0.0141254
746.575	0.0141105
746.653	0.0141775
746.731	0.0143472
746.809	0.0145198
746.887	0.0145885
746.965	0.0146326
747.043	0.0145019
747.121	0.0144934
747.200	0.0143228
747.278	0.0144192
747.356	0.0145049
747.434	0.0142239
747.512	0.0142990
747.590	0.0142817
747.668	0.0137883
747.746	0.0140467
747.825	0.0141432
747.903	0.0140371
747.981	0.0142348
748.059	0.0140968
748.137	0.0141933
748.215	0.0141184
748.293	0.0142758
748.371	0.0145317
748.450	0.0145393
748.528	0.0147005
748.606	0.0146363
748.684	0.0146464
748.762	0.0148894
748.840	0.0146088
748.918	0.0145370
748.996	0.0146774
749.075	0.0143873
749.153	0.0143343
749.231	0.0141898
749.309	0.0141945
749.387	0.0139449
749.465	0.0139599
749.543	0.0137720
749.621	0.0138261
749.700	0.0138795
749.778	0.0140961
749.856	0.0138392
749.934	0.0138725
750.012	0.0140643
750.090	0.0141628
750.168	0.0141446
750.246	0.0143134
750.325	0.0144149
750.403	0.0145533
750.481	0.0146832
750.559	0.0145315
750.637	0.0144701
750.715	0.0145155
750.793	0.0146024
750.871	0.0144739
750.950	0.0145384
751.028	0.0144174
751.106	0.0145285
751.184	0.0145465
751.262	0.0142320
751.340	0.0141247
751.418	0.0141283
751.496	0.0141010
751.575	0.0140680
751.653	0.0141122
751.731	0.0140299
751.809	0.0138716
751.887	0.0139339
751.965	0.0137838
752.043	0.0138429
752.121	0.0141253
752.200	0.0140404
752.278	0.0138602
752.356	0.0141482
752.434	0.0142195
752.512	0.0143867
752.590	0.0145844
752.668	0.0146636
752.746	0.0145766
752.825	0.0146362
752.903	0.0147610
752.981	0.0147137
753.059	0.0146080
753.137	0.0147570
753.215	0.0146352
753.293	0.0146020
753.371	0.0144260
753.450	0.0143298
753.528	0.0141549
753.606	0.0141026
753.684	0.0139510
753.762	0.0139697
753.840	0.0139112
753.918	0.0138474
753.996	0.0139152
754.075	0.0138297
754.153	0.0138844
754.231	0.0139411
754.309	0.0141315
754.387	0.0142776
754.465	0.0143142
754.543	0.0142941
754.621	0.0144430
754.700	0.0144130
754.778	0.0144785
754.856	0.0145603
754.934	0.0143809
755.012	0.0144379
755.090	0.0143275
755.168	0.0143169
755.246	0.0143250
755.325	0.0142792
755.403	0.0142217
755.481	0.0141804
755.559	0.0142001
755.637	0.0142616
755.715	0.0141886
755.793	0.0141524
755.871	0.0141901
755.950	0.0141632
756.028	0.0142673
756.106	0.0141154
756.184	0.0141369
756.262	0.0141208
756.340	0.0139291
756.418	0.0140759
756.496	0.0140467
756.575	0.0142719
756.653	0.0141437
756.731	0.0140202
756.809	0.0142363
756.887	0.0141036
756.965	0.0141024
757.043	0.0141311
757.121	0.0142323
757.200	0.0141763
757.278	0.0142730
757.356	0.0140710
757.434	0.0141977
757.512	0.0143696
757.590	0.0142607
757.668	0.0143063
757.746	0.0144163
757.825	0.0142209
757.903	0.0142536
757.981	0.0143023
758.059	0.0142986
758.137	0.0141943
758.215	0.0142640
758.293	0.0141990
758.371	0.0141469
758.450	0.0141614
758.528	0.0140919
758.606	0.0142216
758.684	0.0141386
758.762	0.0141196
758.840	0.0141044
758.918	0.0141649
758.996	0.0142767
759.075	0.0143264
759.153	0.0143761
759.231	0.0142666
759.309	0.0142421
759.387	0.0141247
759.465	0.0142583
759.543	0.0142547
759.621	0.0142290
759.700	0.0142075
759.778	0.0141797
759.856	0.0141519
759.934	0.0141589
760.012	0.0141979
760.090	0.0142168
760.168	0.0142184
760.246	0.0141930
760.325	0.0143816
760.403	0.0142878
760.481	0.0143248
760.559	0.0143536
760.637	0.0144646
760.715	0.0145440
760.793	0.0145285
760.871	0.0144692
760.950	0.0145344
761.028	0.0143553
761.106	0.0143886
761.184	0.0145460
761.262	0.0143086
761.340	0.0142596
761.418	0.0142468
761.496	0.0141083
761.575	0.0141960
761.653	0.0142616
761.731	0.0142273
761.809	0.0141135
761.887	0.0141712
761.965	0.0142696
762.043	0.0143222
762.121	0.0142843
762.200	0.0142551
762.278	0.0142991
762.356	0.0143365
762.434	0.0144208
762.512	0.0144789
762.590	0.0143819
762.668	0.0144566
762.746	0.0143829
762.825	0.0144968
762.903	0.0146015
762.981	0.0144226
763.059	0.0143792
763.137	0.0143678
763.215	0.0143048
763.293	0.0143716
763.371	0.0142947
763.450	0.0142033
763.528	0.0142503
763.606	0.0141723
763.684	0.0142083
763.762	0.0141433
763.840	0.0140318
763.918	0.0141555
763.996	0.0141265
764.075	0.0140099
764.153	0.0141297
764.231	0.0142251
764.309	0.0141722
764.387	0.0141688
764.465	0.0142661
764.543	0.0141964
764.621	0.0143252
764.700	0.0143612
