05/04/2022	20:47:11	Ver.	4.1	UNKNOWN
Optical Delay	679.003072	Delta X		0.078125	Sweeps	1	Scan Rate	0/0
Coordinates	Axis 1	NaN	Axis 2	NaN	Axis 3	NaN	Axis 4	NaN	Axis 5	NaN	Axis 6	0.000000
TX Power	0.000000	RX Power	0.000000

679.003	0.0149270
679.081	0.0149089
679.159	0.0149670
679.237	0.0148603
679.316	0.0149014
679.394	0.0148523
679.472	0.0148477
679.550	0.0150533
679.628	0.0148039
679.706	0.0149168
679.784	0.0148730
679.862	0.0148927
679.941	0.0150404
680.019	0.0149136
680.097	0.0148160
680.175	0.0147677
680.253	0.0149049
680.331	0.0149810
680.409	0.0148129
680.487	0.0148872
680.566	0.0149496
680.644	0.0150067
680.722	0.0149737
680.800	0.0149995
680.878	0.0149053
680.956	0.0149279
681.034	0.0148767
681.112	0.0149411
681.191	0.0149001
681.269	0.0150061
681.347	0.0149946
681.425	0.0149150
681.503	0.0150198
681.581	0.0149959
681.659	0.0149231
681.737	0.0147887
681.816	0.0148859
681.894	0.0149909
681.972	0.0149957
682.050	0.0148933
682.128	0.0148956
682.206	0.0149987
682.284	0.0148782
682.362	0.0149896
682.441	0.0149634
682.519	0.0150205
682.597	0.0151017
682.675	0.0149989
682.753	0.0148605
682.831	0.0148721
682.909	0.0149137
682.987	0.0148744
683.066	0.0149448
683.144	0.0148704
683.222	0.0149046
683.300	0.0147344
683.378	0.0148141
683.456	0.0149629
683.534	0.0150661
683.612	0.0148841
683.691	0.0149464
683.769	0.0150476
683.847	0.0149451
683.925	0.0147747
684.003	0.0149654
684.081	0.0148830
684.159	0.0148738
684.237	0.0149471
684.316	0.0147475
684.394	0.0149156
684.472	0.0148373
684.550	0.0148872
684.628	0.0149977
684.706	0.0148204
684.784	0.0148246
684.862	0.0149547
684.941	0.0149617
685.019	0.0148566
685.097	0.0148465
685.175	0.0149000
685.253	0.0149493
685.331	0.0147902
685.409	0.0148698
685.487	0.0149019
685.566	0.0148471
685.644	0.0148177
685.722	0.0149493
685.800	0.0149741
685.878	0.0150148
685.956	0.0148950
686.034	0.0148713
686.112	0.0149706
686.191	0.0148553
686.269	0.0150035
686.347	0.0149329
686.425	0.0149944
686.503	0.0149267
686.581	0.0149146
686.659	0.0150266
686.737	0.0148995
686.816	0.0149622
686.894	0.0148341
686.972	0.0148516
687.050	0.0148830
687.128	0.0149179
687.206	0.0148267
687.284	0.0149168
687.362	0.0149181
687.441	0.0149202
687.519	0.0148537
687.597	0.0149363
687.675	0.0149460
687.753	0.0148342
687.831	0.0150258
687.909	0.0149001
687.987	0.0149066
688.066	0.0149385
688.144	0.0148457
688.222	0.0150389
688.300	0.0148448
688.378	0.0148608
688.456	0.0148608
688.534	0.0148593
688.612	0.0149865
688.691	0.0148702
688.769	0.0147673
688.847	0.0148707
688.925	0.0150397
689.003	0.0149055
689.081	0.0148389
689.159	0.0148762
689.237	0.0148737
689.316	0.0148554
689.394	0.0149374
689.472	0.0148917
689.550	0.0148967
689.628	0.0148756
689.706	0.0149829
689.784	0.0149071
689.862	0.0149882
689.941	0.0150025
690.019	0.0149046
690.097	0.0149397
690.175	0.0150156
690.253	0.0149660
690.331	0.0148745
690.409	0.0149303
690.487	0.0149686
690.566	0.0149041
690.644	0.0149577
690.722	0.0149585
690.800	0.0149421
690.878	0.0149062
690.956	0.0151051
691.034	0.0150048
691.112	0.0150541
691.191	0.0149107
691.269	0.0148441
691.347	0.0148105
691.425	0.0149526
691.503	0.0149409
691.581	0.0148103
691.659	0.0149081
691.737	0.0150447
691.816	0.0147540
691.894	0.0150330
691.972	0.0150204
692.050	0.0148547
692.128	0.0149184
692.206	0.0149722
692.284	0.0150794
692.362	0.0149673
692.441	0.0148547
692.519	0.0149313
692.597	0.0149425
692.675	0.0149404
692.753	0.0149245
692.831	0.0148312
692.909	0.0148950
692.987	0.0149786
693.066	0.0150375
693.144	0.0149445
693.222	0.0150035
693.300	0.0148449
693.378	0.0148076
693.456	0.0148602
693.534	0.0150535
693.612	0.0149841
693.691	0.0149407
693.769	0.0150110
693.847	0.0149420
693.925	0.0148156
694.003	0.0150917
694.081	0.0150581
694.159	0.0150365
694.237	0.0149605
694.316	0.0149512
694.394	0.0149262
694.472	0.0149717
694.550	0.0149995
694.628	0.0149586
694.706	0.0149657
694.784	0.0148850
694.862	0.0148875
694.941	0.0148424
695.019	0.0149825
695.097	0.0150584
695.175	0.0149620
695.253	0.0148907
695.331	0.0148569
695.409	0.0149987
695.487	0.0149713
695.566	0.0148292
695.644	0.0149832
695.722	0.0148508
695.800	0.0148583
695.878	0.0149551
695.956	0.0150082
696.034	0.0150054
696.112	0.0148713
696.191	0.0148138
696.269	0.0148951
696.347	0.0149862
696.425	0.0149230
696.503	0.0149398
696.581	0.0149328
696.659	0.0149119
696.737	0.0149387
696.816	0.0148416
696.894	0.0148744
696.972	0.0148550
697.050	0.0149496
697.128	0.0149905
697.206	0.0149147
697.284	0.0150391
697.362	0.0149435
697.441	0.0149689
697.519	0.0149303
697.597	0.0148232
697.675	0.0148685
697.753	0.0149562
697.831	0.0149698
697.909	0.0150284
697.987	0.0148931
698.066	0.0148356
698.144	0.0148516
698.222	0.0149928
698.300	0.0149351
698.378	0.0149197
698.456	0.0149026
698.534	0.0148128
698.612	0.0149590
698.691	0.0148631
698.769	0.0148458
698.847	0.0148850
698.925	0.0148980
699.003	0.0148966
699.081	0.0150068
699.159	0.0149451
699.237	0.0150714
699.316	0.0148631
699.394	0.0147825
699.472	0.0149333
699.550	0.0149557
699.628	0.0148708
699.706	0.0149434
699.784	0.0149396
699.862	0.0148107
699.941	0.0149932
700.019	0.0149613
700.097	0.0149615
700.175	0.0148942
700.253	0.0148934
700.331	0.0147535
700.409	0.0149100
700.487	0.0148405
700.566	0.0148643
700.644	0.0149281
700.722	0.0148597
700.800	0.0149065
700.878	0.0148983
700.956	0.0149599
701.034	0.0149667
701.112	0.0148297
701.191	0.0148959
701.269	0.0148586
701.347	0.0150063
701.425	0.0150013
701.503	0.0147863
701.581	0.0150106
701.659	0.0148853
701.737	0.0149692
701.816	0.0149560
701.894	0.0149675
701.972	0.0149417
702.050	0.0149478
702.128	0.0149615
702.206	0.0150313
702.284	0.0149321
702.362	0.0147984
702.441	0.0149774
702.519	0.0148986
702.597	0.0149135
702.675	0.0151065
702.753	0.0149160
702.831	0.0147836
702.909	0.0149934
702.987	0.0149019
703.066	0.0148368
703.144	0.0149538
703.222	0.0149771
703.300	0.0150334
703.378	0.0148364
703.456	0.0148222
703.534	0.0150047
703.612	0.0148460
703.691	0.0149290
703.769	0.0148814
703.847	0.0149178
703.925	0.0150365
704.003	0.0149660
704.081	0.0149405
704.159	0.0148494
704.237	0.0148670
704.316	0.0148032
704.394	0.0149048
704.472	0.0148560
704.550	0.0149376
704.628	0.0150352
704.706	0.0150014
704.784	0.0149052
704.862	0.0150323
704.941	0.0150934
705.019	0.0148140
705.097	0.0147910
705.175	0.0149934
705.253	0.0149721
705.331	0.0149677
705.409	0.0148929
705.487	0.0150912
705.566	0.0150182
705.644	0.0149516
705.722	0.0149350
705.800	0.0150223
705.878	0.0148844
705.956	0.0149483
706.034	0.0149152
706.112	0.0149519
706.191	0.0149324
706.269	0.0149773
706.347	0.0148881
706.425	0.0150610
706.503	0.0149619
706.581	0.0149583
706.659	0.0149751
706.737	0.0149903
706.816	0.0150866
706.894	0.0149126
706.972	0.0149373
707.050	0.0150078
707.128	0.0150407
707.206	0.0150526
707.284	0.0149108
707.362	0.0148873
707.441	0.0148637
707.519	0.0147324
707.597	0.0149406
707.675	0.0150181
707.753	0.0148538
707.831	0.0148080
707.909	0.0150427
707.987	0.0149493
708.066	0.0148371
708.144	0.0149680
708.222	0.0150906
708.300	0.0150240
708.378	0.0148943
708.456	0.0148241
708.534	0.0149558
708.612	0.0149287
708.691	0.0149211
708.769	0.0150147
708.847	0.0148749
708.925	0.0147828
709.003	0.0149239
709.081	0.0149780
709.159	0.0148750
709.237	0.0147575
709.316	0.0148936
709.394	0.0148641
709.472	0.0149120
709.550	0.0150767
709.628	0.0148208
709.706	0.0147698
709.784	0.0149068
709.862	0.0149056
709.941	0.0147356
710.019	0.0148183
710.097	0.0149979
710.175	0.0149755
710.253	0.0149387
710.331	0.0148224
710.409	0.0149497
710.487	0.0149458
710.566	0.0150271
710.644	0.0150516
710.722	0.0147873
710.800	0.0148667
710.878	0.0150494
710.956	0.0149226
711.034	0.0149571
711.112	0.0150566
711.191	0.0149474
711.269	0.0147801
711.347	0.0147788
711.425	0.0149461
711.503	0.0148842
711.581	0.0148066
711.659	0.0147971
711.737	0.0150640
711.816	0.0148907
711.894	0.0149369
711.972	0.0148148
712.050	0.0148639
712.128	0.0149442
712.206	0.0149509
712.284	0.0148730
712.362	0.0148330
712.441	0.0149926
712.519	0.0147669
712.597	0.0148692
712.675	0.0149219
712.753	0.0149223
712.831	0.0149323
712.909	0.0149947
712.987	0.0148830
713.066	0.0148398
713.144	0.0148865
713.222	0.0147275
713.300	0.0149142
713.378	0.0149120
713.456	0.0149418
713.534	0.0150336
713.612	0.0149429
713.691	0.0150555
713.769	0.0151282
713.847	0.0149129
713.925	0.0150710
714.003	0.0151386
714.081	0.0148898
714.159	0.0149384
714.237	0.0150166
714.316	0.0148724
714.394	0.0148952
714.472	0.0149979
714.550	0.0149565
714.628	0.0150126
714.706	0.0150185
714.784	0.0150630
714.862	0.0151053
714.941	0.0149579
715.019	0.0150268
715.097	0.0149568
715.175	0.0148357
715.253	0.0149296
715.331	0.0148692
715.409	0.0148462
715.487	0.0149395
715.566	0.0150439
715.644	0.0150765
715.722	0.0150160
715.800	0.0150101
715.878	0.0148936
715.956	0.0149190
716.034	0.0149643
716.112	0.0150495
716.191	0.0148659
716.269	0.0148956
716.347	0.0149003
716.425	0.0150131
716.503	0.0149274
716.581	0.0148482
716.659	0.0149454
716.737	0.0148951
716.816	0.0149767
716.894	0.0148833
716.972	0.0148681
717.050	0.0149436
717.128	0.0149617
717.206	0.0149517
717.284	0.0148419
717.362	0.0149357
717.441	0.0149400
717.519	0.0148771
717.597	0.0148524
717.675	0.0149299
717.753	0.0149567
717.831	0.0149829
717.909	0.0149632
717.987	0.0148393
718.066	0.0149252
718.144	0.0147996
718.222	0.0148267
718.300	0.0148631
718.378	0.0147265
718.456	0.0148470
718.534	0.0149046
718.612	0.0148583
718.691	0.0149297
718.769	0.0149216
718.847	0.0148775
718.925	0.0149921
719.003	0.0149612
719.081	0.0150768
719.159	0.0149493
719.237	0.0148534
719.316	0.0146936
719.394	0.0147780
719.472	0.0148357
719.550	0.0148081
719.628	0.0149452
719.706	0.0148379
719.784	0.0148428
719.862	0.0148340
719.941	0.0149696
720.019	0.0151354
720.097	0.0150507
720.175	0.0150597
720.253	0.0150513
720.331	0.0150687
720.409	0.0150811
720.487	0.0150700
720.566	0.0150107
720.644	0.0149861
720.722	0.0149060
720.800	0.0149798
720.878	0.0150542
720.956	0.0150162
721.034	0.0149710
721.112	0.0150047
721.191	0.0150171
721.269	0.0150567
721.347	0.0150476
721.425	0.0149156
721.503	0.0148579
721.581	0.0150651
721.659	0.0150259
721.737	0.0149569
721.816	0.0150327
721.894	0.0150367
721.972	0.0149355
722.050	0.0150884
722.128	0.0150417
722.206	0.0148119
722.284	0.0148578
722.362	0.0148901
722.441	0.0148244
722.519	0.0147289
722.597	0.0147855
722.675	0.0147746
722.753	0.0147007
722.831	0.0146120
722.909	0.0147550
722.987	0.0147353
723.066	0.0147462
723.144	0.0148760
723.222	0.0150140
723.300	0.0149387
723.378	0.0148608
723.456	0.0149202
723.534	0.0149815
723.612	0.0150869
723.691	0.0150645
723.769	0.0150605
723.847	0.0150320
723.925	0.0150115
724.003	0.0148868
724.081	0.0150754
724.159	0.0150701
724.237	0.0148660
724.316	0.0150443
724.394	0.0150021
724.472	0.0150462
724.550	0.0151080
724.628	0.0150067
724.706	0.0151157
724.784	0.0150129
724.862	0.0149876
724.941	0.0148697
725.019	0.0149553
725.097	0.0150651
725.175	0.0150844
725.253	0.0149812
725.331	0.0150270
725.409	0.0149825
725.487	0.0149123
725.566	0.0148160
725.644	0.0149149
725.722	0.0148415
725.800	0.0149315
725.878	0.0149844
725.956	0.0149373
726.034	0.0149237
726.112	0.0148463
726.191	0.0147885
726.269	0.0149413
726.347	0.0149301
726.425	0.0150264
726.503	0.0150069
726.581	0.0149940
726.659	0.0149705
726.737	0.0149928
726.816	0.0149939
726.894	0.0149287
726.972	0.0148158
727.050	0.0150928
727.128	0.0149489
727.206	0.0149032
727.284	0.0147836
727.362	0.0147266
727.441	0.0148151
727.519	0.0147724
727.597	0.0146585
727.675	0.0147212
727.753	0.0146615
727.831	0.0147232
727.909	0.0147974
727.987	0.0147688
728.066	0.0148002
728.144	0.0147762
728.222	0.0148308
728.300	0.0148287
728.378	0.0149059
728.456	0.0148288
728.534	0.0148098
728.612	0.0150094
728.691	0.0149622
728.769	0.0148978
728.847	0.0150544
728.925	0.0148447
729.003	0.0148888
729.081	0.0149908
729.159	0.0148727
729.237	0.0149343
729.316	0.0148611
729.394	0.0149371
729.472	0.0149712
729.550	0.0149777
729.628	0.0149233
729.706	0.0148888
729.784	0.0149334
729.862	0.0149210
729.941	0.0150535
730.019	0.0149747
730.097	0.0149481
730.175	0.0149674
730.253	0.0149521
730.331	0.0150577
730.409	0.0150426
730.487	0.0151092
730.566	0.0150127
730.644	0.0149963
730.722	0.0149342
730.800	0.0148976
730.878	0.0149014
730.956	0.0149281
731.034	0.0149578
731.112	0.0149340
731.191	0.0149345
731.269	0.0148809
731.347	0.0149355
731.425	0.0148385
731.503	0.0148723
731.581	0.0147740
731.659	0.0149030
731.737	0.0149239
731.816	0.0149753
731.894	0.0147968
731.972	0.0148862
732.050	0.0149465
732.128	0.0148518
732.206	0.0149711
732.284	0.0148065
732.362	0.0148056
732.441	0.0149088
732.519	0.0149407
732.597	0.0149514
732.675	0.0148403
732.753	0.0147992
732.831	0.0148719
732.909	0.0147986
732.987	0.0147360
733.066	0.0145882
733.144	0.0148169
733.222	0.0150259
733.300	0.0148527
733.378	0.0146999
733.456	0.0148213
733.534	0.0149297
733.612	0.0148680
733.691	0.0147269
733.769	0.0148784
733.847	0.0149005
733.925	0.0147841
734.003	0.0147903
734.081	0.0149628
734.159	0.0149520
734.237	0.0149577
734.316	0.0148646
734.394	0.0148692
734.472	0.0149007
734.550	0.0148540
734.628	0.0148945
734.706	0.0148856
734.784	0.0149632
734.862	0.0148841
734.941	0.0150017
735.019	0.0149718
735.097	0.0148656
735.175	0.0149430
735.253	0.0151492
735.331	0.0149673
735.409	0.0151855
735.487	0.0149873
735.566	0.0150943
735.644	0.0150437
735.722	0.0150551
735.800	0.0149817
735.878	0.0151591
735.956	0.0150610
736.034	0.0151254
736.112	0.0150243
736.191	0.0150792
736.269	0.0150642
736.347	0.0150438
736.425	0.0150428
736.503	0.0150854
736.581	0.0149263
736.659	0.0150137
736.737	0.0150510
736.816	0.0151737
736.894	0.0150784
736.972	0.0150500
737.050	0.0149041
737.128	0.0149419
737.206	0.0148446
737.284	0.0148869
737.362	0.0148470
737.441	0.0148804
737.519	0.0150153
737.597	0.0150108
737.675	0.0150525
737.753	0.0150377
737.831	0.0148559
737.909	0.0149036
737.987	0.0148300
738.066	0.0148392
738.144	0.0150358
738.222	0.0151450
738.300	0.0148589
738.378	0.0149922
738.456	0.0148757
738.534	0.0149627
738.612	0.0150623
738.691	0.0149383
738.769	0.0147810
738.847	0.0149555
738.925	0.0148752
739.003	0.0147794
739.081	0.0148500
739.159	0.0148129
739.237	0.0147608
739.316	0.0146915
739.394	0.0149054
739.472	0.0148103
739.550	0.0148323
739.628	0.0148396
739.706	0.0147429
739.784	0.0148706
739.862	0.0148599
739.941	0.0148975
740.019	0.0149637
740.097	0.0149153
740.175	0.0149738
740.253	0.0149232
740.331	0.0150192
740.409	0.0150860
740.487	0.0150125
740.566	0.0149822
740.644	0.0149393
740.722	0.0150484
740.800	0.0150604
740.878	0.0149772
740.956	0.0150302
741.034	0.0151163
741.112	0.0150462
741.191	0.0150861
741.269	0.0151183
741.347	0.0149687
741.425	0.0149372
741.503	0.0147392
741.581	0.0148404
741.659	0.0149335
741.737	0.0149731
741.816	0.0149083
741.894	0.0149785
741.972	0.0148460
742.050	0.0148857
742.128	0.0149516
742.206	0.0149235
742.284	0.0149730
742.362	0.0148804
742.441	0.0149663
742.519	0.0149186
742.597	0.0149541
742.675	0.0149007
742.753	0.0148076
742.831	0.0149794
742.909	0.0150270
742.987	0.0149052
743.066	0.0148181
743.144	0.0148092
743.222	0.0148522
743.300	0.0147964
743.378	0.0149129
743.456	0.0146400
743.534	0.0147999
743.612	0.0148979
743.691	0.0150266
743.769	0.0149389
743.847	0.0148761
743.925	0.0148817
744.003	0.0147856
744.081	0.0147775
744.159	0.0147160
744.237	0.0148087
744.316	0.0148275
744.394	0.0148575
744.472	0.0147392
744.550	0.0148791
744.628	0.0149471
744.706	0.0149609
744.784	0.0148683
744.862	0.0149075
744.941	0.0148502
745.019	0.0148650
745.097	0.0148954
745.175	0.0148648
745.253	0.0148857
745.331	0.0148794
745.409	0.0149863
745.487	0.0149229
745.566	0.0148241
745.644	0.0149844
745.722	0.0148330
745.800	0.0147718
745.878	0.0149306
745.956	0.0148372
746.034	0.0147235
746.112	0.0147358
746.191	0.0149035
746.269	0.0148325
746.347	0.0149844
746.425	0.0149651
746.503	0.0148795
746.581	0.0148248
746.659	0.0149348
746.737	0.0150047
746.816	0.0148473
746.894	0.0149113
746.972	0.0148981
747.050	0.0149846
747.128	0.0150942
747.206	0.0150436
747.284	0.0150838
747.362	0.0151131
747.441	0.0149934
747.519	0.0147380
747.597	0.0149139
747.675	0.0149043
747.753	0.0150549
747.831	0.0149726
747.909	0.0148677
747.987	0.0149258
748.066	0.0149961
748.144	0.0149328
748.222	0.0149780
748.300	0.0148946
748.378	0.0149162
748.456	0.0149382
748.534	0.0151234
748.612	0.0149490
748.691	0.0149531
748.769	0.0150864
748.847	0.0151009
748.925	0.0151287
749.003	0.0149480
749.081	0.0150510
749.159	0.0149905
749.237	0.0150713
749.316	0.0150885
749.394	0.0150521
749.472	0.0149154
749.550	0.0151115
749.628	0.0150934
749.706	0.0150117
749.784	0.0150636
749.862	0.0150569
749.941	0.0148667
750.019	0.0149873
750.097	0.0150498
750.175	0.0150205
750.253	0.0148640
750.331	0.0149497
750.409	0.0150269
750.487	0.0149754
750.566	0.0149464
750.644	0.0149815
750.722	0.0149906
750.800	0.0149241
750.878	0.0150266
750.956	0.0150705
751.034	0.0150111
751.112	0.0150060
751.191	0.0150169
751.269	0.0148993
751.347	0.0148153
751.425	0.0149306
751.503	0.0150169
751.581	0.0149931
751.659	0.0150504
751.737	0.0148703
751.816	0.0149454
751.894	0.0149329
751.972	0.0148344
752.050	0.0148759
752.128	0.0148777
752.206	0.0148689
752.284	0.0147955
752.362	0.0147955
752.441	0.0148398
752.519	0.0148850
752.597	0.0148954
752.675	0.0149953
752.753	0.0148650
752.831	0.0147679
752.909	0.0148255
752.987	0.0148231
753.066	0.0148177
753.144	0.0148824
753.222	0.0147327
753.300	0.0148314
753.378	0.0149143
753.456	0.0148444
753.534	0.0149673
753.612	0.0149011
753.691	0.0149321
753.769	0.0148700
753.847	0.0149158
753.925	0.0146941
754.003	0.0149453
754.081	0.0147816
754.159	0.0147951
754.237	0.0149072
754.316	0.0148717
754.394	0.0148908
754.472	0.0148292
754.550	0.0149447
754.628	0.0149980
754.706	0.0149084
754.784	0.0149678
754.862	0.0148695
754.941	0.0149288
755.019	0.0148167
755.097	0.0149808
755.175	0.0149973
755.253	0.0149067
755.331	0.0149068
755.409	0.0148672
755.487	0.0147922
755.566	0.0148817
755.644	0.0149508
755.722	0.0147918
755.800	0.0148411
755.878	0.0147666
755.956	0.0149019
756.034	0.0149290
756.112	0.0147847
756.191	0.0148275
756.269	0.0148885
756.347	0.0147847
756.425	0.0146972
756.503	0.0148135
756.581	0.0149889
756.659	0.0148887
756.737	0.0148794
756.816	0.0148565
756.894	0.0147698
756.972	0.0148437
757.050	0.0149384
757.128	0.0149824
757.206	0.0148689
757.284	0.0147413
757.362	0.0147829
757.441	0.0148014
757.519	0.0148462
757.597	0.0147584
757.675	0.0148726
757.753	0.0148849
757.831	0.0148341
757.909	0.0148810
757.987	0.0150415
758.066	0.0147841
758.144	0.0148117
758.222	0.0148186
758.300	0.0148436
758.378	0.0148788
758.456	0.0150168
758.534	0.0148109
758.612	0.0148497
758.691	0.0150885
758.769	0.0149522
758.847	0.0150017
758.925	0.0149055
759.003	0.0150058
759.081	0.0150195
759.159	0.0149709
759.237	0.0149130
759.316	0.0149566
759.394	0.0149374
759.472	0.0150066
759.550	0.0149435
759.628	0.0150109
759.706	0.0150407
759.784	0.0150557
759.862	0.0150748
759.941	0.0151308
760.019	0.0149178
760.097	0.0150249
760.175	0.0150200
760.253	0.0149953
760.331	0.0149922
760.409	0.0150307
760.487	0.0148814
760.566	0.0150069
760.644	0.0149491
760.722	0.0149712
760.800	0.0149426
760.878	0.0148975
760.956	0.0149788
761.034	0.0149932
761.112	0.0149510
761.191	0.0150646
761.269	0.0148097
761.347	0.0148787
761.425	0.0149666
761.503	0.0149590
761.581	0.0147880
761.659	0.0148821
761.737	0.0148714
761.816	0.0149846
761.894	0.0149020
761.972	0.0150694
762.050	0.0150485
762.128	0.0150198
762.206	0.0148679
762.284	0.0148162
762.362	0.0149798
762.441	0.0149113
762.519	0.0149532
762.597	0.0149828
762.675	0.0150164
762.753	0.0148788
762.831	0.0150471
762.909	0.0150189
762.987	0.0149728
763.066	0.0150532
763.144	0.0148199
763.222	0.0148396
763.300	0.0149323
763.378	0.0150777
763.456	0.0150309
763.534	0.0149313
763.612	0.0150028
763.691	0.0150918
763.769	0.0151378
763.847	0.0149277
763.925	0.0150165
764.003	0.0150847
764.081	0.0149857
764.159	0.0149390
764.237	0.0148714
764.316	0.0149928
764.394	0.0150807
764.472	0.0150694
764.550	0.0148335
764.628	0.0149741
764.706	0.0150025
