05/04/2022	21:00:12	Ver.	4.1	UNKNOWN
Optical Delay	678.996401	Delta X		0.078125	Sweeps	1	Scan Rate	0/0
Coordinates	Axis 1	NaN	Axis 2	NaN	Axis 3	NaN	Axis 4	NaN	Axis 5	NaN	Axis 6	0.000000
TX Power	0.000000	RX Power	0.000000

678.996	0.0139386
679.075	0.0138435
679.153	0.0139445
679.231	0.0140098
679.309	0.0138377
679.387	0.0138514
679.465	0.0139387
679.543	0.0140448
679.621	0.0139860
679.700	0.0139763
679.778	0.0140367
679.856	0.0139713
679.934	0.0138261
680.012	0.0139110
680.090	0.0139741
680.168	0.0140123
680.246	0.0140117
680.325	0.0141167
680.403	0.0140269
680.481	0.0138598
680.559	0.0138344
680.637	0.0138860
680.715	0.0140265
680.793	0.0139389
680.871	0.0138950
680.950	0.0139925
681.028	0.0139699
681.106	0.0139027
681.184	0.0139079
681.262	0.0139007
681.340	0.0139161
681.418	0.0140109
681.496	0.0139830
681.575	0.0138974
681.653	0.0137902
681.731	0.0138847
681.809	0.0139909
681.887	0.0138667
681.965	0.0138963
682.043	0.0139380
682.121	0.0139429
682.200	0.0139283
682.278	0.0139276
682.356	0.0141093
682.434	0.0140655
682.512	0.0139101
682.590	0.0140113
682.668	0.0140138
682.746	0.0139829
682.825	0.0139941
682.903	0.0141357
682.981	0.0139950
683.059	0.0139614
683.137	0.0139736
683.215	0.0139786
683.293	0.0140275
683.371	0.0138430
683.450	0.0139085
683.528	0.0140079
683.606	0.0139835
683.684	0.0139177
683.762	0.0139229
683.840	0.0140273
683.918	0.0139822
683.996	0.0140210
684.075	0.0140775
684.153	0.0139787
684.231	0.0139303
684.309	0.0140324
684.387	0.0140159
684.465	0.0139469
684.543	0.0139447
684.621	0.0138763
684.700	0.0139363
684.778	0.0139086
684.856	0.0139526
684.934	0.0139508
685.012	0.0137914
685.090	0.0139330
685.168	0.0139844
685.246	0.0139326
685.325	0.0138733
685.403	0.0139664
685.481	0.0140166
685.559	0.0139262
685.637	0.0139499
685.715	0.0140254
685.793	0.0139449
685.871	0.0139921
685.950	0.0138591
686.028	0.0138454
686.106	0.0138329
686.184	0.0139243
686.262	0.0138605
686.340	0.0138993
686.418	0.0139851
686.496	0.0139444
686.575	0.0140227
686.653	0.0140464
686.731	0.0139705
686.809	0.0139692
686.887	0.0139907
686.965	0.0139148
687.043	0.0139194
687.121	0.0138657
687.200	0.0139693
687.278	0.0139861
687.356	0.0138262
687.434	0.0138556
687.512	0.0138960
687.590	0.0139153
687.668	0.0140924
687.746	0.0140138
687.825	0.0140160
687.903	0.0139259
687.981	0.0138707
688.059	0.0137976
688.137	0.0138898
688.215	0.0139575
688.293	0.0138818
688.371	0.0139389
688.450	0.0139111
688.528	0.0140804
688.606	0.0137133
688.684	0.0138156
688.762	0.0138213
688.840	0.0138922
688.918	0.0139738
688.996	0.0139489
689.075	0.0140234
689.153	0.0139426
689.231	0.0138217
689.309	0.0139950
689.387	0.0139400
689.465	0.0139326
689.543	0.0139360
689.621	0.0139222
689.700	0.0141131
689.778	0.0139195
689.856	0.0139704
689.934	0.0138680
690.012	0.0139067
690.090	0.0139349
690.168	0.0139603
690.246	0.0139313
690.325	0.0138974
690.403	0.0139268
690.481	0.0138526
690.559	0.0140633
690.637	0.0138803
690.715	0.0138811
690.793	0.0139234
690.871	0.0139511
690.950	0.0140185
691.028	0.0140317
691.106	0.0139546
691.184	0.0139250
691.262	0.0138847
691.340	0.0138860
691.418	0.0139001
691.496	0.0140342
691.575	0.0140840
691.653	0.0139549
691.731	0.0139779
691.809	0.0139127
691.887	0.0139244
691.965	0.0140350
692.043	0.0139812
692.121	0.0139561
692.200	0.0140857
692.278	0.0140506
692.356	0.0139825
692.434	0.0138889
692.512	0.0139438
692.590	0.0138965
692.668	0.0138440
692.746	0.0139590
692.825	0.0140305
692.903	0.0139639
692.981	0.0138912
693.059	0.0139631
693.137	0.0140244
693.215	0.0139306
693.293	0.0138798
693.371	0.0139462
693.450	0.0139101
693.528	0.0140916
693.606	0.0140408
693.684	0.0139056
693.762	0.0139563
693.840	0.0138303
693.918	0.0139009
693.996	0.0139727
694.075	0.0139063
694.153	0.0139970
694.231	0.0140382
694.309	0.0139577
694.387	0.0139502
694.465	0.0139875
694.543	0.0138998
694.621	0.0139116
694.700	0.0140109
694.778	0.0140862
694.856	0.0139803
694.934	0.0140890
695.012	0.0139459
695.090	0.0140225
695.168	0.0139815
695.246	0.0140622
695.325	0.0139989
695.403	0.0140689
695.481	0.0140372
695.559	0.0138332
695.637	0.0138112
695.715	0.0140752
695.793	0.0139922
695.871	0.0140159
695.950	0.0140598
696.028	0.0138911
696.106	0.0139650
696.184	0.0139722
696.262	0.0138853
696.340	0.0139449
696.418	0.0139105
696.496	0.0140314
696.575	0.0140486
696.653	0.0140036
696.731	0.0140222
696.809	0.0139530
696.887	0.0138947
696.965	0.0140053
697.043	0.0138288
697.121	0.0139824
697.200	0.0139994
697.278	0.0139819
697.356	0.0139369
697.434	0.0140300
697.512	0.0140169
697.590	0.0139193
697.668	0.0139306
697.746	0.0139314
697.825	0.0138516
697.903	0.0139796
697.981	0.0139418
698.059	0.0139829
698.137	0.0139266
698.215	0.0139523
698.293	0.0137983
698.371	0.0138637
698.450	0.0139212
698.528	0.0138456
698.606	0.0138315
698.684	0.0140508
698.762	0.0139756
698.840	0.0138810
698.918	0.0139014
698.996	0.0138641
699.075	0.0139328
699.153	0.0139615
699.231	0.0138898
699.309	0.0140105
699.387	0.0139838
699.465	0.0138990
699.543	0.0139878
699.621	0.0139268
699.700	0.0139545
699.778	0.0139685
699.856	0.0139571
699.934	0.0138703
700.012	0.0140365
700.090	0.0139337
700.168	0.0139208
700.246	0.0139118
700.325	0.0139629
700.403	0.0139678
700.481	0.0138004
700.559	0.0139269
700.637	0.0137703
700.715	0.0138518
700.793	0.0139943
700.871	0.0140269
700.950	0.0140002
701.028	0.0139393
701.106	0.0138992
701.184	0.0139032
701.262	0.0140194
701.340	0.0138687
701.418	0.0139481
701.496	0.0138528
701.575	0.0138909
701.653	0.0139651
701.731	0.0139447
701.809	0.0140009
701.887	0.0141036
701.965	0.0139389
702.043	0.0140115
702.121	0.0139568
702.200	0.0138174
702.278	0.0138730
702.356	0.0139727
702.434	0.0139839
702.512	0.0140610
702.590	0.0139941
702.668	0.0138709
702.746	0.0140642
702.825	0.0139305
702.903	0.0140194
702.981	0.0138567
703.059	0.0138471
703.137	0.0139008
703.215	0.0139784
703.293	0.0139314
703.371	0.0137847
703.450	0.0139810
703.528	0.0138252
703.606	0.0139033
703.684	0.0138421
703.762	0.0139231
703.840	0.0138801
703.918	0.0138718
703.996	0.0139526
704.075	0.0139835
704.153	0.0139356
704.231	0.0140404
704.309	0.0139935
704.387	0.0139272
704.465	0.0138960
704.543	0.0139104
704.621	0.0139008
704.700	0.0140131
704.778	0.0140479
704.856	0.0139030
704.934	0.0139188
705.012	0.0140256
705.090	0.0138768
705.168	0.0139665
705.246	0.0139520
705.325	0.0139741
705.403	0.0139011
705.481	0.0139980
705.559	0.0140167
705.637	0.0139695
705.715	0.0140914
705.793	0.0139671
705.871	0.0139478
705.950	0.0139955
706.028	0.0139207
706.106	0.0140414
706.184	0.0138953
706.262	0.0137762
706.340	0.0139796
706.418	0.0139812
706.496	0.0139687
706.575	0.0138881
706.653	0.0142069
706.731	0.0140551
706.809	0.0140839
706.887	0.0139786
706.965	0.0139137
707.043	0.0138557
707.121	0.0138200
707.200	0.0135872
707.278	0.0135193
707.356	0.0134413
707.434	0.0134623
707.512	0.0135650
707.590	0.0136732
707.668	0.0138583
707.746	0.0141471
707.825	0.0142816
707.903	0.0143966
707.981	0.0145490
708.059	0.0145015
708.137	0.0144649
708.215	0.0142426
708.293	0.0141457
708.371	0.0140336
708.450	0.0137813
708.528	0.0137025
708.606	0.0134484
708.684	0.0131490
708.762	0.0133002
708.840	0.0130193
708.918	0.0130584
708.996	0.0131955
709.075	0.0132231
709.153	0.0134512
709.231	0.0137959
709.309	0.0143285
709.387	0.0146795
709.465	0.0149615
709.543	0.0151278
709.621	0.0151598
709.700	0.0151157
709.778	0.0150608
709.856	0.0146392
709.934	0.0141415
710.012	0.0137818
710.090	0.0134352
710.168	0.0130286
710.246	0.0126740
710.325	0.0122928
710.403	0.0123295
710.481	0.0123844
710.559	0.0126805
710.637	0.0131409
710.715	0.0134950
710.793	0.0141474
710.871	0.0149552
710.950	0.0155794
711.028	0.0161793
711.106	0.0163048
711.184	0.0163325
711.262	0.0163239
711.340	0.0159951
711.418	0.0153880
711.496	0.0146206
711.575	0.0140266
711.653	0.0133125
711.731	0.0125945
711.809	0.0121145
711.887	0.0116891
711.965	0.0112797
712.043	0.0112057
712.121	0.0113374
712.200	0.0116557
712.278	0.0120519
712.356	0.0127702
712.434	0.0135074
712.512	0.0141154
712.590	0.0148204
712.668	0.0152712
712.746	0.0156251
712.825	0.0156621
712.903	0.0156585
712.981	0.0152556
713.059	0.0148996
713.137	0.0145190
713.215	0.0140470
713.293	0.0135020
713.371	0.0130865
713.450	0.0126762
713.528	0.0124338
713.606	0.0124599
713.684	0.0126206
713.762	0.0127952
713.840	0.0133685
713.918	0.0138148
713.996	0.0143008
714.075	0.0149579
714.153	0.0153500
714.231	0.0156239
714.309	0.0156079
714.387	0.0154798
714.465	0.0153196
714.543	0.0148592
714.621	0.0143962
714.700	0.0138502
714.778	0.0133290
714.856	0.0130462
714.934	0.0127232
715.012	0.0126697
715.090	0.0126103
715.168	0.0125834
715.246	0.0127234
715.325	0.0130492
715.403	0.0134936
715.481	0.0138612
715.559	0.0144329
715.637	0.0149024
715.715	0.0152797
715.793	0.0154110
715.871	0.0152888
715.950	0.0153239
716.028	0.0152158
716.106	0.0149358
716.184	0.0144975
716.262	0.0141097
716.340	0.0137534
716.418	0.0135120
716.496	0.0131419
716.575	0.0128555
716.653	0.0127580
716.731	0.0127074
716.809	0.0128084
716.887	0.0128873
716.965	0.0133492
717.043	0.0136301
717.121	0.0141553
717.200	0.0146262
717.278	0.0148900
717.356	0.0152175
717.434	0.0154196
717.512	0.0155583
717.590	0.0153254
717.668	0.0153900
717.746	0.0149773
717.825	0.0145806
717.903	0.0142608
717.981	0.0137948
718.059	0.0132379
718.137	0.0126015
718.215	0.0122253
718.293	0.0117944
718.371	0.0114984
718.450	0.0115277
718.528	0.0116585
718.606	0.0119701
718.684	0.0124813
718.762	0.0131049
718.840	0.0136532
718.918	0.0141243
718.996	0.0148678
719.075	0.0155708
719.153	0.0160341
719.231	0.0165028
719.309	0.0167651
719.387	0.0168615
719.465	0.0169140
719.543	0.0167053
719.621	0.0161349
719.700	0.0154198
719.778	0.0148760
719.856	0.0140911
719.934	0.0134113
720.012	0.0127858
720.090	0.0122937
720.168	0.0118560
720.246	0.0115118
720.325	0.0112308
720.403	0.0112370
720.481	0.0113182
720.559	0.0114612
720.637	0.0120963
720.715	0.0126199
720.793	0.0132999
720.871	0.0140314
720.950	0.0147628
721.028	0.0153846
721.106	0.0160429
721.184	0.0161724
721.262	0.0164476
721.340	0.0164119
721.418	0.0164490
721.496	0.0162418
721.575	0.0160418
721.653	0.0155280
721.731	0.0149995
721.809	0.0144581
721.887	0.0136811
721.965	0.0130172
722.043	0.0125121
722.121	0.0118968
722.200	0.0117154
722.278	0.0116180
722.356	0.0114645
722.434	0.0117608
722.512	0.0119325
722.590	0.0121474
722.668	0.0126019
722.746	0.0129488
722.825	0.0133886
722.903	0.0138451
722.981	0.0141991
723.059	0.0145936
723.137	0.0149576
723.215	0.0152527
723.293	0.0155164
723.371	0.0155919
723.450	0.0155457
723.528	0.0155508
723.606	0.0152622
723.684	0.0149783
723.762	0.0146876
723.840	0.0144884
723.918	0.0140940
723.996	0.0137531
724.075	0.0135997
724.153	0.0132018
724.231	0.0129931
724.309	0.0128671
724.387	0.0128387
724.465	0.0127581
724.543	0.0128095
724.621	0.0128174
724.700	0.0128718
724.778	0.0131489
724.856	0.0133103
724.934	0.0133254
725.012	0.0137276
725.090	0.0140552
725.168	0.0140505
725.246	0.0144435
725.325	0.0146906
725.403	0.0146352
725.481	0.0147862
725.559	0.0149072
725.637	0.0148937
725.715	0.0147573
725.793	0.0147159
725.871	0.0148141
725.950	0.0145594
726.028	0.0143422
726.106	0.0142403
726.184	0.0140565
726.262	0.0139565
726.340	0.0136689
726.418	0.0135061
726.496	0.0133466
726.575	0.0131210
726.653	0.0130081
726.731	0.0131297
726.809	0.0131937
726.887	0.0132365
726.965	0.0132963
727.043	0.0134860
727.121	0.0135298
727.200	0.0137858
727.278	0.0139226
727.356	0.0140958
727.434	0.0141849
727.512	0.0144255
727.590	0.0145313
727.668	0.0146381
727.746	0.0145973
727.825	0.0144284
727.903	0.0143745
727.981	0.0140831
728.059	0.0140757
728.137	0.0139407
728.215	0.0137585
728.293	0.0135682
728.371	0.0135801
728.450	0.0134745
728.528	0.0132757
728.606	0.0134430
728.684	0.0134138
728.762	0.0135369
728.840	0.0136574
728.918	0.0138323
728.996	0.0139644
729.075	0.0139487
729.153	0.0140609
729.231	0.0139980
729.309	0.0140927
729.387	0.0141241
729.465	0.0139772
729.543	0.0139203
729.621	0.0140802
729.700	0.0139844
729.778	0.0140337
729.856	0.0140429
729.934	0.0139609
730.012	0.0140320
730.090	0.0139838
730.168	0.0139094
730.246	0.0139416
730.325	0.0137856
730.403	0.0136548
730.481	0.0136585
730.559	0.0137032
730.637	0.0134451
730.715	0.0133197
730.793	0.0134995
730.871	0.0136028
730.950	0.0136916
731.028	0.0137614
731.106	0.0139551
731.184	0.0140808
731.262	0.0142979
731.340	0.0144450
731.418	0.0145900
731.496	0.0147754
731.575	0.0148837
731.653	0.0147516
731.731	0.0147311
731.809	0.0145609
731.887	0.0143700
731.965	0.0142528
732.043	0.0137187
732.121	0.0135226
732.200	0.0132334
732.278	0.0130508
732.356	0.0129197
732.434	0.0126633
732.512	0.0126130
732.590	0.0126421
732.668	0.0128625
732.746	0.0130424
732.825	0.0132267
732.903	0.0134811
732.981	0.0138815
733.059	0.0140414
733.137	0.0143413
733.215	0.0144476
733.293	0.0147843
733.371	0.0146813
733.450	0.0147903
733.528	0.0148712
733.606	0.0147812
733.684	0.0147784
733.762	0.0147422
733.840	0.0146185
733.918	0.0146587
733.996	0.0144698
734.075	0.0144868
734.153	0.0143758
734.231	0.0141479
734.309	0.0140517
734.387	0.0140417
734.465	0.0138918
734.543	0.0139028
734.621	0.0137009
734.700	0.0134458
734.778	0.0133646
734.856	0.0131963
734.934	0.0132124
735.012	0.0128127
735.090	0.0127674
735.168	0.0128560
735.246	0.0131311
735.325	0.0131160
735.403	0.0132726
735.481	0.0134766
735.559	0.0138833
735.637	0.0141751
735.715	0.0144249
735.793	0.0145899
735.871	0.0148022
735.950	0.0152220
736.028	0.0151325
736.106	0.0151672
736.184	0.0150789
736.262	0.0149084
736.340	0.0147893
736.418	0.0145236
736.496	0.0141678
736.575	0.0139675
736.653	0.0136499
736.731	0.0133073
736.809	0.0132074
736.887	0.0128895
736.965	0.0128519
737.043	0.0127811
737.121	0.0126480
737.200	0.0128049
737.278	0.0129356
737.356	0.0132001
737.434	0.0133147
737.512	0.0135833
737.590	0.0138493
737.668	0.0141417
737.746	0.0144009
737.825	0.0145725
737.903	0.0148809
737.981	0.0149647
738.059	0.0151694
738.137	0.0150542
738.215	0.0152192
738.293	0.0153398
738.371	0.0152764
738.450	0.0152074
738.528	0.0150066
738.606	0.0149212
738.684	0.0147578
738.762	0.0145830
738.840	0.0141154
738.918	0.0137903
738.996	0.0134875
739.075	0.0133262
739.153	0.0130040
739.231	0.0129348
739.309	0.0127177
739.387	0.0127815
739.465	0.0125358
739.543	0.0126302
739.621	0.0129338
739.700	0.0130911
739.778	0.0133470
739.856	0.0135979
739.934	0.0139001
740.012	0.0143179
740.090	0.0146787
740.168	0.0148442
740.246	0.0149262
740.325	0.0152048
740.403	0.0154110
740.481	0.0153911
740.559	0.0151929
740.637	0.0150005
740.715	0.0148383
740.793	0.0145327
740.871	0.0143506
740.950	0.0141602
741.028	0.0140545
741.106	0.0135325
741.184	0.0133646
741.262	0.0132884
741.340	0.0132326
741.418	0.0130955
741.496	0.0129449
741.575	0.0130579
741.653	0.0130288
741.731	0.0132847
741.809	0.0132742
741.887	0.0135406
741.965	0.0138985
742.043	0.0139214
742.121	0.0139122
742.200	0.0141948
742.278	0.0141858
742.356	0.0143641
742.434	0.0143476
742.512	0.0144322
742.590	0.0143990
742.668	0.0142658
742.746	0.0142581
742.825	0.0143381
742.903	0.0142628
742.981	0.0142429
743.059	0.0140636
743.137	0.0142793
743.215	0.0141481
743.293	0.0142327
743.371	0.0143055
743.450	0.0140820
743.528	0.0141051
743.606	0.0141093
743.684	0.0141762
743.762	0.0141156
743.840	0.0138714
743.918	0.0137766
743.996	0.0137736
744.075	0.0136552
744.153	0.0136980
744.231	0.0134039
744.309	0.0131615
744.387	0.0132590
744.465	0.0134029
744.543	0.0131758
744.621	0.0133514
744.700	0.0135861
744.778	0.0135211
744.856	0.0137103
744.934	0.0141009
745.012	0.0142880
745.090	0.0144144
745.168	0.0145649
745.246	0.0146374
745.325	0.0148630
745.403	0.0147348
745.481	0.0147690
745.559	0.0147154
745.637	0.0146837
745.715	0.0144231
745.793	0.0143809
745.871	0.0141374
745.950	0.0139983
746.028	0.0139142
746.106	0.0137142
746.184	0.0135587
746.262	0.0133696
746.340	0.0134210
746.418	0.0133282
746.496	0.0132684
746.575	0.0131280
746.653	0.0131054
746.731	0.0131789
746.809	0.0132293
746.887	0.0131832
746.965	0.0132819
747.043	0.0133244
747.121	0.0135527
747.200	0.0136215
747.278	0.0136412
747.356	0.0139275
747.434	0.0142583
747.512	0.0143728
747.590	0.0145869
747.668	0.0147028
747.746	0.0148975
747.825	0.0147903
747.903	0.0148855
747.981	0.0149757
748.059	0.0149356
748.137	0.0148389
748.215	0.0146085
748.293	0.0144139
748.371	0.0140125
748.450	0.0137232
748.528	0.0135287
748.606	0.0133009
748.684	0.0129521
748.762	0.0128041
748.840	0.0126878
748.918	0.0127757
748.996	0.0126994
749.075	0.0125047
749.153	0.0129398
749.231	0.0130911
749.309	0.0132571
749.387	0.0136140
749.465	0.0140577
749.543	0.0143182
749.621	0.0143787
749.700	0.0146962
749.778	0.0148491
749.856	0.0150040
749.934	0.0151239
750.012	0.0151454
750.090	0.0150388
750.168	0.0149474
750.246	0.0148666
750.325	0.0146982
750.403	0.0144544
750.481	0.0141788
750.559	0.0141930
750.637	0.0139310
750.715	0.0137695
750.793	0.0136382
750.871	0.0133587
750.950	0.0133935
751.028	0.0133607
751.106	0.0132104
751.184	0.0132033
751.262	0.0131831
751.340	0.0130516
751.418	0.0131788
751.496	0.0132757
751.575	0.0134003
751.653	0.0134212
751.731	0.0135001
751.809	0.0137013
751.887	0.0139956
751.965	0.0139519
752.043	0.0141854
752.121	0.0142839
752.200	0.0144589
752.278	0.0145850
752.356	0.0147271
752.434	0.0147493
752.512	0.0147478
752.590	0.0148171
752.668	0.0145911
752.746	0.0145656
752.825	0.0144709
752.903	0.0144548
752.981	0.0142803
753.059	0.0140578
753.137	0.0136600
753.215	0.0136245
753.293	0.0135281
753.371	0.0134451
753.450	0.0131855
753.528	0.0131848
753.606	0.0132623
753.684	0.0132502
753.762	0.0132506
753.840	0.0134249
753.918	0.0134411
753.996	0.0135738
754.075	0.0135432
754.153	0.0137510
754.231	0.0140723
754.309	0.0140599
754.387	0.0141000
754.465	0.0143532
754.543	0.0144009
754.621	0.0142152
754.700	0.0143889
754.778	0.0145712
754.856	0.0145073
754.934	0.0143111
755.012	0.0142416
755.090	0.0142474
755.168	0.0141827
755.246	0.0142889
755.325	0.0143290
755.403	0.0143746
755.481	0.0141185
755.559	0.0139755
755.637	0.0141557
755.715	0.0140291
755.793	0.0140391
755.871	0.0137368
755.950	0.0138883
756.028	0.0137804
756.106	0.0137904
756.184	0.0136304
756.262	0.0136041
756.340	0.0134456
756.418	0.0134140
756.496	0.0134866
756.575	0.0136320
756.653	0.0134241
756.731	0.0134149
756.809	0.0136248
756.887	0.0135876
756.965	0.0137362
757.043	0.0138295
757.121	0.0138782
757.200	0.0140386
757.278	0.0141206
757.356	0.0142624
757.434	0.0143471
757.512	0.0144668
757.590	0.0144285
757.668	0.0144769
757.746	0.0146069
757.825	0.0145277
757.903	0.0142806
757.981	0.0142960
758.059	0.0142164
758.137	0.0140828
758.215	0.0140066
758.293	0.0139280
758.371	0.0137360
758.450	0.0137341
758.528	0.0137589
758.606	0.0136565
758.684	0.0134005
758.762	0.0133324
758.840	0.0134610
758.918	0.0133977
758.996	0.0132632
759.075	0.0134251
759.153	0.0135675
759.231	0.0134128
759.309	0.0137212
759.387	0.0138670
759.465	0.0139902
759.543	0.0138903
759.621	0.0141093
759.700	0.0143800
759.778	0.0144263
759.856	0.0145181
759.934	0.0146995
760.012	0.0146346
760.090	0.0146686
760.168	0.0145975
760.246	0.0145718
760.325	0.0146006
760.403	0.0144401
760.481	0.0144630
760.559	0.0143179
760.637	0.0140169
760.715	0.0137997
760.793	0.0139107
760.871	0.0137541
760.950	0.0136963
761.028	0.0136020
761.106	0.0135397
761.184	0.0135033
761.262	0.0135565
761.340	0.0133862
761.418	0.0136684
761.496	0.0136760
761.575	0.0138208
761.653	0.0137562
761.731	0.0139391
761.809	0.0142123
761.887	0.0141197
761.965	0.0143158
762.043	0.0143240
762.121	0.0143833
762.200	0.0143937
762.278	0.0144988
762.356	0.0144803
762.434	0.0144054
762.512	0.0144367
762.590	0.0142614
762.668	0.0143243
762.746	0.0142757
762.825	0.0141702
762.903	0.0140344
762.981	0.0139779
763.059	0.0139431
763.137	0.0139330
763.215	0.0139082
763.293	0.0138179
763.371	0.0138448
763.450	0.0138261
763.528	0.0139045
763.606	0.0137974
763.684	0.0137502
763.762	0.0138151
763.840	0.0138972
763.918	0.0136491
763.996	0.0136747
764.075	0.0137832
764.153	0.0138432
764.231	0.0139628
764.309	0.0140495
764.387	0.0138824
764.465	0.0140688
764.543	0.0141123
764.621	0.0139749
764.700	0.0140861
