05/04/2022	21:01:17	Ver.	4.1	UNKNOWN
Optical Delay	678.996401	Delta X		0.078125	Sweeps	1	Scan Rate	0/0
Coordinates	Axis 1	NaN	Axis 2	NaN	Axis 3	NaN	Axis 4	NaN	Axis 5	NaN	Axis 6	0.000000
TX Power	0.000000	RX Power	0.000000

678.996	0.0141564
679.075	0.0143154
679.153	0.0141077
679.231	0.0142101
679.309	0.0141886
679.387	0.0142741
679.465	0.0142360
679.543	0.0142427
679.621	0.0140923
679.700	0.0140998
679.778	0.0143282
679.856	0.0141049
679.934	0.0141571
680.012	0.0142027
680.090	0.0140598
680.168	0.0141483
680.246	0.0142985
680.325	0.0141190
680.403	0.0141701
680.481	0.0141322
680.559	0.0140810
680.637	0.0141772
680.715	0.0142932
680.793	0.0142513
680.871	0.0139774
680.950	0.0140215
681.028	0.0142368
681.106	0.0141563
681.184	0.0141042
681.262	0.0140434
681.340	0.0141617
681.418	0.0141546
681.496	0.0140595
681.575	0.0141940
681.653	0.0141743
681.731	0.0141021
681.809	0.0140896
681.887	0.0141007
681.965	0.0141265
682.043	0.0141714
682.121	0.0140623
682.200	0.0141873
682.278	0.0141022
682.356	0.0143098
682.434	0.0142050
682.512	0.0141866
682.590	0.0142339
682.668	0.0141536
682.746	0.0141213
682.825	0.0140777
682.903	0.0141394
682.981	0.0142206
683.059	0.0142789
683.137	0.0140648
683.215	0.0141427
683.293	0.0141933
683.371	0.0141941
683.450	0.0143085
683.528	0.0141024
683.606	0.0140208
683.684	0.0141161
683.762	0.0141022
683.840	0.0142252
683.918	0.0141301
683.996	0.0141374
684.075	0.0142480
684.153	0.0141832
684.231	0.0142375
684.309	0.0142493
684.387	0.0142282
684.465	0.0142715
684.543	0.0140424
684.621	0.0141886
684.700	0.0140995
684.778	0.0141666
684.856	0.0140897
684.934	0.0140013
685.012	0.0141409
685.090	0.0140472
685.168	0.0142746
685.246	0.0142141
685.325	0.0140598
685.403	0.0141187
685.481	0.0140800
685.559	0.0141814
685.637	0.0142600
685.715	0.0142106
685.793	0.0140197
685.871	0.0142370
685.950	0.0140571
686.028	0.0143096
686.106	0.0142364
686.184	0.0141644
686.262	0.0142445
686.340	0.0142145
686.418	0.0140085
686.496	0.0141704
686.575	0.0141459
686.653	0.0141914
686.731	0.0142301
686.809	0.0141429
686.887	0.0141592
686.965	0.0141193
687.043	0.0141860
687.121	0.0142282
687.200	0.0141297
687.278	0.0141138
687.356	0.0142715
687.434	0.0140930
687.512	0.0140333
687.590	0.0141330
687.668	0.0141711
687.746	0.0141425
687.825	0.0142289
687.903	0.0141458
687.981	0.0140630
688.059	0.0140435
688.137	0.0141835
688.215	0.0142277
688.293	0.0143102
688.371	0.0140073
688.450	0.0140744
688.528	0.0142368
688.606	0.0141335
688.684	0.0142019
688.762	0.0142895
688.840	0.0141277
688.918	0.0141189
688.996	0.0141444
689.075	0.0141822
689.153	0.0141904
689.231	0.0141043
689.309	0.0141280
689.387	0.0142924
689.465	0.0141698
689.543	0.0141748
689.621	0.0141925
689.700	0.0141918
689.778	0.0141395
689.856	0.0140800
689.934	0.0141657
690.012	0.0140722
690.090	0.0140025
690.168	0.0142274
690.246	0.0141235
690.325	0.0141483
690.403	0.0141530
690.481	0.0140446
690.559	0.0142094
690.637	0.0141726
690.715	0.0141448
690.793	0.0142126
690.871	0.0141855
690.950	0.0141089
691.028	0.0140556
691.106	0.0142776
691.184	0.0142119
691.262	0.0140965
691.340	0.0141312
691.418	0.0142144
691.496	0.0141003
691.575	0.0141981
691.653	0.0141141
691.731	0.0141116
691.809	0.0141402
691.887	0.0140479
691.965	0.0141843
692.043	0.0141481
692.121	0.0140383
692.200	0.0140602
692.278	0.0140369
692.356	0.0142144
692.434	0.0140594
692.512	0.0139929
692.590	0.0142201
692.668	0.0141136
692.746	0.0140959
692.825	0.0140501
692.903	0.0141589
692.981	0.0140842
693.059	0.0141155
693.137	0.0141859
693.215	0.0141392
693.293	0.0141502
693.371	0.0142117
693.450	0.0141397
693.528	0.0143494
693.606	0.0142425
693.684	0.0141615
693.762	0.0141279
693.840	0.0141932
693.918	0.0140909
693.996	0.0142624
694.075	0.0141756
694.153	0.0139773
694.231	0.0141149
694.309	0.0142049
694.387	0.0140506
694.465	0.0141339
694.543	0.0142340
694.621	0.0141899
694.700	0.0141506
694.778	0.0141788
694.856	0.0141746
694.934	0.0142545
695.012	0.0141654
695.090	0.0140422
695.168	0.0142172
695.246	0.0141107
695.325	0.0141590
695.403	0.0142045
695.481	0.0143062
695.559	0.0141497
695.637	0.0141455
695.715	0.0141263
695.793	0.0142343
695.871	0.0142333
695.950	0.0141058
696.028	0.0141775
696.106	0.0142632
696.184	0.0141549
696.262	0.0142049
696.340	0.0141748
696.418	0.0142891
696.496	0.0142517
696.575	0.0142333
696.653	0.0141152
696.731	0.0141682
696.809	0.0142456
696.887	0.0142542
696.965	0.0140852
697.043	0.0140644
697.121	0.0142092
697.200	0.0141397
697.278	0.0142550
697.356	0.0141814
697.434	0.0141150
697.512	0.0141058
697.590	0.0140916
697.668	0.0140797
697.746	0.0141563
697.825	0.0141055
697.903	0.0141137
697.981	0.0142045
698.059	0.0141024
698.137	0.0141521
698.215	0.0140695
698.293	0.0141695
698.371	0.0142874
698.450	0.0142019
698.528	0.0142410
698.606	0.0143336
698.684	0.0141095
698.762	0.0141956
698.840	0.0142716
698.918	0.0142558
698.996	0.0142654
699.075	0.0140772
699.153	0.0142538
699.231	0.0141015
699.309	0.0141674
699.387	0.0143829
699.465	0.0141751
699.543	0.0142212
699.621	0.0140868
699.700	0.0139710
699.778	0.0141612
699.856	0.0141273
699.934	0.0142253
700.012	0.0140723
700.090	0.0142947
700.168	0.0142512
700.246	0.0140698
700.325	0.0142876
700.403	0.0141309
700.481	0.0142168
700.559	0.0141573
700.637	0.0141436
700.715	0.0141921
700.793	0.0142416
700.871	0.0142949
700.950	0.0141512
701.028	0.0141025
701.106	0.0141450
701.184	0.0141058
701.262	0.0140511
701.340	0.0141787
701.418	0.0142532
701.496	0.0142272
701.575	0.0143434
701.653	0.0141529
701.731	0.0141219
701.809	0.0141543
701.887	0.0142396
701.965	0.0142462
702.043	0.0140732
702.121	0.0141431
702.200	0.0141850
702.278	0.0142364
702.356	0.0140605
702.434	0.0141788
702.512	0.0142121
702.590	0.0141453
702.668	0.0140235
702.746	0.0140378
702.825	0.0141817
702.903	0.0142677
702.981	0.0141640
703.059	0.0141491
703.137	0.0141819
703.215	0.0141667
703.293	0.0140560
703.371	0.0141736
703.450	0.0140724
703.528	0.0140932
703.606	0.0140957
703.684	0.0140471
703.762	0.0141438
703.840	0.0142428
703.918	0.0141721
703.996	0.0141064
704.075	0.0142075
704.153	0.0142274
704.231	0.0141608
704.309	0.0141821
704.387	0.0142091
704.465	0.0141206
704.543	0.0141916
704.621	0.0141872
704.700	0.0141324
704.778	0.0141148
704.856	0.0142482
704.934	0.0143093
705.012	0.0141611
705.090	0.0141344
705.168	0.0142244
705.246	0.0142564
705.325	0.0142735
705.403	0.0141527
705.481	0.0141404
705.559	0.0142136
705.637	0.0143460
705.715	0.0142329
705.793	0.0141647
705.871	0.0142472
705.950	0.0142113
706.028	0.0141998
706.106	0.0142566
706.184	0.0142611
706.262	0.0143102
706.340	0.0142689
706.418	0.0141745
706.496	0.0139963
706.575	0.0138950
706.653	0.0139237
706.731	0.0137509
706.809	0.0136411
706.887	0.0139011
706.965	0.0137650
707.043	0.0137948
707.121	0.0139276
707.200	0.0141576
707.278	0.0143987
707.356	0.0144633
707.434	0.0146075
707.512	0.0147439
707.590	0.0147835
707.668	0.0148797
707.746	0.0146288
707.825	0.0144398
707.903	0.0143851
707.981	0.0141399
708.059	0.0138272
708.137	0.0137027
708.215	0.0134475
708.293	0.0133273
708.371	0.0131236
708.450	0.0130836
708.528	0.0130206
708.606	0.0130758
708.684	0.0134899
708.762	0.0138605
708.840	0.0141909
708.918	0.0147173
708.996	0.0151356
709.075	0.0154951
709.153	0.0156846
709.231	0.0155955
709.309	0.0155931
709.387	0.0153530
709.465	0.0148853
709.543	0.0146120
709.621	0.0140826
709.700	0.0135976
709.778	0.0134960
709.856	0.0130070
709.934	0.0126023
710.012	0.0125457
710.090	0.0126246
710.168	0.0126907
710.246	0.0130865
710.325	0.0136049
710.403	0.0139132
710.481	0.0147448
710.559	0.0153994
710.637	0.0159177
710.715	0.0164204
710.793	0.0166913
710.871	0.0166199
710.950	0.0162154
711.028	0.0160128
711.106	0.0153190
711.184	0.0145071
711.262	0.0138124
711.340	0.0131132
711.418	0.0125542
711.496	0.0120731
711.575	0.0116867
711.653	0.0115502
711.731	0.0115595
711.809	0.0117752
711.887	0.0119665
711.965	0.0125996
712.043	0.0132269
712.121	0.0139817
712.200	0.0144292
712.278	0.0149382
712.356	0.0152744
712.434	0.0156345
712.512	0.0156969
712.590	0.0156721
712.668	0.0154208
712.746	0.0152119
712.825	0.0147723
712.903	0.0145082
712.981	0.0141306
713.059	0.0138223
713.137	0.0132824
713.215	0.0132983
713.293	0.0133431
713.371	0.0133411
713.450	0.0135705
713.528	0.0140826
713.606	0.0144098
713.684	0.0147614
713.762	0.0152293
713.840	0.0151301
713.918	0.0152050
713.996	0.0151231
714.075	0.0149013
714.153	0.0146895
714.231	0.0142820
714.309	0.0137445
714.387	0.0133598
714.465	0.0129426
714.543	0.0127054
714.621	0.0127407
714.700	0.0127379
714.778	0.0127119
714.856	0.0131336
714.934	0.0135771
715.012	0.0140812
715.090	0.0147044
715.168	0.0151418
715.246	0.0155922
715.325	0.0159499
715.403	0.0160833
715.481	0.0162045
715.559	0.0162000
715.637	0.0160805
715.715	0.0157209
715.793	0.0153043
715.871	0.0148148
715.950	0.0142435
716.028	0.0135504
716.106	0.0130470
716.184	0.0125604
716.262	0.0121828
716.340	0.0120307
716.418	0.0119289
716.496	0.0119508
716.575	0.0123534
716.653	0.0128516
716.731	0.0133598
716.809	0.0140115
716.887	0.0146286
716.965	0.0152710
717.043	0.0158038
717.121	0.0162255
717.200	0.0165636
717.278	0.0166804
717.356	0.0164191
717.434	0.0159665
717.512	0.0156267
717.590	0.0150458
717.668	0.0144549
717.746	0.0136041
717.825	0.0130922
717.903	0.0123035
717.981	0.0119222
718.059	0.0116192
718.137	0.0112299
718.215	0.0112457
718.293	0.0114532
718.371	0.0118457
718.450	0.0123595
718.528	0.0130337
718.606	0.0137865
718.684	0.0145182
718.762	0.0153294
718.840	0.0160262
718.918	0.0164619
718.996	0.0169034
719.075	0.0170495
719.153	0.0173898
719.231	0.0173960
719.309	0.0171044
719.387	0.0167458
719.465	0.0161702
719.543	0.0154403
719.621	0.0146410
719.700	0.0139593
719.778	0.0132545
719.856	0.0124397
719.934	0.0117815
720.012	0.0115533
720.090	0.0112022
720.168	0.0111768
720.246	0.0111508
720.325	0.0111930
720.403	0.0115564
720.481	0.0121300
720.559	0.0128080
720.637	0.0134074
720.715	0.0140949
720.793	0.0148402
720.871	0.0154796
720.950	0.0160234
721.028	0.0164081
721.106	0.0167022
721.184	0.0167657
721.262	0.0166942
721.340	0.0164098
721.418	0.0163258
721.496	0.0157790
721.575	0.0152364
721.653	0.0146275
721.731	0.0140067
721.809	0.0134502
721.887	0.0130762
721.965	0.0126982
722.043	0.0122914
722.121	0.0120041
722.200	0.0119537
722.278	0.0122318
722.356	0.0124153
722.434	0.0128230
722.512	0.0130367
722.590	0.0131736
722.668	0.0135764
722.746	0.0139543
722.825	0.0142413
722.903	0.0145706
722.981	0.0149397
723.059	0.0150260
723.137	0.0151322
723.215	0.0153457
723.293	0.0153072
723.371	0.0152886
723.450	0.0151461
723.528	0.0150494
723.606	0.0147723
723.684	0.0145982
723.762	0.0144293
723.840	0.0143857
723.918	0.0141995
723.996	0.0140488
724.075	0.0138801
724.153	0.0137165
724.231	0.0136596
724.309	0.0134025
724.387	0.0131584
724.465	0.0132462
724.543	0.0133192
724.621	0.0133472
724.700	0.0132841
724.778	0.0134186
724.856	0.0136600
724.934	0.0139386
725.012	0.0141077
725.090	0.0144385
725.168	0.0147142
725.246	0.0148678
725.325	0.0148711
725.403	0.0149991
725.481	0.0149998
725.559	0.0150598
725.637	0.0149049
725.715	0.0146520
725.793	0.0145036
725.871	0.0143724
725.950	0.0140423
726.028	0.0139027
726.106	0.0135696
726.184	0.0135643
726.262	0.0135705
726.340	0.0135221
726.418	0.0133827
726.496	0.0135512
726.575	0.0139080
726.653	0.0137820
726.731	0.0138753
726.809	0.0141200
726.887	0.0142014
726.965	0.0142863
727.043	0.0143559
727.121	0.0143704
727.200	0.0144696
727.278	0.0146912
727.356	0.0144522
727.434	0.0144051
727.512	0.0144293
727.590	0.0144979
727.668	0.0143867
727.746	0.0142236
727.825	0.0143311
727.903	0.0142007
727.981	0.0139105
728.059	0.0138889
728.137	0.0138124
728.215	0.0137508
728.293	0.0135145
728.371	0.0136523
728.450	0.0134827
728.528	0.0134776
728.606	0.0135909
728.684	0.0136191
728.762	0.0138580
728.840	0.0140498
728.918	0.0143767
728.996	0.0144901
729.075	0.0147102
729.153	0.0147818
729.231	0.0149277
729.309	0.0152431
729.387	0.0150009
729.465	0.0150917
729.543	0.0150597
729.621	0.0148817
729.700	0.0147118
729.778	0.0144283
729.856	0.0142356
729.934	0.0139575
730.012	0.0135917
730.090	0.0135098
730.168	0.0133043
730.246	0.0130770
730.325	0.0129583
730.403	0.0131104
730.481	0.0130422
730.559	0.0132108
730.637	0.0133285
730.715	0.0134618
730.793	0.0136272
730.871	0.0140997
730.950	0.0144487
731.028	0.0145449
731.106	0.0147601
731.184	0.0150711
731.262	0.0152650
731.340	0.0153340
731.418	0.0153519
731.496	0.0150626
731.575	0.0149583
731.653	0.0147948
731.731	0.0147059
731.809	0.0143998
731.887	0.0143185
731.965	0.0140241
732.043	0.0136209
732.121	0.0134641
732.200	0.0134557
732.278	0.0132965
732.356	0.0131242
732.434	0.0131023
732.512	0.0130930
732.590	0.0131208
732.668	0.0131095
732.746	0.0132614
732.825	0.0132607
732.903	0.0135930
732.981	0.0136737
733.059	0.0138004
733.137	0.0140060
733.215	0.0142126
733.293	0.0144587
733.371	0.0146040
733.450	0.0148823
733.528	0.0151679
733.606	0.0154683
733.684	0.0156274
733.762	0.0154755
733.840	0.0156210
733.918	0.0156759
733.996	0.0154263
734.075	0.0153157
734.153	0.0151101
734.231	0.0148911
734.309	0.0145452
734.387	0.0143469
734.465	0.0138320
734.543	0.0133618
734.621	0.0133509
734.700	0.0129151
734.778	0.0127068
734.856	0.0125577
734.934	0.0124374
735.012	0.0125843
735.090	0.0125043
735.168	0.0127489
735.246	0.0129591
735.325	0.0134936
735.403	0.0137672
735.481	0.0141354
735.559	0.0144274
735.637	0.0147795
735.715	0.0151050
735.793	0.0152854
735.871	0.0155388
735.950	0.0156555
736.028	0.0156417
736.106	0.0157014
736.184	0.0155206
736.262	0.0153877
736.340	0.0151749
736.418	0.0149108
736.496	0.0146677
736.575	0.0143661
736.653	0.0141464
736.731	0.0139137
736.809	0.0134727
736.887	0.0133949
736.965	0.0131494
737.043	0.0129239
737.121	0.0129088
737.200	0.0129749
737.278	0.0129289
737.356	0.0130728
737.434	0.0131857
737.512	0.0134457
737.590	0.0137204
737.668	0.0139890
737.746	0.0143202
737.825	0.0147294
737.903	0.0149776
737.981	0.0151746
738.059	0.0153664
738.137	0.0154792
738.215	0.0155118
738.293	0.0154852
738.371	0.0154049
738.450	0.0154132
738.528	0.0152367
738.606	0.0148324
738.684	0.0145852
738.762	0.0142490
738.840	0.0139188
738.918	0.0136369
738.996	0.0132498
739.075	0.0132258
739.153	0.0131225
739.231	0.0129757
739.309	0.0129182
739.387	0.0131200
739.465	0.0132434
739.543	0.0134104
739.621	0.0136681
739.700	0.0138938
739.778	0.0139724
739.856	0.0141170
739.934	0.0142036
740.012	0.0144236
740.090	0.0147618
740.168	0.0149174
740.246	0.0149258
740.325	0.0149353
740.403	0.0149751
740.481	0.0149415
740.559	0.0147925
740.637	0.0145168
740.715	0.0145615
740.793	0.0145154
740.871	0.0143481
740.950	0.0142109
741.028	0.0140707
741.106	0.0141418
741.184	0.0139415
741.262	0.0139628
741.340	0.0139613
741.418	0.0138959
741.496	0.0140694
741.575	0.0138934
741.653	0.0139909
741.731	0.0139487
741.809	0.0137878
741.887	0.0139369
741.965	0.0140721
742.043	0.0139613
742.121	0.0138796
742.200	0.0137087
742.278	0.0137145
742.356	0.0138687
742.434	0.0139088
742.512	0.0139465
742.590	0.0140516
742.668	0.0142529
742.746	0.0143385
742.825	0.0143549
742.903	0.0145300
742.981	0.0145429
743.059	0.0147826
743.137	0.0149760
743.215	0.0151186
743.293	0.0149319
743.371	0.0149544
743.450	0.0150416
743.528	0.0148611
743.606	0.0145902
743.684	0.0145467
743.762	0.0141177
743.840	0.0140126
743.918	0.0138100
743.996	0.0138349
744.075	0.0134696
744.153	0.0132593
744.231	0.0133463
744.309	0.0131653
744.387	0.0133066
744.465	0.0132761
744.543	0.0134509
744.621	0.0133775
744.700	0.0134878
744.778	0.0136556
744.856	0.0139484
744.934	0.0141502
745.012	0.0144052
745.090	0.0146477
745.168	0.0146976
745.246	0.0148540
745.325	0.0147501
745.403	0.0150317
745.481	0.0150621
745.559	0.0150751
745.637	0.0150894
745.715	0.0149821
745.793	0.0148463
745.871	0.0148190
745.950	0.0145891
746.028	0.0143412
746.106	0.0141539
746.184	0.0140009
746.262	0.0137114
746.340	0.0135398
746.418	0.0132166
746.496	0.0131699
746.575	0.0130534
746.653	0.0127876
746.731	0.0128805
746.809	0.0129168
746.887	0.0129501
746.965	0.0131618
747.043	0.0133716
747.121	0.0135951
747.200	0.0138923
747.278	0.0141680
747.356	0.0145590
747.434	0.0147933
747.512	0.0150401
747.590	0.0153226
747.668	0.0153636
747.746	0.0153875
747.825	0.0156027
747.903	0.0153078
747.981	0.0152003
748.059	0.0150714
748.137	0.0147363
748.215	0.0145124
748.293	0.0144930
748.371	0.0140611
748.450	0.0139170
748.528	0.0134422
748.606	0.0133085
748.684	0.0132971
748.762	0.0131058
748.840	0.0129901
748.918	0.0129686
748.996	0.0131963
749.075	0.0131590
749.153	0.0133604
749.231	0.0136278
749.309	0.0136446
749.387	0.0139266
749.465	0.0141864
749.543	0.0145022
749.621	0.0144550
749.700	0.0145648
749.778	0.0146952
749.856	0.0148896
749.934	0.0149807
750.012	0.0150361
750.090	0.0149887
750.168	0.0148817
750.246	0.0149004
750.325	0.0148713
750.403	0.0148154
750.481	0.0146592
750.559	0.0144540
750.637	0.0142953
750.715	0.0143145
750.793	0.0142134
750.871	0.0140073
750.950	0.0139517
751.028	0.0136939
751.106	0.0134953
751.184	0.0135011
751.262	0.0134072
751.340	0.0132610
751.418	0.0134121
751.496	0.0133516
751.575	0.0134431
751.653	0.0135378
751.731	0.0136296
751.809	0.0137359
751.887	0.0138813
751.965	0.0141056
752.043	0.0143604
752.121	0.0142718
752.200	0.0144535
752.278	0.0147378
752.356	0.0148417
752.434	0.0148714
752.512	0.0149570
752.590	0.0149265
752.668	0.0148366
752.746	0.0146678
752.825	0.0147028
752.903	0.0145989
752.981	0.0143938
753.059	0.0141442
753.137	0.0140382
753.215	0.0139752
753.293	0.0138586
753.371	0.0137725
753.450	0.0138472
753.528	0.0136892
753.606	0.0135500
753.684	0.0136827
753.762	0.0136537
753.840	0.0136961
753.918	0.0136883
753.996	0.0137111
754.075	0.0137669
754.153	0.0136442
754.231	0.0138666
754.309	0.0139555
754.387	0.0139545
754.465	0.0141109
754.543	0.0141370
754.621	0.0141326
754.700	0.0142690
754.778	0.0143820
754.856	0.0144544
754.934	0.0145758
755.012	0.0145368
755.090	0.0146125
755.168	0.0147073
755.246	0.0147840
755.325	0.0147253
755.403	0.0146660
755.481	0.0146759
755.559	0.0148293
755.637	0.0145905
755.715	0.0144090
755.793	0.0142976
755.871	0.0141127
755.950	0.0139392
756.028	0.0138186
756.106	0.0138898
756.184	0.0137076
756.262	0.0135091
756.340	0.0134745
756.418	0.0133894
756.496	0.0133636
756.575	0.0134051
756.653	0.0134121
756.731	0.0134901
756.809	0.0136522
756.887	0.0137933
756.965	0.0138873
757.043	0.0139397
757.121	0.0142513
757.200	0.0143911
757.278	0.0144400
757.356	0.0144193
757.434	0.0146630
757.512	0.0147984
757.590	0.0147449
757.668	0.0148688
757.746	0.0149594
757.825	0.0150091
757.903	0.0148613
757.981	0.0146860
758.059	0.0146722
758.137	0.0144753
758.215	0.0144508
758.293	0.0141771
758.371	0.0141161
758.450	0.0138297
758.528	0.0137726
758.606	0.0136366
758.684	0.0133063
758.762	0.0132662
758.840	0.0133260
758.918	0.0133774
758.996	0.0134454
759.075	0.0133847
759.153	0.0135401
759.231	0.0136574
759.309	0.0138422
759.387	0.0138851
759.465	0.0141782
759.543	0.0143017
759.621	0.0145681
759.700	0.0147726
759.778	0.0147459
759.856	0.0147028
759.934	0.0149575
760.012	0.0148029
760.090	0.0149690
760.168	0.0148824
760.246	0.0146965
760.325	0.0147297
760.403	0.0143906
760.481	0.0144282
760.559	0.0143328
760.637	0.0142955
760.715	0.0141465
760.793	0.0140207
760.871	0.0140128
760.950	0.0137602
761.028	0.0137589
761.106	0.0136517
761.184	0.0137251
761.262	0.0137216
761.340	0.0136930
761.418	0.0137346
761.496	0.0139311
761.575	0.0140731
761.653	0.0139906
761.731	0.0141222
761.809	0.0141636
761.887	0.0142304
761.965	0.0143003
762.043	0.0142921
762.121	0.0144250
762.200	0.0144988
762.278	0.0143346
762.356	0.0143886
762.434	0.0144720
762.512	0.0145025
762.590	0.0143343
762.668	0.0145091
762.746	0.0145001
762.825	0.0145963
762.903	0.0145039
762.981	0.0143235
763.059	0.0144791
763.137	0.0144331
763.215	0.0143160
763.293	0.0142651
763.371	0.0142168
763.450	0.0141397
763.528	0.0140372
763.606	0.0139018
763.684	0.0138931
763.762	0.0137778
763.840	0.0137733
763.918	0.0138632
763.996	0.0137744
764.075	0.0137714
764.153	0.0136987
764.231	0.0137360
764.309	0.0137666
764.387	0.0140259
764.465	0.0139758
764.543	0.0141437
764.621	0.0141843
764.700	0.0142738
