05/04/2022	21:01:57	Ver.	4.1	UNKNOWN
Optical Delay	678.996401	Delta X		0.078125	Sweeps	1	Scan Rate	0/0
Coordinates	Axis 1	NaN	Axis 2	NaN	Axis 3	NaN	Axis 4	NaN	Axis 5	NaN	Axis 6	0.000000
TX Power	0.000000	RX Power	0.000000

678.996	0.0143513
679.075	0.0144594
679.153	0.0143298
679.231	0.0143610
679.309	0.0143211
679.387	0.0144403
679.465	0.0145313
679.543	0.0144249
679.621	0.0143945
679.700	0.0143357
679.778	0.0144056
679.856	0.0143314
679.934	0.0143222
680.012	0.0143822
680.090	0.0144425
680.168	0.0144496
680.246	0.0144365
680.325	0.0142937
680.403	0.0142588
680.481	0.0144618
680.559	0.0144145
680.637	0.0144125
680.715	0.0143645
680.793	0.0143312
680.871	0.0144211
680.950	0.0144431
681.028	0.0144064
681.106	0.0143925
681.184	0.0143671
681.262	0.0143685
681.340	0.0143296
681.418	0.0144202
681.496	0.0143620
681.575	0.0144368
681.653	0.0143493
681.731	0.0143106
681.809	0.0143803
681.887	0.0143522
681.965	0.0142696
682.043	0.0144508
682.121	0.0143032
682.200	0.0145899
682.278	0.0143978
682.356	0.0143530
682.434	0.0143783
682.512	0.0143967
682.590	0.0143312
682.668	0.0143477
682.746	0.0142934
682.825	0.0143887
682.903	0.0143520
682.981	0.0143303
683.059	0.0144134
683.137	0.0144685
683.215	0.0143822
683.293	0.0143589
683.371	0.0142921
683.450	0.0142500
683.528	0.0143100
683.606	0.0144167
683.684	0.0143591
683.762	0.0142380
683.840	0.0142347
683.918	0.0144740
683.996	0.0143530
684.075	0.0144350
684.153	0.0143469
684.231	0.0142381
684.309	0.0144128
684.387	0.0143050
684.465	0.0143819
684.543	0.0142544
684.621	0.0143457
684.700	0.0143219
684.778	0.0143693
684.856	0.0143409
684.934	0.0143509
685.012	0.0144384
685.090	0.0143391
685.168	0.0142847
685.246	0.0141276
685.325	0.0143601
685.403	0.0143631
685.481	0.0145085
685.559	0.0143969
685.637	0.0143537
685.715	0.0143053
685.793	0.0143475
685.871	0.0144109
685.950	0.0145216
686.028	0.0144122
686.106	0.0143770
686.184	0.0143571
686.262	0.0145132
686.340	0.0143703
686.418	0.0142973
686.496	0.0144138
686.575	0.0144940
686.653	0.0144717
686.731	0.0143902
686.809	0.0143127
686.887	0.0143558
686.965	0.0142831
687.043	0.0145424
687.121	0.0143420
687.200	0.0142875
687.278	0.0145087
687.356	0.0141467
687.434	0.0142517
687.512	0.0143774
687.590	0.0145356
687.668	0.0143612
687.746	0.0143562
687.825	0.0143918
687.903	0.0142767
687.981	0.0143849
688.059	0.0144072
688.137	0.0143978
688.215	0.0143694
688.293	0.0144554
688.371	0.0142966
688.450	0.0142927
688.528	0.0142714
688.606	0.0143566
688.684	0.0144043
688.762	0.0142839
688.840	0.0142617
688.918	0.0144483
688.996	0.0143343
689.075	0.0143830
689.153	0.0143996
689.231	0.0144689
689.309	0.0143813
689.387	0.0144518
689.465	0.0142976
689.543	0.0144121
689.621	0.0143947
689.700	0.0142900
689.778	0.0144312
689.856	0.0143993
689.934	0.0142862
690.012	0.0144198
690.090	0.0144960
690.168	0.0143920
690.246	0.0142646
690.325	0.0143415
690.403	0.0144028
690.481	0.0143419
690.559	0.0143319
690.637	0.0143298
690.715	0.0143162
690.793	0.0143314
690.871	0.0143844
690.950	0.0144038
691.028	0.0142973
691.106	0.0143806
691.184	0.0143666
691.262	0.0143356
691.340	0.0142727
691.418	0.0143081
691.496	0.0143510
691.575	0.0144849
691.653	0.0142241
691.731	0.0142663
691.809	0.0143568
691.887	0.0144190
691.965	0.0142827
692.043	0.0142881
692.121	0.0143943
692.200	0.0143150
692.278	0.0143280
692.356	0.0143266
692.434	0.0144151
692.512	0.0144711
692.590	0.0144724
692.668	0.0143536
692.746	0.0144737
692.825	0.0144794
692.903	0.0144866
692.981	0.0143155
693.059	0.0143514
693.137	0.0143592
693.215	0.0144552
693.293	0.0144257
693.371	0.0144690
693.450	0.0143641
693.528	0.0143332
693.606	0.0143626
693.684	0.0142628
693.762	0.0142419
693.840	0.0143101
693.918	0.0143663
693.996	0.0144563
694.075	0.0142545
694.153	0.0143246
694.231	0.0143667
694.309	0.0144411
694.387	0.0144855
694.465	0.0143085
694.543	0.0143050
694.621	0.0144104
694.700	0.0142647
694.778	0.0142555
694.856	0.0143687
694.934	0.0142688
695.012	0.0143019
695.090	0.0142363
695.168	0.0143838
695.246	0.0143549
695.325	0.0142693
695.403	0.0143374
695.481	0.0144424
695.559	0.0143496
695.637	0.0143368
695.715	0.0144312
695.793	0.0143469
695.871	0.0143655
695.950	0.0143027
696.028	0.0143433
696.106	0.0144167
696.184	0.0143832
696.262	0.0144608
696.340	0.0144449
696.418	0.0142460
696.496	0.0143430
696.575	0.0143842
696.653	0.0144176
696.731	0.0144180
696.809	0.0142965
696.887	0.0143240
696.965	0.0143745
697.043	0.0144804
697.121	0.0144013
697.200	0.0142564
697.278	0.0143326
697.356	0.0143257
697.434	0.0143261
697.512	0.0144126
697.590	0.0143784
697.668	0.0142624
697.746	0.0143816
697.825	0.0143877
697.903	0.0143663
697.981	0.0141887
698.059	0.0143304
698.137	0.0143559
698.215	0.0143335
698.293	0.0142970
698.371	0.0143592
698.450	0.0144595
698.528	0.0142469
698.606	0.0142696
698.684	0.0143737
698.762	0.0143042
698.840	0.0143439
698.918	0.0144321
698.996	0.0143075
699.075	0.0143147
699.153	0.0143187
699.231	0.0143213
699.309	0.0142254
699.387	0.0143015
699.465	0.0143301
699.543	0.0143813
699.621	0.0143560
699.700	0.0144442
699.778	0.0142256
699.856	0.0144447
699.934	0.0143642
700.012	0.0144733
700.090	0.0144063
700.168	0.0143221
700.246	0.0144416
700.325	0.0143398
700.403	0.0143621
700.481	0.0144327
700.559	0.0143945
700.637	0.0142902
700.715	0.0144320
700.793	0.0144261
700.871	0.0144882
700.950	0.0142502
701.028	0.0142091
701.106	0.0141937
701.184	0.0144379
701.262	0.0143446
701.340	0.0143945
701.418	0.0144212
701.496	0.0143015
701.575	0.0143288
701.653	0.0143636
701.731	0.0144784
701.809	0.0143832
701.887	0.0143755
701.965	0.0142739
702.043	0.0143687
702.121	0.0144058
702.200	0.0143684
702.278	0.0142168
702.356	0.0144128
702.434	0.0143353
702.512	0.0142611
702.590	0.0142432
702.668	0.0142328
702.746	0.0143382
702.825	0.0143036
702.903	0.0143352
702.981	0.0143099
703.059	0.0143486
703.137	0.0142992
703.215	0.0143398
703.293	0.0143369
703.371	0.0143928
703.450	0.0145093
703.528	0.0142271
703.606	0.0142161
703.684	0.0142423
703.762	0.0145001
703.840	0.0144581
703.918	0.0143813
703.996	0.0144458
704.075	0.0143233
704.153	0.0144839
704.231	0.0144042
704.309	0.0144458
704.387	0.0145046
704.465	0.0142438
704.543	0.0143305
704.621	0.0145138
704.700	0.0143605
704.778	0.0143927
704.856	0.0144231
704.934	0.0143459
705.012	0.0142934
705.090	0.0143829
705.168	0.0142966
705.246	0.0143037
705.325	0.0143059
705.403	0.0144581
705.481	0.0144555
705.559	0.0144308
705.637	0.0144184
705.715	0.0144272
705.793	0.0144814
705.871	0.0144172
705.950	0.0144185
706.028	0.0143027
706.106	0.0141985
706.184	0.0140636
706.262	0.0141489
706.340	0.0141603
706.418	0.0141467
706.496	0.0141336
706.575	0.0139889
706.653	0.0141872
706.731	0.0142558
706.809	0.0142027
706.887	0.0142949
706.965	0.0145980
707.043	0.0148630
707.121	0.0150180
707.200	0.0149847
707.278	0.0148819
707.356	0.0149361
707.434	0.0147234
707.512	0.0146754
707.590	0.0144418
707.668	0.0142673
707.746	0.0139289
707.825	0.0136608
707.903	0.0136008
707.981	0.0133279
708.059	0.0134357
708.137	0.0133044
708.215	0.0133382
708.293	0.0132883
708.371	0.0134755
708.450	0.0138396
708.528	0.0142054
708.606	0.0148041
708.684	0.0152479
708.762	0.0157187
708.840	0.0160027
708.918	0.0160642
708.996	0.0159811
709.075	0.0157019
709.153	0.0154380
709.231	0.0150982
709.309	0.0145471
709.387	0.0141227
709.465	0.0137044
709.543	0.0134219
709.621	0.0130804
709.700	0.0129420
709.778	0.0129076
709.856	0.0128069
709.934	0.0129834
710.012	0.0133144
710.090	0.0138435
710.168	0.0143576
710.246	0.0149278
710.325	0.0155827
710.403	0.0161504
710.481	0.0165762
710.559	0.0166927
710.637	0.0166770
710.715	0.0163646
710.793	0.0159968
710.871	0.0152885
710.950	0.0147501
711.028	0.0139611
711.106	0.0133669
711.184	0.0128075
711.262	0.0123955
711.340	0.0119849
711.418	0.0117406
711.496	0.0117081
711.575	0.0120438
711.653	0.0124893
711.731	0.0129317
711.809	0.0135863
711.887	0.0140899
711.965	0.0146753
712.043	0.0151122
712.121	0.0153851
712.200	0.0155828
712.278	0.0155913
712.356	0.0156743
712.434	0.0155186
712.512	0.0152248
712.590	0.0150298
712.668	0.0148926
712.746	0.0146382
712.825	0.0143716
712.903	0.0140795
712.981	0.0137797
713.059	0.0135838
713.137	0.0137790
713.215	0.0139757
713.293	0.0141869
713.371	0.0144083
713.450	0.0147997
713.528	0.0150035
713.606	0.0150816
713.684	0.0149200
713.762	0.0148019
713.840	0.0144407
713.918	0.0143203
713.996	0.0137705
714.075	0.0134809
714.153	0.0131569
714.231	0.0130086
714.309	0.0128038
714.387	0.0128199
714.465	0.0128503
714.543	0.0132200
714.621	0.0137546
714.700	0.0142908
714.778	0.0148895
714.856	0.0155202
714.934	0.0160332
715.012	0.0164770
715.090	0.0168873
715.168	0.0170012
715.246	0.0169335
715.325	0.0166947
715.403	0.0164507
715.481	0.0159286
715.559	0.0154853
715.637	0.0147516
715.715	0.0139934
715.793	0.0133453
715.871	0.0126940
715.950	0.0120920
716.028	0.0118916
716.106	0.0114505
716.184	0.0112994
716.262	0.0116172
716.340	0.0119267
716.418	0.0124853
716.496	0.0132294
716.575	0.0140905
716.653	0.0147703
716.731	0.0156030
716.809	0.0163409
716.887	0.0168830
716.965	0.0171954
717.043	0.0172939
717.121	0.0172402
717.200	0.0168905
717.278	0.0165019
717.356	0.0157588
717.434	0.0151574
717.512	0.0143982
717.590	0.0135578
717.668	0.0128629
717.746	0.0124253
717.825	0.0118518
717.903	0.0114852
717.981	0.0113488
718.059	0.0112757
718.137	0.0115138
718.215	0.0120273
718.293	0.0125440
718.371	0.0133009
718.450	0.0140739
718.528	0.0148954
718.606	0.0156268
718.684	0.0163321
718.762	0.0168540
718.840	0.0170275
718.918	0.0172637
718.996	0.0172236
719.075	0.0172002
719.153	0.0169607
719.231	0.0165759
719.309	0.0161797
719.387	0.0154044
719.465	0.0146584
719.543	0.0140885
719.621	0.0133973
719.700	0.0127266
719.778	0.0120290
719.856	0.0117757
719.934	0.0115364
720.012	0.0115263
720.090	0.0116011
720.168	0.0117377
720.246	0.0122270
720.325	0.0127206
720.403	0.0132095
720.481	0.0139140
720.559	0.0144588
720.637	0.0151459
720.715	0.0156657
720.793	0.0162691
720.871	0.0166375
720.950	0.0168318
721.028	0.0168045
721.106	0.0167506
721.184	0.0164227
721.262	0.0161863
721.340	0.0157572
721.418	0.0151017
721.496	0.0147470
721.575	0.0143026
721.653	0.0137698
721.731	0.0132442
721.809	0.0129642
721.887	0.0127983
721.965	0.0125087
722.043	0.0124093
722.121	0.0125419
722.200	0.0126046
722.278	0.0128991
722.356	0.0132479
722.434	0.0134456
722.512	0.0137275
722.590	0.0141155
722.668	0.0144678
722.746	0.0145649
722.825	0.0147936
722.903	0.0151595
722.981	0.0151958
723.059	0.0152825
723.137	0.0152146
723.215	0.0153270
723.293	0.0152507
723.371	0.0149171
723.450	0.0147652
723.528	0.0148026
723.606	0.0147038
723.684	0.0146182
723.762	0.0144888
723.840	0.0143867
723.918	0.0141823
723.996	0.0139621
724.075	0.0139771
724.153	0.0137489
724.231	0.0136171
724.309	0.0135071
724.387	0.0134352
724.465	0.0133841
724.543	0.0134916
724.621	0.0136443
724.700	0.0138778
724.778	0.0140237
724.856	0.0142879
724.934	0.0143610
725.012	0.0147644
725.090	0.0149537
725.168	0.0149094
725.246	0.0150625
725.325	0.0151614
725.403	0.0151244
725.481	0.0149097
725.559	0.0146552
725.637	0.0143008
725.715	0.0143983
725.793	0.0141236
725.871	0.0139414
725.950	0.0137708
726.028	0.0135983
726.106	0.0137943
726.184	0.0138526
726.262	0.0139086
726.340	0.0141451
726.418	0.0143573
726.496	0.0144558
726.575	0.0146272
726.653	0.0147720
726.731	0.0148325
726.809	0.0149093
726.887	0.0150970
726.965	0.0149438
727.043	0.0148120
727.121	0.0148503
727.200	0.0146674
727.278	0.0144780
727.356	0.0144289
727.434	0.0143845
727.512	0.0143834
727.590	0.0143301
727.668	0.0142036
727.746	0.0139915
727.825	0.0139653
727.903	0.0138705
727.981	0.0137055
728.059	0.0137078
728.137	0.0135201
728.215	0.0135981
728.293	0.0136109
728.371	0.0135082
728.450	0.0137042
728.528	0.0137706
728.606	0.0140193
728.684	0.0141889
728.762	0.0145233
728.840	0.0148378
728.918	0.0151675
728.996	0.0154552
729.075	0.0156777
729.153	0.0157721
729.231	0.0158605
729.309	0.0157337
729.387	0.0156001
729.465	0.0153329
729.543	0.0151431
729.621	0.0148338
729.700	0.0144286
729.778	0.0140620
729.856	0.0135701
729.934	0.0131806
730.012	0.0128952
730.090	0.0126813
730.168	0.0125325
730.246	0.0126355
730.325	0.0127328
730.403	0.0128154
730.481	0.0132334
730.559	0.0133539
730.637	0.0137931
730.715	0.0143054
730.793	0.0143635
730.871	0.0148618
730.950	0.0151597
731.028	0.0152774
731.106	0.0154272
731.184	0.0154105
731.262	0.0155496
731.340	0.0154890
731.418	0.0154633
731.496	0.0151360
731.575	0.0151466
731.653	0.0149244
731.731	0.0146806
731.809	0.0145424
731.887	0.0142732
731.965	0.0140281
732.043	0.0138177
732.121	0.0137173
732.200	0.0136951
732.278	0.0135060
732.356	0.0133892
732.434	0.0132801
732.512	0.0130967
732.590	0.0131561
732.668	0.0131867
732.746	0.0132392
732.825	0.0133583
732.903	0.0134129
732.981	0.0136574
733.059	0.0140087
733.137	0.0143011
733.215	0.0147853
733.293	0.0150663
733.371	0.0155793
733.450	0.0157681
733.528	0.0160822
733.606	0.0163634
733.684	0.0163316
733.762	0.0164225
733.840	0.0163603
733.918	0.0161549
733.996	0.0158328
734.075	0.0155339
734.153	0.0150025
734.231	0.0145268
734.309	0.0139978
734.387	0.0136646
734.465	0.0131754
734.543	0.0128680
734.621	0.0125572
734.700	0.0122790
734.778	0.0122297
734.856	0.0124734
734.934	0.0124343
735.012	0.0127058
735.090	0.0131033
735.168	0.0134595
735.246	0.0138171
735.325	0.0142912
735.403	0.0144867
735.481	0.0149614
735.559	0.0152225
735.637	0.0155987
735.715	0.0157734
735.793	0.0158282
735.871	0.0162039
735.950	0.0161584
736.028	0.0159630
736.106	0.0158026
736.184	0.0157359
736.262	0.0153362
736.340	0.0152523
736.418	0.0149059
736.496	0.0147860
736.575	0.0142710
736.653	0.0139694
736.731	0.0134965
736.809	0.0133445
736.887	0.0131451
736.965	0.0129884
737.043	0.0128042
737.121	0.0127370
737.200	0.0127989
737.278	0.0130818
737.356	0.0131675
737.434	0.0134759
737.512	0.0136683
737.590	0.0140510
737.668	0.0146327
737.746	0.0149012
737.825	0.0152290
737.903	0.0155768
737.981	0.0156972
738.059	0.0158037
738.137	0.0159206
738.215	0.0159403
738.293	0.0157118
738.371	0.0156285
738.450	0.0153032
738.528	0.0149792
738.606	0.0147826
738.684	0.0144461
738.762	0.0140531
738.840	0.0139635
738.918	0.0136423
738.996	0.0132842
739.075	0.0132354
739.153	0.0132594
739.231	0.0133512
739.309	0.0134467
739.387	0.0134221
739.465	0.0136498
739.543	0.0138524
739.621	0.0140643
739.700	0.0140516
739.778	0.0141933
739.856	0.0143815
739.934	0.0145068
740.012	0.0146448
740.090	0.0146314
740.168	0.0147821
740.246	0.0148721
740.325	0.0148486
740.403	0.0148746
740.481	0.0148266
740.559	0.0147965
740.637	0.0146835
740.715	0.0147947
740.793	0.0147415
740.871	0.0146278
740.950	0.0146844
741.028	0.0147618
741.106	0.0147406
741.184	0.0145763
741.262	0.0145390
741.340	0.0147217
741.418	0.0144319
741.496	0.0142526
741.575	0.0142606
741.653	0.0141502
741.731	0.0140813
741.809	0.0138510
741.887	0.0136057
741.965	0.0136626
742.043	0.0135391
742.121	0.0136207
742.200	0.0136156
742.278	0.0137183
742.356	0.0136741
742.434	0.0137822
742.512	0.0141669
742.590	0.0141797
742.668	0.0144556
742.746	0.0145438
742.825	0.0149046
742.903	0.0150253
742.981	0.0153818
743.059	0.0152087
743.137	0.0154282
743.215	0.0155037
743.293	0.0154124
743.371	0.0152291
743.450	0.0150485
743.528	0.0149449
743.606	0.0146501
743.684	0.0145263
743.762	0.0142513
743.840	0.0140142
743.918	0.0139049
743.996	0.0137132
744.075	0.0134605
744.153	0.0135004
744.231	0.0134956
744.309	0.0132836
744.387	0.0134292
744.465	0.0132800
744.543	0.0134905
744.621	0.0137431
744.700	0.0137921
744.778	0.0139869
744.856	0.0142303
744.934	0.0143526
745.012	0.0145782
745.090	0.0147714
745.168	0.0149097
745.246	0.0150784
745.325	0.0151843
745.403	0.0152941
745.481	0.0154350
745.559	0.0152505
745.637	0.0154226
745.715	0.0153786
745.793	0.0152056
745.871	0.0148653
745.950	0.0147055
746.028	0.0143530
746.106	0.0141676
746.184	0.0138720
746.262	0.0136464
746.340	0.0133817
746.418	0.0132708
746.496	0.0131345
746.575	0.0129792
746.653	0.0130146
746.731	0.0129757
746.809	0.0131625
746.887	0.0133720
746.965	0.0135732
747.043	0.0137263
747.121	0.0142263
747.200	0.0146521
747.278	0.0147942
747.356	0.0151167
747.434	0.0153539
747.512	0.0153862
747.590	0.0154224
747.668	0.0154807
747.746	0.0156812
747.825	0.0153909
747.903	0.0153242
747.981	0.0150331
748.059	0.0150183
748.137	0.0147548
748.215	0.0143494
748.293	0.0143407
748.371	0.0141379
748.450	0.0138123
748.528	0.0135412
748.606	0.0136800
748.684	0.0135052
748.762	0.0135051
748.840	0.0134184
748.918	0.0135941
748.996	0.0135517
749.075	0.0135575
749.153	0.0137894
749.231	0.0139886
749.309	0.0139880
749.387	0.0142735
749.465	0.0143559
749.543	0.0146249
749.621	0.0145078
749.700	0.0148120
749.778	0.0147113
749.856	0.0149500
749.934	0.0149889
750.012	0.0151527
750.090	0.0151064
750.168	0.0151778
750.246	0.0151388
750.325	0.0150940
750.403	0.0150803
750.481	0.0149480
750.559	0.0146891
750.637	0.0146516
750.715	0.0143736
750.793	0.0142760
750.871	0.0141776
750.950	0.0140840
751.028	0.0137851
751.106	0.0135558
751.184	0.0136376
751.262	0.0135255
751.340	0.0134418
751.418	0.0135535
751.496	0.0133650
751.575	0.0135797
751.653	0.0136179
751.731	0.0137099
751.809	0.0138281
751.887	0.0140889
751.965	0.0143533
752.043	0.0144459
752.121	0.0144720
752.200	0.0145100
752.278	0.0147635
752.356	0.0148506
752.434	0.0148205
752.512	0.0149409
752.590	0.0149706
752.668	0.0148728
752.746	0.0149201
752.825	0.0149030
752.903	0.0147728
752.981	0.0145729
753.059	0.0144937
753.137	0.0144061
753.215	0.0144222
753.293	0.0143869
753.371	0.0143758
753.450	0.0141798
753.528	0.0141042
753.606	0.0141001
753.684	0.0139595
753.762	0.0138752
753.840	0.0139975
753.918	0.0138611
753.996	0.0137973
754.075	0.0137962
754.153	0.0138535
754.231	0.0138715
754.309	0.0138093
754.387	0.0137995
754.465	0.0139683
754.543	0.0138762
754.621	0.0141327
754.700	0.0144006
754.778	0.0143857
754.856	0.0146739
754.934	0.0147521
755.012	0.0147942
755.090	0.0149731
755.168	0.0149862
755.246	0.0151556
755.325	0.0150881
755.403	0.0150920
755.481	0.0151229
755.559	0.0150179
755.637	0.0147007
755.715	0.0148057
755.793	0.0145987
755.871	0.0143205
755.950	0.0140575
756.028	0.0140134
756.106	0.0139758
756.184	0.0138507
756.262	0.0137341
756.340	0.0135731
756.418	0.0136520
756.496	0.0135161
756.575	0.0135153
756.653	0.0135417
756.731	0.0137025
756.809	0.0137491
756.887	0.0138573
756.965	0.0140897
757.043	0.0143437
757.121	0.0144917
757.200	0.0145360
757.278	0.0147375
757.356	0.0148885
757.434	0.0148399
757.512	0.0149928
757.590	0.0150082
757.668	0.0150214
757.746	0.0150842
757.825	0.0150698
757.903	0.0150270
757.981	0.0148675
758.059	0.0147902
758.137	0.0146545
758.215	0.0143896
758.293	0.0143084
758.371	0.0140714
758.450	0.0140136
758.528	0.0138736
758.606	0.0137565
758.684	0.0138340
758.762	0.0137457
758.840	0.0134953
758.918	0.0134998
758.996	0.0136414
759.075	0.0137263
759.153	0.0139993
759.231	0.0140562
759.309	0.0142173
759.387	0.0143237
759.465	0.0143284
759.543	0.0146237
759.621	0.0148355
759.700	0.0148463
759.778	0.0148150
759.856	0.0148605
759.934	0.0149731
760.012	0.0149254
760.090	0.0150283
760.168	0.0149788
760.246	0.0147864
760.325	0.0147569
760.403	0.0145873
760.481	0.0145272
760.559	0.0145148
760.637	0.0143548
760.715	0.0141958
760.793	0.0140703
760.871	0.0141637
760.950	0.0140125
761.028	0.0140710
761.106	0.0140783
761.184	0.0140480
761.262	0.0141014
761.340	0.0140651
761.418	0.0140308
761.496	0.0141733
761.575	0.0141716
761.653	0.0142277
761.731	0.0141385
761.809	0.0142585
761.887	0.0144180
761.965	0.0142858
762.043	0.0142906
762.121	0.0143910
762.200	0.0144082
762.278	0.0144511
762.356	0.0145299
762.434	0.0147492
762.512	0.0147299
762.590	0.0146317
762.668	0.0148962
762.746	0.0147629
762.825	0.0147923
762.903	0.0148407
762.981	0.0147507
763.059	0.0147378
763.137	0.0145583
763.215	0.0144212
763.293	0.0144386
763.371	0.0142419
763.450	0.0142507
763.528	0.0141531
763.606	0.0141398
763.684	0.0138604
763.762	0.0139608
763.840	0.0139928
763.918	0.0138219
763.996	0.0138598
764.075	0.0138410
764.153	0.0138672
764.231	0.0140079
764.309	0.0141587
764.387	0.0140760
764.465	0.0144588
764.543	0.0143848
764.621	0.0143186
764.700	0.0144964
