05/04/2022	21:03:02	Ver.	4.1	UNKNOWN
Optical Delay	678.996401	Delta X		0.078125	Sweeps	1	Scan Rate	0/0
Coordinates	Axis 1	NaN	Axis 2	NaN	Axis 3	NaN	Axis 4	NaN	Axis 5	NaN	Axis 6	0.000000
TX Power	0.000000	RX Power	0.000000

678.996	0.0144484
679.075	0.0145038
679.153	0.0143884
679.231	0.0142690
679.309	0.0145098
679.387	0.0144208
679.465	0.0144016
679.543	0.0142293
679.621	0.0144743
679.700	0.0145874
679.778	0.0144502
679.856	0.0143533
679.934	0.0143803
680.012	0.0145169
680.090	0.0144717
680.168	0.0145595
680.246	0.0144386
680.325	0.0145065
680.403	0.0144582
680.481	0.0144911
680.559	0.0142950
680.637	0.0143605
680.715	0.0145203
680.793	0.0144546
680.871	0.0143272
680.950	0.0143506
681.028	0.0145658
681.106	0.0144530
681.184	0.0142641
681.262	0.0144299
681.340	0.0145142
681.418	0.0145212
681.496	0.0144246
681.575	0.0143443
681.653	0.0144437
681.731	0.0143194
681.809	0.0144960
681.887	0.0144969
681.965	0.0144239
682.043	0.0144881
682.121	0.0145883
682.200	0.0144698
682.278	0.0144947
682.356	0.0145079
682.434	0.0144593
682.512	0.0143825
682.590	0.0144724
682.668	0.0144553
682.746	0.0143616
682.825	0.0144592
682.903	0.0145010
682.981	0.0144041
683.059	0.0144035
683.137	0.0145300
683.215	0.0144080
683.293	0.0145531
683.371	0.0144715
683.450	0.0145051
683.528	0.0144522
683.606	0.0144830
683.684	0.0144302
683.762	0.0144048
683.840	0.0143551
683.918	0.0144224
683.996	0.0143471
684.075	0.0144934
684.153	0.0145190
684.231	0.0144557
684.309	0.0144317
684.387	0.0143652
684.465	0.0144036
684.543	0.0143754
684.621	0.0144537
684.700	0.0144711
684.778	0.0145011
684.856	0.0144601
684.934	0.0144202
685.012	0.0144455
685.090	0.0143602
685.168	0.0145161
685.246	0.0144487
685.325	0.0143703
685.403	0.0145415
685.481	0.0144272
685.559	0.0143422
685.637	0.0145145
685.715	0.0144425
685.793	0.0144910
685.871	0.0144652
685.950	0.0145803
686.028	0.0144897
686.106	0.0144415
686.184	0.0143887
686.262	0.0144037
686.340	0.0145106
686.418	0.0145806
686.496	0.0143581
686.575	0.0145016
686.653	0.0144801
686.731	0.0145123
686.809	0.0145746
686.887	0.0145623
686.965	0.0144566
687.043	0.0145024
687.121	0.0144066
687.200	0.0144907
687.278	0.0144326
687.356	0.0143851
687.434	0.0143581
687.512	0.0145386
687.590	0.0144495
687.668	0.0144605
687.746	0.0145985
687.825	0.0144889
687.903	0.0145067
687.981	0.0146105
688.059	0.0144495
688.137	0.0144268
688.215	0.0143391
688.293	0.0143137
688.371	0.0143400
688.450	0.0145959
688.528	0.0145542
688.606	0.0145288
688.684	0.0144998
688.762	0.0144835
688.840	0.0144464
688.918	0.0144852
688.996	0.0144692
689.075	0.0144154
689.153	0.0144153
689.231	0.0145129
689.309	0.0144895
689.387	0.0144234
689.465	0.0145129
689.543	0.0144105
689.621	0.0143507
689.700	0.0144550
689.778	0.0144929
689.856	0.0144175
689.934	0.0145188
690.012	0.0146028
690.090	0.0145301
690.168	0.0144871
690.246	0.0144449
690.325	0.0144890
690.403	0.0144630
690.481	0.0144392
690.559	0.0145675
690.637	0.0144546
690.715	0.0142843
690.793	0.0143701
690.871	0.0144743
690.950	0.0145428
691.028	0.0145102
691.106	0.0144801
691.184	0.0144796
691.262	0.0143565
691.340	0.0144270
691.418	0.0144974
691.496	0.0143771
691.575	0.0142980
691.653	0.0145178
691.731	0.0145667
691.809	0.0144927
691.887	0.0144141
691.965	0.0141837
692.043	0.0142469
692.121	0.0144682
692.200	0.0145284
692.278	0.0143327
692.356	0.0145069
692.434	0.0144241
692.512	0.0146212
692.590	0.0145985
692.668	0.0144370
692.746	0.0144655
692.825	0.0144241
692.903	0.0143921
692.981	0.0145014
693.059	0.0144550
693.137	0.0144885
693.215	0.0145551
693.293	0.0144096
693.371	0.0143349
693.450	0.0143665
693.528	0.0144794
693.606	0.0144539
693.684	0.0145036
693.762	0.0143150
693.840	0.0144083
693.918	0.0146110
693.996	0.0144241
694.075	0.0145249
694.153	0.0143914
694.231	0.0145002
694.309	0.0144397
694.387	0.0143345
694.465	0.0144785
694.543	0.0144550
694.621	0.0145114
694.700	0.0144151
694.778	0.0145229
694.856	0.0144656
694.934	0.0143369
695.012	0.0144218
695.090	0.0143645
695.168	0.0144998
695.246	0.0144559
695.325	0.0144718
695.403	0.0144170
695.481	0.0144203
695.559	0.0145010
695.637	0.0143539
695.715	0.0144347
695.793	0.0144038
695.871	0.0145080
695.950	0.0144151
696.028	0.0144111
696.106	0.0144794
696.184	0.0145487
696.262	0.0143751
696.340	0.0142645
696.418	0.0144457
696.496	0.0144726
696.575	0.0144809
696.653	0.0144012
696.731	0.0144776
696.809	0.0145077
696.887	0.0143917
696.965	0.0143807
697.043	0.0143591
697.121	0.0144680
697.200	0.0146041
697.278	0.0143743
697.356	0.0145317
697.434	0.0144759
697.512	0.0144060
697.590	0.0146004
697.668	0.0145414
697.746	0.0144206
697.825	0.0144509
697.903	0.0144021
697.981	0.0144710
698.059	0.0144456
698.137	0.0145267
698.215	0.0145953
698.293	0.0145195
698.371	0.0144423
698.450	0.0144169
698.528	0.0144914
698.606	0.0145249
698.684	0.0145196
698.762	0.0144863
698.840	0.0144334
698.918	0.0144338
698.996	0.0144158
699.075	0.0144373
699.153	0.0144522
699.231	0.0145374
699.309	0.0143851
699.387	0.0144014
699.465	0.0144045
699.543	0.0143827
699.621	0.0144822
699.700	0.0144170
699.778	0.0144311
699.856	0.0144933
699.934	0.0145766
700.012	0.0144987
700.090	0.0145053
700.168	0.0143609
700.246	0.0143180
700.325	0.0144402
700.403	0.0144508
700.481	0.0144659
700.559	0.0143751
700.637	0.0145010
700.715	0.0144228
700.793	0.0144320
700.871	0.0144025
700.950	0.0144006
701.028	0.0144465
701.106	0.0144438
701.184	0.0144102
701.262	0.0145107
701.340	0.0144068
701.418	0.0143959
701.496	0.0144503
701.575	0.0142628
701.653	0.0144487
701.731	0.0144405
701.809	0.0143011
701.887	0.0145475
701.965	0.0144973
702.043	0.0144910
702.121	0.0143745
702.200	0.0145018
702.278	0.0145612
702.356	0.0145211
702.434	0.0145640
702.512	0.0145987
702.590	0.0144477
702.668	0.0144210
702.746	0.0144537
702.825	0.0144487
702.903	0.0144977
702.981	0.0144817
703.059	0.0145190
703.137	0.0145020
703.215	0.0143700
703.293	0.0144332
703.371	0.0143943
703.450	0.0145135
703.528	0.0143951
703.606	0.0144508
703.684	0.0144569
703.762	0.0144535
703.840	0.0145557
703.918	0.0145331
703.996	0.0145037
704.075	0.0145662
704.153	0.0145640
704.231	0.0146570
704.309	0.0144704
704.387	0.0146117
704.465	0.0146210
704.543	0.0145776
704.621	0.0145835
704.700	0.0144260
704.778	0.0144540
704.856	0.0144465
704.934	0.0143228
705.012	0.0144479
705.090	0.0142973
705.168	0.0142300
705.246	0.0143553
705.325	0.0142484
705.403	0.0144013
705.481	0.0145266
705.559	0.0145222
705.637	0.0145309
705.715	0.0146409
705.793	0.0149741
705.871	0.0150159
705.950	0.0149007
706.028	0.0149203
706.106	0.0147436
706.184	0.0145219
706.262	0.0144646
706.340	0.0143003
706.418	0.0141908
706.496	0.0139195
706.575	0.0139941
706.653	0.0137646
706.731	0.0137343
706.809	0.0137739
706.887	0.0137811
706.965	0.0136342
707.043	0.0138423
707.121	0.0140203
707.200	0.0143117
707.278	0.0145488
707.356	0.0149732
707.434	0.0153781
707.512	0.0157198
707.590	0.0158792
707.668	0.0160188
707.746	0.0160178
707.825	0.0156973
707.903	0.0154517
707.981	0.0149979
708.059	0.0144051
708.137	0.0140858
708.215	0.0135957
708.293	0.0132446
708.371	0.0130597
708.450	0.0128935
708.528	0.0128471
708.606	0.0129957
708.684	0.0129470
708.762	0.0133056
708.840	0.0135635
708.918	0.0138962
708.996	0.0141968
709.075	0.0147318
709.153	0.0153214
709.231	0.0156932
709.309	0.0161980
709.387	0.0165559
709.465	0.0166940
709.543	0.0165824
709.621	0.0164082
709.700	0.0162135
709.778	0.0158296
709.856	0.0152657
709.934	0.0146216
710.012	0.0141214
710.090	0.0134805
710.168	0.0131353
710.246	0.0128521
710.325	0.0127057
710.403	0.0125502
710.481	0.0126450
710.559	0.0129944
710.637	0.0129974
710.715	0.0131261
710.793	0.0132471
710.871	0.0135066
710.950	0.0135677
711.028	0.0138958
711.106	0.0137969
711.184	0.0141224
711.262	0.0146279
711.340	0.0147179
711.418	0.0150954
711.496	0.0154257
711.575	0.0155447
711.653	0.0158795
711.731	0.0159159
711.809	0.0160976
711.887	0.0161900
711.965	0.0162353
712.043	0.0162358
712.121	0.0159813
712.200	0.0157746
712.278	0.0156005
712.356	0.0154472
712.434	0.0151458
712.512	0.0147771
712.590	0.0143085
712.668	0.0137389
712.746	0.0131444
712.825	0.0125949
712.903	0.0120046
712.981	0.0115668
713.059	0.0114465
713.137	0.0113837
713.215	0.0116261
713.293	0.0120747
713.371	0.0127007
713.450	0.0133559
713.528	0.0141145
713.606	0.0148972
713.684	0.0158144
713.762	0.0165598
713.840	0.0172826
713.918	0.0177335
713.996	0.0180965
714.075	0.0183047
714.153	0.0183191
714.231	0.0179351
714.309	0.0173780
714.387	0.0166210
714.465	0.0159164
714.543	0.0149683
714.621	0.0140993
714.700	0.0132744
714.778	0.0124861
714.856	0.0118256
714.934	0.0112859
715.012	0.0107363
715.090	0.0106048
715.168	0.0104322
715.246	0.0107578
715.325	0.0114202
715.403	0.0121789
715.481	0.0130754
715.559	0.0139468
715.637	0.0149005
715.715	0.0158283
715.793	0.0165565
715.871	0.0165234
715.950	0.0170954
716.028	0.0174931
716.106	0.0174043
716.184	0.0173435
716.262	0.0171349
716.340	0.0168526
716.418	0.0162128
716.496	0.0155963
716.575	0.0149379
716.653	0.0139989
716.731	0.0135571
716.809	0.0130608
716.887	0.0123501
716.965	0.0123254
717.043	0.0119826
717.121	0.0121029
717.200	0.0120806
717.278	0.0123508
717.356	0.0127191
717.434	0.0130308
717.512	0.0133536
717.590	0.0140626
717.668	0.0146461
717.746	0.0152145
717.825	0.0158442
717.903	0.0163015
717.981	0.0166399
718.059	0.0168930
718.137	0.0168964
718.215	0.0166682
718.293	0.0164708
718.371	0.0161929
718.450	0.0156457
718.528	0.0150615
718.606	0.0147783
718.684	0.0142182
718.762	0.0139109
718.840	0.0136855
718.918	0.0132343
718.996	0.0128793
719.075	0.0127389
719.153	0.0127802
719.231	0.0126460
719.309	0.0129016
719.387	0.0130989
719.465	0.0134615
719.543	0.0137676
719.621	0.0140737
719.700	0.0144350
719.778	0.0147726
719.856	0.0150005
719.934	0.0151874
720.012	0.0152107
720.090	0.0152749
720.168	0.0152556
720.246	0.0151498
720.325	0.0151810
720.403	0.0150871
720.481	0.0148152
720.559	0.0146527
720.637	0.0145789
720.715	0.0144440
720.793	0.0142245
720.871	0.0142174
720.950	0.0140984
721.028	0.0141769
721.106	0.0140329
721.184	0.0141326
721.262	0.0141603
721.340	0.0142268
721.418	0.0140372
721.496	0.0140591
721.575	0.0142989
721.653	0.0144183
721.731	0.0145360
721.809	0.0147742
721.887	0.0146584
721.965	0.0147701
722.043	0.0147575
722.121	0.0145831
722.200	0.0146279
722.278	0.0145178
722.356	0.0143843
722.434	0.0142751
722.512	0.0140105
722.590	0.0140111
722.668	0.0139980
722.746	0.0137552
722.825	0.0136764
722.903	0.0136523
722.981	0.0137208
723.059	0.0137198
723.137	0.0138255
723.215	0.0139694
723.293	0.0142586
723.371	0.0145136
723.450	0.0147889
723.528	0.0150548
723.606	0.0152499
723.684	0.0154298
723.762	0.0154640
723.840	0.0156319
723.918	0.0155396
723.996	0.0155735
724.075	0.0152969
724.153	0.0151073
724.231	0.0149963
724.309	0.0149253
724.387	0.0147247
724.465	0.0144579
724.543	0.0142410
724.621	0.0138705
724.700	0.0136928
724.778	0.0135812
724.856	0.0131690
724.934	0.0130788
725.012	0.0130429
725.090	0.0129359
725.168	0.0130064
725.246	0.0131145
725.325	0.0133019
725.403	0.0135158
725.481	0.0137643
725.559	0.0141196
725.637	0.0147089
725.715	0.0150525
725.793	0.0153828
725.871	0.0156779
725.950	0.0161575
726.028	0.0164746
726.106	0.0163940
726.184	0.0165315
726.262	0.0165129
726.340	0.0162930
726.418	0.0160011
726.496	0.0155743
726.575	0.0150178
726.653	0.0143480
726.731	0.0139481
726.809	0.0133977
726.887	0.0130659
726.965	0.0124751
727.043	0.0122393
727.121	0.0120932
727.200	0.0119678
727.278	0.0120834
727.356	0.0122157
727.434	0.0126307
727.512	0.0129458
727.590	0.0132928
727.668	0.0140553
727.746	0.0145377
727.825	0.0149596
727.903	0.0154973
727.981	0.0157667
728.059	0.0162090
728.137	0.0165524
728.215	0.0168973
728.293	0.0167908
728.371	0.0168089
728.450	0.0167939
728.528	0.0164207
728.606	0.0162355
728.684	0.0159291
728.762	0.0155529
728.840	0.0150448
728.918	0.0145395
728.996	0.0141023
729.075	0.0136107
729.153	0.0130158
729.231	0.0126200
729.309	0.0125018
729.387	0.0120864
729.465	0.0119988
729.543	0.0119455
729.621	0.0118429
729.700	0.0120901
729.778	0.0123688
729.856	0.0125251
729.934	0.0130886
730.012	0.0135075
730.090	0.0140061
730.168	0.0145746
730.246	0.0152137
730.325	0.0157394
730.403	0.0163106
730.481	0.0166825
730.559	0.0170505
730.637	0.0172425
730.715	0.0172587
730.793	0.0170535
730.871	0.0170813
730.950	0.0165938
731.028	0.0159750
731.106	0.0155264
731.184	0.0149721
731.262	0.0144640
731.340	0.0139465
731.418	0.0132825
731.496	0.0129402
731.575	0.0125288
731.653	0.0122561
731.731	0.0121375
731.809	0.0120232
731.887	0.0121317
731.965	0.0124049
732.043	0.0125601
732.121	0.0130356
732.200	0.0134960
732.278	0.0140305
732.356	0.0147140
732.434	0.0150724
732.512	0.0153655
732.590	0.0157346
732.668	0.0162062
732.746	0.0164727
732.825	0.0165461
732.903	0.0167186
732.981	0.0165183
733.059	0.0163453
733.137	0.0161835
733.215	0.0159972
733.293	0.0156748
733.371	0.0153262
733.450	0.0148259
733.528	0.0143747
733.606	0.0140160
733.684	0.0137059
733.762	0.0130228
733.840	0.0127094
733.918	0.0125150
733.996	0.0122989
734.075	0.0122449
734.153	0.0122335
734.231	0.0123014
734.309	0.0125254
734.387	0.0127218
734.465	0.0130650
734.543	0.0136118
734.621	0.0142059
734.700	0.0148807
734.778	0.0151458
734.856	0.0157938
734.934	0.0162045
735.012	0.0164828
735.090	0.0166172
735.168	0.0168159
735.246	0.0166692
735.325	0.0164839
735.403	0.0164780
735.481	0.0160446
735.559	0.0156653
735.637	0.0151679
735.715	0.0147596
735.793	0.0143867
735.871	0.0140610
735.950	0.0135860
736.028	0.0134071
736.106	0.0132030
736.184	0.0129937
736.262	0.0129049
736.340	0.0129644
736.418	0.0131810
736.496	0.0130965
736.575	0.0134364
736.653	0.0136054
736.731	0.0139145
736.809	0.0140017
736.887	0.0141912
736.965	0.0145055
737.043	0.0148825
737.121	0.0148721
737.200	0.0149677
737.278	0.0151099
737.356	0.0152744
737.434	0.0153391
737.512	0.0153023
737.590	0.0153133
737.668	0.0153667
737.746	0.0153605
737.825	0.0153713
737.903	0.0151951
737.981	0.0152322
738.059	0.0151015
738.137	0.0150243
738.215	0.0147865
738.293	0.0147800
738.371	0.0145153
738.450	0.0144269
738.528	0.0142747
738.606	0.0139418
738.684	0.0139025
738.762	0.0136033
738.840	0.0135221
738.918	0.0134011
738.996	0.0132917
739.075	0.0131651
739.153	0.0133844
739.231	0.0132565
739.309	0.0135181
739.387	0.0135931
739.465	0.0138345
739.543	0.0139655
739.621	0.0145416
739.700	0.0146953
739.778	0.0149067
739.856	0.0151376
739.934	0.0154806
740.012	0.0156532
740.090	0.0158107
740.168	0.0157875
740.246	0.0158115
740.325	0.0158292
740.403	0.0156647
740.481	0.0154742
740.559	0.0153181
740.637	0.0150455
740.715	0.0148134
740.793	0.0146684
740.871	0.0142871
740.950	0.0140052
741.028	0.0136137
741.106	0.0134203
741.184	0.0133974
741.262	0.0132165
741.340	0.0131851
741.418	0.0131590
741.496	0.0131286
741.575	0.0132581
741.653	0.0135180
741.731	0.0136443
741.809	0.0136829
741.887	0.0140759
741.965	0.0142550
742.043	0.0145770
742.121	0.0148129
742.200	0.0151052
742.278	0.0153346
742.356	0.0155870
742.434	0.0155090
742.512	0.0157153
742.590	0.0158406
742.668	0.0157673
742.746	0.0157001
742.825	0.0155305
742.903	0.0153909
742.981	0.0150140
743.059	0.0147511
743.137	0.0144736
743.215	0.0141410
743.293	0.0139650
743.371	0.0136552
743.450	0.0133181
743.528	0.0131773
743.606	0.0130904
743.684	0.0128748
743.762	0.0128091
743.840	0.0129334
743.918	0.0130122
743.996	0.0132694
744.075	0.0135793
744.153	0.0140343
744.231	0.0143326
744.309	0.0146468
744.387	0.0150390
744.465	0.0152547
744.543	0.0154795
744.621	0.0156448
744.700	0.0156583
744.778	0.0157536
744.856	0.0159222
744.934	0.0157391
745.012	0.0156646
745.090	0.0155544
745.168	0.0150587
745.246	0.0148530
745.325	0.0148132
745.403	0.0144845
745.481	0.0142696
745.559	0.0140636
745.637	0.0136884
745.715	0.0133884
745.793	0.0133688
745.871	0.0132519
745.950	0.0132358
746.028	0.0131277
746.106	0.0132198
746.184	0.0132745
746.262	0.0132679
746.340	0.0136216
746.418	0.0137081
746.496	0.0139222
746.575	0.0140916
746.653	0.0143895
746.731	0.0146524
746.809	0.0148513
746.887	0.0150190
746.965	0.0151725
747.043	0.0152791
747.121	0.0154414
747.200	0.0154667
747.278	0.0155125
747.356	0.0155287
747.434	0.0155275
747.512	0.0154578
747.590	0.0154071
747.668	0.0152048
747.746	0.0148574
747.825	0.0147048
747.903	0.0144820
747.981	0.0141953
748.059	0.0140365
748.137	0.0138595
748.215	0.0137089
748.293	0.0136330
748.371	0.0133755
748.450	0.0134921
748.528	0.0133785
748.606	0.0133346
748.684	0.0133490
748.762	0.0135660
748.840	0.0136810
748.918	0.0137588
748.996	0.0140820
749.075	0.0141920
749.153	0.0143817
749.231	0.0147112
749.309	0.0148155
749.387	0.0150641
749.465	0.0152151
749.543	0.0153496
749.621	0.0153564
749.700	0.0153625
749.778	0.0154904
749.856	0.0153667
749.934	0.0154322
750.012	0.0152787
750.090	0.0150252
750.168	0.0149068
750.246	0.0147894
750.325	0.0146839
750.403	0.0145547
750.481	0.0142274
750.559	0.0142247
750.637	0.0138980
750.715	0.0138020
750.793	0.0138198
750.871	0.0135735
750.950	0.0135709
751.028	0.0136140
751.106	0.0134076
751.184	0.0134830
751.262	0.0134795
751.340	0.0135271
751.418	0.0138350
751.496	0.0137820
751.575	0.0139923
751.653	0.0142682
751.731	0.0143600
751.809	0.0145902
751.887	0.0148083
751.965	0.0150771
752.043	0.0151028
752.121	0.0151350
752.200	0.0154372
752.278	0.0155707
752.356	0.0154327
752.434	0.0154037
752.512	0.0154043
752.590	0.0152890
752.668	0.0152856
752.746	0.0150495
752.825	0.0149570
752.903	0.0147021
752.981	0.0145020
753.059	0.0143458
753.137	0.0140022
753.215	0.0137411
753.293	0.0137009
753.371	0.0134462
753.450	0.0135424
753.528	0.0134773
753.606	0.0133875
753.684	0.0134976
753.762	0.0136149
753.840	0.0137120
753.918	0.0137605
753.996	0.0139215
754.075	0.0141631
754.153	0.0143189
754.231	0.0146225
754.309	0.0148766
754.387	0.0151619
754.465	0.0150679
754.543	0.0151997
754.621	0.0153094
754.700	0.0154903
754.778	0.0154456
754.856	0.0154287
754.934	0.0152396
755.012	0.0153436
755.090	0.0150639
755.168	0.0150495
755.246	0.0149025
755.325	0.0145331
755.403	0.0144633
755.481	0.0142970
755.559	0.0139378
755.637	0.0138849
755.715	0.0137115
755.793	0.0136401
755.871	0.0137262
755.950	0.0136919
756.028	0.0135307
756.106	0.0135459
756.184	0.0136786
756.262	0.0137178
756.340	0.0138514
756.418	0.0141637
756.496	0.0142232
756.575	0.0144496
756.653	0.0146577
756.731	0.0145625
756.809	0.0148700
756.887	0.0149042
756.965	0.0150858
757.043	0.0150580
757.121	0.0151165
757.200	0.0151407
757.278	0.0151141
757.356	0.0149514
757.434	0.0149960
757.512	0.0149176
757.590	0.0147677
757.668	0.0148251
757.746	0.0146284
757.825	0.0145003
757.903	0.0142152
757.981	0.0141894
758.059	0.0142598
758.137	0.0141522
758.215	0.0139989
758.293	0.0140145
758.371	0.0138552
758.450	0.0140902
758.528	0.0139424
758.606	0.0139579
758.684	0.0139952
758.762	0.0140144
758.840	0.0140560
758.918	0.0142002
758.996	0.0141183
759.075	0.0142936
759.153	0.0143946
759.231	0.0145177
759.309	0.0146702
759.387	0.0146201
759.465	0.0148257
759.543	0.0147546
759.621	0.0147048
759.700	0.0149949
759.778	0.0149825
759.856	0.0150838
759.934	0.0151671
760.012	0.0150264
760.090	0.0148996
760.168	0.0148143
760.246	0.0147257
760.325	0.0146096
760.403	0.0144241
760.481	0.0144196
760.559	0.0144586
760.637	0.0143365
760.715	0.0141592
760.793	0.0139787
760.871	0.0136311
760.950	0.0137624
761.028	0.0139405
761.106	0.0138318
761.184	0.0139659
761.262	0.0138894
761.340	0.0140247
761.418	0.0141116
761.496	0.0143482
761.575	0.0143845
761.653	0.0145929
761.731	0.0146175
761.809	0.0147707
761.887	0.0147822
761.965	0.0148817
762.043	0.0150245
762.121	0.0149364
762.200	0.0150024
762.278	0.0150272
762.356	0.0150705
762.434	0.0148854
762.512	0.0148540
762.590	0.0148874
762.668	0.0147559
762.746	0.0146222
762.825	0.0146046
762.903	0.0144028
762.981	0.0142530
763.059	0.0142078
763.137	0.0140882
763.215	0.0140647
763.293	0.0139427
763.371	0.0137844
763.450	0.0138637
763.528	0.0139089
763.606	0.0139023
763.684	0.0140295
763.762	0.0141212
763.840	0.0141576
763.918	0.0142133
763.996	0.0141724
764.075	0.0144508
764.153	0.0143556
764.231	0.0146517
764.309	0.0147155
764.387	0.0147030
764.465	0.0148708
764.543	0.0149614
764.621	0.0148866
764.700	0.0149312
