05/04/2022	21:03:27	Ver.	4.1	UNKNOWN
Optical Delay	678.996401	Delta X		0.078125	Sweeps	1	Scan Rate	0/0
Coordinates	Axis 1	NaN	Axis 2	NaN	Axis 3	NaN	Axis 4	NaN	Axis 5	NaN	Axis 6	0.000000
TX Power	0.000000	RX Power	0.000000

678.996	0.0144831
679.075	0.0144758
679.153	0.0144459
679.231	0.0145445
679.309	0.0145080
679.387	0.0144559
679.465	0.0144398
679.543	0.0144606
679.621	0.0145129
679.700	0.0145380
679.778	0.0145277
679.856	0.0145970
679.934	0.0144115
680.012	0.0145125
680.090	0.0145042
680.168	0.0145760
680.246	0.0145929
680.325	0.0145695
680.403	0.0145203
680.481	0.0143903
680.559	0.0145599
680.637	0.0144772
680.715	0.0145621
680.793	0.0144813
680.871	0.0144691
680.950	0.0145365
681.028	0.0144770
681.106	0.0145490
681.184	0.0145202
681.262	0.0144303
681.340	0.0145197
681.418	0.0146234
681.496	0.0146034
681.575	0.0145466
681.653	0.0144137
681.731	0.0145705
681.809	0.0145145
681.887	0.0144847
681.965	0.0144172
682.043	0.0145371
682.121	0.0145832
682.200	0.0144376
682.278	0.0145191
682.356	0.0144724
682.434	0.0145223
682.512	0.0144650
682.590	0.0143752
682.668	0.0144211
682.746	0.0145831
682.825	0.0145982
682.903	0.0144746
682.981	0.0143198
683.059	0.0144404
683.137	0.0145136
683.215	0.0144170
683.293	0.0144686
683.371	0.0145107
683.450	0.0144108
683.528	0.0143809
683.606	0.0144429
683.684	0.0144559
683.762	0.0144169
683.840	0.0145347
683.918	0.0144067
683.996	0.0144598
684.075	0.0144766
684.153	0.0146114
684.231	0.0144681
684.309	0.0144330
684.387	0.0145423
684.465	0.0145683
684.543	0.0145527
684.621	0.0145159
684.700	0.0144534
684.778	0.0145210
684.856	0.0145229
684.934	0.0145141
685.012	0.0145959
685.090	0.0144469
685.168	0.0145707
685.246	0.0144793
685.325	0.0145011
685.403	0.0146203
685.481	0.0144890
685.559	0.0144653
685.637	0.0144817
685.715	0.0144550
685.793	0.0145262
685.871	0.0144653
685.950	0.0145751
686.028	0.0145135
686.106	0.0144282
686.184	0.0146259
686.262	0.0144527
686.340	0.0144564
686.418	0.0145689
686.496	0.0144737
686.575	0.0144890
686.653	0.0144615
686.731	0.0144980
686.809	0.0144907
686.887	0.0146958
686.965	0.0145095
687.043	0.0146766
687.121	0.0145316
687.200	0.0145280
687.278	0.0144707
687.356	0.0145491
687.434	0.0145872
687.512	0.0145064
687.590	0.0144950
687.668	0.0144425
687.746	0.0145325
687.825	0.0144926
687.903	0.0146226
687.981	0.0144930
688.059	0.0143672
688.137	0.0145102
688.215	0.0145702
688.293	0.0145760
688.371	0.0145966
688.450	0.0145975
688.528	0.0143372
688.606	0.0145818
688.684	0.0146277
688.762	0.0144572
688.840	0.0144919
688.918	0.0143826
688.996	0.0145872
689.075	0.0145217
689.153	0.0145288
689.231	0.0145020
689.309	0.0145081
689.387	0.0145849
689.465	0.0145257
689.543	0.0144943
689.621	0.0144529
689.700	0.0146104
689.778	0.0145536
689.856	0.0144858
689.934	0.0145821
690.012	0.0144937
690.090	0.0144885
690.168	0.0145850
690.246	0.0144591
690.325	0.0145834
690.403	0.0145220
690.481	0.0145245
690.559	0.0146172
690.637	0.0144005
690.715	0.0144568
690.793	0.0145135
690.871	0.0145497
690.950	0.0145955
691.028	0.0146240
691.106	0.0144570
691.184	0.0144280
691.262	0.0144159
691.340	0.0145586
691.418	0.0143800
691.496	0.0144457
691.575	0.0145654
691.653	0.0144350
691.731	0.0144175
691.809	0.0145650
691.887	0.0144377
691.965	0.0145045
692.043	0.0145636
692.121	0.0143419
692.200	0.0145179
692.278	0.0145081
692.356	0.0144783
692.434	0.0145536
692.512	0.0145621
692.590	0.0145638
692.668	0.0145244
692.746	0.0146692
692.825	0.0145593
692.903	0.0145766
692.981	0.0144948
693.059	0.0145022
693.137	0.0145295
693.215	0.0144589
693.293	0.0144817
693.371	0.0145589
693.450	0.0144913
693.528	0.0144814
693.606	0.0144989
693.684	0.0144621
693.762	0.0143670
693.840	0.0143939
693.918	0.0145113
693.996	0.0144964
694.075	0.0145405
694.153	0.0144469
694.231	0.0144315
694.309	0.0145193
694.387	0.0144805
694.465	0.0144285
694.543	0.0144685
694.621	0.0145927
694.700	0.0144421
694.778	0.0144860
694.856	0.0145134
694.934	0.0146833
695.012	0.0144665
695.090	0.0145168
695.168	0.0144682
695.246	0.0145452
695.325	0.0145481
695.403	0.0144978
695.481	0.0144635
695.559	0.0144568
695.637	0.0145316
695.715	0.0145448
695.793	0.0144303
695.871	0.0145773
695.950	0.0144741
696.028	0.0144200
696.106	0.0145033
696.184	0.0145973
696.262	0.0145177
696.340	0.0144492
696.418	0.0145910
696.496	0.0144476
696.575	0.0143974
696.653	0.0145209
696.731	0.0145263
696.809	0.0144827
696.887	0.0145806
696.965	0.0144970
697.043	0.0145073
697.121	0.0143300
697.200	0.0146710
697.278	0.0145240
697.356	0.0143951
697.434	0.0144978
697.512	0.0145435
697.590	0.0144051
697.668	0.0144463
697.746	0.0144355
697.825	0.0144856
697.903	0.0144896
697.981	0.0144665
698.059	0.0144746
698.137	0.0144692
698.215	0.0145163
698.293	0.0144041
698.371	0.0143999
698.450	0.0144680
698.528	0.0146582
698.606	0.0145434
698.684	0.0144420
698.762	0.0145218
698.840	0.0144693
698.918	0.0145049
698.996	0.0144822
699.075	0.0145465
699.153	0.0144684
699.231	0.0145114
699.309	0.0145553
699.387	0.0144629
699.465	0.0145526
699.543	0.0145263
699.621	0.0144746
699.700	0.0144144
699.778	0.0143526
699.856	0.0143867
699.934	0.0142656
700.012	0.0146041
700.090	0.0146331
700.168	0.0144889
700.246	0.0144415
700.325	0.0146893
700.403	0.0144814
700.481	0.0143574
700.559	0.0145659
700.637	0.0144640
700.715	0.0144666
700.793	0.0144562
700.871	0.0145277
700.950	0.0144865
701.028	0.0144580
701.106	0.0144838
701.184	0.0145916
701.262	0.0145619
701.340	0.0145255
701.418	0.0145699
701.496	0.0144404
701.575	0.0145572
701.653	0.0146264
701.731	0.0145657
701.809	0.0144955
701.887	0.0144546
701.965	0.0144549
702.043	0.0144749
702.121	0.0144993
702.200	0.0145690
702.278	0.0145189
702.356	0.0145457
702.434	0.0143695
702.512	0.0146714
702.590	0.0146103
702.668	0.0144386
702.746	0.0144709
702.825	0.0145200
702.903	0.0145035
702.981	0.0145056
703.059	0.0145491
703.137	0.0145654
703.215	0.0145234
703.293	0.0146217
703.371	0.0146809
703.450	0.0145254
703.528	0.0145776
703.606	0.0146460
703.684	0.0145675
703.762	0.0146084
703.840	0.0145216
703.918	0.0144082
703.996	0.0144624
704.075	0.0145828
704.153	0.0144880
704.231	0.0144971
704.309	0.0143873
704.387	0.0142736
704.465	0.0143656
704.543	0.0143956
704.621	0.0142384
704.700	0.0143251
704.778	0.0143240
704.856	0.0142151
704.934	0.0143818
705.012	0.0144084
705.090	0.0144175
705.168	0.0145045
705.246	0.0146318
705.325	0.0146935
705.403	0.0149004
705.481	0.0149200
705.559	0.0150684
705.637	0.0150993
705.715	0.0148649
705.793	0.0147534
705.871	0.0145452
705.950	0.0145084
706.028	0.0142445
706.106	0.0142506
706.184	0.0140541
706.262	0.0139177
706.340	0.0138109
706.418	0.0136297
706.496	0.0137493
706.575	0.0136307
706.653	0.0137743
706.731	0.0138470
706.809	0.0140527
706.887	0.0142403
706.965	0.0145992
707.043	0.0149319
707.121	0.0152236
707.200	0.0155948
707.278	0.0160278
707.356	0.0160059
707.434	0.0159148
707.512	0.0156930
707.590	0.0153288
707.668	0.0149574
707.746	0.0145358
707.825	0.0141486
707.903	0.0138708
707.981	0.0135207
708.059	0.0134019
708.137	0.0133724
708.215	0.0132405
708.293	0.0132594
708.371	0.0132269
708.450	0.0133558
708.528	0.0135761
708.606	0.0137968
708.684	0.0142339
708.762	0.0147443
708.840	0.0149398
708.918	0.0153608
708.996	0.0157798
709.075	0.0160251
709.153	0.0161153
709.231	0.0162138
709.309	0.0161930
709.387	0.0161160
709.465	0.0156619
709.543	0.0155049
709.621	0.0151623
709.700	0.0147581
709.778	0.0142694
709.856	0.0136607
709.934	0.0135146
710.012	0.0131261
710.090	0.0128854
710.168	0.0129827
710.246	0.0131117
710.325	0.0131281
710.403	0.0130761
710.481	0.0131230
710.559	0.0131634
710.637	0.0131928
710.715	0.0133950
710.793	0.0135202
710.871	0.0138342
710.950	0.0139281
711.028	0.0143451
711.106	0.0146293
711.184	0.0151312
711.262	0.0155884
711.340	0.0157401
711.418	0.0163239
711.496	0.0166219
711.575	0.0167441
711.653	0.0168239
711.731	0.0168756
711.809	0.0166627
711.887	0.0163130
711.965	0.0160443
712.043	0.0156277
712.121	0.0150558
712.200	0.0143672
712.278	0.0138503
712.356	0.0132935
712.434	0.0128061
712.512	0.0122401
712.590	0.0119230
712.668	0.0114338
712.746	0.0110963
712.825	0.0111022
712.903	0.0112305
712.981	0.0116735
713.059	0.0121483
713.137	0.0129664
713.215	0.0137373
713.293	0.0146030
713.371	0.0155569
713.450	0.0164128
713.528	0.0170992
713.606	0.0177704
713.684	0.0183036
713.762	0.0187066
713.840	0.0187671
713.918	0.0184756
713.996	0.0182970
714.075	0.0178278
714.153	0.0169295
714.231	0.0158749
714.309	0.0150104
714.387	0.0140852
714.465	0.0131074
714.543	0.0124389
714.621	0.0116562
714.700	0.0112813
714.778	0.0109654
714.856	0.0106310
714.934	0.0105041
715.012	0.0107263
715.090	0.0112273
715.168	0.0117624
715.246	0.0124963
715.325	0.0133849
715.403	0.0143864
715.481	0.0151962
715.559	0.0161475
715.637	0.0166214
715.715	0.0170296
715.793	0.0171848
715.871	0.0173703
715.950	0.0172717
716.028	0.0172720
716.106	0.0169041
716.184	0.0165111
716.262	0.0160435
716.340	0.0155119
716.418	0.0148580
716.496	0.0140848
716.575	0.0136343
716.653	0.0131089
716.731	0.0127823
716.809	0.0125690
716.887	0.0125607
716.965	0.0126606
717.043	0.0125700
717.121	0.0127491
717.200	0.0130640
717.278	0.0134285
717.356	0.0137591
717.434	0.0140367
717.512	0.0145011
717.590	0.0147768
717.668	0.0153548
717.746	0.0156718
717.825	0.0159502
717.903	0.0160416
717.981	0.0160653
718.059	0.0159850
718.137	0.0156387
718.215	0.0154787
718.293	0.0152284
718.371	0.0148401
718.450	0.0145448
718.528	0.0142910
718.606	0.0141013
718.684	0.0138754
718.762	0.0138008
718.840	0.0135976
718.918	0.0134122
718.996	0.0134329
719.075	0.0135818
719.153	0.0137775
719.231	0.0137688
719.309	0.0140365
719.387	0.0142101
719.465	0.0144472
719.543	0.0147245
719.621	0.0149837
719.700	0.0149687
719.778	0.0149496
719.856	0.0148286
719.934	0.0150082
720.012	0.0148741
720.090	0.0146321
720.168	0.0144093
720.246	0.0143821
720.325	0.0143158
720.403	0.0140063
720.481	0.0140077
720.559	0.0141088
720.637	0.0141545
720.715	0.0142482
720.793	0.0141508
720.871	0.0144464
720.950	0.0145789
721.028	0.0147083
721.106	0.0146854
721.184	0.0149488
721.262	0.0150697
721.340	0.0152076
721.418	0.0151789
721.496	0.0150298
721.575	0.0150385
721.653	0.0148505
721.731	0.0148220
721.809	0.0145586
721.887	0.0144067
721.965	0.0144157
722.043	0.0144681
722.121	0.0143172
722.200	0.0141777
722.278	0.0138480
722.356	0.0140266
722.434	0.0137322
722.512	0.0135521
722.590	0.0134335
722.668	0.0132218
722.746	0.0131171
722.825	0.0132644
722.903	0.0133224
722.981	0.0135770
723.059	0.0138679
723.137	0.0141376
723.215	0.0146775
723.293	0.0149628
723.371	0.0154314
723.450	0.0158291
723.528	0.0160726
723.606	0.0162241
723.684	0.0162908
723.762	0.0162241
723.840	0.0162215
723.918	0.0161066
723.996	0.0158466
724.075	0.0155457
724.153	0.0151176
724.231	0.0145724
724.309	0.0142290
724.387	0.0137479
724.465	0.0133366
724.543	0.0128895
724.621	0.0127985
724.700	0.0126536
724.778	0.0126960
724.856	0.0127330
724.934	0.0126715
725.012	0.0128383
725.090	0.0131091
725.168	0.0132993
725.246	0.0137318
725.325	0.0139886
725.403	0.0143913
725.481	0.0148651
725.559	0.0152513
725.637	0.0155323
725.715	0.0160326
725.793	0.0160902
725.871	0.0165015
725.950	0.0165668
726.028	0.0165059
726.106	0.0164382
726.184	0.0163445
726.262	0.0161671
726.340	0.0156556
726.418	0.0153856
726.496	0.0148581
726.575	0.0141200
726.653	0.0136694
726.731	0.0130923
726.809	0.0126075
726.887	0.0122209
726.965	0.0120350
727.043	0.0118160
727.121	0.0119668
727.200	0.0122549
727.278	0.0123850
727.356	0.0128780
727.434	0.0133026
727.512	0.0137587
727.590	0.0143429
727.668	0.0148840
727.746	0.0154043
727.825	0.0159872
727.903	0.0162963
727.981	0.0166326
728.059	0.0168453
728.137	0.0169217
728.215	0.0169966
728.293	0.0169392
728.371	0.0166847
728.450	0.0162666
728.528	0.0158106
728.606	0.0154417
728.684	0.0148874
728.762	0.0143533
728.840	0.0136729
728.918	0.0133579
728.996	0.0130556
729.075	0.0126302
729.153	0.0125145
729.231	0.0122072
729.309	0.0122437
729.387	0.0122247
729.465	0.0122485
729.543	0.0124313
729.621	0.0124115
729.700	0.0127130
729.778	0.0130121
729.856	0.0135188
729.934	0.0139708
730.012	0.0146080
730.090	0.0149648
730.168	0.0155043
730.246	0.0159418
730.325	0.0165009
730.403	0.0166811
730.481	0.0170264
730.559	0.0170650
730.637	0.0170387
730.715	0.0170663
730.793	0.0167010
730.871	0.0162469
730.950	0.0158685
731.028	0.0153027
731.106	0.0147914
731.184	0.0141324
731.262	0.0136095
731.340	0.0130785
731.418	0.0127291
731.496	0.0122585
731.575	0.0118636
731.653	0.0118578
731.731	0.0121126
731.809	0.0121919
731.887	0.0126678
731.965	0.0130933
732.043	0.0136868
732.121	0.0142588
732.200	0.0148370
732.278	0.0152496
732.356	0.0157454
732.434	0.0161285
732.512	0.0163601
732.590	0.0167055
732.668	0.0167094
732.746	0.0165330
732.825	0.0165308
732.903	0.0163202
732.981	0.0159068
733.059	0.0155795
733.137	0.0153158
733.215	0.0150379
733.293	0.0145341
733.371	0.0140871
733.450	0.0138265
733.528	0.0133739
733.606	0.0131548
733.684	0.0130829
733.762	0.0127175
733.840	0.0126168
733.918	0.0127155
733.996	0.0127116
734.075	0.0129140
734.153	0.0128825
734.231	0.0131948
734.309	0.0135809
734.387	0.0137833
734.465	0.0142687
734.543	0.0145441
734.621	0.0151679
734.700	0.0155706
734.778	0.0158504
734.856	0.0161411
734.934	0.0163461
735.012	0.0163441
735.090	0.0164763
735.168	0.0163441
735.246	0.0161523
735.325	0.0158877
735.403	0.0159290
735.481	0.0153838
735.559	0.0150631
735.637	0.0146038
735.715	0.0142417
735.793	0.0139278
735.871	0.0134856
735.950	0.0133768
736.028	0.0129884
736.106	0.0129096
736.184	0.0129330
736.262	0.0128728
736.340	0.0130062
736.418	0.0130643
736.496	0.0131314
736.575	0.0134845
736.653	0.0137840
736.731	0.0139021
736.809	0.0142408
736.887	0.0146542
736.965	0.0146198
737.043	0.0148173
737.121	0.0151121
737.200	0.0152260
737.278	0.0153129
737.356	0.0154873
737.434	0.0155482
737.512	0.0155102
737.590	0.0154404
737.668	0.0155849
737.746	0.0155226
737.825	0.0154588
737.903	0.0152660
737.981	0.0151775
738.059	0.0151287
738.137	0.0148983
738.215	0.0147018
738.293	0.0144382
738.371	0.0144341
738.450	0.0142237
738.528	0.0138993
738.606	0.0136080
738.684	0.0135693
738.762	0.0133886
738.840	0.0132828
738.918	0.0131665
738.996	0.0130776
739.075	0.0132407
739.153	0.0131853
739.231	0.0133302
739.309	0.0137142
739.387	0.0138013
739.465	0.0142170
739.543	0.0147103
739.621	0.0148544
739.700	0.0151665
739.778	0.0154671
739.856	0.0157523
739.934	0.0160609
740.012	0.0160320
740.090	0.0160599
740.168	0.0160529
740.246	0.0159971
740.325	0.0156763
740.403	0.0154330
740.481	0.0152180
740.559	0.0149220
740.637	0.0145294
740.715	0.0141808
740.793	0.0139449
740.871	0.0135213
740.950	0.0132758
741.028	0.0130575
741.106	0.0129140
741.184	0.0129308
741.262	0.0129936
741.340	0.0131143
741.418	0.0133315
741.496	0.0133292
741.575	0.0136273
741.653	0.0138844
741.731	0.0142033
741.809	0.0145411
741.887	0.0148881
741.965	0.0150967
742.043	0.0152773
742.121	0.0155029
742.200	0.0156756
742.278	0.0156447
742.356	0.0157489
742.434	0.0158284
742.512	0.0157315
742.590	0.0156130
742.668	0.0153745
742.746	0.0153539
742.825	0.0150064
742.903	0.0148236
742.981	0.0147028
743.059	0.0143240
743.137	0.0139919
743.215	0.0136864
743.293	0.0135278
743.371	0.0134132
743.450	0.0132667
743.528	0.0131300
743.606	0.0130615
743.684	0.0130766
743.762	0.0132058
743.840	0.0132270
743.918	0.0135990
743.996	0.0138322
744.075	0.0140728
744.153	0.0144300
744.231	0.0146359
744.309	0.0150459
744.387	0.0151869
744.465	0.0154243
744.543	0.0155963
744.621	0.0157468
744.700	0.0159035
744.778	0.0157913
744.856	0.0158311
744.934	0.0156930
745.012	0.0155798
745.090	0.0153262
745.168	0.0152540
745.246	0.0150279
745.325	0.0145811
745.403	0.0143125
745.481	0.0140358
745.559	0.0137962
745.637	0.0134443
745.715	0.0133859
745.793	0.0132561
745.871	0.0130587
745.950	0.0130080
746.028	0.0130456
746.106	0.0130978
746.184	0.0132876
746.262	0.0134704
746.340	0.0136386
746.418	0.0138181
746.496	0.0140839
746.575	0.0142506
746.653	0.0144936
746.731	0.0147252
746.809	0.0150340
746.887	0.0151081
746.965	0.0154547
747.043	0.0155725
747.121	0.0156664
747.200	0.0155425
747.278	0.0156152
747.356	0.0156891
747.434	0.0153606
747.512	0.0153081
747.590	0.0151614
747.668	0.0150062
747.746	0.0147169
747.825	0.0146641
747.903	0.0144846
747.981	0.0141782
748.059	0.0141232
748.137	0.0137949
748.215	0.0135560
748.293	0.0137220
748.371	0.0134213
748.450	0.0133583
748.528	0.0133137
748.606	0.0132529
748.684	0.0133285
748.762	0.0134753
748.840	0.0135210
748.918	0.0137535
748.996	0.0139847
749.075	0.0140754
749.153	0.0145097
749.231	0.0148456
749.309	0.0148633
749.387	0.0150292
749.465	0.0152132
749.543	0.0152490
749.621	0.0153251
749.700	0.0154090
749.778	0.0155744
749.856	0.0155875
749.934	0.0153808
750.012	0.0153938
750.090	0.0151823
750.168	0.0149780
750.246	0.0149554
750.325	0.0146430
750.403	0.0144331
750.481	0.0142207
750.559	0.0141550
750.637	0.0139310
750.715	0.0137687
750.793	0.0135590
750.871	0.0134435
750.950	0.0133908
751.028	0.0131728
751.106	0.0132377
751.184	0.0133840
751.262	0.0133609
751.340	0.0136034
751.418	0.0136566
751.496	0.0137468
751.575	0.0141409
751.653	0.0143341
751.731	0.0146096
751.809	0.0148459
751.887	0.0151073
751.965	0.0153075
752.043	0.0154952
752.121	0.0155587
752.200	0.0155370
752.278	0.0154990
752.356	0.0157720
752.434	0.0156144
752.512	0.0154523
752.590	0.0153895
752.668	0.0153248
752.746	0.0151035
752.825	0.0148107
752.903	0.0144020
752.981	0.0144036
753.059	0.0140855
753.137	0.0139204
753.215	0.0136527
753.293	0.0136593
753.371	0.0134199
753.450	0.0134602
753.528	0.0133825
753.606	0.0135080
753.684	0.0134744
753.762	0.0136652
753.840	0.0136558
753.918	0.0138702
753.996	0.0142093
754.075	0.0143415
754.153	0.0144506
754.231	0.0147236
754.309	0.0148508
754.387	0.0149582
754.465	0.0152302
754.543	0.0152280
754.621	0.0153596
754.700	0.0154722
754.778	0.0155753
754.856	0.0155284
754.934	0.0152888
755.012	0.0152622
755.090	0.0150384
755.168	0.0149884
755.246	0.0147750
755.325	0.0145351
755.403	0.0144968
755.481	0.0142395
755.559	0.0140023
755.637	0.0139536
755.715	0.0138322
755.793	0.0137173
755.871	0.0136450
755.950	0.0136000
756.028	0.0138077
756.106	0.0137505
756.184	0.0137410
756.262	0.0140518
756.340	0.0141460
756.418	0.0140583
756.496	0.0141682
756.575	0.0142382
756.653	0.0144550
756.731	0.0146462
756.809	0.0147998
756.887	0.0147534
756.965	0.0148534
757.043	0.0149899
757.121	0.0148409
757.200	0.0149288
757.278	0.0150835
757.356	0.0150001
757.434	0.0151826
757.512	0.0150755
757.590	0.0148999
757.668	0.0148093
757.746	0.0146422
757.825	0.0145930
757.903	0.0144828
757.981	0.0144312
758.059	0.0143104
758.137	0.0143674
758.215	0.0140718
758.293	0.0141733
758.371	0.0142165
758.450	0.0139242
758.528	0.0139869
758.606	0.0139485
758.684	0.0140013
758.762	0.0139665
758.840	0.0139122
758.918	0.0141704
758.996	0.0141563
759.075	0.0141135
759.153	0.0144889
759.231	0.0143870
759.309	0.0144263
759.387	0.0147157
759.465	0.0148335
759.543	0.0148618
759.621	0.0150635
759.700	0.0150966
759.778	0.0151083
759.856	0.0150949
759.934	0.0151408
760.012	0.0152700
760.090	0.0149474
760.168	0.0149843
760.246	0.0148029
760.325	0.0146236
760.403	0.0145538
760.481	0.0144074
760.559	0.0143263
760.637	0.0144135
760.715	0.0142177
760.793	0.0140186
760.871	0.0140459
760.950	0.0138830
761.028	0.0137740
761.106	0.0138541
761.184	0.0139027
761.262	0.0139516
761.340	0.0140237
761.418	0.0140298
761.496	0.0141557
761.575	0.0144485
761.653	0.0146439
761.731	0.0146671
761.809	0.0146351
761.887	0.0147323
761.965	0.0148950
762.043	0.0150442
762.121	0.0150088
762.200	0.0150691
762.278	0.0149638
762.356	0.0149789
762.434	0.0150281
762.512	0.0149841
762.590	0.0149337
762.668	0.0147964
762.746	0.0145982
762.825	0.0144965
762.903	0.0144469
762.981	0.0143376
763.059	0.0144735
763.137	0.0142526
763.215	0.0140627
763.293	0.0140871
763.371	0.0140376
763.450	0.0138698
763.528	0.0139472
763.606	0.0139638
763.684	0.0140607
763.762	0.0139680
763.840	0.0138818
763.918	0.0142356
763.996	0.0141669
764.075	0.0142325
764.153	0.0144009
764.231	0.0145914
764.309	0.0146317
764.387	0.0146543
764.465	0.0148920
764.543	0.0149088
764.621	0.0148718
764.700	0.0150034
