05/04/2022	21:03:52	Ver.	4.1	UNKNOWN
Optical Delay	678.996401	Delta X		0.078125	Sweeps	1	Scan Rate	0/0
Coordinates	Axis 1	NaN	Axis 2	NaN	Axis 3	NaN	Axis 4	NaN	Axis 5	NaN	Axis 6	0.000000
TX Power	0.000000	RX Power	0.000000

678.996	0.0141692
679.075	0.0140013
679.153	0.0141430
679.231	0.0141675
679.309	0.0143348
679.387	0.0142260
679.465	0.0141004
679.543	0.0141975
679.621	0.0142422
679.700	0.0141447
679.778	0.0141106
679.856	0.0140388
679.934	0.0140946
680.012	0.0142390
680.090	0.0142029
680.168	0.0141827
680.246	0.0140847
680.325	0.0141103
680.403	0.0140832
680.481	0.0142282
680.559	0.0141168
680.637	0.0141994
680.715	0.0141657
680.793	0.0143549
680.871	0.0140945
680.950	0.0142528
681.028	0.0141500
681.106	0.0141914
681.184	0.0142894
681.262	0.0140524
681.340	0.0141581
681.418	0.0141673
681.496	0.0142285
681.575	0.0140608
681.653	0.0142972
681.731	0.0142867
681.809	0.0141554
681.887	0.0142249
681.965	0.0142007
682.043	0.0141184
682.121	0.0141103
682.200	0.0141855
682.278	0.0142037
682.356	0.0141569
682.434	0.0141510
682.512	0.0141288
682.590	0.0141530
682.668	0.0142080
682.746	0.0141885
682.825	0.0141908
682.903	0.0142166
682.981	0.0142276
683.059	0.0140926
683.137	0.0140832
683.215	0.0142667
683.293	0.0142539
683.371	0.0141293
683.450	0.0142431
683.528	0.0143163
683.606	0.0141463
683.684	0.0141383
683.762	0.0140578
683.840	0.0142107
683.918	0.0141923
683.996	0.0141393
684.075	0.0141967
684.153	0.0141029
684.231	0.0142219
684.309	0.0142319
684.387	0.0141912
684.465	0.0142545
684.543	0.0142167
684.621	0.0142643
684.700	0.0141356
684.778	0.0140568
684.856	0.0142138
684.934	0.0141909
685.012	0.0142648
685.090	0.0141873
685.168	0.0142620
685.246	0.0141186
685.325	0.0142380
685.403	0.0142454
685.481	0.0142406
685.559	0.0140839
685.637	0.0140163
685.715	0.0142754
685.793	0.0140874
685.871	0.0141961
685.950	0.0140263
686.028	0.0140934
686.106	0.0142931
686.184	0.0142542
686.262	0.0141686
686.340	0.0140768
686.418	0.0141771
686.496	0.0143523
686.575	0.0139935
686.653	0.0141879
686.731	0.0141716
686.809	0.0143839
686.887	0.0141458
686.965	0.0142187
687.043	0.0141876
687.121	0.0141092
687.200	0.0141063
687.278	0.0141763
687.356	0.0140484
687.434	0.0140736
687.512	0.0142211
687.590	0.0141969
687.668	0.0142447
687.746	0.0142786
687.825	0.0140840
687.903	0.0142552
687.981	0.0141808
688.059	0.0143816
688.137	0.0141699
688.215	0.0141984
688.293	0.0143563
688.371	0.0142178
688.450	0.0142468
688.528	0.0142422
688.606	0.0140372
688.684	0.0142057
688.762	0.0142059
688.840	0.0141692
688.918	0.0141522
688.996	0.0141109
689.075	0.0143008
689.153	0.0141828
689.231	0.0143517
689.309	0.0140350
689.387	0.0140409
689.465	0.0141261
689.543	0.0142626
689.621	0.0142629
689.700	0.0141831
689.778	0.0142905
689.856	0.0140917
689.934	0.0140735
690.012	0.0140059
690.090	0.0142177
690.168	0.0142509
690.246	0.0141135
690.325	0.0142113
690.403	0.0141044
690.481	0.0140651
690.559	0.0141133
690.637	0.0141840
690.715	0.0140975
690.793	0.0141148
690.871	0.0141177
690.950	0.0141027
691.028	0.0140907
691.106	0.0141725
691.184	0.0139967
691.262	0.0140976
691.340	0.0141061
691.418	0.0141616
691.496	0.0141279
691.575	0.0142291
691.653	0.0141676
691.731	0.0141458
691.809	0.0140887
691.887	0.0140925
691.965	0.0141534
692.043	0.0142435
692.121	0.0140802
692.200	0.0142520
692.278	0.0142220
692.356	0.0140452
692.434	0.0142588
692.512	0.0141523
692.590	0.0141484
692.668	0.0142643
692.746	0.0141483
692.825	0.0140561
692.903	0.0142265
692.981	0.0142387
693.059	0.0141405
693.137	0.0142742
693.215	0.0142828
693.293	0.0141360
693.371	0.0141977
693.450	0.0142094
693.528	0.0142866
693.606	0.0141763
693.684	0.0141059
693.762	0.0142604
693.840	0.0142313
693.918	0.0141661
693.996	0.0142041
694.075	0.0141135
694.153	0.0141710
694.231	0.0141772
694.309	0.0140057
694.387	0.0140385
694.465	0.0140799
694.543	0.0142111
694.621	0.0142596
694.700	0.0142198
694.778	0.0140601
694.856	0.0141310
694.934	0.0141512
695.012	0.0140792
695.090	0.0142663
695.168	0.0141843
695.246	0.0140799
695.325	0.0141492
695.403	0.0142563
695.481	0.0142049
695.559	0.0141068
695.637	0.0141164
695.715	0.0141512
695.793	0.0141296
695.871	0.0142763
695.950	0.0142498
696.028	0.0140235
696.106	0.0139793
696.184	0.0141862
696.262	0.0142014
696.340	0.0141016
696.418	0.0141929
696.496	0.0142679
696.575	0.0142922
696.653	0.0141263
696.731	0.0141222
696.809	0.0141259
696.887	0.0141044
696.965	0.0140205
697.043	0.0142303
697.121	0.0142471
697.200	0.0141975
697.278	0.0141547
697.356	0.0141164
697.434	0.0142073
697.512	0.0142046
697.590	0.0139786
697.668	0.0142148
697.746	0.0140726
697.825	0.0141402
697.903	0.0142352
697.981	0.0141947
698.059	0.0140644
698.137	0.0139828
698.215	0.0141804
698.293	0.0141046
698.371	0.0141667
698.450	0.0141988
698.528	0.0143597
698.606	0.0142392
698.684	0.0140388
698.762	0.0140440
698.840	0.0140807
698.918	0.0141488
698.996	0.0142869
699.075	0.0141819
699.153	0.0141741
699.231	0.0141201
699.309	0.0141624
699.387	0.0142241
699.465	0.0140836
699.543	0.0140483
699.621	0.0141946
699.700	0.0141894
699.778	0.0141840
699.856	0.0142234
699.934	0.0143031
700.012	0.0140997
700.090	0.0141427
700.168	0.0141959
700.246	0.0141172
700.325	0.0142535
700.403	0.0142307
700.481	0.0140612
700.559	0.0141121
700.637	0.0142070
700.715	0.0141802
700.793	0.0141049
700.871	0.0140913
700.950	0.0142126
701.028	0.0141921
701.106	0.0141154
701.184	0.0140582
701.262	0.0140731
701.340	0.0141345
701.418	0.0141079
701.496	0.0141397
701.575	0.0141132
701.653	0.0141059
701.731	0.0141119
701.809	0.0143174
701.887	0.0140816
701.965	0.0141545
702.043	0.0141811
702.121	0.0141453
702.200	0.0141202
702.278	0.0141610
702.356	0.0141819
702.434	0.0141884
702.512	0.0142842
702.590	0.0142218
702.668	0.0141306
702.746	0.0141282
702.825	0.0141534
702.903	0.0140942
702.981	0.0141146
703.059	0.0141187
703.137	0.0139934
703.215	0.0140147
703.293	0.0140517
703.371	0.0139484
703.450	0.0140835
703.528	0.0139384
703.606	0.0140985
703.684	0.0140305
703.762	0.0140849
703.840	0.0139611
703.918	0.0140260
703.996	0.0142281
704.075	0.0142007
704.153	0.0141421
704.231	0.0141937
704.309	0.0141150
704.387	0.0141390
704.465	0.0145020
704.543	0.0144064
704.621	0.0143602
704.700	0.0145667
704.778	0.0146938
704.856	0.0144911
704.934	0.0145197
705.012	0.0143884
705.090	0.0143340
705.168	0.0140646
705.246	0.0139296
705.325	0.0137810
705.403	0.0136337
705.481	0.0135135
705.559	0.0134114
705.637	0.0134776
705.715	0.0133489
705.793	0.0133465
705.871	0.0134258
705.950	0.0135240
706.028	0.0136162
706.106	0.0137938
706.184	0.0140493
706.262	0.0141906
706.340	0.0144415
706.418	0.0149061
706.496	0.0152029
706.575	0.0153955
706.653	0.0155460
706.731	0.0157299
706.809	0.0158215
706.887	0.0156042
706.965	0.0152772
707.043	0.0146168
707.121	0.0143618
707.200	0.0138222
707.278	0.0135789
707.356	0.0133412
707.434	0.0130483
707.512	0.0129525
707.590	0.0126346
707.668	0.0128062
707.746	0.0128973
707.825	0.0128967
707.903	0.0129826
707.981	0.0133271
708.059	0.0136150
708.137	0.0138280
708.215	0.0141632
708.293	0.0144707
708.371	0.0149189
708.450	0.0153999
708.528	0.0156184
708.606	0.0157220
708.684	0.0159167
708.762	0.0160987
708.840	0.0162479
708.918	0.0160635
708.996	0.0157052
709.075	0.0153545
709.153	0.0149844
709.231	0.0144456
709.309	0.0140314
709.387	0.0135089
709.465	0.0130218
709.543	0.0126588
709.621	0.0126588
709.700	0.0125155
709.778	0.0124944
709.856	0.0123461
709.934	0.0123498
710.012	0.0123158
710.090	0.0122153
710.168	0.0123711
710.246	0.0123115
710.325	0.0126532
710.403	0.0130640
710.481	0.0134789
710.559	0.0139650
710.637	0.0146763
710.715	0.0151035
710.793	0.0157643
710.871	0.0162730
710.950	0.0165600
711.028	0.0168958
711.106	0.0171288
711.184	0.0169822
711.262	0.0170158
711.340	0.0167835
711.418	0.0162758
711.496	0.0156502
711.575	0.0150483
711.653	0.0145116
711.731	0.0137704
711.809	0.0131364
711.887	0.0125549
711.965	0.0120632
712.043	0.0116251
712.121	0.0113242
712.200	0.0109851
712.278	0.0107687
712.356	0.0108854
712.434	0.0111113
712.512	0.0114149
712.590	0.0121148
712.668	0.0130791
712.746	0.0139860
712.825	0.0149025
712.903	0.0158528
712.981	0.0166666
713.059	0.0171487
713.137	0.0174368
713.215	0.0177580
713.293	0.0179012
713.371	0.0178573
713.450	0.0176099
713.528	0.0172915
713.606	0.0167428
713.684	0.0160659
713.762	0.0152983
713.840	0.0145647
713.918	0.0138357
713.996	0.0130824
714.075	0.0124500
714.153	0.0119867
714.231	0.0117268
714.309	0.0115699
714.387	0.0113543
714.465	0.0111565
714.543	0.0112429
714.621	0.0114902
714.700	0.0116907
714.778	0.0120066
714.856	0.0125439
714.934	0.0131660
715.012	0.0138500
715.090	0.0144279
715.168	0.0150269
715.246	0.0154430
715.325	0.0159334
715.403	0.0160991
715.481	0.0160896
715.559	0.0160408
715.637	0.0161078
715.715	0.0158463
715.793	0.0158839
715.871	0.0157185
715.950	0.0153230
716.028	0.0151294
716.106	0.0148590
716.184	0.0145325
716.262	0.0140536
716.340	0.0138849
716.418	0.0134740
716.496	0.0131860
716.575	0.0130614
716.653	0.0129802
716.731	0.0131293
716.809	0.0131721
716.887	0.0134245
716.965	0.0134296
717.043	0.0137369
717.121	0.0138883
717.200	0.0138413
717.278	0.0140939
717.356	0.0142291
717.434	0.0142137
717.512	0.0143690
717.590	0.0143668
717.668	0.0143675
717.746	0.0142828
717.825	0.0143409
717.903	0.0143905
717.981	0.0142681
718.059	0.0143560
718.137	0.0143838
718.215	0.0144550
718.293	0.0145390
718.371	0.0144666
718.450	0.0146764
718.528	0.0145550
718.606	0.0144357
718.684	0.0144983
718.762	0.0145222
718.840	0.0146145
718.918	0.0145498
718.996	0.0144402
719.075	0.0145808
719.153	0.0144334
719.231	0.0145040
719.309	0.0143176
719.387	0.0141437
719.465	0.0140081
719.543	0.0137550
719.621	0.0136022
719.700	0.0133841
719.778	0.0130772
719.856	0.0129318
719.934	0.0127007
720.012	0.0126295
720.090	0.0128091
720.168	0.0129338
720.246	0.0131886
720.325	0.0134200
720.403	0.0137784
720.481	0.0144096
720.559	0.0149038
720.637	0.0151313
720.715	0.0154232
720.793	0.0158072
720.871	0.0159415
720.950	0.0159615
721.028	0.0157720
721.106	0.0155518
721.184	0.0153126
721.262	0.0150602
721.340	0.0145520
721.418	0.0140478
721.496	0.0139209
721.575	0.0136314
721.653	0.0135104
721.731	0.0131409
721.809	0.0129476
721.887	0.0128402
721.965	0.0125092
722.043	0.0124833
722.121	0.0123586
722.200	0.0123172
722.278	0.0124407
722.356	0.0126813
722.434	0.0127993
722.512	0.0130629
722.590	0.0134368
722.668	0.0138667
722.746	0.0140981
722.825	0.0145253
722.903	0.0150230
722.981	0.0154346
723.059	0.0158285
723.137	0.0161486
723.215	0.0164965
723.293	0.0166251
723.371	0.0167632
723.450	0.0166355
723.528	0.0164198
723.606	0.0159919
723.684	0.0154832
723.762	0.0150292
723.840	0.0143011
723.918	0.0138622
723.996	0.0131845
724.075	0.0127023
724.153	0.0123284
724.231	0.0121101
724.309	0.0118845
724.387	0.0117028
724.465	0.0116473
724.543	0.0118468
724.621	0.0122340
724.700	0.0125880
724.778	0.0128532
724.856	0.0134756
724.934	0.0140075
725.012	0.0144614
725.090	0.0151373
725.168	0.0152101
725.246	0.0156898
725.325	0.0162298
725.403	0.0162358
725.481	0.0163018
725.559	0.0164038
725.637	0.0163135
725.715	0.0159622
725.793	0.0155127
725.871	0.0152387
725.950	0.0148179
726.028	0.0141858
726.106	0.0138604
726.184	0.0133517
726.262	0.0129734
726.340	0.0125725
726.418	0.0123396
726.496	0.0121347
726.575	0.0120950
726.653	0.0120862
726.731	0.0121178
726.809	0.0124533
726.887	0.0126612
726.965	0.0129468
727.043	0.0132859
727.121	0.0137708
727.200	0.0141029
727.278	0.0146117
727.356	0.0149922
727.434	0.0154517
727.512	0.0158656
727.590	0.0163954
727.668	0.0166709
727.746	0.0166191
727.825	0.0167416
727.903	0.0166484
727.981	0.0163122
728.059	0.0159293
728.137	0.0155418
728.215	0.0148523
728.293	0.0143384
728.371	0.0136568
728.450	0.0131988
728.528	0.0127255
728.606	0.0123174
728.684	0.0118578
728.762	0.0115813
728.840	0.0113785
728.918	0.0113241
728.996	0.0114511
729.075	0.0116491
729.153	0.0121132
729.231	0.0126237
729.309	0.0130656
729.387	0.0135307
729.465	0.0140385
729.543	0.0147239
729.621	0.0151497
729.700	0.0154548
729.778	0.0158813
729.856	0.0161317
729.934	0.0163555
730.012	0.0163791
730.090	0.0164639
730.168	0.0162689
730.246	0.0161428
730.325	0.0159355
730.403	0.0156745
730.481	0.0153197
730.559	0.0148210
730.637	0.0144547
730.715	0.0141522
730.793	0.0135642
730.871	0.0132417
730.950	0.0129680
731.028	0.0124902
731.106	0.0123991
731.184	0.0122659
731.262	0.0121909
731.340	0.0121512
731.418	0.0123136
731.496	0.0125960
731.575	0.0129512
731.653	0.0131049
731.731	0.0135586
731.809	0.0140092
731.887	0.0144202
731.965	0.0150127
732.043	0.0155861
732.121	0.0158012
732.200	0.0159487
732.278	0.0162537
732.356	0.0164569
732.434	0.0163268
732.512	0.0160678
732.590	0.0159521
732.668	0.0155959
732.746	0.0151289
732.825	0.0148151
732.903	0.0145901
732.981	0.0139535
733.059	0.0136363
733.137	0.0131151
733.215	0.0127216
733.293	0.0124963
733.371	0.0123865
733.450	0.0122231
733.528	0.0121252
733.606	0.0123779
733.684	0.0127006
733.762	0.0128627
733.840	0.0130706
733.918	0.0134811
733.996	0.0137418
734.075	0.0141050
734.153	0.0142722
734.231	0.0146651
734.309	0.0149862
734.387	0.0151302
734.465	0.0155109
734.543	0.0156128
734.621	0.0155756
734.700	0.0157371
734.778	0.0156688
734.856	0.0155124
734.934	0.0156274
735.012	0.0155466
735.090	0.0153234
735.168	0.0149447
735.246	0.0147009
735.325	0.0146355
735.403	0.0143959
735.481	0.0140927
735.559	0.0139539
735.637	0.0137786
735.715	0.0134916
735.793	0.0131483
735.871	0.0131741
735.950	0.0129945
736.028	0.0128811
736.106	0.0127614
736.184	0.0127625
736.262	0.0129028
736.340	0.0130618
736.418	0.0130614
736.496	0.0133012
736.575	0.0136547
736.653	0.0137950
736.731	0.0141532
736.809	0.0144141
736.887	0.0147933
736.965	0.0149371
737.043	0.0153854
737.121	0.0155296
737.200	0.0157473
737.278	0.0158418
737.356	0.0157011
737.434	0.0158422
737.512	0.0156545
737.590	0.0154260
737.668	0.0151395
737.746	0.0149982
737.825	0.0146186
737.903	0.0143133
737.981	0.0139968
738.059	0.0138046
738.137	0.0135310
738.215	0.0132818
738.293	0.0130027
738.371	0.0128291
738.450	0.0128640
738.528	0.0128058
738.606	0.0128782
738.684	0.0130885
738.762	0.0132115
738.840	0.0134223
738.918	0.0136902
738.996	0.0138251
739.075	0.0140171
739.153	0.0143286
739.231	0.0145676
739.309	0.0148598
739.387	0.0151715
739.465	0.0151877
739.543	0.0153999
739.621	0.0154806
739.700	0.0156149
739.778	0.0156183
739.856	0.0154140
739.934	0.0151919
740.012	0.0151334
740.090	0.0149245
740.168	0.0147708
740.246	0.0143428
740.325	0.0141080
740.403	0.0138476
740.481	0.0135966
740.559	0.0133947
740.637	0.0130972
740.715	0.0128962
740.793	0.0127406
740.871	0.0126125
740.950	0.0127439
741.028	0.0128453
741.106	0.0130194
741.184	0.0130604
741.262	0.0133397
741.340	0.0137664
741.418	0.0141052
741.496	0.0144813
741.575	0.0146464
741.653	0.0151182
741.731	0.0153844
741.809	0.0155988
741.887	0.0157016
741.965	0.0157883
742.043	0.0157108
742.121	0.0157758
742.200	0.0155479
742.278	0.0152168
742.356	0.0149834
742.434	0.0147481
742.512	0.0146450
742.590	0.0142924
742.668	0.0139608
742.746	0.0136198
742.825	0.0134229
742.903	0.0131730
742.981	0.0129564
743.059	0.0128583
743.137	0.0127845
743.215	0.0127012
743.293	0.0128483
743.371	0.0130410
743.450	0.0132195
743.528	0.0132954
743.606	0.0134865
743.684	0.0138022
743.762	0.0140051
743.840	0.0142506
743.918	0.0145100
743.996	0.0146589
744.075	0.0149096
744.153	0.0149853
744.231	0.0151644
744.309	0.0153643
744.387	0.0152515
744.465	0.0152566
744.543	0.0152244
744.621	0.0152385
744.700	0.0152007
744.778	0.0150790
744.856	0.0149368
744.934	0.0147318
745.012	0.0145753
745.090	0.0142886
745.168	0.0140659
745.246	0.0137936
745.325	0.0135424
745.403	0.0133003
745.481	0.0132794
745.559	0.0130795
745.637	0.0128307
745.715	0.0128545
745.793	0.0129183
745.871	0.0128931
745.950	0.0129480
746.028	0.0130221
746.106	0.0131358
746.184	0.0134219
746.262	0.0136425
746.340	0.0139507
746.418	0.0141177
746.496	0.0144130
746.575	0.0147593
746.653	0.0149079
746.731	0.0152515
746.809	0.0151831
746.887	0.0154868
746.965	0.0153670
747.043	0.0154141
747.121	0.0153745
747.200	0.0152418
747.278	0.0151018
747.356	0.0150239
747.434	0.0148122
747.512	0.0147330
747.590	0.0144426
747.668	0.0142849
747.746	0.0141781
747.825	0.0139256
747.903	0.0136227
747.981	0.0136572
748.059	0.0134494
748.137	0.0131909
748.215	0.0132686
748.293	0.0133522
748.371	0.0132872
748.450	0.0132145
748.528	0.0133215
748.606	0.0134541
748.684	0.0134985
748.762	0.0135865
748.840	0.0138593
748.918	0.0139763
748.996	0.0141267
749.075	0.0144048
749.153	0.0145827
749.231	0.0148180
749.309	0.0148931
749.387	0.0150536
749.465	0.0151490
749.543	0.0152471
749.621	0.0152380
749.700	0.0151829
749.778	0.0150287
749.856	0.0148997
749.934	0.0147524
750.012	0.0146088
750.090	0.0144772
750.168	0.0142935
750.246	0.0140195
750.325	0.0138332
750.403	0.0136053
750.481	0.0135279
750.559	0.0132774
750.637	0.0133428
750.715	0.0132098
750.793	0.0131673
750.871	0.0131316
750.950	0.0132542
751.028	0.0133701
751.106	0.0133800
751.184	0.0136835
751.262	0.0139059
751.340	0.0140908
751.418	0.0143555
751.496	0.0145356
751.575	0.0146640
751.653	0.0147776
751.731	0.0149644
751.809	0.0151025
751.887	0.0150237
751.965	0.0151860
752.043	0.0151802
752.121	0.0150138
752.200	0.0150275
752.278	0.0151505
752.356	0.0149257
752.434	0.0146588
752.512	0.0144572
752.590	0.0142122
752.668	0.0141460
752.746	0.0139435
752.825	0.0137432
752.903	0.0137373
752.981	0.0135740
753.059	0.0134158
753.137	0.0134028
753.215	0.0134595
753.293	0.0134136
753.371	0.0134485
753.450	0.0133587
753.528	0.0136165
753.606	0.0136733
753.684	0.0139269
753.762	0.0138421
753.840	0.0140249
753.918	0.0142565
753.996	0.0143777
754.075	0.0144070
754.153	0.0146725
754.231	0.0147915
754.309	0.0148296
754.387	0.0149464
754.465	0.0148037
754.543	0.0149051
754.621	0.0148698
754.700	0.0148022
754.778	0.0147389
754.856	0.0147023
754.934	0.0145935
755.012	0.0144818
755.090	0.0143209
755.168	0.0140683
755.246	0.0138573
755.325	0.0138944
755.403	0.0138035
755.481	0.0137968
755.559	0.0135732
755.637	0.0136330
755.715	0.0136922
755.793	0.0134875
755.871	0.0135753
755.950	0.0136337
756.028	0.0137981
756.106	0.0138056
756.184	0.0138185
756.262	0.0139607
756.340	0.0139687
756.418	0.0141167
756.496	0.0141367
756.575	0.0142306
756.653	0.0144038
756.731	0.0144982
756.809	0.0145362
756.887	0.0146770
756.965	0.0147749
757.043	0.0148273
757.121	0.0147060
757.200	0.0146365
757.278	0.0147972
757.356	0.0146767
757.434	0.0144884
757.512	0.0143549
757.590	0.0142639
757.668	0.0143369
757.746	0.0141226
757.825	0.0139978
757.903	0.0139423
757.981	0.0138635
758.059	0.0138411
758.137	0.0137481
758.215	0.0136400
758.293	0.0134650
758.371	0.0135313
758.450	0.0135598
758.528	0.0137659
758.606	0.0136935
758.684	0.0138130
758.762	0.0139794
758.840	0.0141537
758.918	0.0141890
758.996	0.0143307
759.075	0.0144195
759.153	0.0145732
759.231	0.0146816
759.309	0.0147036
759.387	0.0145901
759.465	0.0147525
759.543	0.0149208
759.621	0.0146809
759.700	0.0146954
759.778	0.0147990
759.856	0.0146784
759.934	0.0143894
760.012	0.0144536
760.090	0.0144349
760.168	0.0142316
760.246	0.0141975
760.325	0.0139832
760.403	0.0139705
760.481	0.0138189
760.559	0.0137489
760.637	0.0136414
760.715	0.0135955
760.793	0.0136594
760.871	0.0137540
760.950	0.0136063
761.028	0.0137669
761.106	0.0138542
761.184	0.0140312
761.262	0.0140588
761.340	0.0140553
761.418	0.0141787
761.496	0.0144268
761.575	0.0144550
761.653	0.0146358
761.731	0.0145820
761.809	0.0146518
761.887	0.0146035
761.965	0.0147951
762.043	0.0149001
762.121	0.0147630
762.200	0.0146407
762.278	0.0148127
762.356	0.0147073
762.434	0.0143960
762.512	0.0143761
762.590	0.0143436
762.668	0.0142580
762.746	0.0141312
762.825	0.0140450
762.903	0.0141501
762.981	0.0138577
763.059	0.0138303
763.137	0.0137929
763.215	0.0136961
763.293	0.0136538
763.371	0.0137305
763.450	0.0138943
763.528	0.0138356
763.606	0.0138227
763.684	0.0138744
763.762	0.0140214
763.840	0.0141093
763.918	0.0141085
763.996	0.0143282
764.075	0.0143819
764.153	0.0143666
764.231	0.0143716
764.309	0.0145360
764.387	0.0146199
764.465	0.0144369
764.543	0.0146246
764.621	0.0146130
764.700	0.0146308
