05/04/2022	21:04:22	Ver.	4.1	UNKNOWN
Optical Delay	678.996401	Delta X		0.078125	Sweeps	1	Scan Rate	0/0
Coordinates	Axis 1	NaN	Axis 2	NaN	Axis 3	NaN	Axis 4	NaN	Axis 5	NaN	Axis 6	0.000000
TX Power	0.000000	RX Power	0.000000

678.996	0.0141852
679.075	0.0141470
679.153	0.0142077
679.231	0.0141920
679.309	0.0141691
679.387	0.0142573
679.465	0.0143292
679.543	0.0142063
679.621	0.0142075
679.700	0.0141674
679.778	0.0142658
679.856	0.0141759
679.934	0.0141286
680.012	0.0140034
680.090	0.0140096
680.168	0.0141021
680.246	0.0141212
680.325	0.0141097
680.403	0.0142850
680.481	0.0142808
680.559	0.0140691
680.637	0.0142194
680.715	0.0142023
680.793	0.0140850
680.871	0.0143310
680.950	0.0141064
681.028	0.0142496
681.106	0.0141784
681.184	0.0142021
681.262	0.0141875
681.340	0.0143085
681.418	0.0142059
681.496	0.0141341
681.575	0.0142003
681.653	0.0143019
681.731	0.0142469
681.809	0.0141032
681.887	0.0141035
681.965	0.0142625
682.043	0.0142770
682.121	0.0142323
682.200	0.0141478
682.278	0.0142639
682.356	0.0141964
682.434	0.0141564
682.512	0.0141833
682.590	0.0142455
682.668	0.0142189
682.746	0.0142485
682.825	0.0142030
682.903	0.0141545
682.981	0.0142706
683.059	0.0143359
683.137	0.0142508
683.215	0.0143420
683.293	0.0142743
683.371	0.0143570
683.450	0.0142788
683.528	0.0141785
683.606	0.0143516
683.684	0.0143829
683.762	0.0142079
683.840	0.0141468
683.918	0.0143060
683.996	0.0142884
684.075	0.0141475
684.153	0.0141000
684.231	0.0143187
684.309	0.0143629
684.387	0.0142474
684.465	0.0143207
684.543	0.0142365
684.621	0.0142365
684.700	0.0141166
684.778	0.0142810
684.856	0.0142007
684.934	0.0143301
685.012	0.0143073
685.090	0.0142449
685.168	0.0141463
685.246	0.0142759
685.325	0.0142593
685.403	0.0141477
685.481	0.0142524
685.559	0.0143610
685.637	0.0143254
685.715	0.0141952
685.793	0.0142236
685.871	0.0141224
685.950	0.0142039
686.028	0.0142087
686.106	0.0142098
686.184	0.0142368
686.262	0.0143537
686.340	0.0142907
686.418	0.0142986
686.496	0.0141786
686.575	0.0142108
686.653	0.0141319
686.731	0.0141613
686.809	0.0143053
686.887	0.0140861
686.965	0.0141388
687.043	0.0142165
687.121	0.0141209
687.200	0.0141413
687.278	0.0143391
687.356	0.0143550
687.434	0.0141262
687.512	0.0142518
687.590	0.0141638
687.668	0.0143423
687.746	0.0141728
687.825	0.0141463
687.903	0.0142061
687.981	0.0141340
688.059	0.0141844
688.137	0.0141634
688.215	0.0141313
688.293	0.0142824
688.371	0.0143325
688.450	0.0142216
688.528	0.0141372
688.606	0.0141117
688.684	0.0141501
688.762	0.0141644
688.840	0.0141537
688.918	0.0142628
688.996	0.0141332
689.075	0.0142345
689.153	0.0143366
689.231	0.0142690
689.309	0.0141624
689.387	0.0142363
689.465	0.0142408
689.543	0.0141474
689.621	0.0142167
689.700	0.0141911
689.778	0.0141102
689.856	0.0142156
689.934	0.0141656
690.012	0.0141358
690.090	0.0142973
690.168	0.0142520
690.246	0.0141234
690.325	0.0142149
690.403	0.0141883
690.481	0.0142306
690.559	0.0141769
690.637	0.0142182
690.715	0.0142101
690.793	0.0140079
690.871	0.0141214
690.950	0.0142338
691.028	0.0142730
691.106	0.0141394
691.184	0.0141246
691.262	0.0143053
691.340	0.0142800
691.418	0.0142059
691.496	0.0142390
691.575	0.0142659
691.653	0.0143127
691.731	0.0141781
691.809	0.0143261
691.887	0.0141076
691.965	0.0143426
692.043	0.0142344
692.121	0.0141406
692.200	0.0141629
692.278	0.0141655
692.356	0.0141896
692.434	0.0141807
692.512	0.0142542
692.590	0.0142404
692.668	0.0142265
692.746	0.0142157
692.825	0.0141331
692.903	0.0140202
692.981	0.0140820
693.059	0.0140617
693.137	0.0141193
693.215	0.0141665
693.293	0.0141094
693.371	0.0142135
693.450	0.0142789
693.528	0.0143591
693.606	0.0142998
693.684	0.0142523
693.762	0.0140449
693.840	0.0141941
693.918	0.0142733
693.996	0.0141882
694.075	0.0142181
694.153	0.0142838
694.231	0.0141444
694.309	0.0143032
694.387	0.0143717
694.465	0.0142316
694.543	0.0141611
694.621	0.0143092
694.700	0.0143469
694.778	0.0142178
694.856	0.0142561
694.934	0.0141557
695.012	0.0142516
695.090	0.0141805
695.168	0.0141943
695.246	0.0142059
695.325	0.0141946
695.403	0.0143253
695.481	0.0142957
695.559	0.0140781
695.637	0.0141675
695.715	0.0142550
695.793	0.0141547
695.871	0.0142427
695.950	0.0143239
696.028	0.0141797
696.106	0.0142664
696.184	0.0141508
696.262	0.0143322
696.340	0.0142226
696.418	0.0141417
696.496	0.0143350
696.575	0.0142199
696.653	0.0143253
696.731	0.0142962
696.809	0.0141975
696.887	0.0141315
696.965	0.0142896
697.043	0.0142110
697.121	0.0142090
697.200	0.0142215
697.278	0.0141865
697.356	0.0142574
697.434	0.0143559
697.512	0.0142572
697.590	0.0142546
697.668	0.0142310
697.746	0.0141916
697.825	0.0142598
697.903	0.0142944
697.981	0.0143932
698.059	0.0141029
698.137	0.0142024
698.215	0.0141577
698.293	0.0141748
698.371	0.0141346
698.450	0.0143250
698.528	0.0144106
698.606	0.0141656
698.684	0.0141111
698.762	0.0141946
698.840	0.0142252
698.918	0.0142769
698.996	0.0142839
699.075	0.0141985
699.153	0.0142079
699.231	0.0142519
699.309	0.0141679
699.387	0.0143163
699.465	0.0142158
699.543	0.0143232
699.621	0.0142448
699.700	0.0143291
699.778	0.0141720
699.856	0.0142371
699.934	0.0140442
700.012	0.0141865
700.090	0.0141821
700.168	0.0142590
700.246	0.0141361
700.325	0.0140798
700.403	0.0142069
700.481	0.0141507
700.559	0.0142666
700.637	0.0141276
700.715	0.0141767
700.793	0.0141880
700.871	0.0142044
700.950	0.0140968
701.028	0.0141816
701.106	0.0142712
701.184	0.0141516
701.262	0.0142389
701.340	0.0142737
701.418	0.0143076
701.496	0.0142610
701.575	0.0142001
701.653	0.0141507
701.731	0.0141607
701.809	0.0141585
701.887	0.0142017
701.965	0.0141482
702.043	0.0141600
702.121	0.0142452
702.200	0.0142333
702.278	0.0141288
702.356	0.0142296
702.434	0.0141572
702.512	0.0141860
702.590	0.0141524
702.668	0.0141918
702.746	0.0140697
702.825	0.0140202
702.903	0.0140643
702.981	0.0142077
703.059	0.0141164
703.137	0.0142975
703.215	0.0142463
703.293	0.0141873
703.371	0.0141920
703.450	0.0141885
703.528	0.0143278
703.606	0.0142130
703.684	0.0143595
703.762	0.0143492
703.840	0.0141965
703.918	0.0143036
703.996	0.0144428
704.075	0.0144423
704.153	0.0144427
704.231	0.0145692
704.309	0.0142928
704.387	0.0145103
704.465	0.0144341
704.543	0.0143432
704.621	0.0142632
704.700	0.0140971
704.778	0.0138779
704.856	0.0137524
704.934	0.0137364
705.012	0.0137010
705.090	0.0137391
705.168	0.0135490
705.246	0.0136215
705.325	0.0135719
705.403	0.0135958
705.481	0.0136575
705.559	0.0137031
705.637	0.0137704
705.715	0.0139455
705.793	0.0142574
705.871	0.0143745
705.950	0.0147431
706.028	0.0149456
706.106	0.0151578
706.184	0.0154786
706.262	0.0156519
706.340	0.0156934
706.418	0.0156941
706.496	0.0153316
706.575	0.0150346
706.653	0.0144171
706.731	0.0141049
706.809	0.0136755
706.887	0.0133872
706.965	0.0130807
707.043	0.0129815
707.121	0.0129015
707.200	0.0128732
707.278	0.0126978
707.356	0.0127612
707.434	0.0130493
707.512	0.0132282
707.590	0.0133737
707.668	0.0136180
707.746	0.0138541
707.825	0.0142008
707.903	0.0146320
707.981	0.0151829
708.059	0.0155421
708.137	0.0158891
708.215	0.0161548
708.293	0.0161029
708.371	0.0161532
708.450	0.0159942
708.528	0.0157667
708.606	0.0154488
708.684	0.0150860
708.762	0.0146775
708.840	0.0141689
708.918	0.0137849
708.996	0.0135332
709.075	0.0131390
709.153	0.0128395
709.231	0.0126877
709.309	0.0126295
709.387	0.0123772
709.465	0.0122119
709.543	0.0122721
709.621	0.0122648
709.700	0.0120925
709.778	0.0120116
709.856	0.0123808
709.934	0.0127954
710.012	0.0129582
710.090	0.0135812
710.168	0.0144056
710.246	0.0147913
710.325	0.0153606
710.403	0.0158165
710.481	0.0161711
710.559	0.0167250
710.637	0.0169083
710.715	0.0169275
710.793	0.0171488
710.871	0.0171179
710.950	0.0169865
711.028	0.0164610
711.106	0.0158731
711.184	0.0152600
711.262	0.0144994
711.340	0.0138406
711.418	0.0130161
711.496	0.0123858
711.575	0.0118620
711.653	0.0114486
711.731	0.0109483
711.809	0.0107913
711.887	0.0106344
711.965	0.0107504
712.043	0.0110352
712.121	0.0116127
712.200	0.0122682
712.278	0.0130370
712.356	0.0140344
712.434	0.0149486
712.512	0.0157561
712.590	0.0163824
712.668	0.0170644
712.746	0.0173090
712.825	0.0175565
712.903	0.0177698
712.981	0.0177493
713.059	0.0175813
713.137	0.0173029
713.215	0.0169101
713.293	0.0161607
713.371	0.0155535
713.450	0.0147628
713.528	0.0140850
713.606	0.0130404
713.684	0.0125798
713.762	0.0121810
713.840	0.0119184
713.918	0.0116953
713.996	0.0114485
714.075	0.0114388
714.153	0.0114907
714.231	0.0115411
714.309	0.0117783
714.387	0.0120762
714.465	0.0122562
714.543	0.0128963
714.621	0.0135031
714.700	0.0139874
714.778	0.0144735
714.856	0.0149253
714.934	0.0154011
715.012	0.0157731
715.090	0.0159660
715.168	0.0160929
715.246	0.0161243
715.325	0.0160529
715.403	0.0159103
715.481	0.0157013
715.559	0.0156712
715.637	0.0153889
715.715	0.0150709
715.793	0.0147099
715.871	0.0143439
715.950	0.0139558
716.028	0.0137444
716.106	0.0136215
716.184	0.0134999
716.262	0.0133795
716.340	0.0135683
716.418	0.0133907
716.496	0.0134789
716.575	0.0134705
716.653	0.0135785
716.731	0.0138194
716.809	0.0138033
716.887	0.0138842
716.965	0.0138409
717.043	0.0139983
717.121	0.0138058
717.200	0.0138110
717.278	0.0140863
717.356	0.0140649
717.434	0.0141323
717.512	0.0142835
717.590	0.0142433
717.668	0.0145169
717.746	0.0145420
717.825	0.0147675
717.903	0.0148841
717.981	0.0148697
718.059	0.0148349
718.137	0.0148407
718.215	0.0147652
718.293	0.0147246
718.371	0.0147282
718.450	0.0147546
718.528	0.0146502
718.606	0.0146857
718.684	0.0143512
718.762	0.0144449
718.840	0.0144225
718.918	0.0142233
718.996	0.0139265
719.075	0.0138831
719.153	0.0135593
719.231	0.0133469
719.309	0.0130858
719.387	0.0130555
719.465	0.0129793
719.543	0.0128889
719.621	0.0127123
719.700	0.0128024
719.778	0.0128602
719.856	0.0131768
719.934	0.0135440
720.012	0.0137962
720.090	0.0141612
720.168	0.0144984
720.246	0.0151438
720.325	0.0155479
720.403	0.0158721
720.481	0.0159990
720.559	0.0160806
720.637	0.0159609
720.715	0.0159371
720.793	0.0156573
720.871	0.0151382
720.950	0.0148072
721.028	0.0144293
721.106	0.0139810
721.184	0.0137340
721.262	0.0133798
721.340	0.0129340
721.418	0.0128352
721.496	0.0125768
721.575	0.0123031
721.653	0.0124005
721.731	0.0123016
721.809	0.0123180
721.887	0.0123750
721.965	0.0125737
722.043	0.0127524
722.121	0.0133007
722.200	0.0133293
722.278	0.0138419
722.356	0.0142117
722.434	0.0147195
722.512	0.0150151
722.590	0.0154659
722.668	0.0159186
722.746	0.0161286
722.825	0.0162395
722.903	0.0164462
722.981	0.0167496
723.059	0.0166367
723.137	0.0164037
723.215	0.0160466
723.293	0.0156001
723.371	0.0151254
723.450	0.0146132
723.528	0.0139861
723.606	0.0136301
723.684	0.0129193
723.762	0.0124239
723.840	0.0120827
723.918	0.0118671
723.996	0.0117781
724.075	0.0117272
724.153	0.0117481
724.231	0.0121220
724.309	0.0124530
724.387	0.0127878
724.465	0.0133405
724.543	0.0139213
724.621	0.0146085
724.700	0.0151428
724.778	0.0154720
724.856	0.0159605
724.934	0.0162151
725.012	0.0164394
725.090	0.0164153
725.168	0.0163818
725.246	0.0161721
725.325	0.0158911
725.403	0.0155642
725.481	0.0150087
725.559	0.0145904
725.637	0.0142322
725.715	0.0136739
725.793	0.0133128
725.871	0.0128954
725.950	0.0125629
726.028	0.0122789
726.106	0.0122590
726.184	0.0122149
726.262	0.0121897
726.340	0.0123302
726.418	0.0126938
726.496	0.0129613
726.575	0.0132114
726.653	0.0135499
726.731	0.0140272
726.809	0.0142532
726.887	0.0146674
726.965	0.0151443
727.043	0.0153847
727.121	0.0158387
727.200	0.0161374
727.278	0.0162549
727.356	0.0164014
727.434	0.0165487
727.512	0.0164901
727.590	0.0162368
727.668	0.0160207
727.746	0.0156002
727.825	0.0150941
727.903	0.0145766
727.981	0.0140210
728.059	0.0134002
728.137	0.0128523
728.215	0.0124173
728.293	0.0118871
728.371	0.0116398
728.450	0.0114067
728.528	0.0112605
728.606	0.0112197
728.684	0.0116699
728.762	0.0120129
728.840	0.0123373
728.918	0.0129343
728.996	0.0137179
729.075	0.0140273
729.153	0.0146755
729.231	0.0152843
729.309	0.0158980
729.387	0.0160837
729.465	0.0163560
729.543	0.0166046
729.621	0.0166955
729.700	0.0166096
729.778	0.0164281
729.856	0.0162329
729.934	0.0159691
730.012	0.0157182
730.090	0.0151276
730.168	0.0146148
730.246	0.0144128
730.325	0.0137036
730.403	0.0134437
730.481	0.0130770
730.559	0.0128159
730.637	0.0126498
730.715	0.0124534
730.793	0.0123940
730.871	0.0123592
730.950	0.0123763
731.028	0.0125787
731.106	0.0126339
731.184	0.0128058
731.262	0.0131629
731.340	0.0135702
731.418	0.0139407
731.496	0.0143627
731.575	0.0147533
731.653	0.0152171
731.731	0.0156242
731.809	0.0157683
731.887	0.0160394
731.965	0.0161175
732.043	0.0160413
732.121	0.0160920
732.200	0.0158144
732.278	0.0157561
732.356	0.0153829
732.434	0.0150575
732.512	0.0147083
732.590	0.0143324
732.668	0.0138562
732.746	0.0134885
732.825	0.0129386
732.903	0.0127848
732.981	0.0123888
733.059	0.0122169
733.137	0.0121252
733.215	0.0122002
733.293	0.0125586
733.371	0.0126287
733.450	0.0127695
733.528	0.0132719
733.606	0.0135880
733.684	0.0138341
733.762	0.0143465
733.840	0.0145403
733.918	0.0148609
733.996	0.0151721
734.075	0.0153792
734.153	0.0154070
734.231	0.0156017
734.309	0.0157853
734.387	0.0155734
734.465	0.0156973
734.543	0.0155128
734.621	0.0154910
734.700	0.0152404
734.778	0.0149895
734.856	0.0146429
734.934	0.0146231
735.012	0.0143365
735.090	0.0142030
735.168	0.0139771
735.246	0.0137296
735.325	0.0135429
735.403	0.0134497
735.481	0.0132626
735.559	0.0130903
735.637	0.0129906
735.715	0.0130048
735.793	0.0127206
735.871	0.0126592
735.950	0.0127721
736.028	0.0130485
736.106	0.0131146
736.184	0.0131496
736.262	0.0136569
736.340	0.0138523
736.418	0.0142111
736.496	0.0145623
736.575	0.0146818
736.653	0.0150700
736.731	0.0153518
736.809	0.0157666
736.887	0.0157832
736.965	0.0158119
737.043	0.0159112
737.121	0.0158807
737.200	0.0156886
737.278	0.0155029
737.356	0.0151100
737.434	0.0147752
737.512	0.0142724
737.590	0.0140436
737.668	0.0137490
737.746	0.0134283
737.825	0.0128832
737.903	0.0129140
737.981	0.0129269
738.059	0.0126418
738.137	0.0126528
738.215	0.0127966
738.293	0.0128049
738.371	0.0130457
738.450	0.0132390
738.528	0.0135358
738.606	0.0138510
738.684	0.0140856
738.762	0.0142563
738.840	0.0146581
738.918	0.0149166
738.996	0.0149275
739.075	0.0151218
739.153	0.0154424
739.231	0.0154407
739.309	0.0153506
739.387	0.0154656
739.465	0.0152715
739.543	0.0151123
739.621	0.0150033
739.700	0.0148243
739.778	0.0145892
739.856	0.0142419
739.934	0.0141936
740.012	0.0138395
740.090	0.0135764
740.168	0.0132643
740.246	0.0130207
740.325	0.0129871
740.403	0.0128540
740.481	0.0127423
740.559	0.0127649
740.637	0.0127056
740.715	0.0128500
740.793	0.0130500
740.871	0.0133297
740.950	0.0136142
741.028	0.0140076
741.106	0.0143240
741.184	0.0146716
741.262	0.0148795
741.340	0.0150929
741.418	0.0155943
741.496	0.0156124
741.575	0.0157098
741.653	0.0157364
741.731	0.0157485
741.809	0.0155482
741.887	0.0155958
741.965	0.0154105
742.043	0.0149427
742.121	0.0148943
742.200	0.0144871
742.278	0.0141932
742.356	0.0137046
742.434	0.0135995
742.512	0.0133899
742.590	0.0130167
742.668	0.0128410
742.746	0.0128691
742.825	0.0127843
742.903	0.0126864
742.981	0.0126677
743.059	0.0129578
743.137	0.0131472
743.215	0.0133172
743.293	0.0135697
743.371	0.0138894
743.450	0.0140995
743.528	0.0142408
743.606	0.0145731
743.684	0.0146938
743.762	0.0149171
743.840	0.0149814
743.918	0.0151557
743.996	0.0151981
744.075	0.0152985
744.153	0.0152527
744.231	0.0152833
744.309	0.0152361
744.387	0.0151959
744.465	0.0150520
744.543	0.0147929
744.621	0.0147559
744.700	0.0145058
744.778	0.0141749
744.856	0.0140729
744.934	0.0137433
745.012	0.0134247
745.090	0.0132352
745.168	0.0130379
745.246	0.0131042
745.325	0.0130385
745.403	0.0128172
745.481	0.0130224
745.559	0.0128677
745.637	0.0129664
745.715	0.0129817
745.793	0.0133463
745.871	0.0134288
745.950	0.0136623
746.028	0.0139207
746.106	0.0142360
746.184	0.0144507
746.262	0.0146350
746.340	0.0150042
746.418	0.0150828
746.496	0.0152706
746.575	0.0153678
746.653	0.0154028
746.731	0.0154718
746.809	0.0153817
746.887	0.0153281
746.965	0.0151495
747.043	0.0149067
747.121	0.0147087
747.200	0.0146297
747.278	0.0143032
747.356	0.0141565
747.434	0.0137859
747.512	0.0136528
747.590	0.0135397
747.668	0.0134946
747.746	0.0132980
747.825	0.0132820
747.903	0.0132516
747.981	0.0131353
748.059	0.0131271
748.137	0.0129695
748.215	0.0131976
748.293	0.0133869
748.371	0.0135818
748.450	0.0138164
748.528	0.0138935
748.606	0.0140549
748.684	0.0142982
748.762	0.0144137
748.840	0.0146170
748.918	0.0148305
748.996	0.0148166
749.075	0.0151017
749.153	0.0150478
749.231	0.0152563
749.309	0.0150346
749.387	0.0149861
749.465	0.0149728
749.543	0.0147747
749.621	0.0146588
749.700	0.0145154
749.778	0.0144192
749.856	0.0142256
749.934	0.0140496
750.012	0.0137879
750.090	0.0136146
750.168	0.0135828
750.246	0.0134190
750.325	0.0131828
750.403	0.0132432
750.481	0.0130048
750.559	0.0133081
750.637	0.0134024
750.715	0.0133487
750.793	0.0136463
750.871	0.0138676
750.950	0.0139690
751.028	0.0142052
751.106	0.0142910
751.184	0.0144741
751.262	0.0146868
751.340	0.0147421
751.418	0.0149619
751.496	0.0150603
751.575	0.0150959
751.653	0.0149181
751.731	0.0151034
751.809	0.0151326
751.887	0.0150031
751.965	0.0147557
752.043	0.0148372
752.121	0.0147916
752.200	0.0144781
752.278	0.0143438
752.356	0.0141586
752.434	0.0140884
752.512	0.0139198
752.590	0.0137367
752.668	0.0135106
752.746	0.0135662
752.825	0.0133759
752.903	0.0134252
752.981	0.0134842
753.059	0.0134270
753.137	0.0134214
753.215	0.0136076
753.293	0.0137177
753.371	0.0139602
753.450	0.0140197
753.528	0.0141363
753.606	0.0142696
753.684	0.0143505
753.762	0.0145817
753.840	0.0145309
753.918	0.0147076
753.996	0.0148200
754.075	0.0148151
754.153	0.0149236
754.231	0.0148372
754.309	0.0147304
754.387	0.0148707
754.465	0.0147842
754.543	0.0145323
754.621	0.0145823
754.700	0.0144404
754.778	0.0142639
754.856	0.0142797
754.934	0.0141528
755.012	0.0139080
755.090	0.0139342
755.168	0.0137654
755.246	0.0137772
755.325	0.0136401
755.403	0.0135503
755.481	0.0135882
755.559	0.0137598
755.637	0.0138615
755.715	0.0137541
755.793	0.0138293
755.871	0.0139315
755.950	0.0139035
756.028	0.0140488
756.106	0.0141536
756.184	0.0143137
756.262	0.0144360
756.340	0.0144392
756.418	0.0144017
756.496	0.0146284
756.575	0.0146785
756.653	0.0146106
756.731	0.0146827
756.809	0.0146500
756.887	0.0147449
756.965	0.0146595
757.043	0.0145998
757.121	0.0145860
757.200	0.0144922
757.278	0.0143922
757.356	0.0142108
757.434	0.0142027
757.512	0.0140447
757.590	0.0137640
757.668	0.0137128
757.746	0.0136841
757.825	0.0135126
757.903	0.0135271
757.981	0.0136918
758.059	0.0135928
758.137	0.0137019
758.215	0.0137390
758.293	0.0137466
758.371	0.0138832
758.450	0.0141862
758.528	0.0141434
758.606	0.0142403
758.684	0.0142688
758.762	0.0144672
758.840	0.0144696
758.918	0.0145655
758.996	0.0147224
759.075	0.0146525
759.153	0.0147123
759.231	0.0146673
759.309	0.0146937
759.387	0.0146726
759.465	0.0146696
759.543	0.0144788
759.621	0.0145245
759.700	0.0142770
759.778	0.0142297
759.856	0.0141171
759.934	0.0139970
760.012	0.0140160
760.090	0.0140125
760.168	0.0139771
760.246	0.0137117
760.325	0.0137432
760.403	0.0136061
760.481	0.0136684
760.559	0.0137912
760.637	0.0137029
760.715	0.0137534
760.793	0.0139401
760.871	0.0140092
760.950	0.0140277
761.028	0.0141570
761.106	0.0143374
761.184	0.0143969
761.262	0.0144775
761.340	0.0145619
761.418	0.0144991
761.496	0.0145893
761.575	0.0146908
761.653	0.0149163
761.731	0.0147919
761.809	0.0147321
761.887	0.0146544
761.965	0.0145214
762.043	0.0145698
762.121	0.0145181
762.200	0.0144479
762.278	0.0142245
762.356	0.0141512
762.434	0.0139099
762.512	0.0140742
762.590	0.0140185
762.668	0.0138041
762.746	0.0136895
762.825	0.0138364
762.903	0.0137204
762.981	0.0137167
763.059	0.0137520
763.137	0.0136981
763.215	0.0137626
763.293	0.0139049
763.371	0.0139229
763.450	0.0139757
763.528	0.0140462
763.606	0.0143157
763.684	0.0142683
763.762	0.0142265
763.840	0.0143327
763.918	0.0144456
763.996	0.0145965
764.075	0.0145118
764.153	0.0145006
764.231	0.0145625
764.309	0.0144662
764.387	0.0146182
764.465	0.0145919
764.543	0.0144750
764.621	0.0145953
764.700	0.0143999
