05/04/2022	20:47:56	Ver.	4.1	UNKNOWN
Optical Delay	679.003072	Delta X		0.078125	Sweeps	1	Scan Rate	0/0
Coordinates	Axis 1	NaN	Axis 2	NaN	Axis 3	NaN	Axis 4	NaN	Axis 5	NaN	Axis 6	0.000000
TX Power	0.000000	RX Power	0.000000

679.003	0.0141575
679.081	0.0140931
679.159	0.0141506
679.237	0.0140871
679.316	0.0141403
679.394	0.0142251
679.472	0.0140004
679.550	0.0141107
679.628	0.0142062
679.706	0.0141286
679.784	0.0141118
679.862	0.0141307
679.941	0.0141629
680.019	0.0141081
680.097	0.0141919
680.175	0.0143095
680.253	0.0140427
680.331	0.0142546
680.409	0.0140549
680.487	0.0141379
680.566	0.0142308
680.644	0.0141713
680.722	0.0141183
680.800	0.0140452
680.878	0.0140712
680.956	0.0142719
681.034	0.0141701
681.112	0.0140662
681.191	0.0140915
681.269	0.0141875
681.347	0.0141648
681.425	0.0140195
681.503	0.0141233
681.581	0.0140974
681.659	0.0140194
681.737	0.0140344
681.816	0.0140722
681.894	0.0140525
681.972	0.0141610
682.050	0.0140841
682.128	0.0141834
682.206	0.0140735
682.284	0.0141049
682.362	0.0140382
682.441	0.0140933
682.519	0.0142398
682.597	0.0141926
682.675	0.0141601
682.753	0.0141931
682.831	0.0140888
682.909	0.0139700
682.987	0.0141277
683.066	0.0141912
683.144	0.0141761
683.222	0.0140807
683.300	0.0141218
683.378	0.0141259
683.456	0.0140564
683.534	0.0140120
683.612	0.0141342
683.691	0.0141132
683.769	0.0140240
683.847	0.0141028
683.925	0.0141914
684.003	0.0140479
684.081	0.0142539
684.159	0.0139005
684.237	0.0140448
684.316	0.0141130
684.394	0.0142384
684.472	0.0140717
684.550	0.0141409
684.628	0.0140960
684.706	0.0140783
684.784	0.0140894
684.862	0.0141191
684.941	0.0141991
685.019	0.0140828
685.097	0.0141113
685.175	0.0141237
685.253	0.0140389
685.331	0.0141068
685.409	0.0140878
685.487	0.0139435
685.566	0.0140963
685.644	0.0142048
685.722	0.0141480
685.800	0.0141603
685.878	0.0140585
685.956	0.0141264
686.034	0.0140618
686.112	0.0141347
686.191	0.0141323
686.269	0.0143089
686.347	0.0142740
686.425	0.0141805
686.503	0.0141498
686.581	0.0141244
686.659	0.0141007
686.737	0.0141541
686.816	0.0142363
686.894	0.0142023
686.972	0.0141135
687.050	0.0141036
687.128	0.0142078
687.206	0.0141549
687.284	0.0140668
687.362	0.0141277
687.441	0.0141568
687.519	0.0142692
687.597	0.0140919
687.675	0.0140328
687.753	0.0141858
687.831	0.0141542
687.909	0.0142378
687.987	0.0140142
688.066	0.0140697
688.144	0.0140950
688.222	0.0141798
688.300	0.0140924
688.378	0.0140468
688.456	0.0142057
688.534	0.0141666
688.612	0.0140637
688.691	0.0141598
688.769	0.0141333
688.847	0.0141273
688.925	0.0142584
689.003	0.0141893
689.081	0.0141174
689.159	0.0141427
689.237	0.0141680
689.316	0.0142519
689.394	0.0140956
689.472	0.0141891
689.550	0.0141610
689.628	0.0141460
689.706	0.0140127
689.784	0.0140240
689.862	0.0141928
689.941	0.0141975
690.019	0.0141759
690.097	0.0140892
690.175	0.0142280
690.253	0.0141525
690.331	0.0141970
690.409	0.0141418
690.487	0.0141534
690.566	0.0140944
690.644	0.0141739
690.722	0.0140247
690.800	0.0140314
690.878	0.0140584
690.956	0.0141392
691.034	0.0140852
691.112	0.0142491
691.191	0.0142146
691.269	0.0140991
691.347	0.0140648
691.425	0.0139657
691.503	0.0140656
691.581	0.0141732
691.659	0.0142538
691.737	0.0141766
691.816	0.0140449
691.894	0.0140888
691.972	0.0142779
692.050	0.0141826
692.128	0.0141145
692.206	0.0142178
692.284	0.0140720
692.362	0.0142320
692.441	0.0140923
692.519	0.0140332
692.597	0.0141583
692.675	0.0142430
692.753	0.0142291
692.831	0.0140804
692.909	0.0140828
692.987	0.0142275
693.066	0.0140595
693.144	0.0142332
693.222	0.0143839
693.300	0.0142855
693.378	0.0142534
693.456	0.0142648
693.534	0.0141229
693.612	0.0141988
693.691	0.0140513
693.769	0.0142274
693.847	0.0143205
693.925	0.0141329
694.003	0.0140897
694.081	0.0141420
694.159	0.0140707
694.237	0.0141167
694.316	0.0141308
694.394	0.0140911
694.472	0.0141739
694.550	0.0141496
694.628	0.0140925
694.706	0.0140420
694.784	0.0142928
694.862	0.0141956
694.941	0.0141950
695.019	0.0141825
695.097	0.0141985
695.175	0.0141306
695.253	0.0140070
695.331	0.0141609
695.409	0.0140841
695.487	0.0141349
695.566	0.0141339
695.644	0.0141808
695.722	0.0142162
695.800	0.0142280
695.878	0.0140676
695.956	0.0140396
696.034	0.0142184
696.112	0.0141784
696.191	0.0142007
696.269	0.0141767
696.347	0.0139866
696.425	0.0140490
696.503	0.0141837
696.581	0.0140282
696.659	0.0140604
696.737	0.0142815
696.816	0.0141979
696.894	0.0140765
696.972	0.0142362
697.050	0.0141501
697.128	0.0141099
697.206	0.0141062
697.284	0.0142191
697.362	0.0142063
697.441	0.0141167
697.519	0.0140453
697.597	0.0141800
697.675	0.0141049
697.753	0.0141404
697.831	0.0141722
697.909	0.0140923
697.987	0.0141035
698.066	0.0141213
698.144	0.0141300
698.222	0.0141451
698.300	0.0142275
698.378	0.0141566
698.456	0.0142756
698.534	0.0141659
698.612	0.0141239
698.691	0.0141823
698.769	0.0141068
698.847	0.0141665
698.925	0.0142494
699.003	0.0141965
699.081	0.0140978
699.159	0.0140549
699.237	0.0143313
699.316	0.0140946
699.394	0.0140851
699.472	0.0142021
699.550	0.0141890
699.628	0.0142166
699.706	0.0140997
699.784	0.0141936
699.862	0.0142265
699.941	0.0141793
700.019	0.0141710
700.097	0.0142463
700.175	0.0141175
700.253	0.0142370
700.331	0.0141050
700.409	0.0140394
700.487	0.0141096
700.566	0.0141332
700.644	0.0141322
700.722	0.0141278
700.800	0.0140357
700.878	0.0141201
700.956	0.0141797
701.034	0.0141711
701.112	0.0141586
701.191	0.0140959
701.269	0.0141123
701.347	0.0141267
701.425	0.0141515
701.503	0.0140718
701.581	0.0141038
701.659	0.0141137
701.737	0.0141621
701.816	0.0140312
701.894	0.0141785
701.972	0.0142583
702.050	0.0141123
702.128	0.0141708
702.206	0.0140749
702.284	0.0141260
702.362	0.0143282
702.441	0.0141994
702.519	0.0140363
702.597	0.0140220
702.675	0.0142675
702.753	0.0141724
702.831	0.0140152
702.909	0.0142664
702.987	0.0140624
703.066	0.0140725
703.144	0.0141875
703.222	0.0141312
703.300	0.0140579
703.378	0.0142395
703.456	0.0140814
703.534	0.0141792
703.612	0.0141426
703.691	0.0142885
703.769	0.0142457
703.847	0.0141113
703.925	0.0140958
704.003	0.0140531
704.081	0.0141368
704.159	0.0140710
704.237	0.0139825
704.316	0.0142650
704.394	0.0142793
704.472	0.0142288
704.550	0.0141799
704.628	0.0141793
704.706	0.0141126
704.784	0.0142868
704.862	0.0142857
704.941	0.0141257
705.019	0.0141076
705.097	0.0141670
705.175	0.0142709
705.253	0.0141705
705.331	0.0141129
705.409	0.0142496
705.487	0.0141328
705.566	0.0142741
705.644	0.0142579
705.722	0.0140841
705.800	0.0141170
705.878	0.0141354
705.956	0.0140005
706.034	0.0142950
706.112	0.0142251
706.191	0.0141921
706.269	0.0140653
706.347	0.0141306
706.425	0.0142738
706.503	0.0140198
706.581	0.0140388
706.659	0.0141263
706.737	0.0140750
706.816	0.0141520
706.894	0.0141418
706.972	0.0140696
707.050	0.0141457
707.128	0.0141824
707.206	0.0142085
707.284	0.0141386
707.362	0.0141238
707.441	0.0140628
707.519	0.0140500
707.597	0.0142328
707.675	0.0141250
707.753	0.0140559
707.831	0.0142589
707.909	0.0142945
707.987	0.0141914
708.066	0.0141109
708.144	0.0141660
708.222	0.0141155
708.300	0.0141897
708.378	0.0140674
708.456	0.0141245
708.534	0.0142094
708.612	0.0142421
708.691	0.0141044
708.769	0.0141902
708.847	0.0140864
708.925	0.0141944
709.003	0.0140668
709.081	0.0140882
709.159	0.0140232
709.237	0.0140657
709.316	0.0141676
709.394	0.0141019
709.472	0.0141508
709.550	0.0140952
709.628	0.0140980
709.706	0.0141361
709.784	0.0140666
709.862	0.0140349
709.941	0.0141090
710.019	0.0141919
710.097	0.0141444
710.175	0.0141445
710.253	0.0140796
710.331	0.0141015
710.409	0.0141060
710.487	0.0141827
710.566	0.0141512
710.644	0.0142021
710.722	0.0141850
710.800	0.0141315
710.878	0.0142066
710.956	0.0142976
711.034	0.0141573
711.112	0.0141557
711.191	0.0140576
711.269	0.0141158
711.347	0.0142014
711.425	0.0140795
711.503	0.0140531
711.581	0.0141113
711.659	0.0141091
711.737	0.0141720
711.816	0.0139835
711.894	0.0141158
711.972	0.0141351
712.050	0.0141049
712.128	0.0143090
712.206	0.0142578
712.284	0.0141499
712.362	0.0140433
712.441	0.0140707
712.519	0.0142152
712.597	0.0141107
712.675	0.0140997
712.753	0.0141859
712.831	0.0140740
712.909	0.0141766
712.987	0.0142401
713.066	0.0141848
713.144	0.0142023
713.222	0.0140990
713.300	0.0141505
713.378	0.0142581
713.456	0.0143831
713.534	0.0142484
713.612	0.0141185
713.691	0.0143524
713.769	0.0143733
713.847	0.0140925
713.925	0.0140214
714.003	0.0141254
714.081	0.0142232
714.159	0.0141424
714.237	0.0141628
714.316	0.0142107
714.394	0.0141074
714.472	0.0140710
714.550	0.0142351
714.628	0.0142812
714.706	0.0140844
714.784	0.0141937
714.862	0.0143253
714.941	0.0142466
715.019	0.0142036
715.097	0.0143554
715.175	0.0141641
715.253	0.0141145
715.331	0.0142881
715.409	0.0140681
715.487	0.0140592
715.566	0.0141250
715.644	0.0140868
715.722	0.0141844
715.800	0.0140990
715.878	0.0141031
715.956	0.0140398
716.034	0.0140897
716.112	0.0141721
716.191	0.0142508
716.269	0.0140669
716.347	0.0140224
716.425	0.0141060
716.503	0.0140903
716.581	0.0140520
716.659	0.0141639
716.737	0.0141531
716.816	0.0141478
716.894	0.0139830
716.972	0.0139645
717.050	0.0140471
717.128	0.0141323
717.206	0.0139706
717.284	0.0139921
717.362	0.0140474
717.441	0.0139160
717.519	0.0140494
717.597	0.0138461
717.675	0.0141317
717.753	0.0141391
717.831	0.0142745
717.909	0.0141384
717.987	0.0142093
718.066	0.0141367
718.144	0.0141673
718.222	0.0140858
718.300	0.0140567
718.378	0.0141061
718.456	0.0140504
718.534	0.0140179
718.612	0.0139533
718.691	0.0139850
718.769	0.0140984
718.847	0.0140781
718.925	0.0139630
719.003	0.0140826
719.081	0.0141713
719.159	0.0141140
719.237	0.0140866
719.316	0.0139653
719.394	0.0142656
719.472	0.0140929
719.550	0.0140906
719.628	0.0141251
719.706	0.0141648
719.784	0.0141508
719.862	0.0141867
719.941	0.0143127
720.019	0.0143453
720.097	0.0141698
720.175	0.0141688
720.253	0.0141499
720.331	0.0143541
720.409	0.0143011
720.487	0.0142577
720.566	0.0141470
720.644	0.0141905
720.722	0.0143277
720.800	0.0143648
720.878	0.0142566
720.956	0.0142187
721.034	0.0143393
721.112	0.0142541
721.191	0.0141322
721.269	0.0140726
721.347	0.0140475
721.425	0.0141986
721.503	0.0140322
721.581	0.0139246
721.659	0.0140865
721.737	0.0139422
721.816	0.0139880
721.894	0.0138667
721.972	0.0138851
722.050	0.0141042
722.128	0.0140993
722.206	0.0140375
722.284	0.0140580
722.362	0.0140826
722.441	0.0140079
722.519	0.0140398
722.597	0.0140231
722.675	0.0140214
722.753	0.0140533
722.831	0.0141029
722.909	0.0142079
722.987	0.0140475
723.066	0.0139455
723.144	0.0141237
723.222	0.0142616
723.300	0.0141492
723.378	0.0141929
723.456	0.0143477
723.534	0.0143938
723.612	0.0143433
723.691	0.0143835
723.769	0.0143876
723.847	0.0142603
723.925	0.0143100
724.003	0.0142132
724.081	0.0142959
724.159	0.0142635
724.237	0.0141743
724.316	0.0142032
724.394	0.0142976
724.472	0.0141957
724.550	0.0142665
724.628	0.0140798
724.706	0.0140957
724.784	0.0141629
724.862	0.0142959
724.941	0.0141265
725.019	0.0142960
725.097	0.0142540
725.175	0.0141660
725.253	0.0141578
725.331	0.0142614
725.409	0.0142816
725.487	0.0142662
725.566	0.0142516
725.644	0.0141923
725.722	0.0142019
725.800	0.0142141
725.878	0.0141938
725.956	0.0141273
726.034	0.0143823
726.112	0.0142425
726.191	0.0141739
726.269	0.0141792
726.347	0.0142433
726.425	0.0142803
726.503	0.0141772
726.581	0.0141975
726.659	0.0142394
726.737	0.0141476
726.816	0.0141389
726.894	0.0141891
726.972	0.0142162
727.050	0.0142003
727.128	0.0141572
727.206	0.0139432
727.284	0.0140435
727.362	0.0140422
727.441	0.0140595
727.519	0.0139746
727.597	0.0139662
727.675	0.0139706
727.753	0.0138226
727.831	0.0139509
727.909	0.0139248
727.987	0.0139209
728.066	0.0140711
728.144	0.0141268
728.222	0.0139835
728.300	0.0141476
728.378	0.0141288
728.456	0.0140382
728.534	0.0140772
728.612	0.0143085
728.691	0.0141328
728.769	0.0141209
728.847	0.0142382
728.925	0.0142951
729.003	0.0143373
729.081	0.0141241
729.159	0.0141655
729.237	0.0142545
729.316	0.0143227
729.394	0.0140720
729.472	0.0140289
729.550	0.0141437
729.628	0.0141573
729.706	0.0140110
729.784	0.0141247
729.862	0.0140670
729.941	0.0141550
730.019	0.0141161
730.097	0.0140228
730.175	0.0141125
730.253	0.0141718
730.331	0.0141164
730.409	0.0140980
730.487	0.0141576
730.566	0.0143155
730.644	0.0142474
730.722	0.0144025
730.800	0.0142754
730.878	0.0142973
730.956	0.0141555
731.034	0.0140963
731.112	0.0141487
731.191	0.0142112
731.269	0.0142710
731.347	0.0139964
731.425	0.0140273
731.503	0.0140967
731.581	0.0140281
731.659	0.0140777
731.737	0.0139776
731.816	0.0139733
731.894	0.0141043
731.972	0.0141409
732.050	0.0140646
732.128	0.0139880
732.206	0.0139682
732.284	0.0140915
732.362	0.0139222
732.441	0.0141018
732.519	0.0140408
732.597	0.0140591
732.675	0.0140288
732.753	0.0140486
732.831	0.0140495
732.909	0.0140508
732.987	0.0139223
733.066	0.0139722
733.144	0.0139222
733.222	0.0140085
733.300	0.0137949
733.378	0.0137653
733.456	0.0139323
733.534	0.0138410
733.612	0.0138527
733.691	0.0139053
733.769	0.0138500
733.847	0.0139606
733.925	0.0139686
734.003	0.0140469
734.081	0.0141401
734.159	0.0141949
734.237	0.0141452
734.316	0.0142605
734.394	0.0142140
734.472	0.0142812
734.550	0.0143124
734.628	0.0140774
734.706	0.0142209
734.784	0.0141959
734.862	0.0143310
734.941	0.0143309
735.019	0.0143090
735.097	0.0143610
735.175	0.0143446
735.253	0.0143297
735.331	0.0142797
735.409	0.0142001
735.487	0.0141881
735.566	0.0143819
735.644	0.0142796
735.722	0.0142481
735.800	0.0143497
735.878	0.0142548
735.956	0.0142529
736.034	0.0142458
736.112	0.0142635
736.191	0.0143879
736.269	0.0141852
736.347	0.0141929
736.425	0.0141397
736.503	0.0142542
736.581	0.0143820
736.659	0.0144677
736.737	0.0143771
736.816	0.0142245
736.894	0.0143549
736.972	0.0143616
737.050	0.0142985
737.128	0.0142888
737.206	0.0143584
737.284	0.0142508
737.362	0.0142117
737.441	0.0141362
737.519	0.0140761
737.597	0.0140587
737.675	0.0140536
737.753	0.0139948
737.831	0.0141258
737.909	0.0140604
737.987	0.0140456
738.066	0.0140469
738.144	0.0141203
738.222	0.0141386
738.300	0.0140339
738.378	0.0141654
738.456	0.0141898
738.534	0.0140825
738.612	0.0141605
738.691	0.0140479
738.769	0.0142484
738.847	0.0141956
738.925	0.0140963
739.003	0.0140416
739.081	0.0140427
739.159	0.0140400
739.237	0.0141010
739.316	0.0141145
739.394	0.0140636
739.472	0.0140108
739.550	0.0140009
739.628	0.0140131
739.706	0.0138001
739.784	0.0139424
739.862	0.0140299
739.941	0.0139596
740.019	0.0140945
740.097	0.0139733
740.175	0.0140294
740.253	0.0141171
740.331	0.0141642
740.409	0.0142931
740.487	0.0140306
740.566	0.0142721
740.644	0.0142204
740.722	0.0141847
740.800	0.0142181
740.878	0.0144119
740.956	0.0141297
741.034	0.0143309
741.112	0.0141483
741.191	0.0140224
741.269	0.0142610
741.347	0.0143745
741.425	0.0141400
741.503	0.0140342
741.581	0.0140426
741.659	0.0140985
741.737	0.0141870
741.816	0.0140352
741.894	0.0140157
741.972	0.0141785
742.050	0.0139970
742.128	0.0139310
742.206	0.0140697
742.284	0.0142133
742.362	0.0140342
742.441	0.0139640
742.519	0.0141088
742.597	0.0142138
742.675	0.0141150
742.753	0.0141185
742.831	0.0141969
742.909	0.0140485
742.987	0.0139854
743.066	0.0140841
743.144	0.0140827
743.222	0.0140173
743.300	0.0140122
743.378	0.0141788
743.456	0.0140321
743.534	0.0140823
743.612	0.0141998
743.691	0.0140060
743.769	0.0139905
743.847	0.0140945
743.925	0.0141222
744.003	0.0141624
744.081	0.0141240
744.159	0.0142085
744.237	0.0142312
744.316	0.0141769
744.394	0.0142088
744.472	0.0141573
744.550	0.0142807
744.628	0.0142228
744.706	0.0141349
744.784	0.0143500
744.862	0.0142725
744.941	0.0141030
745.019	0.0141106
745.097	0.0141553
745.175	0.0142767
745.253	0.0142867
745.331	0.0141351
745.409	0.0141009
745.487	0.0140750
745.566	0.0141756
745.644	0.0141629
745.722	0.0141316
745.800	0.0140735
745.878	0.0141841
745.956	0.0140356
746.034	0.0140461
746.112	0.0140332
746.191	0.0141262
746.269	0.0140478
746.347	0.0140186
746.425	0.0140568
746.503	0.0140224
746.581	0.0141090
746.659	0.0141078
746.737	0.0142476
746.816	0.0142603
746.894	0.0142338
746.972	0.0143080
747.050	0.0143529
747.128	0.0142130
747.206	0.0142252
747.284	0.0143427
747.362	0.0142342
747.441	0.0142287
747.519	0.0143285
747.597	0.0142265
747.675	0.0141564
747.753	0.0141846
747.831	0.0140530
747.909	0.0141074
747.987	0.0140484
748.066	0.0140859
748.144	0.0141583
748.222	0.0140889
748.300	0.0140110
748.378	0.0139122
748.456	0.0140406
748.534	0.0140656
748.612	0.0142446
748.691	0.0140800
748.769	0.0139796
748.847	0.0141317
748.925	0.0142884
749.003	0.0142956
749.081	0.0142387
749.159	0.0142987
749.237	0.0143073
749.316	0.0142136
749.394	0.0142310
749.472	0.0143343
749.550	0.0143434
749.628	0.0143446
749.706	0.0143285
749.784	0.0142844
749.862	0.0143305
749.941	0.0141597
750.019	0.0141776
750.097	0.0144192
750.175	0.0141447
750.253	0.0141254
750.331	0.0141529
750.409	0.0140360
750.487	0.0140240
750.566	0.0140878
750.644	0.0141834
750.722	0.0141514
750.800	0.0142170
750.878	0.0140567
750.956	0.0142187
751.034	0.0141987
751.112	0.0141455
751.191	0.0140677
751.269	0.0143214
751.347	0.0141507
751.425	0.0140388
751.503	0.0141659
751.581	0.0142387
751.659	0.0142394
751.737	0.0143404
751.816	0.0142365
751.894	0.0142469
751.972	0.0141483
752.050	0.0142162
752.128	0.0141646
752.206	0.0141972
752.284	0.0141044
752.362	0.0141299
752.441	0.0141925
752.519	0.0141142
752.597	0.0139693
752.675	0.0141309
752.753	0.0140315
752.831	0.0140385
752.909	0.0140047
752.987	0.0141206
753.066	0.0140447
753.144	0.0142038
753.222	0.0141959
753.300	0.0140678
753.378	0.0141524
753.456	0.0142742
753.534	0.0141254
753.612	0.0140985
753.691	0.0141956
753.769	0.0139853
753.847	0.0141195
753.925	0.0142666
754.003	0.0141201
754.081	0.0141354
754.159	0.0140811
754.237	0.0140869
754.316	0.0142033
754.394	0.0140924
754.472	0.0141045
754.550	0.0139992
754.628	0.0141555
754.706	0.0141027
754.784	0.0141280
754.862	0.0140346
754.941	0.0140835
755.019	0.0140372
755.097	0.0141137
755.175	0.0140461
755.253	0.0141005
755.331	0.0140598
755.409	0.0141089
755.487	0.0141828
755.566	0.0140572
755.644	0.0141463
755.722	0.0142293
755.800	0.0141728
755.878	0.0141471
755.956	0.0141750
756.034	0.0141579
756.112	0.0141203
756.191	0.0142268
756.269	0.0142438
756.347	0.0141908
756.425	0.0141917
756.503	0.0141628
756.581	0.0142294
756.659	0.0139899
756.737	0.0141617
756.816	0.0141368
756.894	0.0141114
756.972	0.0142009
757.050	0.0142256
757.128	0.0140305
757.206	0.0142058
757.284	0.0141766
757.362	0.0139869
757.441	0.0141186
757.519	0.0140733
757.597	0.0140410
757.675	0.0140659
757.753	0.0139654
757.831	0.0140475
757.909	0.0140231
757.987	0.0141075
758.066	0.0141357
758.144	0.0140385
758.222	0.0140696
758.300	0.0141090
758.378	0.0141592
758.456	0.0140510
758.534	0.0142246
758.612	0.0142077
758.691	0.0139936
758.769	0.0142312
758.847	0.0141182
758.925	0.0140862
759.003	0.0142013
759.081	0.0140536
759.159	0.0141308
759.237	0.0141385
759.316	0.0140099
759.394	0.0141450
759.472	0.0141039
759.550	0.0140220
759.628	0.0140602
759.706	0.0141385
759.784	0.0140605
759.862	0.0140903
759.941	0.0140535
760.019	0.0139055
760.097	0.0139725
760.175	0.0141059
760.253	0.0140987
760.331	0.0140636
760.409	0.0140573
760.487	0.0139584
760.566	0.0141593
760.644	0.0140583
760.722	0.0141205
760.800	0.0140495
760.878	0.0140318
760.956	0.0141592
761.034	0.0141124
761.112	0.0141834
761.191	0.0142068
761.269	0.0143603
761.347	0.0141980
761.425	0.0142059
761.503	0.0143394
761.581	0.0142933
761.659	0.0141984
761.737	0.0142713
761.816	0.0142551
761.894	0.0141921
761.972	0.0141299
762.050	0.0142623
762.128	0.0143153
762.206	0.0142326
762.284	0.0141084
762.362	0.0140286
762.441	0.0142550
762.519	0.0143682
762.597	0.0141833
762.675	0.0141809
762.753	0.0141863
762.831	0.0142119
762.909	0.0142022
762.987	0.0142025
763.066	0.0142490
763.144	0.0141460
763.222	0.0141920
763.300	0.0142842
763.378	0.0142740
763.456	0.0142699
763.534	0.0140726
763.612	0.0141849
763.691	0.0140825
763.769	0.0141365
763.847	0.0140984
763.925	0.0142542
764.003	0.0141752
764.081	0.0140861
764.159	0.0140882
764.237	0.0141664
764.316	0.0141524
764.394	0.0141769
764.472	0.0141205
764.550	0.0142735
764.628	0.0140208
764.706	0.0139191
