05/04/2022	21:05:02	Ver.	4.1	UNKNOWN
Optical Delay	678.996401	Delta X		0.078125	Sweeps	1	Scan Rate	0/0
Coordinates	Axis 1	NaN	Axis 2	NaN	Axis 3	NaN	Axis 4	NaN	Axis 5	NaN	Axis 6	0.000000
TX Power	0.000000	RX Power	0.000000

678.996	0.0146304
679.075	0.0146146
679.153	0.0145634
679.231	0.0146970
679.309	0.0145810
679.387	0.0145559
679.465	0.0147292
679.543	0.0145906
679.621	0.0145168
679.700	0.0146630
679.778	0.0146797
679.856	0.0145909
679.934	0.0146400
680.012	0.0147964
680.090	0.0146654
680.168	0.0146214
680.246	0.0145711
680.325	0.0146346
680.403	0.0146184
680.481	0.0145465
680.559	0.0147240
680.637	0.0146525
680.715	0.0145886
680.793	0.0145927
680.871	0.0146952
680.950	0.0146370
681.028	0.0145699
681.106	0.0146984
681.184	0.0145945
681.262	0.0145480
681.340	0.0145998
681.418	0.0145637
681.496	0.0146362
681.575	0.0146949
681.653	0.0145200
681.731	0.0146524
681.809	0.0145778
681.887	0.0146449
681.965	0.0146317
682.043	0.0146434
682.121	0.0146009
682.200	0.0147080
682.278	0.0146513
682.356	0.0144720
682.434	0.0146421
682.512	0.0146378
682.590	0.0146323
682.668	0.0147630
682.746	0.0145768
682.825	0.0146972
682.903	0.0145090
682.981	0.0145645
683.059	0.0145895
683.137	0.0145733
683.215	0.0146538
683.293	0.0145390
683.371	0.0146042
683.450	0.0145608
683.528	0.0146930
683.606	0.0145248
683.684	0.0145905
683.762	0.0145805
683.840	0.0145298
683.918	0.0145844
683.996	0.0146430
684.075	0.0145543
684.153	0.0147363
684.231	0.0146026
684.309	0.0145322
684.387	0.0145653
684.465	0.0148112
684.543	0.0145537
684.621	0.0144981
684.700	0.0145931
684.778	0.0147240
684.856	0.0146214
684.934	0.0147128
685.012	0.0147379
685.090	0.0145712
685.168	0.0145891
685.246	0.0146288
685.325	0.0145756
685.403	0.0145290
685.481	0.0145860
685.559	0.0145287
685.637	0.0147277
685.715	0.0147502
685.793	0.0146155
685.871	0.0146162
685.950	0.0145077
686.028	0.0144839
686.106	0.0145952
686.184	0.0145783
686.262	0.0146796
686.340	0.0147331
686.418	0.0147701
686.496	0.0146384
686.575	0.0145988
686.653	0.0146349
686.731	0.0145712
686.809	0.0147810
686.887	0.0149014
686.965	0.0146087
687.043	0.0146651
687.121	0.0147264
687.200	0.0146727
687.278	0.0145964
687.356	0.0147547
687.434	0.0145245
687.512	0.0145149
687.590	0.0146867
687.668	0.0146397
687.746	0.0144786
687.825	0.0145866
687.903	0.0146418
687.981	0.0145359
688.059	0.0146554
688.137	0.0147150
688.215	0.0146204
688.293	0.0144830
688.371	0.0145763
688.450	0.0146053
688.528	0.0146870
688.606	0.0146674
688.684	0.0145493
688.762	0.0145387
688.840	0.0145868
688.918	0.0146118
688.996	0.0146025
689.075	0.0146423
689.153	0.0145014
689.231	0.0146140
689.309	0.0146755
689.387	0.0146442
689.465	0.0146738
689.543	0.0145339
689.621	0.0144792
689.700	0.0145976
689.778	0.0145956
689.856	0.0145309
689.934	0.0145847
690.012	0.0146748
690.090	0.0145520
690.168	0.0146057
690.246	0.0146423
690.325	0.0147107
690.403	0.0146494
690.481	0.0146586
690.559	0.0145608
690.637	0.0145092
690.715	0.0146523
690.793	0.0144996
690.871	0.0144778
690.950	0.0144836
691.028	0.0146649
691.106	0.0146136
691.184	0.0146087
691.262	0.0145212
691.340	0.0146450
691.418	0.0145889
691.496	0.0145132
691.575	0.0146992
691.653	0.0145919
691.731	0.0143994
691.809	0.0145733
691.887	0.0146218
691.965	0.0146607
692.043	0.0145953
692.121	0.0145071
692.200	0.0146452
692.278	0.0146214
692.356	0.0146436
692.434	0.0145492
692.512	0.0145712
692.590	0.0145025
692.668	0.0145827
692.746	0.0146123
692.825	0.0146017
692.903	0.0144833
692.981	0.0147328
693.059	0.0144370
693.137	0.0145739
693.215	0.0146528
693.293	0.0145360
693.371	0.0146458
693.450	0.0146013
693.528	0.0145510
693.606	0.0145730
693.684	0.0146272
693.762	0.0146100
693.840	0.0145877
693.918	0.0145575
693.996	0.0146083
694.075	0.0145236
694.153	0.0146249
694.231	0.0146318
694.309	0.0146189
694.387	0.0145312
694.465	0.0146157
694.543	0.0146306
694.621	0.0144645
694.700	0.0145528
694.778	0.0146792
694.856	0.0146127
694.934	0.0144832
695.012	0.0146267
695.090	0.0146566
695.168	0.0144905
695.246	0.0146825
695.325	0.0145395
695.403	0.0146084
695.481	0.0146011
695.559	0.0146381
695.637	0.0146529
695.715	0.0146927
695.793	0.0146833
695.871	0.0144841
695.950	0.0145995
696.028	0.0145242
696.106	0.0145346
696.184	0.0145626
696.262	0.0146085
696.340	0.0146477
696.418	0.0144903
696.496	0.0144942
696.575	0.0146965
696.653	0.0146759
696.731	0.0145156
696.809	0.0144924
696.887	0.0145884
696.965	0.0147834
697.043	0.0147453
697.121	0.0144842
697.200	0.0145836
697.278	0.0145584
697.356	0.0146228
697.434	0.0146630
697.512	0.0146645
697.590	0.0145908
697.668	0.0146224
697.746	0.0145391
697.825	0.0146280
697.903	0.0147359
697.981	0.0146240
698.059	0.0145522
698.137	0.0145567
698.215	0.0146574
698.293	0.0145278
698.371	0.0145581
698.450	0.0145111
698.528	0.0145320
698.606	0.0144641
698.684	0.0146385
698.762	0.0146465
698.840	0.0145660
698.918	0.0146145
698.996	0.0145164
699.075	0.0146576
699.153	0.0144969
699.231	0.0145103
699.309	0.0146077
699.387	0.0146824
699.465	0.0145509
699.543	0.0145720
699.621	0.0144996
699.700	0.0146022
699.778	0.0146079
699.856	0.0145287
699.934	0.0146573
700.012	0.0147385
700.090	0.0147176
700.168	0.0145796
700.246	0.0145724
700.325	0.0144796
700.403	0.0146503
700.481	0.0146456
700.559	0.0146236
700.637	0.0146343
700.715	0.0145176
700.793	0.0146355
700.871	0.0144769
700.950	0.0145923
701.028	0.0145351
701.106	0.0145770
701.184	0.0146597
701.262	0.0144944
701.340	0.0146024
701.418	0.0145339
701.496	0.0146336
701.575	0.0146362
701.653	0.0145720
701.731	0.0145497
701.809	0.0145588
701.887	0.0145766
701.965	0.0145599
702.043	0.0146951
702.121	0.0146639
702.200	0.0146934
702.278	0.0147801
702.356	0.0147124
702.434	0.0145555
702.512	0.0146931
702.590	0.0147534
702.668	0.0146812
702.746	0.0148349
702.825	0.0146885
702.903	0.0147961
702.981	0.0147419
703.059	0.0147353
703.137	0.0147654
703.215	0.0145391
703.293	0.0146403
703.371	0.0146449
703.450	0.0147401
703.528	0.0145165
703.606	0.0145158
703.684	0.0148766
703.762	0.0147787
703.840	0.0146886
703.918	0.0147572
703.996	0.0147349
704.075	0.0147078
704.153	0.0145750
704.231	0.0147093
704.309	0.0145028
704.387	0.0144694
704.465	0.0144204
704.543	0.0144891
704.621	0.0144647
704.700	0.0145175
704.778	0.0143671
704.856	0.0143341
704.934	0.0143771
705.012	0.0144741
705.090	0.0145369
705.168	0.0145556
705.246	0.0145826
705.325	0.0147729
705.403	0.0148019
705.481	0.0147905
705.559	0.0151481
705.637	0.0151347
705.715	0.0153432
705.793	0.0153970
705.871	0.0155634
705.950	0.0154649
706.028	0.0153588
706.106	0.0151015
706.184	0.0148051
706.262	0.0144601
706.340	0.0141319
706.418	0.0139306
706.496	0.0136108
706.575	0.0133765
706.653	0.0132531
706.731	0.0133760
706.809	0.0135126
706.887	0.0133978
706.965	0.0136985
707.043	0.0140176
707.121	0.0142907
707.200	0.0141504
707.278	0.0145156
707.356	0.0149767
707.434	0.0148817
707.512	0.0151697
707.590	0.0154551
707.668	0.0158007
707.746	0.0159824
707.825	0.0160233
707.903	0.0162902
707.981	0.0164520
708.059	0.0164128
708.137	0.0162483
708.215	0.0160527
708.293	0.0155923
708.371	0.0150945
708.450	0.0145618
708.528	0.0138945
708.606	0.0136520
708.684	0.0133420
708.762	0.0131146
708.840	0.0131867
708.918	0.0131541
708.996	0.0130753
709.075	0.0131381
709.153	0.0131315
709.231	0.0129118
709.309	0.0129315
709.387	0.0127547
709.465	0.0128862
709.543	0.0131788
709.621	0.0138349
709.700	0.0143465
709.778	0.0148202
709.856	0.0154766
709.934	0.0159962
710.012	0.0165038
710.090	0.0168579
710.168	0.0170889
710.246	0.0172459
710.325	0.0173172
710.403	0.0171435
710.481	0.0170708
710.559	0.0168128
710.637	0.0165582
710.715	0.0158714
710.793	0.0152455
710.871	0.0146712
710.950	0.0140720
711.028	0.0133280
711.106	0.0130589
711.184	0.0123837
711.262	0.0121043
711.340	0.0116865
711.418	0.0115910
711.496	0.0114591
711.575	0.0113638
711.653	0.0114759
711.731	0.0119363
711.809	0.0125049
711.887	0.0132449
711.965	0.0142065
712.043	0.0150372
712.121	0.0160654
712.200	0.0168446
712.278	0.0171211
712.356	0.0176601
712.434	0.0176206
712.512	0.0177198
712.590	0.0175988
712.668	0.0173140
712.746	0.0170031
712.825	0.0168076
712.903	0.0165742
712.981	0.0161591
713.059	0.0157437
713.137	0.0151630
713.215	0.0146238
713.293	0.0140285
713.371	0.0135823
713.450	0.0130140
713.528	0.0128006
713.606	0.0125604
713.684	0.0123773
713.762	0.0124179
713.840	0.0123222
713.918	0.0122089
713.996	0.0121938
714.075	0.0124748
714.153	0.0127425
714.231	0.0131725
714.309	0.0135282
714.387	0.0139631
714.465	0.0145754
714.543	0.0148622
714.621	0.0154578
714.700	0.0156483
714.778	0.0159584
714.856	0.0161333
714.934	0.0162444
715.012	0.0165218
715.090	0.0165112
715.168	0.0166772
715.246	0.0166131
715.325	0.0163914
715.403	0.0161912
715.481	0.0159657
715.559	0.0154846
715.637	0.0149652
715.715	0.0147086
715.793	0.0143365
715.871	0.0141815
715.950	0.0138612
716.028	0.0137746
716.106	0.0138654
716.184	0.0137690
716.262	0.0137916
716.340	0.0137598
716.418	0.0137122
716.496	0.0136739
716.575	0.0137731
716.653	0.0134946
716.731	0.0135738
716.809	0.0136173
716.887	0.0134385
716.965	0.0135122
717.043	0.0135458
717.121	0.0137692
717.200	0.0141599
717.278	0.0144821
717.356	0.0148418
717.434	0.0153734
717.512	0.0156343
717.590	0.0158425
717.668	0.0161070
717.746	0.0159798
717.825	0.0160434
717.903	0.0160129
717.981	0.0157597
718.059	0.0155913
718.137	0.0153915
718.215	0.0150575
718.293	0.0149117
718.371	0.0149314
718.450	0.0145162
718.528	0.0145702
718.606	0.0143414
718.684	0.0141677
718.762	0.0141192
718.840	0.0138352
718.918	0.0137006
718.996	0.0133945
719.075	0.0133526
719.153	0.0133815
719.231	0.0132786
719.309	0.0131703
719.387	0.0134532
719.465	0.0135808
719.543	0.0137196
719.621	0.0141597
719.700	0.0143346
719.778	0.0148048
719.856	0.0151986
719.934	0.0154227
720.012	0.0155408
720.090	0.0158802
720.168	0.0162083
720.246	0.0162315
720.325	0.0162355
720.403	0.0159149
720.481	0.0159050
720.559	0.0155851
720.637	0.0153025
720.715	0.0150180
720.793	0.0147521
720.871	0.0142564
720.950	0.0139547
721.028	0.0135173
721.106	0.0133855
721.184	0.0131570
721.262	0.0130527
721.340	0.0130276
721.418	0.0130260
721.496	0.0130219
721.575	0.0132221
721.653	0.0132262
721.731	0.0134962
721.809	0.0136607
721.887	0.0139537
721.965	0.0142968
722.043	0.0147441
722.121	0.0151984
722.200	0.0154532
722.278	0.0156897
722.356	0.0159518
722.434	0.0159715
722.512	0.0161586
722.590	0.0161222
722.668	0.0161510
722.746	0.0160493
722.825	0.0160897
722.903	0.0159167
722.981	0.0155917
723.059	0.0152870
723.137	0.0150866
723.215	0.0146768
723.293	0.0144104
723.371	0.0140971
723.450	0.0137373
723.528	0.0135222
723.606	0.0132726
723.684	0.0131111
723.762	0.0128394
723.840	0.0128523
723.918	0.0130247
723.996	0.0132323
724.075	0.0134869
724.153	0.0137922
724.231	0.0140310
724.309	0.0143840
724.387	0.0150666
724.465	0.0152807
724.543	0.0155475
724.621	0.0158092
724.700	0.0162057
724.778	0.0162930
724.856	0.0162566
724.934	0.0161276
725.012	0.0158764
725.090	0.0155901
725.168	0.0152965
725.246	0.0147796
725.325	0.0144306
725.403	0.0139789
725.481	0.0136284
725.559	0.0132769
725.637	0.0131145
725.715	0.0130614
725.793	0.0130231
725.871	0.0132674
725.950	0.0134492
726.028	0.0136633
726.106	0.0138780
726.184	0.0143848
726.262	0.0145937
726.340	0.0148509
726.418	0.0152134
726.496	0.0154681
726.575	0.0156256
726.653	0.0157938
726.731	0.0158429
726.809	0.0160210
726.887	0.0159658
726.965	0.0159264
727.043	0.0159818
727.121	0.0159506
727.200	0.0158397
727.278	0.0155912
727.356	0.0153835
727.434	0.0151247
727.512	0.0148738
727.590	0.0145578
727.668	0.0141304
727.746	0.0136864
727.825	0.0134800
727.903	0.0130132
727.981	0.0128001
728.059	0.0125536
728.137	0.0122882
728.215	0.0124770
728.293	0.0124664
728.371	0.0124615
728.450	0.0127343
728.528	0.0131046
728.606	0.0135968
728.684	0.0141679
728.762	0.0147148
728.840	0.0152805
728.918	0.0157962
728.996	0.0163198
729.075	0.0167149
729.153	0.0171368
729.231	0.0173174
729.309	0.0172534
729.387	0.0170039
729.465	0.0169845
729.543	0.0166785
729.621	0.0161863
729.700	0.0156676
729.778	0.0153398
729.856	0.0148949
729.934	0.0143289
730.012	0.0139802
730.090	0.0136429
730.168	0.0132780
730.246	0.0130067
730.325	0.0127688
730.403	0.0126705
730.481	0.0128419
730.559	0.0130009
730.637	0.0130569
730.715	0.0134113
730.793	0.0135603
730.871	0.0137831
730.950	0.0141433
731.028	0.0145112
731.106	0.0145110
731.184	0.0147694
731.262	0.0152181
731.340	0.0155989
731.418	0.0157465
731.496	0.0159329
731.575	0.0160561
731.653	0.0159361
731.731	0.0161002
731.809	0.0161782
731.887	0.0159474
731.965	0.0157556
732.043	0.0155810
732.121	0.0154687
732.200	0.0152539
732.278	0.0148900
732.356	0.0146095
732.434	0.0143266
732.512	0.0140712
732.590	0.0138139
732.668	0.0137547
732.746	0.0133880
732.825	0.0132126
732.903	0.0131642
732.981	0.0132238
733.059	0.0131722
733.137	0.0131969
733.215	0.0133133
733.293	0.0137511
733.371	0.0139247
733.450	0.0142780
733.528	0.0145494
733.606	0.0149229
733.684	0.0152629
733.762	0.0156224
733.840	0.0158893
733.918	0.0160459
733.996	0.0161306
734.075	0.0161123
734.153	0.0161313
734.231	0.0160098
734.309	0.0158616
734.387	0.0156875
734.465	0.0152653
734.543	0.0150697
734.621	0.0149362
734.700	0.0145998
734.778	0.0142430
734.856	0.0141334
734.934	0.0139024
735.012	0.0137743
735.090	0.0135208
735.168	0.0135332
735.246	0.0135661
735.325	0.0134653
735.403	0.0135844
735.481	0.0136517
735.559	0.0137035
735.637	0.0137182
735.715	0.0139333
735.793	0.0140881
735.871	0.0141090
735.950	0.0142616
736.028	0.0145650
736.106	0.0148190
736.184	0.0149767
736.262	0.0151418
736.340	0.0152942
736.418	0.0154533
736.496	0.0154904
736.575	0.0156224
736.653	0.0158423
736.731	0.0156949
736.809	0.0158674
736.887	0.0157068
736.965	0.0155663
737.043	0.0153676
737.121	0.0151353
737.200	0.0148292
737.278	0.0144795
737.356	0.0141613
737.434	0.0138872
737.512	0.0136680
737.590	0.0133683
737.668	0.0133265
737.746	0.0132014
737.825	0.0132510
737.903	0.0133550
737.981	0.0133920
738.059	0.0135761
738.137	0.0138631
738.215	0.0141346
738.293	0.0145213
738.371	0.0148233
738.450	0.0148897
738.528	0.0152801
738.606	0.0155890
738.684	0.0157263
738.762	0.0158585
738.840	0.0159677
738.918	0.0158949
738.996	0.0159052
739.075	0.0158682
739.153	0.0156262
739.231	0.0154299
739.309	0.0151748
739.387	0.0150340
739.465	0.0147766
739.543	0.0144077
739.621	0.0142999
739.700	0.0140036
739.778	0.0137378
739.856	0.0135130
739.934	0.0134879
740.012	0.0133843
740.090	0.0134801
740.168	0.0133961
740.246	0.0133803
740.325	0.0135506
740.403	0.0136649
740.481	0.0137061
740.559	0.0140043
740.637	0.0142277
740.715	0.0144614
740.793	0.0147761
740.871	0.0148895
740.950	0.0151262
741.028	0.0154037
741.106	0.0157802
741.184	0.0158921
741.262	0.0158699
741.340	0.0160354
741.418	0.0159312
741.496	0.0159490
741.575	0.0158751
741.653	0.0156641
741.731	0.0156543
741.809	0.0154556
741.887	0.0150636
741.965	0.0149976
742.043	0.0146132
742.121	0.0143073
742.200	0.0140833
742.278	0.0138096
742.356	0.0135709
742.434	0.0134070
742.512	0.0132694
742.590	0.0131927
742.668	0.0131773
742.746	0.0131364
742.825	0.0133603
742.903	0.0133422
742.981	0.0136337
743.059	0.0137936
743.137	0.0140491
743.215	0.0143285
743.293	0.0146658
743.371	0.0150381
743.450	0.0152083
743.528	0.0153336
743.606	0.0155218
743.684	0.0157097
743.762	0.0157645
743.840	0.0158102
743.918	0.0158279
743.996	0.0159457
744.075	0.0156933
744.153	0.0155434
744.231	0.0156134
744.309	0.0152795
744.387	0.0149583
744.465	0.0147754
744.543	0.0144617
744.621	0.0143526
744.700	0.0141296
744.778	0.0139030
744.856	0.0139060
744.934	0.0136298
745.012	0.0136176
745.090	0.0134167
745.168	0.0134441
745.246	0.0134795
745.325	0.0135197
745.403	0.0135720
745.481	0.0137993
745.559	0.0139940
745.637	0.0140035
745.715	0.0143986
745.793	0.0145038
745.871	0.0148727
745.950	0.0150724
746.028	0.0153024
746.106	0.0154123
746.184	0.0154283
746.262	0.0156133
746.340	0.0157853
746.418	0.0156539
746.496	0.0156639
746.575	0.0156182
746.653	0.0156593
746.731	0.0154870
746.809	0.0153408
746.887	0.0152528
746.965	0.0150797
747.043	0.0146597
747.121	0.0145518
747.200	0.0143799
747.278	0.0141202
747.356	0.0139932
747.434	0.0139933
747.512	0.0138924
747.590	0.0136977
747.668	0.0136486
747.746	0.0137450
747.825	0.0136711
747.903	0.0137849
747.981	0.0138570
748.059	0.0141833
748.137	0.0141920
748.215	0.0143550
748.293	0.0146616
748.371	0.0147634
748.450	0.0148521
748.528	0.0149928
748.606	0.0151707
748.684	0.0153056
748.762	0.0152705
748.840	0.0152068
748.918	0.0153825
748.996	0.0153748
749.075	0.0153606
749.153	0.0153188
749.231	0.0152463
749.309	0.0150121
749.387	0.0150674
749.465	0.0148472
749.543	0.0146149
749.621	0.0144557
749.700	0.0142326
749.778	0.0142192
749.856	0.0139798
749.934	0.0137416
750.012	0.0139494
750.090	0.0138065
750.168	0.0138458
750.246	0.0138157
750.325	0.0138606
750.403	0.0139708
750.481	0.0140490
750.559	0.0141862
750.637	0.0144946
750.715	0.0146803
750.793	0.0147023
750.871	0.0149415
750.950	0.0149694
751.028	0.0149635
751.106	0.0151955
751.184	0.0152847
751.262	0.0152924
751.340	0.0154770
751.418	0.0154105
751.496	0.0156147
751.575	0.0153792
751.653	0.0152556
751.731	0.0152437
751.809	0.0150538
751.887	0.0150279
751.965	0.0149053
752.043	0.0147253
752.121	0.0145023
752.200	0.0144789
752.278	0.0143284
752.356	0.0142671
752.434	0.0140168
752.512	0.0140147
752.590	0.0139484
752.668	0.0139160
752.746	0.0138992
752.825	0.0139436
752.903	0.0140383
752.981	0.0141400
753.059	0.0140903
753.137	0.0142695
753.215	0.0144822
753.293	0.0146178
753.371	0.0146870
753.450	0.0146998
753.528	0.0149889
753.606	0.0149260
753.684	0.0150760
753.762	0.0151659
753.840	0.0152187
753.918	0.0153319
753.996	0.0152594
754.075	0.0151339
754.153	0.0151781
754.231	0.0151737
754.309	0.0149597
754.387	0.0149559
754.465	0.0148032
754.543	0.0147491
754.621	0.0147039
754.700	0.0145287
754.778	0.0143202
754.856	0.0142162
754.934	0.0141467
755.012	0.0141990
755.090	0.0139861
755.168	0.0141222
755.246	0.0140105
755.325	0.0141205
755.403	0.0140259
755.481	0.0140411
755.559	0.0142026
755.637	0.0142554
755.715	0.0144716
755.793	0.0146505
755.871	0.0146690
755.950	0.0147329
756.028	0.0149310
756.106	0.0150233
756.184	0.0150247
756.262	0.0150852
756.340	0.0151463
756.418	0.0151186
756.496	0.0149866
756.575	0.0151778
756.653	0.0150375
756.731	0.0149637
756.809	0.0149905
756.887	0.0147746
756.965	0.0146156
757.043	0.0145850
757.121	0.0144267
757.200	0.0144427
757.278	0.0142880
757.356	0.0143100
757.434	0.0141801
757.512	0.0140697
757.590	0.0141057
757.668	0.0140926
757.746	0.0140322
757.825	0.0139761
757.903	0.0141788
757.981	0.0142142
758.059	0.0142993
758.137	0.0145007
758.215	0.0144753
758.293	0.0146318
758.371	0.0145921
758.450	0.0146369
758.528	0.0148160
758.606	0.0149286
758.684	0.0148572
758.762	0.0149885
758.840	0.0150121
758.918	0.0149973
758.996	0.0150529
759.075	0.0150382
759.153	0.0149960
759.231	0.0149467
759.309	0.0148344
759.387	0.0148683
759.465	0.0147948
759.543	0.0146880
759.621	0.0148047
759.700	0.0146546
759.778	0.0144740
759.856	0.0144681
759.934	0.0143496
760.012	0.0144069
760.090	0.0143372
760.168	0.0142946
760.246	0.0141883
760.325	0.0143427
760.403	0.0142708
760.481	0.0142560
760.559	0.0143223
760.637	0.0143295
760.715	0.0143523
760.793	0.0144596
760.871	0.0146524
760.950	0.0146024
761.028	0.0147361
761.106	0.0149451
761.184	0.0148509
761.262	0.0149744
761.340	0.0150057
761.418	0.0150642
761.496	0.0151072
761.575	0.0149070
761.653	0.0148365
761.731	0.0148373
761.809	0.0148547
761.887	0.0146832
761.965	0.0146570
762.043	0.0146512
762.121	0.0145654
762.200	0.0145701
762.278	0.0143983
762.356	0.0144541
762.434	0.0144019
762.512	0.0144375
762.590	0.0143772
762.668	0.0143108
762.746	0.0141434
762.825	0.0141349
762.903	0.0143520
762.981	0.0143155
763.059	0.0143716
763.137	0.0142733
763.215	0.0146393
763.293	0.0144695
763.371	0.0144833
763.450	0.0146260
763.528	0.0146064
763.606	0.0146951
763.684	0.0146912
763.762	0.0149029
763.840	0.0149282
763.918	0.0147543
763.996	0.0148528
764.075	0.0149303
764.153	0.0149083
764.231	0.0149931
764.309	0.0148763
764.387	0.0147671
764.465	0.0148514
764.543	0.0148037
764.621	0.0147491
764.700	0.0146659
