05/04/2022	21:07:22	Ver.	4.1	UNKNOWN
Optical Delay	678.996401	Delta X		0.078125	Sweeps	1	Scan Rate	0/0
Coordinates	Axis 1	NaN	Axis 2	NaN	Axis 3	NaN	Axis 4	NaN	Axis 5	NaN	Axis 6	0.000000
TX Power	0.000000	RX Power	0.000000

678.996	0.0149240
679.075	0.0150163
679.153	0.0150079
679.231	0.0149221
679.309	0.0148560
679.387	0.0150307
679.465	0.0148461
679.543	0.0150340
679.621	0.0150122
679.700	0.0148334
679.778	0.0150766
679.856	0.0150551
679.934	0.0149574
680.012	0.0148638
680.090	0.0151208
680.168	0.0149736
680.246	0.0149686
680.325	0.0149567
680.403	0.0149702
680.481	0.0149635
680.559	0.0148474
680.637	0.0150710
680.715	0.0149701
680.793	0.0148936
680.871	0.0150362
680.950	0.0149541
681.028	0.0149078
681.106	0.0148071
681.184	0.0150222
681.262	0.0149923
681.340	0.0149306
681.418	0.0149551
681.496	0.0150092
681.575	0.0150217
681.653	0.0149681
681.731	0.0147537
681.809	0.0149065
681.887	0.0148656
681.965	0.0149300
682.043	0.0148737
682.121	0.0149404
682.200	0.0150471
682.278	0.0148941
682.356	0.0149187
682.434	0.0148647
682.512	0.0149097
682.590	0.0149158
682.668	0.0150023
682.746	0.0150203
682.825	0.0149308
682.903	0.0149601
682.981	0.0149483
683.059	0.0148594
683.137	0.0148809
683.215	0.0150140
683.293	0.0149548
683.371	0.0150230
683.450	0.0149555
683.528	0.0149126
683.606	0.0147247
683.684	0.0148782
683.762	0.0148476
683.840	0.0148086
683.918	0.0148226
683.996	0.0148318
684.075	0.0149797
684.153	0.0148840
684.231	0.0149371
684.309	0.0148804
684.387	0.0147675
684.465	0.0148232
684.543	0.0150024
684.621	0.0150126
684.700	0.0149157
684.778	0.0148306
684.856	0.0148606
684.934	0.0149354
685.012	0.0148867
685.090	0.0147710
685.168	0.0149026
685.246	0.0149418
685.325	0.0148489
685.403	0.0150361
685.481	0.0149284
685.559	0.0148799
685.637	0.0148915
685.715	0.0150401
685.793	0.0148997
685.871	0.0148325
685.950	0.0149513
686.028	0.0148035
686.106	0.0150392
686.184	0.0150400
686.262	0.0147932
686.340	0.0148745
686.418	0.0149586
686.496	0.0148116
686.575	0.0149696
686.653	0.0149662
686.731	0.0149005
686.809	0.0148566
686.887	0.0148232
686.965	0.0147694
687.043	0.0147780
687.121	0.0149721
687.200	0.0148423
687.278	0.0149390
687.356	0.0150853
687.434	0.0150111
687.512	0.0149773
687.590	0.0149411
687.668	0.0149391
687.746	0.0150420
687.825	0.0149168
687.903	0.0148232
687.981	0.0149010
688.059	0.0148129
688.137	0.0148580
688.215	0.0150073
688.293	0.0148890
688.371	0.0148528
688.450	0.0149062
688.528	0.0149216
688.606	0.0149583
688.684	0.0148797
688.762	0.0148921
688.840	0.0149257
688.918	0.0149046
688.996	0.0148337
689.075	0.0149783
689.153	0.0149950
689.231	0.0147911
689.309	0.0149186
689.387	0.0149041
689.465	0.0149902
689.543	0.0150087
689.621	0.0147995
689.700	0.0148566
689.778	0.0149765
689.856	0.0149826
689.934	0.0149956
690.012	0.0149163
690.090	0.0149187
690.168	0.0149498
690.246	0.0147856
690.325	0.0149350
690.403	0.0149113
690.481	0.0149204
690.559	0.0148953
690.637	0.0148539
690.715	0.0149019
690.793	0.0148251
690.871	0.0149425
690.950	0.0151282
691.028	0.0150699
691.106	0.0147865
691.184	0.0150039
691.262	0.0148360
691.340	0.0148514
691.418	0.0149740
691.496	0.0148290
691.575	0.0148931
691.653	0.0149216
691.731	0.0148574
691.809	0.0148300
691.887	0.0148560
691.965	0.0148070
692.043	0.0149786
692.121	0.0149068
692.200	0.0149385
692.278	0.0148161
692.356	0.0149061
692.434	0.0149075
692.512	0.0149818
692.590	0.0149183
692.668	0.0150764
692.746	0.0149685
692.825	0.0151096
692.903	0.0150110
692.981	0.0150009
693.059	0.0150453
693.137	0.0150780
693.215	0.0149142
693.293	0.0150158
693.371	0.0149828
693.450	0.0149557
693.528	0.0149091
693.606	0.0149008
693.684	0.0150056
693.762	0.0149608
693.840	0.0148051
693.918	0.0149746
693.996	0.0148990
694.075	0.0150069
694.153	0.0150184
694.231	0.0148428
694.309	0.0148457
694.387	0.0150130
694.465	0.0149560
694.543	0.0150130
694.621	0.0150096
694.700	0.0150729
694.778	0.0150935
694.856	0.0149709
694.934	0.0150009
695.012	0.0150822
695.090	0.0150931
695.168	0.0150076
695.246	0.0149732
695.325	0.0150611
695.403	0.0150999
695.481	0.0148475
695.559	0.0149638
695.637	0.0150061
695.715	0.0150471
695.793	0.0149796
695.871	0.0149203
695.950	0.0148786
696.028	0.0148425
696.106	0.0148775
696.184	0.0148651
696.262	0.0149638
696.340	0.0149635
696.418	0.0147879
696.496	0.0147578
696.575	0.0150004
696.653	0.0149995
696.731	0.0148832
696.809	0.0149458
696.887	0.0150266
696.965	0.0148905
697.043	0.0149523
697.121	0.0149017
697.200	0.0149166
697.278	0.0149209
697.356	0.0149796
697.434	0.0148862
697.512	0.0150314
697.590	0.0149257
697.668	0.0149780
697.746	0.0149874
697.825	0.0148267
697.903	0.0149575
697.981	0.0148517
698.059	0.0148129
698.137	0.0147511
698.215	0.0147637
698.293	0.0148699
698.371	0.0147872
698.450	0.0148241
698.528	0.0150394
698.606	0.0147733
698.684	0.0149190
698.762	0.0148492
698.840	0.0148820
698.918	0.0150095
698.996	0.0149926
699.075	0.0150551
699.153	0.0151032
699.231	0.0151643
699.309	0.0150723
699.387	0.0150182
699.465	0.0150153
699.543	0.0151877
699.621	0.0151053
699.700	0.0151128
699.778	0.0151234
699.856	0.0150938
699.934	0.0150999
700.012	0.0149839
700.090	0.0150108
700.168	0.0151588
700.246	0.0150908
700.325	0.0150803
700.403	0.0148418
700.481	0.0148925
700.559	0.0149109
700.637	0.0149945
700.715	0.0148872
700.793	0.0148612
700.871	0.0148817
700.950	0.0147688
701.028	0.0148013
701.106	0.0147976
701.184	0.0147244
701.262	0.0148430
701.340	0.0148011
701.418	0.0148437
701.496	0.0150118
701.575	0.0148877
701.653	0.0148915
701.731	0.0149884
701.809	0.0149998
701.887	0.0149154
701.965	0.0149055
702.043	0.0150077
702.121	0.0148709
702.200	0.0149271
702.278	0.0148766
702.356	0.0149592
702.434	0.0150499
702.512	0.0149718
702.590	0.0150671
702.668	0.0149268
702.746	0.0149593
702.825	0.0148764
702.903	0.0148627
702.981	0.0146764
703.059	0.0148029
703.137	0.0148178
703.215	0.0148212
703.293	0.0149126
703.371	0.0147749
703.450	0.0148164
703.528	0.0150043
703.606	0.0150187
703.684	0.0149698
703.762	0.0148893
703.840	0.0148377
703.918	0.0146049
703.996	0.0147059
704.075	0.0146050
704.153	0.0145040
704.231	0.0146477
704.309	0.0145020
704.387	0.0145068
704.465	0.0146440
704.543	0.0147141
704.621	0.0147493
704.700	0.0148273
704.778	0.0147713
704.856	0.0150132
704.934	0.0151768
705.012	0.0151757
705.090	0.0151106
705.168	0.0151089
705.246	0.0154227
705.325	0.0154214
705.403	0.0154757
705.481	0.0154829
705.559	0.0155235
705.637	0.0153754
705.715	0.0152097
705.793	0.0151641
705.871	0.0151662
705.950	0.0149249
706.028	0.0149286
706.106	0.0147297
706.184	0.0147475
706.262	0.0147966
706.340	0.0146848
706.418	0.0145476
706.496	0.0143598
706.575	0.0142422
706.653	0.0142545
706.731	0.0141452
706.809	0.0141920
706.887	0.0140987
706.965	0.0141694
707.043	0.0141946
707.121	0.0141623
707.200	0.0143099
707.278	0.0145141
707.356	0.0146706
707.434	0.0148713
707.512	0.0152902
707.590	0.0153976
707.668	0.0154419
707.746	0.0156390
707.825	0.0157293
707.903	0.0158201
707.981	0.0156867
708.059	0.0155264
708.137	0.0155086
708.215	0.0156857
708.293	0.0157141
708.371	0.0156645
708.450	0.0156740
708.528	0.0155364
708.606	0.0155000
708.684	0.0154053
708.762	0.0152967
708.840	0.0149876
708.918	0.0147167
708.996	0.0143510
709.075	0.0139555
709.153	0.0137863
709.231	0.0137012
709.309	0.0135628
709.387	0.0135365
709.465	0.0136932
709.543	0.0137034
709.621	0.0137919
709.700	0.0138523
709.778	0.0139024
709.856	0.0141337
709.934	0.0143356
710.012	0.0147260
710.090	0.0150980
710.168	0.0155484
710.246	0.0158067
710.325	0.0161724
710.403	0.0162993
710.481	0.0166557
710.559	0.0164993
710.637	0.0164572
710.715	0.0163452
710.793	0.0161877
710.871	0.0159560
710.950	0.0157117
711.028	0.0153946
711.106	0.0151260
711.184	0.0151633
711.262	0.0150336
711.340	0.0149828
711.418	0.0149033
711.496	0.0150075
711.575	0.0149151
711.653	0.0149062
711.731	0.0148016
711.809	0.0146393
711.887	0.0143401
711.965	0.0140216
712.043	0.0136562
712.121	0.0135848
712.200	0.0134325
712.278	0.0131625
712.356	0.0130946
712.434	0.0133835
712.512	0.0134216
712.590	0.0136292
712.668	0.0140856
712.746	0.0143063
712.825	0.0148985
712.903	0.0152167
712.981	0.0158319
713.059	0.0162215
713.137	0.0165044
713.215	0.0168034
713.293	0.0166497
713.371	0.0166640
713.450	0.0166846
713.528	0.0164145
713.606	0.0161977
713.684	0.0159248
713.762	0.0154530
713.840	0.0153121
713.918	0.0152819
713.996	0.0151250
714.075	0.0150740
714.153	0.0150587
714.231	0.0149136
714.309	0.0150685
714.387	0.0148915
714.465	0.0145892
714.543	0.0145267
714.621	0.0142661
714.700	0.0139252
714.778	0.0137342
714.856	0.0137579
714.934	0.0135183
715.012	0.0133582
715.090	0.0134174
715.168	0.0133408
715.246	0.0133739
715.325	0.0137051
715.403	0.0137676
715.481	0.0139325
715.559	0.0143848
715.637	0.0147355
715.715	0.0150677
715.793	0.0155101
715.871	0.0156886
715.950	0.0161958
716.028	0.0165205
716.106	0.0166818
716.184	0.0169141
716.262	0.0166919
716.340	0.0165279
716.418	0.0163379
716.496	0.0159878
716.575	0.0155181
716.653	0.0151116
716.731	0.0147726
716.809	0.0144913
716.887	0.0143776
716.965	0.0142395
717.043	0.0143051
717.121	0.0142655
717.200	0.0142820
717.278	0.0144855
717.356	0.0144176
717.434	0.0144419
717.512	0.0146152
717.590	0.0146994
717.668	0.0146796
717.746	0.0145390
717.825	0.0145238
717.903	0.0144602
717.981	0.0144279
718.059	0.0144530
718.137	0.0144845
718.215	0.0145032
718.293	0.0143332
718.371	0.0144090
718.450	0.0144559
718.528	0.0144720
718.606	0.0147247
718.684	0.0149890
718.762	0.0151579
718.840	0.0154269
718.918	0.0155411
718.996	0.0158276
719.075	0.0157401
719.153	0.0160047
719.231	0.0157797
719.309	0.0157211
719.387	0.0154980
719.465	0.0151607
719.543	0.0148251
719.621	0.0146236
719.700	0.0143328
719.778	0.0139855
719.856	0.0140404
719.934	0.0141640
720.012	0.0140752
720.090	0.0142989
720.168	0.0145244
720.246	0.0147730
720.325	0.0150180
720.403	0.0152821
720.481	0.0153319
720.559	0.0155724
720.637	0.0155109
720.715	0.0155586
720.793	0.0153768
720.871	0.0152567
720.950	0.0152116
721.028	0.0151978
721.106	0.0149383
721.184	0.0147847
721.262	0.0145410
721.340	0.0143784
721.418	0.0143289
721.496	0.0144452
721.575	0.0146077
721.653	0.0147554
721.731	0.0149677
721.809	0.0150823
721.887	0.0152766
721.965	0.0154595
722.043	0.0156686
722.121	0.0156923
722.200	0.0156007
722.278	0.0153465
722.356	0.0153327
722.434	0.0153208
722.512	0.0149766
722.590	0.0147407
722.668	0.0145454
722.746	0.0146543
722.825	0.0143592
722.903	0.0142661
722.981	0.0141094
723.059	0.0141128
723.137	0.0140997
723.215	0.0143470
723.293	0.0144250
723.371	0.0145741
723.450	0.0146840
723.528	0.0148631
723.606	0.0149245
723.684	0.0150632
723.762	0.0151521
723.840	0.0153012
723.918	0.0152316
723.996	0.0153012
724.075	0.0153416
724.153	0.0152888
724.231	0.0152279
724.309	0.0152750
724.387	0.0153195
724.465	0.0154778
724.543	0.0155235
724.621	0.0154938
724.700	0.0153683
724.778	0.0154967
724.856	0.0155395
724.934	0.0155119
725.012	0.0154227
725.090	0.0154974
725.168	0.0154221
725.246	0.0154028
725.325	0.0154829
725.403	0.0153024
725.481	0.0149506
725.559	0.0149088
725.637	0.0147571
725.715	0.0146275
725.793	0.0142979
725.871	0.0140420
725.950	0.0136634
726.028	0.0136980
726.106	0.0135430
726.184	0.0133971
726.262	0.0134860
726.340	0.0136538
726.418	0.0139154
726.496	0.0142171
726.575	0.0143922
726.653	0.0146708
726.731	0.0150733
726.809	0.0152637
726.887	0.0154274
726.965	0.0155547
727.043	0.0157978
727.121	0.0157766
727.200	0.0158274
727.278	0.0156388
727.356	0.0156974
727.434	0.0156036
727.512	0.0154584
727.590	0.0154084
727.668	0.0155388
727.746	0.0151334
727.825	0.0152834
727.903	0.0151555
727.981	0.0153973
728.059	0.0154070
728.137	0.0153011
728.215	0.0153588
728.293	0.0154661
728.371	0.0153184
728.450	0.0151162
728.528	0.0149093
728.606	0.0148338
728.684	0.0146394
728.762	0.0145432
728.840	0.0143421
728.918	0.0141182
728.996	0.0140691
729.075	0.0140060
729.153	0.0139104
729.231	0.0138416
729.309	0.0139824
729.387	0.0141618
729.465	0.0141737
729.543	0.0143976
729.621	0.0145977
729.700	0.0148090
729.778	0.0149615
729.856	0.0151894
729.934	0.0153797
730.012	0.0153618
730.090	0.0154145
730.168	0.0154323
730.246	0.0153399
730.325	0.0154234
730.403	0.0152029
730.481	0.0151132
730.559	0.0150324
730.637	0.0150889
730.715	0.0150368
730.793	0.0149216
730.871	0.0149500
730.950	0.0150021
731.028	0.0152451
731.106	0.0151497
731.184	0.0151723
731.262	0.0152826
731.340	0.0153204
731.418	0.0152797
731.496	0.0152784
731.575	0.0150342
731.653	0.0150313
731.731	0.0150089
731.809	0.0149223
731.887	0.0149313
731.965	0.0148598
732.043	0.0148113
732.121	0.0148292
732.200	0.0146490
732.278	0.0146609
732.356	0.0147215
732.434	0.0147829
732.512	0.0145209
732.590	0.0146249
732.668	0.0146149
732.746	0.0147102
732.825	0.0146790
732.903	0.0145781
732.981	0.0146075
733.059	0.0146655
733.137	0.0146819
733.215	0.0147677
733.293	0.0148165
733.371	0.0148233
733.450	0.0146896
733.528	0.0147123
733.606	0.0147982
733.684	0.0148319
733.762	0.0148443
733.840	0.0150288
733.918	0.0149451
733.996	0.0149842
734.075	0.0151809
734.153	0.0152751
734.231	0.0152152
734.309	0.0153964
734.387	0.0152396
734.465	0.0152915
734.543	0.0153435
734.621	0.0151426
734.700	0.0154416
734.778	0.0155127
734.856	0.0153660
734.934	0.0152358
735.012	0.0152202
735.090	0.0152463
735.168	0.0151279
735.246	0.0149731
735.325	0.0149494
735.403	0.0147936
735.481	0.0146404
735.559	0.0145783
735.637	0.0144760
735.715	0.0144486
735.793	0.0142425
735.871	0.0143852
735.950	0.0144811
736.028	0.0143599
736.106	0.0145926
736.184	0.0146613
736.262	0.0146870
736.340	0.0148254
736.418	0.0149508
736.496	0.0152234
736.575	0.0152615
736.653	0.0153592
736.731	0.0154234
736.809	0.0155477
736.887	0.0154868
736.965	0.0154845
737.043	0.0153680
737.121	0.0154188
737.200	0.0155096
737.278	0.0152684
737.356	0.0152936
737.434	0.0152494
737.512	0.0150587
737.590	0.0150473
737.668	0.0149732
737.746	0.0148692
737.825	0.0146123
737.903	0.0144852
737.981	0.0146060
738.059	0.0144955
738.137	0.0145489
738.215	0.0145238
738.293	0.0143832
738.371	0.0142713
738.450	0.0143834
738.528	0.0143658
738.606	0.0144466
738.684	0.0143754
738.762	0.0143342
738.840	0.0145042
738.918	0.0146220
738.996	0.0146751
739.075	0.0147153
739.153	0.0148782
739.231	0.0149981
739.309	0.0151138
739.387	0.0152899
739.465	0.0154827
739.543	0.0154847
739.621	0.0155638
739.700	0.0155704
739.778	0.0157697
739.856	0.0158719
739.934	0.0155242
740.012	0.0154539
740.090	0.0153661
740.168	0.0153106
740.246	0.0152316
740.325	0.0150737
740.403	0.0149355
740.481	0.0147552
740.559	0.0146812
740.637	0.0146239
740.715	0.0145068
740.793	0.0143702
740.871	0.0142708
740.950	0.0144456
741.028	0.0144646
741.106	0.0143187
741.184	0.0143016
741.262	0.0143705
741.340	0.0145064
741.418	0.0145557
741.496	0.0145942
741.575	0.0147078
741.653	0.0147189
741.731	0.0148825
741.809	0.0150072
741.887	0.0150057
741.965	0.0150696
742.043	0.0151557
742.121	0.0152031
742.200	0.0151270
742.278	0.0153133
742.356	0.0153004
742.434	0.0153167
742.512	0.0152271
742.590	0.0151158
742.668	0.0150518
742.746	0.0149840
742.825	0.0149847
742.903	0.0150423
742.981	0.0147726
743.059	0.0148771
743.137	0.0148962
743.215	0.0147308
743.293	0.0148008
743.371	0.0147448
743.450	0.0147751
743.528	0.0146661
743.606	0.0147334
743.684	0.0147498
743.762	0.0147914
743.840	0.0149153
743.918	0.0149108
743.996	0.0148459
744.075	0.0150156
744.153	0.0149901
744.231	0.0150718
744.309	0.0150379
744.387	0.0151221
744.465	0.0151629
744.543	0.0152788
744.621	0.0151047
744.700	0.0150449
744.778	0.0152303
744.856	0.0150597
744.934	0.0151353
745.012	0.0151144
745.090	0.0148813
745.168	0.0149318
745.246	0.0148189
745.325	0.0149532
745.403	0.0148292
745.481	0.0147449
745.559	0.0147401
745.637	0.0146278
745.715	0.0146770
745.793	0.0146535
745.871	0.0146215
745.950	0.0146229
746.028	0.0146043
746.106	0.0146626
746.184	0.0146506
746.262	0.0147095
746.340	0.0148240
746.418	0.0148856
746.496	0.0148314
746.575	0.0149022
746.653	0.0149055
746.731	0.0150488
746.809	0.0150711
746.887	0.0152186
746.965	0.0152055
747.043	0.0152170
747.121	0.0152308
747.200	0.0152675
747.278	0.0152145
747.356	0.0151505
747.434	0.0151583
747.512	0.0152615
747.590	0.0149870
747.668	0.0151192
747.746	0.0150470
747.825	0.0148795
747.903	0.0150073
747.981	0.0148438
748.059	0.0148105
748.137	0.0147469
748.215	0.0146677
748.293	0.0146436
748.371	0.0147310
748.450	0.0148262
748.528	0.0147636
748.606	0.0148583
748.684	0.0148119
748.762	0.0147792
748.840	0.0149282
748.918	0.0149835
748.996	0.0149825
749.075	0.0149911
749.153	0.0149638
749.231	0.0150458
749.309	0.0149683
749.387	0.0150584
749.465	0.0149424
749.543	0.0150204
749.621	0.0149885
749.700	0.0149296
749.778	0.0150921
749.856	0.0151886
749.934	0.0150593
750.012	0.0151132
750.090	0.0149557
750.168	0.0149846
750.246	0.0150322
750.325	0.0150019
750.403	0.0150168
750.481	0.0148018
750.559	0.0148985
750.637	0.0146998
750.715	0.0147578
750.793	0.0147504
750.871	0.0146935
750.950	0.0147149
751.028	0.0147211
751.106	0.0147409
751.184	0.0145781
751.262	0.0147170
751.340	0.0146127
751.418	0.0147257
751.496	0.0147524
751.575	0.0147942
751.653	0.0147511
751.731	0.0150433
751.809	0.0150584
751.887	0.0150703
751.965	0.0151646
752.043	0.0151596
752.121	0.0151250
752.200	0.0152472
752.278	0.0152001
752.356	0.0150625
752.434	0.0150552
752.512	0.0150568
752.590	0.0150468
752.668	0.0149666
752.746	0.0149417
752.825	0.0149434
752.903	0.0149425
752.981	0.0150680
753.059	0.0148434
753.137	0.0147005
753.215	0.0146279
753.293	0.0147515
753.371	0.0147133
753.450	0.0146710
753.528	0.0147433
753.606	0.0145573
753.684	0.0146402
753.762	0.0146798
753.840	0.0145686
753.918	0.0147876
753.996	0.0147544
754.075	0.0148596
754.153	0.0150139
754.231	0.0150146
754.309	0.0148017
754.387	0.0149744
754.465	0.0149558
754.543	0.0150090
754.621	0.0150909
754.700	0.0151157
754.778	0.0151156
754.856	0.0150907
754.934	0.0150081
755.012	0.0150658
755.090	0.0149897
755.168	0.0149834
755.246	0.0148765
755.325	0.0148403
755.403	0.0149987
755.481	0.0149408
755.559	0.0148042
755.637	0.0148422
755.715	0.0149012
755.793	0.0147558
755.871	0.0147352
755.950	0.0147417
756.028	0.0150644
756.106	0.0149409
756.184	0.0149221
756.262	0.0149356
756.340	0.0150529
756.418	0.0149415
756.496	0.0149436
756.575	0.0150681
756.653	0.0149804
756.731	0.0150312
756.809	0.0148409
756.887	0.0150932
756.965	0.0148582
757.043	0.0148409
757.121	0.0149681
757.200	0.0148812
757.278	0.0149812
757.356	0.0149085
757.434	0.0151070
757.512	0.0149848
757.590	0.0147138
757.668	0.0149530
757.746	0.0149646
757.825	0.0149931
757.903	0.0148638
757.981	0.0148390
758.059	0.0149169
758.137	0.0147707
758.215	0.0149414
758.293	0.0149008
758.371	0.0150458
758.450	0.0148112
758.528	0.0148835
758.606	0.0149491
758.684	0.0151359
758.762	0.0149849
758.840	0.0150376
758.918	0.0149926
758.996	0.0150074
759.075	0.0150832
759.153	0.0149619
759.231	0.0149573
759.309	0.0150790
759.387	0.0151143
759.465	0.0150960
759.543	0.0151173
759.621	0.0153161
759.700	0.0151646
759.778	0.0150679
759.856	0.0148472
759.934	0.0149886
760.012	0.0150706
760.090	0.0148518
760.168	0.0149512
760.246	0.0149545
760.325	0.0148608
760.403	0.0148504
760.481	0.0146671
760.559	0.0148788
760.637	0.0148900
760.715	0.0148058
760.793	0.0148632
760.871	0.0146704
760.950	0.0146061
761.028	0.0146841
761.106	0.0147517
761.184	0.0146165
761.262	0.0146133
761.340	0.0146455
761.418	0.0145778
761.496	0.0145425
761.575	0.0145827
761.653	0.0147601
761.731	0.0148202
761.809	0.0147828
761.887	0.0147385
761.965	0.0148890
762.043	0.0149640
762.121	0.0149323
762.200	0.0149963
762.278	0.0151746
762.356	0.0150513
762.434	0.0151562
762.512	0.0152972
762.590	0.0152112
762.668	0.0153423
762.746	0.0152638
762.825	0.0153197
762.903	0.0151067
762.981	0.0151534
763.059	0.0152486
763.137	0.0151914
763.215	0.0150693
763.293	0.0148541
763.371	0.0149222
763.450	0.0148986
763.528	0.0148160
763.606	0.0148830
763.684	0.0147672
763.762	0.0147174
763.840	0.0147192
763.918	0.0147644
763.996	0.0147450
764.075	0.0146384
764.153	0.0148171
764.231	0.0146797
764.309	0.0147243
764.387	0.0146884
764.465	0.0146615
764.543	0.0149483
764.621	0.0148805
764.700	0.0148186
