05/04/2022	21:07:42	Ver.	4.1	UNKNOWN
Optical Delay	678.996401	Delta X		0.078125	Sweeps	1	Scan Rate	0/0
Coordinates	Axis 1	NaN	Axis 2	NaN	Axis 3	NaN	Axis 4	NaN	Axis 5	NaN	Axis 6	0.000000
TX Power	0.000000	RX Power	0.000000

678.996	0.0148794
679.075	0.0148495
679.153	0.0147648
679.231	0.0148816
679.309	0.0147938
679.387	0.0148160
679.465	0.0149531
679.543	0.0148160
679.621	0.0147935
679.700	0.0148089
679.778	0.0149742
679.856	0.0148243
679.934	0.0149577
680.012	0.0147740
680.090	0.0148557
680.168	0.0148656
680.246	0.0148535
680.325	0.0147533
680.403	0.0147417
680.481	0.0149192
680.559	0.0149887
680.637	0.0148047
680.715	0.0148206
680.793	0.0148396
680.871	0.0148696
680.950	0.0148754
681.028	0.0148473
681.106	0.0147614
681.184	0.0148663
681.262	0.0148679
681.340	0.0147128
681.418	0.0147519
681.496	0.0147392
681.575	0.0149417
681.653	0.0147951
681.731	0.0148466
681.809	0.0148098
681.887	0.0149121
681.965	0.0147942
682.043	0.0148067
682.121	0.0149187
682.200	0.0148403
682.278	0.0148867
682.356	0.0148592
682.434	0.0148309
682.512	0.0147293
682.590	0.0148324
682.668	0.0148861
682.746	0.0148131
682.825	0.0148602
682.903	0.0148522
682.981	0.0148718
683.059	0.0148484
683.137	0.0148814
683.215	0.0147829
683.293	0.0149419
683.371	0.0147855
683.450	0.0148163
683.528	0.0149773
683.606	0.0147726
683.684	0.0147307
683.762	0.0149156
683.840	0.0148427
683.918	0.0147893
683.996	0.0149303
684.075	0.0148174
684.153	0.0148730
684.231	0.0148389
684.309	0.0147594
684.387	0.0147758
684.465	0.0147894
684.543	0.0149091
684.621	0.0148859
684.700	0.0147520
684.778	0.0147720
684.856	0.0148254
684.934	0.0147840
685.012	0.0148945
685.090	0.0147168
685.168	0.0148325
685.246	0.0147751
685.325	0.0147675
685.403	0.0148376
685.481	0.0148737
685.559	0.0147981
685.637	0.0148302
685.715	0.0148106
685.793	0.0148756
685.871	0.0148743
685.950	0.0148107
686.028	0.0147433
686.106	0.0148301
686.184	0.0147459
686.262	0.0148805
686.340	0.0148260
686.418	0.0148753
686.496	0.0148726
686.575	0.0147868
686.653	0.0148930
686.731	0.0149113
686.809	0.0149605
686.887	0.0149982
686.965	0.0149145
687.043	0.0147894
687.121	0.0149078
687.200	0.0149627
687.278	0.0148418
687.356	0.0148505
687.434	0.0148502
687.512	0.0146947
687.590	0.0148159
687.668	0.0148866
687.746	0.0148778
687.825	0.0147903
687.903	0.0148016
687.981	0.0148633
688.059	0.0148911
688.137	0.0148084
688.215	0.0148615
688.293	0.0148975
688.371	0.0148564
688.450	0.0148454
688.528	0.0148684
688.606	0.0148536
688.684	0.0148931
688.762	0.0149049
688.840	0.0147688
688.918	0.0146942
688.996	0.0146801
689.075	0.0148569
689.153	0.0148847
689.231	0.0147522
689.309	0.0148140
689.387	0.0148186
689.465	0.0148828
689.543	0.0147654
689.621	0.0148041
689.700	0.0148598
689.778	0.0147910
689.856	0.0146359
689.934	0.0148663
690.012	0.0148178
690.090	0.0149291
690.168	0.0148386
690.246	0.0148491
690.325	0.0148087
690.403	0.0147741
690.481	0.0148233
690.559	0.0147939
690.637	0.0148663
690.715	0.0148011
690.793	0.0148469
690.871	0.0148434
690.950	0.0149465
691.028	0.0150240
691.106	0.0149590
691.184	0.0148609
691.262	0.0148734
691.340	0.0148508
691.418	0.0147579
691.496	0.0147311
691.575	0.0149039
691.653	0.0148523
691.731	0.0147360
691.809	0.0149118
691.887	0.0147581
691.965	0.0148016
692.043	0.0148362
692.121	0.0147439
692.200	0.0147663
692.278	0.0149026
692.356	0.0149164
692.434	0.0149136
692.512	0.0149038
692.590	0.0147614
692.668	0.0147561
692.746	0.0147416
692.825	0.0147777
692.903	0.0148820
692.981	0.0148381
693.059	0.0147541
693.137	0.0148749
693.215	0.0149332
693.293	0.0148268
693.371	0.0148415
693.450	0.0149393
693.528	0.0148217
693.606	0.0150460
693.684	0.0150058
693.762	0.0149350
693.840	0.0148789
693.918	0.0148752
693.996	0.0150797
694.075	0.0150279
694.153	0.0148576
694.231	0.0148386
694.309	0.0149382
694.387	0.0149840
694.465	0.0150648
694.543	0.0148910
694.621	0.0148807
694.700	0.0148915
694.778	0.0149864
694.856	0.0148615
694.934	0.0148994
695.012	0.0148679
695.090	0.0148604
695.168	0.0148805
695.246	0.0147946
695.325	0.0148131
695.403	0.0147955
695.481	0.0146168
695.559	0.0147012
695.637	0.0146693
695.715	0.0146959
695.793	0.0147679
695.871	0.0146190
695.950	0.0147986
696.028	0.0147531
696.106	0.0147008
696.184	0.0147606
696.262	0.0147720
696.340	0.0148621
696.418	0.0147276
696.496	0.0148880
696.575	0.0148914
696.653	0.0149417
696.731	0.0149678
696.809	0.0149183
696.887	0.0147902
696.965	0.0149613
697.043	0.0148897
697.121	0.0149783
697.200	0.0147758
697.278	0.0147860
697.356	0.0147979
697.434	0.0146958
697.512	0.0147245
697.590	0.0148502
697.668	0.0146944
697.746	0.0147866
697.825	0.0147215
697.903	0.0147883
697.981	0.0148241
698.059	0.0147148
698.137	0.0147192
698.215	0.0149213
698.293	0.0149654
698.371	0.0149751
698.450	0.0148372
698.528	0.0149864
698.606	0.0149527
698.684	0.0150586
698.762	0.0150504
698.840	0.0149023
698.918	0.0150027
698.996	0.0149865
699.075	0.0149490
699.153	0.0149768
699.231	0.0149548
699.309	0.0150947
699.387	0.0150564
699.465	0.0149603
699.543	0.0149305
699.621	0.0149802
699.700	0.0150198
699.778	0.0149090
699.856	0.0149159
699.934	0.0148354
700.012	0.0150304
700.090	0.0148538
700.168	0.0147247
700.246	0.0148354
700.325	0.0147890
700.403	0.0147623
700.481	0.0147718
700.559	0.0147089
700.637	0.0148662
700.715	0.0148004
700.793	0.0148265
700.871	0.0147676
700.950	0.0147092
701.028	0.0146950
701.106	0.0148051
701.184	0.0148142
701.262	0.0147885
701.340	0.0146600
701.418	0.0147942
701.496	0.0147498
701.575	0.0148097
701.653	0.0147387
701.731	0.0149313
701.809	0.0148841
701.887	0.0150043
701.965	0.0149883
702.043	0.0148795
702.121	0.0149473
702.200	0.0151429
702.278	0.0148914
702.356	0.0148076
702.434	0.0148318
702.512	0.0148936
702.590	0.0149428
702.668	0.0148669
702.746	0.0146998
702.825	0.0145943
702.903	0.0146436
702.981	0.0146397
703.059	0.0147018
703.137	0.0147154
703.215	0.0146209
703.293	0.0147144
703.371	0.0147330
703.450	0.0148771
703.528	0.0148777
703.606	0.0148198
703.684	0.0149074
703.762	0.0148730
703.840	0.0147701
703.918	0.0145953
703.996	0.0145918
704.075	0.0146069
704.153	0.0146962
704.231	0.0147134
704.309	0.0145633
704.387	0.0147153
704.465	0.0149687
704.543	0.0149333
704.621	0.0150018
704.700	0.0150341
704.778	0.0150493
704.856	0.0150555
704.934	0.0150378
705.012	0.0150152
705.090	0.0150750
705.168	0.0149805
705.246	0.0149715
705.325	0.0150877
705.403	0.0151286
705.481	0.0151657
705.559	0.0150952
705.637	0.0150268
705.715	0.0149916
705.793	0.0150752
705.871	0.0149326
705.950	0.0147231
706.028	0.0146738
706.106	0.0145820
706.184	0.0145332
706.262	0.0144784
706.340	0.0144209
706.418	0.0144070
706.496	0.0143533
706.575	0.0143526
706.653	0.0142140
706.731	0.0143193
706.809	0.0143132
706.887	0.0142378
706.965	0.0141142
707.043	0.0141560
707.121	0.0142300
707.200	0.0141876
707.278	0.0144233
707.356	0.0145728
707.434	0.0149809
707.512	0.0152361
707.590	0.0154151
707.668	0.0155921
707.746	0.0157540
707.825	0.0158363
707.903	0.0156526
707.981	0.0156167
708.059	0.0155431
708.137	0.0154657
708.215	0.0152820
708.293	0.0153637
708.371	0.0153387
708.450	0.0154205
708.528	0.0153571
708.606	0.0153333
708.684	0.0151871
708.762	0.0149324
708.840	0.0145438
708.918	0.0143112
708.996	0.0139384
709.075	0.0136878
709.153	0.0134075
709.231	0.0133586
709.309	0.0134744
709.387	0.0134109
709.465	0.0135764
709.543	0.0136525
709.621	0.0140379
709.700	0.0142571
709.778	0.0142633
709.856	0.0145996
709.934	0.0148027
710.012	0.0151275
710.090	0.0155238
710.168	0.0156850
710.246	0.0157501
710.325	0.0158842
710.403	0.0160813
710.481	0.0162543
710.559	0.0161415
710.637	0.0159592
710.715	0.0158772
710.793	0.0158891
710.871	0.0156629
710.950	0.0154546
711.028	0.0153604
711.106	0.0151315
711.184	0.0150716
711.262	0.0149901
711.340	0.0150802
711.418	0.0150295
711.496	0.0150449
711.575	0.0149074
711.653	0.0146205
711.731	0.0144482
711.809	0.0140852
711.887	0.0138467
711.965	0.0137035
712.043	0.0133496
712.121	0.0132239
712.200	0.0133787
712.278	0.0132839
712.356	0.0134038
712.434	0.0135863
712.512	0.0137421
712.590	0.0141918
712.668	0.0145449
712.746	0.0149571
712.825	0.0151431
712.903	0.0156092
712.981	0.0159394
713.059	0.0161463
713.137	0.0162273
713.215	0.0163945
713.293	0.0165472
713.371	0.0163612
713.450	0.0162437
713.528	0.0161546
713.606	0.0156980
713.684	0.0154031
713.762	0.0152921
713.840	0.0151016
713.918	0.0150781
713.996	0.0150591
714.075	0.0151212
714.153	0.0151384
714.231	0.0151656
714.309	0.0151511
714.387	0.0149424
714.465	0.0145557
714.543	0.0142612
714.621	0.0139462
714.700	0.0138103
714.778	0.0134364
714.856	0.0133392
714.934	0.0132896
715.012	0.0133449
715.090	0.0133870
715.168	0.0133906
715.246	0.0135995
715.325	0.0138560
715.403	0.0141266
715.481	0.0143769
715.559	0.0146317
715.637	0.0151304
715.715	0.0152925
715.793	0.0156036
715.871	0.0158404
715.950	0.0158839
716.028	0.0160175
716.106	0.0161999
716.184	0.0163490
716.262	0.0162352
716.340	0.0160507
716.418	0.0159525
716.496	0.0157303
716.575	0.0151872
716.653	0.0150933
716.731	0.0147589
716.809	0.0144518
716.887	0.0144817
716.965	0.0143353
717.043	0.0143780
717.121	0.0143823
717.200	0.0144642
717.278	0.0144485
717.356	0.0145883
717.434	0.0145772
717.512	0.0145632
717.590	0.0146429
717.668	0.0146268
717.746	0.0144473
717.825	0.0145108
717.903	0.0144862
717.981	0.0144434
718.059	0.0143520
718.137	0.0144139
718.215	0.0142717
718.293	0.0142443
718.371	0.0141375
718.450	0.0142513
718.528	0.0142547
718.606	0.0145447
718.684	0.0148087
718.762	0.0149946
718.840	0.0152552
718.918	0.0153819
718.996	0.0154408
719.075	0.0156705
719.153	0.0155543
719.231	0.0155522
719.309	0.0154794
719.387	0.0154419
719.465	0.0151220
719.543	0.0148307
719.621	0.0147404
719.700	0.0145941
719.778	0.0143989
719.856	0.0143087
719.934	0.0142498
720.012	0.0143542
720.090	0.0143517
720.168	0.0145646
720.246	0.0146825
720.325	0.0149177
720.403	0.0150449
720.481	0.0151073
720.559	0.0151125
720.637	0.0153857
720.715	0.0154118
720.793	0.0153447
720.871	0.0153059
720.950	0.0150863
721.028	0.0150665
721.106	0.0148471
721.184	0.0146165
721.262	0.0144825
721.340	0.0144122
721.418	0.0143758
721.496	0.0144412
721.575	0.0144756
721.653	0.0146321
721.731	0.0147340
721.809	0.0150462
721.887	0.0151569
721.965	0.0153162
722.043	0.0154858
722.121	0.0154418
722.200	0.0154478
722.278	0.0153700
722.356	0.0152808
722.434	0.0149746
722.512	0.0149261
722.590	0.0147786
722.668	0.0145998
722.746	0.0145875
722.825	0.0143472
722.903	0.0141312
722.981	0.0140639
723.059	0.0140809
723.137	0.0140572
723.215	0.0140285
723.293	0.0141702
723.371	0.0143729
723.450	0.0145298
723.528	0.0147959
723.606	0.0151218
723.684	0.0151317
723.762	0.0151997
723.840	0.0153951
723.918	0.0154880
723.996	0.0154768
724.075	0.0154639
724.153	0.0152493
724.231	0.0151552
724.309	0.0153552
724.387	0.0153205
724.465	0.0152042
724.543	0.0152177
724.621	0.0152936
724.700	0.0152702
724.778	0.0152705
724.856	0.0151727
724.934	0.0151394
725.012	0.0153142
725.090	0.0154383
725.168	0.0152128
725.246	0.0153677
725.325	0.0151530
725.403	0.0153204
725.481	0.0150687
725.559	0.0148962
725.637	0.0145537
725.715	0.0143903
725.793	0.0141443
725.871	0.0139109
725.950	0.0138216
726.028	0.0135149
726.106	0.0133599
726.184	0.0134032
726.262	0.0134513
726.340	0.0137937
726.418	0.0138181
726.496	0.0140903
726.575	0.0144000
726.653	0.0144952
726.731	0.0149110
726.809	0.0154164
726.887	0.0154946
726.965	0.0155298
727.043	0.0155711
727.121	0.0158251
727.200	0.0156843
727.278	0.0157511
727.356	0.0155318
727.434	0.0154529
727.512	0.0152987
727.590	0.0151101
727.668	0.0151729
727.746	0.0150122
727.825	0.0149887
727.903	0.0148981
727.981	0.0149626
728.059	0.0151025
728.137	0.0151972
728.215	0.0153532
728.293	0.0152251
728.371	0.0151551
728.450	0.0151125
728.528	0.0150017
728.606	0.0148001
728.684	0.0147798
728.762	0.0146291
728.840	0.0144037
728.918	0.0142168
728.996	0.0141030
729.075	0.0140455
729.153	0.0139198
729.231	0.0138563
729.309	0.0138216
729.387	0.0139607
729.465	0.0141050
729.543	0.0141082
729.621	0.0141370
729.700	0.0145656
729.778	0.0147201
729.856	0.0147971
729.934	0.0149671
730.012	0.0151562
730.090	0.0152222
730.168	0.0153919
730.246	0.0153233
730.325	0.0152744
730.403	0.0151122
730.481	0.0151012
730.559	0.0149757
730.637	0.0149657
730.715	0.0149172
730.793	0.0150251
730.871	0.0149533
730.950	0.0148531
731.028	0.0150311
731.106	0.0151122
731.184	0.0150777
731.262	0.0152972
731.340	0.0154207
731.418	0.0151109
731.496	0.0151319
731.575	0.0151199
731.653	0.0150928
731.731	0.0149710
731.809	0.0149808
731.887	0.0148981
731.965	0.0148914
732.043	0.0149278
732.121	0.0146976
732.200	0.0146227
732.278	0.0145206
732.356	0.0147150
732.434	0.0144131
732.512	0.0144683
732.590	0.0144701
732.668	0.0143758
732.746	0.0144827
732.825	0.0142774
732.903	0.0145256
732.981	0.0145554
733.059	0.0146083
733.137	0.0146949
733.215	0.0146661
733.293	0.0147709
733.371	0.0148974
733.450	0.0148617
733.528	0.0148226
733.606	0.0148814
733.684	0.0149248
733.762	0.0148361
733.840	0.0148516
733.918	0.0149905
733.996	0.0149147
734.075	0.0150156
734.153	0.0151780
734.231	0.0151458
734.309	0.0152392
734.387	0.0152898
734.465	0.0152142
734.543	0.0152644
734.621	0.0152483
734.700	0.0151496
734.778	0.0150175
734.856	0.0149908
734.934	0.0150023
735.012	0.0149931
735.090	0.0149983
735.168	0.0148376
735.246	0.0148932
735.325	0.0147588
735.403	0.0147552
735.481	0.0147356
735.559	0.0145991
735.637	0.0145660
735.715	0.0143828
735.793	0.0143795
735.871	0.0144573
735.950	0.0143742
736.028	0.0145045
736.106	0.0144824
736.184	0.0144364
736.262	0.0145167
736.340	0.0146363
736.418	0.0148854
736.496	0.0149615
736.575	0.0149671
736.653	0.0150521
736.731	0.0151699
736.809	0.0151099
736.887	0.0152637
736.965	0.0153345
737.043	0.0152003
737.121	0.0153001
737.200	0.0153058
737.278	0.0151041
737.356	0.0150089
737.434	0.0151521
737.512	0.0152358
737.590	0.0147333
737.668	0.0147664
737.746	0.0147770
737.825	0.0145706
737.903	0.0145541
737.981	0.0144818
738.059	0.0143616
738.137	0.0141998
738.215	0.0143808
738.293	0.0144817
738.371	0.0144160
738.450	0.0145594
738.528	0.0146181
738.606	0.0145246
738.684	0.0146352
738.762	0.0145760
738.840	0.0145394
738.918	0.0146526
738.996	0.0144801
739.075	0.0145474
739.153	0.0148080
739.231	0.0148612
739.309	0.0150146
739.387	0.0149193
739.465	0.0148955
739.543	0.0150678
739.621	0.0151750
739.700	0.0153251
739.778	0.0152136
739.856	0.0154634
739.934	0.0153082
740.012	0.0154343
740.090	0.0154094
740.168	0.0153314
740.246	0.0153451
740.325	0.0150061
740.403	0.0148798
740.481	0.0149476
740.559	0.0148717
740.637	0.0145766
740.715	0.0145644
740.793	0.0145343
740.871	0.0143648
740.950	0.0142717
741.028	0.0143472
741.106	0.0143925
741.184	0.0143705
741.262	0.0142399
741.340	0.0144514
741.418	0.0144695
741.496	0.0145033
741.575	0.0146007
741.653	0.0146458
741.731	0.0147842
741.809	0.0149099
741.887	0.0148782
741.965	0.0148385
742.043	0.0148158
742.121	0.0149464
742.200	0.0150342
742.278	0.0152142
742.356	0.0151363
742.434	0.0151059
742.512	0.0150467
742.590	0.0149513
742.668	0.0150332
742.746	0.0150325
742.825	0.0151682
742.903	0.0148716
742.981	0.0149126
743.059	0.0148707
743.137	0.0149754
743.215	0.0149526
743.293	0.0148768
743.371	0.0147401
743.450	0.0149747
743.528	0.0147867
743.606	0.0148528
743.684	0.0147827
743.762	0.0146808
743.840	0.0148542
743.918	0.0150350
743.996	0.0149013
744.075	0.0149065
744.153	0.0150195
744.231	0.0149764
744.309	0.0149407
744.387	0.0151121
744.465	0.0150179
744.543	0.0149470
744.621	0.0149205
744.700	0.0149272
744.778	0.0150752
744.856	0.0149310
744.934	0.0149774
745.012	0.0149993
745.090	0.0149750
745.168	0.0149290
745.246	0.0149480
745.325	0.0146947
745.403	0.0147468
745.481	0.0146626
745.559	0.0145452
745.637	0.0147575
745.715	0.0145296
745.793	0.0146728
745.871	0.0146174
745.950	0.0145575
746.028	0.0147369
746.106	0.0146857
746.184	0.0146333
746.262	0.0147456
746.340	0.0146510
746.418	0.0148695
746.496	0.0149483
746.575	0.0149339
746.653	0.0150070
746.731	0.0149748
746.809	0.0150551
746.887	0.0150306
746.965	0.0150478
747.043	0.0151027
747.121	0.0151527
747.200	0.0150837
747.278	0.0149220
747.356	0.0151138
747.434	0.0151472
747.512	0.0149345
747.590	0.0148627
747.668	0.0149768
747.746	0.0149293
747.825	0.0149129
747.903	0.0148696
747.981	0.0148747
748.059	0.0147472
748.137	0.0147218
748.215	0.0147583
748.293	0.0146337
748.371	0.0147467
748.450	0.0148069
748.528	0.0146198
748.606	0.0148080
748.684	0.0148032
748.762	0.0148544
748.840	0.0148087
748.918	0.0149097
748.996	0.0147582
749.075	0.0149368
749.153	0.0149454
749.231	0.0149734
749.309	0.0149812
749.387	0.0149466
749.465	0.0150518
749.543	0.0150716
749.621	0.0149083
749.700	0.0149123
749.778	0.0149187
749.856	0.0150211
749.934	0.0148636
750.012	0.0149496
750.090	0.0150403
750.168	0.0148727
750.246	0.0148614
750.325	0.0149023
750.403	0.0147556
750.481	0.0148069
750.559	0.0146633
750.637	0.0146803
750.715	0.0146155
750.793	0.0148239
750.871	0.0147026
750.950	0.0146307
751.028	0.0146162
751.106	0.0145539
751.184	0.0146233
751.262	0.0145866
751.340	0.0146865
751.418	0.0146616
751.496	0.0145675
751.575	0.0147941
751.653	0.0147895
751.731	0.0147372
751.809	0.0149452
751.887	0.0148444
751.965	0.0149851
752.043	0.0149787
752.121	0.0150601
752.200	0.0150698
752.278	0.0150667
752.356	0.0150745
752.434	0.0149628
752.512	0.0151053
752.590	0.0150993
752.668	0.0149651
752.746	0.0149086
752.825	0.0148918
752.903	0.0148793
752.981	0.0148569
753.059	0.0148024
753.137	0.0147081
753.215	0.0146925
753.293	0.0145760
753.371	0.0147437
753.450	0.0147694
753.528	0.0147607
753.606	0.0147397
753.684	0.0147369
753.762	0.0145568
753.840	0.0147272
753.918	0.0147623
753.996	0.0147998
754.075	0.0147280
754.153	0.0147437
754.231	0.0149081
754.309	0.0147404
754.387	0.0147510
754.465	0.0147333
754.543	0.0147916
754.621	0.0148911
754.700	0.0148333
754.778	0.0149152
754.856	0.0148563
754.934	0.0148558
755.012	0.0148455
755.090	0.0148721
755.168	0.0148407
755.246	0.0149176
755.325	0.0147745
755.403	0.0148460
755.481	0.0149315
755.559	0.0147598
755.637	0.0147662
755.715	0.0148438
755.793	0.0148536
755.871	0.0148425
755.950	0.0147265
756.028	0.0147929
756.106	0.0147025
756.184	0.0148650
756.262	0.0149658
756.340	0.0148306
756.418	0.0148950
756.496	0.0150161
756.575	0.0149411
756.653	0.0149090
756.731	0.0148807
756.809	0.0150617
756.887	0.0149509
756.965	0.0148151
757.043	0.0149048
757.121	0.0148809
757.200	0.0149004
757.278	0.0147971
757.356	0.0148177
757.434	0.0148936
757.512	0.0147020
757.590	0.0147073
757.668	0.0148091
757.746	0.0147137
757.825	0.0146602
757.903	0.0148490
757.981	0.0148917
758.059	0.0147546
758.137	0.0148354
758.215	0.0147922
758.293	0.0147313
758.371	0.0149715
758.450	0.0148589
758.528	0.0148888
758.606	0.0146945
758.684	0.0147859
758.762	0.0150130
758.840	0.0149018
758.918	0.0148369
758.996	0.0148866
759.075	0.0149901
759.153	0.0150271
759.231	0.0150503
759.309	0.0149953
759.387	0.0151656
759.465	0.0149787
759.543	0.0149432
759.621	0.0149506
759.700	0.0149456
759.778	0.0150457
759.856	0.0150598
759.934	0.0151017
760.012	0.0149419
760.090	0.0148663
760.168	0.0149168
760.246	0.0149882
760.325	0.0149535
760.403	0.0147239
760.481	0.0147068
760.559	0.0147460
760.637	0.0147218
760.715	0.0146542
760.793	0.0147117
760.871	0.0146793
760.950	0.0146088
761.028	0.0146269
761.106	0.0146115
761.184	0.0144442
761.262	0.0146132
761.340	0.0145978
761.418	0.0145033
761.496	0.0145901
761.575	0.0145410
761.653	0.0144756
761.731	0.0145603
761.809	0.0147959
761.887	0.0147731
761.965	0.0148385
762.043	0.0148599
762.121	0.0149375
762.200	0.0149122
762.278	0.0149118
762.356	0.0149876
762.434	0.0150983
762.512	0.0151839
762.590	0.0151891
762.668	0.0151946
762.746	0.0151590
762.825	0.0151385
762.903	0.0152304
762.981	0.0151413
763.059	0.0150984
763.137	0.0149699
763.215	0.0149882
763.293	0.0149886
763.371	0.0149520
763.450	0.0149056
763.528	0.0147849
763.606	0.0148281
763.684	0.0147755
763.762	0.0146645
763.840	0.0147099
763.918	0.0147237
763.996	0.0148064
764.075	0.0148663
764.153	0.0147478
764.231	0.0148003
764.309	0.0147900
764.387	0.0147163
764.465	0.0146864
764.543	0.0146188
764.621	0.0147896
764.700	0.0146900
