05/04/2022	21:08:02	Ver.	4.1	UNKNOWN
Optical Delay	678.996401	Delta X		0.078125	Sweeps	1	Scan Rate	0/0
Coordinates	Axis 1	NaN	Axis 2	NaN	Axis 3	NaN	Axis 4	NaN	Axis 5	NaN	Axis 6	0.000000
TX Power	0.000000	RX Power	0.000000

678.996	0.0151028
679.075	0.0151720
679.153	0.0149982
679.231	0.0150115
679.309	0.0152290
679.387	0.0150877
679.465	0.0151133
679.543	0.0150842
679.621	0.0150230
679.700	0.0149911
679.778	0.0151555
679.856	0.0150149
679.934	0.0151439
680.012	0.0152081
680.090	0.0150427
680.168	0.0149969
680.246	0.0149650
680.325	0.0150788
680.403	0.0151321
680.481	0.0151865
680.559	0.0151661
680.637	0.0150476
680.715	0.0150930
680.793	0.0150423
680.871	0.0150652
680.950	0.0150925
681.028	0.0150016
681.106	0.0150048
681.184	0.0151134
681.262	0.0151642
681.340	0.0152806
681.418	0.0150047
681.496	0.0150113
681.575	0.0150539
681.653	0.0150884
681.731	0.0149459
681.809	0.0151861
681.887	0.0149904
681.965	0.0151249
682.043	0.0149898
682.121	0.0151390
682.200	0.0150318
682.278	0.0150955
682.356	0.0150724
682.434	0.0151585
682.512	0.0151788
682.590	0.0151515
682.668	0.0151405
682.746	0.0150710
682.825	0.0150019
682.903	0.0151452
682.981	0.0150153
683.059	0.0151398
683.137	0.0150868
683.215	0.0150654
683.293	0.0150787
683.371	0.0150645
683.450	0.0151497
683.528	0.0151474
683.606	0.0150665
683.684	0.0150021
683.762	0.0150994
683.840	0.0151881
683.918	0.0150900
683.996	0.0151270
684.075	0.0149168
684.153	0.0151421
684.231	0.0150536
684.309	0.0150932
684.387	0.0152154
684.465	0.0150933
684.543	0.0150732
684.621	0.0150433
684.700	0.0151723
684.778	0.0152131
684.856	0.0152053
684.934	0.0150971
685.012	0.0151517
685.090	0.0152460
685.168	0.0151268
685.246	0.0151611
685.325	0.0152319
685.403	0.0151074
685.481	0.0152277
685.559	0.0150828
685.637	0.0151113
685.715	0.0151334
685.793	0.0151458
685.871	0.0150701
685.950	0.0151965
686.028	0.0150713
686.106	0.0150595
686.184	0.0151410
686.262	0.0151004
686.340	0.0150174
686.418	0.0151128
686.496	0.0151721
686.575	0.0150326
686.653	0.0151369
686.731	0.0151034
686.809	0.0150394
686.887	0.0151048
686.965	0.0150482
687.043	0.0150858
687.121	0.0150996
687.200	0.0150176
687.278	0.0151955
687.356	0.0151396
687.434	0.0150330
687.512	0.0150201
687.590	0.0151578
687.668	0.0151964
687.746	0.0152016
687.825	0.0149683
687.903	0.0151833
687.981	0.0151220
688.059	0.0150867
688.137	0.0151785
688.215	0.0151919
688.293	0.0151540
688.371	0.0152117
688.450	0.0151901
688.528	0.0150471
688.606	0.0150671
688.684	0.0151572
688.762	0.0151735
688.840	0.0151069
688.918	0.0151864
688.996	0.0151421
689.075	0.0149788
689.153	0.0151418
689.231	0.0151219
689.309	0.0151099
689.387	0.0151670
689.465	0.0151964
689.543	0.0149809
689.621	0.0150877
689.700	0.0150306
689.778	0.0152001
689.856	0.0153153
689.934	0.0152324
690.012	0.0152313
690.090	0.0152277
690.168	0.0152779
690.246	0.0151924
690.325	0.0151942
690.403	0.0150590
690.481	0.0152010
690.559	0.0151232
690.637	0.0152583
690.715	0.0152382
690.793	0.0151067
690.871	0.0150399
690.950	0.0152245
691.028	0.0151588
691.106	0.0151057
691.184	0.0152478
691.262	0.0152534
691.340	0.0151432
691.418	0.0152646
691.496	0.0150004
691.575	0.0151154
691.653	0.0151432
691.731	0.0153187
691.809	0.0150557
691.887	0.0150477
691.965	0.0151234
692.043	0.0150845
692.121	0.0151553
692.200	0.0152228
692.278	0.0151884
692.356	0.0151469
692.434	0.0151295
692.512	0.0151159
692.590	0.0152046
692.668	0.0150752
692.746	0.0152902
692.825	0.0152493
692.903	0.0152249
692.981	0.0152036
693.059	0.0152988
693.137	0.0152388
693.215	0.0151559
693.293	0.0150655
693.371	0.0152200
693.450	0.0151066
693.528	0.0151244
693.606	0.0150907
693.684	0.0151090
693.762	0.0150638
693.840	0.0148946
693.918	0.0149118
693.996	0.0150357
694.075	0.0150412
694.153	0.0149112
694.231	0.0150097
694.309	0.0148532
694.387	0.0149928
694.465	0.0149831
694.543	0.0149026
694.621	0.0150040
694.700	0.0149792
694.778	0.0149648
694.856	0.0149647
694.934	0.0149844
695.012	0.0150307
695.090	0.0151353
695.168	0.0151899
695.246	0.0153119
695.325	0.0151540
695.403	0.0152234
695.481	0.0152068
695.559	0.0152525
695.637	0.0153572
695.715	0.0152272
695.793	0.0152399
695.871	0.0151448
695.950	0.0152599
696.028	0.0152646
696.106	0.0152790
696.184	0.0151600
696.262	0.0151219
696.340	0.0151065
696.418	0.0151057
696.496	0.0150036
696.575	0.0151167
696.653	0.0150330
696.731	0.0150430
696.809	0.0150559
696.887	0.0149937
696.965	0.0150085
697.043	0.0150584
697.121	0.0151225
697.200	0.0152236
697.278	0.0150330
697.356	0.0150971
697.434	0.0151292
697.512	0.0151610
697.590	0.0151801
697.668	0.0150500
697.746	0.0152641
697.825	0.0152478
697.903	0.0151004
697.981	0.0151161
698.059	0.0152066
698.137	0.0152442
698.215	0.0153051
698.293	0.0151075
698.371	0.0150567
698.450	0.0151711
698.528	0.0151558
698.606	0.0151109
698.684	0.0150233
698.762	0.0151929
698.840	0.0149807
698.918	0.0150319
698.996	0.0149870
699.075	0.0151102
699.153	0.0150053
699.231	0.0150377
699.309	0.0150175
699.387	0.0150964
699.465	0.0149557
699.543	0.0150262
699.621	0.0151424
699.700	0.0150684
699.778	0.0150063
699.856	0.0149547
699.934	0.0151028
700.012	0.0151421
700.090	0.0151334
700.168	0.0149071
700.246	0.0149689
700.325	0.0150246
700.403	0.0149529
700.481	0.0149561
700.559	0.0149587
700.637	0.0150696
700.715	0.0150610
700.793	0.0152111
700.871	0.0151801
700.950	0.0152069
701.028	0.0153706
701.106	0.0152914
701.184	0.0151733
701.262	0.0152731
701.340	0.0154127
701.418	0.0152515
701.496	0.0153313
701.575	0.0152592
701.653	0.0152024
701.731	0.0151083
701.809	0.0151574
701.887	0.0149858
701.965	0.0150026
702.043	0.0149808
702.121	0.0150144
702.200	0.0149057
702.278	0.0150723
702.356	0.0149886
702.434	0.0149418
702.512	0.0149560
702.590	0.0148856
702.668	0.0151272
702.746	0.0151544
702.825	0.0149847
702.903	0.0152576
702.981	0.0152173
703.059	0.0151078
703.137	0.0152198
703.215	0.0151579
703.293	0.0151321
703.371	0.0151531
703.450	0.0152547
703.528	0.0150660
703.606	0.0150388
703.684	0.0150579
703.762	0.0149566
703.840	0.0148792
703.918	0.0149464
703.996	0.0150661
704.075	0.0150784
704.153	0.0150928
704.231	0.0151228
704.309	0.0151922
704.387	0.0153947
704.465	0.0153571
704.543	0.0152341
704.621	0.0153304
704.700	0.0150880
704.778	0.0149829
704.856	0.0151079
704.934	0.0150980
705.012	0.0151128
705.090	0.0151754
705.168	0.0152385
705.246	0.0152130
705.325	0.0154826
705.403	0.0155041
705.481	0.0153397
705.559	0.0152678
705.637	0.0150058
705.715	0.0149741
705.793	0.0147546
705.871	0.0145291
705.950	0.0143707
706.028	0.0144579
706.106	0.0143146
706.184	0.0143713
706.262	0.0145860
706.340	0.0146111
706.418	0.0147556
706.496	0.0148354
706.575	0.0149304
706.653	0.0147803
706.731	0.0148684
706.809	0.0149280
706.887	0.0150522
706.965	0.0151899
707.043	0.0151145
707.121	0.0154459
707.200	0.0156847
707.278	0.0159039
707.356	0.0158950
707.434	0.0157133
707.512	0.0159745
707.590	0.0158971
707.668	0.0156712
707.746	0.0156703
707.825	0.0156137
707.903	0.0154480
707.981	0.0154272
708.059	0.0155352
708.137	0.0154516
708.215	0.0154356
708.293	0.0152531
708.371	0.0150083
708.450	0.0148385
708.528	0.0145323
708.606	0.0143436
708.684	0.0139241
708.762	0.0138549
708.840	0.0137831
708.918	0.0135954
708.996	0.0137634
709.075	0.0139558
709.153	0.0141562
709.231	0.0144755
709.309	0.0147864
709.387	0.0150620
709.465	0.0154220
709.543	0.0158942
709.621	0.0161198
709.700	0.0161459
709.778	0.0163927
709.856	0.0163854
709.934	0.0162322
710.012	0.0160341
710.090	0.0158813
710.168	0.0157123
710.246	0.0155782
710.325	0.0154385
710.403	0.0154096
710.481	0.0155976
710.559	0.0154064
710.637	0.0153246
710.715	0.0154755
710.793	0.0154215
710.871	0.0153912
710.950	0.0156031
711.028	0.0156565
711.106	0.0154801
711.184	0.0152893
711.262	0.0150720
711.340	0.0145654
711.418	0.0142870
711.496	0.0138268
711.575	0.0137382
711.653	0.0136993
711.731	0.0136396
711.809	0.0135791
711.887	0.0135387
711.965	0.0136899
712.043	0.0139928
712.121	0.0143508
712.200	0.0146822
712.278	0.0150887
712.356	0.0154612
712.434	0.0159180
712.512	0.0161388
712.590	0.0162459
712.668	0.0163376
712.746	0.0164360
712.825	0.0163715
712.903	0.0164821
712.981	0.0162415
713.059	0.0159225
713.137	0.0157452
713.215	0.0155183
713.293	0.0154095
713.371	0.0152219
713.450	0.0150561
713.528	0.0150459
713.606	0.0150916
713.684	0.0153586
713.762	0.0155085
713.840	0.0156934
713.918	0.0157575
713.996	0.0157382
714.075	0.0154190
714.153	0.0151422
714.231	0.0148016
714.309	0.0144050
714.387	0.0138166
714.465	0.0135058
714.543	0.0133784
714.621	0.0130712
714.700	0.0131811
714.778	0.0134518
714.856	0.0135450
714.934	0.0138611
715.012	0.0142065
715.090	0.0146490
715.168	0.0151906
715.246	0.0154490
715.325	0.0157880
715.403	0.0161486
715.481	0.0162714
715.559	0.0165975
715.637	0.0165740
715.715	0.0164042
715.793	0.0162242
715.871	0.0160660
715.950	0.0159515
716.028	0.0155838
716.106	0.0153743
716.184	0.0152853
716.262	0.0150645
716.340	0.0150566
716.418	0.0149149
716.496	0.0150023
716.575	0.0150632
716.653	0.0149187
716.731	0.0150934
716.809	0.0152714
716.887	0.0151599
716.965	0.0152898
717.043	0.0151088
717.121	0.0151383
717.200	0.0150590
717.278	0.0147443
717.356	0.0145676
717.434	0.0144925
717.512	0.0142005
717.590	0.0141866
717.668	0.0140359
717.746	0.0141142
717.825	0.0144273
717.903	0.0142332
717.981	0.0144036
718.059	0.0143826
718.137	0.0146304
718.215	0.0148885
718.293	0.0151032
718.371	0.0153299
718.450	0.0156095
718.528	0.0157514
718.606	0.0158809
718.684	0.0158030
718.762	0.0160420
718.840	0.0158650
718.918	0.0157861
718.996	0.0155336
719.075	0.0153526
719.153	0.0151819
719.231	0.0148298
719.309	0.0148905
719.387	0.0149112
719.465	0.0147830
719.543	0.0147147
719.621	0.0149937
719.700	0.0150925
719.778	0.0151095
719.856	0.0151126
719.934	0.0152943
720.012	0.0154226
720.090	0.0154295
720.168	0.0153093
720.246	0.0152483
720.325	0.0152623
720.403	0.0153161
720.481	0.0153827
720.559	0.0152798
720.637	0.0150742
720.715	0.0148774
720.793	0.0147308
720.871	0.0146604
720.950	0.0145598
721.028	0.0145792
721.106	0.0146880
721.184	0.0148368
721.262	0.0149684
721.340	0.0150240
721.418	0.0152089
721.496	0.0154086
721.575	0.0156331
721.653	0.0155965
721.731	0.0157748
721.809	0.0158324
721.887	0.0156473
721.965	0.0155415
722.043	0.0153155
722.121	0.0153107
722.200	0.0150288
722.278	0.0148459
722.356	0.0147107
722.434	0.0146115
722.512	0.0142568
722.590	0.0142918
722.668	0.0141701
722.746	0.0140734
722.825	0.0142200
722.903	0.0141866
722.981	0.0144350
723.059	0.0147859
723.137	0.0149426
723.215	0.0151556
723.293	0.0153519
723.371	0.0155095
723.450	0.0156610
723.528	0.0157690
723.606	0.0157239
723.684	0.0155825
723.762	0.0156104
723.840	0.0155643
723.918	0.0155970
723.996	0.0153709
724.075	0.0152617
724.153	0.0152034
724.231	0.0152985
724.309	0.0153094
724.387	0.0152435
724.465	0.0153473
724.543	0.0155778
724.621	0.0154478
724.700	0.0156451
724.778	0.0155570
724.856	0.0155914
724.934	0.0156939
725.012	0.0152769
725.090	0.0152081
725.168	0.0151751
725.246	0.0149791
725.325	0.0148248
725.403	0.0145082
725.481	0.0142596
725.559	0.0140704
725.637	0.0138840
725.715	0.0136061
725.793	0.0137567
725.871	0.0137363
725.950	0.0138155
726.028	0.0141223
726.106	0.0143993
726.184	0.0145649
726.262	0.0147479
726.340	0.0151702
726.418	0.0155059
726.496	0.0156997
726.575	0.0157616
726.653	0.0159260
726.731	0.0160606
726.809	0.0158228
726.887	0.0159720
726.965	0.0158910
727.043	0.0157765
727.121	0.0156866
727.200	0.0155818
727.278	0.0154666
727.356	0.0154377
727.434	0.0152194
727.512	0.0151867
727.590	0.0151349
727.668	0.0150958
727.746	0.0152201
727.825	0.0153476
727.903	0.0154080
727.981	0.0154150
728.059	0.0152775
728.137	0.0154330
728.215	0.0153967
728.293	0.0152391
728.371	0.0150565
728.450	0.0150264
728.528	0.0147126
728.606	0.0147033
728.684	0.0146316
728.762	0.0143892
728.840	0.0142154
728.918	0.0141298
728.996	0.0141274
729.075	0.0141459
729.153	0.0143799
729.231	0.0144296
729.309	0.0143678
729.387	0.0147327
729.465	0.0149307
729.543	0.0150372
729.621	0.0151814
729.700	0.0153882
729.778	0.0156325
729.856	0.0157204
729.934	0.0155537
730.012	0.0154700
730.090	0.0155904
730.168	0.0154432
730.246	0.0153935
730.325	0.0153436
730.403	0.0151663
730.481	0.0152860
730.559	0.0153564
730.637	0.0153593
730.715	0.0153104
730.793	0.0151679
730.871	0.0151375
730.950	0.0153692
731.028	0.0153635
731.106	0.0154402
731.184	0.0155096
731.262	0.0153712
731.340	0.0155779
731.418	0.0156892
731.496	0.0154922
731.575	0.0153435
731.653	0.0152527
731.731	0.0151438
731.809	0.0150541
731.887	0.0148287
731.965	0.0147456
732.043	0.0146341
732.121	0.0146376
732.200	0.0146268
732.278	0.0145599
732.356	0.0145116
732.434	0.0144942
732.512	0.0146329
732.590	0.0145680
732.668	0.0147917
732.746	0.0149402
732.825	0.0149597
732.903	0.0150317
732.981	0.0151566
733.059	0.0153435
733.137	0.0152023
733.215	0.0153675
733.293	0.0154060
733.371	0.0155219
733.450	0.0154422
733.528	0.0153165
733.606	0.0151897
733.684	0.0153418
733.762	0.0153119
733.840	0.0150851
733.918	0.0153017
733.996	0.0153924
734.075	0.0153851
734.153	0.0156367
734.231	0.0155624
734.309	0.0152206
734.387	0.0154618
734.465	0.0153578
734.543	0.0154105
734.621	0.0152774
734.700	0.0153587
734.778	0.0151431
734.856	0.0151108
734.934	0.0151438
735.012	0.0150130
735.090	0.0149186
735.168	0.0149709
735.246	0.0148241
735.325	0.0149118
735.403	0.0149541
735.481	0.0149025
735.559	0.0149018
735.637	0.0148864
735.715	0.0146589
735.793	0.0148337
735.871	0.0150227
735.950	0.0148302
736.028	0.0150774
736.106	0.0151273
736.184	0.0151725
736.262	0.0151079
736.340	0.0152306
736.418	0.0152465
736.496	0.0153896
736.575	0.0154105
736.653	0.0154227
736.731	0.0154347
736.809	0.0154866
736.887	0.0154192
736.965	0.0154915
737.043	0.0154719
737.121	0.0152349
737.200	0.0152541
737.278	0.0150787
737.356	0.0149682
737.434	0.0149845
737.512	0.0148797
737.590	0.0146481
737.668	0.0147548
737.746	0.0147787
737.825	0.0146779
737.903	0.0145605
737.981	0.0145676
738.059	0.0146569
738.137	0.0149385
738.215	0.0149706
738.293	0.0150169
738.371	0.0149783
738.450	0.0150486
738.528	0.0150361
738.606	0.0149286
738.684	0.0151095
738.762	0.0150649
738.840	0.0151236
738.918	0.0151102
738.996	0.0151443
739.075	0.0153436
739.153	0.0152839
739.231	0.0152519
739.309	0.0153227
739.387	0.0153120
739.465	0.0153341
739.543	0.0154011
739.621	0.0154553
739.700	0.0155967
739.778	0.0156446
739.856	0.0155692
739.934	0.0154379
740.012	0.0152608
740.090	0.0153404
740.168	0.0151839
740.246	0.0150315
740.325	0.0150608
740.403	0.0149147
740.481	0.0148680
740.559	0.0146616
740.637	0.0147370
740.715	0.0145428
740.793	0.0147012
740.871	0.0146928
740.950	0.0146809
741.028	0.0147905
741.106	0.0147784
741.184	0.0147427
741.262	0.0149503
741.340	0.0148830
741.418	0.0150266
741.496	0.0150217
741.575	0.0151671
741.653	0.0150937
741.731	0.0152208
741.809	0.0150982
741.887	0.0152346
741.965	0.0151620
742.043	0.0151398
742.121	0.0152468
742.200	0.0151468
742.278	0.0152645
742.356	0.0151740
742.434	0.0151540
742.512	0.0151205
742.590	0.0152005
742.668	0.0152802
742.746	0.0151540
742.825	0.0151667
742.903	0.0151106
742.981	0.0150124
743.059	0.0151143
743.137	0.0152285
743.215	0.0151160
743.293	0.0152263
743.371	0.0150687
743.450	0.0153239
743.528	0.0152180
743.606	0.0152530
743.684	0.0152714
743.762	0.0151996
743.840	0.0151421
743.918	0.0151714
743.996	0.0151582
744.075	0.0151597
744.153	0.0151617
744.231	0.0151067
744.309	0.0150645
744.387	0.0149562
744.465	0.0150871
744.543	0.0150441
744.621	0.0149633
744.700	0.0149287
744.778	0.0150986
744.856	0.0151668
744.934	0.0150632
745.012	0.0149320
745.090	0.0151379
745.168	0.0149477
745.246	0.0150036
745.325	0.0150828
745.403	0.0149974
745.481	0.0149679
745.559	0.0150134
745.637	0.0150676
745.715	0.0150186
745.793	0.0149359
745.871	0.0149918
745.950	0.0149376
746.028	0.0151372
746.106	0.0151916
746.184	0.0152864
746.262	0.0152799
746.340	0.0152584
746.418	0.0152038
746.496	0.0152376
746.575	0.0151640
746.653	0.0152484
746.731	0.0152339
746.809	0.0151637
746.887	0.0152565
746.965	0.0151920
747.043	0.0153116
747.121	0.0152041
747.200	0.0151012
747.278	0.0150247
747.356	0.0151742
747.434	0.0150967
747.512	0.0150450
747.590	0.0151484
747.668	0.0149932
747.746	0.0150653
747.825	0.0151357
747.903	0.0151019
747.981	0.0150997
748.059	0.0150694
748.137	0.0150013
748.215	0.0149216
748.293	0.0150948
748.371	0.0149513
748.450	0.0150571
748.528	0.0149519
748.606	0.0150562
748.684	0.0150218
748.762	0.0149470
748.840	0.0149704
748.918	0.0151726
748.996	0.0151790
749.075	0.0151154
749.153	0.0152715
749.231	0.0153211
749.309	0.0152832
749.387	0.0151236
749.465	0.0151925
749.543	0.0150781
749.621	0.0151672
749.700	0.0153091
749.778	0.0151241
749.856	0.0150817
749.934	0.0150899
750.012	0.0149733
750.090	0.0150650
750.168	0.0151523
750.246	0.0150351
750.325	0.0149577
750.403	0.0150101
750.481	0.0151056
750.559	0.0150634
750.637	0.0149976
750.715	0.0150101
750.793	0.0150066
750.871	0.0150195
750.950	0.0149579
751.028	0.0149020
751.106	0.0149712
751.184	0.0147818
751.262	0.0150372
751.340	0.0150011
751.418	0.0150017
751.496	0.0151276
751.575	0.0151401
751.653	0.0151208
751.731	0.0153341
751.809	0.0153656
751.887	0.0153279
751.965	0.0153613
752.043	0.0153234
752.121	0.0153249
752.200	0.0152307
752.278	0.0152763
752.356	0.0152477
752.434	0.0153682
752.512	0.0152411
752.590	0.0153586
752.668	0.0153357
752.746	0.0150368
752.825	0.0151256
752.903	0.0151305
752.981	0.0149831
753.059	0.0151259
753.137	0.0150218
753.215	0.0150529
753.293	0.0151249
753.371	0.0151978
753.450	0.0149000
753.528	0.0148772
753.606	0.0151324
753.684	0.0150677
753.762	0.0150936
753.840	0.0151103
753.918	0.0151554
753.996	0.0149837
754.075	0.0149845
754.153	0.0149371
754.231	0.0150150
754.309	0.0149477
754.387	0.0149225
754.465	0.0149990
754.543	0.0151632
754.621	0.0150184
754.700	0.0151318
754.778	0.0150146
754.856	0.0149770
754.934	0.0149982
755.012	0.0150723
755.090	0.0150090
755.168	0.0150790
755.246	0.0150491
755.325	0.0152561
755.403	0.0151363
755.481	0.0151034
755.559	0.0151765
755.637	0.0152258
755.715	0.0150581
755.793	0.0152757
755.871	0.0152265
755.950	0.0152919
756.028	0.0152148
756.106	0.0153202
756.184	0.0152797
756.262	0.0152087
756.340	0.0151998
756.418	0.0152220
756.496	0.0152116
756.575	0.0149994
756.653	0.0151658
756.731	0.0151352
756.809	0.0150996
756.887	0.0150169
756.965	0.0151284
757.043	0.0150999
757.121	0.0150858
757.200	0.0150834
757.278	0.0150744
757.356	0.0149877
757.434	0.0150599
757.512	0.0150957
757.590	0.0150385
757.668	0.0150921
757.746	0.0152415
757.825	0.0152657
757.903	0.0149788
757.981	0.0150047
758.059	0.0151031
758.137	0.0150606
758.215	0.0150140
758.293	0.0152206
758.371	0.0151049
758.450	0.0150529
758.528	0.0150925
758.606	0.0152460
758.684	0.0150781
758.762	0.0151351
758.840	0.0151438
758.918	0.0151964
758.996	0.0153046
759.075	0.0151743
759.153	0.0150602
759.231	0.0153255
759.309	0.0152988
759.387	0.0152087
759.465	0.0152401
759.543	0.0154265
759.621	0.0154242
759.700	0.0152546
759.778	0.0152505
759.856	0.0152607
759.934	0.0152193
760.012	0.0151399
760.090	0.0151159
760.168	0.0150187
760.246	0.0150025
760.325	0.0150356
760.403	0.0150112
760.481	0.0150861
760.559	0.0150906
760.637	0.0151329
760.715	0.0150007
760.793	0.0149730
760.871	0.0148922
760.950	0.0146778
761.028	0.0149229
761.106	0.0148284
761.184	0.0148019
761.262	0.0148035
761.340	0.0148828
761.418	0.0150243
761.496	0.0150385
761.575	0.0148855
761.653	0.0149852
761.731	0.0150315
761.809	0.0149670
761.887	0.0151225
761.965	0.0151573
762.043	0.0151983
762.121	0.0152136
762.200	0.0152775
762.278	0.0152490
762.356	0.0153217
762.434	0.0152863
762.512	0.0153239
762.590	0.0154753
762.668	0.0153700
762.746	0.0152737
762.825	0.0153019
762.903	0.0151537
762.981	0.0151961
763.059	0.0153876
763.137	0.0152545
763.215	0.0151956
763.293	0.0150513
763.371	0.0150711
763.450	0.0150602
763.528	0.0151367
763.606	0.0150594
763.684	0.0150562
763.762	0.0150606
763.840	0.0149318
763.918	0.0151386
763.996	0.0151350
764.075	0.0150507
764.153	0.0150890
764.231	0.0149379
764.309	0.0149522
764.387	0.0150016
764.465	0.0150481
764.543	0.0149461
764.621	0.0149312
764.700	0.0150597
