05/04/2022	21:08:37	Ver.	4.1	UNKNOWN
Optical Delay	678.996401	Delta X		0.078125	Sweeps	1	Scan Rate	0/0
Coordinates	Axis 1	NaN	Axis 2	NaN	Axis 3	NaN	Axis 4	NaN	Axis 5	NaN	Axis 6	0.000000
TX Power	0.000000	RX Power	0.000000

678.996	0.0147177
679.075	0.0147101
679.153	0.0147060
679.231	0.0146540
679.309	0.0147185
679.387	0.0145724
679.465	0.0147166
679.543	0.0148169
679.621	0.0147367
679.700	0.0146779
679.778	0.0147275
679.856	0.0147563
679.934	0.0147162
680.012	0.0146722
680.090	0.0146413
680.168	0.0145793
680.246	0.0148236
680.325	0.0146291
680.403	0.0147009
680.481	0.0148647
680.559	0.0148625
680.637	0.0148181
680.715	0.0147662
680.793	0.0145873
680.871	0.0148035
680.950	0.0148341
681.028	0.0148905
681.106	0.0148091
681.184	0.0146870
681.262	0.0146389
681.340	0.0146563
681.418	0.0148169
681.496	0.0148857
681.575	0.0147168
681.653	0.0146595
681.731	0.0146790
681.809	0.0148060
681.887	0.0147617
681.965	0.0146322
682.043	0.0146917
682.121	0.0147620
682.200	0.0146585
682.278	0.0147993
682.356	0.0148970
682.434	0.0146712
682.512	0.0147207
682.590	0.0146150
682.668	0.0148595
682.746	0.0146606
682.825	0.0147884
682.903	0.0146914
682.981	0.0146499
683.059	0.0147953
683.137	0.0147311
683.215	0.0148064
683.293	0.0147621
683.371	0.0146329
683.450	0.0146516
683.528	0.0148355
683.606	0.0146889
683.684	0.0147514
683.762	0.0148329
683.840	0.0146049
683.918	0.0147806
683.996	0.0148959
684.075	0.0147857
684.153	0.0147121
684.231	0.0147394
684.309	0.0146431
684.387	0.0147231
684.465	0.0147173
684.543	0.0148496
684.621	0.0148131
684.700	0.0146152
684.778	0.0147817
684.856	0.0147122
684.934	0.0147183
685.012	0.0146227
685.090	0.0146957
685.168	0.0146887
685.246	0.0146695
685.325	0.0147495
685.403	0.0147572
685.481	0.0146402
685.559	0.0147492
685.637	0.0146113
685.715	0.0145651
685.793	0.0147549
685.871	0.0146089
685.950	0.0147398
686.028	0.0147232
686.106	0.0147125
686.184	0.0147096
686.262	0.0148762
686.340	0.0147006
686.418	0.0146748
686.496	0.0146403
686.575	0.0146381
686.653	0.0146562
686.731	0.0147743
686.809	0.0147777
686.887	0.0145854
686.965	0.0147742
687.043	0.0146085
687.121	0.0147914
687.200	0.0146151
687.278	0.0147939
687.356	0.0147535
687.434	0.0147397
687.512	0.0147443
687.590	0.0147787
687.668	0.0148263
687.746	0.0147179
687.825	0.0147265
687.903	0.0146270
687.981	0.0147056
688.059	0.0146524
688.137	0.0146157
688.215	0.0145839
688.293	0.0146256
688.371	0.0147462
688.450	0.0149228
688.528	0.0147961
688.606	0.0146626
688.684	0.0147114
688.762	0.0147276
688.840	0.0148785
688.918	0.0147039
688.996	0.0147352
689.075	0.0147756
689.153	0.0147363
689.231	0.0147497
689.309	0.0147518
689.387	0.0148180
689.465	0.0147393
689.543	0.0146207
689.621	0.0146577
689.700	0.0149117
689.778	0.0148383
689.856	0.0147643
689.934	0.0147672
690.012	0.0148608
690.090	0.0147807
690.168	0.0147722
690.246	0.0147289
690.325	0.0147909
690.403	0.0148055
690.481	0.0147176
690.559	0.0147456
690.637	0.0147282
690.715	0.0147006
690.793	0.0148598
690.871	0.0146695
690.950	0.0147714
691.028	0.0145722
691.106	0.0145997
691.184	0.0146888
691.262	0.0146563
691.340	0.0145110
691.418	0.0146706
691.496	0.0146619
691.575	0.0146996
691.653	0.0145785
691.731	0.0147379
691.809	0.0146617
691.887	0.0146233
691.965	0.0146178
692.043	0.0145983
692.121	0.0147378
692.200	0.0147030
692.278	0.0145868
692.356	0.0145654
692.434	0.0146182
692.512	0.0145042
692.590	0.0145419
692.668	0.0145504
692.746	0.0145528
692.825	0.0145534
692.903	0.0146072
692.981	0.0145955
693.059	0.0145193
693.137	0.0145352
693.215	0.0146098
693.293	0.0147490
693.371	0.0148158
693.450	0.0148180
693.528	0.0148113
693.606	0.0147256
693.684	0.0146703
693.762	0.0148356
693.840	0.0148233
693.918	0.0148424
693.996	0.0149688
694.075	0.0148088
694.153	0.0148260
694.231	0.0149994
694.309	0.0149472
694.387	0.0148359
694.465	0.0147604
694.543	0.0148214
694.621	0.0147717
694.700	0.0148035
694.778	0.0148437
694.856	0.0146558
694.934	0.0146324
695.012	0.0145148
695.090	0.0146396
695.168	0.0146678
695.246	0.0146329
695.325	0.0145895
695.403	0.0146280
695.481	0.0145918
695.559	0.0145105
695.637	0.0147270
695.715	0.0146703
695.793	0.0145428
695.871	0.0146400
695.950	0.0147974
696.028	0.0147290
696.106	0.0148186
696.184	0.0148149
696.262	0.0147202
696.340	0.0147895
696.418	0.0147932
696.496	0.0149006
696.575	0.0147691
696.653	0.0147278
696.731	0.0148450
696.809	0.0147549
696.887	0.0147678
696.965	0.0146946
697.043	0.0145017
697.121	0.0146404
697.200	0.0146895
697.278	0.0146609
697.356	0.0144918
697.434	0.0144327
697.512	0.0144539
697.590	0.0145667
697.668	0.0146266
697.746	0.0147332
697.825	0.0145470
697.903	0.0145821
697.981	0.0143846
698.059	0.0146238
698.137	0.0146384
698.215	0.0146509
698.293	0.0147778
698.371	0.0147423
698.450	0.0146814
698.528	0.0147744
698.606	0.0147029
698.684	0.0145322
698.762	0.0146046
698.840	0.0145167
698.918	0.0147357
698.996	0.0147219
699.075	0.0146664
699.153	0.0146337
699.231	0.0147930
699.309	0.0146445
699.387	0.0146327
699.465	0.0147845
699.543	0.0146243
699.621	0.0145846
699.700	0.0147826
699.778	0.0147879
699.856	0.0148670
699.934	0.0146805
700.012	0.0148083
700.090	0.0147509
700.168	0.0147672
700.246	0.0148438
700.325	0.0148526
700.403	0.0147974
700.481	0.0148911
700.559	0.0147434
700.637	0.0147108
700.715	0.0145967
700.793	0.0148183
700.871	0.0148491
700.950	0.0147498
701.028	0.0146639
701.106	0.0145987
701.184	0.0145562
701.262	0.0146257
701.340	0.0147409
701.418	0.0146425
701.496	0.0146981
701.575	0.0146200
701.653	0.0147604
701.731	0.0147082
701.809	0.0146526
701.887	0.0147356
701.965	0.0147307
702.043	0.0147341
702.121	0.0148413
702.200	0.0147595
702.278	0.0147339
702.356	0.0148282
702.434	0.0147782
702.512	0.0147076
702.590	0.0146979
702.668	0.0147053
702.746	0.0145688
702.825	0.0146081
702.903	0.0146720
702.981	0.0147141
703.059	0.0147448
703.137	0.0148309
703.215	0.0148188
703.293	0.0147506
703.371	0.0146818
703.450	0.0146046
703.528	0.0147657
703.606	0.0147267
703.684	0.0145795
703.762	0.0145879
703.840	0.0147699
703.918	0.0148044
703.996	0.0148825
704.075	0.0148128
704.153	0.0149556
704.231	0.0147997
704.309	0.0147803
704.387	0.0147996
704.465	0.0147688
704.543	0.0147231
704.621	0.0146454
704.700	0.0148053
704.778	0.0148275
704.856	0.0146153
704.934	0.0146169
705.012	0.0148779
705.090	0.0149069
705.168	0.0146570
705.246	0.0146578
705.325	0.0144875
705.403	0.0144020
705.481	0.0140970
705.559	0.0140672
705.637	0.0140131
705.715	0.0139643
705.793	0.0140472
705.871	0.0142082
705.950	0.0144181
706.028	0.0145756
706.106	0.0149017
706.184	0.0148836
706.262	0.0151154
706.340	0.0151733
706.418	0.0151337
706.496	0.0150266
706.575	0.0151648
706.653	0.0149851
706.731	0.0148580
706.809	0.0151345
706.887	0.0150268
706.965	0.0149799
707.043	0.0148653
707.121	0.0150152
707.200	0.0149739
707.278	0.0150653
707.356	0.0149019
707.434	0.0148823
707.512	0.0149659
707.590	0.0149063
707.668	0.0149870
707.746	0.0150009
707.825	0.0148409
707.903	0.0146313
707.981	0.0144412
708.059	0.0143069
708.137	0.0142312
708.215	0.0139616
708.293	0.0138654
708.371	0.0136692
708.450	0.0136806
708.528	0.0135841
708.606	0.0136575
708.684	0.0139654
708.762	0.0138152
708.840	0.0142068
708.918	0.0144799
708.996	0.0148460
709.075	0.0153339
709.153	0.0156558
709.231	0.0159666
709.309	0.0162073
709.387	0.0162925
709.465	0.0161593
709.543	0.0158161
709.621	0.0155129
709.700	0.0152988
709.778	0.0149119
709.856	0.0147238
709.934	0.0144114
710.012	0.0144693
710.090	0.0143624
710.168	0.0144875
710.246	0.0145308
710.325	0.0149043
710.403	0.0149592
710.481	0.0153324
710.559	0.0154115
710.637	0.0155087
710.715	0.0154169
710.793	0.0152930
710.871	0.0149014
710.950	0.0145608
711.028	0.0143089
711.106	0.0138673
711.184	0.0134345
711.262	0.0133189
711.340	0.0132032
711.418	0.0131179
711.496	0.0132441
711.575	0.0133183
711.653	0.0133620
711.731	0.0137643
711.809	0.0142918
711.887	0.0147918
711.965	0.0149987
712.043	0.0155962
712.121	0.0160016
712.200	0.0162602
712.278	0.0164085
712.356	0.0165262
712.434	0.0163233
712.512	0.0162477
712.590	0.0159083
712.668	0.0154018
712.746	0.0151785
712.825	0.0147661
712.903	0.0146750
712.981	0.0143805
713.059	0.0143211
713.137	0.0142166
713.215	0.0143614
713.293	0.0145281
713.371	0.0148627
713.450	0.0150037
713.528	0.0152069
713.606	0.0152723
713.684	0.0152890
713.762	0.0151564
713.840	0.0147077
713.918	0.0143452
713.996	0.0140791
714.075	0.0135875
714.153	0.0134531
714.231	0.0131204
714.309	0.0130560
714.387	0.0129648
714.465	0.0129549
714.543	0.0131849
714.621	0.0136313
714.700	0.0139297
714.778	0.0145580
714.856	0.0149551
714.934	0.0153469
715.012	0.0156293
715.090	0.0161675
715.168	0.0164164
715.246	0.0163196
715.325	0.0164805
715.403	0.0164599
715.481	0.0160650
715.559	0.0157386
715.637	0.0153088
715.715	0.0147538
715.793	0.0143629
715.871	0.0141746
715.950	0.0140885
716.028	0.0140077
716.106	0.0141176
716.184	0.0143064
716.262	0.0144995
716.340	0.0146793
716.418	0.0148123
716.496	0.0151147
716.575	0.0150196
716.653	0.0150670
716.731	0.0152209
716.809	0.0149323
716.887	0.0146560
716.965	0.0145248
717.043	0.0142833
717.121	0.0141200
717.200	0.0139408
717.278	0.0137922
717.356	0.0136611
717.434	0.0135204
717.512	0.0136534
717.590	0.0139749
717.668	0.0139629
717.746	0.0141419
717.825	0.0143586
717.903	0.0147935
717.981	0.0150197
718.059	0.0152524
718.137	0.0155537
718.215	0.0158392
718.293	0.0158141
718.371	0.0159279
718.450	0.0156008
718.528	0.0153725
718.606	0.0153136
718.684	0.0148159
718.762	0.0145372
718.840	0.0145210
718.918	0.0143021
718.996	0.0142371
719.075	0.0142744
719.153	0.0143699
719.231	0.0144993
719.309	0.0146877
719.387	0.0148083
719.465	0.0151207
719.543	0.0151034
719.621	0.0154777
719.700	0.0152125
719.778	0.0151962
719.856	0.0152438
719.934	0.0152070
720.012	0.0149441
720.090	0.0147643
720.168	0.0147057
720.246	0.0144353
720.325	0.0142967
720.403	0.0142087
720.481	0.0139870
720.559	0.0141486
720.637	0.0140147
720.715	0.0142834
720.793	0.0140214
720.871	0.0142949
720.950	0.0145676
721.028	0.0147951
721.106	0.0149458
721.184	0.0149603
721.262	0.0151485
721.340	0.0153415
721.418	0.0151511
721.496	0.0151476
721.575	0.0152382
721.653	0.0152394
721.731	0.0148342
721.809	0.0147247
721.887	0.0144336
721.965	0.0143773
722.043	0.0142485
722.121	0.0140768
722.200	0.0139178
722.278	0.0139101
722.356	0.0139143
722.434	0.0140864
722.512	0.0141479
722.590	0.0143598
722.668	0.0144454
722.746	0.0147764
722.825	0.0147446
722.903	0.0150997
722.981	0.0152445
723.059	0.0154971
723.137	0.0153844
723.215	0.0154807
723.293	0.0152845
723.371	0.0153562
723.450	0.0152472
723.528	0.0152361
723.606	0.0150814
723.684	0.0149203
723.762	0.0147512
723.840	0.0148347
723.918	0.0146278
723.996	0.0146882
724.075	0.0146403
724.153	0.0147390
724.231	0.0147765
724.309	0.0148166
724.387	0.0151453
724.465	0.0150356
724.543	0.0149699
724.621	0.0148324
724.700	0.0147500
724.778	0.0148064
724.856	0.0144423
724.934	0.0143851
725.012	0.0140829
725.090	0.0139958
725.168	0.0140102
725.246	0.0136491
725.325	0.0135493
725.403	0.0137022
725.481	0.0135384
725.559	0.0139021
725.637	0.0140454
725.715	0.0142714
725.793	0.0144929
725.871	0.0146310
725.950	0.0149524
726.028	0.0151463
726.106	0.0151978
726.184	0.0154942
726.262	0.0155190
726.340	0.0156016
726.418	0.0155849
726.496	0.0153665
726.575	0.0154327
726.653	0.0155391
726.731	0.0152704
726.809	0.0150773
726.887	0.0150453
726.965	0.0148244
727.043	0.0148028
727.121	0.0149696
727.200	0.0147557
727.278	0.0148254
727.356	0.0148190
727.434	0.0148349
727.512	0.0149110
727.590	0.0148952
727.668	0.0149387
727.746	0.0147727
727.825	0.0149319
727.903	0.0147910
727.981	0.0146699
728.059	0.0147067
728.137	0.0146407
728.215	0.0145409
728.293	0.0143181
728.371	0.0141647
728.450	0.0141949
728.528	0.0139325
728.606	0.0139367
728.684	0.0141116
728.762	0.0141319
728.840	0.0140292
728.918	0.0139445
728.996	0.0141467
729.075	0.0142374
729.153	0.0144019
729.231	0.0144001
729.309	0.0146034
729.387	0.0149399
729.465	0.0148192
729.543	0.0149091
729.621	0.0153217
729.700	0.0151889
729.778	0.0151481
729.856	0.0153031
729.934	0.0153610
730.012	0.0152469
730.090	0.0150597
730.168	0.0149002
730.246	0.0150136
730.325	0.0147657
730.403	0.0147973
730.481	0.0148831
730.559	0.0149284
730.637	0.0149398
730.715	0.0147778
730.793	0.0148190
730.871	0.0151328
730.950	0.0149941
731.028	0.0150507
731.106	0.0149470
731.184	0.0150218
731.262	0.0147978
731.340	0.0147890
731.418	0.0147691
731.496	0.0146516
731.575	0.0146666
731.653	0.0145814
731.731	0.0143884
731.809	0.0142875
731.887	0.0142724
731.965	0.0143164
732.043	0.0142957
732.121	0.0142345
732.200	0.0142471
732.278	0.0141808
732.356	0.0143896
732.434	0.0145947
732.512	0.0146336
732.590	0.0147048
732.668	0.0147064
732.746	0.0148019
732.825	0.0151221
732.903	0.0151561
732.981	0.0151688
733.059	0.0151482
733.137	0.0152113
733.215	0.0151052
733.293	0.0149051
733.371	0.0148244
733.450	0.0147790
733.528	0.0149031
733.606	0.0148281
733.684	0.0147651
733.762	0.0147993
733.840	0.0147659
733.918	0.0148315
733.996	0.0149777
734.075	0.0148970
734.153	0.0147826
734.231	0.0147964
734.309	0.0147094
734.387	0.0146535
734.465	0.0146976
734.543	0.0146747
734.621	0.0146014
734.700	0.0145105
734.778	0.0143797
734.856	0.0146229
734.934	0.0145870
735.012	0.0144865
735.090	0.0144537
735.168	0.0144080
735.246	0.0144166
735.325	0.0144753
735.403	0.0146707
735.481	0.0145716
735.559	0.0146867
735.637	0.0146657
735.715	0.0147044
735.793	0.0148315
735.871	0.0148248
735.950	0.0149354
736.028	0.0148438
736.106	0.0149750
736.184	0.0150046
736.262	0.0149591
736.340	0.0148621
736.418	0.0149477
736.496	0.0148631
736.575	0.0148397
736.653	0.0148406
736.731	0.0148250
736.809	0.0147284
736.887	0.0147208
736.965	0.0147125
737.043	0.0145777
737.121	0.0145565
737.200	0.0144082
737.278	0.0144917
737.356	0.0143960
737.434	0.0144131
737.512	0.0144223
737.590	0.0144360
737.668	0.0143867
737.746	0.0143192
737.825	0.0143810
737.903	0.0144492
737.981	0.0146248
738.059	0.0147713
738.137	0.0146996
738.215	0.0148508
738.293	0.0148586
738.371	0.0149020
738.450	0.0149466
738.528	0.0150878
738.606	0.0149062
738.684	0.0150139
738.762	0.0150387
738.840	0.0148895
738.918	0.0149425
738.996	0.0148112
739.075	0.0148139
739.153	0.0147730
739.231	0.0149428
739.309	0.0149218
739.387	0.0148278
739.465	0.0149622
739.543	0.0147983
739.621	0.0147785
739.700	0.0149137
739.778	0.0146805
739.856	0.0147331
739.934	0.0147006
740.012	0.0146367
740.090	0.0147217
740.168	0.0146009
740.246	0.0145654
740.325	0.0144852
740.403	0.0146072
740.481	0.0145679
740.559	0.0145095
740.637	0.0145097
740.715	0.0144950
740.793	0.0145517
740.871	0.0145724
740.950	0.0146366
741.028	0.0146596
741.106	0.0145641
741.184	0.0145716
741.262	0.0145743
741.340	0.0147622
741.418	0.0148842
741.496	0.0147632
741.575	0.0148138
741.653	0.0147738
741.731	0.0147588
741.809	0.0146561
741.887	0.0146793
741.965	0.0147050
742.043	0.0147953
742.121	0.0147669
742.200	0.0147897
742.278	0.0148510
742.356	0.0148580
742.434	0.0148325
742.512	0.0149070
742.590	0.0149107
742.668	0.0147366
742.746	0.0148695
742.825	0.0147890
742.903	0.0149712
742.981	0.0148193
743.059	0.0146876
743.137	0.0149836
743.215	0.0149883
743.293	0.0149901
743.371	0.0148404
743.450	0.0148782
743.528	0.0149667
743.606	0.0149171
743.684	0.0147654
743.762	0.0147735
743.840	0.0147563
743.918	0.0146624
743.996	0.0145075
744.075	0.0145712
744.153	0.0147127
744.231	0.0146688
744.309	0.0145212
744.387	0.0146532
744.465	0.0145270
744.543	0.0147276
744.621	0.0147728
744.700	0.0145712
744.778	0.0146156
744.856	0.0146815
744.934	0.0147349
745.012	0.0147200
745.090	0.0145951
745.168	0.0145745
745.246	0.0146531
745.325	0.0146244
745.403	0.0145422
745.481	0.0145573
745.559	0.0147026
745.637	0.0146844
745.715	0.0147896
745.793	0.0146961
745.871	0.0148190
745.950	0.0147208
746.028	0.0147939
746.106	0.0148444
746.184	0.0149739
746.262	0.0149377
746.340	0.0149182
746.418	0.0149978
746.496	0.0147849
746.575	0.0147025
746.653	0.0148452
746.731	0.0148549
746.809	0.0147681
746.887	0.0148926
746.965	0.0149136
747.043	0.0147321
747.121	0.0145679
747.200	0.0146627
747.278	0.0146111
747.356	0.0146006
747.434	0.0146349
747.512	0.0146120
747.590	0.0145386
747.668	0.0147382
747.746	0.0146854
747.825	0.0147334
747.903	0.0147121
747.981	0.0147411
748.059	0.0146830
748.137	0.0146342
748.215	0.0146918
748.293	0.0146235
748.371	0.0146378
748.450	0.0147169
748.528	0.0148026
748.606	0.0147078
748.684	0.0147630
748.762	0.0149454
748.840	0.0148117
748.918	0.0147414
748.996	0.0148576
749.075	0.0147395
749.153	0.0149416
749.231	0.0148672
749.309	0.0147967
749.387	0.0147991
749.465	0.0147503
749.543	0.0147708
749.621	0.0147025
749.700	0.0146405
749.778	0.0146561
749.856	0.0146422
749.934	0.0146889
750.012	0.0146173
750.090	0.0147557
750.168	0.0147071
750.246	0.0147765
750.325	0.0147298
750.403	0.0147493
750.481	0.0144984
750.559	0.0145885
750.637	0.0147465
750.715	0.0146875
750.793	0.0146347
750.871	0.0145487
750.950	0.0146175
751.028	0.0145587
751.106	0.0144918
751.184	0.0145679
751.262	0.0146527
751.340	0.0146697
751.418	0.0146920
751.496	0.0146925
751.575	0.0148056
751.653	0.0148459
751.731	0.0149168
751.809	0.0149018
751.887	0.0149380
751.965	0.0148795
752.043	0.0149266
752.121	0.0149164
752.200	0.0149820
752.278	0.0149462
752.356	0.0149005
752.434	0.0150194
752.512	0.0148404
752.590	0.0149089
752.668	0.0147913
752.746	0.0147575
752.825	0.0146527
752.903	0.0146626
752.981	0.0146169
753.059	0.0145306
753.137	0.0145738
753.215	0.0145325
753.293	0.0144957
753.371	0.0146892
753.450	0.0147315
753.528	0.0147686
753.606	0.0146263
753.684	0.0145547
753.762	0.0147306
753.840	0.0146844
753.918	0.0146478
753.996	0.0145835
754.075	0.0145724
754.153	0.0144666
754.231	0.0146382
754.309	0.0146993
754.387	0.0146218
754.465	0.0144795
754.543	0.0144393
754.621	0.0146845
754.700	0.0147127
754.778	0.0146260
754.856	0.0146383
754.934	0.0146454
755.012	0.0146996
755.090	0.0147993
755.168	0.0146963
755.246	0.0148685
755.325	0.0148199
755.403	0.0148886
755.481	0.0149148
755.559	0.0148946
755.637	0.0149310
755.715	0.0149507
755.793	0.0149792
755.871	0.0148328
755.950	0.0147290
756.028	0.0147884
756.106	0.0147054
756.184	0.0147823
756.262	0.0147930
756.340	0.0148952
756.418	0.0147757
756.496	0.0147542
756.575	0.0147231
756.653	0.0146877
756.731	0.0148000
756.809	0.0145432
756.887	0.0144395
756.965	0.0147013
757.043	0.0145116
757.121	0.0145704
757.200	0.0146440
757.278	0.0146201
757.356	0.0145598
757.434	0.0146557
757.512	0.0145636
757.590	0.0146335
757.668	0.0145939
757.746	0.0145688
757.825	0.0146090
757.903	0.0146201
757.981	0.0146908
758.059	0.0146883
758.137	0.0145780
758.215	0.0146614
758.293	0.0147423
758.371	0.0148324
758.450	0.0147945
758.528	0.0148338
758.606	0.0147933
758.684	0.0147914
758.762	0.0147483
758.840	0.0148291
758.918	0.0150509
758.996	0.0149940
759.075	0.0149042
759.153	0.0150539
759.231	0.0149797
759.309	0.0148801
759.387	0.0149224
759.465	0.0147700
759.543	0.0149438
759.621	0.0148460
759.700	0.0148411
759.778	0.0146601
759.856	0.0147756
759.934	0.0147742
760.012	0.0146700
760.090	0.0147295
760.168	0.0144959
760.246	0.0146185
760.325	0.0146828
760.403	0.0146185
760.481	0.0146301
760.559	0.0146383
760.637	0.0146038
760.715	0.0144820
760.793	0.0145290
760.871	0.0144007
760.950	0.0144041
761.028	0.0145434
761.106	0.0146156
761.184	0.0146180
761.262	0.0145071
761.340	0.0145390
761.418	0.0145939
761.496	0.0147746
761.575	0.0147768
761.653	0.0147786
761.731	0.0147828
761.809	0.0148109
761.887	0.0148392
761.965	0.0147894
762.043	0.0146600
762.121	0.0149139
762.200	0.0147343
762.278	0.0147004
762.356	0.0149006
762.434	0.0149018
762.512	0.0148254
762.590	0.0149593
762.668	0.0148355
762.746	0.0147230
762.825	0.0148106
762.903	0.0148388
762.981	0.0148577
763.059	0.0147956
763.137	0.0147157
763.215	0.0148318
763.293	0.0148756
763.371	0.0147306
763.450	0.0146404
763.528	0.0147125
763.606	0.0146833
763.684	0.0146442
763.762	0.0146674
763.840	0.0147239
763.918	0.0146328
763.996	0.0146106
764.075	0.0146312
764.153	0.0145856
764.231	0.0146212
764.309	0.0147135
764.387	0.0147516
764.465	0.0146459
764.543	0.0148063
764.621	0.0146675
764.700	0.0145533
