05/04/2022	21:10:22	Ver.	4.1	UNKNOWN
Optical Delay	678.996401	Delta X		0.078125	Sweeps	1	Scan Rate	0/0
Coordinates	Axis 1	NaN	Axis 2	NaN	Axis 3	NaN	Axis 4	NaN	Axis 5	NaN	Axis 6	0.000000
TX Power	0.000000	RX Power	0.000000

678.996	0.0146404
679.075	0.0146359
679.153	0.0146567
679.231	0.0145515
679.309	0.0146258
679.387	0.0147005
679.465	0.0145673
679.543	0.0145542
679.621	0.0146344
679.700	0.0147280
679.778	0.0146963
679.856	0.0145633
679.934	0.0145403
680.012	0.0146623
680.090	0.0146622
680.168	0.0146912
680.246	0.0146732
680.325	0.0145423
680.403	0.0146753
680.481	0.0146896
680.559	0.0146268
680.637	0.0145649
680.715	0.0147005
680.793	0.0146868
680.871	0.0146464
680.950	0.0147152
681.028	0.0146069
681.106	0.0146595
681.184	0.0145868
681.262	0.0146100
681.340	0.0147987
681.418	0.0145839
681.496	0.0144991
681.575	0.0146941
681.653	0.0145480
681.731	0.0146182
681.809	0.0147285
681.887	0.0146880
681.965	0.0146178
682.043	0.0146391
682.121	0.0147972
682.200	0.0146907
682.278	0.0146963
682.356	0.0147507
682.434	0.0145293
682.512	0.0146418
682.590	0.0146727
682.668	0.0146953
682.746	0.0147160
682.825	0.0147199
682.903	0.0147471
682.981	0.0147034
683.059	0.0146960
683.137	0.0145624
683.215	0.0146514
683.293	0.0145803
683.371	0.0147163
683.450	0.0145935
683.528	0.0146017
683.606	0.0146048
683.684	0.0146200
683.762	0.0144805
683.840	0.0145459
683.918	0.0146004
683.996	0.0145895
684.075	0.0145074
684.153	0.0146123
684.231	0.0145033
684.309	0.0145415
684.387	0.0145854
684.465	0.0145541
684.543	0.0146184
684.621	0.0144596
684.700	0.0145557
684.778	0.0146180
684.856	0.0145316
684.934	0.0146568
685.012	0.0146387
685.090	0.0146210
685.168	0.0146053
685.246	0.0147256
685.325	0.0146198
685.403	0.0146416
685.481	0.0145753
685.559	0.0146450
685.637	0.0147206
685.715	0.0147103
685.793	0.0147950
685.871	0.0146822
685.950	0.0146488
686.028	0.0147243
686.106	0.0147764
686.184	0.0146387
686.262	0.0146584
686.340	0.0148811
686.418	0.0147723
686.496	0.0147002
686.575	0.0146976
686.653	0.0147237
686.731	0.0147643
686.809	0.0147931
686.887	0.0147585
686.965	0.0146994
687.043	0.0146200
687.121	0.0145592
687.200	0.0147578
687.278	0.0148125
687.356	0.0145943
687.434	0.0147172
687.512	0.0145631
687.590	0.0146225
687.668	0.0145393
687.746	0.0145782
687.825	0.0145703
687.903	0.0146040
687.981	0.0146664
688.059	0.0144572
688.137	0.0145377
688.215	0.0147385
688.293	0.0145689
688.371	0.0145426
688.450	0.0146133
688.528	0.0147045
688.606	0.0146303
688.684	0.0147122
688.762	0.0146564
688.840	0.0147697
688.918	0.0148628
688.996	0.0149017
689.075	0.0147340
689.153	0.0147541
689.231	0.0147436
689.309	0.0147572
689.387	0.0145444
689.465	0.0147215
689.543	0.0147919
689.621	0.0146473
689.700	0.0147800
689.778	0.0145464
689.856	0.0145366
689.934	0.0144453
690.012	0.0144299
690.090	0.0143520
690.168	0.0144747
690.246	0.0144740
690.325	0.0145226
690.403	0.0145367
690.481	0.0142625
690.559	0.0145866
690.637	0.0145155
690.715	0.0144913
690.793	0.0144982
690.871	0.0146256
690.950	0.0146493
691.028	0.0148409
691.106	0.0147661
691.184	0.0147856
691.262	0.0147993
691.340	0.0148471
691.418	0.0146891
691.496	0.0148302
691.575	0.0147633
691.653	0.0147100
691.731	0.0148141
691.809	0.0146775
691.887	0.0146916
691.965	0.0146716
692.043	0.0147391
692.121	0.0146396
692.200	0.0145245
692.278	0.0146657
692.356	0.0146200
692.434	0.0145869
692.512	0.0145424
692.590	0.0145181
692.668	0.0146236
692.746	0.0145547
692.825	0.0145477
692.903	0.0145344
692.981	0.0145543
693.059	0.0147594
693.137	0.0146529
693.215	0.0145152
693.293	0.0147065
693.371	0.0146564
693.450	0.0145135
693.528	0.0144924
693.606	0.0146593
693.684	0.0146712
693.762	0.0145716
693.840	0.0145995
693.918	0.0145302
693.996	0.0146680
694.075	0.0147964
694.153	0.0145593
694.231	0.0145127
694.309	0.0146169
694.387	0.0145989
694.465	0.0146275
694.543	0.0147450
694.621	0.0146548
694.700	0.0146519
694.778	0.0147721
694.856	0.0146876
694.934	0.0146854
695.012	0.0147754
695.090	0.0146569
695.168	0.0146260
695.246	0.0146197
695.325	0.0145778
695.403	0.0144427
695.481	0.0145995
695.559	0.0145425
695.637	0.0144707
695.715	0.0144095
695.793	0.0143694
695.871	0.0144953
695.950	0.0143981
696.028	0.0144958
696.106	0.0144884
696.184	0.0144682
696.262	0.0144994
696.340	0.0145090
696.418	0.0145882
696.496	0.0146785
696.575	0.0146358
696.653	0.0145896
696.731	0.0147402
696.809	0.0146416
696.887	0.0146611
696.965	0.0147052
697.043	0.0146881
697.121	0.0146587
697.200	0.0147720
697.278	0.0146494
697.356	0.0148743
697.434	0.0146153
697.512	0.0146227
697.590	0.0146075
697.668	0.0146019
697.746	0.0145047
697.825	0.0146325
697.903	0.0144707
697.981	0.0145843
698.059	0.0144386
698.137	0.0144361
698.215	0.0146260
698.293	0.0146604
698.371	0.0145072
698.450	0.0147089
698.528	0.0147424
698.606	0.0145353
698.684	0.0147189
698.762	0.0148429
698.840	0.0145413
698.918	0.0146848
698.996	0.0146198
699.075	0.0146637
699.153	0.0147079
699.231	0.0146589
699.309	0.0146111
699.387	0.0146000
699.465	0.0145245
699.543	0.0146825
699.621	0.0145976
699.700	0.0145428
699.778	0.0145456
699.856	0.0145464
699.934	0.0145632
700.012	0.0145697
700.090	0.0146806
700.168	0.0146489
700.246	0.0146846
700.325	0.0147160
700.403	0.0146693
700.481	0.0146716
700.559	0.0147266
700.637	0.0147968
700.715	0.0147359
700.793	0.0148723
700.871	0.0147983
700.950	0.0148736
701.028	0.0148032
701.106	0.0147912
701.184	0.0147978
701.262	0.0146207
701.340	0.0146358
701.418	0.0145510
701.496	0.0146223
701.575	0.0145238
701.653	0.0144391
701.731	0.0146422
701.809	0.0146410
701.887	0.0145634
701.965	0.0147384
702.043	0.0145499
702.121	0.0145325
702.200	0.0145257
702.278	0.0145944
702.356	0.0146165
702.434	0.0143280
702.512	0.0144277
702.590	0.0144109
702.668	0.0144965
702.746	0.0146388
702.825	0.0146434
702.903	0.0145983
702.981	0.0147710
703.059	0.0148296
703.137	0.0148771
703.215	0.0148849
703.293	0.0148010
703.371	0.0147182
703.450	0.0146980
703.528	0.0145512
703.606	0.0144855
703.684	0.0143626
703.762	0.0142206
703.840	0.0144824
703.918	0.0145152
703.996	0.0145741
704.075	0.0146562
704.153	0.0147005
704.231	0.0147276
704.309	0.0146226
704.387	0.0145432
704.465	0.0146606
704.543	0.0145138
704.621	0.0146124
704.700	0.0147131
704.778	0.0146223
704.856	0.0148489
704.934	0.0146703
705.012	0.0146947
705.090	0.0148968
705.168	0.0148274
705.246	0.0148119
705.325	0.0147303
705.403	0.0146073
705.481	0.0146210
705.559	0.0147025
705.637	0.0145920
705.715	0.0145734
705.793	0.0147060
705.871	0.0146638
705.950	0.0148671
706.028	0.0148584
706.106	0.0148084
706.184	0.0147250
706.262	0.0146089
706.340	0.0143758
706.418	0.0142176
706.496	0.0140764
706.575	0.0139572
706.653	0.0137038
706.731	0.0138302
706.809	0.0140317
706.887	0.0140489
706.965	0.0143909
707.043	0.0147127
707.121	0.0148878
707.200	0.0151723
707.278	0.0154829
707.356	0.0154457
707.434	0.0154730
707.512	0.0154834
707.590	0.0153044
707.668	0.0151952
707.746	0.0148054
707.825	0.0146443
707.903	0.0146934
707.981	0.0144047
708.059	0.0142891
708.137	0.0144054
708.215	0.0143771
708.293	0.0145483
708.371	0.0146398
708.450	0.0146738
708.528	0.0146672
708.606	0.0147762
708.684	0.0148729
708.762	0.0149678
708.840	0.0149828
708.918	0.0149462
708.996	0.0149893
709.075	0.0146907
709.153	0.0146434
709.231	0.0143945
709.309	0.0140535
709.387	0.0139071
709.465	0.0136830
709.543	0.0135627
709.621	0.0134338
709.700	0.0134410
709.778	0.0136706
709.856	0.0138436
709.934	0.0139562
710.012	0.0143524
710.090	0.0148504
710.168	0.0150883
710.246	0.0155141
710.325	0.0159713
710.403	0.0160806
710.481	0.0162108
710.559	0.0161530
710.637	0.0158841
710.715	0.0156682
710.793	0.0152809
710.871	0.0149644
710.950	0.0144985
711.028	0.0140521
711.106	0.0138066
711.184	0.0137823
711.262	0.0138118
711.340	0.0140810
711.418	0.0141466
711.496	0.0145123
711.575	0.0148064
711.653	0.0150694
711.731	0.0152906
711.809	0.0154636
711.887	0.0154227
711.965	0.0153693
712.043	0.0152151
712.121	0.0149646
712.200	0.0147011
712.278	0.0142996
712.356	0.0138966
712.434	0.0137335
712.512	0.0132293
712.590	0.0130904
712.668	0.0131686
712.746	0.0133748
712.825	0.0135043
712.903	0.0136734
712.981	0.0138367
713.059	0.0141831
713.137	0.0144792
713.215	0.0150372
713.293	0.0153538
713.371	0.0156857
713.450	0.0158275
713.528	0.0161196
713.606	0.0159425
713.684	0.0157246
713.762	0.0155704
713.840	0.0150731
713.918	0.0146893
713.996	0.0144517
714.075	0.0142001
714.153	0.0139990
714.231	0.0138692
714.309	0.0138808
714.387	0.0139463
714.465	0.0139206
714.543	0.0142164
714.621	0.0144241
714.700	0.0147954
714.778	0.0149442
714.856	0.0153371
714.934	0.0153517
715.012	0.0155312
715.090	0.0155137
715.168	0.0154292
715.246	0.0151612
715.325	0.0148149
715.403	0.0146091
715.481	0.0143479
715.559	0.0139012
715.637	0.0135450
715.715	0.0134779
715.793	0.0133707
715.871	0.0133058
715.950	0.0131886
716.028	0.0134611
716.106	0.0136807
716.184	0.0138604
716.262	0.0142014
716.340	0.0145084
716.418	0.0147936
716.496	0.0150992
716.575	0.0153562
716.653	0.0154745
716.731	0.0155988
716.809	0.0153932
716.887	0.0153747
716.965	0.0152567
717.043	0.0150842
717.121	0.0148639
717.200	0.0145985
717.278	0.0145535
717.356	0.0143487
717.434	0.0142816
717.512	0.0143381
717.590	0.0144768
717.668	0.0144194
717.746	0.0146028
717.825	0.0146548
717.903	0.0150140
717.981	0.0150246
718.059	0.0150620
718.137	0.0150540
718.215	0.0150610
718.293	0.0149912
718.371	0.0150151
718.450	0.0148306
718.528	0.0147422
718.606	0.0145645
718.684	0.0146772
718.762	0.0143292
718.840	0.0141619
718.918	0.0141110
718.996	0.0140343
719.075	0.0137535
719.153	0.0137807
719.231	0.0137207
719.309	0.0138166
719.387	0.0139394
719.465	0.0141180
719.543	0.0142803
719.621	0.0144064
719.700	0.0146834
719.778	0.0147818
719.856	0.0147906
719.934	0.0148687
720.012	0.0148231
720.090	0.0148586
720.168	0.0148945
720.246	0.0147697
720.325	0.0147861
720.403	0.0147308
720.481	0.0145054
720.559	0.0145084
720.637	0.0145190
720.715	0.0145134
720.793	0.0146268
720.871	0.0146858
720.950	0.0145987
721.028	0.0145229
721.106	0.0147698
721.184	0.0148605
721.262	0.0148058
721.340	0.0148242
721.418	0.0150449
721.496	0.0149973
721.575	0.0149418
721.653	0.0149802
721.731	0.0149113
721.809	0.0149506
721.887	0.0147942
721.965	0.0149446
722.043	0.0149696
722.121	0.0149375
722.200	0.0147157
722.278	0.0145918
722.356	0.0146169
722.434	0.0145316
722.512	0.0144079
722.590	0.0142729
722.668	0.0142237
722.746	0.0141545
722.825	0.0141121
722.903	0.0141865
722.981	0.0142657
723.059	0.0142410
723.137	0.0142136
723.215	0.0143549
723.293	0.0144957
723.371	0.0145115
723.450	0.0144735
723.528	0.0144383
723.606	0.0144678
723.684	0.0144218
723.762	0.0144695
723.840	0.0144813
723.918	0.0143813
723.996	0.0144351
724.075	0.0143811
724.153	0.0144376
724.231	0.0145686
724.309	0.0147251
724.387	0.0148076
724.465	0.0149460
724.543	0.0150842
724.621	0.0149052
724.700	0.0150970
724.778	0.0150455
724.856	0.0150265
724.934	0.0151466
725.012	0.0150504
725.090	0.0151479
725.168	0.0151385
725.246	0.0149781
725.325	0.0149328
725.403	0.0148106
725.481	0.0146905
725.559	0.0146406
725.637	0.0147385
725.715	0.0146492
725.793	0.0146123
725.871	0.0144543
725.950	0.0143974
726.028	0.0143544
726.106	0.0143108
726.184	0.0143506
726.262	0.0143039
726.340	0.0144809
726.418	0.0144233
726.496	0.0143958
726.575	0.0143853
726.653	0.0142118
726.731	0.0142890
726.809	0.0143784
726.887	0.0143447
726.965	0.0142577
727.043	0.0143953
727.121	0.0143941
727.200	0.0142545
727.278	0.0142416
727.356	0.0142577
727.434	0.0144241
727.512	0.0143055
727.590	0.0144685
727.668	0.0146081
727.746	0.0146613
727.825	0.0146823
727.903	0.0147869
727.981	0.0148617
728.059	0.0148920
728.137	0.0149625
728.215	0.0147553
728.293	0.0149063
728.371	0.0150874
728.450	0.0150298
728.528	0.0148683
728.606	0.0148042
728.684	0.0148038
728.762	0.0146872
728.840	0.0146947
728.918	0.0147925
728.996	0.0147575
729.075	0.0147349
729.153	0.0147887
729.231	0.0148862
729.309	0.0148212
729.387	0.0148699
729.465	0.0148263
729.543	0.0147635
729.621	0.0147842
729.700	0.0146740
729.778	0.0144930
729.856	0.0145774
729.934	0.0145573
730.012	0.0145150
730.090	0.0145203
730.168	0.0145345
730.246	0.0143774
730.325	0.0143308
730.403	0.0144939
730.481	0.0143697
730.559	0.0142784
730.637	0.0143874
730.715	0.0144779
730.793	0.0146120
730.871	0.0145222
730.950	0.0146398
731.028	0.0145483
731.106	0.0145535
731.184	0.0147279
731.262	0.0145648
731.340	0.0146059
731.418	0.0147162
731.496	0.0146725
731.575	0.0147333
731.653	0.0148327
731.731	0.0146999
731.809	0.0146898
731.887	0.0148265
731.965	0.0148160
732.043	0.0148029
732.121	0.0148649
732.200	0.0148214
732.278	0.0147467
732.356	0.0147590
732.434	0.0148064
732.512	0.0147189
732.590	0.0146342
732.668	0.0145625
732.746	0.0144899
732.825	0.0144985
732.903	0.0143680
732.981	0.0143137
733.059	0.0143913
733.137	0.0144247
733.215	0.0143836
733.293	0.0145219
733.371	0.0145402
733.450	0.0147624
733.528	0.0147936
733.606	0.0147457
733.684	0.0148096
733.762	0.0148637
733.840	0.0149129
733.918	0.0150097
733.996	0.0147768
734.075	0.0148085
734.153	0.0147044
734.231	0.0147073
734.309	0.0146757
734.387	0.0146809
734.465	0.0145470
734.543	0.0146877
734.621	0.0146592
734.700	0.0145631
734.778	0.0145387
734.856	0.0147086
734.934	0.0146857
735.012	0.0148839
735.090	0.0147063
735.168	0.0146246
735.246	0.0148875
735.325	0.0147318
735.403	0.0145687
735.481	0.0145924
735.559	0.0146211
735.637	0.0143761
735.715	0.0143602
735.793	0.0143151
735.871	0.0142867
735.950	0.0142459
736.028	0.0142910
736.106	0.0143011
736.184	0.0142411
736.262	0.0144125
736.340	0.0144353
736.418	0.0144307
736.496	0.0146286
736.575	0.0145537
736.653	0.0146143
736.731	0.0145347
736.809	0.0147564
736.887	0.0146367
736.965	0.0145036
737.043	0.0148115
737.121	0.0148326
737.200	0.0148656
737.278	0.0148708
737.356	0.0148257
737.434	0.0147640
737.512	0.0148065
737.590	0.0147545
737.668	0.0147810
737.746	0.0148605
737.825	0.0148001
737.903	0.0147669
737.981	0.0147298
738.059	0.0148072
738.137	0.0147745
738.215	0.0147479
738.293	0.0148297
738.371	0.0146593
738.450	0.0147654
738.528	0.0145911
738.606	0.0146391
738.684	0.0143269
738.762	0.0145082
738.840	0.0144013
738.918	0.0145109
738.996	0.0144475
739.075	0.0144855
739.153	0.0144673
739.231	0.0144599
739.309	0.0144762
739.387	0.0143807
739.465	0.0143494
739.543	0.0144154
739.621	0.0144180
739.700	0.0143991
739.778	0.0143835
739.856	0.0143060
739.934	0.0142834
740.012	0.0143713
740.090	0.0144019
740.168	0.0143910
740.246	0.0143865
740.325	0.0144831
740.403	0.0145122
740.481	0.0146474
740.559	0.0145650
740.637	0.0145531
740.715	0.0146825
740.793	0.0146592
740.871	0.0149448
740.950	0.0151109
741.028	0.0151025
741.106	0.0151632
741.184	0.0150062
741.262	0.0151549
741.340	0.0150079
741.418	0.0150155
741.496	0.0151050
741.575	0.0149960
741.653	0.0148116
741.731	0.0148793
741.809	0.0147535
741.887	0.0146704
741.965	0.0145258
742.043	0.0145821
742.121	0.0145474
742.200	0.0145285
742.278	0.0144164
742.356	0.0144407
742.434	0.0144003
742.512	0.0144573
742.590	0.0145063
742.668	0.0146046
742.746	0.0146333
742.825	0.0145909
742.903	0.0145610
742.981	0.0144948
743.059	0.0145528
743.137	0.0144044
743.215	0.0144980
743.293	0.0143989
743.371	0.0145121
743.450	0.0143609
743.528	0.0142747
743.606	0.0142817
743.684	0.0143432
743.762	0.0143013
743.840	0.0144728
743.918	0.0146197
743.996	0.0146603
744.075	0.0146732
744.153	0.0147750
744.231	0.0148057
744.309	0.0148399
744.387	0.0148942
744.465	0.0149799
744.543	0.0149361
744.621	0.0147598
744.700	0.0148682
744.778	0.0149057
744.856	0.0149232
744.934	0.0149556
745.012	0.0148638
745.090	0.0147746
745.168	0.0148786
745.246	0.0148354
745.325	0.0148359
745.403	0.0146142
745.481	0.0146384
745.559	0.0145861
745.637	0.0146759
745.715	0.0146050
745.793	0.0147269
745.871	0.0147537
745.950	0.0146174
746.028	0.0146953
746.106	0.0146854
746.184	0.0144640
746.262	0.0144045
746.340	0.0144820
746.418	0.0143102
746.496	0.0143503
746.575	0.0143739
746.653	0.0144424
746.731	0.0143343
746.809	0.0142657
746.887	0.0146670
746.965	0.0146909
747.043	0.0146593
747.121	0.0148306
747.200	0.0147160
747.278	0.0147231
747.356	0.0147790
747.434	0.0147705
747.512	0.0147974
747.590	0.0147423
747.668	0.0145928
747.746	0.0147552
747.825	0.0146819
747.903	0.0146857
747.981	0.0146176
748.059	0.0145674
748.137	0.0145083
748.215	0.0145218
748.293	0.0147063
748.371	0.0147558
748.450	0.0146452
748.528	0.0148645
748.606	0.0148105
748.684	0.0146948
748.762	0.0147545
748.840	0.0147390
748.918	0.0147205
748.996	0.0147066
749.075	0.0146687
749.153	0.0147127
749.231	0.0146242
749.309	0.0147038
749.387	0.0144334
749.465	0.0143698
749.543	0.0143839
749.621	0.0144417
749.700	0.0143359
749.778	0.0144349
749.856	0.0143435
749.934	0.0143365
750.012	0.0143094
750.090	0.0143079
750.168	0.0144993
750.246	0.0145536
750.325	0.0146143
750.403	0.0146213
750.481	0.0146846
750.559	0.0147249
750.637	0.0146873
750.715	0.0147365
750.793	0.0147189
750.871	0.0149004
750.950	0.0145798
751.028	0.0147558
751.106	0.0148469
751.184	0.0145818
751.262	0.0147517
751.340	0.0148054
751.418	0.0147263
751.496	0.0146814
751.575	0.0147206
751.653	0.0146154
751.731	0.0148003
751.809	0.0148560
751.887	0.0148754
751.965	0.0146191
752.043	0.0147143
752.121	0.0147391
752.200	0.0145409
752.278	0.0146557
752.356	0.0145415
752.434	0.0144615
752.512	0.0144666
752.590	0.0144801
752.668	0.0144900
752.746	0.0143541
752.825	0.0144131
752.903	0.0143469
752.981	0.0145407
753.059	0.0144971
753.137	0.0143984
753.215	0.0144885
753.293	0.0144628
753.371	0.0146244
753.450	0.0144603
753.528	0.0145281
753.606	0.0144955
753.684	0.0146047
753.762	0.0144610
753.840	0.0146134
753.918	0.0146383
753.996	0.0145581
754.075	0.0144521
754.153	0.0145395
754.231	0.0146599
754.309	0.0146733
754.387	0.0145591
754.465	0.0146191
754.543	0.0147866
754.621	0.0147958
754.700	0.0148456
754.778	0.0148283
754.856	0.0148387
754.934	0.0151408
755.012	0.0149254
755.090	0.0148695
755.168	0.0148808
755.246	0.0148582
755.325	0.0149342
755.403	0.0147824
755.481	0.0148132
755.559	0.0147541
755.637	0.0148157
755.715	0.0146998
755.793	0.0146453
755.871	0.0144844
755.950	0.0145186
756.028	0.0145890
756.106	0.0145143
756.184	0.0145446
756.262	0.0144852
756.340	0.0144961
756.418	0.0143369
756.496	0.0143590
756.575	0.0143687
756.653	0.0143104
756.731	0.0144650
756.809	0.0144298
756.887	0.0142786
756.965	0.0143797
757.043	0.0143095
757.121	0.0144332
757.200	0.0144484
757.278	0.0144803
757.356	0.0143819
757.434	0.0144946
757.512	0.0146012
757.590	0.0145947
757.668	0.0147546
757.746	0.0146242
757.825	0.0145408
757.903	0.0146532
757.981	0.0146693
758.059	0.0146352
758.137	0.0147659
758.215	0.0147088
758.293	0.0148790
758.371	0.0148296
758.450	0.0148497
758.528	0.0149284
758.606	0.0148995
758.684	0.0149825
758.762	0.0150217
758.840	0.0148928
758.918	0.0147707
758.996	0.0148837
759.075	0.0148477
759.153	0.0147742
759.231	0.0149329
759.309	0.0147562
759.387	0.0147630
759.465	0.0148393
759.543	0.0147734
759.621	0.0146738
759.700	0.0145939
759.778	0.0146174
759.856	0.0146521
759.934	0.0147571
760.012	0.0145029
760.090	0.0145692
760.168	0.0145504
760.246	0.0143906
760.325	0.0144838
760.403	0.0144686
760.481	0.0143799
760.559	0.0143883
760.637	0.0144800
760.715	0.0144943
760.793	0.0145725
760.871	0.0144888
760.950	0.0145061
761.028	0.0145540
761.106	0.0145119
761.184	0.0147195
761.262	0.0146568
761.340	0.0145982
761.418	0.0148029
761.496	0.0146833
761.575	0.0145483
761.653	0.0145696
761.731	0.0146661
761.809	0.0147248
761.887	0.0146535
761.965	0.0146786
762.043	0.0146344
762.121	0.0146002
762.200	0.0146838
762.278	0.0146742
762.356	0.0145882
762.434	0.0148962
762.512	0.0147573
762.590	0.0147226
762.668	0.0149324
762.746	0.0148277
762.825	0.0148426
762.903	0.0148101
762.981	0.0148367
763.059	0.0146365
763.137	0.0146368
763.215	0.0144905
763.293	0.0146598
763.371	0.0145377
763.450	0.0143838
763.528	0.0146452
763.606	0.0145387
763.684	0.0144642
763.762	0.0146234
763.840	0.0146005
763.918	0.0145765
763.996	0.0145840
764.075	0.0144982
764.153	0.0145015
764.231	0.0145785
764.309	0.0145359
764.387	0.0144952
764.465	0.0144904
764.543	0.0144767
764.621	0.0145316
764.700	0.0145644
