05/04/2022	21:10:42	Ver.	4.1	UNKNOWN
Optical Delay	678.996401	Delta X		0.078125	Sweeps	1	Scan Rate	0/0
Coordinates	Axis 1	NaN	Axis 2	NaN	Axis 3	NaN	Axis 4	NaN	Axis 5	NaN	Axis 6	0.000000
TX Power	0.000000	RX Power	0.000000

678.996	0.0146180
679.075	0.0146931
679.153	0.0145607
679.231	0.0146550
679.309	0.0147074
679.387	0.0146769
679.465	0.0145986
679.543	0.0145382
679.621	0.0146577
679.700	0.0146211
679.778	0.0146145
679.856	0.0147205
679.934	0.0146383
680.012	0.0148341
680.090	0.0146368
680.168	0.0146740
680.246	0.0146410
680.325	0.0147910
680.403	0.0148618
680.481	0.0147153
680.559	0.0146893
680.637	0.0147018
680.715	0.0146094
680.793	0.0147197
680.871	0.0146793
680.950	0.0146664
681.028	0.0148521
681.106	0.0147622
681.184	0.0146322
681.262	0.0146591
681.340	0.0147389
681.418	0.0147083
681.496	0.0147636
681.575	0.0146492
681.653	0.0146085
681.731	0.0145442
681.809	0.0145384
681.887	0.0147750
681.965	0.0145493
682.043	0.0146366
682.121	0.0147168
682.200	0.0145582
682.278	0.0147156
682.356	0.0145104
682.434	0.0144862
682.512	0.0145234
682.590	0.0146412
682.668	0.0145099
682.746	0.0145727
682.825	0.0144684
682.903	0.0145799
682.981	0.0145523
683.059	0.0146116
683.137	0.0146345
683.215	0.0145904
683.293	0.0145963
683.371	0.0145084
683.450	0.0143980
683.528	0.0146751
683.606	0.0144503
683.684	0.0146511
683.762	0.0145660
683.840	0.0145425
683.918	0.0146015
683.996	0.0147861
684.075	0.0146388
684.153	0.0146294
684.231	0.0146648
684.309	0.0143856
684.387	0.0146130
684.465	0.0146519
684.543	0.0145969
684.621	0.0146911
684.700	0.0145650
684.778	0.0146211
684.856	0.0144819
684.934	0.0147168
685.012	0.0146085
685.090	0.0145682
685.168	0.0145546
685.246	0.0145096
685.325	0.0145352
685.403	0.0146079
685.481	0.0146210
685.559	0.0146433
685.637	0.0145139
685.715	0.0146728
685.793	0.0146820
685.871	0.0146844
685.950	0.0147404
686.028	0.0145754
686.106	0.0147086
686.184	0.0147607
686.262	0.0145845
686.340	0.0147383
686.418	0.0146599
686.496	0.0146467
686.575	0.0146594
686.653	0.0145189
686.731	0.0145682
686.809	0.0145398
686.887	0.0145551
686.965	0.0145422
687.043	0.0146078
687.121	0.0144646
687.200	0.0145216
687.278	0.0146557
687.356	0.0145713
687.434	0.0144345
687.512	0.0144896
687.590	0.0145449
687.668	0.0146563
687.746	0.0147180
687.825	0.0146954
687.903	0.0146625
687.981	0.0147437
688.059	0.0146574
688.137	0.0146723
688.215	0.0147704
688.293	0.0146878
688.371	0.0147392
688.450	0.0148826
688.528	0.0148029
688.606	0.0148099
688.684	0.0147635
688.762	0.0145641
688.840	0.0146584
688.918	0.0145598
688.996	0.0145300
689.075	0.0144982
689.153	0.0145555
689.231	0.0144830
689.309	0.0143259
689.387	0.0143399
689.465	0.0143984
689.543	0.0145370
689.621	0.0144092
689.700	0.0145538
689.778	0.0144977
689.856	0.0144667
689.934	0.0146093
690.012	0.0145142
690.090	0.0146053
690.168	0.0145238
690.246	0.0149416
690.325	0.0146273
690.403	0.0146779
690.481	0.0147121
690.559	0.0146770
690.637	0.0146875
690.715	0.0147490
690.793	0.0147865
690.871	0.0147135
690.950	0.0147023
691.028	0.0147147
691.106	0.0146896
691.184	0.0144183
691.262	0.0147858
691.340	0.0146952
691.418	0.0146449
691.496	0.0146045
691.575	0.0146092
691.653	0.0145380
691.731	0.0144635
691.809	0.0145795
691.887	0.0146391
691.965	0.0145312
692.043	0.0145135
692.121	0.0144993
692.200	0.0145608
692.278	0.0144535
692.356	0.0145885
692.434	0.0145633
692.512	0.0146799
692.590	0.0146901
692.668	0.0147885
692.746	0.0145399
692.825	0.0146970
692.903	0.0145694
692.981	0.0145178
693.059	0.0147076
693.137	0.0147315
693.215	0.0145210
693.293	0.0144787
693.371	0.0146812
693.450	0.0146178
693.528	0.0145399
693.606	0.0148530
693.684	0.0146738
693.762	0.0145660
693.840	0.0147437
693.918	0.0147420
693.996	0.0148068
694.075	0.0146950
694.153	0.0147292
694.231	0.0146955
694.309	0.0146654
694.387	0.0147187
694.465	0.0146671
694.543	0.0145656
694.621	0.0144181
694.700	0.0145667
694.778	0.0146697
694.856	0.0144353
694.934	0.0145645
695.012	0.0144485
695.090	0.0146182
695.168	0.0147404
695.246	0.0145683
695.325	0.0146210
695.403	0.0146400
695.481	0.0146503
695.559	0.0146355
695.637	0.0147065
695.715	0.0146906
695.793	0.0146761
695.871	0.0146812
695.950	0.0147858
696.028	0.0146638
696.106	0.0147533
696.184	0.0147534
696.262	0.0149224
696.340	0.0147861
696.418	0.0146838
696.496	0.0147224
696.575	0.0147885
696.653	0.0146771
696.731	0.0145648
696.809	0.0146754
696.887	0.0145570
696.965	0.0144276
697.043	0.0146059
697.121	0.0146543
697.200	0.0145134
697.278	0.0146009
697.356	0.0145645
697.434	0.0146030
697.512	0.0145609
697.590	0.0146822
697.668	0.0144990
697.746	0.0145356
697.825	0.0146420
697.903	0.0146194
697.981	0.0147604
698.059	0.0147248
698.137	0.0146828
698.215	0.0147841
698.293	0.0146429
698.371	0.0145451
698.450	0.0146957
698.528	0.0147088
698.606	0.0146505
698.684	0.0146423
698.762	0.0146375
698.840	0.0146379
698.918	0.0146173
698.996	0.0145973
699.075	0.0144805
699.153	0.0145055
699.231	0.0144749
699.309	0.0145898
699.387	0.0143995
699.465	0.0144226
699.543	0.0144490
699.621	0.0145545
699.700	0.0145907
699.778	0.0146196
699.856	0.0147665
699.934	0.0147952
700.012	0.0148906
700.090	0.0148546
700.168	0.0148571
700.246	0.0148286
700.325	0.0148626
700.403	0.0146645
700.481	0.0146498
700.559	0.0146944
700.637	0.0145969
700.715	0.0145093
700.793	0.0146816
700.871	0.0146915
700.950	0.0146633
701.028	0.0146788
701.106	0.0146967
701.184	0.0146150
701.262	0.0146159
701.340	0.0143462
701.418	0.0143044
701.496	0.0143093
701.575	0.0144184
701.653	0.0143677
701.731	0.0146091
701.809	0.0146867
701.887	0.0146075
701.965	0.0145975
702.043	0.0145132
702.121	0.0146502
702.200	0.0145685
702.278	0.0144222
702.356	0.0144952
702.434	0.0145626
702.512	0.0145470
702.590	0.0145726
702.668	0.0145712
702.746	0.0146702
702.825	0.0145650
702.903	0.0147662
702.981	0.0148500
703.059	0.0148957
703.137	0.0147971
703.215	0.0148288
703.293	0.0148892
703.371	0.0148389
703.450	0.0146357
703.528	0.0144308
703.606	0.0142702
703.684	0.0140832
703.762	0.0141320
703.840	0.0141870
703.918	0.0142673
703.996	0.0143845
704.075	0.0144757
704.153	0.0145038
704.231	0.0146532
704.309	0.0147117
704.387	0.0146341
704.465	0.0146158
704.543	0.0147382
704.621	0.0146967
704.700	0.0146622
704.778	0.0147855
704.856	0.0149179
704.934	0.0148384
705.012	0.0149115
705.090	0.0148531
705.168	0.0148771
705.246	0.0146462
705.325	0.0147900
705.403	0.0146793
705.481	0.0145647
705.559	0.0144453
705.637	0.0143826
705.715	0.0142790
705.793	0.0143186
705.871	0.0143655
705.950	0.0145412
706.028	0.0146516
706.106	0.0147288
706.184	0.0146069
706.262	0.0147147
706.340	0.0145922
706.418	0.0144556
706.496	0.0143666
706.575	0.0143356
706.653	0.0141577
706.731	0.0141504
706.809	0.0140565
706.887	0.0141503
706.965	0.0143079
707.043	0.0145189
707.121	0.0147699
707.200	0.0148901
707.278	0.0152660
707.356	0.0154254
707.434	0.0154498
707.512	0.0155809
707.590	0.0153380
707.668	0.0152431
707.746	0.0150156
707.825	0.0149832
707.903	0.0146188
707.981	0.0145887
708.059	0.0144695
708.137	0.0143597
708.215	0.0144853
708.293	0.0144842
708.371	0.0145011
708.450	0.0145145
708.528	0.0145052
708.606	0.0144163
708.684	0.0144513
708.762	0.0143553
708.840	0.0143349
708.918	0.0144436
708.996	0.0146807
709.075	0.0147644
709.153	0.0147017
709.231	0.0145910
709.309	0.0146304
709.387	0.0146399
709.465	0.0145416
709.543	0.0144711
709.621	0.0142738
709.700	0.0140194
709.778	0.0139935
709.856	0.0139066
709.934	0.0140182
710.012	0.0141282
710.090	0.0143503
710.168	0.0146529
710.246	0.0150870
710.325	0.0152744
710.403	0.0157060
710.481	0.0160504
710.559	0.0157990
710.637	0.0158182
710.715	0.0157646
710.793	0.0155864
710.871	0.0152515
710.950	0.0148767
711.028	0.0146461
711.106	0.0145238
711.184	0.0143851
711.262	0.0141704
711.340	0.0140573
711.418	0.0140908
711.496	0.0141238
711.575	0.0144184
711.653	0.0146561
711.731	0.0145419
711.809	0.0146026
711.887	0.0148862
711.965	0.0147861
712.043	0.0148240
712.121	0.0146386
712.200	0.0145183
712.278	0.0145650
712.356	0.0145417
712.434	0.0142296
712.512	0.0139101
712.590	0.0138477
712.668	0.0136967
712.746	0.0136288
712.825	0.0137884
712.903	0.0137403
712.981	0.0140187
713.059	0.0140075
713.137	0.0143944
713.215	0.0146915
713.293	0.0149998
713.371	0.0153741
713.450	0.0156380
713.528	0.0155166
713.606	0.0154678
713.684	0.0156330
713.762	0.0155720
713.840	0.0152914
713.918	0.0151123
713.996	0.0148514
714.075	0.0146467
714.153	0.0144125
714.231	0.0142776
714.309	0.0140926
714.387	0.0141394
714.465	0.0142387
714.543	0.0142628
714.621	0.0143435
714.700	0.0145275
714.778	0.0149104
714.856	0.0149982
714.934	0.0151005
715.012	0.0151402
715.090	0.0150549
715.168	0.0151258
715.246	0.0149736
715.325	0.0148755
715.403	0.0146484
715.481	0.0143829
715.559	0.0142713
715.637	0.0141521
715.715	0.0138449
715.793	0.0138084
715.871	0.0138303
715.950	0.0137782
716.028	0.0136817
716.106	0.0139619
716.184	0.0139776
716.262	0.0141187
716.340	0.0143185
716.418	0.0144621
716.496	0.0148743
716.575	0.0150152
716.653	0.0151514
716.731	0.0150781
716.809	0.0151746
716.887	0.0151490
716.965	0.0150546
717.043	0.0150423
717.121	0.0150241
717.200	0.0148846
717.278	0.0148193
717.356	0.0147489
717.434	0.0148259
717.512	0.0147104
717.590	0.0148104
717.668	0.0148273
717.746	0.0149368
717.825	0.0148657
717.903	0.0150049
717.981	0.0150788
718.059	0.0148978
718.137	0.0148470
718.215	0.0147232
718.293	0.0147379
718.371	0.0144778
718.450	0.0144572
718.528	0.0145159
718.606	0.0142403
718.684	0.0142912
718.762	0.0144013
718.840	0.0143107
718.918	0.0140951
718.996	0.0142490
719.075	0.0140976
719.153	0.0142279
719.231	0.0141545
719.309	0.0143291
719.387	0.0143256
719.465	0.0144102
719.543	0.0145363
719.621	0.0146078
719.700	0.0147258
719.778	0.0147376
719.856	0.0147629
719.934	0.0145331
720.012	0.0147548
720.090	0.0147085
720.168	0.0147223
720.246	0.0147572
720.325	0.0146583
720.403	0.0146021
720.481	0.0146072
720.559	0.0147292
720.637	0.0146466
720.715	0.0146760
720.793	0.0149168
720.871	0.0148372
720.950	0.0151295
721.028	0.0150008
721.106	0.0150267
721.184	0.0151546
721.262	0.0150723
721.340	0.0150513
721.418	0.0150557
721.496	0.0148193
721.575	0.0149700
721.653	0.0146661
721.731	0.0145708
721.809	0.0144897
721.887	0.0145321
721.965	0.0145323
722.043	0.0146112
722.121	0.0146709
722.200	0.0146034
722.278	0.0147201
722.356	0.0147685
722.434	0.0147220
722.512	0.0145945
722.590	0.0146512
722.668	0.0143567
722.746	0.0142564
722.825	0.0143048
722.903	0.0142381
722.981	0.0141081
723.059	0.0142521
723.137	0.0140903
723.215	0.0140204
723.293	0.0140125
723.371	0.0142502
723.450	0.0143846
723.528	0.0143680
723.606	0.0145925
723.684	0.0145663
723.762	0.0146040
723.840	0.0147388
723.918	0.0147401
723.996	0.0147277
724.075	0.0148991
724.153	0.0149062
724.231	0.0150042
724.309	0.0149953
724.387	0.0149841
724.465	0.0150398
724.543	0.0149751
724.621	0.0150298
724.700	0.0150390
724.778	0.0149432
724.856	0.0149351
724.934	0.0149380
725.012	0.0148970
725.090	0.0149146
725.168	0.0148524
725.246	0.0148305
725.325	0.0146882
725.403	0.0147806
725.481	0.0146584
725.559	0.0145998
725.637	0.0146383
725.715	0.0146143
725.793	0.0145667
725.871	0.0144270
725.950	0.0146167
726.028	0.0146366
726.106	0.0144666
726.184	0.0145470
726.262	0.0145124
726.340	0.0143568
726.418	0.0143482
726.496	0.0143981
726.575	0.0142223
726.653	0.0142283
726.731	0.0142978
726.809	0.0142162
726.887	0.0141993
726.965	0.0142483
727.043	0.0143074
727.121	0.0144373
727.200	0.0143678
727.278	0.0145518
727.356	0.0144694
727.434	0.0146351
727.512	0.0146188
727.590	0.0146619
727.668	0.0146395
727.746	0.0146809
727.825	0.0146950
727.903	0.0146563
727.981	0.0147441
728.059	0.0149976
728.137	0.0148549
728.215	0.0148436
728.293	0.0148521
728.371	0.0148617
728.450	0.0148032
728.528	0.0148519
728.606	0.0147944
728.684	0.0147234
728.762	0.0147130
728.840	0.0146713
728.918	0.0147382
728.996	0.0148100
729.075	0.0146947
729.153	0.0148276
729.231	0.0147820
729.309	0.0148661
729.387	0.0148244
729.465	0.0149280
729.543	0.0148524
729.621	0.0147346
729.700	0.0147560
729.778	0.0146806
729.856	0.0146573
729.934	0.0145484
730.012	0.0143524
730.090	0.0144131
730.168	0.0144396
730.246	0.0143412
730.325	0.0142220
730.403	0.0142675
730.481	0.0142031
730.559	0.0143118
730.637	0.0143919
730.715	0.0144161
730.793	0.0144160
730.871	0.0146638
730.950	0.0146236
731.028	0.0148577
731.106	0.0147787
731.184	0.0148004
731.262	0.0148378
731.340	0.0147206
731.418	0.0148569
731.496	0.0146989
731.575	0.0147533
731.653	0.0146731
731.731	0.0146648
731.809	0.0147821
731.887	0.0147432
731.965	0.0147719
732.043	0.0147049
732.121	0.0146786
732.200	0.0147892
732.278	0.0146684
732.356	0.0147271
732.434	0.0146415
732.512	0.0146408
732.590	0.0145512
732.668	0.0145113
732.746	0.0145285
732.825	0.0145475
732.903	0.0145049
732.981	0.0142903
733.059	0.0144701
733.137	0.0144244
733.215	0.0143394
733.293	0.0144411
733.371	0.0146826
733.450	0.0145296
733.528	0.0146430
733.606	0.0147183
733.684	0.0149082
733.762	0.0148540
733.840	0.0147564
733.918	0.0149986
733.996	0.0149405
734.075	0.0149950
734.153	0.0149225
734.231	0.0148349
734.309	0.0147997
734.387	0.0146854
734.465	0.0147270
734.543	0.0146743
734.621	0.0145971
734.700	0.0146372
734.778	0.0147025
734.856	0.0146712
734.934	0.0146166
735.012	0.0146901
735.090	0.0145911
735.168	0.0145992
735.246	0.0146397
735.325	0.0145771
735.403	0.0144270
735.481	0.0144671
735.559	0.0144302
735.637	0.0143510
735.715	0.0144086
735.793	0.0142923
735.871	0.0143403
735.950	0.0143198
736.028	0.0143246
736.106	0.0143040
736.184	0.0144141
736.262	0.0143941
736.340	0.0144556
736.418	0.0144949
736.496	0.0143888
736.575	0.0146380
736.653	0.0146770
736.731	0.0145979
736.809	0.0147289
736.887	0.0147953
736.965	0.0148323
737.043	0.0147000
737.121	0.0148825
737.200	0.0148420
737.278	0.0148634
737.356	0.0149841
737.434	0.0148711
737.512	0.0148273
737.590	0.0147456
737.668	0.0148686
737.746	0.0148692
737.825	0.0147118
737.903	0.0147466
737.981	0.0149551
738.059	0.0148642
738.137	0.0146215
738.215	0.0147762
738.293	0.0147343
738.371	0.0147703
738.450	0.0146644
738.528	0.0145807
738.606	0.0146301
738.684	0.0145744
738.762	0.0145034
738.840	0.0144559
738.918	0.0145463
738.996	0.0143887
739.075	0.0144733
739.153	0.0144706
739.231	0.0143906
739.309	0.0143684
739.387	0.0143111
739.465	0.0144166
739.543	0.0142036
739.621	0.0142131
739.700	0.0143492
739.778	0.0143113
739.856	0.0144514
739.934	0.0142860
740.012	0.0141521
740.090	0.0143375
740.168	0.0143437
740.246	0.0144347
740.325	0.0144519
740.403	0.0144446
740.481	0.0145349
740.559	0.0145065
740.637	0.0146600
740.715	0.0148389
740.793	0.0147345
740.871	0.0148680
740.950	0.0148801
741.028	0.0149470
741.106	0.0151218
741.184	0.0150339
741.262	0.0152426
741.340	0.0150146
741.418	0.0149798
741.496	0.0152295
741.575	0.0150066
741.653	0.0148318
741.731	0.0148073
741.809	0.0147269
741.887	0.0147049
741.965	0.0148117
742.043	0.0147292
742.121	0.0144570
742.200	0.0143589
742.278	0.0144796
742.356	0.0144868
742.434	0.0142563
742.512	0.0143710
742.590	0.0144808
742.668	0.0143040
742.746	0.0144903
742.825	0.0145161
742.903	0.0146240
742.981	0.0145472
743.059	0.0145893
743.137	0.0145065
743.215	0.0145053
743.293	0.0145210
743.371	0.0144956
743.450	0.0143846
743.528	0.0142928
743.606	0.0142516
743.684	0.0141853
743.762	0.0145177
743.840	0.0143805
743.918	0.0143841
743.996	0.0145081
744.075	0.0145312
744.153	0.0147829
744.231	0.0147693
744.309	0.0148547
744.387	0.0148804
744.465	0.0149133
744.543	0.0149834
744.621	0.0152084
744.700	0.0150326
744.778	0.0150713
744.856	0.0150467
744.934	0.0149171
745.012	0.0148565
745.090	0.0148985
745.168	0.0149804
745.246	0.0148436
745.325	0.0148281
745.403	0.0149640
745.481	0.0146806
745.559	0.0147520
745.637	0.0146337
745.715	0.0146437
745.793	0.0144949
745.871	0.0145629
745.950	0.0146510
746.028	0.0146948
746.106	0.0145404
746.184	0.0145508
746.262	0.0145515
746.340	0.0143600
746.418	0.0144557
746.496	0.0144884
746.575	0.0144831
746.653	0.0142693
746.731	0.0143729
746.809	0.0143686
746.887	0.0144035
746.965	0.0145238
747.043	0.0147642
747.121	0.0145812
747.200	0.0144755
747.278	0.0146032
747.356	0.0146771
747.434	0.0148341
747.512	0.0146680
747.590	0.0145683
747.668	0.0145262
747.746	0.0146816
747.825	0.0146886
747.903	0.0146088
747.981	0.0147741
748.059	0.0146764
748.137	0.0146600
748.215	0.0147718
748.293	0.0147788
748.371	0.0148129
748.450	0.0146284
748.528	0.0147451
748.606	0.0147603
748.684	0.0148889
748.762	0.0147604
748.840	0.0147872
748.918	0.0148436
748.996	0.0148318
749.075	0.0147588
749.153	0.0146433
749.231	0.0146442
749.309	0.0146491
749.387	0.0145089
749.465	0.0144974
749.543	0.0143706
749.621	0.0142812
749.700	0.0144389
749.778	0.0141578
749.856	0.0143327
749.934	0.0143192
750.012	0.0141909
750.090	0.0144643
750.168	0.0142831
750.246	0.0143934
750.325	0.0145631
750.403	0.0144489
750.481	0.0147533
750.559	0.0146001
750.637	0.0147941
750.715	0.0148592
750.793	0.0148528
750.871	0.0149194
750.950	0.0147211
751.028	0.0146516
751.106	0.0147519
751.184	0.0148342
751.262	0.0147073
751.340	0.0147710
751.418	0.0146479
751.496	0.0146832
751.575	0.0148869
751.653	0.0147167
751.731	0.0148086
751.809	0.0148047
751.887	0.0148872
751.965	0.0148107
752.043	0.0147667
752.121	0.0146852
752.200	0.0146348
752.278	0.0145866
752.356	0.0146238
752.434	0.0146785
752.512	0.0147541
752.590	0.0145763
752.668	0.0145288
752.746	0.0145146
752.825	0.0145303
752.903	0.0144974
752.981	0.0143688
753.059	0.0143726
753.137	0.0144511
753.215	0.0144902
753.293	0.0143842
753.371	0.0142988
753.450	0.0144164
753.528	0.0144314
753.606	0.0144957
753.684	0.0145797
753.762	0.0144267
753.840	0.0145082
753.918	0.0144366
753.996	0.0144776
754.075	0.0145648
754.153	0.0146527
754.231	0.0146511
754.309	0.0146734
754.387	0.0146572
754.465	0.0145868
754.543	0.0145985
754.621	0.0148384
754.700	0.0148344
754.778	0.0147969
754.856	0.0149245
754.934	0.0150375
755.012	0.0149097
755.090	0.0149356
755.168	0.0149850
755.246	0.0148480
755.325	0.0148712
755.403	0.0150116
755.481	0.0149361
755.559	0.0148489
755.637	0.0147031
755.715	0.0146864
755.793	0.0148042
755.871	0.0146924
755.950	0.0146267
756.028	0.0146246
756.106	0.0144722
756.184	0.0144220
756.262	0.0144424
756.340	0.0144916
756.418	0.0145601
756.496	0.0144623
756.575	0.0144051
756.653	0.0144154
756.731	0.0143027
756.809	0.0143662
756.887	0.0144860
756.965	0.0144960
757.043	0.0143753
757.121	0.0143759
757.200	0.0144306
757.278	0.0144976
757.356	0.0145472
757.434	0.0146147
757.512	0.0146928
757.590	0.0146398
757.668	0.0145982
757.746	0.0146601
757.825	0.0146481
757.903	0.0146897
757.981	0.0145602
758.059	0.0146295
758.137	0.0146976
758.215	0.0148762
758.293	0.0148152
758.371	0.0147369
758.450	0.0147600
758.528	0.0148760
758.606	0.0148287
758.684	0.0149042
758.762	0.0147889
758.840	0.0148801
758.918	0.0148425
758.996	0.0148206
759.075	0.0146867
759.153	0.0146594
759.231	0.0148341
759.309	0.0147008
759.387	0.0147396
759.465	0.0148772
759.543	0.0148298
759.621	0.0145058
759.700	0.0146045
759.778	0.0146373
759.856	0.0146123
759.934	0.0145999
760.012	0.0146629
760.090	0.0146174
760.168	0.0145689
760.246	0.0144499
760.325	0.0145665
760.403	0.0145800
760.481	0.0144804
760.559	0.0145963
760.637	0.0145018
760.715	0.0145068
760.793	0.0145129
760.871	0.0145446
760.950	0.0145184
761.028	0.0145065
761.106	0.0145161
761.184	0.0146397
761.262	0.0144712
761.340	0.0144701
761.418	0.0145757
761.496	0.0146893
761.575	0.0147483
761.653	0.0145895
761.731	0.0145716
761.809	0.0146811
761.887	0.0146398
761.965	0.0146847
762.043	0.0145021
762.121	0.0145991
762.200	0.0145608
762.278	0.0146262
762.356	0.0146308
762.434	0.0147794
762.512	0.0148296
762.590	0.0147912
762.668	0.0148965
762.746	0.0147405
762.825	0.0147611
762.903	0.0148264
762.981	0.0149210
763.059	0.0147043
763.137	0.0147954
763.215	0.0147594
763.293	0.0145661
763.371	0.0145945
763.450	0.0146912
763.528	0.0146089
763.606	0.0145828
763.684	0.0144731
763.762	0.0146111
763.840	0.0144151
763.918	0.0144064
763.996	0.0143423
764.075	0.0144069
764.153	0.0144778
764.231	0.0144313
764.309	0.0145113
764.387	0.0143430
764.465	0.0144062
764.543	0.0144509
764.621	0.0145547
764.700	0.0144437
