05/04/2022	21:11:17	Ver.	4.1	UNKNOWN
Optical Delay	678.996401	Delta X		0.078125	Sweeps	1	Scan Rate	0/0
Coordinates	Axis 1	NaN	Axis 2	NaN	Axis 3	NaN	Axis 4	NaN	Axis 5	NaN	Axis 6	0.000000
TX Power	0.000000	RX Power	0.000000

678.996	0.0142281
679.075	0.0141563
679.153	0.0141877
679.231	0.0141576
679.309	0.0140788
679.387	0.0142313
679.465	0.0141074
679.543	0.0141517
679.621	0.0142107
679.700	0.0141410
679.778	0.0142601
679.856	0.0143481
679.934	0.0142099
680.012	0.0143324
680.090	0.0141887
680.168	0.0141189
680.246	0.0142528
680.325	0.0142000
680.403	0.0141593
680.481	0.0142744
680.559	0.0142946
680.637	0.0142192
680.715	0.0142430
680.793	0.0142038
680.871	0.0141084
680.950	0.0143181
681.028	0.0143436
681.106	0.0142846
681.184	0.0142755
681.262	0.0142733
681.340	0.0144830
681.418	0.0142204
681.496	0.0141856
681.575	0.0142303
681.653	0.0140570
681.731	0.0143446
681.809	0.0141794
681.887	0.0142471
681.965	0.0142559
682.043	0.0143880
682.121	0.0141486
682.200	0.0143207
682.278	0.0141764
682.356	0.0141943
682.434	0.0141370
682.512	0.0142149
682.590	0.0142732
682.668	0.0142020
682.746	0.0142091
682.825	0.0140462
682.903	0.0142254
682.981	0.0143580
683.059	0.0142556
683.137	0.0141360
683.215	0.0142535
683.293	0.0143845
683.371	0.0142883
683.450	0.0142741
683.528	0.0142938
683.606	0.0143718
683.684	0.0141900
683.762	0.0141512
683.840	0.0141443
683.918	0.0140613
683.996	0.0141092
684.075	0.0140686
684.153	0.0140008
684.231	0.0139618
684.309	0.0139833
684.387	0.0140937
684.465	0.0140939
684.543	0.0140761
684.621	0.0140612
684.700	0.0141126
684.778	0.0141069
684.856	0.0141300
684.934	0.0141184
685.012	0.0142125
685.090	0.0144174
685.168	0.0143093
685.246	0.0143059
685.325	0.0143825
685.403	0.0143869
685.481	0.0144572
685.559	0.0144252
685.637	0.0144656
685.715	0.0144109
685.793	0.0143892
685.871	0.0143090
685.950	0.0142984
686.028	0.0143317
686.106	0.0141746
686.184	0.0142217
686.262	0.0142009
686.340	0.0141347
686.418	0.0141303
686.496	0.0140170
686.575	0.0139371
686.653	0.0142217
686.731	0.0142055
686.809	0.0139084
686.887	0.0140627
686.965	0.0142014
687.043	0.0140224
687.121	0.0139988
687.200	0.0143130
687.278	0.0142263
687.356	0.0142249
687.434	0.0142327
687.512	0.0143200
687.590	0.0142826
687.668	0.0141343
687.746	0.0144518
687.825	0.0145060
687.903	0.0143507
687.981	0.0143457
688.059	0.0143512
688.137	0.0143176
688.215	0.0143687
688.293	0.0142218
688.371	0.0142401
688.450	0.0143439
688.528	0.0142014
688.606	0.0142552
688.684	0.0142295
688.762	0.0140755
688.840	0.0141405
688.918	0.0141785
688.996	0.0140292
689.075	0.0140553
689.153	0.0140514
689.231	0.0141800
689.309	0.0140823
689.387	0.0141806
689.465	0.0141949
689.543	0.0141241
689.621	0.0143003
689.700	0.0141259
689.778	0.0141927
689.856	0.0143590
689.934	0.0142648
690.012	0.0141521
690.090	0.0141179
690.168	0.0142293
690.246	0.0141671
690.325	0.0140364
690.403	0.0140443
690.481	0.0142352
690.559	0.0141567
690.637	0.0143772
690.715	0.0143871
690.793	0.0143666
690.871	0.0143832
690.950	0.0144608
691.028	0.0144402
691.106	0.0145345
691.184	0.0141606
691.262	0.0143565
691.340	0.0144645
691.418	0.0143195
691.496	0.0142359
691.575	0.0143719
691.653	0.0142722
691.731	0.0141659
691.809	0.0140847
691.887	0.0142123
691.965	0.0142677
692.043	0.0141661
692.121	0.0141206
692.200	0.0141647
692.278	0.0141611
692.356	0.0141058
692.434	0.0141821
692.512	0.0142645
692.590	0.0142189
692.668	0.0142037
692.746	0.0143820
692.825	0.0144132
692.903	0.0143974
692.981	0.0141912
693.059	0.0142986
693.137	0.0142628
693.215	0.0144149
693.293	0.0143585
693.371	0.0143295
693.450	0.0143994
693.528	0.0143220
693.606	0.0145088
693.684	0.0142139
693.762	0.0143580
693.840	0.0143767
693.918	0.0142465
693.996	0.0141532
694.075	0.0141840
694.153	0.0141779
694.231	0.0141041
694.309	0.0141653
694.387	0.0141815
694.465	0.0142376
694.543	0.0141458
694.621	0.0141443
694.700	0.0140687
694.778	0.0142298
694.856	0.0142989
694.934	0.0141190
695.012	0.0141927
695.090	0.0143010
695.168	0.0142932
695.246	0.0143405
695.325	0.0142772
695.403	0.0142268
695.481	0.0143019
695.559	0.0142817
695.637	0.0143710
695.715	0.0144418
695.793	0.0142242
695.871	0.0143050
695.950	0.0142228
696.028	0.0141654
696.106	0.0141454
696.184	0.0142077
696.262	0.0142248
696.340	0.0141721
696.418	0.0141969
696.496	0.0142729
696.575	0.0142395
696.653	0.0143407
696.731	0.0142583
696.809	0.0142897
696.887	0.0143387
696.965	0.0141340
697.043	0.0143658
697.121	0.0143752
697.200	0.0144076
697.278	0.0144555
697.356	0.0142706
697.434	0.0143524
697.512	0.0142235
697.590	0.0142369
697.668	0.0142163
697.746	0.0141370
697.825	0.0143018
697.903	0.0142363
697.981	0.0142667
698.059	0.0142625
698.137	0.0143289
698.215	0.0142635
698.293	0.0142638
698.371	0.0142151
698.450	0.0140087
698.528	0.0141149
698.606	0.0144717
698.684	0.0144221
698.762	0.0143958
698.840	0.0145645
698.918	0.0144532
698.996	0.0144781
699.075	0.0145065
699.153	0.0144019
699.231	0.0142931
699.309	0.0142278
699.387	0.0139140
699.465	0.0141452
699.543	0.0140423
699.621	0.0141626
699.700	0.0142542
699.778	0.0142963
699.856	0.0144041
699.934	0.0144208
700.012	0.0145388
700.090	0.0145120
700.168	0.0143382
700.246	0.0142741
700.325	0.0141855
700.403	0.0141338
700.481	0.0139821
700.559	0.0139908
700.637	0.0139798
700.715	0.0140017
700.793	0.0140775
700.871	0.0141393
700.950	0.0142178
701.028	0.0142818
701.106	0.0141680
701.184	0.0141894
701.262	0.0142204
701.340	0.0141972
701.418	0.0143478
701.496	0.0143509
701.575	0.0143209
701.653	0.0140923
701.731	0.0142167
701.809	0.0142809
701.887	0.0143085
701.965	0.0144151
702.043	0.0143046
702.121	0.0142285
702.200	0.0144286
702.278	0.0142738
702.356	0.0140646
702.434	0.0141419
702.512	0.0139149
702.590	0.0138004
702.668	0.0139470
702.746	0.0140711
702.825	0.0142070
702.903	0.0142335
702.981	0.0143654
703.059	0.0143041
703.137	0.0144145
703.215	0.0143204
703.293	0.0142715
703.371	0.0142140
703.450	0.0140893
703.528	0.0140804
703.606	0.0140743
703.684	0.0142174
703.762	0.0141318
703.840	0.0142597
703.918	0.0143683
703.996	0.0145386
704.075	0.0146663
704.153	0.0146708
704.231	0.0147747
704.309	0.0145248
704.387	0.0144915
704.465	0.0143476
704.543	0.0141187
704.621	0.0137808
704.700	0.0136834
704.778	0.0136919
704.856	0.0136794
704.934	0.0137514
705.012	0.0138741
705.090	0.0139766
705.168	0.0142263
705.246	0.0145267
705.325	0.0145464
705.403	0.0146571
705.481	0.0147767
705.559	0.0147849
705.637	0.0146539
705.715	0.0144576
705.793	0.0144487
705.871	0.0142702
705.950	0.0141393
706.028	0.0140376
706.106	0.0140161
706.184	0.0140294
706.262	0.0141400
706.340	0.0140284
706.418	0.0140719
706.496	0.0140427
706.575	0.0140446
706.653	0.0142227
706.731	0.0142229
706.809	0.0143670
706.887	0.0145830
706.965	0.0148093
707.043	0.0146751
707.121	0.0148212
707.200	0.0149712
707.278	0.0147873
707.356	0.0146459
707.434	0.0144204
707.512	0.0140772
707.590	0.0136469
707.668	0.0131792
707.746	0.0128859
707.825	0.0127456
707.903	0.0126900
707.981	0.0128254
708.059	0.0129108
708.137	0.0135145
708.215	0.0139489
708.293	0.0143591
708.371	0.0146523
708.450	0.0150570
708.528	0.0153959
708.606	0.0153201
708.684	0.0154420
708.762	0.0152921
708.840	0.0150465
708.918	0.0150147
708.996	0.0145902
709.075	0.0144868
709.153	0.0140341
709.231	0.0138381
709.309	0.0137070
709.387	0.0137227
709.465	0.0136973
709.543	0.0138402
709.621	0.0141692
709.700	0.0143051
709.778	0.0144742
709.856	0.0147746
709.934	0.0148866
710.012	0.0149771
710.090	0.0150022
710.168	0.0149947
710.246	0.0151057
710.325	0.0148742
710.403	0.0147982
710.481	0.0145895
710.559	0.0143315
710.637	0.0137253
710.715	0.0134992
710.793	0.0132015
710.871	0.0127953
710.950	0.0127657
711.028	0.0126775
711.106	0.0128413
711.184	0.0131376
711.262	0.0134623
711.340	0.0137696
711.418	0.0140219
711.496	0.0142576
711.575	0.0147047
711.653	0.0148769
711.731	0.0149116
711.809	0.0149659
711.887	0.0147385
711.965	0.0148832
712.043	0.0147151
712.121	0.0146242
712.200	0.0145495
712.278	0.0142846
712.356	0.0142491
712.434	0.0141849
712.512	0.0138648
712.590	0.0138196
712.668	0.0139189
712.746	0.0139651
712.825	0.0141320
712.903	0.0141694
712.981	0.0143687
713.059	0.0145010
713.137	0.0147074
713.215	0.0147446
713.293	0.0148463
713.371	0.0148811
713.450	0.0150166
713.528	0.0149393
713.606	0.0147333
713.684	0.0145390
713.762	0.0144115
713.840	0.0142107
713.918	0.0140096
713.996	0.0137695
714.075	0.0134180
714.153	0.0133570
714.231	0.0132360
714.309	0.0132887
714.387	0.0131458
714.465	0.0131903
714.543	0.0134118
714.621	0.0136057
714.700	0.0137602
714.778	0.0140153
714.856	0.0142332
714.934	0.0144678
715.012	0.0146992
715.090	0.0146539
715.168	0.0148951
715.246	0.0150179
715.325	0.0149701
715.403	0.0149459
715.481	0.0146588
715.559	0.0145642
715.637	0.0145490
715.715	0.0143609
715.793	0.0140886
715.871	0.0137247
715.950	0.0136800
716.028	0.0137544
716.106	0.0136655
716.184	0.0136992
716.262	0.0137849
716.340	0.0140426
716.418	0.0142126
716.496	0.0146556
716.575	0.0146127
716.653	0.0149722
716.731	0.0152531
716.809	0.0152924
716.887	0.0152274
716.965	0.0151434
717.043	0.0152518
717.121	0.0149625
717.200	0.0144694
717.278	0.0141604
717.356	0.0139032
717.434	0.0136342
717.512	0.0135734
717.590	0.0132378
717.668	0.0130898
717.746	0.0132245
717.825	0.0133627
717.903	0.0133479
717.981	0.0135384
718.059	0.0137256
718.137	0.0139174
718.215	0.0141147
718.293	0.0142057
718.371	0.0143963
718.450	0.0145029
718.528	0.0145383
718.606	0.0146283
718.684	0.0146162
718.762	0.0145652
718.840	0.0143967
718.918	0.0146217
718.996	0.0143349
719.075	0.0143414
719.153	0.0143648
719.231	0.0142465
719.309	0.0143372
719.387	0.0140679
719.465	0.0140168
719.543	0.0140289
719.621	0.0141375
719.700	0.0143128
719.778	0.0140993
719.856	0.0146108
719.934	0.0147057
720.012	0.0147309
720.090	0.0147175
720.168	0.0148737
720.246	0.0151020
720.325	0.0150340
720.403	0.0148770
720.481	0.0150533
720.559	0.0148338
720.637	0.0145297
720.715	0.0143487
720.793	0.0141228
720.871	0.0137664
720.950	0.0136372
721.028	0.0135984
721.106	0.0133919
721.184	0.0134025
721.262	0.0134595
721.340	0.0135374
721.418	0.0136007
721.496	0.0137656
721.575	0.0139246
721.653	0.0140868
721.731	0.0143311
721.809	0.0143415
721.887	0.0143162
721.965	0.0143141
722.043	0.0144787
722.121	0.0142265
722.200	0.0143359
722.278	0.0142147
722.356	0.0141455
722.434	0.0141935
722.512	0.0141052
722.590	0.0140405
722.668	0.0140622
722.746	0.0141415
722.825	0.0142192
722.903	0.0143414
722.981	0.0144318
723.059	0.0146049
723.137	0.0147233
723.215	0.0148263
723.293	0.0148348
723.371	0.0149027
723.450	0.0148055
723.528	0.0146899
723.606	0.0146851
723.684	0.0146255
723.762	0.0144014
723.840	0.0145486
723.918	0.0141975
723.996	0.0142150
724.075	0.0142786
724.153	0.0141667
724.231	0.0141248
724.309	0.0141177
724.387	0.0142511
724.465	0.0140944
724.543	0.0140981
724.621	0.0141798
724.700	0.0140850
724.778	0.0141782
724.856	0.0141162
724.934	0.0141380
725.012	0.0140341
725.090	0.0140900
725.168	0.0140357
725.246	0.0140769
725.325	0.0140501
725.403	0.0138078
725.481	0.0139346
725.559	0.0139733
725.637	0.0137759
725.715	0.0139565
725.793	0.0138182
725.871	0.0138902
725.950	0.0140655
726.028	0.0139268
726.106	0.0141058
726.184	0.0143478
726.262	0.0142239
726.340	0.0142780
726.418	0.0145246
726.496	0.0145198
726.575	0.0145013
726.653	0.0145738
726.731	0.0145735
726.809	0.0144070
726.887	0.0143576
726.965	0.0143955
727.043	0.0143374
727.121	0.0143214
727.200	0.0144284
727.278	0.0144298
727.356	0.0144808
727.434	0.0144652
727.512	0.0144490
727.590	0.0144118
727.668	0.0144084
727.746	0.0143550
727.825	0.0142622
727.903	0.0144437
727.981	0.0143519
728.059	0.0143122
728.137	0.0142548
728.215	0.0142191
728.293	0.0142410
728.371	0.0143665
728.450	0.0142436
728.528	0.0141895
728.606	0.0141470
728.684	0.0143571
728.762	0.0141245
728.840	0.0141230
728.918	0.0142684
728.996	0.0141645
729.075	0.0139930
729.153	0.0140311
729.231	0.0140311
729.309	0.0140423
729.387	0.0141148
729.465	0.0139950
729.543	0.0140130
729.621	0.0140500
729.700	0.0142631
729.778	0.0142961
729.856	0.0141944
729.934	0.0143784
730.012	0.0144093
730.090	0.0144117
730.168	0.0145054
730.246	0.0143302
730.325	0.0145530
730.403	0.0145934
730.481	0.0144902
730.559	0.0143507
730.637	0.0143649
730.715	0.0143876
730.793	0.0142111
730.871	0.0142812
730.950	0.0140801
731.028	0.0139956
731.106	0.0139186
731.184	0.0139127
731.262	0.0138240
731.340	0.0138216
731.418	0.0139394
731.496	0.0139368
731.575	0.0140773
731.653	0.0141049
731.731	0.0141865
731.809	0.0142543
731.887	0.0142849
731.965	0.0142490
732.043	0.0145213
732.121	0.0143131
732.200	0.0141515
732.278	0.0142672
732.356	0.0141076
732.434	0.0142052
732.512	0.0142632
732.590	0.0140710
732.668	0.0141901
732.746	0.0141348
732.825	0.0140297
732.903	0.0142568
732.981	0.0143635
733.059	0.0142832
733.137	0.0142287
733.215	0.0144669
733.293	0.0145002
733.371	0.0144306
733.450	0.0144088
733.528	0.0145558
733.606	0.0144141
733.684	0.0143557
733.762	0.0141914
733.840	0.0141303
733.918	0.0141602
733.996	0.0141560
734.075	0.0140304
734.153	0.0141979
734.231	0.0140568
734.309	0.0140691
734.387	0.0141629
734.465	0.0140606
734.543	0.0139494
734.621	0.0140017
734.700	0.0140888
734.778	0.0140217
734.856	0.0138723
734.934	0.0138937
735.012	0.0140608
735.090	0.0139637
735.168	0.0137948
735.246	0.0138309
735.325	0.0140354
735.403	0.0140196
735.481	0.0139176
735.559	0.0140347
735.637	0.0141719
735.715	0.0140716
735.793	0.0142371
735.871	0.0143696
735.950	0.0144743
736.028	0.0144378
736.106	0.0144532
736.184	0.0144602
736.262	0.0144234
736.340	0.0145195
736.418	0.0144944
736.496	0.0144135
736.575	0.0144707
736.653	0.0143944
736.731	0.0143451
736.809	0.0142876
736.887	0.0144038
736.965	0.0143868
737.043	0.0143357
737.121	0.0143888
737.200	0.0143035
737.278	0.0142461
737.356	0.0142309
737.434	0.0143781
737.512	0.0143020
737.590	0.0142163
737.668	0.0142047
737.746	0.0142197
737.825	0.0140527
737.903	0.0140762
737.981	0.0142426
738.059	0.0140250
738.137	0.0140099
738.215	0.0139506
738.293	0.0139285
738.371	0.0139479
738.450	0.0139134
738.528	0.0138559
738.606	0.0137121
738.684	0.0137864
738.762	0.0137814
738.840	0.0136807
738.918	0.0138106
738.996	0.0137992
739.075	0.0139042
739.153	0.0138511
739.231	0.0141104
739.309	0.0142403
739.387	0.0142944
739.465	0.0143301
739.543	0.0143073
739.621	0.0144197
739.700	0.0144905
739.778	0.0147100
739.856	0.0146463
739.934	0.0145967
740.012	0.0143651
740.090	0.0145900
740.168	0.0146402
740.246	0.0146908
740.325	0.0146745
740.403	0.0145599
740.481	0.0146347
740.559	0.0145136
740.637	0.0144022
740.715	0.0144502
740.793	0.0145808
740.871	0.0145506
740.950	0.0144257
741.028	0.0144666
741.106	0.0144773
741.184	0.0145621
741.262	0.0143092
741.340	0.0141995
741.418	0.0142393
741.496	0.0140936
741.575	0.0140340
741.653	0.0140609
741.731	0.0138866
741.809	0.0138670
741.887	0.0140900
741.965	0.0138428
742.043	0.0138847
742.121	0.0139644
742.200	0.0139489
742.278	0.0140462
742.356	0.0139750
742.434	0.0139991
742.512	0.0139333
742.590	0.0141461
742.668	0.0141058
742.746	0.0141402
742.825	0.0141479
742.903	0.0140281
742.981	0.0141779
743.059	0.0141238
743.137	0.0141202
743.215	0.0143810
743.293	0.0142954
743.371	0.0143043
743.450	0.0142301
743.528	0.0142045
743.606	0.0143539
743.684	0.0144932
743.762	0.0144858
743.840	0.0146352
743.918	0.0145483
743.996	0.0144071
744.075	0.0146953
744.153	0.0146642
744.231	0.0144955
744.309	0.0145537
744.387	0.0144812
744.465	0.0143333
744.543	0.0143221
744.621	0.0142892
744.700	0.0142333
744.778	0.0141895
744.856	0.0141702
744.934	0.0142342
745.012	0.0141434
745.090	0.0142135
745.168	0.0142723
745.246	0.0142136
745.325	0.0142062
745.403	0.0142970
745.481	0.0141177
745.559	0.0141964
745.637	0.0141368
745.715	0.0138989
745.793	0.0139948
745.871	0.0140870
745.950	0.0140144
746.028	0.0140298
746.106	0.0140784
746.184	0.0139177
746.262	0.0139019
746.340	0.0139829
746.418	0.0141621
746.496	0.0141331
746.575	0.0141030
746.653	0.0141713
746.731	0.0141790
746.809	0.0142665
746.887	0.0142790
746.965	0.0142738
747.043	0.0142368
747.121	0.0142925
747.200	0.0143510
747.278	0.0143346
747.356	0.0143898
747.434	0.0143735
747.512	0.0145231
747.590	0.0144118
747.668	0.0143943
747.746	0.0144271
747.825	0.0144318
747.903	0.0144646
747.981	0.0143967
748.059	0.0142979
748.137	0.0144313
748.215	0.0143728
748.293	0.0143499
748.371	0.0143235
748.450	0.0141260
748.528	0.0141566
748.606	0.0142953
748.684	0.0142436
748.762	0.0140334
748.840	0.0139480
748.918	0.0139886
748.996	0.0139676
749.075	0.0139816
749.153	0.0139956
749.231	0.0140464
749.309	0.0139944
749.387	0.0139925
749.465	0.0140532
749.543	0.0140367
749.621	0.0140218
749.700	0.0141742
749.778	0.0142865
749.856	0.0143092
749.934	0.0143313
750.012	0.0144587
750.090	0.0144228
750.168	0.0144827
750.246	0.0144174
750.325	0.0144972
750.403	0.0143999
750.481	0.0145753
750.559	0.0144131
750.637	0.0143681
750.715	0.0142340
750.793	0.0143875
750.871	0.0142217
750.950	0.0142135
751.028	0.0142883
751.106	0.0142239
751.184	0.0141735
751.262	0.0142227
751.340	0.0142059
751.418	0.0141533
751.496	0.0142418
751.575	0.0142153
751.653	0.0142055
751.731	0.0142283
751.809	0.0142872
751.887	0.0140826
751.965	0.0142094
752.043	0.0140248
752.121	0.0141249
752.200	0.0142332
752.278	0.0141330
752.356	0.0141541
752.434	0.0141405
752.512	0.0141340
752.590	0.0141033
752.668	0.0140172
752.746	0.0141077
752.825	0.0140587
752.903	0.0140446
752.981	0.0140210
753.059	0.0140362
753.137	0.0140902
753.215	0.0142837
753.293	0.0141836
753.371	0.0141776
753.450	0.0142910
753.528	0.0143143
753.606	0.0141632
753.684	0.0142036
753.762	0.0141899
753.840	0.0142843
753.918	0.0143478
753.996	0.0144017
754.075	0.0144353
754.153	0.0144149
754.231	0.0142560
754.309	0.0143964
754.387	0.0143600
754.465	0.0144466
754.543	0.0144633
754.621	0.0144366
754.700	0.0144175
754.778	0.0142794
754.856	0.0143005
754.934	0.0143983
755.012	0.0142573
755.090	0.0142183
755.168	0.0142031
755.246	0.0141273
755.325	0.0141082
755.403	0.0141261
755.481	0.0141685
755.559	0.0141911
755.637	0.0141690
755.715	0.0142017
755.793	0.0141152
755.871	0.0139877
755.950	0.0140945
756.028	0.0141261
756.106	0.0141666
756.184	0.0140186
756.262	0.0140308
756.340	0.0139340
756.418	0.0140558
756.496	0.0140850
756.575	0.0140285
756.653	0.0140510
756.731	0.0140327
756.809	0.0141178
756.887	0.0141322
756.965	0.0140335
757.043	0.0141309
757.121	0.0142645
757.200	0.0142234
757.278	0.0143104
757.356	0.0144518
757.434	0.0142749
757.512	0.0143188
757.590	0.0144769
757.668	0.0144732
757.746	0.0144218
757.825	0.0144230
757.903	0.0143708
757.981	0.0143459
758.059	0.0143612
758.137	0.0143910
758.215	0.0143626
758.293	0.0143994
758.371	0.0142345
758.450	0.0141322
758.528	0.0142332
758.606	0.0142307
758.684	0.0142425
758.762	0.0143121
758.840	0.0142390
758.918	0.0141154
758.996	0.0142031
759.075	0.0141114
759.153	0.0142375
759.231	0.0141270
759.309	0.0142140
759.387	0.0140704
759.465	0.0141259
759.543	0.0142831
759.621	0.0140946
759.700	0.0140948
759.778	0.0140043
759.856	0.0140578
759.934	0.0139983
760.012	0.0141290
760.090	0.0141389
760.168	0.0139986
760.246	0.0140561
760.325	0.0140704
760.403	0.0140974
760.481	0.0141302
760.559	0.0141587
760.637	0.0141280
760.715	0.0140869
760.793	0.0142616
760.871	0.0143133
760.950	0.0140745
761.028	0.0140813
761.106	0.0142677
761.184	0.0142630
761.262	0.0142825
761.340	0.0142891
761.418	0.0142645
761.496	0.0141901
761.575	0.0141164
761.653	0.0142347
761.731	0.0142907
761.809	0.0143097
761.887	0.0141979
761.965	0.0141432
762.043	0.0143088
762.121	0.0142848
762.200	0.0143362
762.278	0.0144646
762.356	0.0143216
762.434	0.0142596
762.512	0.0143292
762.590	0.0143143
762.668	0.0142787
762.746	0.0142399
762.825	0.0142410
762.903	0.0141104
762.981	0.0142549
763.059	0.0141493
763.137	0.0142130
763.215	0.0142809
763.293	0.0141507
763.371	0.0140802
763.450	0.0141349
763.528	0.0140948
763.606	0.0141078
763.684	0.0141772
763.762	0.0142683
763.840	0.0140900
763.918	0.0140985
763.996	0.0140872
764.075	0.0141714
764.153	0.0141994
764.231	0.0141292
764.309	0.0142209
764.387	0.0141899
764.465	0.0142390
764.543	0.0142986
764.621	0.0143570
764.700	0.0144058
