05/04/2022	21:11:37	Ver.	4.1	UNKNOWN
Optical Delay	678.996401	Delta X		0.078125	Sweeps	1	Scan Rate	0/0
Coordinates	Axis 1	NaN	Axis 2	NaN	Axis 3	NaN	Axis 4	NaN	Axis 5	NaN	Axis 6	0.000000
TX Power	0.000000	RX Power	0.000000

678.996	0.0143858
679.075	0.0145547
679.153	0.0145800
679.231	0.0144283
679.309	0.0145482
679.387	0.0144909
679.465	0.0143321
679.543	0.0145197
679.621	0.0145955
679.700	0.0146049
679.778	0.0144636
679.856	0.0145642
679.934	0.0145646
680.012	0.0144445
680.090	0.0144425
680.168	0.0145750
680.246	0.0145421
680.325	0.0145219
680.403	0.0145081
680.481	0.0143385
680.559	0.0144603
680.637	0.0144659
680.715	0.0143374
680.793	0.0145330
680.871	0.0143387
680.950	0.0144607
681.028	0.0144026
681.106	0.0144914
681.184	0.0142775
681.262	0.0143766
681.340	0.0144827
681.418	0.0145406
681.496	0.0144057
681.575	0.0142607
681.653	0.0144630
681.731	0.0144881
681.809	0.0143427
681.887	0.0143562
681.965	0.0144643
682.043	0.0145120
682.121	0.0143922
682.200	0.0144424
682.278	0.0143153
682.356	0.0142493
682.434	0.0143866
682.512	0.0143275
682.590	0.0141670
682.668	0.0142262
682.746	0.0142297
682.825	0.0143250
682.903	0.0142755
682.981	0.0142937
683.059	0.0143997
683.137	0.0144241
683.215	0.0144554
683.293	0.0144695
683.371	0.0145369
683.450	0.0145131
683.528	0.0144843
683.606	0.0146192
683.684	0.0146706
683.762	0.0146535
683.840	0.0146723
683.918	0.0146896
683.996	0.0147657
684.075	0.0146997
684.153	0.0146335
684.231	0.0146603
684.309	0.0145879
684.387	0.0145812
684.465	0.0143913
684.543	0.0145055
684.621	0.0144220
684.700	0.0143704
684.778	0.0143323
684.856	0.0143082
684.934	0.0142933
685.012	0.0143121
685.090	0.0141830
685.168	0.0141765
685.246	0.0143391
685.325	0.0142929
685.403	0.0143450
685.481	0.0145537
685.559	0.0145644
685.637	0.0145126
685.715	0.0144319
685.793	0.0144146
685.871	0.0144218
685.950	0.0144682
686.028	0.0146180
686.106	0.0145734
686.184	0.0144287
686.262	0.0144733
686.340	0.0146429
686.418	0.0144576
686.496	0.0144685
686.575	0.0146066
686.653	0.0145108
686.731	0.0144225
686.809	0.0145072
686.887	0.0143376
686.965	0.0143911
687.043	0.0143760
687.121	0.0144581
687.200	0.0142105
687.278	0.0142338
687.356	0.0143348
687.434	0.0144092
687.512	0.0142874
687.590	0.0143255
687.668	0.0142143
687.746	0.0144305
687.825	0.0145016
687.903	0.0145010
687.981	0.0144180
688.059	0.0144218
688.137	0.0143566
688.215	0.0143455
688.293	0.0144614
688.371	0.0144474
688.450	0.0143656
688.528	0.0143651
688.606	0.0143736
688.684	0.0144550
688.762	0.0144016
688.840	0.0143344
688.918	0.0143230
688.996	0.0145255
689.075	0.0145379
689.153	0.0144878
689.231	0.0145628
689.309	0.0145432
689.387	0.0146448
689.465	0.0145827
689.543	0.0146268
689.621	0.0147507
689.700	0.0146345
689.778	0.0146830
689.856	0.0145023
689.934	0.0144628
690.012	0.0144621
690.090	0.0144092
690.168	0.0142838
690.246	0.0144124
690.325	0.0144269
690.403	0.0142618
690.481	0.0142610
690.559	0.0142410
690.637	0.0143926
690.715	0.0144199
690.793	0.0142687
690.871	0.0144993
690.950	0.0143797
691.028	0.0144098
691.106	0.0143648
691.184	0.0145097
691.262	0.0145341
691.340	0.0144441
691.418	0.0145351
691.496	0.0145753
691.575	0.0145443
691.653	0.0144768
691.731	0.0146742
691.809	0.0146233
691.887	0.0146664
691.965	0.0144957
692.043	0.0145763
692.121	0.0146222
692.200	0.0145300
692.278	0.0145715
692.356	0.0144617
692.434	0.0144881
692.512	0.0143409
692.590	0.0144823
692.668	0.0143716
692.746	0.0142847
692.825	0.0143324
692.903	0.0143299
692.981	0.0144466
693.059	0.0143515
693.137	0.0143642
693.215	0.0144615
693.293	0.0144368
693.371	0.0144049
693.450	0.0144527
693.528	0.0144497
693.606	0.0145023
693.684	0.0144548
693.762	0.0145632
693.840	0.0146770
693.918	0.0146117
693.996	0.0143917
694.075	0.0146644
694.153	0.0144282
694.231	0.0144370
694.309	0.0144257
694.387	0.0145274
694.465	0.0144268
694.543	0.0143106
694.621	0.0144248
694.700	0.0143877
694.778	0.0143414
694.856	0.0143922
694.934	0.0143293
695.012	0.0144542
695.090	0.0144796
695.168	0.0144139
695.246	0.0144747
695.325	0.0143217
695.403	0.0144535
695.481	0.0146611
695.559	0.0144709
695.637	0.0145113
695.715	0.0143349
695.793	0.0145587
695.871	0.0147021
695.950	0.0145262
696.028	0.0145358
696.106	0.0146075
696.184	0.0145356
696.262	0.0145847
696.340	0.0145502
696.418	0.0145148
696.496	0.0145471
696.575	0.0146019
696.653	0.0144133
696.731	0.0143288
696.809	0.0143053
696.887	0.0143193
696.965	0.0142184
697.043	0.0144542
697.121	0.0143124
697.200	0.0144234
697.278	0.0144541
697.356	0.0145303
697.434	0.0144363
697.512	0.0143771
697.590	0.0144440
697.668	0.0144202
697.746	0.0144774
697.825	0.0144537
697.903	0.0144189
697.981	0.0143333
698.059	0.0146509
698.137	0.0147110
698.215	0.0149165
698.293	0.0148624
698.371	0.0147452
698.450	0.0146735
698.528	0.0145338
698.606	0.0144178
698.684	0.0143501
698.762	0.0139239
698.840	0.0140456
698.918	0.0140189
698.996	0.0141384
699.075	0.0142764
699.153	0.0145190
699.231	0.0146192
699.309	0.0146438
699.387	0.0146030
699.465	0.0145027
699.543	0.0144955
699.621	0.0144112
699.700	0.0142301
699.778	0.0141190
699.856	0.0141841
699.934	0.0141373
700.012	0.0141201
700.090	0.0142533
700.168	0.0144273
700.246	0.0143666
700.325	0.0143489
700.403	0.0144640
700.481	0.0144877
700.559	0.0144718
700.637	0.0146071
700.715	0.0146433
700.793	0.0146600
700.871	0.0146594
700.950	0.0147035
701.028	0.0146600
701.106	0.0145638
701.184	0.0144314
701.262	0.0145100
701.340	0.0145103
701.418	0.0144164
701.496	0.0144122
701.575	0.0143201
701.653	0.0143421
701.731	0.0141898
701.809	0.0140814
701.887	0.0141939
701.965	0.0140441
702.043	0.0139407
702.121	0.0142939
702.200	0.0145763
702.278	0.0147131
702.356	0.0148701
702.434	0.0149699
702.512	0.0150063
702.590	0.0149943
702.668	0.0147004
702.746	0.0145457
702.825	0.0143114
702.903	0.0142210
702.981	0.0142284
703.059	0.0141925
703.137	0.0140847
703.215	0.0141566
703.293	0.0143957
703.371	0.0143445
703.450	0.0144838
703.528	0.0146259
703.606	0.0148997
703.684	0.0148370
703.762	0.0148840
703.840	0.0148871
703.918	0.0147791
703.996	0.0145421
704.075	0.0143717
704.153	0.0141116
704.231	0.0140120
704.309	0.0139014
704.387	0.0139021
704.465	0.0139525
704.543	0.0142143
704.621	0.0141781
704.700	0.0144015
704.778	0.0147042
704.856	0.0147961
704.934	0.0149548
705.012	0.0150686
705.090	0.0150287
705.168	0.0150702
705.246	0.0148183
705.325	0.0150117
705.403	0.0148621
705.481	0.0147283
705.559	0.0146766
705.637	0.0144640
705.715	0.0142954
705.793	0.0140200
705.871	0.0139442
705.950	0.0140131
706.028	0.0138683
706.106	0.0137640
706.184	0.0139072
706.262	0.0139503
706.340	0.0141882
706.418	0.0144386
706.496	0.0146533
706.575	0.0148218
706.653	0.0150188
706.731	0.0150723
706.809	0.0152017
706.887	0.0150690
706.965	0.0147722
707.043	0.0146317
707.121	0.0142335
707.200	0.0136108
707.278	0.0135811
707.356	0.0132410
707.434	0.0130360
707.512	0.0131132
707.590	0.0132462
707.668	0.0136102
707.746	0.0139965
707.825	0.0143374
707.903	0.0148201
707.981	0.0152202
708.059	0.0156118
708.137	0.0155775
708.215	0.0157693
708.293	0.0156853
708.371	0.0156906
708.450	0.0153906
708.528	0.0152019
708.606	0.0148514
708.684	0.0144633
708.762	0.0141769
708.840	0.0140646
708.918	0.0140035
708.996	0.0136575
709.075	0.0137882
709.153	0.0136865
709.231	0.0139731
709.309	0.0142094
709.387	0.0141489
709.465	0.0144676
709.543	0.0146561
709.621	0.0148596
709.700	0.0150912
709.778	0.0151196
709.856	0.0151533
709.934	0.0151578
710.012	0.0148828
710.090	0.0145968
710.168	0.0142630
710.246	0.0140335
710.325	0.0138302
710.403	0.0135593
710.481	0.0133354
710.559	0.0131804
710.637	0.0133495
710.715	0.0136916
710.793	0.0136758
710.871	0.0140417
710.950	0.0141994
711.028	0.0145123
711.106	0.0146889
711.184	0.0149920
711.262	0.0150960
711.340	0.0151340
711.418	0.0150395
711.496	0.0150124
711.575	0.0150879
711.653	0.0147813
711.731	0.0147131
711.809	0.0143604
711.887	0.0141457
711.965	0.0142268
712.043	0.0142687
712.121	0.0141489
712.200	0.0141039
712.278	0.0142394
712.356	0.0143171
712.434	0.0145840
712.512	0.0146735
712.590	0.0147977
712.668	0.0150130
712.746	0.0149953
712.825	0.0149591
712.903	0.0150056
712.981	0.0150201
713.059	0.0149621
713.137	0.0148796
713.215	0.0147298
713.293	0.0145589
713.371	0.0144299
713.450	0.0141160
713.528	0.0139034
713.606	0.0136266
713.684	0.0133559
713.762	0.0135165
713.840	0.0133119
713.918	0.0133785
713.996	0.0136012
714.075	0.0136989
714.153	0.0137476
714.231	0.0139718
714.309	0.0141465
714.387	0.0142700
714.465	0.0144334
714.543	0.0147691
714.621	0.0150105
714.700	0.0149947
714.778	0.0152063
714.856	0.0153661
714.934	0.0151870
715.012	0.0152782
715.090	0.0152384
715.168	0.0151142
715.246	0.0148265
715.325	0.0147718
715.403	0.0147364
715.481	0.0143430
715.559	0.0140865
715.637	0.0140096
715.715	0.0140862
715.793	0.0140730
715.871	0.0140897
715.950	0.0142166
716.028	0.0142378
716.106	0.0145848
716.184	0.0144987
716.262	0.0146362
716.340	0.0149432
716.418	0.0150222
716.496	0.0149867
716.575	0.0149814
716.653	0.0150317
716.731	0.0149088
716.809	0.0146891
716.887	0.0143742
716.965	0.0143576
717.043	0.0139548
717.121	0.0136117
717.200	0.0135259
717.278	0.0134676
717.356	0.0134711
717.434	0.0136042
717.512	0.0137551
717.590	0.0139512
717.668	0.0141684
717.746	0.0141000
717.825	0.0144369
717.903	0.0144537
717.981	0.0144722
718.059	0.0145504
718.137	0.0145024
718.215	0.0147052
718.293	0.0147581
718.371	0.0147791
718.450	0.0147820
718.528	0.0148309
718.606	0.0147350
718.684	0.0147985
718.762	0.0150201
718.840	0.0148770
718.918	0.0146761
718.996	0.0146198
719.075	0.0146090
719.153	0.0147024
719.231	0.0146255
719.309	0.0145066
719.387	0.0145764
719.465	0.0144839
719.543	0.0145451
719.621	0.0146679
719.700	0.0145698
719.778	0.0144673
719.856	0.0145989
719.934	0.0147927
720.012	0.0147372
720.090	0.0146782
720.168	0.0145752
720.246	0.0145530
720.325	0.0144643
720.403	0.0142569
720.481	0.0141525
720.559	0.0141724
720.637	0.0140353
720.715	0.0138960
720.793	0.0137844
720.871	0.0138354
720.950	0.0140203
721.028	0.0137753
721.106	0.0140095
721.184	0.0142185
721.262	0.0142927
721.340	0.0143377
721.418	0.0142437
721.496	0.0143206
721.575	0.0144566
721.653	0.0143565
721.731	0.0144171
721.809	0.0145383
721.887	0.0145197
721.965	0.0145130
722.043	0.0144389
722.121	0.0145210
722.200	0.0145382
722.278	0.0145117
722.356	0.0146298
722.434	0.0147225
722.512	0.0149696
722.590	0.0150513
722.668	0.0149968
722.746	0.0150749
722.825	0.0152475
722.903	0.0151737
722.981	0.0151193
723.059	0.0149045
723.137	0.0148003
723.215	0.0145474
723.293	0.0145033
723.371	0.0144732
723.450	0.0143335
723.528	0.0142635
723.606	0.0142363
723.684	0.0143470
723.762	0.0142213
723.840	0.0141177
723.918	0.0141791
723.996	0.0143312
724.075	0.0145200
724.153	0.0144629
724.231	0.0144077
724.309	0.0143391
724.387	0.0144237
724.465	0.0142738
724.543	0.0143794
724.621	0.0141856
724.700	0.0142515
724.778	0.0141861
724.856	0.0141077
724.934	0.0141965
725.012	0.0141716
725.090	0.0141218
725.168	0.0140852
725.246	0.0141803
725.325	0.0142345
725.403	0.0143902
725.481	0.0142403
725.559	0.0143632
725.637	0.0142928
725.715	0.0145053
725.793	0.0145548
725.871	0.0146020
725.950	0.0145538
726.028	0.0147323
726.106	0.0147992
726.184	0.0147613
726.262	0.0147813
726.340	0.0146414
726.418	0.0144939
726.496	0.0145059
726.575	0.0144650
726.653	0.0146503
726.731	0.0144426
726.809	0.0145345
726.887	0.0146033
726.965	0.0147035
727.043	0.0146621
727.121	0.0145495
727.200	0.0146821
727.278	0.0145898
727.356	0.0144564
727.434	0.0143990
727.512	0.0143375
727.590	0.0142755
727.668	0.0141428
727.746	0.0142619
727.825	0.0141012
727.903	0.0141861
727.981	0.0142060
728.059	0.0141946
728.137	0.0140735
728.215	0.0141084
728.293	0.0143714
728.371	0.0142313
728.450	0.0143856
728.528	0.0144324
728.606	0.0143935
728.684	0.0144367
728.762	0.0145405
728.840	0.0145312
728.918	0.0146212
728.996	0.0145261
729.075	0.0144476
729.153	0.0144311
729.231	0.0146291
729.309	0.0145103
729.387	0.0146023
729.465	0.0144328
729.543	0.0143880
729.621	0.0147016
729.700	0.0145429
729.778	0.0145786
729.856	0.0145139
729.934	0.0147079
730.012	0.0144804
730.090	0.0145580
730.168	0.0146300
730.246	0.0146062
730.325	0.0143376
730.403	0.0141554
730.481	0.0142124
730.559	0.0140558
730.637	0.0139554
730.715	0.0141216
730.793	0.0140189
730.871	0.0141441
730.950	0.0140595
731.028	0.0142767
731.106	0.0142393
731.184	0.0142778
731.262	0.0143623
731.340	0.0146069
731.418	0.0146058
731.496	0.0145289
731.575	0.0145966
731.653	0.0146093
731.731	0.0145808
731.809	0.0146123
731.887	0.0144815
731.965	0.0145999
732.043	0.0145286
732.121	0.0144075
732.200	0.0144115
732.278	0.0145142
732.356	0.0145528
732.434	0.0145444
732.512	0.0145001
732.590	0.0147845
732.668	0.0146152
732.746	0.0146598
732.825	0.0146066
732.903	0.0146229
732.981	0.0146870
733.059	0.0145735
733.137	0.0143940
733.215	0.0144580
733.293	0.0143152
733.371	0.0144711
733.450	0.0144448
733.528	0.0144034
733.606	0.0143585
733.684	0.0143116
733.762	0.0142649
733.840	0.0143395
733.918	0.0142736
733.996	0.0142437
734.075	0.0142831
734.153	0.0142116
734.231	0.0143310
734.309	0.0143818
734.387	0.0143877
734.465	0.0140865
734.543	0.0141698
734.621	0.0142591
734.700	0.0142451
734.778	0.0140963
734.856	0.0141340
734.934	0.0142300
735.012	0.0144100
735.090	0.0144544
735.168	0.0144626
735.246	0.0145886
735.325	0.0144833
735.403	0.0145955
735.481	0.0146416
735.559	0.0145726
735.637	0.0148650
735.715	0.0149003
735.793	0.0147815
735.871	0.0148711
735.950	0.0148786
736.028	0.0148419
736.106	0.0148633
736.184	0.0148167
736.262	0.0146710
736.340	0.0146177
736.418	0.0146172
736.496	0.0148042
736.575	0.0148006
736.653	0.0146117
736.731	0.0144407
736.809	0.0144481
736.887	0.0145032
736.965	0.0144822
737.043	0.0143816
737.121	0.0142786
737.200	0.0143452
737.278	0.0143040
737.356	0.0142556
737.434	0.0142454
737.512	0.0141950
737.590	0.0143329
737.668	0.0143615
737.746	0.0143926
737.825	0.0142528
737.903	0.0142484
737.981	0.0140976
738.059	0.0141119
738.137	0.0141904
738.215	0.0140766
738.293	0.0141660
738.371	0.0139377
738.450	0.0140592
738.528	0.0140479
738.606	0.0142067
738.684	0.0142416
738.762	0.0144320
738.840	0.0144810
738.918	0.0145722
738.996	0.0146532
739.075	0.0147766
739.153	0.0147419
739.231	0.0149153
739.309	0.0149296
739.387	0.0149387
739.465	0.0148407
739.543	0.0149055
739.621	0.0148638
739.700	0.0147835
739.778	0.0149390
739.856	0.0148101
739.934	0.0147137
740.012	0.0144295
740.090	0.0147247
740.168	0.0147478
740.246	0.0146571
740.325	0.0146308
740.403	0.0145544
740.481	0.0145913
740.559	0.0148494
740.637	0.0147278
740.715	0.0145494
740.793	0.0146253
740.871	0.0145753
740.950	0.0145221
741.028	0.0144550
741.106	0.0145061
741.184	0.0145153
741.262	0.0143911
741.340	0.0143622
741.418	0.0140800
741.496	0.0141281
741.575	0.0141296
741.653	0.0141557
741.731	0.0139628
741.809	0.0141764
741.887	0.0143125
741.965	0.0142754
742.043	0.0141463
742.121	0.0140997
742.200	0.0141817
742.278	0.0143291
742.356	0.0143856
742.434	0.0143065
742.512	0.0145081
742.590	0.0143812
742.668	0.0144992
742.746	0.0143710
742.825	0.0143344
742.903	0.0143634
742.981	0.0145257
743.059	0.0145289
743.137	0.0145843
743.215	0.0147965
743.293	0.0146742
743.371	0.0147031
743.450	0.0149190
743.528	0.0148727
743.606	0.0148082
743.684	0.0149019
743.762	0.0148135
743.840	0.0147478
743.918	0.0147519
743.996	0.0147208
744.075	0.0145280
744.153	0.0145693
744.231	0.0144182
744.309	0.0143496
744.387	0.0143958
744.465	0.0143349
744.543	0.0142739
744.621	0.0144152
744.700	0.0144829
744.778	0.0144495
744.856	0.0144213
744.934	0.0144740
745.012	0.0144334
745.090	0.0145021
745.168	0.0144849
745.246	0.0145083
745.325	0.0144064
745.403	0.0143085
745.481	0.0142916
745.559	0.0142382
745.637	0.0144313
745.715	0.0143591
745.793	0.0141673
745.871	0.0141271
745.950	0.0142849
746.028	0.0142791
746.106	0.0142265
746.184	0.0143474
746.262	0.0144264
746.340	0.0143970
746.418	0.0143972
746.496	0.0145464
746.575	0.0146388
746.653	0.0145779
746.731	0.0146832
746.809	0.0146936
746.887	0.0146378
746.965	0.0146075
747.043	0.0147968
747.121	0.0146953
747.200	0.0146185
747.278	0.0146737
747.356	0.0145916
747.434	0.0145829
747.512	0.0145572
747.590	0.0144909
747.668	0.0144878
747.746	0.0144784
747.825	0.0144810
747.903	0.0145480
747.981	0.0143268
748.059	0.0143775
748.137	0.0144019
748.215	0.0142968
748.293	0.0142651
748.371	0.0142881
748.450	0.0142540
748.528	0.0143348
748.606	0.0141735
748.684	0.0142172
748.762	0.0142863
748.840	0.0143928
748.918	0.0141940
748.996	0.0142019
749.075	0.0143333
749.153	0.0143086
749.231	0.0144422
749.309	0.0144750
749.387	0.0143963
749.465	0.0145012
749.543	0.0146548
749.621	0.0146490
749.700	0.0146538
749.778	0.0146713
749.856	0.0145924
749.934	0.0145855
750.012	0.0145284
750.090	0.0146069
750.168	0.0145129
750.246	0.0145646
750.325	0.0144146
750.403	0.0145185
750.481	0.0142616
750.559	0.0144120
750.637	0.0144194
750.715	0.0143524
750.793	0.0144321
750.871	0.0143259
750.950	0.0144276
751.028	0.0144992
751.106	0.0143846
751.184	0.0145047
751.262	0.0146833
751.340	0.0143958
751.418	0.0144326
751.496	0.0144968
751.575	0.0144491
751.653	0.0144922
751.731	0.0145373
751.809	0.0143472
751.887	0.0144137
751.965	0.0143039
752.043	0.0143549
752.121	0.0142977
752.200	0.0142395
752.278	0.0143380
752.356	0.0144086
752.434	0.0141795
752.512	0.0143497
752.590	0.0144440
752.668	0.0143984
752.746	0.0144595
752.825	0.0144568
752.903	0.0145263
752.981	0.0144812
753.059	0.0144660
753.137	0.0146550
753.215	0.0145742
753.293	0.0146355
753.371	0.0145796
753.450	0.0145233
753.528	0.0145328
753.606	0.0146119
753.684	0.0144712
753.762	0.0145060
753.840	0.0146006
753.918	0.0144841
753.996	0.0145358
754.075	0.0146277
754.153	0.0145384
754.231	0.0145020
754.309	0.0144551
754.387	0.0143167
754.465	0.0144277
754.543	0.0144578
754.621	0.0144267
754.700	0.0145148
754.778	0.0142537
754.856	0.0142772
754.934	0.0144206
755.012	0.0143437
755.090	0.0143520
755.168	0.0144685
755.246	0.0143910
755.325	0.0142963
755.403	0.0143969
755.481	0.0143060
755.559	0.0143821
755.637	0.0143082
755.715	0.0143648
755.793	0.0144186
755.871	0.0144081
755.950	0.0144361
756.028	0.0144863
756.106	0.0144998
756.184	0.0145586
756.262	0.0143001
756.340	0.0143818
756.418	0.0142759
756.496	0.0142974
756.575	0.0143748
756.653	0.0142681
756.731	0.0145459
756.809	0.0144479
756.887	0.0145171
756.965	0.0148092
757.043	0.0147324
757.121	0.0146092
757.200	0.0146966
757.278	0.0146990
757.356	0.0146940
757.434	0.0146815
757.512	0.0147083
757.590	0.0147111
757.668	0.0147292
757.746	0.0144792
757.825	0.0144745
757.903	0.0146168
757.981	0.0146195
758.059	0.0145279
758.137	0.0145545
758.215	0.0145212
758.293	0.0144715
758.371	0.0144877
758.450	0.0144693
758.528	0.0144408
758.606	0.0144533
758.684	0.0144637
758.762	0.0145530
758.840	0.0144176
758.918	0.0144930
758.996	0.0145016
759.075	0.0143827
759.153	0.0145149
759.231	0.0145226
759.309	0.0144432
759.387	0.0144339
759.465	0.0143974
759.543	0.0143264
759.621	0.0143237
759.700	0.0142308
759.778	0.0142532
759.856	0.0142732
759.934	0.0143033
760.012	0.0143291
760.090	0.0144131
760.168	0.0144762
760.246	0.0143668
760.325	0.0144738
760.403	0.0143258
760.481	0.0145699
760.559	0.0144645
760.637	0.0144304
760.715	0.0145145
760.793	0.0145505
760.871	0.0146448
760.950	0.0145457
761.028	0.0145667
761.106	0.0144968
761.184	0.0145461
761.262	0.0145904
761.340	0.0145288
761.418	0.0145457
761.496	0.0144596
761.575	0.0145982
761.653	0.0144830
761.731	0.0145853
761.809	0.0146133
761.887	0.0145098
761.965	0.0145803
762.043	0.0145026
762.121	0.0145125
762.200	0.0145364
762.278	0.0145308
762.356	0.0144573
762.434	0.0145241
762.512	0.0144335
762.590	0.0144749
762.668	0.0145483
762.746	0.0144206
762.825	0.0144122
762.903	0.0144747
762.981	0.0144495
763.059	0.0144563
763.137	0.0143571
763.215	0.0141473
763.293	0.0142619
763.371	0.0144539
763.450	0.0143771
763.528	0.0143928
763.606	0.0145092
763.684	0.0143162
763.762	0.0144305
763.840	0.0145432
763.918	0.0144165
763.996	0.0144886
764.075	0.0144711
764.153	0.0146147
764.231	0.0144865
764.309	0.0146581
764.387	0.0144897
764.465	0.0145731
764.543	0.0145580
764.621	0.0144790
764.700	0.0144662
