05/04/2022	21:11:52	Ver.	4.1	UNKNOWN
Optical Delay	678.996401	Delta X		0.078125	Sweeps	1	Scan Rate	0/0
Coordinates	Axis 1	NaN	Axis 2	NaN	Axis 3	NaN	Axis 4	NaN	Axis 5	NaN	Axis 6	0.000000
TX Power	0.000000	RX Power	0.000000

678.996	0.0144600
679.075	0.0142894
679.153	0.0143350
679.231	0.0145607
679.309	0.0144411
679.387	0.0143604
679.465	0.0142934
679.543	0.0142676
679.621	0.0143241
679.700	0.0143401
679.778	0.0142694
679.856	0.0144424
679.934	0.0145188
680.012	0.0145055
680.090	0.0144241
680.168	0.0144637
680.246	0.0143497
680.325	0.0144498
680.403	0.0143182
680.481	0.0144658
680.559	0.0144434
680.637	0.0144753
680.715	0.0144992
680.793	0.0145802
680.871	0.0144704
680.950	0.0142834
681.028	0.0143171
681.106	0.0144513
681.184	0.0143681
681.262	0.0142857
681.340	0.0142113
681.418	0.0144894
681.496	0.0143167
681.575	0.0144337
681.653	0.0143828
681.731	0.0142556
681.809	0.0142661
681.887	0.0143774
681.965	0.0144661
682.043	0.0143751
682.121	0.0144539
682.200	0.0145216
682.278	0.0145499
682.356	0.0144514
682.434	0.0146554
682.512	0.0146549
682.590	0.0146478
682.668	0.0144991
682.746	0.0146229
682.825	0.0145544
682.903	0.0146913
682.981	0.0146250
683.059	0.0145462
683.137	0.0145187
683.215	0.0144180
683.293	0.0143195
683.371	0.0144121
683.450	0.0144978
683.528	0.0143660
683.606	0.0144047
683.684	0.0141808
683.762	0.0142483
683.840	0.0143350
683.918	0.0143192
683.996	0.0143011
684.075	0.0143460
684.153	0.0142305
684.231	0.0143407
684.309	0.0144299
684.387	0.0143387
684.465	0.0144337
684.543	0.0144524
684.621	0.0146623
684.700	0.0146215
684.778	0.0145448
684.856	0.0145290
684.934	0.0145786
685.012	0.0145633
685.090	0.0145929
685.168	0.0144553
685.246	0.0146401
685.325	0.0146411
685.403	0.0145518
685.481	0.0144724
685.559	0.0144286
685.637	0.0145398
685.715	0.0144092
685.793	0.0143537
685.871	0.0143214
685.950	0.0143600
686.028	0.0142417
686.106	0.0143031
686.184	0.0142879
686.262	0.0144002
686.340	0.0143078
686.418	0.0142474
686.496	0.0142720
686.575	0.0143516
686.653	0.0144393
686.731	0.0144201
686.809	0.0144550
686.887	0.0144293
686.965	0.0144082
687.043	0.0145539
687.121	0.0143964
687.200	0.0143553
687.278	0.0143347
687.356	0.0144547
687.434	0.0143652
687.512	0.0144489
687.590	0.0143697
687.668	0.0144376
687.746	0.0143147
687.825	0.0145083
687.903	0.0145924
687.981	0.0144340
688.059	0.0145432
688.137	0.0146743
688.215	0.0145795
688.293	0.0146298
688.371	0.0146369
688.450	0.0146349
688.528	0.0147052
688.606	0.0145474
688.684	0.0144688
688.762	0.0146146
688.840	0.0144467
688.918	0.0143297
688.996	0.0144925
689.075	0.0144444
689.153	0.0145217
689.231	0.0142819
689.309	0.0143711
689.387	0.0142439
689.465	0.0143231
689.543	0.0142774
689.621	0.0143633
689.700	0.0143906
689.778	0.0142902
689.856	0.0144724
689.934	0.0144482
690.012	0.0144993
690.090	0.0144725
690.168	0.0145898
690.246	0.0146818
690.325	0.0146970
690.403	0.0144873
690.481	0.0145096
690.559	0.0145320
690.637	0.0145568
690.715	0.0146113
690.793	0.0145213
690.871	0.0145084
690.950	0.0145670
691.028	0.0144949
691.106	0.0143806
691.184	0.0144163
691.262	0.0144028
691.340	0.0143314
691.418	0.0143105
691.496	0.0145144
691.575	0.0142905
691.653	0.0143501
691.731	0.0143195
691.809	0.0143871
691.887	0.0143407
691.965	0.0143405
692.043	0.0145722
692.121	0.0144186
692.200	0.0144412
692.278	0.0144989
692.356	0.0143503
692.434	0.0145228
692.512	0.0144672
692.590	0.0145723
692.668	0.0145399
692.746	0.0144369
692.825	0.0145265
692.903	0.0144704
692.981	0.0144540
693.059	0.0145132
693.137	0.0143871
693.215	0.0143002
693.293	0.0144555
693.371	0.0145527
693.450	0.0143690
693.528	0.0143941
693.606	0.0143158
693.684	0.0143343
693.762	0.0144632
693.840	0.0144270
693.918	0.0145004
693.996	0.0144971
694.075	0.0143755
694.153	0.0144391
694.231	0.0144489
694.309	0.0145651
694.387	0.0145573
694.465	0.0144277
694.543	0.0143507
694.621	0.0145587
694.700	0.0145657
694.778	0.0145759
694.856	0.0144470
694.934	0.0144676
695.012	0.0144556
695.090	0.0144324
695.168	0.0143452
695.246	0.0144633
695.325	0.0144947
695.403	0.0143669
695.481	0.0144804
695.559	0.0143045
695.637	0.0144757
695.715	0.0144460
695.793	0.0144897
695.871	0.0144365
695.950	0.0143284
696.028	0.0144755
696.106	0.0143539
696.184	0.0144439
696.262	0.0143526
696.340	0.0143246
696.418	0.0144563
696.496	0.0145132
696.575	0.0145776
696.653	0.0145500
696.731	0.0145010
696.809	0.0145657
696.887	0.0146241
696.965	0.0147235
697.043	0.0145602
697.121	0.0144920
697.200	0.0144913
697.278	0.0144374
697.356	0.0144250
697.434	0.0143684
697.512	0.0145245
697.590	0.0145607
697.668	0.0146058
697.746	0.0146247
697.825	0.0147041
697.903	0.0147789
697.981	0.0146355
698.059	0.0143668
698.137	0.0142368
698.215	0.0142262
698.293	0.0140358
698.371	0.0140100
698.450	0.0139871
698.528	0.0142096
698.606	0.0142235
698.684	0.0144249
698.762	0.0147063
698.840	0.0146844
698.918	0.0146168
698.996	0.0146159
699.075	0.0146397
699.153	0.0144865
699.231	0.0144023
699.309	0.0143649
699.387	0.0143512
699.465	0.0143808
699.543	0.0144921
699.621	0.0143587
699.700	0.0144728
699.778	0.0144605
699.856	0.0144582
699.934	0.0144834
700.012	0.0143953
700.090	0.0144655
700.168	0.0144971
700.246	0.0145340
700.325	0.0144688
700.403	0.0145415
700.481	0.0145846
700.559	0.0145065
700.637	0.0144815
700.715	0.0146039
700.793	0.0145899
700.871	0.0146050
700.950	0.0145190
701.028	0.0143600
701.106	0.0142696
701.184	0.0143620
701.262	0.0144095
701.340	0.0140753
701.418	0.0140281
701.496	0.0141814
701.575	0.0143568
701.653	0.0143033
701.731	0.0144710
701.809	0.0145792
701.887	0.0147975
701.965	0.0148956
702.043	0.0148260
702.121	0.0150828
702.200	0.0150389
702.278	0.0146105
702.356	0.0145514
702.434	0.0143599
702.512	0.0142100
702.590	0.0141828
702.668	0.0140327
702.746	0.0139452
702.825	0.0139189
702.903	0.0140895
702.981	0.0143292
703.059	0.0143229
703.137	0.0144790
703.215	0.0147803
703.293	0.0149108
703.371	0.0148932
703.450	0.0150368
703.528	0.0149081
703.606	0.0148108
703.684	0.0146551
703.762	0.0146120
703.840	0.0143011
703.918	0.0141174
703.996	0.0141570
704.075	0.0140727
704.153	0.0138302
704.231	0.0140737
704.309	0.0140921
704.387	0.0142226
704.465	0.0144791
704.543	0.0145898
704.621	0.0146836
704.700	0.0148283
704.778	0.0148549
704.856	0.0149422
704.934	0.0149261
705.012	0.0149284
705.090	0.0147340
705.168	0.0147113
705.246	0.0145387
705.325	0.0144512
705.403	0.0142359
705.481	0.0142152
705.559	0.0140472
705.637	0.0139580
705.715	0.0137614
705.793	0.0137774
705.871	0.0137957
705.950	0.0138851
706.028	0.0140910
706.106	0.0141370
706.184	0.0145395
706.262	0.0148077
706.340	0.0151278
706.418	0.0153082
706.496	0.0152279
706.575	0.0151089
706.653	0.0149460
706.731	0.0145554
706.809	0.0141769
706.887	0.0140439
706.965	0.0136044
707.043	0.0134754
707.121	0.0132523
707.200	0.0132888
707.278	0.0134467
707.356	0.0135793
707.434	0.0138837
707.512	0.0142260
707.590	0.0147004
707.668	0.0149471
707.746	0.0153545
707.825	0.0154501
707.903	0.0155634
707.981	0.0155637
708.059	0.0155968
708.137	0.0153620
708.215	0.0151723
708.293	0.0150349
708.371	0.0146818
708.450	0.0144317
708.528	0.0141611
708.606	0.0138663
708.684	0.0138445
708.762	0.0138988
708.840	0.0137289
708.918	0.0139275
708.996	0.0138745
709.075	0.0141470
709.153	0.0143970
709.231	0.0144601
709.309	0.0146472
709.387	0.0148692
709.465	0.0148711
709.543	0.0148538
709.621	0.0148411
709.700	0.0148174
709.778	0.0146522
709.856	0.0143139
709.934	0.0141914
710.012	0.0139611
710.090	0.0139285
710.168	0.0136316
710.246	0.0136783
710.325	0.0137008
710.403	0.0138749
710.481	0.0138980
710.559	0.0140127
710.637	0.0142619
710.715	0.0144515
710.793	0.0148711
710.871	0.0149123
710.950	0.0149480
711.028	0.0150961
711.106	0.0150083
711.184	0.0149357
711.262	0.0149706
711.340	0.0147066
711.418	0.0146315
711.496	0.0147799
711.575	0.0144296
711.653	0.0143756
711.731	0.0145107
711.809	0.0144377
711.887	0.0145467
711.965	0.0145475
712.043	0.0145122
712.121	0.0146944
712.200	0.0147080
712.278	0.0146966
712.356	0.0147167
712.434	0.0146626
712.512	0.0146848
712.590	0.0144843
712.668	0.0145303
712.746	0.0144689
712.825	0.0143842
712.903	0.0143565
712.981	0.0142061
713.059	0.0140680
713.137	0.0139300
713.215	0.0137647
713.293	0.0137681
713.371	0.0136888
713.450	0.0136675
713.528	0.0139169
713.606	0.0138089
713.684	0.0139249
713.762	0.0140495
713.840	0.0141008
713.918	0.0142432
713.996	0.0141942
714.075	0.0142649
714.153	0.0145330
714.231	0.0146399
714.309	0.0149570
714.387	0.0152129
714.465	0.0152554
714.543	0.0154175
714.621	0.0154705
714.700	0.0154300
714.778	0.0152435
714.856	0.0152799
714.934	0.0151759
715.012	0.0150147
715.090	0.0146423
715.168	0.0146719
715.246	0.0143889
715.325	0.0141983
715.403	0.0141853
715.481	0.0139983
715.559	0.0139622
715.637	0.0140591
715.715	0.0141351
715.793	0.0140574
715.871	0.0141979
715.950	0.0142446
716.028	0.0145650
716.106	0.0147041
716.184	0.0148506
716.262	0.0148637
716.340	0.0149173
716.418	0.0147988
716.496	0.0148282
716.575	0.0146015
716.653	0.0145114
716.731	0.0142728
716.809	0.0141557
716.887	0.0140687
716.965	0.0139576
717.043	0.0139719
717.121	0.0140759
717.200	0.0139400
717.278	0.0140224
717.356	0.0141022
717.434	0.0141720
717.512	0.0143967
717.590	0.0143125
717.668	0.0142567
717.746	0.0143510
717.825	0.0143864
717.903	0.0145572
717.981	0.0145973
718.059	0.0145469
718.137	0.0146877
718.215	0.0148972
718.293	0.0149208
718.371	0.0150494
718.450	0.0150477
718.528	0.0149377
718.606	0.0151400
718.684	0.0149823
718.762	0.0150402
718.840	0.0148714
718.918	0.0147855
718.996	0.0147671
719.075	0.0144986
719.153	0.0143052
719.231	0.0143430
719.309	0.0143578
719.387	0.0143852
719.465	0.0143464
719.543	0.0143107
719.621	0.0143359
719.700	0.0144336
719.778	0.0145109
719.856	0.0145169
719.934	0.0144979
720.012	0.0143552
720.090	0.0143267
720.168	0.0142921
720.246	0.0141669
720.325	0.0143464
720.403	0.0142680
720.481	0.0141513
720.559	0.0141862
720.637	0.0141906
720.715	0.0141913
720.793	0.0141862
720.871	0.0140043
720.950	0.0140855
721.028	0.0141262
721.106	0.0142782
721.184	0.0142537
721.262	0.0142361
721.340	0.0144518
721.418	0.0144751
721.496	0.0144862
721.575	0.0146801
721.653	0.0146341
721.731	0.0145682
721.809	0.0147247
721.887	0.0147080
721.965	0.0149787
722.043	0.0148936
722.121	0.0149677
722.200	0.0150696
722.278	0.0150725
722.356	0.0150516
722.434	0.0152126
722.512	0.0150226
722.590	0.0149068
722.668	0.0147860
722.746	0.0146309
722.825	0.0144636
722.903	0.0144612
722.981	0.0142438
723.059	0.0142461
723.137	0.0140352
723.215	0.0140984
723.293	0.0140802
723.371	0.0140227
723.450	0.0140713
723.528	0.0140713
723.606	0.0141238
723.684	0.0141277
723.762	0.0141280
723.840	0.0143493
723.918	0.0144173
723.996	0.0143190
724.075	0.0145442
724.153	0.0145407
724.231	0.0144286
724.309	0.0142163
724.387	0.0143011
724.465	0.0142717
724.543	0.0144418
724.621	0.0142913
724.700	0.0144394
724.778	0.0144382
724.856	0.0143463
724.934	0.0144070
725.012	0.0145615
725.090	0.0144341
725.168	0.0144544
725.246	0.0145967
725.325	0.0144255
725.403	0.0144894
725.481	0.0145303
725.559	0.0144926
725.637	0.0144111
725.715	0.0144539
725.793	0.0145818
725.871	0.0144736
725.950	0.0143748
726.028	0.0143200
726.106	0.0144305
726.184	0.0146782
726.262	0.0143999
726.340	0.0146302
726.418	0.0146449
726.496	0.0144756
726.575	0.0146941
726.653	0.0148252
726.731	0.0147656
726.809	0.0146678
726.887	0.0147612
726.965	0.0147274
727.043	0.0145524
727.121	0.0143097
727.200	0.0143462
727.278	0.0143613
727.356	0.0142039
727.434	0.0141795
727.512	0.0141690
727.590	0.0142194
727.668	0.0141521
727.746	0.0141744
727.825	0.0140809
727.903	0.0141032
727.981	0.0141542
728.059	0.0141518
728.137	0.0143378
728.215	0.0144389
728.293	0.0144651
728.371	0.0144870
728.450	0.0146361
728.528	0.0146407
728.606	0.0147075
728.684	0.0147880
728.762	0.0147455
728.840	0.0147205
728.918	0.0145571
728.996	0.0145524
729.075	0.0146552
729.153	0.0146380
729.231	0.0144546
729.309	0.0144460
729.387	0.0146731
729.465	0.0145457
729.543	0.0146292
729.621	0.0145152
729.700	0.0146513
729.778	0.0145502
729.856	0.0144101
729.934	0.0141750
730.012	0.0142036
730.090	0.0143237
730.168	0.0141237
730.246	0.0139865
730.325	0.0138827
730.403	0.0141189
730.481	0.0140621
730.559	0.0140392
730.637	0.0141495
730.715	0.0142851
730.793	0.0143922
730.871	0.0146075
730.950	0.0146825
731.028	0.0146967
731.106	0.0146948
731.184	0.0147552
731.262	0.0146593
731.340	0.0146969
731.418	0.0145979
731.496	0.0145940
731.575	0.0145625
731.653	0.0144347
731.731	0.0143797
731.809	0.0144171
731.887	0.0144477
731.965	0.0144702
732.043	0.0144379
732.121	0.0144741
732.200	0.0146069
732.278	0.0145737
732.356	0.0146561
732.434	0.0145888
732.512	0.0146438
732.590	0.0147359
732.668	0.0148009
732.746	0.0146761
732.825	0.0144910
732.903	0.0143456
732.981	0.0143995
733.059	0.0144423
733.137	0.0142877
733.215	0.0142730
733.293	0.0143097
733.371	0.0143080
733.450	0.0142850
733.528	0.0143235
733.606	0.0143044
733.684	0.0143492
733.762	0.0143320
733.840	0.0143331
733.918	0.0143985
733.996	0.0142863
734.075	0.0143801
734.153	0.0142722
734.231	0.0143157
734.309	0.0143465
734.387	0.0142308
734.465	0.0142758
734.543	0.0142879
734.621	0.0142668
734.700	0.0143244
734.778	0.0143488
734.856	0.0143320
734.934	0.0144067
735.012	0.0143824
735.090	0.0145223
735.168	0.0147004
735.246	0.0147216
735.325	0.0146101
735.403	0.0147747
735.481	0.0147389
735.559	0.0148820
735.637	0.0147928
735.715	0.0147900
735.793	0.0147714
735.871	0.0147395
735.950	0.0147368
736.028	0.0146357
736.106	0.0144936
736.184	0.0146314
736.262	0.0145948
736.340	0.0145831
736.418	0.0145048
736.496	0.0144358
736.575	0.0144288
736.653	0.0143771
736.731	0.0142920
736.809	0.0144603
736.887	0.0144038
736.965	0.0144707
737.043	0.0142998
737.121	0.0143176
737.200	0.0144534
737.278	0.0144263
737.356	0.0143618
737.434	0.0143629
737.512	0.0142889
737.590	0.0142438
737.668	0.0141958
737.746	0.0141512
737.825	0.0140128
737.903	0.0140559
737.981	0.0139640
738.059	0.0140348
738.137	0.0141185
738.215	0.0143133
738.293	0.0143350
738.371	0.0144380
738.450	0.0142731
738.528	0.0145387
738.606	0.0147454
738.684	0.0147981
738.762	0.0148397
738.840	0.0149348
738.918	0.0151699
738.996	0.0149477
739.075	0.0150856
739.153	0.0150274
739.231	0.0149342
739.309	0.0150120
739.387	0.0148663
739.465	0.0147871
739.543	0.0148792
739.621	0.0145947
739.700	0.0145419
739.778	0.0145014
739.856	0.0143864
739.934	0.0145165
740.012	0.0144042
740.090	0.0144681
740.168	0.0144887
740.246	0.0144530
740.325	0.0146526
740.403	0.0147613
740.481	0.0147149
740.559	0.0145759
740.637	0.0145934
740.715	0.0144839
740.793	0.0143639
740.871	0.0143908
740.950	0.0144454
741.028	0.0143450
741.106	0.0142617
741.184	0.0142117
741.262	0.0142068
741.340	0.0141857
741.418	0.0141550
741.496	0.0142828
741.575	0.0140574
741.653	0.0141064
741.731	0.0142366
741.809	0.0143481
741.887	0.0142772
741.965	0.0141840
742.043	0.0142506
742.121	0.0143311
742.200	0.0143374
742.278	0.0142336
742.356	0.0142607
742.434	0.0142643
742.512	0.0145248
742.590	0.0144949
742.668	0.0143831
742.746	0.0145050
742.825	0.0146304
742.903	0.0146439
742.981	0.0147435
743.059	0.0149004
743.137	0.0148643
743.215	0.0149001
743.293	0.0148991
743.371	0.0148794
743.450	0.0147883
743.528	0.0148394
743.606	0.0146345
743.684	0.0145969
743.762	0.0145698
743.840	0.0144189
743.918	0.0143663
743.996	0.0143806
744.075	0.0142885
744.153	0.0142571
744.231	0.0142408
744.309	0.0142298
744.387	0.0142829
744.465	0.0143748
744.543	0.0143795
744.621	0.0144589
744.700	0.0144373
744.778	0.0145148
744.856	0.0144091
744.934	0.0144615
745.012	0.0143640
745.090	0.0144217
745.168	0.0144213
745.246	0.0143988
745.325	0.0143867
745.403	0.0141924
745.481	0.0141855
745.559	0.0142265
745.637	0.0142666
745.715	0.0142782
745.793	0.0143067
745.871	0.0143776
745.950	0.0142851
746.028	0.0144403
746.106	0.0143313
746.184	0.0144266
746.262	0.0145020
746.340	0.0146407
746.418	0.0145393
746.496	0.0145526
746.575	0.0148217
746.653	0.0146307
746.731	0.0146076
746.809	0.0147398
746.887	0.0145878
746.965	0.0144215
747.043	0.0144147
747.121	0.0145594
747.200	0.0145958
747.278	0.0143291
747.356	0.0142831
747.434	0.0143008
747.512	0.0144342
747.590	0.0143832
747.668	0.0142394
747.746	0.0143812
747.825	0.0143399
747.903	0.0144121
747.981	0.0143379
748.059	0.0143707
748.137	0.0143316
748.215	0.0142622
748.293	0.0142122
748.371	0.0142453
748.450	0.0143270
748.528	0.0144547
748.606	0.0144211
748.684	0.0143408
748.762	0.0143211
748.840	0.0144650
748.918	0.0144045
748.996	0.0144563
749.075	0.0144103
749.153	0.0144701
749.231	0.0144678
749.309	0.0144374
749.387	0.0145572
749.465	0.0146142
749.543	0.0146167
749.621	0.0144200
749.700	0.0144700
749.778	0.0145447
749.856	0.0144360
749.934	0.0142447
750.012	0.0144724
750.090	0.0143757
750.168	0.0143597
750.246	0.0143620
750.325	0.0142381
750.403	0.0143228
750.481	0.0142647
750.559	0.0143721
750.637	0.0144773
750.715	0.0142132
750.793	0.0144405
750.871	0.0144692
750.950	0.0144702
751.028	0.0144941
751.106	0.0145249
751.184	0.0146159
751.262	0.0145890
751.340	0.0145646
751.418	0.0145920
751.496	0.0144199
751.575	0.0144039
751.653	0.0143903
751.731	0.0143188
751.809	0.0142943
751.887	0.0143179
751.965	0.0144038
752.043	0.0142844
752.121	0.0142530
752.200	0.0143115
752.278	0.0143025
752.356	0.0143644
752.434	0.0143781
752.512	0.0144125
752.590	0.0145634
752.668	0.0144346
752.746	0.0146307
752.825	0.0145912
752.903	0.0146706
752.981	0.0146058
753.059	0.0145058
753.137	0.0146264
753.215	0.0146513
753.293	0.0145531
753.371	0.0145667
753.450	0.0147349
753.528	0.0145609
753.606	0.0144183
753.684	0.0147105
753.762	0.0145998
753.840	0.0145499
753.918	0.0145924
753.996	0.0145571
754.075	0.0145022
754.153	0.0144710
754.231	0.0143524
754.309	0.0144489
754.387	0.0145688
754.465	0.0143922
754.543	0.0144299
754.621	0.0143191
754.700	0.0143438
754.778	0.0144196
754.856	0.0143322
754.934	0.0143865
755.012	0.0144079
755.090	0.0143486
755.168	0.0144450
755.246	0.0144410
755.325	0.0144586
755.403	0.0145991
755.481	0.0144230
755.559	0.0145316
755.637	0.0145194
755.715	0.0144791
755.793	0.0144450
755.871	0.0143996
755.950	0.0143217
756.028	0.0143111
756.106	0.0143610
756.184	0.0144546
756.262	0.0144482
756.340	0.0145232
756.418	0.0145207
756.496	0.0144499
756.575	0.0145620
756.653	0.0146164
756.731	0.0144638
756.809	0.0145854
756.887	0.0146513
756.965	0.0146767
757.043	0.0146766
757.121	0.0147212
757.200	0.0146807
757.278	0.0146638
757.356	0.0147009
757.434	0.0145699
757.512	0.0146119
757.590	0.0147332
757.668	0.0145329
757.746	0.0145030
757.825	0.0145181
757.903	0.0144520
757.981	0.0144849
758.059	0.0145116
758.137	0.0146038
758.215	0.0144444
758.293	0.0144703
758.371	0.0143100
758.450	0.0142568
758.528	0.0143936
758.606	0.0144157
758.684	0.0144486
758.762	0.0144098
758.840	0.0143912
758.918	0.0144518
758.996	0.0144096
759.075	0.0144447
759.153	0.0145277
759.231	0.0144563
759.309	0.0144584
759.387	0.0143782
759.465	0.0144394
759.543	0.0142892
759.621	0.0144681
759.700	0.0144383
759.778	0.0143758
759.856	0.0145264
759.934	0.0143359
760.012	0.0143544
760.090	0.0145181
760.168	0.0143449
760.246	0.0144680
760.325	0.0144986
760.403	0.0144383
760.481	0.0145435
760.559	0.0144954
760.637	0.0145719
760.715	0.0144568
760.793	0.0146015
760.871	0.0145644
760.950	0.0144775
761.028	0.0146114
761.106	0.0145484
761.184	0.0142796
761.262	0.0143510
761.340	0.0145431
761.418	0.0145330
761.496	0.0144038
761.575	0.0144065
761.653	0.0143465
761.731	0.0143731
761.809	0.0144749
761.887	0.0142978
761.965	0.0144243
762.043	0.0144155
762.121	0.0145235
762.200	0.0145061
762.278	0.0143419
762.356	0.0143443
762.434	0.0142172
762.512	0.0144334
762.590	0.0143285
762.668	0.0143595
762.746	0.0142700
762.825	0.0141950
762.903	0.0142770
762.981	0.0143355
763.059	0.0143324
763.137	0.0143536
763.215	0.0143678
763.293	0.0145872
763.371	0.0144411
763.450	0.0143905
763.528	0.0144479
763.606	0.0144455
763.684	0.0144185
763.762	0.0144678
763.840	0.0143298
763.918	0.0143821
763.996	0.0143966
764.075	0.0145790
764.153	0.0146839
764.231	0.0145081
764.309	0.0143416
764.387	0.0145516
764.465	0.0145685
764.543	0.0145530
764.621	0.0146413
764.700	0.0146049
