05/04/2022	21:12:12	Ver.	4.1	UNKNOWN
Optical Delay	678.996401	Delta X		0.078125	Sweeps	1	Scan Rate	0/0
Coordinates	Axis 1	NaN	Axis 2	NaN	Axis 3	NaN	Axis 4	NaN	Axis 5	NaN	Axis 6	0.000000
TX Power	0.000000	RX Power	0.000000

678.996	0.0141136
679.075	0.0141632
679.153	0.0140995
679.231	0.0140921
679.309	0.0140456
679.387	0.0141092
679.465	0.0140375
679.543	0.0141265
679.621	0.0140182
679.700	0.0140751
679.778	0.0140904
679.856	0.0139204
679.934	0.0139495
680.012	0.0139364
680.090	0.0138982
680.168	0.0139783
680.246	0.0140236
680.325	0.0140350
680.403	0.0140926
680.481	0.0141174
680.559	0.0143031
680.637	0.0142621
680.715	0.0141480
680.793	0.0143010
680.871	0.0142097
680.950	0.0143579
681.028	0.0143877
681.106	0.0143914
681.184	0.0143034
681.262	0.0141926
681.340	0.0141758
681.418	0.0142284
681.496	0.0140319
681.575	0.0140009
681.653	0.0140172
681.731	0.0139113
681.809	0.0140627
681.887	0.0139509
681.965	0.0139911
682.043	0.0139020
682.121	0.0139413
682.200	0.0139077
682.278	0.0139157
682.356	0.0139322
682.434	0.0139582
682.512	0.0139868
682.590	0.0139843
682.668	0.0140258
682.746	0.0141392
682.825	0.0140416
682.903	0.0141082
682.981	0.0141692
683.059	0.0141530
683.137	0.0141817
683.215	0.0142258
683.293	0.0142692
683.371	0.0142574
683.450	0.0143371
683.528	0.0143342
683.606	0.0142114
683.684	0.0142226
683.762	0.0142176
683.840	0.0141200
683.918	0.0142389
683.996	0.0142368
684.075	0.0141832
684.153	0.0139624
684.231	0.0140388
684.309	0.0139698
684.387	0.0139511
684.465	0.0137865
684.543	0.0139749
684.621	0.0141827
684.700	0.0139388
684.778	0.0139790
684.856	0.0140553
684.934	0.0139749
685.012	0.0141154
685.090	0.0142348
685.168	0.0141538
685.246	0.0141735
685.325	0.0141020
685.403	0.0140456
685.481	0.0141950
685.559	0.0141933
685.637	0.0141847
685.715	0.0140782
685.793	0.0141970
685.871	0.0142564
685.950	0.0141328
686.028	0.0141016
686.106	0.0141920
686.184	0.0142209
686.262	0.0141090
686.340	0.0142737
686.418	0.0143802
686.496	0.0143629
686.575	0.0143085
686.653	0.0143424
686.731	0.0143616
686.809	0.0142434
686.887	0.0142439
686.965	0.0143386
687.043	0.0140572
687.121	0.0141195
687.200	0.0141033
687.278	0.0140129
687.356	0.0139465
687.434	0.0138874
687.512	0.0140421
687.590	0.0140338
687.668	0.0139458
687.746	0.0140244
687.825	0.0140217
687.903	0.0140671
687.981	0.0140486
688.059	0.0142015
688.137	0.0141673
688.215	0.0142058
688.293	0.0142875
688.371	0.0142790
688.450	0.0141486
688.528	0.0142044
688.606	0.0142633
688.684	0.0143344
688.762	0.0142566
688.840	0.0143369
688.918	0.0141338
688.996	0.0142175
689.075	0.0142133
689.153	0.0141790
689.231	0.0142043
689.309	0.0141665
689.387	0.0141239
689.465	0.0140756
689.543	0.0141409
689.621	0.0141972
689.700	0.0138947
689.778	0.0138539
689.856	0.0140891
689.934	0.0140672
690.012	0.0140388
690.090	0.0140163
690.168	0.0139806
690.246	0.0141668
690.325	0.0140850
690.403	0.0140378
690.481	0.0142038
690.559	0.0141720
690.637	0.0142282
690.715	0.0141150
690.793	0.0141783
690.871	0.0141963
690.950	0.0141927
691.028	0.0141861
691.106	0.0142643
691.184	0.0142049
691.262	0.0141330
691.340	0.0141811
691.418	0.0139948
691.496	0.0141432
691.575	0.0141619
691.653	0.0141422
691.731	0.0140665
691.809	0.0140379
691.887	0.0140122
691.965	0.0140885
692.043	0.0142586
692.121	0.0141203
692.200	0.0140601
692.278	0.0140736
692.356	0.0142543
692.434	0.0142892
692.512	0.0141359
692.590	0.0141857
692.668	0.0142064
692.746	0.0142531
692.825	0.0143240
692.903	0.0142675
692.981	0.0142325
693.059	0.0142773
693.137	0.0141232
693.215	0.0142246
693.293	0.0141722
693.371	0.0141380
693.450	0.0140423
693.528	0.0141354
693.606	0.0140945
693.684	0.0140579
693.762	0.0141284
693.840	0.0139635
693.918	0.0141355
693.996	0.0141018
694.075	0.0140658
694.153	0.0140212
694.231	0.0140568
694.309	0.0139546
694.387	0.0140503
694.465	0.0140012
694.543	0.0140405
694.621	0.0139695
694.700	0.0141299
694.778	0.0140820
694.856	0.0142953
694.934	0.0141486
695.012	0.0143763
695.090	0.0144626
695.168	0.0143339
695.246	0.0142239
695.325	0.0142845
695.403	0.0141868
695.481	0.0142126
695.559	0.0141181
695.637	0.0140578
695.715	0.0141924
695.793	0.0141025
695.871	0.0141673
695.950	0.0140915
696.028	0.0140532
696.106	0.0142741
696.184	0.0141607
696.262	0.0141451
696.340	0.0141016
696.418	0.0139535
696.496	0.0140785
696.575	0.0139554
696.653	0.0139198
696.731	0.0141629
696.809	0.0141077
696.887	0.0141293
696.965	0.0142696
697.043	0.0143779
697.121	0.0143976
697.200	0.0142239
697.278	0.0142078
697.356	0.0140961
697.434	0.0139927
697.512	0.0138893
697.590	0.0138299
697.668	0.0138278
697.746	0.0137794
697.825	0.0140400
697.903	0.0141396
697.981	0.0143216
698.059	0.0143126
698.137	0.0141715
698.215	0.0141953
698.293	0.0143521
698.371	0.0142329
698.450	0.0140168
698.528	0.0140352
698.606	0.0140907
698.684	0.0140711
698.762	0.0139912
698.840	0.0139998
698.918	0.0141700
698.996	0.0140573
699.075	0.0142972
699.153	0.0141196
699.231	0.0141354
699.309	0.0140736
699.387	0.0140009
699.465	0.0141385
699.543	0.0141744
699.621	0.0140948
699.700	0.0143253
699.778	0.0142146
699.856	0.0142523
699.934	0.0144044
700.012	0.0144537
700.090	0.0143150
700.168	0.0143712
700.246	0.0142460
700.325	0.0140730
700.403	0.0140514
700.481	0.0138251
700.559	0.0138584
700.637	0.0136750
700.715	0.0134415
700.793	0.0136352
700.871	0.0138144
700.950	0.0140132
701.028	0.0141089
701.106	0.0141851
701.184	0.0143700
701.262	0.0144772
701.340	0.0145645
701.418	0.0146088
701.496	0.0143897
701.575	0.0146452
701.653	0.0145325
701.731	0.0144631
701.809	0.0141006
701.887	0.0141613
701.965	0.0138861
702.043	0.0136141
702.121	0.0136971
702.200	0.0135434
702.278	0.0135528
702.356	0.0137594
702.434	0.0138344
702.512	0.0140669
702.590	0.0142178
702.668	0.0143764
702.746	0.0146201
702.825	0.0147622
702.903	0.0147287
702.981	0.0146489
703.059	0.0145570
703.137	0.0144427
703.215	0.0141576
703.293	0.0140750
703.371	0.0137780
703.450	0.0136999
703.528	0.0136344
703.606	0.0132082
703.684	0.0132897
703.762	0.0135323
703.840	0.0137014
703.918	0.0139383
703.996	0.0142525
704.075	0.0141835
704.153	0.0143927
704.231	0.0146509
704.309	0.0147767
704.387	0.0147295
704.465	0.0147861
704.543	0.0147743
704.621	0.0148108
704.700	0.0147421
704.778	0.0145132
704.856	0.0142300
704.934	0.0139930
705.012	0.0137551
705.090	0.0134129
705.168	0.0131116
705.246	0.0129366
705.325	0.0129699
705.403	0.0130460
705.481	0.0132761
705.559	0.0135548
705.637	0.0138235
705.715	0.0143234
705.793	0.0147451
705.871	0.0148283
705.950	0.0148430
706.028	0.0150568
706.106	0.0148420
706.184	0.0146116
706.262	0.0144008
706.340	0.0139870
706.418	0.0138946
706.496	0.0134368
706.575	0.0135344
706.653	0.0134373
706.731	0.0135755
706.809	0.0136358
706.887	0.0136232
706.965	0.0139606
707.043	0.0141928
707.121	0.0144419
707.200	0.0146170
707.278	0.0149388
707.356	0.0150809
707.434	0.0152447
707.512	0.0151211
707.590	0.0150644
707.668	0.0151122
707.746	0.0148508
707.825	0.0146111
707.903	0.0142809
707.981	0.0141009
708.059	0.0136392
708.137	0.0136324
708.215	0.0135279
708.293	0.0134026
708.371	0.0134292
708.450	0.0134065
708.528	0.0135062
708.606	0.0134966
708.684	0.0137952
708.762	0.0139342
708.840	0.0139120
708.918	0.0142574
708.996	0.0143876
709.075	0.0143812
709.153	0.0143018
709.231	0.0143584
709.309	0.0142090
709.387	0.0143272
709.465	0.0142204
709.543	0.0140381
709.621	0.0139474
709.700	0.0140536
709.778	0.0138593
709.856	0.0138598
709.934	0.0139666
710.012	0.0140072
710.090	0.0141907
710.168	0.0142902
710.246	0.0143468
710.325	0.0144054
710.403	0.0144389
710.481	0.0145390
710.559	0.0143965
710.637	0.0146078
710.715	0.0144727
710.793	0.0143311
710.871	0.0144075
710.950	0.0143148
711.028	0.0143554
711.106	0.0142736
711.184	0.0140958
711.262	0.0141753
711.340	0.0141452
711.418	0.0141344
711.496	0.0141336
711.575	0.0140530
711.653	0.0141029
711.731	0.0139060
711.809	0.0139155
711.887	0.0139291
711.965	0.0138110
712.043	0.0139490
712.121	0.0139719
712.200	0.0141419
712.278	0.0140856
712.356	0.0138798
712.434	0.0139676
712.512	0.0141989
712.590	0.0139842
712.668	0.0139168
712.746	0.0138747
712.825	0.0140572
712.903	0.0139987
712.981	0.0140388
713.059	0.0138776
713.137	0.0139098
713.215	0.0137582
713.293	0.0137537
713.371	0.0137231
713.450	0.0135953
713.528	0.0135857
713.606	0.0136615
713.684	0.0138408
713.762	0.0140125
713.840	0.0142908
713.918	0.0144955
713.996	0.0147752
714.075	0.0149432
714.153	0.0150848
714.231	0.0152308
714.309	0.0151106
714.387	0.0151261
714.465	0.0149700
714.543	0.0148759
714.621	0.0146227
714.700	0.0142900
714.778	0.0142875
714.856	0.0138857
714.934	0.0137696
715.012	0.0135054
715.090	0.0134219
715.168	0.0132677
715.246	0.0132303
715.325	0.0132950
715.403	0.0134269
715.481	0.0134315
715.559	0.0136864
715.637	0.0138234
715.715	0.0140829
715.793	0.0142034
715.871	0.0142788
715.950	0.0143038
716.028	0.0142755
716.106	0.0143475
716.184	0.0142284
716.262	0.0143492
716.340	0.0142160
716.418	0.0141194
716.496	0.0139823
716.575	0.0139478
716.653	0.0139124
716.731	0.0138471
716.809	0.0136874
716.887	0.0138251
716.965	0.0138580
717.043	0.0138610
717.121	0.0139420
717.200	0.0136979
717.278	0.0138511
717.356	0.0138435
717.434	0.0139917
717.512	0.0140524
717.590	0.0141094
717.668	0.0142934
717.746	0.0146510
717.825	0.0146426
717.903	0.0148096
717.981	0.0148642
718.059	0.0148940
718.137	0.0147939
718.215	0.0148565
718.293	0.0148401
718.371	0.0146916
718.450	0.0142795
718.528	0.0141779
718.606	0.0140302
718.684	0.0139502
718.762	0.0136517
718.840	0.0136093
718.918	0.0135588
718.996	0.0135672
719.075	0.0135539
719.153	0.0136658
719.231	0.0136321
719.309	0.0136530
719.387	0.0137862
719.465	0.0137772
719.543	0.0139848
719.621	0.0140582
719.700	0.0140981
719.778	0.0141763
719.856	0.0142271
719.934	0.0142050
720.012	0.0142881
720.090	0.0141421
720.168	0.0139342
720.246	0.0138292
720.325	0.0139875
720.403	0.0138879
720.481	0.0139311
720.559	0.0140673
720.637	0.0139182
720.715	0.0139772
720.793	0.0140158
720.871	0.0142643
720.950	0.0142859
721.028	0.0142689
721.106	0.0143362
721.184	0.0143555
721.262	0.0144195
721.340	0.0142832
721.418	0.0144199
721.496	0.0145144
721.575	0.0145099
721.653	0.0145182
721.731	0.0146206
721.809	0.0146995
721.887	0.0147436
721.965	0.0145232
722.043	0.0144413
722.121	0.0143093
722.200	0.0141010
722.278	0.0141566
722.356	0.0140297
722.434	0.0138828
722.512	0.0138926
722.590	0.0135899
722.668	0.0136473
722.746	0.0139963
722.825	0.0137153
722.903	0.0138179
722.981	0.0138159
723.059	0.0139840
723.137	0.0137750
723.215	0.0139711
723.293	0.0138592
723.371	0.0138806
723.450	0.0140395
723.528	0.0140556
723.606	0.0138943
723.684	0.0139330
723.762	0.0141128
723.840	0.0139460
723.918	0.0139913
723.996	0.0141399
724.075	0.0140696
724.153	0.0141666
724.231	0.0141349
724.309	0.0142115
724.387	0.0143699
724.465	0.0143618
724.543	0.0142822
724.621	0.0142992
724.700	0.0142455
724.778	0.0142107
724.856	0.0142681
724.934	0.0142041
725.012	0.0141412
725.090	0.0141250
725.168	0.0140491
725.246	0.0141055
725.325	0.0139836
725.403	0.0139849
725.481	0.0139419
725.559	0.0138555
725.637	0.0140223
725.715	0.0141602
725.793	0.0141510
725.871	0.0143195
725.950	0.0143227
726.028	0.0143755
726.106	0.0144547
726.184	0.0146026
726.262	0.0144466
726.340	0.0144057
726.418	0.0142040
726.496	0.0142744
726.575	0.0141468
726.653	0.0139173
726.731	0.0138647
726.809	0.0137897
726.887	0.0136766
726.965	0.0136172
727.043	0.0135826
727.121	0.0137675
727.200	0.0135522
727.278	0.0135992
727.356	0.0136890
727.434	0.0135961
727.512	0.0138995
727.590	0.0139637
727.668	0.0140410
727.746	0.0143400
727.825	0.0142919
727.903	0.0143709
727.981	0.0144296
728.059	0.0143449
728.137	0.0144013
728.215	0.0143189
728.293	0.0144923
728.371	0.0142938
728.450	0.0142748
728.528	0.0143380
728.606	0.0144410
728.684	0.0143166
728.762	0.0143235
728.840	0.0141584
728.918	0.0142706
728.996	0.0141937
729.075	0.0141267
729.153	0.0142271
729.231	0.0140287
729.309	0.0139391
729.387	0.0138316
729.465	0.0139370
729.543	0.0138187
729.621	0.0137507
729.700	0.0137509
729.778	0.0137067
729.856	0.0137663
729.934	0.0137466
730.012	0.0138314
730.090	0.0138489
730.168	0.0138560
730.246	0.0141186
730.325	0.0143215
730.403	0.0143749
730.481	0.0144349
730.559	0.0144241
730.637	0.0145570
730.715	0.0144627
730.793	0.0145560
730.871	0.0143813
730.950	0.0143533
731.028	0.0142451
731.106	0.0142609
731.184	0.0142130
731.262	0.0142934
731.340	0.0143510
731.418	0.0141795
731.496	0.0139744
731.575	0.0140713
731.653	0.0140908
731.731	0.0141515
731.809	0.0141898
731.887	0.0141433
731.965	0.0142153
732.043	0.0141722
732.121	0.0142263
732.200	0.0140857
732.278	0.0140335
732.356	0.0141411
732.434	0.0142173
732.512	0.0140480
732.590	0.0139369
732.668	0.0139835
732.746	0.0139424
732.825	0.0138741
732.903	0.0140231
732.981	0.0141242
733.059	0.0140841
733.137	0.0139883
733.215	0.0140168
733.293	0.0141203
733.371	0.0141674
733.450	0.0142416
733.528	0.0141949
733.606	0.0141082
733.684	0.0141699
733.762	0.0140172
733.840	0.0141338
733.918	0.0141603
733.996	0.0139349
734.075	0.0139888
734.153	0.0138818
734.231	0.0137739
734.309	0.0137782
734.387	0.0140147
734.465	0.0141129
734.543	0.0140875
734.621	0.0140885
734.700	0.0144401
734.778	0.0144804
734.856	0.0144208
734.934	0.0147649
735.012	0.0145966
735.090	0.0146999
735.168	0.0147295
735.246	0.0145766
735.325	0.0145637
735.403	0.0145441
735.481	0.0146519
735.559	0.0144208
735.637	0.0143499
735.715	0.0142694
735.793	0.0141436
735.871	0.0140758
735.950	0.0138497
736.028	0.0140195
736.106	0.0139811
736.184	0.0139235
736.262	0.0138292
736.340	0.0139043
736.418	0.0139275
736.496	0.0139133
736.575	0.0140308
736.653	0.0139675
736.731	0.0139759
736.809	0.0140392
736.887	0.0138995
736.965	0.0139317
737.043	0.0140262
737.121	0.0140115
737.200	0.0139191
737.278	0.0138830
737.356	0.0138123
737.434	0.0139131
737.512	0.0138844
737.590	0.0137645
737.668	0.0138989
737.746	0.0139258
737.825	0.0140402
737.903	0.0141126
737.981	0.0142290
738.059	0.0142841
738.137	0.0144169
738.215	0.0143101
738.293	0.0144891
738.371	0.0146078
738.450	0.0144700
738.528	0.0145207
738.606	0.0144250
738.684	0.0145427
738.762	0.0145288
738.840	0.0146241
738.918	0.0143360
738.996	0.0141975
739.075	0.0142688
739.153	0.0142421
739.231	0.0141000
739.309	0.0140601
739.387	0.0141074
739.465	0.0139103
739.543	0.0138953
739.621	0.0140015
739.700	0.0140620
739.778	0.0140675
739.856	0.0141492
739.934	0.0141617
740.012	0.0141817
740.090	0.0141251
740.168	0.0140718
740.246	0.0139558
740.325	0.0141946
740.403	0.0140284
740.481	0.0139586
740.559	0.0140631
740.637	0.0139310
740.715	0.0139433
740.793	0.0139056
740.871	0.0138924
740.950	0.0137160
741.028	0.0138741
741.106	0.0138005
741.184	0.0137608
741.262	0.0138553
741.340	0.0138773
741.418	0.0138020
741.496	0.0138390
741.575	0.0138306
741.653	0.0138573
741.731	0.0138950
741.809	0.0138282
741.887	0.0139986
741.965	0.0138473
742.043	0.0138972
742.121	0.0141269
742.200	0.0141935
742.278	0.0140438
742.356	0.0142410
742.434	0.0143039
742.512	0.0144238
742.590	0.0145003
742.668	0.0144785
742.746	0.0144843
742.825	0.0144769
742.903	0.0145488
742.981	0.0144813
743.059	0.0145820
743.137	0.0144512
743.215	0.0142640
743.293	0.0140749
743.371	0.0140871
743.450	0.0140319
743.528	0.0139889
743.606	0.0138881
743.684	0.0139659
743.762	0.0138790
743.840	0.0139861
743.918	0.0140004
743.996	0.0139976
744.075	0.0140152
744.153	0.0139955
744.231	0.0139973
744.309	0.0140892
744.387	0.0139425
744.465	0.0140424
744.543	0.0141269
744.621	0.0140340
744.700	0.0141522
744.778	0.0138439
744.856	0.0139782
744.934	0.0140446
745.012	0.0139138
745.090	0.0138767
745.168	0.0138979
745.246	0.0138964
745.325	0.0138731
745.403	0.0140189
745.481	0.0140365
745.559	0.0140687
745.637	0.0141703
745.715	0.0141411
745.793	0.0142486
745.871	0.0142047
745.950	0.0141405
746.028	0.0140207
746.106	0.0141575
746.184	0.0142569
746.262	0.0142337
746.340	0.0142408
746.418	0.0141333
746.496	0.0141939
746.575	0.0141156
746.653	0.0141486
746.731	0.0140913
746.809	0.0141468
746.887	0.0140621
746.965	0.0140713
747.043	0.0142246
747.121	0.0141145
747.200	0.0141266
747.278	0.0141088
747.356	0.0140993
747.434	0.0140642
747.512	0.0142098
747.590	0.0140859
747.668	0.0141196
747.746	0.0139825
747.825	0.0140718
747.903	0.0140607
747.981	0.0141202
748.059	0.0141584
748.137	0.0141046
748.215	0.0141108
748.293	0.0141711
748.371	0.0140802
748.450	0.0141579
748.528	0.0141240
748.606	0.0140753
748.684	0.0141647
748.762	0.0141919
748.840	0.0141817
748.918	0.0141827
748.996	0.0141031
749.075	0.0142461
749.153	0.0141575
749.231	0.0141203
749.309	0.0139961
749.387	0.0139559
749.465	0.0139289
749.543	0.0140850
749.621	0.0140782
749.700	0.0139283
749.778	0.0138442
749.856	0.0139850
749.934	0.0139224
750.012	0.0140324
750.090	0.0140226
750.168	0.0138918
750.246	0.0141896
750.325	0.0142024
750.403	0.0141778
750.481	0.0142185
750.559	0.0142053
750.637	0.0142393
750.715	0.0143298
750.793	0.0142802
750.871	0.0141966
750.950	0.0142021
751.028	0.0142426
751.106	0.0142960
751.184	0.0140629
751.262	0.0141085
751.340	0.0140999
751.418	0.0141290
751.496	0.0139926
751.575	0.0139343
751.653	0.0140266
751.731	0.0141310
751.809	0.0141171
751.887	0.0140321
751.965	0.0142223
752.043	0.0141521
752.121	0.0141568
752.200	0.0140126
752.278	0.0142590
752.356	0.0143932
752.434	0.0143794
752.512	0.0143448
752.590	0.0142831
752.668	0.0144400
752.746	0.0142977
752.825	0.0142340
752.903	0.0141017
752.981	0.0141383
753.059	0.0144084
753.137	0.0143177
753.215	0.0142049
753.293	0.0139729
753.371	0.0140897
753.450	0.0141389
753.528	0.0141665
753.606	0.0141727
753.684	0.0139922
753.762	0.0139159
753.840	0.0139996
753.918	0.0140743
753.996	0.0139998
754.075	0.0139289
754.153	0.0140536
754.231	0.0140231
754.309	0.0141286
754.387	0.0141204
754.465	0.0140847
754.543	0.0141750
754.621	0.0140269
754.700	0.0140178
754.778	0.0141732
754.856	0.0142950
754.934	0.0141637
755.012	0.0141683
755.090	0.0142188
755.168	0.0142082
755.246	0.0142066
755.325	0.0142955
755.403	0.0142588
755.481	0.0140211
755.559	0.0141418
755.637	0.0141453
755.715	0.0142137
755.793	0.0140751
755.871	0.0142059
755.950	0.0140819
756.028	0.0140308
756.106	0.0141061
756.184	0.0141419
756.262	0.0140990
756.340	0.0141399
756.418	0.0142488
756.496	0.0141438
756.575	0.0141350
756.653	0.0143388
756.731	0.0141740
756.809	0.0141729
756.887	0.0141644
756.965	0.0140699
757.043	0.0142471
757.121	0.0141422
757.200	0.0141595
757.278	0.0140819
757.356	0.0139397
757.434	0.0140918
757.512	0.0140578
757.590	0.0138865
757.668	0.0138611
757.746	0.0139209
757.825	0.0140050
757.903	0.0140162
757.981	0.0140727
758.059	0.0140316
758.137	0.0140919
758.215	0.0140298
758.293	0.0141008
758.371	0.0142162
758.450	0.0141941
758.528	0.0139197
758.606	0.0141001
758.684	0.0141668
758.762	0.0141539
758.840	0.0139702
758.918	0.0141665
758.996	0.0142192
759.075	0.0140620
759.153	0.0140413
759.231	0.0141537
759.309	0.0139887
759.387	0.0139558
759.465	0.0141685
759.543	0.0140411
759.621	0.0140296
759.700	0.0141039
759.778	0.0142061
759.856	0.0141936
759.934	0.0140641
760.012	0.0141579
760.090	0.0141666
760.168	0.0142087
760.246	0.0141742
760.325	0.0141010
760.403	0.0140234
760.481	0.0140810
760.559	0.0141706
760.637	0.0142425
760.715	0.0140094
760.793	0.0140973
760.871	0.0140253
760.950	0.0140299
761.028	0.0139675
761.106	0.0139420
761.184	0.0139180
761.262	0.0139018
761.340	0.0140952
761.418	0.0140312
761.496	0.0139461
761.575	0.0139050
761.653	0.0140765
761.731	0.0140259
761.809	0.0139936
761.887	0.0139964
761.965	0.0141895
762.043	0.0140839
762.121	0.0140505
762.200	0.0140206
762.278	0.0139156
762.356	0.0140458
762.434	0.0141251
762.512	0.0141329
762.590	0.0140123
762.668	0.0140938
762.746	0.0141679
762.825	0.0141638
762.903	0.0142970
762.981	0.0142017
763.059	0.0141113
763.137	0.0142652
763.215	0.0142973
763.293	0.0142004
763.371	0.0142612
763.450	0.0140857
763.528	0.0142152
763.606	0.0142085
763.684	0.0142090
763.762	0.0141068
763.840	0.0143018
763.918	0.0143110
763.996	0.0143819
764.075	0.0141762
764.153	0.0141489
764.231	0.0142603
764.309	0.0141933
764.387	0.0142214
764.465	0.0141921
764.543	0.0141315
764.621	0.0141315
764.700	0.0140050
