05/04/2022	21:18:38	Ver.	4.1	UNKNOWN
Optical Delay	678.996401	Delta X		0.078125	Sweeps	1	Scan Rate	0/0
Coordinates	Axis 1	NaN	Axis 2	NaN	Axis 3	NaN	Axis 4	NaN	Axis 5	NaN	Axis 6	0.000000
TX Power	0.000000	RX Power	0.000000

678.996	0.0145179
679.075	0.0143798
679.153	0.0143412
679.231	0.0143346
679.309	0.0142465
679.387	0.0141884
679.465	0.0142860
679.543	0.0142257
679.621	0.0141888
679.700	0.0142632
679.778	0.0141256
679.856	0.0142658
679.934	0.0142635
680.012	0.0144255
680.090	0.0143091
680.168	0.0144770
680.246	0.0144671
680.325	0.0144221
680.403	0.0144771
680.481	0.0147276
680.559	0.0145996
680.637	0.0145669
680.715	0.0146227
680.793	0.0147372
680.871	0.0147014
680.950	0.0147257
681.028	0.0145488
681.106	0.0147110
681.184	0.0147192
681.262	0.0145398
681.340	0.0145355
681.418	0.0146151
681.496	0.0145501
681.575	0.0144048
681.653	0.0143134
681.731	0.0143261
681.809	0.0144731
681.887	0.0144745
681.965	0.0143641
682.043	0.0143857
682.121	0.0143491
682.200	0.0145136
682.278	0.0144276
682.356	0.0143181
682.434	0.0143842
682.512	0.0144397
682.590	0.0144655
682.668	0.0143971
682.746	0.0145483
682.825	0.0144438
682.903	0.0144487
682.981	0.0144202
683.059	0.0145109
683.137	0.0144891
683.215	0.0145032
683.293	0.0144625
683.371	0.0145227
683.450	0.0143976
683.528	0.0144752
683.606	0.0145860
683.684	0.0146687
683.762	0.0145153
683.840	0.0147633
683.918	0.0146304
683.996	0.0146449
684.075	0.0147469
684.153	0.0148325
684.231	0.0148504
684.309	0.0145782
684.387	0.0145528
684.465	0.0146631
684.543	0.0144202
684.621	0.0144375
684.700	0.0143739
684.778	0.0143788
684.856	0.0143774
684.934	0.0143928
685.012	0.0142423
685.090	0.0142533
685.168	0.0143015
685.246	0.0142502
685.325	0.0144081
685.403	0.0143878
685.481	0.0144910
685.559	0.0145574
685.637	0.0145691
685.715	0.0145206
685.793	0.0145227
685.871	0.0146844
685.950	0.0145897
686.028	0.0147670
686.106	0.0146186
686.184	0.0146082
686.262	0.0145356
686.340	0.0145197
686.418	0.0145763
686.496	0.0144728
686.575	0.0146570
686.653	0.0145734
686.731	0.0145567
686.809	0.0145736
686.887	0.0144382
686.965	0.0144233
687.043	0.0146152
687.121	0.0142450
687.200	0.0143597
687.278	0.0143687
687.356	0.0143290
687.434	0.0143939
687.512	0.0144962
687.590	0.0144280
687.668	0.0143906
687.746	0.0143864
687.825	0.0146595
687.903	0.0145178
687.981	0.0145454
688.059	0.0144553
688.137	0.0145495
688.215	0.0146203
688.293	0.0145634
688.371	0.0146160
688.450	0.0145752
688.528	0.0146383
688.606	0.0145879
688.684	0.0144801
688.762	0.0144627
688.840	0.0143606
688.918	0.0144120
688.996	0.0143940
689.075	0.0144078
689.153	0.0143388
689.231	0.0144144
689.309	0.0143243
689.387	0.0145261
689.465	0.0143490
689.543	0.0143882
689.621	0.0143671
689.700	0.0146133
689.778	0.0144343
689.856	0.0144680
689.934	0.0144287
690.012	0.0145889
690.090	0.0146410
690.168	0.0145363
690.246	0.0145828
690.325	0.0146133
690.403	0.0146290
690.481	0.0145058
690.559	0.0145576
690.637	0.0146239
690.715	0.0145666
690.793	0.0145399
690.871	0.0143377
690.950	0.0144949
691.028	0.0145308
691.106	0.0144341
691.184	0.0144069
691.262	0.0145069
691.340	0.0144746
691.418	0.0145271
691.496	0.0145328
691.575	0.0143314
691.653	0.0143152
691.731	0.0142948
691.809	0.0144405
691.887	0.0145773
691.965	0.0142960
692.043	0.0143554
692.121	0.0145205
692.200	0.0144320
692.278	0.0145353
692.356	0.0147585
692.434	0.0145433
692.512	0.0144971
692.590	0.0146061
692.668	0.0145847
692.746	0.0145262
692.825	0.0145803
692.903	0.0147038
692.981	0.0145254
693.059	0.0146328
693.137	0.0146683
693.215	0.0144762
693.293	0.0145696
693.371	0.0144720
693.450	0.0144457
693.528	0.0143375
693.606	0.0144455
693.684	0.0143464
693.762	0.0142892
693.840	0.0143546
693.918	0.0143221
693.996	0.0143953
694.075	0.0144084
694.153	0.0143454
694.231	0.0145042
694.309	0.0145058
694.387	0.0145281
694.465	0.0145512
694.543	0.0146294
694.621	0.0146416
694.700	0.0143830
694.778	0.0143768
694.856	0.0144578
694.934	0.0144582
695.012	0.0146938
695.090	0.0147217
695.168	0.0145224
695.246	0.0146567
695.325	0.0145272
695.403	0.0145416
695.481	0.0144560
695.559	0.0144334
695.637	0.0144052
695.715	0.0143022
695.793	0.0143485
695.871	0.0144473
695.950	0.0145382
696.028	0.0145740
696.106	0.0144973
696.184	0.0144824
696.262	0.0146072
696.340	0.0145564
696.418	0.0145208
696.496	0.0144501
696.575	0.0144572
696.653	0.0145292
696.731	0.0143339
696.809	0.0144159
696.887	0.0144409
696.965	0.0145668
697.043	0.0144424
697.121	0.0143293
697.200	0.0143189
697.278	0.0143999
697.356	0.0145375
697.434	0.0143383
697.512	0.0143973
697.590	0.0144644
697.668	0.0144428
697.746	0.0146087
697.825	0.0145099
697.903	0.0145675
697.981	0.0145750
698.059	0.0146255
698.137	0.0146945
698.215	0.0145050
698.293	0.0146230
698.371	0.0144776
698.450	0.0144379
698.528	0.0143859
698.606	0.0143079
698.684	0.0143011
698.762	0.0144161
698.840	0.0145594
698.918	0.0145408
698.996	0.0147099
699.075	0.0144729
699.153	0.0146055
699.231	0.0146739
699.309	0.0146387
699.387	0.0143889
699.465	0.0144011
699.543	0.0141900
699.621	0.0140629
699.700	0.0141077
699.778	0.0141547
699.856	0.0141828
699.934	0.0144118
700.012	0.0142902
700.090	0.0145564
700.168	0.0146949
700.246	0.0146257
700.325	0.0145170
700.403	0.0145444
700.481	0.0145040
700.559	0.0144613
700.637	0.0144643
700.715	0.0144206
700.793	0.0144303
700.871	0.0142901
700.950	0.0142738
701.028	0.0142889
701.106	0.0144261
701.184	0.0143044
701.262	0.0142928
701.340	0.0142084
701.418	0.0140228
701.496	0.0141273
701.575	0.0143185
701.653	0.0143871
701.731	0.0145652
701.809	0.0146897
701.887	0.0149548
701.965	0.0150944
702.043	0.0151487
702.121	0.0150560
702.200	0.0149142
702.278	0.0146357
702.356	0.0143818
702.434	0.0140696
702.512	0.0137392
702.590	0.0135532
702.668	0.0136257
702.746	0.0135914
702.825	0.0137668
702.903	0.0138068
702.981	0.0140472
703.059	0.0143663
703.137	0.0146293
703.215	0.0148554
703.293	0.0151468
703.371	0.0154565
703.450	0.0152660
703.528	0.0154745
703.606	0.0150513
703.684	0.0148061
703.762	0.0147548
703.840	0.0142683
703.918	0.0141873
703.996	0.0138567
704.075	0.0137230
704.153	0.0136869
704.231	0.0135509
704.309	0.0136298
704.387	0.0135355
704.465	0.0138204
704.543	0.0140779
704.621	0.0142841
704.700	0.0145721
704.778	0.0148700
704.856	0.0150578
704.934	0.0152962
705.012	0.0154801
705.090	0.0156509
705.168	0.0155757
705.246	0.0154037
705.325	0.0150605
705.403	0.0146317
705.481	0.0143969
705.559	0.0138730
705.637	0.0135383
705.715	0.0133982
705.793	0.0132829
705.871	0.0134220
705.950	0.0135250
706.028	0.0136655
706.106	0.0140067
706.184	0.0143629
706.262	0.0145367
706.340	0.0149389
706.418	0.0151757
706.496	0.0151582
706.575	0.0151938
706.653	0.0152431
706.731	0.0150269
706.809	0.0149851
706.887	0.0148870
706.965	0.0146590
707.043	0.0145590
707.121	0.0144611
707.200	0.0142631
707.278	0.0142214
707.356	0.0141386
707.434	0.0141700
707.512	0.0141872
707.590	0.0142329
707.668	0.0143492
707.746	0.0143008
707.825	0.0142746
707.903	0.0146345
707.981	0.0146011
708.059	0.0146552
708.137	0.0148205
708.215	0.0149102
708.293	0.0149447
708.371	0.0149284
708.450	0.0148074
708.528	0.0146762
708.606	0.0144518
708.684	0.0142408
708.762	0.0139230
708.840	0.0136741
708.918	0.0136205
708.996	0.0137096
709.075	0.0135789
709.153	0.0138326
709.231	0.0140200
709.309	0.0139928
709.387	0.0142378
709.465	0.0143278
709.543	0.0146726
709.621	0.0149309
709.700	0.0151318
709.778	0.0153754
709.856	0.0152869
709.934	0.0152106
710.012	0.0151193
710.090	0.0152451
710.168	0.0150111
710.246	0.0148226
710.325	0.0146738
710.403	0.0145717
710.481	0.0145007
710.559	0.0142862
710.637	0.0140797
710.715	0.0142310
710.793	0.0141486
710.871	0.0139787
710.950	0.0140015
711.028	0.0140987
711.106	0.0142569
711.184	0.0143459
711.262	0.0143687
711.340	0.0145528
711.418	0.0147959
711.496	0.0147482
711.575	0.0148697
711.653	0.0149408
711.731	0.0149235
711.809	0.0149323
711.887	0.0147328
711.965	0.0146050
712.043	0.0144889
712.121	0.0143062
712.200	0.0141016
712.278	0.0140085
712.356	0.0138081
712.434	0.0135803
712.512	0.0138885
712.590	0.0136565
712.668	0.0138174
712.746	0.0137490
712.825	0.0139467
712.903	0.0140118
712.981	0.0143022
713.059	0.0144613
713.137	0.0147183
713.215	0.0149998
713.293	0.0151492
713.371	0.0152274
713.450	0.0151743
713.528	0.0152593
713.606	0.0153033
713.684	0.0151403
713.762	0.0150041
713.840	0.0148205
713.918	0.0145360
713.996	0.0144700
714.075	0.0141937
714.153	0.0139920
714.231	0.0139769
714.309	0.0137898
714.387	0.0138142
714.465	0.0137965
714.543	0.0139395
714.621	0.0142515
714.700	0.0143311
714.778	0.0146821
714.856	0.0148017
714.934	0.0150924
715.012	0.0152014
715.090	0.0155216
715.168	0.0155512
715.246	0.0154561
715.325	0.0153284
715.403	0.0152007
715.481	0.0148894
715.559	0.0146982
715.637	0.0144561
715.715	0.0142215
715.793	0.0139163
715.871	0.0137150
715.950	0.0137241
716.028	0.0135902
716.106	0.0136259
716.184	0.0136443
716.262	0.0134998
716.340	0.0135785
716.418	0.0136845
716.496	0.0138594
716.575	0.0140340
716.653	0.0141846
716.731	0.0143674
716.809	0.0144565
716.887	0.0147069
716.965	0.0149107
717.043	0.0149088
717.121	0.0149209
717.200	0.0150390
717.278	0.0149950
717.356	0.0149879
717.434	0.0149651
717.512	0.0151175
717.590	0.0150945
717.668	0.0148981
717.746	0.0148537
717.825	0.0147739
717.903	0.0147852
717.981	0.0145345
718.059	0.0145699
718.137	0.0145998
718.215	0.0143325
718.293	0.0141881
718.371	0.0140881
718.450	0.0140250
718.528	0.0140893
718.606	0.0139430
718.684	0.0142384
718.762	0.0142528
718.840	0.0143251
718.918	0.0141801
718.996	0.0144204
719.075	0.0144497
719.153	0.0144762
719.231	0.0144513
719.309	0.0146124
719.387	0.0147926
719.465	0.0145487
719.543	0.0147034
719.621	0.0147451
719.700	0.0146913
719.778	0.0145197
719.856	0.0146003
719.934	0.0144511
720.012	0.0142917
720.090	0.0143314
720.168	0.0141964
720.246	0.0140466
720.325	0.0141134
720.403	0.0142146
720.481	0.0142532
720.559	0.0142971
720.637	0.0142005
720.715	0.0143338
720.793	0.0144398
720.871	0.0144263
720.950	0.0145418
721.028	0.0147027
721.106	0.0145726
721.184	0.0146276
721.262	0.0147096
721.340	0.0148225
721.418	0.0147528
721.496	0.0147655
721.575	0.0146660
721.653	0.0146091
721.731	0.0147009
721.809	0.0145399
721.887	0.0147221
721.965	0.0147028
722.043	0.0146520
722.121	0.0146805
722.200	0.0147421
722.278	0.0148017
722.356	0.0146414
722.434	0.0145668
722.512	0.0145300
722.590	0.0145158
722.668	0.0141698
722.746	0.0142348
722.825	0.0143138
722.903	0.0141805
722.981	0.0142590
723.059	0.0141389
723.137	0.0140628
723.215	0.0141390
723.293	0.0141483
723.371	0.0142744
723.450	0.0141872
723.528	0.0142044
723.606	0.0145399
723.684	0.0146526
723.762	0.0145377
723.840	0.0146238
723.918	0.0147220
723.996	0.0146357
724.075	0.0145728
724.153	0.0145432
724.231	0.0145264
724.309	0.0145122
724.387	0.0142561
724.465	0.0141987
724.543	0.0142396
724.621	0.0142580
724.700	0.0142913
724.778	0.0143027
724.856	0.0143732
724.934	0.0145455
725.012	0.0147056
725.090	0.0148586
725.168	0.0147935
725.246	0.0150017
725.325	0.0150713
725.403	0.0151037
725.481	0.0148861
725.559	0.0147551
725.637	0.0146974
725.715	0.0147377
725.793	0.0144884
725.871	0.0142152
725.950	0.0142483
726.028	0.0141321
726.106	0.0139663
726.184	0.0141463
726.262	0.0141674
726.340	0.0139750
726.418	0.0140816
726.496	0.0142673
726.575	0.0143240
726.653	0.0144414
726.731	0.0143607
726.809	0.0143500
726.887	0.0143416
726.965	0.0145060
727.043	0.0144421
727.121	0.0144330
727.200	0.0145441
727.278	0.0145068
727.356	0.0144322
727.434	0.0144892
727.512	0.0143439
727.590	0.0143523
727.668	0.0145525
727.746	0.0144966
727.825	0.0146146
727.903	0.0144926
727.981	0.0145613
728.059	0.0145200
728.137	0.0144465
728.215	0.0147154
728.293	0.0146268
728.371	0.0145266
728.450	0.0145195
728.528	0.0144252
728.606	0.0143259
728.684	0.0142611
728.762	0.0142702
728.840	0.0143198
728.918	0.0144121
728.996	0.0143927
729.075	0.0144170
729.153	0.0145023
729.231	0.0145541
729.309	0.0145720
729.387	0.0145460
729.465	0.0145518
729.543	0.0146140
729.621	0.0146043
729.700	0.0144800
729.778	0.0145424
729.856	0.0145551
729.934	0.0144365
730.012	0.0143395
730.090	0.0143903
730.168	0.0144087
730.246	0.0143842
730.325	0.0142594
730.403	0.0143450
730.481	0.0143137
730.559	0.0143536
730.637	0.0142685
730.715	0.0142059
730.793	0.0143102
730.871	0.0143470
730.950	0.0142917
731.028	0.0144784
731.106	0.0143272
731.184	0.0144618
731.262	0.0145950
731.340	0.0145358
731.418	0.0147524
731.496	0.0147134
731.575	0.0148097
731.653	0.0147959
731.731	0.0148244
731.809	0.0147835
731.887	0.0148646
731.965	0.0148520
732.043	0.0149066
732.121	0.0147510
732.200	0.0145515
732.278	0.0147034
732.356	0.0146029
732.434	0.0145056
732.512	0.0144608
732.590	0.0143593
732.668	0.0142267
732.746	0.0142217
732.825	0.0142576
732.903	0.0142208
732.981	0.0142326
733.059	0.0142596
733.137	0.0141635
733.215	0.0141768
733.293	0.0141649
733.371	0.0143089
733.450	0.0142191
733.528	0.0144283
733.606	0.0144227
733.684	0.0144911
733.762	0.0145392
733.840	0.0145981
733.918	0.0146606
733.996	0.0147057
734.075	0.0147540
734.153	0.0146870
734.231	0.0147080
734.309	0.0147556
734.387	0.0147942
734.465	0.0145672
734.543	0.0147681
734.621	0.0144878
734.700	0.0144477
734.778	0.0144335
734.856	0.0144477
734.934	0.0142443
735.012	0.0142579
735.090	0.0141452
735.168	0.0140589
735.246	0.0142526
735.325	0.0142863
735.403	0.0143289
735.481	0.0144306
735.559	0.0146471
735.637	0.0147122
735.715	0.0147729
735.793	0.0149678
735.871	0.0149983
735.950	0.0149802
736.028	0.0150950
736.106	0.0150847
736.184	0.0149733
736.262	0.0148029
736.340	0.0149215
736.418	0.0147102
736.496	0.0144926
736.575	0.0143241
736.653	0.0143030
736.731	0.0142563
736.809	0.0141457
736.887	0.0140146
736.965	0.0141032
737.043	0.0140096
737.121	0.0140588
737.200	0.0139936
737.278	0.0139690
737.356	0.0140473
737.434	0.0140984
737.512	0.0142715
737.590	0.0143155
737.668	0.0143874
737.746	0.0143292
737.825	0.0144341
737.903	0.0146182
737.981	0.0146143
738.059	0.0145629
738.137	0.0146103
738.215	0.0146586
738.293	0.0146123
738.371	0.0145986
738.450	0.0147578
738.528	0.0146226
738.606	0.0146662
738.684	0.0146468
738.762	0.0146525
738.840	0.0146849
738.918	0.0147253
738.996	0.0148277
739.075	0.0147316
739.153	0.0148507
739.231	0.0145435
739.309	0.0146043
739.387	0.0147549
739.465	0.0146417
739.543	0.0145499
739.621	0.0145599
739.700	0.0146237
739.778	0.0145734
739.856	0.0145623
739.934	0.0144937
740.012	0.0143174
740.090	0.0143999
740.168	0.0145100
740.246	0.0143354
740.325	0.0143966
740.403	0.0142780
740.481	0.0143930
740.559	0.0143296
740.637	0.0143423
740.715	0.0143953
740.793	0.0144164
740.871	0.0144646
740.950	0.0144574
741.028	0.0144250
741.106	0.0142361
741.184	0.0144293
741.262	0.0143671
741.340	0.0144932
741.418	0.0144250
741.496	0.0145118
741.575	0.0144762
741.653	0.0143765
741.731	0.0144355
741.809	0.0144750
741.887	0.0145406
741.965	0.0145586
742.043	0.0144320
742.121	0.0144296
742.200	0.0143386
742.278	0.0142540
742.356	0.0141570
742.434	0.0143616
742.512	0.0144367
742.590	0.0144251
742.668	0.0142865
742.746	0.0143256
742.825	0.0144398
742.903	0.0145595
742.981	0.0144673
743.059	0.0146275
743.137	0.0146971
743.215	0.0147444
743.293	0.0147913
743.371	0.0148341
743.450	0.0149010
743.528	0.0149583
743.606	0.0149145
743.684	0.0148547
743.762	0.0148053
743.840	0.0150435
743.918	0.0146737
743.996	0.0146712
744.075	0.0147384
744.153	0.0146484
744.231	0.0146799
744.309	0.0143837
744.387	0.0144064
744.465	0.0142144
744.543	0.0143208
744.621	0.0143385
744.700	0.0143262
744.778	0.0142645
744.856	0.0141804
744.934	0.0143316
745.012	0.0141866
745.090	0.0142121
745.168	0.0142535
745.246	0.0143401
745.325	0.0141469
745.403	0.0143320
745.481	0.0142682
745.559	0.0142731
745.637	0.0144674
745.715	0.0144492
745.793	0.0143065
745.871	0.0144521
745.950	0.0144495
746.028	0.0144244
746.106	0.0144318
746.184	0.0145235
746.262	0.0145099
746.340	0.0146488
746.418	0.0145713
746.496	0.0145682
746.575	0.0145487
746.653	0.0144234
746.731	0.0144210
746.809	0.0145238
746.887	0.0143598
746.965	0.0144473
747.043	0.0144685
747.121	0.0144131
747.200	0.0145864
747.278	0.0144920
747.356	0.0144176
747.434	0.0144235
747.512	0.0144672
747.590	0.0144315
747.668	0.0143694
747.746	0.0144097
747.825	0.0146310
747.903	0.0145725
747.981	0.0147641
748.059	0.0146465
748.137	0.0146556
748.215	0.0145581
748.293	0.0147497
748.371	0.0147832
748.450	0.0146098
748.528	0.0145947
748.606	0.0145649
748.684	0.0146611
748.762	0.0146297
748.840	0.0146535
748.918	0.0145537
748.996	0.0144178
749.075	0.0144984
749.153	0.0143979
749.231	0.0143610
749.309	0.0142644
749.387	0.0142594
749.465	0.0142548
749.543	0.0141549
749.621	0.0142834
749.700	0.0143738
749.778	0.0143196
749.856	0.0143275
749.934	0.0143550
750.012	0.0142855
750.090	0.0143680
750.168	0.0143372
750.246	0.0143711
750.325	0.0143835
750.403	0.0144778
750.481	0.0144572
750.559	0.0144483
750.637	0.0145858
750.715	0.0145647
750.793	0.0146581
750.871	0.0146508
750.950	0.0145678
751.028	0.0146006
751.106	0.0146073
751.184	0.0146878
751.262	0.0147079
751.340	0.0147402
751.418	0.0147529
751.496	0.0146573
751.575	0.0146483
751.653	0.0146553
751.731	0.0146327
751.809	0.0144460
751.887	0.0145988
751.965	0.0143986
752.043	0.0145724
752.121	0.0145670
752.200	0.0145090
752.278	0.0146118
752.356	0.0144570
752.434	0.0145747
752.512	0.0146398
752.590	0.0145997
752.668	0.0145285
752.746	0.0145718
752.825	0.0146355
752.903	0.0145478
752.981	0.0145705
753.059	0.0146082
753.137	0.0145650
753.215	0.0144540
753.293	0.0145094
753.371	0.0144634
753.450	0.0145174
753.528	0.0145913
753.606	0.0145532
753.684	0.0144388
753.762	0.0146721
753.840	0.0144675
753.918	0.0143386
753.996	0.0145107
754.075	0.0144639
754.153	0.0144257
754.231	0.0144803
754.309	0.0144509
754.387	0.0143739
754.465	0.0143817
754.543	0.0142978
754.621	0.0143399
754.700	0.0143202
754.778	0.0143787
754.856	0.0144921
754.934	0.0143382
755.012	0.0144228
755.090	0.0145264
755.168	0.0144798
755.246	0.0145714
755.325	0.0144335
755.403	0.0146638
755.481	0.0147763
755.559	0.0147116
755.637	0.0147295
755.715	0.0147983
755.793	0.0148235
755.871	0.0146489
755.950	0.0147736
756.028	0.0146105
756.106	0.0145969
756.184	0.0146188
756.262	0.0146616
756.340	0.0147173
756.418	0.0145546
756.496	0.0144229
756.575	0.0144622
756.653	0.0144102
756.731	0.0142872
756.809	0.0144872
756.887	0.0143569
756.965	0.0143795
757.043	0.0144280
757.121	0.0143919
757.200	0.0143874
757.278	0.0143713
757.356	0.0144430
757.434	0.0143894
757.512	0.0144596
757.590	0.0144840
757.668	0.0143111
757.746	0.0143089
757.825	0.0143707
757.903	0.0144595
757.981	0.0142537
758.059	0.0142375
758.137	0.0143222
758.215	0.0144585
758.293	0.0144028
758.371	0.0143126
758.450	0.0144363
758.528	0.0145065
758.606	0.0145425
758.684	0.0146879
758.762	0.0145272
758.840	0.0145039
758.918	0.0145783
758.996	0.0146734
759.075	0.0145603
759.153	0.0146225
759.231	0.0146274
759.309	0.0144034
759.387	0.0143719
759.465	0.0145065
759.543	0.0146259
759.621	0.0145309
759.700	0.0144345
759.778	0.0144841
759.856	0.0144810
759.934	0.0145183
760.012	0.0143967
760.090	0.0145084
760.168	0.0143787
760.246	0.0143871
760.325	0.0145090
760.403	0.0145399
760.481	0.0143958
760.559	0.0144170
760.637	0.0143451
760.715	0.0143037
760.793	0.0144373
760.871	0.0144109
760.950	0.0143932
761.028	0.0144605
761.106	0.0144449
761.184	0.0144755
761.262	0.0143005
761.340	0.0145242
761.418	0.0144562
761.496	0.0143595
761.575	0.0143874
761.653	0.0144385
761.731	0.0143925
761.809	0.0144263
761.887	0.0143766
761.965	0.0143423
762.043	0.0144085
762.121	0.0144205
762.200	0.0142549
762.278	0.0143927
762.356	0.0143554
762.434	0.0143500
762.512	0.0143577
762.590	0.0144893
762.668	0.0144104
762.746	0.0144089
762.825	0.0145603
762.903	0.0145695
762.981	0.0146230
763.059	0.0144360
763.137	0.0144701
763.215	0.0145569
763.293	0.0147556
763.371	0.0146951
763.450	0.0147107
763.528	0.0146578
763.606	0.0145944
763.684	0.0144480
763.762	0.0145354
763.840	0.0146304
763.918	0.0144790
763.996	0.0145589
764.075	0.0145269
764.153	0.0145463
764.231	0.0145015
764.309	0.0145025
764.387	0.0145816
764.465	0.0144833
764.543	0.0144079
764.621	0.0145255
764.700	0.0143925
