05/04/2022	21:19:28	Ver.	4.1	UNKNOWN
Optical Delay	678.996401	Delta X		0.078125	Sweeps	1	Scan Rate	0/0
Coordinates	Axis 1	NaN	Axis 2	NaN	Axis 3	NaN	Axis 4	NaN	Axis 5	NaN	Axis 6	0.000000
TX Power	0.000000	RX Power	0.000000

678.996	0.0146288
679.075	0.0143636
679.153	0.0143948
679.231	0.0145694
679.309	0.0144878
679.387	0.0144926
679.465	0.0144949
679.543	0.0146170
679.621	0.0147077
679.700	0.0146809
679.778	0.0146126
679.856	0.0147530
679.934	0.0146204
680.012	0.0147666
680.090	0.0146364
680.168	0.0145377
680.246	0.0145934
680.325	0.0146529
680.403	0.0145200
680.481	0.0145587
680.559	0.0146265
680.637	0.0146180
680.715	0.0146542
680.793	0.0146306
680.871	0.0147319
680.950	0.0148164
681.028	0.0147721
681.106	0.0148524
681.184	0.0148631
681.262	0.0148743
681.340	0.0148169
681.418	0.0149059
681.496	0.0149466
681.575	0.0147507
681.653	0.0146495
681.731	0.0144940
681.809	0.0144684
681.887	0.0145580
681.965	0.0144883
682.043	0.0143842
682.121	0.0143322
682.200	0.0144614
682.278	0.0143057
682.356	0.0143539
682.434	0.0146190
682.512	0.0145577
682.590	0.0146493
682.668	0.0147807
682.746	0.0146892
682.825	0.0146822
682.903	0.0147025
682.981	0.0148545
683.059	0.0148563
683.137	0.0148109
683.215	0.0148405
683.293	0.0148051
683.371	0.0147909
683.450	0.0148366
683.528	0.0148423
683.606	0.0148374
683.684	0.0148515
683.762	0.0147453
683.840	0.0146433
683.918	0.0147398
683.996	0.0145370
684.075	0.0146613
684.153	0.0146174
684.231	0.0145969
684.309	0.0145809
684.387	0.0144863
684.465	0.0146107
684.543	0.0145248
684.621	0.0145459
684.700	0.0145719
684.778	0.0145011
684.856	0.0145485
684.934	0.0146349
685.012	0.0145944
685.090	0.0146909
685.168	0.0147256
685.246	0.0147017
685.325	0.0147328
685.403	0.0146700
685.481	0.0147490
685.559	0.0147499
685.637	0.0146962
685.715	0.0147269
685.793	0.0146570
685.871	0.0147206
685.950	0.0147502
686.028	0.0147261
686.106	0.0146267
686.184	0.0145229
686.262	0.0144448
686.340	0.0145372
686.418	0.0144170
686.496	0.0143940
686.575	0.0146691
686.653	0.0145296
686.731	0.0144830
686.809	0.0146631
686.887	0.0146651
686.965	0.0145948
687.043	0.0147074
687.121	0.0146980
687.200	0.0147054
687.278	0.0146947
687.356	0.0146658
687.434	0.0147549
687.512	0.0147642
687.590	0.0145301
687.668	0.0146087
687.746	0.0145848
687.825	0.0145731
687.903	0.0146690
687.981	0.0144985
688.059	0.0145455
688.137	0.0145605
688.215	0.0145013
688.293	0.0145502
688.371	0.0145686
688.450	0.0144596
688.528	0.0144116
688.606	0.0144819
688.684	0.0145679
688.762	0.0144343
688.840	0.0145084
688.918	0.0145898
688.996	0.0146472
689.075	0.0145315
689.153	0.0144233
689.231	0.0145808
689.309	0.0146000
689.387	0.0146862
689.465	0.0148141
689.543	0.0146441
689.621	0.0147806
689.700	0.0146884
689.778	0.0146171
689.856	0.0146575
689.934	0.0148293
690.012	0.0148058
690.090	0.0147878
690.168	0.0147305
690.246	0.0146280
690.325	0.0146590
690.403	0.0144932
690.481	0.0144977
690.559	0.0144230
690.637	0.0144309
690.715	0.0144373
690.793	0.0143690
690.871	0.0144807
690.950	0.0144233
691.028	0.0144219
691.106	0.0144714
691.184	0.0145057
691.262	0.0145167
691.340	0.0145453
691.418	0.0147086
691.496	0.0146024
691.575	0.0146284
691.653	0.0145387
691.731	0.0145207
691.809	0.0145992
691.887	0.0146867
691.965	0.0145516
692.043	0.0146429
692.121	0.0146595
692.200	0.0146179
692.278	0.0144897
692.356	0.0145266
692.434	0.0147018
692.512	0.0147444
692.590	0.0146391
692.668	0.0146996
692.746	0.0147173
692.825	0.0146674
692.903	0.0146923
692.981	0.0147237
693.059	0.0146714
693.137	0.0146260
693.215	0.0144424
693.293	0.0146931
693.371	0.0145622
693.450	0.0144530
693.528	0.0143639
693.606	0.0145399
693.684	0.0144327
693.762	0.0144496
693.840	0.0145711
693.918	0.0146131
693.996	0.0147857
694.075	0.0147195
694.153	0.0147751
694.231	0.0146550
694.309	0.0146228
694.387	0.0147268
694.465	0.0147224
694.543	0.0145451
694.621	0.0146417
694.700	0.0146519
694.778	0.0144431
694.856	0.0144270
694.934	0.0144997
695.012	0.0144278
695.090	0.0144443
695.168	0.0144601
695.246	0.0145011
695.325	0.0145885
695.403	0.0145731
695.481	0.0149364
695.559	0.0148104
695.637	0.0146943
695.715	0.0147015
695.793	0.0146865
695.871	0.0147298
695.950	0.0145153
696.028	0.0145481
696.106	0.0146044
696.184	0.0146587
696.262	0.0145023
696.340	0.0144287
696.418	0.0144919
696.496	0.0144381
696.575	0.0144503
696.653	0.0143584
696.731	0.0144076
696.809	0.0146154
696.887	0.0146607
696.965	0.0147697
697.043	0.0148126
697.121	0.0148579
697.200	0.0149013
697.278	0.0150741
697.356	0.0149956
697.434	0.0148859
697.512	0.0147192
697.590	0.0145152
697.668	0.0142889
697.746	0.0143379
697.825	0.0142564
697.903	0.0142755
697.981	0.0141293
698.059	0.0143669
698.137	0.0144986
698.215	0.0144691
698.293	0.0147817
698.371	0.0148073
698.450	0.0149920
698.528	0.0149400
698.606	0.0148886
698.684	0.0148735
698.762	0.0146886
698.840	0.0145567
698.918	0.0144048
698.996	0.0143436
699.075	0.0141907
699.153	0.0143458
699.231	0.0142437
699.309	0.0143542
699.387	0.0143773
699.465	0.0145314
699.543	0.0146776
699.621	0.0146700
699.700	0.0146875
699.778	0.0147079
699.856	0.0149034
699.934	0.0150153
700.012	0.0150108
700.090	0.0151398
700.168	0.0151555
700.246	0.0152985
700.325	0.0152171
700.403	0.0151051
700.481	0.0148055
700.559	0.0145770
700.637	0.0142339
700.715	0.0140807
700.793	0.0138311
700.871	0.0138878
700.950	0.0137640
701.028	0.0138702
701.106	0.0142327
701.184	0.0144005
701.262	0.0149174
701.340	0.0151204
701.418	0.0153810
701.496	0.0155524
701.575	0.0155762
701.653	0.0156010
701.731	0.0154888
701.809	0.0151394
701.887	0.0148547
701.965	0.0145036
702.043	0.0143124
702.121	0.0141425
702.200	0.0139525
702.278	0.0138448
702.356	0.0138236
702.434	0.0138891
702.512	0.0142535
702.590	0.0143642
702.668	0.0144070
702.746	0.0146992
702.825	0.0149654
702.903	0.0151965
702.981	0.0152668
703.059	0.0152020
703.137	0.0152622
703.215	0.0152331
703.293	0.0150844
703.371	0.0150050
703.450	0.0147208
703.528	0.0145805
703.606	0.0143628
703.684	0.0140670
703.762	0.0140141
703.840	0.0138743
703.918	0.0136572
703.996	0.0136288
704.075	0.0137964
704.153	0.0141318
704.231	0.0143907
704.309	0.0146552
704.387	0.0147883
704.465	0.0152757
704.543	0.0153541
704.621	0.0154884
704.700	0.0155605
704.778	0.0155072
704.856	0.0153146
704.934	0.0151011
705.012	0.0147259
705.090	0.0146004
705.168	0.0143531
705.246	0.0142719
705.325	0.0139902
705.403	0.0139661
705.481	0.0142505
705.559	0.0142971
705.637	0.0144463
705.715	0.0143411
705.793	0.0144418
705.871	0.0145615
705.950	0.0146104
706.028	0.0144045
706.106	0.0147005
706.184	0.0147258
706.262	0.0149364
706.340	0.0150319
706.418	0.0149747
706.496	0.0150647
706.575	0.0150922
706.653	0.0148639
706.731	0.0148537
706.809	0.0149022
706.887	0.0146656
706.965	0.0145995
707.043	0.0144958
707.121	0.0144730
707.200	0.0145449
707.278	0.0144540
707.356	0.0146458
707.434	0.0145960
707.512	0.0147704
707.590	0.0147546
707.668	0.0148971
707.746	0.0149593
707.825	0.0149223
707.903	0.0146896
707.981	0.0145653
708.059	0.0144639
708.137	0.0144543
708.215	0.0144032
708.293	0.0144035
708.371	0.0144296
708.450	0.0143521
708.528	0.0143591
708.606	0.0145576
708.684	0.0144990
708.762	0.0143901
708.840	0.0144255
708.918	0.0144861
708.996	0.0144248
709.075	0.0146184
709.153	0.0146281
709.231	0.0148742
709.309	0.0150011
709.387	0.0150267
709.465	0.0149878
709.543	0.0150713
709.621	0.0151185
709.700	0.0152441
709.778	0.0152239
709.856	0.0151010
709.934	0.0149658
710.012	0.0148558
710.090	0.0147886
710.168	0.0144884
710.246	0.0142694
710.325	0.0141611
710.403	0.0140211
710.481	0.0138646
710.559	0.0137620
710.637	0.0138136
710.715	0.0139296
710.793	0.0139114
710.871	0.0138767
710.950	0.0141954
711.028	0.0143887
711.106	0.0146237
711.184	0.0148023
711.262	0.0150942
711.340	0.0153127
711.418	0.0152973
711.496	0.0152398
711.575	0.0152239
711.653	0.0152234
711.731	0.0150761
711.809	0.0147991
711.887	0.0148232
711.965	0.0144460
712.043	0.0144644
712.121	0.0140840
712.200	0.0140639
712.278	0.0140734
712.356	0.0139658
712.434	0.0140045
712.512	0.0140832
712.590	0.0140485
712.668	0.0140382
712.746	0.0141121
712.825	0.0142873
712.903	0.0143354
712.981	0.0145712
713.059	0.0147492
713.137	0.0149928
713.215	0.0151157
713.293	0.0154901
713.371	0.0154891
713.450	0.0155393
713.528	0.0155978
713.606	0.0153200
713.684	0.0151513
713.762	0.0148896
713.840	0.0145801
713.918	0.0142032
713.996	0.0139739
714.075	0.0138503
714.153	0.0136764
714.231	0.0135996
714.309	0.0137045
714.387	0.0138232
714.465	0.0141054
714.543	0.0143097
714.621	0.0144469
714.700	0.0146224
714.778	0.0148782
714.856	0.0149892
714.934	0.0151209
715.012	0.0151843
715.090	0.0151582
715.168	0.0152361
715.246	0.0149428
715.325	0.0149685
715.403	0.0148547
715.481	0.0146051
715.559	0.0144350
715.637	0.0143825
715.715	0.0141518
715.793	0.0139449
715.871	0.0138197
715.950	0.0140742
716.028	0.0141235
716.106	0.0141326
716.184	0.0142698
716.262	0.0144650
716.340	0.0143814
716.418	0.0143130
716.496	0.0144054
716.575	0.0144988
716.653	0.0145468
716.731	0.0146085
716.809	0.0147122
716.887	0.0147931
716.965	0.0148623
717.043	0.0151374
717.121	0.0151631
717.200	0.0152450
717.278	0.0152997
717.356	0.0152458
717.434	0.0152840
717.512	0.0151183
717.590	0.0148634
717.668	0.0148370
717.746	0.0147877
717.825	0.0146922
717.903	0.0146667
717.981	0.0146163
718.059	0.0144310
718.137	0.0141917
718.215	0.0141260
718.293	0.0141127
718.371	0.0140722
718.450	0.0140467
718.528	0.0139825
718.606	0.0141608
718.684	0.0142719
718.762	0.0142456
718.840	0.0146358
718.918	0.0145778
718.996	0.0146364
719.075	0.0147556
719.153	0.0146098
719.231	0.0149021
719.309	0.0150177
719.387	0.0149012
719.465	0.0147324
719.543	0.0146910
719.621	0.0149237
719.700	0.0149332
719.778	0.0146667
719.856	0.0146054
719.934	0.0146161
720.012	0.0146257
720.090	0.0145124
720.168	0.0145650
720.246	0.0146743
720.325	0.0146072
720.403	0.0145399
720.481	0.0147235
720.559	0.0146983
720.637	0.0146146
720.715	0.0148270
720.793	0.0147987
720.871	0.0148501
720.950	0.0147622
721.028	0.0146717
721.106	0.0147665
721.184	0.0148174
721.262	0.0147701
721.340	0.0147861
721.418	0.0148904
721.496	0.0149291
721.575	0.0148900
721.653	0.0148463
721.731	0.0147471
721.809	0.0149883
721.887	0.0148490
721.965	0.0149111
722.043	0.0147395
722.121	0.0146451
722.200	0.0146088
722.278	0.0145990
722.356	0.0144543
722.434	0.0143186
722.512	0.0140990
722.590	0.0141479
722.668	0.0138815
722.746	0.0137664
722.825	0.0138181
722.903	0.0138988
722.981	0.0141076
723.059	0.0144109
723.137	0.0143932
723.215	0.0146073
723.293	0.0147809
723.371	0.0150674
723.450	0.0151514
723.528	0.0152293
723.606	0.0152056
723.684	0.0151897
723.762	0.0150967
723.840	0.0150416
723.918	0.0149944
723.996	0.0148627
724.075	0.0144734
724.153	0.0144536
724.231	0.0145392
724.309	0.0144971
724.387	0.0144102
724.465	0.0145297
724.543	0.0146187
724.621	0.0145488
724.700	0.0146087
724.778	0.0146552
724.856	0.0147096
724.934	0.0146983
725.012	0.0147179
725.090	0.0148505
725.168	0.0147947
725.246	0.0145631
725.325	0.0146920
725.403	0.0147089
725.481	0.0147603
725.559	0.0145119
725.637	0.0146535
725.715	0.0147237
725.793	0.0146049
725.871	0.0147098
725.950	0.0147702
726.028	0.0147630
726.106	0.0146474
726.184	0.0147813
726.262	0.0144740
726.340	0.0145415
726.418	0.0145993
726.496	0.0144673
726.575	0.0144617
726.653	0.0145577
726.731	0.0142588
726.809	0.0142445
726.887	0.0143924
726.965	0.0142713
727.043	0.0142416
727.121	0.0142514
727.200	0.0143587
727.278	0.0144225
727.356	0.0144653
727.434	0.0146592
727.512	0.0147162
727.590	0.0146989
727.668	0.0147237
727.746	0.0148080
727.825	0.0148761
727.903	0.0149652
727.981	0.0148892
728.059	0.0146906
728.137	0.0147507
728.215	0.0148582
728.293	0.0146366
728.371	0.0147439
728.450	0.0148249
728.528	0.0146630
728.606	0.0147446
728.684	0.0147701
728.762	0.0146529
728.840	0.0146287
728.918	0.0145056
728.996	0.0143952
729.075	0.0144070
729.153	0.0143345
729.231	0.0143768
729.309	0.0143897
729.387	0.0143720
729.465	0.0144163
729.543	0.0142625
729.621	0.0142671
729.700	0.0143155
729.778	0.0143993
729.856	0.0146040
729.934	0.0145914
730.012	0.0148080
730.090	0.0147769
730.168	0.0148747
730.246	0.0150253
730.325	0.0148107
730.403	0.0148926
730.481	0.0148190
730.559	0.0147756
730.637	0.0146416
730.715	0.0146153
730.793	0.0145461
730.871	0.0145232
730.950	0.0145579
731.028	0.0145421
731.106	0.0143016
731.184	0.0143330
731.262	0.0144402
731.340	0.0143567
731.418	0.0145135
731.496	0.0146069
731.575	0.0146336
731.653	0.0145814
731.731	0.0144937
731.809	0.0147363
731.887	0.0148022
731.965	0.0148426
732.043	0.0148611
732.121	0.0147405
732.200	0.0148593
732.278	0.0147826
732.356	0.0146899
732.434	0.0145063
732.512	0.0144316
732.590	0.0144326
732.668	0.0144267
732.746	0.0143452
732.825	0.0143127
732.903	0.0142548
732.981	0.0142003
733.059	0.0142183
733.137	0.0143246
733.215	0.0142159
733.293	0.0143567
733.371	0.0142731
733.450	0.0142901
733.528	0.0145016
733.606	0.0145761
733.684	0.0145472
733.762	0.0146162
733.840	0.0146815
733.918	0.0147755
733.996	0.0148360
734.075	0.0147545
734.153	0.0148522
734.231	0.0150034
734.309	0.0148872
734.387	0.0149477
734.465	0.0149362
734.543	0.0147124
734.621	0.0145469
734.700	0.0145610
734.778	0.0145811
734.856	0.0144499
734.934	0.0145313
735.012	0.0144500
735.090	0.0145252
735.168	0.0145588
735.246	0.0145225
735.325	0.0145586
735.403	0.0145452
735.481	0.0145530
735.559	0.0145221
735.637	0.0146630
735.715	0.0147011
735.793	0.0145514
735.871	0.0147232
735.950	0.0147509
736.028	0.0145486
736.106	0.0146239
736.184	0.0146314
736.262	0.0147024
736.340	0.0145538
736.418	0.0144397
736.496	0.0144836
736.575	0.0143179
736.653	0.0144269
736.731	0.0145063
736.809	0.0143189
736.887	0.0143140
736.965	0.0142513
737.043	0.0141788
737.121	0.0142192
737.200	0.0142647
737.278	0.0143821
737.356	0.0143476
737.434	0.0145988
737.512	0.0145220
737.590	0.0144570
737.668	0.0145063
737.746	0.0146539
737.825	0.0147749
737.903	0.0146492
737.981	0.0147597
738.059	0.0147926
738.137	0.0148997
738.215	0.0150317
738.293	0.0148254
738.371	0.0150010
738.450	0.0149348
738.528	0.0146855
738.606	0.0147724
738.684	0.0148548
738.762	0.0146988
738.840	0.0146798
738.918	0.0147133
738.996	0.0147423
739.075	0.0145787
739.153	0.0146260
739.231	0.0146459
739.309	0.0144896
739.387	0.0146841
739.465	0.0147488
739.543	0.0147607
739.621	0.0147242
739.700	0.0146196
739.778	0.0145799
739.856	0.0145644
739.934	0.0145726
740.012	0.0146017
740.090	0.0145421
740.168	0.0144286
740.246	0.0145110
740.325	0.0144078
740.403	0.0145193
740.481	0.0145562
740.559	0.0146001
740.637	0.0143520
740.715	0.0142895
740.793	0.0145255
740.871	0.0145087
740.950	0.0145383
741.028	0.0146104
741.106	0.0145249
741.184	0.0146581
741.262	0.0145398
741.340	0.0145952
741.418	0.0146153
741.496	0.0146854
741.575	0.0146201
741.653	0.0145977
741.731	0.0146270
741.809	0.0146005
741.887	0.0147491
741.965	0.0146782
742.043	0.0146782
742.121	0.0145473
742.200	0.0146478
742.278	0.0145908
742.356	0.0145339
742.434	0.0146438
742.512	0.0145567
742.590	0.0146233
742.668	0.0145364
742.746	0.0145568
742.825	0.0147281
742.903	0.0148427
742.981	0.0148064
743.059	0.0147459
743.137	0.0148708
743.215	0.0148990
743.293	0.0149324
743.371	0.0148377
743.450	0.0148197
743.528	0.0148182
743.606	0.0149117
743.684	0.0148749
743.762	0.0147842
743.840	0.0147887
743.918	0.0146413
743.996	0.0145743
744.075	0.0146692
744.153	0.0146189
744.231	0.0145135
744.309	0.0145518
744.387	0.0144009
744.465	0.0144162
744.543	0.0144538
744.621	0.0145008
744.700	0.0144157
744.778	0.0143488
744.856	0.0143883
744.934	0.0145110
745.012	0.0144144
745.090	0.0143201
745.168	0.0145296
745.246	0.0143956
745.325	0.0144688
745.403	0.0145697
745.481	0.0145093
745.559	0.0144498
745.637	0.0144951
745.715	0.0143764
745.793	0.0145856
745.871	0.0144048
745.950	0.0146406
746.028	0.0146701
746.106	0.0146606
746.184	0.0147669
746.262	0.0147758
746.340	0.0145931
746.418	0.0147278
746.496	0.0147038
746.575	0.0148013
746.653	0.0147535
746.731	0.0145636
746.809	0.0145891
746.887	0.0145163
746.965	0.0145627
747.043	0.0144695
747.121	0.0146453
747.200	0.0146954
747.278	0.0143394
747.356	0.0145690
747.434	0.0146706
747.512	0.0147160
747.590	0.0146485
747.668	0.0145154
747.746	0.0147394
747.825	0.0146976
747.903	0.0146313
747.981	0.0147557
748.059	0.0147083
748.137	0.0145427
748.215	0.0146158
748.293	0.0147179
748.371	0.0145824
748.450	0.0146347
748.528	0.0146320
748.606	0.0145064
748.684	0.0145557
748.762	0.0145944
748.840	0.0145410
748.918	0.0144073
748.996	0.0143922
749.075	0.0143634
749.153	0.0144033
749.231	0.0143136
749.309	0.0142239
749.387	0.0144648
749.465	0.0142784
749.543	0.0143102
749.621	0.0143210
749.700	0.0144226
749.778	0.0144479
749.856	0.0144623
749.934	0.0143610
750.012	0.0144688
750.090	0.0144508
750.168	0.0145454
750.246	0.0145773
750.325	0.0146011
750.403	0.0147337
750.481	0.0148119
750.559	0.0148132
750.637	0.0148186
750.715	0.0149621
750.793	0.0149259
750.871	0.0146278
750.950	0.0148383
751.028	0.0148512
751.106	0.0147379
751.184	0.0147546
751.262	0.0146036
751.340	0.0147211
751.418	0.0147853
751.496	0.0146532
751.575	0.0147678
751.653	0.0146938
751.731	0.0145452
751.809	0.0147359
751.887	0.0146984
751.965	0.0145763
752.043	0.0144345
752.121	0.0145604
752.200	0.0146505
752.278	0.0145580
752.356	0.0145955
752.434	0.0145337
752.512	0.0145444
752.590	0.0145236
752.668	0.0144080
752.746	0.0144527
752.825	0.0143681
752.903	0.0144231
752.981	0.0144949
753.059	0.0143667
753.137	0.0144154
753.215	0.0144299
753.293	0.0142896
753.371	0.0143273
753.450	0.0144680
753.528	0.0143651
753.606	0.0143713
753.684	0.0145738
753.762	0.0145768
753.840	0.0144558
753.918	0.0144843
753.996	0.0145336
754.075	0.0144279
754.153	0.0144653
754.231	0.0145016
754.309	0.0145756
754.387	0.0144414
754.465	0.0145386
754.543	0.0144678
754.621	0.0145306
754.700	0.0145953
754.778	0.0145604
754.856	0.0147178
754.934	0.0145197
755.012	0.0145406
755.090	0.0146951
755.168	0.0146712
755.246	0.0147195
755.325	0.0148821
755.403	0.0147090
755.481	0.0148153
755.559	0.0148280
755.637	0.0147352
755.715	0.0148510
755.793	0.0148154
755.871	0.0147610
755.950	0.0148540
756.028	0.0145839
756.106	0.0147086
756.184	0.0146626
756.262	0.0144299
756.340	0.0146142
756.418	0.0144557
756.496	0.0145406
756.575	0.0145640
756.653	0.0145390
756.731	0.0143664
756.809	0.0143554
756.887	0.0144305
756.965	0.0144050
757.043	0.0143968
757.121	0.0143793
757.200	0.0143668
757.278	0.0143473
757.356	0.0143282
757.434	0.0144110
757.512	0.0144701
757.590	0.0144572
757.668	0.0144744
757.746	0.0145527
757.825	0.0146133
757.903	0.0146734
757.981	0.0145175
758.059	0.0145536
758.137	0.0145899
758.215	0.0145026
758.293	0.0146751
758.371	0.0146313
758.450	0.0146860
758.528	0.0148793
758.606	0.0147050
758.684	0.0147397
758.762	0.0148031
758.840	0.0147195
758.918	0.0147450
758.996	0.0148110
759.075	0.0145900
759.153	0.0146075
759.231	0.0148411
759.309	0.0146310
759.387	0.0147021
759.465	0.0146880
759.543	0.0146379
759.621	0.0145721
759.700	0.0147849
759.778	0.0146186
759.856	0.0146162
759.934	0.0145563
760.012	0.0145050
760.090	0.0144707
760.168	0.0144679
760.246	0.0144357
760.325	0.0144189
760.403	0.0143864
760.481	0.0145251
760.559	0.0145071
760.637	0.0144269
760.715	0.0145219
760.793	0.0144682
760.871	0.0145028
760.950	0.0145474
761.028	0.0145609
761.106	0.0146293
761.184	0.0145537
761.262	0.0145113
761.340	0.0145383
761.418	0.0145010
761.496	0.0146015
761.575	0.0146553
761.653	0.0145150
761.731	0.0144917
761.809	0.0145322
761.887	0.0145607
761.965	0.0145293
762.043	0.0144978
762.121	0.0145744
762.200	0.0146973
762.278	0.0145111
762.356	0.0146555
762.434	0.0146692
762.512	0.0146864
762.590	0.0147178
762.668	0.0147500
762.746	0.0148199
762.825	0.0148632
762.903	0.0147962
762.981	0.0148228
763.059	0.0149939
763.137	0.0148918
763.215	0.0148302
763.293	0.0149110
763.371	0.0148622
763.450	0.0147688
763.528	0.0148723
763.606	0.0147612
763.684	0.0148441
763.762	0.0147906
763.840	0.0147172
763.918	0.0147971
763.996	0.0146683
764.075	0.0144996
764.153	0.0145678
764.231	0.0146220
764.309	0.0143946
764.387	0.0144513
764.465	0.0145576
764.543	0.0145460
764.621	0.0144608
764.700	0.0145294
