05/04/2022	21:20:03	Ver.	4.1	UNKNOWN
Optical Delay	678.996401	Delta X		0.078125	Sweeps	1	Scan Rate	0/0
Coordinates	Axis 1	NaN	Axis 2	NaN	Axis 3	NaN	Axis 4	NaN	Axis 5	NaN	Axis 6	0.000000
TX Power	0.000000	RX Power	0.000000

678.996	0.0145797
679.075	0.0145740
679.153	0.0147360
679.231	0.0146410
679.309	0.0144707
679.387	0.0144965
679.465	0.0143470
679.543	0.0142618
679.621	0.0143112
679.700	0.0142908
679.778	0.0141722
679.856	0.0141886
679.934	0.0143118
680.012	0.0143034
680.090	0.0143711
680.168	0.0145237
680.246	0.0145039
680.325	0.0144411
680.403	0.0145689
680.481	0.0146808
680.559	0.0147290
680.637	0.0146810
680.715	0.0145865
680.793	0.0148189
680.871	0.0146745
680.950	0.0146925
681.028	0.0146349
681.106	0.0147202
681.184	0.0145978
681.262	0.0146269
681.340	0.0146603
681.418	0.0145995
681.496	0.0145771
681.575	0.0144948
681.653	0.0144917
681.731	0.0145576
681.809	0.0144781
681.887	0.0144696
681.965	0.0143943
682.043	0.0143748
682.121	0.0144639
682.200	0.0145016
682.278	0.0146459
682.356	0.0146439
682.434	0.0144892
682.512	0.0146420
682.590	0.0146050
682.668	0.0146869
682.746	0.0145760
682.825	0.0145740
682.903	0.0146181
682.981	0.0147375
683.059	0.0145927
683.137	0.0145892
683.215	0.0145143
683.293	0.0145619
683.371	0.0146172
683.450	0.0143826
683.528	0.0146341
683.606	0.0144858
683.684	0.0145673
683.762	0.0144765
683.840	0.0144061
683.918	0.0144807
683.996	0.0145355
684.075	0.0144061
684.153	0.0143887
684.231	0.0144987
684.309	0.0145364
684.387	0.0145018
684.465	0.0146857
684.543	0.0146169
684.621	0.0146236
684.700	0.0145123
684.778	0.0146193
684.856	0.0146933
684.934	0.0146842
685.012	0.0146548
685.090	0.0147125
685.168	0.0145963
685.246	0.0145859
685.325	0.0146774
685.403	0.0145602
685.481	0.0144247
685.559	0.0146262
685.637	0.0144878
685.715	0.0145058
685.793	0.0144836
685.871	0.0144064
685.950	0.0144342
686.028	0.0144006
686.106	0.0144823
686.184	0.0144976
686.262	0.0144783
686.340	0.0144668
686.418	0.0144198
686.496	0.0144859
686.575	0.0144629
686.653	0.0144231
686.731	0.0145476
686.809	0.0146283
686.887	0.0144981
686.965	0.0146642
687.043	0.0147052
687.121	0.0146580
687.200	0.0147672
687.278	0.0146132
687.356	0.0146365
687.434	0.0146560
687.512	0.0147329
687.590	0.0146349
687.668	0.0147635
687.746	0.0147232
687.825	0.0146985
687.903	0.0146812
687.981	0.0145925
688.059	0.0146986
688.137	0.0145755
688.215	0.0146940
688.293	0.0146239
688.371	0.0145250
688.450	0.0145210
688.528	0.0145734
688.606	0.0146043
688.684	0.0144260
688.762	0.0145449
688.840	0.0146845
688.918	0.0145509
688.996	0.0145779
689.075	0.0145202
689.153	0.0145161
689.231	0.0147957
689.309	0.0145555
689.387	0.0147341
689.465	0.0146835
689.543	0.0147224
689.621	0.0146518
689.700	0.0145583
689.778	0.0146946
689.856	0.0146106
689.934	0.0146474
690.012	0.0147772
690.090	0.0147089
690.168	0.0146703
690.246	0.0146812
690.325	0.0147353
690.403	0.0146916
690.481	0.0146124
690.559	0.0144850
690.637	0.0144635
690.715	0.0146326
690.793	0.0145722
690.871	0.0144392
690.950	0.0145213
691.028	0.0144178
691.106	0.0145207
691.184	0.0144070
691.262	0.0144673
691.340	0.0144365
691.418	0.0145303
691.496	0.0147298
691.575	0.0143782
691.653	0.0145747
691.731	0.0145934
691.809	0.0147008
691.887	0.0145689
691.965	0.0145082
692.043	0.0146423
692.121	0.0147417
692.200	0.0147510
692.278	0.0146122
692.356	0.0145578
692.434	0.0145776
692.512	0.0145164
692.590	0.0145262
692.668	0.0146320
692.746	0.0146068
692.825	0.0145616
692.903	0.0145400
692.981	0.0144209
693.059	0.0145834
693.137	0.0145522
693.215	0.0145404
693.293	0.0144519
693.371	0.0146113
693.450	0.0147369
693.528	0.0146107
693.606	0.0145538
693.684	0.0146479
693.762	0.0145898
693.840	0.0146808
693.918	0.0145469
693.996	0.0144337
694.075	0.0145859
694.153	0.0143162
694.231	0.0144134
694.309	0.0145375
694.387	0.0143545
694.465	0.0145258
694.543	0.0147015
694.621	0.0146934
694.700	0.0147837
694.778	0.0146231
694.856	0.0147119
694.934	0.0146656
695.012	0.0146973
695.090	0.0147504
695.168	0.0146387
695.246	0.0146630
695.325	0.0146317
695.403	0.0145365
695.481	0.0143490
695.559	0.0144814
695.637	0.0141534
695.715	0.0140866
695.793	0.0141647
695.871	0.0141373
695.950	0.0141908
696.028	0.0143551
696.106	0.0143597
696.184	0.0143952
696.262	0.0147199
696.340	0.0148318
696.418	0.0149924
696.496	0.0151119
696.575	0.0151939
696.653	0.0151243
696.731	0.0150891
696.809	0.0149814
696.887	0.0149334
696.965	0.0146720
697.043	0.0144054
697.121	0.0143426
697.200	0.0142165
697.278	0.0141560
697.356	0.0141424
697.434	0.0140608
697.512	0.0142272
697.590	0.0142602
697.668	0.0145111
697.746	0.0146559
697.825	0.0147506
697.903	0.0149999
697.981	0.0149152
698.059	0.0150787
698.137	0.0148694
698.215	0.0147641
698.293	0.0147077
698.371	0.0145013
698.450	0.0143700
698.528	0.0143181
698.606	0.0142168
698.684	0.0140207
698.762	0.0140567
698.840	0.0141132
698.918	0.0142275
698.996	0.0142504
699.075	0.0144714
699.153	0.0146243
699.231	0.0146954
699.309	0.0147681
699.387	0.0151316
699.465	0.0152312
699.543	0.0154570
699.621	0.0155046
699.700	0.0154890
699.778	0.0154704
699.856	0.0152763
699.934	0.0151851
700.012	0.0146239
700.090	0.0142973
700.168	0.0140050
700.246	0.0137361
700.325	0.0134409
700.403	0.0133581
700.481	0.0134795
700.559	0.0135241
700.637	0.0139009
700.715	0.0139570
700.793	0.0144651
700.871	0.0149279
700.950	0.0151720
701.028	0.0153396
701.106	0.0155661
701.184	0.0154892
701.262	0.0154842
701.340	0.0154127
701.418	0.0151511
701.496	0.0148438
701.575	0.0146420
701.653	0.0142763
701.731	0.0140134
701.809	0.0139629
701.887	0.0137817
701.965	0.0137182
702.043	0.0138178
702.121	0.0140942
702.200	0.0142069
702.278	0.0142487
702.356	0.0146477
702.434	0.0147399
702.512	0.0148431
702.590	0.0150603
702.668	0.0152118
702.746	0.0151962
702.825	0.0151520
702.903	0.0151923
702.981	0.0149290
703.059	0.0149081
703.137	0.0148557
703.215	0.0144600
703.293	0.0143255
703.371	0.0139817
703.450	0.0139039
703.528	0.0138482
703.606	0.0136526
703.684	0.0137186
703.762	0.0137976
703.840	0.0138829
703.918	0.0141270
703.996	0.0146291
704.075	0.0146735
704.153	0.0150322
704.231	0.0150851
704.309	0.0151305
704.387	0.0151577
704.465	0.0151384
704.543	0.0150297
704.621	0.0146629
704.700	0.0144896
704.778	0.0144160
704.856	0.0144456
704.934	0.0144758
705.012	0.0143704
705.090	0.0142232
705.168	0.0143345
705.246	0.0144077
705.325	0.0144753
705.403	0.0145032
705.481	0.0145537
705.559	0.0143509
705.637	0.0143583
705.715	0.0145795
705.793	0.0144555
705.871	0.0144685
705.950	0.0146096
706.028	0.0147099
706.106	0.0148006
706.184	0.0146981
706.262	0.0146900
706.340	0.0146433
706.418	0.0144275
706.496	0.0143782
706.575	0.0143920
706.653	0.0143443
706.731	0.0140895
706.809	0.0142702
706.887	0.0143964
706.965	0.0145950
707.043	0.0146925
707.121	0.0147544
707.200	0.0148829
707.278	0.0150594
707.356	0.0150994
707.434	0.0148898
707.512	0.0148672
707.590	0.0148190
707.668	0.0147345
707.746	0.0146614
707.825	0.0145444
707.903	0.0145644
707.981	0.0144906
708.059	0.0146021
708.137	0.0144047
708.215	0.0144160
708.293	0.0143066
708.371	0.0142880
708.450	0.0141296
708.528	0.0140692
708.606	0.0141738
708.684	0.0139999
708.762	0.0141789
708.840	0.0144653
708.918	0.0146344
708.996	0.0147511
709.075	0.0150973
709.153	0.0152728
709.231	0.0154803
709.309	0.0156158
709.387	0.0156656
709.465	0.0154809
709.543	0.0154296
709.621	0.0151968
709.700	0.0151379
709.778	0.0147514
709.856	0.0144682
709.934	0.0141273
710.012	0.0140067
710.090	0.0138140
710.168	0.0137141
710.246	0.0136051
710.325	0.0136018
710.403	0.0136338
710.481	0.0137677
710.559	0.0138763
710.637	0.0138631
710.715	0.0140723
710.793	0.0143608
710.871	0.0144029
710.950	0.0145338
711.028	0.0149745
711.106	0.0151371
711.184	0.0152685
711.262	0.0152843
711.340	0.0153777
711.418	0.0154343
711.496	0.0154706
711.575	0.0153767
711.653	0.0151839
711.731	0.0150467
711.809	0.0150055
711.887	0.0149250
711.965	0.0145488
712.043	0.0143398
712.121	0.0140718
712.200	0.0138776
712.278	0.0137855
712.356	0.0136282
712.434	0.0134835
712.512	0.0137390
712.590	0.0139023
712.668	0.0140260
712.746	0.0141427
712.825	0.0145910
712.903	0.0149486
712.981	0.0150132
713.059	0.0154552
713.137	0.0153053
713.215	0.0154415
713.293	0.0153765
713.371	0.0153622
713.450	0.0151208
713.528	0.0148690
713.606	0.0146072
713.684	0.0145145
713.762	0.0142905
713.840	0.0143041
713.918	0.0140970
713.996	0.0140166
714.075	0.0140135
714.153	0.0141094
714.231	0.0140898
714.309	0.0141391
714.387	0.0142867
714.465	0.0144061
714.543	0.0145101
714.621	0.0144534
714.700	0.0146451
714.778	0.0146789
714.856	0.0147910
714.934	0.0149223
715.012	0.0149049
715.090	0.0148105
715.168	0.0150897
715.246	0.0149150
715.325	0.0148712
715.403	0.0148093
715.481	0.0148798
715.559	0.0148823
715.637	0.0149499
715.715	0.0148307
715.793	0.0147208
715.871	0.0146430
715.950	0.0144898
716.028	0.0142414
716.106	0.0142650
716.184	0.0141527
716.262	0.0140952
716.340	0.0141108
716.418	0.0142519
716.496	0.0142920
716.575	0.0143339
716.653	0.0147322
716.731	0.0145654
716.809	0.0145699
716.887	0.0147070
716.965	0.0148944
717.043	0.0149148
717.121	0.0148917
717.200	0.0149982
717.278	0.0149417
717.356	0.0149097
717.434	0.0148698
717.512	0.0148221
717.590	0.0148009
717.668	0.0146961
717.746	0.0146037
717.825	0.0144423
717.903	0.0143757
717.981	0.0142924
718.059	0.0141849
718.137	0.0141587
718.215	0.0141678
718.293	0.0142268
718.371	0.0140540
718.450	0.0141387
718.528	0.0141695
718.606	0.0142412
718.684	0.0142197
718.762	0.0144219
718.840	0.0144969
718.918	0.0146460
718.996	0.0145026
719.075	0.0146131
719.153	0.0147305
719.231	0.0148112
719.309	0.0147366
719.387	0.0148037
719.465	0.0148037
719.543	0.0147665
719.621	0.0148061
719.700	0.0147784
719.778	0.0148051
719.856	0.0148357
719.934	0.0147308
720.012	0.0147390
720.090	0.0147363
720.168	0.0146841
720.246	0.0145796
720.325	0.0145578
720.403	0.0144569
720.481	0.0144441
720.559	0.0143526
720.637	0.0143430
720.715	0.0143961
720.793	0.0142562
720.871	0.0143632
720.950	0.0145244
721.028	0.0145551
721.106	0.0146098
721.184	0.0146477
721.262	0.0147208
721.340	0.0147849
721.418	0.0148692
721.496	0.0149213
721.575	0.0147472
721.653	0.0146252
721.731	0.0147464
721.809	0.0145953
721.887	0.0143988
721.965	0.0143578
722.043	0.0141979
722.121	0.0141169
722.200	0.0139392
722.278	0.0138578
722.356	0.0138557
722.434	0.0136950
722.512	0.0138863
722.590	0.0139362
722.668	0.0140206
722.746	0.0142581
722.825	0.0144849
722.903	0.0146813
722.981	0.0148486
723.059	0.0149400
723.137	0.0150527
723.215	0.0151012
723.293	0.0150984
723.371	0.0150483
723.450	0.0149818
723.528	0.0149369
723.606	0.0148324
723.684	0.0148820
723.762	0.0148074
723.840	0.0146627
723.918	0.0148175
723.996	0.0147611
724.075	0.0146660
724.153	0.0146057
724.231	0.0145509
724.309	0.0144544
724.387	0.0143549
724.465	0.0142954
724.543	0.0142989
724.621	0.0143645
724.700	0.0142029
724.778	0.0141906
724.856	0.0141275
724.934	0.0140730
725.012	0.0141688
725.090	0.0141338
725.168	0.0145173
725.246	0.0145845
725.325	0.0146709
725.403	0.0146998
725.481	0.0148907
725.559	0.0148985
725.637	0.0149010
725.715	0.0149564
725.793	0.0150340
725.871	0.0148345
725.950	0.0149236
726.028	0.0147122
726.106	0.0146952
726.184	0.0146095
726.262	0.0143702
726.340	0.0143259
726.418	0.0141807
726.496	0.0141663
726.575	0.0138684
726.653	0.0138965
726.731	0.0140748
726.809	0.0141566
726.887	0.0140665
726.965	0.0142036
727.043	0.0144175
727.121	0.0143703
727.200	0.0145382
727.278	0.0146651
727.356	0.0146056
727.434	0.0146605
727.512	0.0147834
727.590	0.0146584
727.668	0.0148236
727.746	0.0150325
727.825	0.0147135
727.903	0.0146967
727.981	0.0147114
728.059	0.0148232
728.137	0.0147799
728.215	0.0147420
728.293	0.0147001
728.371	0.0146697
728.450	0.0146974
728.528	0.0146024
728.606	0.0147318
728.684	0.0145631
728.762	0.0144653
728.840	0.0143948
728.918	0.0143581
728.996	0.0142412
729.075	0.0141646
729.153	0.0141936
729.231	0.0143276
729.309	0.0142520
729.387	0.0143785
729.465	0.0144468
729.543	0.0144855
729.621	0.0143913
729.700	0.0147114
729.778	0.0146893
729.856	0.0149368
729.934	0.0151492
730.012	0.0150931
730.090	0.0151110
730.168	0.0150526
730.246	0.0152694
730.325	0.0150227
730.403	0.0150238
730.481	0.0149280
730.559	0.0149368
730.637	0.0147409
730.715	0.0144321
730.793	0.0144488
730.871	0.0144164
730.950	0.0143176
731.028	0.0142840
731.106	0.0142387
731.184	0.0140546
731.262	0.0141780
731.340	0.0143528
731.418	0.0144418
731.496	0.0144717
731.575	0.0145554
731.653	0.0147373
731.731	0.0148593
731.809	0.0146763
731.887	0.0148252
731.965	0.0148006
732.043	0.0148777
732.121	0.0148251
732.200	0.0147651
732.278	0.0148025
732.356	0.0146037
732.434	0.0145998
732.512	0.0145644
732.590	0.0145065
732.668	0.0143560
732.746	0.0143223
732.825	0.0142839
732.903	0.0143061
732.981	0.0142095
733.059	0.0143807
733.137	0.0142725
733.215	0.0144002
733.293	0.0145477
733.371	0.0145590
733.450	0.0145728
733.528	0.0146461
733.606	0.0147148
733.684	0.0148767
733.762	0.0149254
733.840	0.0148899
733.918	0.0147944
733.996	0.0147375
734.075	0.0146365
734.153	0.0146310
734.231	0.0146291
734.309	0.0147777
734.387	0.0145601
734.465	0.0145375
734.543	0.0145285
734.621	0.0145251
734.700	0.0145554
734.778	0.0147689
734.856	0.0147005
734.934	0.0146921
735.012	0.0146079
735.090	0.0147424
735.168	0.0145942
735.246	0.0146207
735.325	0.0145364
735.403	0.0145686
735.481	0.0146233
735.559	0.0146025
735.637	0.0144950
735.715	0.0144879
735.793	0.0144675
735.871	0.0146425
735.950	0.0145517
736.028	0.0144785
736.106	0.0145264
736.184	0.0145293
736.262	0.0143452
736.340	0.0144061
736.418	0.0145383
736.496	0.0143620
736.575	0.0145105
736.653	0.0144174
736.731	0.0143151
736.809	0.0144279
736.887	0.0143195
736.965	0.0142651
737.043	0.0144148
737.121	0.0144488
737.200	0.0143238
737.278	0.0143739
737.356	0.0145622
737.434	0.0146313
737.512	0.0145786
737.590	0.0147136
737.668	0.0147659
737.746	0.0147543
737.825	0.0148293
737.903	0.0148497
737.981	0.0148695
738.059	0.0150990
738.137	0.0150214
738.215	0.0147757
738.293	0.0147487
738.371	0.0146365
738.450	0.0146063
738.528	0.0144885
738.606	0.0144125
738.684	0.0144418
738.762	0.0143671
738.840	0.0142891
738.918	0.0143420
738.996	0.0144893
739.075	0.0143274
739.153	0.0144730
739.231	0.0146222
739.309	0.0143745
739.387	0.0144066
739.465	0.0146558
739.543	0.0145568
739.621	0.0144715
739.700	0.0146449
739.778	0.0146603
739.856	0.0145469
739.934	0.0145792
740.012	0.0145969
740.090	0.0144195
740.168	0.0145668
740.246	0.0144550
740.325	0.0145287
740.403	0.0143954
740.481	0.0142975
740.559	0.0142636
740.637	0.0142820
740.715	0.0144062
740.793	0.0142754
740.871	0.0143886
740.950	0.0144356
741.028	0.0143425
741.106	0.0144276
741.184	0.0144631
741.262	0.0145105
741.340	0.0146129
741.418	0.0145116
741.496	0.0145406
741.575	0.0145411
741.653	0.0145694
741.731	0.0145766
741.809	0.0147281
741.887	0.0145876
741.965	0.0147128
742.043	0.0144653
742.121	0.0146120
742.200	0.0147681
742.278	0.0146314
742.356	0.0145897
742.434	0.0146725
742.512	0.0144295
742.590	0.0144424
742.668	0.0146342
742.746	0.0146101
742.825	0.0146036
742.903	0.0144083
742.981	0.0145844
743.059	0.0146148
743.137	0.0145457
743.215	0.0144740
743.293	0.0144764
743.371	0.0143106
743.450	0.0144241
743.528	0.0144648
743.606	0.0145454
743.684	0.0144690
743.762	0.0145104
743.840	0.0144273
743.918	0.0144088
743.996	0.0143209
744.075	0.0144232
744.153	0.0145101
744.231	0.0145226
744.309	0.0146372
744.387	0.0144279
744.465	0.0144846
744.543	0.0145737
744.621	0.0145284
744.700	0.0143716
744.778	0.0143461
744.856	0.0144590
744.934	0.0145850
745.012	0.0144279
745.090	0.0143458
745.168	0.0143627
745.246	0.0144685
745.325	0.0145081
745.403	0.0146075
745.481	0.0144270
745.559	0.0145531
745.637	0.0145506
745.715	0.0145741
745.793	0.0147239
745.871	0.0147402
745.950	0.0148167
746.028	0.0147265
746.106	0.0148445
746.184	0.0148232
746.262	0.0147232
746.340	0.0146169
746.418	0.0146770
746.496	0.0147706
746.575	0.0146996
746.653	0.0147680
746.731	0.0146929
746.809	0.0146122
746.887	0.0146963
746.965	0.0146447
747.043	0.0144859
747.121	0.0147301
747.200	0.0147200
747.278	0.0146787
747.356	0.0146265
747.434	0.0145888
747.512	0.0146137
747.590	0.0146368
747.668	0.0145516
747.746	0.0145490
747.825	0.0145950
747.903	0.0145565
747.981	0.0144465
748.059	0.0145921
748.137	0.0144232
748.215	0.0144252
748.293	0.0146085
748.371	0.0144397
748.450	0.0144261
748.528	0.0145954
748.606	0.0145960
748.684	0.0145820
748.762	0.0144798
748.840	0.0143277
748.918	0.0142950
748.996	0.0142753
749.075	0.0143498
749.153	0.0142382
749.231	0.0144980
749.309	0.0144482
749.387	0.0144560
749.465	0.0143265
749.543	0.0144138
749.621	0.0144249
749.700	0.0145827
749.778	0.0146964
749.856	0.0145915
749.934	0.0145075
750.012	0.0146263
750.090	0.0146584
750.168	0.0147312
750.246	0.0146355
750.325	0.0146380
750.403	0.0147166
750.481	0.0147244
750.559	0.0147318
750.637	0.0146620
750.715	0.0147514
750.793	0.0147110
750.871	0.0146518
750.950	0.0147199
751.028	0.0147655
751.106	0.0147701
751.184	0.0147559
751.262	0.0147751
751.340	0.0148186
751.418	0.0147717
751.496	0.0146557
751.575	0.0147118
751.653	0.0146607
751.731	0.0147522
751.809	0.0146925
751.887	0.0145989
751.965	0.0146503
752.043	0.0146867
752.121	0.0145430
752.200	0.0145778
752.278	0.0146185
752.356	0.0144544
752.434	0.0145091
752.512	0.0144657
752.590	0.0145406
752.668	0.0144967
752.746	0.0144405
752.825	0.0144657
752.903	0.0144457
752.981	0.0143977
753.059	0.0143210
753.137	0.0143253
753.215	0.0145303
753.293	0.0144805
753.371	0.0145256
753.450	0.0145417
753.528	0.0145767
753.606	0.0146245
753.684	0.0146231
753.762	0.0146291
753.840	0.0147463
753.918	0.0146887
753.996	0.0147328
754.075	0.0146732
754.153	0.0145847
754.231	0.0146839
754.309	0.0146162
754.387	0.0146712
754.465	0.0146502
754.543	0.0145483
754.621	0.0146418
754.700	0.0145792
754.778	0.0146529
754.856	0.0146824
754.934	0.0145643
755.012	0.0145908
755.090	0.0145914
755.168	0.0145781
755.246	0.0146168
755.325	0.0145236
755.403	0.0145859
755.481	0.0146194
755.559	0.0146446
755.637	0.0144904
755.715	0.0145342
755.793	0.0146867
755.871	0.0145271
755.950	0.0145017
756.028	0.0146107
756.106	0.0144765
756.184	0.0143356
756.262	0.0143633
756.340	0.0146693
756.418	0.0143298
756.496	0.0142715
756.575	0.0143454
756.653	0.0145003
756.731	0.0144164
756.809	0.0144317
756.887	0.0144991
756.965	0.0143801
757.043	0.0144382
757.121	0.0145353
757.200	0.0144501
757.278	0.0144368
757.356	0.0144572
757.434	0.0144872
757.512	0.0144893
757.590	0.0144936
757.668	0.0144276
757.746	0.0144534
757.825	0.0146627
757.903	0.0145937
757.981	0.0147130
758.059	0.0145728
758.137	0.0146446
758.215	0.0146342
758.293	0.0147381
758.371	0.0147181
758.450	0.0145004
758.528	0.0147845
758.606	0.0148065
758.684	0.0147434
758.762	0.0147625
758.840	0.0147707
758.918	0.0147307
758.996	0.0147710
759.075	0.0146484
759.153	0.0145991
759.231	0.0148341
759.309	0.0146171
759.387	0.0145760
759.465	0.0145112
759.543	0.0145842
759.621	0.0144357
759.700	0.0145129
759.778	0.0145834
759.856	0.0144562
759.934	0.0145769
760.012	0.0144682
760.090	0.0144599
760.168	0.0145412
760.246	0.0145164
760.325	0.0144470
760.403	0.0144379
760.481	0.0144920
760.559	0.0145409
760.637	0.0145240
760.715	0.0144997
760.793	0.0145374
760.871	0.0144776
760.950	0.0146115
761.028	0.0144796
761.106	0.0145999
761.184	0.0145330
761.262	0.0145289
761.340	0.0144785
761.418	0.0144768
761.496	0.0145319
761.575	0.0145878
761.653	0.0145225
761.731	0.0144802
761.809	0.0145298
761.887	0.0145021
761.965	0.0144398
762.043	0.0145677
762.121	0.0146065
762.200	0.0145237
762.278	0.0145647
762.356	0.0145463
762.434	0.0145616
762.512	0.0147195
762.590	0.0147409
762.668	0.0147321
762.746	0.0146729
762.825	0.0146735
762.903	0.0146909
762.981	0.0148203
763.059	0.0147014
763.137	0.0146046
763.215	0.0145612
763.293	0.0145488
763.371	0.0146090
763.450	0.0147303
763.528	0.0146468
763.606	0.0144958
763.684	0.0144527
763.762	0.0144708
763.840	0.0145459
763.918	0.0142399
763.996	0.0144222
764.075	0.0146024
764.153	0.0144305
764.231	0.0144567
764.309	0.0144553
764.387	0.0145892
764.465	0.0144102
764.543	0.0143449
764.621	0.0143456
764.700	0.0144768
