05/04/2022	20:48:56	Ver.	4.1	UNKNOWN
Optical Delay	679.003072	Delta X		0.078125	Sweeps	1	Scan Rate	0/0
Coordinates	Axis 1	NaN	Axis 2	NaN	Axis 3	NaN	Axis 4	NaN	Axis 5	NaN	Axis 6	0.000000
TX Power	0.000000	RX Power	0.000000

679.003	0.0140900
679.081	0.0141044
679.159	0.0141634
679.237	0.0141645
679.316	0.0142265
679.394	0.0141448
679.472	0.0140891
679.550	0.0141232
679.628	0.0140966
679.706	0.0141131
679.784	0.0140927
679.862	0.0139552
679.941	0.0140821
680.019	0.0139747
680.097	0.0141511
680.175	0.0140762
680.253	0.0141549
680.331	0.0140324
680.409	0.0140902
680.487	0.0140739
680.566	0.0141403
680.644	0.0139974
680.722	0.0139578
680.800	0.0140298
680.878	0.0141258
680.956	0.0140145
681.034	0.0140163
681.112	0.0140304
681.191	0.0139881
681.269	0.0141019
681.347	0.0140904
681.425	0.0139363
681.503	0.0140186
681.581	0.0141126
681.659	0.0140456
681.737	0.0140105
681.816	0.0141054
681.894	0.0140080
681.972	0.0140606
682.050	0.0141025
682.128	0.0140951
682.206	0.0142001
682.284	0.0140396
682.362	0.0139775
682.441	0.0140485
682.519	0.0140906
682.597	0.0140596
682.675	0.0141294
682.753	0.0140965
682.831	0.0139989
682.909	0.0140520
682.987	0.0140169
683.066	0.0139398
683.144	0.0140293
683.222	0.0140540
683.300	0.0141507
683.378	0.0141457
683.456	0.0140932
683.534	0.0140320
683.612	0.0140740
683.691	0.0140599
683.769	0.0140496
683.847	0.0140565
683.925	0.0140043
684.003	0.0141709
684.081	0.0141351
684.159	0.0140665
684.237	0.0139866
684.316	0.0140005
684.394	0.0140202
684.472	0.0139634
684.550	0.0141370
684.628	0.0141073
684.706	0.0140736
684.784	0.0140921
684.862	0.0139336
684.941	0.0139923
685.019	0.0141285
685.097	0.0141393
685.175	0.0141329
685.253	0.0140536
685.331	0.0140652
685.409	0.0139712
685.487	0.0141225
685.566	0.0141572
685.644	0.0140580
685.722	0.0139778
685.800	0.0141407
685.878	0.0140708
685.956	0.0139788
686.034	0.0140274
686.112	0.0140496
686.191	0.0141393
686.269	0.0140444
686.347	0.0140833
686.425	0.0139413
686.503	0.0140141
686.581	0.0140569
686.659	0.0141987
686.737	0.0140051
686.816	0.0141400
686.894	0.0141338
686.972	0.0140420
687.050	0.0140541
687.128	0.0140781
687.206	0.0141004
687.284	0.0139993
687.362	0.0140358
687.441	0.0140392
687.519	0.0140779
687.597	0.0139907
687.675	0.0139134
687.753	0.0141069
687.831	0.0140649
687.909	0.0141186
687.987	0.0140987
688.066	0.0141370
688.144	0.0141422
688.222	0.0139792
688.300	0.0142036
688.378	0.0140179
688.456	0.0139960
688.534	0.0141408
688.612	0.0140415
688.691	0.0140829
688.769	0.0140429
688.847	0.0141383
688.925	0.0140476
689.003	0.0139921
689.081	0.0141235
689.159	0.0140539
689.237	0.0140205
689.316	0.0140199
689.394	0.0141696
689.472	0.0140129
689.550	0.0141704
689.628	0.0139886
689.706	0.0140051
689.784	0.0141157
689.862	0.0140867
689.941	0.0141887
690.019	0.0140181
690.097	0.0141422
690.175	0.0140064
690.253	0.0140363
690.331	0.0141194
690.409	0.0141338
690.487	0.0139898
690.566	0.0140054
690.644	0.0141276
690.722	0.0140121
690.800	0.0141699
690.878	0.0140410
690.956	0.0140672
691.034	0.0139540
691.112	0.0141014
691.191	0.0139109
691.269	0.0139520
691.347	0.0140084
691.425	0.0140066
691.503	0.0139725
691.581	0.0142415
691.659	0.0140626
691.737	0.0141117
691.816	0.0140335
691.894	0.0141091
691.972	0.0140934
692.050	0.0140327
692.128	0.0140302
692.206	0.0141329
692.284	0.0139783
692.362	0.0140179
692.441	0.0138808
692.519	0.0140133
692.597	0.0141022
692.675	0.0140304
692.753	0.0141151
692.831	0.0140173
692.909	0.0140804
692.987	0.0140280
693.066	0.0141148
693.144	0.0140218
693.222	0.0139957
693.300	0.0141801
693.378	0.0139822
693.456	0.0140342
693.534	0.0141071
693.612	0.0140874
693.691	0.0140637
693.769	0.0141309
693.847	0.0140562
693.925	0.0140755
694.003	0.0140211
694.081	0.0140287
694.159	0.0139878
694.237	0.0141738
694.316	0.0141681
694.394	0.0141525
694.472	0.0141609
694.550	0.0140853
694.628	0.0140939
694.706	0.0140648
694.784	0.0141383
694.862	0.0140887
694.941	0.0140585
695.019	0.0141271
695.097	0.0141305
695.175	0.0141219
695.253	0.0140772
695.331	0.0140504
695.409	0.0140044
695.487	0.0140111
695.566	0.0141298
695.644	0.0140126
695.722	0.0140300
695.800	0.0141330
695.878	0.0140318
695.956	0.0141152
696.034	0.0141565
696.112	0.0141743
696.191	0.0141133
696.269	0.0140501
696.347	0.0140999
696.425	0.0140416
696.503	0.0141153
696.581	0.0140617
696.659	0.0140185
696.737	0.0140635
696.816	0.0141055
696.894	0.0140617
696.972	0.0140800
697.050	0.0140386
697.128	0.0141283
697.206	0.0140244
697.284	0.0141688
697.362	0.0140672
697.441	0.0141776
697.519	0.0141327
697.597	0.0141414
697.675	0.0141634
697.753	0.0140244
697.831	0.0141074
697.909	0.0140936
697.987	0.0139658
698.066	0.0141576
698.144	0.0141685
698.222	0.0141724
698.300	0.0140366
698.378	0.0140252
698.456	0.0141403
698.534	0.0140951
698.612	0.0140311
698.691	0.0140919
698.769	0.0140656
698.847	0.0142452
698.925	0.0141182
699.003	0.0141150
699.081	0.0141267
699.159	0.0140492
699.237	0.0141125
699.316	0.0142263
699.394	0.0139675
699.472	0.0141633
699.550	0.0141082
699.628	0.0139557
699.706	0.0140279
699.784	0.0140200
699.862	0.0140823
699.941	0.0140591
700.019	0.0141633
700.097	0.0140309
700.175	0.0140493
700.253	0.0140978
700.331	0.0139872
700.409	0.0141492
700.487	0.0141956
700.566	0.0141126
700.644	0.0142006
700.722	0.0141387
700.800	0.0140581
700.878	0.0141246
700.956	0.0140889
701.034	0.0139906
701.112	0.0142267
701.191	0.0140803
701.269	0.0140379
701.347	0.0139779
701.425	0.0140685
701.503	0.0140347
701.581	0.0140700
701.659	0.0140034
701.737	0.0140717
701.816	0.0140162
701.894	0.0140951
701.972	0.0142268
702.050	0.0140295
702.128	0.0139666
702.206	0.0139461
702.284	0.0139729
702.362	0.0139611
702.441	0.0139845
702.519	0.0141883
702.597	0.0140540
702.675	0.0138023
702.753	0.0139512
702.831	0.0141119
702.909	0.0141437
702.987	0.0141169
703.066	0.0140228
703.144	0.0140426
703.222	0.0142769
703.300	0.0140459
703.378	0.0140003
703.456	0.0139558
703.534	0.0140659
703.612	0.0139414
703.691	0.0139619
703.769	0.0141359
703.847	0.0140049
703.925	0.0142275
704.003	0.0140437
704.081	0.0141043
704.159	0.0141510
704.237	0.0140075
704.316	0.0140225
704.394	0.0140932
704.472	0.0140490
704.550	0.0140427
704.628	0.0139918
704.706	0.0140743
704.784	0.0139566
704.862	0.0140012
704.941	0.0139732
705.019	0.0140067
705.097	0.0140131
705.175	0.0140190
705.253	0.0139748
705.331	0.0141262
705.409	0.0140533
705.487	0.0141666
705.566	0.0140823
705.644	0.0140356
705.722	0.0140753
705.800	0.0139790
705.878	0.0142074
705.956	0.0141002
706.034	0.0141132
706.112	0.0139771
706.191	0.0139037
706.269	0.0140819
706.347	0.0141867
706.425	0.0141164
706.503	0.0140505
706.581	0.0140034
706.659	0.0139321
706.737	0.0140726
706.816	0.0141718
706.894	0.0141468
706.972	0.0141337
707.050	0.0140996
707.128	0.0141213
707.206	0.0141866
707.284	0.0140782
707.362	0.0141145
707.441	0.0141482
707.519	0.0140554
707.597	0.0141179
707.675	0.0140565
707.753	0.0140880
707.831	0.0141260
707.909	0.0141546
707.987	0.0141085
708.066	0.0140116
708.144	0.0139790
708.222	0.0140437
708.300	0.0139475
708.378	0.0139642
708.456	0.0140504
708.534	0.0140698
708.612	0.0140262
708.691	0.0140290
708.769	0.0141462
708.847	0.0140470
708.925	0.0140171
709.003	0.0139333
709.081	0.0141464
709.159	0.0139011
709.237	0.0139258
709.316	0.0139793
709.394	0.0140411
709.472	0.0140283
709.550	0.0141021
709.628	0.0140678
709.706	0.0140115
709.784	0.0140772
709.862	0.0140166
709.941	0.0139700
710.019	0.0140676
710.097	0.0140829
710.175	0.0140516
710.253	0.0140067
710.331	0.0138660
710.409	0.0140142
710.487	0.0141510
710.566	0.0141187
710.644	0.0140305
710.722	0.0140354
710.800	0.0141022
710.878	0.0140662
710.956	0.0140102
711.034	0.0140684
711.112	0.0141446
711.191	0.0140415
711.269	0.0140302
711.347	0.0140569
711.425	0.0142209
711.503	0.0141882
711.581	0.0141216
711.659	0.0141247
711.737	0.0140798
711.816	0.0141568
711.894	0.0143308
711.972	0.0142036
712.050	0.0140709
712.128	0.0140105
712.206	0.0139980
712.284	0.0140837
712.362	0.0142785
712.441	0.0140281
712.519	0.0140717
712.597	0.0141036
712.675	0.0142331
712.753	0.0140847
712.831	0.0139392
712.909	0.0143163
712.987	0.0141076
713.066	0.0141150
713.144	0.0140170
713.222	0.0140494
713.300	0.0141310
713.378	0.0143204
713.456	0.0141846
713.534	0.0142123
713.612	0.0141229
713.691	0.0141779
713.769	0.0141743
713.847	0.0141172
713.925	0.0140604
714.003	0.0141453
714.081	0.0139719
714.159	0.0141264
714.237	0.0142010
714.316	0.0141832
714.394	0.0140672
714.472	0.0142592
714.550	0.0143506
714.628	0.0142191
714.706	0.0141821
714.784	0.0143082
714.862	0.0143201
714.941	0.0141377
715.019	0.0141290
715.097	0.0140187
715.175	0.0140737
715.253	0.0139657
715.331	0.0140179
715.409	0.0139806
715.487	0.0137941
715.566	0.0139024
715.644	0.0138843
715.722	0.0138881
715.800	0.0139210
715.878	0.0139265
715.956	0.0139675
716.034	0.0139384
716.112	0.0139414
716.191	0.0139795
716.269	0.0139906
716.347	0.0140560
716.425	0.0142310
716.503	0.0142403
716.581	0.0141778
716.659	0.0141853
716.737	0.0141608
716.816	0.0140662
716.894	0.0139462
716.972	0.0139050
717.050	0.0136958
717.128	0.0137034
717.206	0.0138142
717.284	0.0138735
717.362	0.0137439
717.441	0.0138905
717.519	0.0138159
717.597	0.0140315
717.675	0.0140763
717.753	0.0140366
717.831	0.0141936
717.909	0.0141300
717.987	0.0140026
718.066	0.0140637
718.144	0.0140800
718.222	0.0140544
718.300	0.0138761
718.378	0.0138680
718.456	0.0137169
718.534	0.0137354
718.612	0.0136902
718.691	0.0136873
718.769	0.0138803
718.847	0.0140204
718.925	0.0139184
719.003	0.0141159
719.081	0.0141994
719.159	0.0143423
719.237	0.0143877
719.316	0.0144236
719.394	0.0146010
719.472	0.0144755
719.550	0.0145007
719.628	0.0145323
719.706	0.0145642
719.784	0.0145226
719.862	0.0143835
719.941	0.0140860
720.019	0.0141233
720.097	0.0141068
720.175	0.0139843
720.253	0.0138918
720.331	0.0137256
720.409	0.0138517
720.487	0.0137670
720.566	0.0138505
720.644	0.0139327
720.722	0.0138136
720.800	0.0140177
720.878	0.0140177
720.956	0.0140453
721.034	0.0140211
721.112	0.0141742
721.191	0.0141524
721.269	0.0140575
721.347	0.0139996
721.425	0.0139216
721.503	0.0138943
721.581	0.0138185
721.659	0.0137376
721.737	0.0136619
721.816	0.0136729
721.894	0.0138120
721.972	0.0138982
722.050	0.0138518
722.128	0.0140412
722.206	0.0141578
722.284	0.0140924
722.362	0.0142909
722.441	0.0142933
722.519	0.0143589
722.597	0.0143449
722.675	0.0145322
722.753	0.0144272
722.831	0.0143636
722.909	0.0142319
722.987	0.0141734
723.066	0.0141294
723.144	0.0141019
723.222	0.0139434
723.300	0.0140883
723.378	0.0139885
723.456	0.0140024
723.534	0.0139427
723.612	0.0139399
723.691	0.0139877
723.769	0.0140153
723.847	0.0140326
723.925	0.0141746
724.003	0.0141700
724.081	0.0142001
724.159	0.0141208
724.237	0.0142932
724.316	0.0143407
724.394	0.0143000
724.472	0.0141901
724.550	0.0143057
724.628	0.0142685
724.706	0.0141550
724.784	0.0143307
724.862	0.0143007
724.941	0.0142399
725.019	0.0142456
725.097	0.0141344
725.175	0.0140694
725.253	0.0140723
725.331	0.0140926
725.409	0.0140886
725.487	0.0140871
725.566	0.0139969
725.644	0.0142590
725.722	0.0141931
725.800	0.0142471
725.878	0.0141592
725.956	0.0142392
726.034	0.0143239
726.112	0.0141808
726.191	0.0141044
726.269	0.0142254
726.347	0.0141594
726.425	0.0139111
726.503	0.0138657
726.581	0.0140836
726.659	0.0136874
726.737	0.0137698
726.816	0.0137823
726.894	0.0136507
726.972	0.0136607
727.050	0.0137878
727.128	0.0137476
727.206	0.0138035
727.284	0.0137636
727.362	0.0139637
727.441	0.0140614
727.519	0.0140955
727.597	0.0140181
727.675	0.0142093
727.753	0.0142847
727.831	0.0141717
727.909	0.0142914
727.987	0.0142182
728.066	0.0142074
728.144	0.0142091
728.222	0.0141931
728.300	0.0142241
728.378	0.0140692
728.456	0.0141068
728.534	0.0141849
728.612	0.0140524
728.691	0.0139393
728.769	0.0137589
728.847	0.0139203
728.925	0.0141361
729.003	0.0140540
729.081	0.0139420
729.159	0.0141103
729.237	0.0140950
729.316	0.0141065
729.394	0.0141835
729.472	0.0143148
729.550	0.0142344
729.628	0.0141911
729.706	0.0142251
729.784	0.0142828
729.862	0.0141648
729.941	0.0142139
730.019	0.0143036
730.097	0.0140744
730.175	0.0141350
730.253	0.0141504
730.331	0.0141145
730.409	0.0142222
730.487	0.0141010
730.566	0.0142684
730.644	0.0141273
730.722	0.0142075
730.800	0.0140986
730.878	0.0141625
730.956	0.0141172
731.034	0.0141857
731.112	0.0141515
731.191	0.0140694
731.269	0.0141480
731.347	0.0139732
731.425	0.0140843
731.503	0.0141273
731.581	0.0138484
731.659	0.0139630
731.737	0.0139165
731.816	0.0138700
731.894	0.0139342
731.972	0.0140561
732.050	0.0139368
732.128	0.0138807
732.206	0.0138718
732.284	0.0139455
732.362	0.0139259
732.441	0.0139926
732.519	0.0137944
732.597	0.0139024
732.675	0.0139933
732.753	0.0140129
732.831	0.0140240
732.909	0.0139648
732.987	0.0139351
733.066	0.0137798
733.144	0.0138689
733.222	0.0139920
733.300	0.0138612
733.378	0.0138186
733.456	0.0138631
733.534	0.0139658
733.612	0.0139378
733.691	0.0139599
733.769	0.0141183
733.847	0.0140794
733.925	0.0141702
734.003	0.0141384
734.081	0.0141519
734.159	0.0142866
734.237	0.0141491
734.316	0.0142877
734.394	0.0143546
734.472	0.0142799
734.550	0.0144151
734.628	0.0143044
734.706	0.0142601
734.784	0.0142902
734.862	0.0140378
734.941	0.0140304
735.019	0.0141467
735.097	0.0139656
735.175	0.0140891
735.253	0.0140685
735.331	0.0141222
735.409	0.0139922
735.487	0.0140376
735.566	0.0140120
735.644	0.0139437
735.722	0.0140924
735.800	0.0141570
735.878	0.0140044
735.956	0.0140058
736.034	0.0141791
736.112	0.0142139
736.191	0.0141102
736.269	0.0141468
736.347	0.0143056
736.425	0.0142354
736.503	0.0142999
736.581	0.0142928
736.659	0.0142667
736.737	0.0142302
736.816	0.0141263
736.894	0.0141774
736.972	0.0141207
737.050	0.0139962
737.128	0.0139904
737.206	0.0139261
737.284	0.0139219
737.362	0.0138271
737.441	0.0140212
737.519	0.0139342
737.597	0.0138531
737.675	0.0139923
737.753	0.0138355
737.831	0.0139158
737.909	0.0139544
737.987	0.0139236
738.066	0.0139309
738.144	0.0140567
738.222	0.0141350
738.300	0.0140924
738.378	0.0140798
738.456	0.0142086
738.534	0.0141315
738.612	0.0140727
738.691	0.0141000
738.769	0.0140733
738.847	0.0140364
738.925	0.0139619
739.003	0.0140723
739.081	0.0141045
739.159	0.0140817
739.237	0.0140186
739.316	0.0140404
739.394	0.0140048
739.472	0.0139742
739.550	0.0141187
739.628	0.0139104
739.706	0.0140572
739.784	0.0140408
739.862	0.0141171
739.941	0.0141220
740.019	0.0141109
740.097	0.0142130
740.175	0.0142564
740.253	0.0142500
740.331	0.0142017
740.409	0.0141053
740.487	0.0141471
740.566	0.0142365
740.644	0.0141471
740.722	0.0141468
740.800	0.0141804
740.878	0.0142939
740.956	0.0141824
741.034	0.0141233
741.112	0.0141505
741.191	0.0142152
741.269	0.0140636
741.347	0.0140064
741.425	0.0141286
741.503	0.0141990
741.581	0.0139911
741.659	0.0139050
741.737	0.0139723
741.816	0.0138969
741.894	0.0137539
741.972	0.0137988
742.050	0.0139073
742.128	0.0138562
742.206	0.0138931
742.284	0.0139198
742.362	0.0139312
742.441	0.0139798
742.519	0.0141074
742.597	0.0140966
742.675	0.0140842
742.753	0.0141054
742.831	0.0140884
742.909	0.0142098
742.987	0.0141533
743.066	0.0141348
743.144	0.0142429
743.222	0.0142612
743.300	0.0141615
743.378	0.0141891
743.456	0.0141692
743.534	0.0141969
743.612	0.0141534
743.691	0.0142072
743.769	0.0140523
743.847	0.0141673
743.925	0.0141807
744.003	0.0140868
744.081	0.0140407
744.159	0.0140804
744.237	0.0139445
744.316	0.0140224
744.394	0.0141983
744.472	0.0141173
744.550	0.0139434
744.628	0.0140356
744.706	0.0140504
744.784	0.0140221
744.862	0.0140665
744.941	0.0140279
745.019	0.0141856
745.097	0.0140557
745.175	0.0139893
745.253	0.0140992
745.331	0.0140745
745.409	0.0142006
745.487	0.0141898
745.566	0.0142366
745.644	0.0141383
745.722	0.0140784
745.800	0.0141787
745.878	0.0141657
745.956	0.0141928
746.034	0.0141576
746.112	0.0141454
746.191	0.0141431
746.269	0.0140650
746.347	0.0140845
746.425	0.0141870
746.503	0.0140848
746.581	0.0140877
746.659	0.0141324
746.737	0.0142342
746.816	0.0140305
746.894	0.0141474
746.972	0.0141628
747.050	0.0142027
747.128	0.0141675
747.206	0.0141795
747.284	0.0140884
747.362	0.0140840
747.441	0.0140343
747.519	0.0140379
747.597	0.0138758
747.675	0.0139731
747.753	0.0141109
747.831	0.0141606
747.909	0.0140292
747.987	0.0139015
748.066	0.0140216
748.144	0.0140207
748.222	0.0140691
748.300	0.0140484
748.378	0.0141644
748.456	0.0141006
748.534	0.0141084
748.612	0.0141430
748.691	0.0140961
748.769	0.0141299
748.847	0.0141438
748.925	0.0143024
749.003	0.0142668
749.081	0.0140479
749.159	0.0142178
749.237	0.0141048
749.316	0.0142342
749.394	0.0142598
749.472	0.0140990
749.550	0.0140524
749.628	0.0141859
749.706	0.0140387
749.784	0.0139178
749.862	0.0141245
749.941	0.0139964
750.019	0.0140438
750.097	0.0138785
750.175	0.0140137
750.253	0.0139580
750.331	0.0140176
750.409	0.0140409
750.487	0.0141277
750.566	0.0139947
750.644	0.0140993
750.722	0.0141711
750.800	0.0140510
750.878	0.0139928
750.956	0.0140343
751.034	0.0140177
751.112	0.0141675
751.191	0.0139857
751.269	0.0139866
751.347	0.0140812
751.425	0.0141006
751.503	0.0142493
751.581	0.0141268
751.659	0.0141341
751.737	0.0140499
751.816	0.0141617
751.894	0.0141732
751.972	0.0141837
752.050	0.0139394
752.128	0.0141103
752.206	0.0140995
752.284	0.0139917
752.362	0.0140147
752.441	0.0139601
752.519	0.0139491
752.597	0.0139009
752.675	0.0141952
752.753	0.0141132
752.831	0.0141637
752.909	0.0140670
752.987	0.0140302
753.066	0.0140975
753.144	0.0141587
753.222	0.0141394
753.300	0.0141883
753.378	0.0140801
753.456	0.0141408
753.534	0.0141403
753.612	0.0142075
753.691	0.0141211
753.769	0.0141959
753.847	0.0141392
753.925	0.0141302
754.003	0.0140334
754.081	0.0140947
754.159	0.0141335
754.237	0.0138204
754.316	0.0140971
754.394	0.0140239
754.472	0.0142119
754.550	0.0141524
754.628	0.0140235
754.706	0.0141530
754.784	0.0140403
754.862	0.0141071
754.941	0.0142114
755.019	0.0140813
755.097	0.0140714
755.175	0.0141564
755.253	0.0141782
755.331	0.0140731
755.409	0.0140610
755.487	0.0140123
755.566	0.0140455
755.644	0.0141994
755.722	0.0141024
755.800	0.0140549
755.878	0.0141785
755.956	0.0141055
756.034	0.0142491
756.112	0.0141223
756.191	0.0142113
756.269	0.0141672
756.347	0.0141267
756.425	0.0140626
756.503	0.0141174
756.581	0.0139715
756.659	0.0140121
756.737	0.0140521
756.816	0.0142448
756.894	0.0140864
756.972	0.0141068
757.050	0.0140563
757.128	0.0139980
757.206	0.0139627
757.284	0.0140163
757.362	0.0140742
757.441	0.0139553
757.519	0.0140959
757.597	0.0140841
757.675	0.0139465
757.753	0.0140648
757.831	0.0139297
757.909	0.0141140
757.987	0.0140205
758.066	0.0140340
758.144	0.0141000
758.222	0.0141351
758.300	0.0141348
758.378	0.0139587
758.456	0.0140858
758.534	0.0140557
758.612	0.0139697
758.691	0.0142508
758.769	0.0140739
758.847	0.0140794
758.925	0.0141024
759.003	0.0142149
759.081	0.0143290
759.159	0.0142026
759.237	0.0142522
759.316	0.0140594
759.394	0.0140492
759.472	0.0139628
759.550	0.0141159
759.628	0.0142224
759.706	0.0140351
759.784	0.0140342
759.862	0.0140757
759.941	0.0139698
760.019	0.0141353
760.097	0.0139478
760.175	0.0141041
760.253	0.0139795
760.331	0.0140121
760.409	0.0142242
760.487	0.0141591
760.566	0.0141106
760.644	0.0139465
760.722	0.0140086
760.800	0.0140648
760.878	0.0140823
760.956	0.0142150
761.034	0.0142536
761.112	0.0140012
761.191	0.0140392
761.269	0.0139481
761.347	0.0140379
761.425	0.0140549
761.503	0.0140188
761.581	0.0139589
761.659	0.0140092
761.737	0.0139996
761.816	0.0139004
761.894	0.0141203
761.972	0.0140200
762.050	0.0140446
762.128	0.0139845
762.206	0.0140459
762.284	0.0141399
762.362	0.0140799
762.441	0.0139428
762.519	0.0140869
762.597	0.0139819
762.675	0.0139925
762.753	0.0138932
762.831	0.0140021
762.909	0.0141174
762.987	0.0139596
763.066	0.0141259
763.144	0.0139930
763.222	0.0139767
763.300	0.0141297
763.378	0.0141899
763.456	0.0140034
763.534	0.0139584
763.612	0.0140173
763.691	0.0141045
763.769	0.0141021
763.847	0.0141862
763.925	0.0140963
764.003	0.0140767
764.081	0.0139680
764.159	0.0140312
764.237	0.0140839
764.316	0.0140976
764.394	0.0140862
764.472	0.0140709
764.550	0.0140847
764.628	0.0140647
764.706	0.0142237
