05/04/2022	21:20:28	Ver.	4.1	UNKNOWN
Optical Delay	678.996401	Delta X		0.078125	Sweeps	1	Scan Rate	0/0
Coordinates	Axis 1	NaN	Axis 2	NaN	Axis 3	NaN	Axis 4	NaN	Axis 5	NaN	Axis 6	0.000000
TX Power	0.000000	RX Power	0.000000

678.996	0.0147505
679.075	0.0144825
679.153	0.0146673
679.231	0.0147449
679.309	0.0147679
679.387	0.0147173
679.465	0.0147649
679.543	0.0147008
679.621	0.0147559
679.700	0.0149947
679.778	0.0149249
679.856	0.0148775
679.934	0.0146857
680.012	0.0148055
680.090	0.0147961
680.168	0.0148936
680.246	0.0147701
680.325	0.0145827
680.403	0.0147442
680.481	0.0147015
680.559	0.0146873
680.637	0.0145895
680.715	0.0146984
680.793	0.0144650
680.871	0.0144254
680.950	0.0145975
681.028	0.0146539
681.106	0.0145898
681.184	0.0145658
681.262	0.0146159
681.340	0.0144505
681.418	0.0146618
681.496	0.0145096
681.575	0.0145996
681.653	0.0145497
681.731	0.0148043
681.809	0.0147729
681.887	0.0146819
681.965	0.0147842
682.043	0.0146979
682.121	0.0147654
682.200	0.0146957
682.278	0.0146893
682.356	0.0146255
682.434	0.0147196
682.512	0.0146637
682.590	0.0146059
682.668	0.0147123
682.746	0.0145299
682.825	0.0145386
682.903	0.0147005
682.981	0.0146863
683.059	0.0146965
683.137	0.0147031
683.215	0.0146279
683.293	0.0146513
683.371	0.0148011
683.450	0.0147672
683.528	0.0148488
683.606	0.0149452
683.684	0.0149015
683.762	0.0148948
683.840	0.0149905
683.918	0.0147607
683.996	0.0148181
684.075	0.0149113
684.153	0.0148823
684.231	0.0147380
684.309	0.0149130
684.387	0.0148282
684.465	0.0148612
684.543	0.0147572
684.621	0.0147845
684.700	0.0146471
684.778	0.0147256
684.856	0.0146903
684.934	0.0146896
685.012	0.0146496
685.090	0.0146809
685.168	0.0145962
685.246	0.0146096
685.325	0.0145554
685.403	0.0145660
685.481	0.0146702
685.559	0.0144946
685.637	0.0146399
685.715	0.0147022
685.793	0.0147057
685.871	0.0148019
685.950	0.0147490
686.028	0.0148070
686.106	0.0147326
686.184	0.0148562
686.262	0.0148946
686.340	0.0148284
686.418	0.0147626
686.496	0.0149091
686.575	0.0148521
686.653	0.0148055
686.731	0.0146552
686.809	0.0148341
686.887	0.0148079
686.965	0.0147739
687.043	0.0147513
687.121	0.0146204
687.200	0.0146619
687.278	0.0147617
687.356	0.0147355
687.434	0.0146945
687.512	0.0145541
687.590	0.0147241
687.668	0.0146949
687.746	0.0146563
687.825	0.0146809
687.903	0.0147618
687.981	0.0146251
688.059	0.0145992
688.137	0.0145476
688.215	0.0144874
688.293	0.0148481
688.371	0.0146831
688.450	0.0147228
688.528	0.0147408
688.606	0.0147576
688.684	0.0147694
688.762	0.0147872
688.840	0.0149008
688.918	0.0150392
688.996	0.0148309
689.075	0.0148701
689.153	0.0148078
689.231	0.0147766
689.309	0.0148119
689.387	0.0148143
689.465	0.0146592
689.543	0.0147245
689.621	0.0146529
689.700	0.0148921
689.778	0.0145503
689.856	0.0146440
689.934	0.0146967
690.012	0.0145059
690.090	0.0144501
690.168	0.0146354
690.246	0.0146022
690.325	0.0145224
690.403	0.0147018
690.481	0.0147255
690.559	0.0147211
690.637	0.0147559
690.715	0.0147626
690.793	0.0147605
690.871	0.0147044
690.950	0.0146736
691.028	0.0147993
691.106	0.0147533
691.184	0.0148608
691.262	0.0147649
691.340	0.0147742
691.418	0.0149094
691.496	0.0148546
691.575	0.0147308
691.653	0.0146880
691.731	0.0148012
691.809	0.0148155
691.887	0.0146275
691.965	0.0147709
692.043	0.0147282
692.121	0.0146526
692.200	0.0146738
692.278	0.0147620
692.356	0.0148211
692.434	0.0146212
692.512	0.0145848
692.590	0.0147586
692.668	0.0146475
692.746	0.0146371
692.825	0.0146162
692.903	0.0146459
692.981	0.0147128
693.059	0.0148214
693.137	0.0148067
693.215	0.0148316
693.293	0.0148772
693.371	0.0146952
693.450	0.0148161
693.528	0.0147283
693.606	0.0148141
693.684	0.0147797
693.762	0.0146574
693.840	0.0144959
693.918	0.0144460
693.996	0.0146047
694.075	0.0145275
694.153	0.0146171
694.231	0.0146407
694.309	0.0146727
694.387	0.0147366
694.465	0.0146062
694.543	0.0147442
694.621	0.0148758
694.700	0.0148536
694.778	0.0147546
694.856	0.0149137
694.934	0.0148366
695.012	0.0148952
695.090	0.0149567
695.168	0.0147805
695.246	0.0147394
695.325	0.0147686
695.403	0.0146722
695.481	0.0144675
695.559	0.0145092
695.637	0.0144611
695.715	0.0143043
695.793	0.0144071
695.871	0.0144746
695.950	0.0145370
696.028	0.0147128
696.106	0.0148119
696.184	0.0150038
696.262	0.0151619
696.340	0.0151833
696.418	0.0151229
696.496	0.0152044
696.575	0.0150550
696.653	0.0150693
696.731	0.0147745
696.809	0.0147273
696.887	0.0144251
696.965	0.0142123
697.043	0.0141776
697.121	0.0140434
697.200	0.0140215
697.278	0.0140073
697.356	0.0142355
697.434	0.0143638
697.512	0.0145461
697.590	0.0147610
697.668	0.0147533
697.746	0.0148702
697.825	0.0150121
697.903	0.0152376
697.981	0.0151002
698.059	0.0150670
698.137	0.0148465
698.215	0.0147637
698.293	0.0146367
698.371	0.0145782
698.450	0.0142517
698.528	0.0142809
698.606	0.0140729
698.684	0.0141595
698.762	0.0141712
698.840	0.0142260
698.918	0.0142375
698.996	0.0143218
699.075	0.0146543
699.153	0.0147829
699.231	0.0150219
699.309	0.0152577
699.387	0.0153536
699.465	0.0155141
699.543	0.0155611
699.621	0.0155292
699.700	0.0155969
699.778	0.0151846
699.856	0.0148734
699.934	0.0147115
700.012	0.0142281
700.090	0.0139626
700.168	0.0137136
700.246	0.0135603
700.325	0.0134449
700.403	0.0136186
700.481	0.0136292
700.559	0.0139022
700.637	0.0141421
700.715	0.0145404
700.793	0.0148962
700.871	0.0152164
700.950	0.0154951
701.028	0.0155202
701.106	0.0157226
701.184	0.0158593
701.262	0.0157982
701.340	0.0154426
701.418	0.0150607
701.496	0.0149438
701.575	0.0145389
701.653	0.0142465
701.731	0.0139792
701.809	0.0139681
701.887	0.0139078
701.965	0.0139123
702.043	0.0140021
702.121	0.0142033
702.200	0.0142312
702.278	0.0144939
702.356	0.0146956
702.434	0.0150867
702.512	0.0151089
702.590	0.0153868
702.668	0.0154603
702.746	0.0154229
702.825	0.0154568
702.903	0.0153988
702.981	0.0153704
703.059	0.0152567
703.137	0.0148202
703.215	0.0147746
703.293	0.0145026
703.371	0.0142786
703.450	0.0139828
703.528	0.0138591
703.606	0.0139653
703.684	0.0139985
703.762	0.0141194
703.840	0.0144571
703.918	0.0146883
703.996	0.0147926
704.075	0.0151425
704.153	0.0152937
704.231	0.0152254
704.309	0.0151470
704.387	0.0152701
704.465	0.0151280
704.543	0.0150395
704.621	0.0148262
704.700	0.0147314
704.778	0.0145609
704.856	0.0145466
704.934	0.0145231
705.012	0.0146182
705.090	0.0146060
705.168	0.0146170
705.246	0.0147821
705.325	0.0147765
705.403	0.0147005
705.481	0.0147903
705.559	0.0148872
705.637	0.0149281
705.715	0.0147903
705.793	0.0147999
705.871	0.0148944
705.950	0.0149940
706.028	0.0149859
706.106	0.0150089
706.184	0.0149969
706.262	0.0146724
706.340	0.0146513
706.418	0.0145020
706.496	0.0143102
706.575	0.0142900
706.653	0.0142303
706.731	0.0143791
706.809	0.0145012
706.887	0.0147334
706.965	0.0147434
707.043	0.0148868
707.121	0.0149699
707.200	0.0151022
707.278	0.0151411
707.356	0.0151479
707.434	0.0150547
707.512	0.0151273
707.590	0.0151251
707.668	0.0150899
707.746	0.0151006
707.825	0.0151092
707.903	0.0150733
707.981	0.0148804
708.059	0.0147972
708.137	0.0146468
708.215	0.0143034
708.293	0.0141222
708.371	0.0140397
708.450	0.0140296
708.528	0.0139065
708.606	0.0140646
708.684	0.0140607
708.762	0.0142496
708.840	0.0145631
708.918	0.0147186
708.996	0.0149474
709.075	0.0152624
709.153	0.0155650
709.231	0.0157175
709.309	0.0158167
709.387	0.0157259
709.465	0.0157469
709.543	0.0157040
709.621	0.0154122
709.700	0.0151192
709.778	0.0147806
709.856	0.0145879
709.934	0.0142728
710.012	0.0141374
710.090	0.0140186
710.168	0.0141520
710.246	0.0138020
710.325	0.0137600
710.403	0.0138397
710.481	0.0140003
710.559	0.0142142
710.637	0.0142753
710.715	0.0144041
710.793	0.0143578
710.871	0.0147130
710.950	0.0149023
711.028	0.0151176
711.106	0.0152023
711.184	0.0152029
711.262	0.0154765
711.340	0.0156665
711.418	0.0156662
711.496	0.0156302
711.575	0.0155744
711.653	0.0155763
711.731	0.0153783
711.809	0.0151562
711.887	0.0149361
711.965	0.0147573
712.043	0.0143610
712.121	0.0139706
712.200	0.0138137
712.278	0.0135358
712.356	0.0135663
712.434	0.0136332
712.512	0.0137433
712.590	0.0139955
712.668	0.0141421
712.746	0.0145180
712.825	0.0147655
712.903	0.0147865
712.981	0.0151748
713.059	0.0154357
713.137	0.0155572
713.215	0.0154640
713.293	0.0155274
713.371	0.0154265
713.450	0.0152535
713.528	0.0151749
713.606	0.0149683
713.684	0.0148869
713.762	0.0148245
713.840	0.0144926
713.918	0.0145386
713.996	0.0143393
714.075	0.0141475
714.153	0.0142573
714.231	0.0142531
714.309	0.0140991
714.387	0.0143369
714.465	0.0144167
714.543	0.0143306
714.621	0.0144199
714.700	0.0145952
714.778	0.0145902
714.856	0.0146876
714.934	0.0147820
715.012	0.0149338
715.090	0.0149419
715.168	0.0149940
715.246	0.0149004
715.325	0.0151403
715.403	0.0151297
715.481	0.0151849
715.559	0.0152943
715.637	0.0151920
715.715	0.0149612
715.793	0.0150484
715.871	0.0149010
715.950	0.0146329
716.028	0.0146003
716.106	0.0144462
716.184	0.0143457
716.262	0.0144518
716.340	0.0142914
716.418	0.0143981
716.496	0.0146151
716.575	0.0145789
716.653	0.0145501
716.731	0.0147366
716.809	0.0146895
716.887	0.0145725
716.965	0.0147195
717.043	0.0145547
717.121	0.0145189
717.200	0.0146628
717.278	0.0147626
717.356	0.0147300
717.434	0.0149787
717.512	0.0147535
717.590	0.0147795
717.668	0.0147265
717.746	0.0147226
717.825	0.0145425
717.903	0.0145742
717.981	0.0145529
718.059	0.0144035
718.137	0.0145673
718.215	0.0144952
718.293	0.0144440
718.371	0.0143904
718.450	0.0144307
718.528	0.0144096
718.606	0.0145074
718.684	0.0145240
718.762	0.0145672
718.840	0.0147673
718.918	0.0147763
718.996	0.0147154
719.075	0.0148942
719.153	0.0149315
719.231	0.0148686
719.309	0.0148882
719.387	0.0148456
719.465	0.0150328
719.543	0.0148698
719.621	0.0149403
719.700	0.0148134
719.778	0.0148929
719.856	0.0148294
719.934	0.0147958
720.012	0.0149352
720.090	0.0148023
720.168	0.0146469
720.246	0.0146001
720.325	0.0148014
720.403	0.0147063
720.481	0.0145069
720.559	0.0144867
720.637	0.0144022
720.715	0.0143624
720.793	0.0145103
720.871	0.0145374
720.950	0.0146384
721.028	0.0148000
721.106	0.0148165
721.184	0.0150141
721.262	0.0151246
721.340	0.0151948
721.418	0.0151504
721.496	0.0150849
721.575	0.0150616
721.653	0.0150047
721.731	0.0148695
721.809	0.0147908
721.887	0.0146210
721.965	0.0144633
722.043	0.0144820
722.121	0.0142132
722.200	0.0141197
722.278	0.0140538
722.356	0.0140398
722.434	0.0140055
722.512	0.0139384
722.590	0.0141957
722.668	0.0143617
722.746	0.0145387
722.825	0.0144698
722.903	0.0148727
722.981	0.0148786
723.059	0.0148939
723.137	0.0149791
723.215	0.0150015
723.293	0.0149390
723.371	0.0149339
723.450	0.0149873
723.528	0.0150304
723.606	0.0149966
723.684	0.0150237
723.762	0.0150555
723.840	0.0149979
723.918	0.0149829
723.996	0.0150661
724.075	0.0149875
724.153	0.0150019
724.231	0.0150251
724.309	0.0148698
724.387	0.0148758
724.465	0.0146181
724.543	0.0145499
724.621	0.0145246
724.700	0.0144667
724.778	0.0142818
724.856	0.0143724
724.934	0.0143806
725.012	0.0143627
725.090	0.0143228
725.168	0.0147112
725.246	0.0144562
725.325	0.0144749
725.403	0.0147805
725.481	0.0149669
725.559	0.0150590
725.637	0.0151550
725.715	0.0151485
725.793	0.0152425
725.871	0.0151374
725.950	0.0150793
726.028	0.0150471
726.106	0.0149510
726.184	0.0148587
726.262	0.0146329
726.340	0.0147154
726.418	0.0145209
726.496	0.0144054
726.575	0.0144135
726.653	0.0143101
726.731	0.0144101
726.809	0.0145674
726.887	0.0144400
726.965	0.0145784
727.043	0.0147261
727.121	0.0147332
727.200	0.0147969
727.278	0.0148711
727.356	0.0148534
727.434	0.0148532
727.512	0.0148145
727.590	0.0149112
727.668	0.0149757
727.746	0.0148677
727.825	0.0147549
727.903	0.0147439
727.981	0.0149018
728.059	0.0147805
728.137	0.0149583
728.215	0.0150475
728.293	0.0151459
728.371	0.0150339
728.450	0.0151093
728.528	0.0150305
728.606	0.0149213
728.684	0.0148349
728.762	0.0148827
728.840	0.0146931
728.918	0.0147286
728.996	0.0145660
729.075	0.0145114
729.153	0.0143523
729.231	0.0142207
729.309	0.0142947
729.387	0.0143263
729.465	0.0143901
729.543	0.0145222
729.621	0.0145393
729.700	0.0147434
729.778	0.0149554
729.856	0.0150950
729.934	0.0150426
730.012	0.0152088
730.090	0.0152059
730.168	0.0152692
730.246	0.0152022
730.325	0.0151148
730.403	0.0152602
730.481	0.0150278
730.559	0.0149813
730.637	0.0150199
730.715	0.0148552
730.793	0.0146148
730.871	0.0145821
730.950	0.0145126
731.028	0.0144250
731.106	0.0144317
731.184	0.0144654
731.262	0.0143534
731.340	0.0144669
731.418	0.0145937
731.496	0.0146085
731.575	0.0145840
731.653	0.0147572
731.731	0.0146531
731.809	0.0146687
731.887	0.0150877
731.965	0.0149626
732.043	0.0148085
732.121	0.0149007
732.200	0.0148200
732.278	0.0146825
732.356	0.0148509
732.434	0.0147761
732.512	0.0146479
732.590	0.0146362
732.668	0.0145489
732.746	0.0143633
732.825	0.0144617
732.903	0.0143381
732.981	0.0144556
733.059	0.0144193
733.137	0.0144978
733.215	0.0144534
733.293	0.0145486
733.371	0.0146336
733.450	0.0146994
733.528	0.0146544
733.606	0.0148804
733.684	0.0148566
733.762	0.0146820
733.840	0.0149477
733.918	0.0149535
733.996	0.0148360
734.075	0.0149688
734.153	0.0148305
734.231	0.0148203
734.309	0.0147658
734.387	0.0149543
734.465	0.0147265
734.543	0.0145813
734.621	0.0148392
734.700	0.0147268
734.778	0.0147814
734.856	0.0148009
734.934	0.0147950
735.012	0.0147080
735.090	0.0148844
735.168	0.0146172
735.246	0.0146680
735.325	0.0147375
735.403	0.0147794
735.481	0.0147234
735.559	0.0146214
735.637	0.0146188
735.715	0.0146767
735.793	0.0147331
735.871	0.0147382
735.950	0.0147356
736.028	0.0147323
736.106	0.0148003
736.184	0.0146415
736.262	0.0147027
736.340	0.0147487
736.418	0.0146964
736.496	0.0145581
736.575	0.0145493
736.653	0.0145561
736.731	0.0145359
736.809	0.0144816
736.887	0.0145089
736.965	0.0142890
737.043	0.0144381
737.121	0.0143584
737.200	0.0146545
737.278	0.0145592
737.356	0.0146323
737.434	0.0146706
737.512	0.0147604
737.590	0.0146624
737.668	0.0148787
737.746	0.0150794
737.825	0.0149744
737.903	0.0149384
737.981	0.0148899
738.059	0.0148428
738.137	0.0149942
738.215	0.0149548
738.293	0.0147762
738.371	0.0147690
738.450	0.0144656
738.528	0.0144603
738.606	0.0144927
738.684	0.0144397
738.762	0.0143964
738.840	0.0142123
738.918	0.0143427
738.996	0.0143320
739.075	0.0143195
739.153	0.0144572
739.231	0.0144626
739.309	0.0145370
739.387	0.0146819
739.465	0.0145508
739.543	0.0146828
739.621	0.0147124
739.700	0.0145335
739.778	0.0146965
739.856	0.0148777
739.934	0.0147558
740.012	0.0147050
740.090	0.0148579
740.168	0.0147959
740.246	0.0147115
740.325	0.0145658
740.403	0.0146475
740.481	0.0146129
740.559	0.0146976
740.637	0.0147031
740.715	0.0145464
740.793	0.0145614
740.871	0.0145605
740.950	0.0147078
741.028	0.0145978
741.106	0.0147157
741.184	0.0148105
741.262	0.0145795
741.340	0.0145868
741.418	0.0148686
741.496	0.0148638
741.575	0.0146396
741.653	0.0147626
741.731	0.0148359
741.809	0.0147511
741.887	0.0149747
741.965	0.0150506
742.043	0.0149750
742.121	0.0149843
742.200	0.0149618
742.278	0.0149728
742.356	0.0150225
742.434	0.0148856
742.512	0.0149818
742.590	0.0150150
742.668	0.0148544
742.746	0.0148061
742.825	0.0148345
742.903	0.0148670
742.981	0.0148088
743.059	0.0147510
743.137	0.0146835
743.215	0.0146617
743.293	0.0146947
743.371	0.0146083
743.450	0.0146313
743.528	0.0145504
743.606	0.0144930
743.684	0.0146143
743.762	0.0146487
743.840	0.0145699
743.918	0.0146026
743.996	0.0146265
744.075	0.0146610
744.153	0.0147113
744.231	0.0145965
744.309	0.0145594
744.387	0.0147234
744.465	0.0145661
744.543	0.0145251
744.621	0.0145508
744.700	0.0146742
744.778	0.0146639
744.856	0.0146888
744.934	0.0147321
745.012	0.0145010
745.090	0.0144004
745.168	0.0144856
745.246	0.0145197
745.325	0.0145350
745.403	0.0145670
745.481	0.0146725
745.559	0.0146034
745.637	0.0146749
745.715	0.0148082
745.793	0.0148308
745.871	0.0147890
745.950	0.0148515
746.028	0.0146867
746.106	0.0146671
746.184	0.0147582
746.262	0.0147351
746.340	0.0148183
746.418	0.0146917
746.496	0.0146475
746.575	0.0148959
746.653	0.0149587
746.731	0.0148020
746.809	0.0148590
746.887	0.0148541
746.965	0.0148795
747.043	0.0147723
747.121	0.0149914
747.200	0.0148374
747.278	0.0149625
747.356	0.0149039
747.434	0.0147466
747.512	0.0149206
747.590	0.0148190
747.668	0.0148004
747.746	0.0146215
747.825	0.0146526
747.903	0.0146994
747.981	0.0147021
748.059	0.0147675
748.137	0.0147370
748.215	0.0146477
748.293	0.0148288
748.371	0.0146337
748.450	0.0146478
748.528	0.0148005
748.606	0.0145887
748.684	0.0146786
748.762	0.0145389
748.840	0.0145483
748.918	0.0144469
748.996	0.0145617
749.075	0.0146113
749.153	0.0146837
749.231	0.0146121
749.309	0.0145719
749.387	0.0146572
749.465	0.0146468
749.543	0.0145631
749.621	0.0147115
749.700	0.0148447
749.778	0.0148132
749.856	0.0148236
749.934	0.0148042
750.012	0.0148468
750.090	0.0147866
750.168	0.0149454
750.246	0.0148492
750.325	0.0148792
750.403	0.0147092
750.481	0.0147751
750.559	0.0148317
750.637	0.0147170
750.715	0.0147590
750.793	0.0147421
750.871	0.0146953
750.950	0.0146561
751.028	0.0147158
751.106	0.0146655
751.184	0.0147103
751.262	0.0146431
751.340	0.0146855
751.418	0.0146843
751.496	0.0146276
751.575	0.0146344
751.653	0.0146395
751.731	0.0146615
751.809	0.0146313
751.887	0.0147318
751.965	0.0147874
752.043	0.0148269
752.121	0.0148248
752.200	0.0148436
752.278	0.0146686
752.356	0.0146076
752.434	0.0147247
752.512	0.0146681
752.590	0.0145932
752.668	0.0146627
752.746	0.0145485
752.825	0.0145238
752.903	0.0144254
752.981	0.0145322
753.059	0.0146748
753.137	0.0145444
753.215	0.0145844
753.293	0.0147490
753.371	0.0146230
753.450	0.0145176
753.528	0.0146934
753.606	0.0146642
753.684	0.0146433
753.762	0.0147899
753.840	0.0147414
753.918	0.0147262
753.996	0.0147617
754.075	0.0147785
754.153	0.0148254
754.231	0.0148192
754.309	0.0148043
754.387	0.0148933
754.465	0.0148183
754.543	0.0148048
754.621	0.0148322
754.700	0.0148955
754.778	0.0147134
754.856	0.0147221
754.934	0.0147975
755.012	0.0146441
755.090	0.0147366
755.168	0.0147689
755.246	0.0147287
755.325	0.0148331
755.403	0.0148824
755.481	0.0149643
755.559	0.0148955
755.637	0.0149902
755.715	0.0147866
755.793	0.0147652
755.871	0.0147392
755.950	0.0148071
756.028	0.0147251
756.106	0.0147034
756.184	0.0147710
756.262	0.0147198
756.340	0.0147156
756.418	0.0146973
756.496	0.0146613
756.575	0.0146238
756.653	0.0147249
756.731	0.0145711
756.809	0.0145867
756.887	0.0146240
756.965	0.0147750
757.043	0.0148718
757.121	0.0147294
757.200	0.0145666
757.278	0.0147295
757.356	0.0146973
757.434	0.0147639
757.512	0.0147409
757.590	0.0147650
757.668	0.0148063
757.746	0.0146825
757.825	0.0148217
757.903	0.0148743
757.981	0.0147980
758.059	0.0148335
758.137	0.0147382
758.215	0.0148253
758.293	0.0149285
758.371	0.0148406
758.450	0.0148299
758.528	0.0148910
758.606	0.0148558
758.684	0.0148663
758.762	0.0150017
758.840	0.0149358
758.918	0.0148351
758.996	0.0147658
759.075	0.0147314
759.153	0.0148383
759.231	0.0148772
759.309	0.0148070
759.387	0.0146758
759.465	0.0147355
759.543	0.0147093
759.621	0.0147781
759.700	0.0147182
759.778	0.0145570
759.856	0.0147919
759.934	0.0147730
760.012	0.0145775
760.090	0.0145374
760.168	0.0146301
760.246	0.0146597
760.325	0.0146751
760.403	0.0145824
760.481	0.0145541
760.559	0.0146014
760.637	0.0146763
760.715	0.0146725
760.793	0.0145264
760.871	0.0146598
760.950	0.0146461
761.028	0.0145335
761.106	0.0147693
761.184	0.0146342
761.262	0.0144866
761.340	0.0145427
761.418	0.0147508
761.496	0.0146674
761.575	0.0146252
761.653	0.0147372
761.731	0.0147217
761.809	0.0146506
761.887	0.0147834
761.965	0.0148550
762.043	0.0148717
762.121	0.0147649
762.200	0.0149167
762.278	0.0149765
762.356	0.0150117
762.434	0.0148707
762.512	0.0149342
762.590	0.0150128
762.668	0.0149986
762.746	0.0150246
762.825	0.0150768
762.903	0.0149451
762.981	0.0150657
763.059	0.0150056
763.137	0.0149070
763.215	0.0149557
763.293	0.0150281
763.371	0.0149352
763.450	0.0147858
763.528	0.0148823
763.606	0.0148687
763.684	0.0147141
763.762	0.0148488
763.840	0.0147972
763.918	0.0147779
763.996	0.0147631
764.075	0.0147380
764.153	0.0146716
764.231	0.0147357
764.309	0.0147313
764.387	0.0146588
764.465	0.0147242
764.543	0.0145684
764.621	0.0146293
764.700	0.0147177
