05/04/2022	21:20:58	Ver.	4.1	UNKNOWN
Optical Delay	678.996401	Delta X		0.078125	Sweeps	1	Scan Rate	0/0
Coordinates	Axis 1	NaN	Axis 2	NaN	Axis 3	NaN	Axis 4	NaN	Axis 5	NaN	Axis 6	0.000000
TX Power	0.000000	RX Power	0.000000

678.996	0.0143877
679.075	0.0144429
679.153	0.0142567
679.231	0.0144062
679.309	0.0143764
679.387	0.0143052
679.465	0.0143786
679.543	0.0144203
679.621	0.0142847
679.700	0.0142300
679.778	0.0142513
679.856	0.0142308
679.934	0.0141812
680.012	0.0142685
680.090	0.0142884
680.168	0.0143327
680.246	0.0144042
680.325	0.0143658
680.403	0.0144631
680.481	0.0144497
680.559	0.0143358
680.637	0.0143580
680.715	0.0143364
680.793	0.0144209
680.871	0.0144836
680.950	0.0143858
681.028	0.0144892
681.106	0.0143480
681.184	0.0142981
681.262	0.0144701
681.340	0.0143063
681.418	0.0142986
681.496	0.0143111
681.575	0.0142714
681.653	0.0142989
681.731	0.0144530
681.809	0.0142926
681.887	0.0142724
681.965	0.0143110
682.043	0.0143543
682.121	0.0141797
682.200	0.0144286
682.278	0.0144665
682.356	0.0142757
682.434	0.0145137
682.512	0.0143990
682.590	0.0144288
682.668	0.0144192
682.746	0.0143655
682.825	0.0144069
682.903	0.0144172
682.981	0.0145026
683.059	0.0145192
683.137	0.0144569
683.215	0.0144437
683.293	0.0144886
683.371	0.0142648
683.450	0.0143159
683.528	0.0144156
683.606	0.0143615
683.684	0.0142181
683.762	0.0141661
683.840	0.0143202
683.918	0.0143121
683.996	0.0141837
684.075	0.0142498
684.153	0.0142397
684.231	0.0144301
684.309	0.0143620
684.387	0.0143224
684.465	0.0143713
684.543	0.0143040
684.621	0.0144493
684.700	0.0144669
684.778	0.0145472
684.856	0.0144805
684.934	0.0144225
685.012	0.0144634
685.090	0.0143511
685.168	0.0145310
685.246	0.0144886
685.325	0.0144115
685.403	0.0144827
685.481	0.0144185
685.559	0.0142634
685.637	0.0142561
685.715	0.0142713
685.793	0.0143057
685.871	0.0143568
685.950	0.0144173
686.028	0.0144851
686.106	0.0143175
686.184	0.0141518
686.262	0.0143269
686.340	0.0142799
686.418	0.0142037
686.496	0.0143044
686.575	0.0142316
686.653	0.0142197
686.731	0.0143267
686.809	0.0144218
686.887	0.0142688
686.965	0.0142757
687.043	0.0143494
687.121	0.0144464
687.200	0.0144515
687.278	0.0144305
687.356	0.0142252
687.434	0.0143108
687.512	0.0143717
687.590	0.0144208
687.668	0.0144175
687.746	0.0143601
687.825	0.0145090
687.903	0.0143482
687.981	0.0144442
688.059	0.0144217
688.137	0.0143661
688.215	0.0143221
688.293	0.0144003
688.371	0.0144191
688.450	0.0144389
688.528	0.0143995
688.606	0.0142561
688.684	0.0143362
688.762	0.0142479
688.840	0.0143909
688.918	0.0142377
688.996	0.0143159
689.075	0.0142954
689.153	0.0143105
689.231	0.0142809
689.309	0.0143542
689.387	0.0145042
689.465	0.0143782
689.543	0.0142786
689.621	0.0144187
689.700	0.0143616
689.778	0.0144253
689.856	0.0143335
689.934	0.0144386
690.012	0.0144540
690.090	0.0143806
690.168	0.0144747
690.246	0.0144395
690.325	0.0143078
690.403	0.0142532
690.481	0.0142974
690.559	0.0143197
690.637	0.0144279
690.715	0.0142751
690.793	0.0142332
690.871	0.0143239
690.950	0.0142372
691.028	0.0141329
691.106	0.0142394
691.184	0.0142635
691.262	0.0141322
691.340	0.0142921
691.418	0.0142744
691.496	0.0142955
691.575	0.0142425
691.653	0.0142233
691.731	0.0143829
691.809	0.0142489
691.887	0.0144242
691.965	0.0145573
692.043	0.0143476
692.121	0.0144153
692.200	0.0143979
692.278	0.0142301
692.356	0.0141898
692.434	0.0142664
692.512	0.0142348
692.590	0.0142357
692.668	0.0142641
692.746	0.0141942
692.825	0.0142651
692.903	0.0143379
692.981	0.0140380
693.059	0.0143580
693.137	0.0142738
693.215	0.0141465
693.293	0.0141189
693.371	0.0141665
693.450	0.0142076
693.528	0.0141158
693.606	0.0140887
693.684	0.0140938
693.762	0.0141504
693.840	0.0141389
693.918	0.0142181
693.996	0.0143651
694.075	0.0142063
694.153	0.0144721
694.231	0.0144711
694.309	0.0143880
694.387	0.0146430
694.465	0.0146760
694.543	0.0145483
694.621	0.0146571
694.700	0.0145333
694.778	0.0144141
694.856	0.0144061
694.934	0.0143946
695.012	0.0140517
695.090	0.0141042
695.168	0.0140836
695.246	0.0139096
695.325	0.0138363
695.403	0.0137159
695.481	0.0139230
695.559	0.0139427
695.637	0.0140340
695.715	0.0141622
695.793	0.0142883
695.871	0.0143940
695.950	0.0146031
696.028	0.0148340
696.106	0.0147561
696.184	0.0148744
696.262	0.0147214
696.340	0.0147009
696.418	0.0146163
696.496	0.0143983
696.575	0.0142325
696.653	0.0139646
696.731	0.0138173
696.809	0.0138213
696.887	0.0137916
696.965	0.0138829
697.043	0.0140070
697.121	0.0139366
697.200	0.0141430
697.278	0.0144256
697.356	0.0145808
697.434	0.0145530
697.512	0.0147907
697.590	0.0148661
697.668	0.0149420
697.746	0.0148563
697.825	0.0148581
697.903	0.0147537
697.981	0.0147103
698.059	0.0145454
698.137	0.0141965
698.215	0.0141466
698.293	0.0138814
698.371	0.0136860
698.450	0.0136723
698.528	0.0138838
698.606	0.0137438
698.684	0.0140263
698.762	0.0141054
698.840	0.0142221
698.918	0.0145343
698.996	0.0147468
699.075	0.0150011
699.153	0.0150909
699.231	0.0152734
699.309	0.0153463
699.387	0.0151437
699.465	0.0151202
699.543	0.0149639
699.621	0.0145699
699.700	0.0143112
699.778	0.0140183
699.856	0.0138126
699.934	0.0135968
700.012	0.0133844
700.090	0.0133107
700.168	0.0132829
700.246	0.0134924
700.325	0.0137420
700.403	0.0140717
700.481	0.0142948
700.559	0.0146385
700.637	0.0148128
700.715	0.0152328
700.793	0.0154810
700.871	0.0154993
700.950	0.0154218
701.028	0.0153120
701.106	0.0149906
701.184	0.0146632
701.262	0.0146766
701.340	0.0142352
701.418	0.0139468
701.496	0.0136227
701.575	0.0134457
701.653	0.0134473
701.731	0.0134756
701.809	0.0137099
701.887	0.0137528
701.965	0.0140940
702.043	0.0143889
702.121	0.0145080
702.200	0.0148277
702.278	0.0147318
702.356	0.0152018
702.434	0.0152487
702.512	0.0153038
702.590	0.0153552
702.668	0.0152732
702.746	0.0149395
702.825	0.0149040
702.903	0.0144186
702.981	0.0142506
703.059	0.0140152
703.137	0.0136649
703.215	0.0135722
703.293	0.0134557
703.371	0.0134838
703.450	0.0135040
703.528	0.0137245
703.606	0.0139553
703.684	0.0143410
703.762	0.0146049
703.840	0.0147090
703.918	0.0149383
703.996	0.0149904
704.075	0.0149884
704.153	0.0149847
704.231	0.0146856
704.309	0.0146805
704.387	0.0144746
704.465	0.0142122
704.543	0.0141660
704.621	0.0143623
704.700	0.0140735
704.778	0.0139967
704.856	0.0140826
704.934	0.0141138
705.012	0.0141443
705.090	0.0143013
705.168	0.0142633
705.246	0.0144272
705.325	0.0145531
705.403	0.0146026
705.481	0.0145817
705.559	0.0146867
705.637	0.0147980
705.715	0.0147591
705.793	0.0147517
705.871	0.0145860
705.950	0.0145155
706.028	0.0145000
706.106	0.0142786
706.184	0.0140706
706.262	0.0139969
706.340	0.0139816
706.418	0.0138042
706.496	0.0138492
706.575	0.0140590
706.653	0.0139947
706.731	0.0140521
706.809	0.0142016
706.887	0.0143749
706.965	0.0144309
707.043	0.0144395
707.121	0.0145805
707.200	0.0145401
707.278	0.0147585
707.356	0.0148649
707.434	0.0150921
707.512	0.0150869
707.590	0.0151508
707.668	0.0151842
707.746	0.0149181
707.825	0.0146256
707.903	0.0145757
707.981	0.0142548
708.059	0.0138431
708.137	0.0135220
708.215	0.0133585
708.293	0.0133139
708.371	0.0131611
708.450	0.0131475
708.528	0.0134971
708.606	0.0138348
708.684	0.0140269
708.762	0.0142206
708.840	0.0145676
708.918	0.0148286
708.996	0.0151562
709.075	0.0154353
709.153	0.0153980
709.231	0.0152477
709.309	0.0153041
709.387	0.0152043
709.465	0.0148891
709.543	0.0146980
709.621	0.0144166
709.700	0.0143076
709.778	0.0141479
709.856	0.0137537
709.934	0.0138875
710.012	0.0138319
710.090	0.0135043
710.168	0.0134652
710.246	0.0136545
710.325	0.0135252
710.403	0.0135943
710.481	0.0136938
710.559	0.0137987
710.637	0.0137848
710.715	0.0140223
710.793	0.0141309
710.871	0.0142757
710.950	0.0144023
711.028	0.0146529
711.106	0.0146585
711.184	0.0149352
711.262	0.0150048
711.340	0.0150316
711.418	0.0151649
711.496	0.0151701
711.575	0.0150251
711.653	0.0148407
711.731	0.0146547
711.809	0.0143946
711.887	0.0139916
711.965	0.0137365
712.043	0.0135555
712.121	0.0135462
712.200	0.0135651
712.278	0.0134830
712.356	0.0135670
712.434	0.0137718
712.512	0.0138937
712.590	0.0141472
712.668	0.0143156
712.746	0.0143884
712.825	0.0144569
712.903	0.0145776
712.981	0.0147459
713.059	0.0144651
713.137	0.0144984
713.215	0.0146527
713.293	0.0144332
713.371	0.0144078
713.450	0.0143266
713.528	0.0142789
713.606	0.0142788
713.684	0.0141008
713.762	0.0141273
713.840	0.0142466
713.918	0.0142854
713.996	0.0140904
714.075	0.0141468
714.153	0.0140279
714.231	0.0140735
714.309	0.0141400
714.387	0.0141061
714.465	0.0142113
714.543	0.0141257
714.621	0.0142015
714.700	0.0143826
714.778	0.0145457
714.856	0.0144658
714.934	0.0146423
715.012	0.0146055
715.090	0.0148775
715.168	0.0148062
715.246	0.0148154
715.325	0.0147621
715.403	0.0147755
715.481	0.0147695
715.559	0.0147014
715.637	0.0145373
715.715	0.0145106
715.793	0.0142276
715.871	0.0140285
715.950	0.0141226
716.028	0.0139776
716.106	0.0138917
716.184	0.0138548
716.262	0.0138995
716.340	0.0140617
716.418	0.0140838
716.496	0.0140893
716.575	0.0140891
716.653	0.0141478
716.731	0.0142407
716.809	0.0141363
716.887	0.0141843
716.965	0.0142496
717.043	0.0142368
717.121	0.0143925
717.200	0.0143365
717.278	0.0143895
717.356	0.0145235
717.434	0.0145227
717.512	0.0144395
717.590	0.0146855
717.668	0.0145370
717.746	0.0144435
717.825	0.0143572
717.903	0.0144120
717.981	0.0141724
718.059	0.0143333
718.137	0.0140781
718.215	0.0139127
718.293	0.0140289
718.371	0.0140040
718.450	0.0139771
718.528	0.0139388
718.606	0.0141008
718.684	0.0141684
718.762	0.0143026
718.840	0.0144188
718.918	0.0145473
718.996	0.0145705
719.075	0.0145969
719.153	0.0147840
719.231	0.0148233
719.309	0.0147481
719.387	0.0148846
719.465	0.0148127
719.543	0.0148643
719.621	0.0147710
719.700	0.0147791
719.778	0.0146349
719.856	0.0145103
719.934	0.0145183
720.012	0.0145000
720.090	0.0144096
720.168	0.0142831
720.246	0.0141886
720.325	0.0142487
720.403	0.0142220
720.481	0.0141052
720.559	0.0141980
720.637	0.0141106
720.715	0.0142643
720.793	0.0143441
720.871	0.0143396
720.950	0.0145303
721.028	0.0146171
721.106	0.0147458
721.184	0.0148272
721.262	0.0146793
721.340	0.0147587
721.418	0.0146244
721.496	0.0146144
721.575	0.0145287
721.653	0.0144245
721.731	0.0143110
721.809	0.0141057
721.887	0.0142021
721.965	0.0141014
722.043	0.0139799
722.121	0.0138994
722.200	0.0137829
722.278	0.0138435
722.356	0.0138147
722.434	0.0139053
722.512	0.0139430
722.590	0.0141843
722.668	0.0142450
722.746	0.0142986
722.825	0.0143581
722.903	0.0143795
722.981	0.0143608
723.059	0.0143142
723.137	0.0144559
723.215	0.0144946
723.293	0.0145520
723.371	0.0144527
723.450	0.0145217
723.528	0.0146793
723.606	0.0146512
723.684	0.0146204
723.762	0.0149172
723.840	0.0148243
723.918	0.0148437
723.996	0.0148247
724.075	0.0147756
724.153	0.0145379
724.231	0.0146177
724.309	0.0143710
724.387	0.0143981
724.465	0.0142607
724.543	0.0141121
724.621	0.0139273
724.700	0.0138139
724.778	0.0137354
724.856	0.0136415
724.934	0.0138749
725.012	0.0138713
725.090	0.0139550
725.168	0.0140695
725.246	0.0142995
725.325	0.0143599
725.403	0.0144696
725.481	0.0145460
725.559	0.0145979
725.637	0.0147348
725.715	0.0146992
725.793	0.0147118
725.871	0.0147593
725.950	0.0147122
726.028	0.0145686
726.106	0.0145752
726.184	0.0144520
726.262	0.0142532
726.340	0.0143084
726.418	0.0143044
726.496	0.0142184
726.575	0.0142679
726.653	0.0140387
726.731	0.0141031
726.809	0.0143928
726.887	0.0141985
726.965	0.0143007
727.043	0.0143006
727.121	0.0141747
727.200	0.0142767
727.278	0.0141621
727.356	0.0141512
727.434	0.0140472
727.512	0.0142522
727.590	0.0141320
727.668	0.0142526
727.746	0.0143569
727.825	0.0142722
727.903	0.0143360
727.981	0.0144073
728.059	0.0146481
728.137	0.0146389
728.215	0.0146449
728.293	0.0147193
728.371	0.0147668
728.450	0.0147736
728.528	0.0146452
728.606	0.0146255
728.684	0.0144963
728.762	0.0142843
728.840	0.0142314
728.918	0.0141440
728.996	0.0140021
729.075	0.0138889
729.153	0.0137708
729.231	0.0138860
729.309	0.0139869
729.387	0.0138734
729.465	0.0140018
729.543	0.0141725
729.621	0.0142822
729.700	0.0142482
729.778	0.0144644
729.856	0.0146781
729.934	0.0146004
730.012	0.0146673
730.090	0.0148656
730.168	0.0146329
730.246	0.0147260
730.325	0.0146205
730.403	0.0145946
730.481	0.0144867
730.559	0.0144257
730.637	0.0144689
730.715	0.0144464
730.793	0.0142101
730.871	0.0141682
730.950	0.0142149
731.028	0.0142203
731.106	0.0141116
731.184	0.0139793
731.262	0.0141639
731.340	0.0142265
731.418	0.0141465
731.496	0.0142864
731.575	0.0144241
731.653	0.0143464
731.731	0.0142860
731.809	0.0143459
731.887	0.0142770
731.965	0.0144442
732.043	0.0142636
732.121	0.0144347
732.200	0.0142731
732.278	0.0143197
732.356	0.0142090
732.434	0.0141018
732.512	0.0139870
732.590	0.0140730
732.668	0.0141522
732.746	0.0141557
732.825	0.0142019
732.903	0.0140688
732.981	0.0140672
733.059	0.0140942
733.137	0.0142109
733.215	0.0144073
733.293	0.0144579
733.371	0.0143756
733.450	0.0144379
733.528	0.0144403
733.606	0.0145561
733.684	0.0144232
733.762	0.0143716
733.840	0.0143699
733.918	0.0144582
733.996	0.0143185
734.075	0.0142078
734.153	0.0142860
734.231	0.0142467
734.309	0.0142016
734.387	0.0142152
734.465	0.0142894
734.543	0.0141927
734.621	0.0143129
734.700	0.0143668
734.778	0.0142790
734.856	0.0142558
734.934	0.0143357
735.012	0.0144621
735.090	0.0143787
735.168	0.0143848
735.246	0.0144174
735.325	0.0144721
735.403	0.0144575
735.481	0.0144621
735.559	0.0145404
735.637	0.0145266
735.715	0.0144584
735.793	0.0145055
735.871	0.0145198
735.950	0.0145777
736.028	0.0145255
736.106	0.0143783
736.184	0.0143617
736.262	0.0142300
736.340	0.0142021
736.418	0.0141935
736.496	0.0142518
736.575	0.0141423
736.653	0.0140694
736.731	0.0140532
736.809	0.0142553
736.887	0.0141380
736.965	0.0140584
737.043	0.0142797
737.121	0.0142273
737.200	0.0143828
737.278	0.0143887
737.356	0.0144880
737.434	0.0145406
737.512	0.0146337
737.590	0.0147904
737.668	0.0148401
737.746	0.0146848
737.825	0.0148141
737.903	0.0146880
737.981	0.0148484
738.059	0.0145538
738.137	0.0144802
738.215	0.0144913
738.293	0.0143252
738.371	0.0143553
738.450	0.0143345
738.528	0.0141588
738.606	0.0141164
738.684	0.0142152
738.762	0.0141872
738.840	0.0140990
738.918	0.0141393
738.996	0.0140782
739.075	0.0142184
739.153	0.0141962
739.231	0.0141051
739.309	0.0142654
739.387	0.0141338
739.465	0.0143246
739.543	0.0142994
739.621	0.0142072
739.700	0.0143170
739.778	0.0142723
739.856	0.0142944
739.934	0.0143141
740.012	0.0142924
740.090	0.0145052
740.168	0.0145541
740.246	0.0144807
740.325	0.0143166
740.403	0.0144808
740.481	0.0143090
740.559	0.0143236
740.637	0.0142402
740.715	0.0143993
740.793	0.0142924
740.871	0.0143879
740.950	0.0143209
741.028	0.0143260
741.106	0.0142446
741.184	0.0141014
741.262	0.0143256
741.340	0.0141853
741.418	0.0143595
741.496	0.0142577
741.575	0.0141628
741.653	0.0143627
741.731	0.0143507
741.809	0.0145153
741.887	0.0145318
741.965	0.0145563
742.043	0.0145181
742.121	0.0145992
742.200	0.0145978
742.278	0.0146517
742.356	0.0144843
742.434	0.0146459
742.512	0.0146541
742.590	0.0145638
742.668	0.0146275
742.746	0.0144859
742.825	0.0145432
742.903	0.0143734
742.981	0.0142690
743.059	0.0141782
743.137	0.0143865
743.215	0.0143198
743.293	0.0141838
743.371	0.0143191
743.450	0.0144762
743.528	0.0142121
743.606	0.0142521
743.684	0.0141982
743.762	0.0143337
743.840	0.0142583
743.918	0.0140918
743.996	0.0141932
744.075	0.0142289
744.153	0.0141908
744.231	0.0142435
744.309	0.0142181
744.387	0.0143116
744.465	0.0142866
744.543	0.0142325
744.621	0.0141527
744.700	0.0143198
744.778	0.0142480
744.856	0.0143653
744.934	0.0142957
745.012	0.0144270
745.090	0.0142274
745.168	0.0141899
745.246	0.0143362
745.325	0.0143359
745.403	0.0142181
745.481	0.0143606
745.559	0.0143078
745.637	0.0141811
745.715	0.0142770
745.793	0.0141476
745.871	0.0142370
745.950	0.0143690
746.028	0.0143822
746.106	0.0142709
746.184	0.0142439
746.262	0.0142632
746.340	0.0143016
746.418	0.0143311
746.496	0.0144355
746.575	0.0142403
746.653	0.0141973
746.731	0.0143952
746.809	0.0142474
746.887	0.0144133
746.965	0.0142876
747.043	0.0143800
747.121	0.0145194
747.200	0.0143319
747.278	0.0144221
747.356	0.0143226
747.434	0.0143034
747.512	0.0142928
747.590	0.0142398
747.668	0.0143002
747.746	0.0141676
747.825	0.0142123
747.903	0.0144999
747.981	0.0142891
748.059	0.0142590
748.137	0.0144206
748.215	0.0143427
748.293	0.0142611
748.371	0.0142117
748.450	0.0141788
748.528	0.0140102
748.606	0.0141861
748.684	0.0140913
748.762	0.0140640
748.840	0.0139627
748.918	0.0140359
748.996	0.0141542
749.075	0.0140952
749.153	0.0140089
749.231	0.0141152
749.309	0.0142148
749.387	0.0143182
749.465	0.0144054
749.543	0.0143669
749.621	0.0145068
749.700	0.0143983
749.778	0.0143139
749.856	0.0143938
749.934	0.0146073
750.012	0.0144769
750.090	0.0144979
750.168	0.0143732
750.246	0.0145324
750.325	0.0144457
750.403	0.0143877
750.481	0.0143548
750.559	0.0143839
750.637	0.0143398
750.715	0.0143510
750.793	0.0143217
750.871	0.0143463
750.950	0.0143998
751.028	0.0143449
751.106	0.0144876
751.184	0.0142799
751.262	0.0143224
751.340	0.0144776
751.418	0.0142714
751.496	0.0143092
751.575	0.0142725
751.653	0.0144318
751.731	0.0142886
751.809	0.0143269
751.887	0.0144232
751.965	0.0143005
752.043	0.0142081
752.121	0.0143539
752.200	0.0144244
752.278	0.0142820
752.356	0.0143423
752.434	0.0142902
752.512	0.0142508
752.590	0.0141531
752.668	0.0142463
752.746	0.0141729
752.825	0.0140421
752.903	0.0140285
752.981	0.0141936
753.059	0.0141787
753.137	0.0141087
753.215	0.0140866
753.293	0.0141301
753.371	0.0140656
753.450	0.0141156
753.528	0.0141179
753.606	0.0140543
753.684	0.0143559
753.762	0.0142445
753.840	0.0143123
753.918	0.0143287
753.996	0.0143190
754.075	0.0143444
754.153	0.0144086
754.231	0.0142849
754.309	0.0144093
754.387	0.0144778
754.465	0.0144429
754.543	0.0142696
754.621	0.0144463
754.700	0.0145110
754.778	0.0145146
754.856	0.0145256
754.934	0.0145258
755.012	0.0144263
755.090	0.0144759
755.168	0.0144684
755.246	0.0143546
755.325	0.0143716
755.403	0.0144157
755.481	0.0143668
755.559	0.0143764
755.637	0.0142655
755.715	0.0144221
755.793	0.0143042
755.871	0.0143539
755.950	0.0144203
756.028	0.0142982
756.106	0.0143346
756.184	0.0143550
756.262	0.0144047
756.340	0.0143005
756.418	0.0143064
756.496	0.0143472
756.575	0.0143904
756.653	0.0142867
756.731	0.0141939
756.809	0.0143035
756.887	0.0144354
756.965	0.0144495
757.043	0.0143327
757.121	0.0142833
757.200	0.0145013
757.278	0.0145302
757.356	0.0144227
757.434	0.0143442
757.512	0.0143689
757.590	0.0145004
757.668	0.0142939
757.746	0.0144106
757.825	0.0145678
757.903	0.0145012
757.981	0.0145103
758.059	0.0143804
758.137	0.0145754
758.215	0.0145201
758.293	0.0145441
758.371	0.0146255
758.450	0.0145412
758.528	0.0145502
758.606	0.0145120
758.684	0.0144288
758.762	0.0144296
758.840	0.0143757
758.918	0.0144678
758.996	0.0146043
759.075	0.0144467
759.153	0.0145811
759.231	0.0144567
759.309	0.0143931
759.387	0.0144453
759.465	0.0142007
759.543	0.0143731
759.621	0.0141753
759.700	0.0143027
759.778	0.0142704
759.856	0.0142525
759.934	0.0142798
760.012	0.0142802
760.090	0.0142257
760.168	0.0141026
760.246	0.0141777
760.325	0.0141536
760.403	0.0141932
760.481	0.0141930
760.559	0.0143428
760.637	0.0141666
760.715	0.0142552
760.793	0.0142754
760.871	0.0141801
760.950	0.0141326
761.028	0.0142335
761.106	0.0142227
761.184	0.0142241
761.262	0.0141456
761.340	0.0142407
761.418	0.0141458
761.496	0.0142227
761.575	0.0141203
761.653	0.0143952
761.731	0.0143773
761.809	0.0143120
761.887	0.0143941
761.965	0.0142994
762.043	0.0143113
762.121	0.0143286
762.200	0.0142982
762.278	0.0144478
762.356	0.0144331
762.434	0.0143272
762.512	0.0143990
762.590	0.0145093
762.668	0.0143688
762.746	0.0144137
762.825	0.0144753
762.903	0.0142558
762.981	0.0143951
763.059	0.0144081
763.137	0.0143874
763.215	0.0141647
763.293	0.0142680
763.371	0.0143281
763.450	0.0142922
763.528	0.0141652
763.606	0.0143860
763.684	0.0143387
763.762	0.0142117
763.840	0.0142316
763.918	0.0141640
763.996	0.0142843
764.075	0.0142994
764.153	0.0142603
764.231	0.0141146
764.309	0.0142409
764.387	0.0143372
764.465	0.0142722
764.543	0.0142929
764.621	0.0142431
764.700	0.0141592
