05/04/2022	21:21:43	Ver.	4.1	UNKNOWN
Optical Delay	678.996401	Delta X		0.078125	Sweeps	1	Scan Rate	0/0
Coordinates	Axis 1	NaN	Axis 2	NaN	Axis 3	NaN	Axis 4	NaN	Axis 5	NaN	Axis 6	0.000000
TX Power	0.000000	RX Power	0.000000

678.996	0.0144809
679.075	0.0144572
679.153	0.0145099
679.231	0.0145583
679.309	0.0144134
679.387	0.0144915
679.465	0.0144846
679.543	0.0144506
679.621	0.0145627
679.700	0.0145601
679.778	0.0146829
679.856	0.0145358
679.934	0.0144579
680.012	0.0146857
680.090	0.0146619
680.168	0.0144604
680.246	0.0144798
680.325	0.0145214
680.403	0.0144527
680.481	0.0143666
680.559	0.0144677
680.637	0.0144070
680.715	0.0144328
680.793	0.0143216
680.871	0.0141735
680.950	0.0143007
681.028	0.0144684
681.106	0.0142966
681.184	0.0142638
681.262	0.0143229
681.340	0.0142995
681.418	0.0144061
681.496	0.0144157
681.575	0.0144251
681.653	0.0143773
681.731	0.0143598
681.809	0.0144393
681.887	0.0144706
681.965	0.0143977
682.043	0.0144071
682.121	0.0144978
682.200	0.0144553
682.278	0.0144964
682.356	0.0144305
682.434	0.0144314
682.512	0.0144121
682.590	0.0145412
682.668	0.0143925
682.746	0.0143794
682.825	0.0145631
682.903	0.0143450
682.981	0.0142429
683.059	0.0143147
683.137	0.0143024
683.215	0.0142655
683.293	0.0142245
683.371	0.0143118
683.450	0.0143595
683.528	0.0143649
683.606	0.0143374
683.684	0.0141000
683.762	0.0142305
683.840	0.0143320
683.918	0.0143266
683.996	0.0144608
684.075	0.0143577
684.153	0.0144637
684.231	0.0144090
684.309	0.0144128
684.387	0.0144444
684.465	0.0145576
684.543	0.0144761
684.621	0.0146497
684.700	0.0144700
684.778	0.0143656
684.856	0.0143858
684.934	0.0145581
685.012	0.0143877
685.090	0.0145947
685.168	0.0146460
685.246	0.0144948
685.325	0.0144803
685.403	0.0144820
685.481	0.0143967
685.559	0.0143787
685.637	0.0143272
685.715	0.0143089
685.793	0.0142865
685.871	0.0142635
685.950	0.0143830
686.028	0.0142442
686.106	0.0143243
686.184	0.0143923
686.262	0.0143791
686.340	0.0143419
686.418	0.0143487
686.496	0.0144286
686.575	0.0145043
686.653	0.0144286
686.731	0.0143848
686.809	0.0143363
686.887	0.0145016
686.965	0.0144196
687.043	0.0145007
687.121	0.0145287
687.200	0.0145284
687.278	0.0145527
687.356	0.0145442
687.434	0.0145606
687.512	0.0144112
687.590	0.0143545
687.668	0.0144823
687.746	0.0144194
687.825	0.0143517
687.903	0.0144325
687.981	0.0144263
688.059	0.0144647
688.137	0.0144625
688.215	0.0143813
688.293	0.0144078
688.371	0.0144746
688.450	0.0144346
688.528	0.0144267
688.606	0.0144508
688.684	0.0145335
688.762	0.0145271
688.840	0.0143495
688.918	0.0145148
688.996	0.0146127
689.075	0.0145988
689.153	0.0144964
689.231	0.0146166
689.309	0.0146068
689.387	0.0146181
689.465	0.0145967
689.543	0.0144978
689.621	0.0145081
689.700	0.0143944
689.778	0.0144218
689.856	0.0143652
689.934	0.0144371
690.012	0.0144270
690.090	0.0142743
690.168	0.0142910
690.246	0.0143740
690.325	0.0143531
690.403	0.0143364
690.481	0.0144116
690.559	0.0143121
690.637	0.0142725
690.715	0.0143874
690.793	0.0144019
690.871	0.0144009
690.950	0.0143338
691.028	0.0144530
691.106	0.0144773
691.184	0.0143832
691.262	0.0144642
691.340	0.0144445
691.418	0.0145363
691.496	0.0145126
691.575	0.0144810
691.653	0.0144091
691.731	0.0146370
691.809	0.0145995
691.887	0.0145605
691.965	0.0145870
692.043	0.0146834
692.121	0.0145554
692.200	0.0144550
692.278	0.0143941
692.356	0.0144550
692.434	0.0143784
692.512	0.0144341
692.590	0.0143078
692.668	0.0142419
692.746	0.0144193
692.825	0.0142696
692.903	0.0142499
692.981	0.0143695
693.059	0.0144070
693.137	0.0145401
693.215	0.0145195
693.293	0.0147599
693.371	0.0146133
693.450	0.0147801
693.528	0.0147853
693.606	0.0147172
693.684	0.0146256
693.762	0.0146914
693.840	0.0147549
693.918	0.0145351
693.996	0.0143795
694.075	0.0142464
694.153	0.0141502
694.231	0.0141487
694.309	0.0142127
694.387	0.0142310
694.465	0.0140918
694.543	0.0141703
694.621	0.0143525
694.700	0.0144812
694.778	0.0147025
694.856	0.0146786
694.934	0.0148990
695.012	0.0147829
695.090	0.0149728
695.168	0.0149526
695.246	0.0147878
695.325	0.0146716
695.403	0.0145084
695.481	0.0144797
695.559	0.0143225
695.637	0.0141924
695.715	0.0140355
695.793	0.0138318
695.871	0.0137797
695.950	0.0139010
696.028	0.0137389
696.106	0.0139169
696.184	0.0140456
696.262	0.0140168
696.340	0.0144441
696.418	0.0144975
696.496	0.0146528
696.575	0.0147195
696.653	0.0150217
696.731	0.0150585
696.809	0.0151474
696.887	0.0150991
696.965	0.0148930
697.043	0.0148830
697.121	0.0147250
697.200	0.0145761
697.278	0.0145486
697.356	0.0142544
697.434	0.0140008
697.512	0.0139156
697.590	0.0138089
697.668	0.0139181
697.746	0.0141322
697.825	0.0141965
697.903	0.0143295
697.981	0.0146519
698.059	0.0148240
698.137	0.0148805
698.215	0.0149369
698.293	0.0152457
698.371	0.0153493
698.450	0.0152438
698.528	0.0150532
698.606	0.0150205
698.684	0.0146723
698.762	0.0144899
698.840	0.0142871
698.918	0.0140336
698.996	0.0139253
699.075	0.0137260
699.153	0.0134468
699.231	0.0134202
699.309	0.0136395
699.387	0.0138258
699.465	0.0139368
699.543	0.0143046
699.621	0.0146809
699.700	0.0147552
699.778	0.0151621
699.856	0.0153533
699.934	0.0154955
700.012	0.0156299
700.090	0.0155190
700.168	0.0153256
700.246	0.0149700
700.325	0.0147758
700.403	0.0144283
700.481	0.0142090
700.559	0.0139454
700.637	0.0136064
700.715	0.0134495
700.793	0.0135168
700.871	0.0136279
700.950	0.0136922
701.028	0.0139130
701.106	0.0139892
701.184	0.0143665
701.262	0.0144982
701.340	0.0147870
701.418	0.0150441
701.496	0.0150938
701.575	0.0152020
701.653	0.0152355
701.731	0.0152630
701.809	0.0149817
701.887	0.0147022
701.965	0.0145724
702.043	0.0142329
702.121	0.0141113
702.200	0.0139178
702.278	0.0138196
702.356	0.0137717
702.434	0.0138017
702.512	0.0139095
702.590	0.0139662
702.668	0.0141232
702.746	0.0144176
702.825	0.0146253
702.903	0.0148972
702.981	0.0149657
703.059	0.0150118
703.137	0.0150238
703.215	0.0150151
703.293	0.0147963
703.371	0.0146497
703.450	0.0146374
703.528	0.0144772
703.606	0.0142950
703.684	0.0140507
703.762	0.0139322
703.840	0.0138366
703.918	0.0139557
703.996	0.0140142
704.075	0.0140021
704.153	0.0140672
704.231	0.0143636
704.309	0.0144994
704.387	0.0147008
704.465	0.0148801
704.543	0.0152164
704.621	0.0152574
704.700	0.0153400
704.778	0.0153232
704.856	0.0152213
704.934	0.0152965
705.012	0.0150671
705.090	0.0149187
705.168	0.0145837
705.246	0.0144059
705.325	0.0142563
705.403	0.0141081
705.481	0.0139356
705.559	0.0139140
705.637	0.0136755
705.715	0.0136287
705.793	0.0135677
705.871	0.0135913
705.950	0.0135967
706.028	0.0136643
706.106	0.0138047
706.184	0.0140973
706.262	0.0145033
706.340	0.0147129
706.418	0.0151192
706.496	0.0153974
706.575	0.0156017
706.653	0.0157829
706.731	0.0157137
706.809	0.0157622
706.887	0.0155437
706.965	0.0152739
707.043	0.0150862
707.121	0.0146651
707.200	0.0141786
707.278	0.0138889
707.356	0.0135293
707.434	0.0134032
707.512	0.0131660
707.590	0.0132207
707.668	0.0131369
707.746	0.0133562
707.825	0.0137836
707.903	0.0138290
707.981	0.0141157
708.059	0.0142929
708.137	0.0144914
708.215	0.0147997
708.293	0.0150213
708.371	0.0151461
708.450	0.0153341
708.528	0.0154594
708.606	0.0153819
708.684	0.0154671
708.762	0.0153107
708.840	0.0150791
708.918	0.0149306
708.996	0.0147350
709.075	0.0146788
709.153	0.0145893
709.231	0.0142780
709.309	0.0141045
709.387	0.0141615
709.465	0.0141090
709.543	0.0140868
709.621	0.0139893
709.700	0.0137287
709.778	0.0137169
709.856	0.0139086
709.934	0.0140936
710.012	0.0142940
710.090	0.0143342
710.168	0.0144373
710.246	0.0145444
710.325	0.0147707
710.403	0.0149596
710.481	0.0151793
710.559	0.0153432
710.637	0.0152771
710.715	0.0152522
710.793	0.0149537
710.871	0.0149747
710.950	0.0149717
711.028	0.0145037
711.106	0.0144376
711.184	0.0142822
711.262	0.0142286
711.340	0.0141431
711.418	0.0140684
711.496	0.0142660
711.575	0.0141907
711.653	0.0142071
711.731	0.0142946
711.809	0.0143819
711.887	0.0145815
711.965	0.0144581
712.043	0.0145131
712.121	0.0144608
712.200	0.0144466
712.278	0.0143904
712.356	0.0142284
712.434	0.0143008
712.512	0.0144599
712.590	0.0144730
712.668	0.0144482
712.746	0.0145855
712.825	0.0145459
712.903	0.0146906
712.981	0.0146844
713.059	0.0146870
713.137	0.0145295
713.215	0.0145041
713.293	0.0146667
713.371	0.0146075
713.450	0.0145934
713.528	0.0145338
713.606	0.0144028
713.684	0.0144379
713.762	0.0143814
713.840	0.0142467
713.918	0.0143583
713.996	0.0145032
714.075	0.0146935
714.153	0.0144996
714.231	0.0146220
714.309	0.0147555
714.387	0.0147713
714.465	0.0147617
714.543	0.0149139
714.621	0.0148743
714.700	0.0148207
714.778	0.0147765
714.856	0.0147857
714.934	0.0146026
715.012	0.0146495
715.090	0.0144309
715.168	0.0144279
715.246	0.0142931
715.325	0.0141673
715.403	0.0140849
715.481	0.0140125
715.559	0.0141208
715.637	0.0139800
715.715	0.0139473
715.793	0.0141695
715.871	0.0140288
715.950	0.0142411
716.028	0.0142073
716.106	0.0142111
716.184	0.0143330
716.262	0.0144712
716.340	0.0146334
716.418	0.0146219
716.496	0.0147590
716.575	0.0149350
716.653	0.0149847
716.731	0.0148717
716.809	0.0149154
716.887	0.0147826
716.965	0.0149989
717.043	0.0147565
717.121	0.0146992
717.200	0.0146198
717.278	0.0145053
717.356	0.0144013
717.434	0.0142694
717.512	0.0140354
717.590	0.0140919
717.668	0.0140313
717.746	0.0139756
717.825	0.0139050
717.903	0.0141678
717.981	0.0142637
718.059	0.0142582
718.137	0.0143253
718.215	0.0144801
718.293	0.0147436
718.371	0.0148618
718.450	0.0147623
718.528	0.0149053
718.606	0.0150120
718.684	0.0151599
718.762	0.0150744
718.840	0.0151353
718.918	0.0150299
718.996	0.0148180
719.075	0.0147898
719.153	0.0147588
719.231	0.0145621
719.309	0.0143858
719.387	0.0142647
719.465	0.0140775
719.543	0.0138775
719.621	0.0138441
719.700	0.0139588
719.778	0.0138331
719.856	0.0138922
719.934	0.0140881
720.012	0.0140200
720.090	0.0139772
720.168	0.0142831
720.246	0.0143418
720.325	0.0145737
720.403	0.0147375
720.481	0.0148732
720.559	0.0147755
720.637	0.0148419
720.715	0.0150159
720.793	0.0149512
720.871	0.0148915
720.950	0.0147886
721.028	0.0146915
721.106	0.0146004
721.184	0.0145705
721.262	0.0143214
721.340	0.0143549
721.418	0.0144855
721.496	0.0142355
721.575	0.0141705
721.653	0.0141866
721.731	0.0140791
721.809	0.0140149
721.887	0.0139713
721.965	0.0140022
722.043	0.0138914
722.121	0.0139701
722.200	0.0138830
722.278	0.0139806
722.356	0.0139453
722.434	0.0139152
722.512	0.0140292
722.590	0.0142115
722.668	0.0142979
722.746	0.0143737
722.825	0.0143925
722.903	0.0146930
722.981	0.0148236
723.059	0.0148063
723.137	0.0151149
723.215	0.0151311
723.293	0.0152155
723.371	0.0150465
723.450	0.0150193
723.528	0.0150816
723.606	0.0150489
723.684	0.0147227
723.762	0.0144440
723.840	0.0144919
723.918	0.0142430
723.996	0.0140189
724.075	0.0140577
724.153	0.0139592
724.231	0.0139704
724.309	0.0138278
724.387	0.0138290
724.465	0.0140226
724.543	0.0141319
724.621	0.0143595
724.700	0.0143266
724.778	0.0144809
724.856	0.0143816
724.934	0.0145251
725.012	0.0147984
725.090	0.0145422
725.168	0.0148439
725.246	0.0149021
725.325	0.0149364
725.403	0.0148450
725.481	0.0149953
725.559	0.0149979
725.637	0.0148567
725.715	0.0149043
725.793	0.0149558
725.871	0.0148351
725.950	0.0147862
726.028	0.0145831
726.106	0.0144649
726.184	0.0145309
726.262	0.0144319
726.340	0.0142154
726.418	0.0141325
726.496	0.0141930
726.575	0.0139906
726.653	0.0140603
726.731	0.0140761
726.809	0.0139952
726.887	0.0140784
726.965	0.0142970
727.043	0.0142963
727.121	0.0145349
727.200	0.0147020
727.278	0.0146868
727.356	0.0148512
727.434	0.0147631
727.512	0.0148988
727.590	0.0151666
727.668	0.0150906
727.746	0.0147952
727.825	0.0149285
727.903	0.0150037
727.981	0.0146824
728.059	0.0146371
728.137	0.0144157
728.215	0.0142738
728.293	0.0142339
728.371	0.0141262
728.450	0.0141488
728.528	0.0141653
728.606	0.0140598
728.684	0.0141216
728.762	0.0141381
728.840	0.0143250
728.918	0.0142817
728.996	0.0143755
729.075	0.0145019
729.153	0.0144548
729.231	0.0145481
729.309	0.0144855
729.387	0.0145119
729.465	0.0147188
729.543	0.0146472
729.621	0.0146590
729.700	0.0145887
729.778	0.0146851
729.856	0.0147029
729.934	0.0146085
730.012	0.0145464
730.090	0.0144556
730.168	0.0146446
730.246	0.0144646
730.325	0.0143681
730.403	0.0145539
730.481	0.0144736
730.559	0.0144119
730.637	0.0144722
730.715	0.0144516
730.793	0.0144042
730.871	0.0146039
730.950	0.0144449
731.028	0.0144521
731.106	0.0144232
731.184	0.0145654
731.262	0.0143833
731.340	0.0144086
731.418	0.0145715
731.496	0.0144894
731.575	0.0143752
731.653	0.0144646
731.731	0.0143595
731.809	0.0143798
731.887	0.0144613
731.965	0.0143558
732.043	0.0144255
732.121	0.0143848
732.200	0.0143936
732.278	0.0146409
732.356	0.0146342
732.434	0.0146850
732.512	0.0146007
732.590	0.0146741
732.668	0.0147481
732.746	0.0147747
732.825	0.0146640
732.903	0.0147740
732.981	0.0147048
733.059	0.0146431
733.137	0.0146545
733.215	0.0146503
733.293	0.0145205
733.371	0.0144469
733.450	0.0145227
733.528	0.0143828
733.606	0.0144035
733.684	0.0143304
733.762	0.0142713
733.840	0.0141708
733.918	0.0142564
733.996	0.0143177
734.075	0.0142418
734.153	0.0141298
734.231	0.0143278
734.309	0.0143629
734.387	0.0142757
734.465	0.0143694
734.543	0.0145119
734.621	0.0145138
734.700	0.0145930
734.778	0.0145013
734.856	0.0146783
734.934	0.0147289
735.012	0.0146673
735.090	0.0147855
735.168	0.0146471
735.246	0.0147047
735.325	0.0147089
735.403	0.0146977
735.481	0.0144031
735.559	0.0143955
735.637	0.0143861
735.715	0.0142831
735.793	0.0142410
735.871	0.0141545
735.950	0.0140319
736.028	0.0140938
736.106	0.0139704
736.184	0.0140653
736.262	0.0142802
736.340	0.0141509
736.418	0.0143510
736.496	0.0143793
736.575	0.0144821
736.653	0.0145425
736.731	0.0145895
736.809	0.0146233
736.887	0.0146355
736.965	0.0146464
737.043	0.0148721
737.121	0.0149072
737.200	0.0147216
737.278	0.0146872
737.356	0.0148104
737.434	0.0147887
737.512	0.0147820
737.590	0.0146391
737.668	0.0144789
737.746	0.0144691
737.825	0.0145881
737.903	0.0143475
737.981	0.0142369
738.059	0.0141825
738.137	0.0142755
738.215	0.0142476
738.293	0.0141527
738.371	0.0141705
738.450	0.0141393
738.528	0.0142074
738.606	0.0141987
738.684	0.0141597
738.762	0.0141376
738.840	0.0141817
738.918	0.0142465
738.996	0.0143369
739.075	0.0143582
739.153	0.0145135
739.231	0.0144022
739.309	0.0144310
739.387	0.0146325
739.465	0.0145341
739.543	0.0144984
739.621	0.0145640
739.700	0.0146072
739.778	0.0147552
739.856	0.0147459
739.934	0.0146836
740.012	0.0146450
740.090	0.0147430
740.168	0.0146496
740.246	0.0146688
740.325	0.0146140
740.403	0.0145893
740.481	0.0144827
740.559	0.0145050
740.637	0.0144187
740.715	0.0143390
740.793	0.0145014
740.871	0.0144419
740.950	0.0143951
741.028	0.0144836
741.106	0.0144029
741.184	0.0144742
741.262	0.0145707
741.340	0.0144711
741.418	0.0146080
741.496	0.0145925
741.575	0.0146317
741.653	0.0147218
741.731	0.0145815
741.809	0.0145875
741.887	0.0144666
741.965	0.0145425
742.043	0.0146037
742.121	0.0145269
742.200	0.0144533
742.278	0.0143512
742.356	0.0143719
742.434	0.0142696
742.512	0.0143425
742.590	0.0142804
742.668	0.0143801
742.746	0.0144411
742.825	0.0143988
742.903	0.0144252
742.981	0.0144171
743.059	0.0141998
743.137	0.0142346
743.215	0.0143281
743.293	0.0144020
743.371	0.0141778
743.450	0.0141964
743.528	0.0140957
743.606	0.0142681
743.684	0.0143114
743.762	0.0142279
743.840	0.0141962
743.918	0.0142899
743.996	0.0142699
744.075	0.0143362
744.153	0.0144659
744.231	0.0144529
744.309	0.0145070
744.387	0.0145133
744.465	0.0146719
744.543	0.0147289
744.621	0.0145759
744.700	0.0146735
744.778	0.0146488
744.856	0.0145915
744.934	0.0147078
745.012	0.0147990
745.090	0.0145972
745.168	0.0145637
745.246	0.0145455
745.325	0.0144733
745.403	0.0145676
745.481	0.0144788
745.559	0.0144265
745.637	0.0143887
745.715	0.0143377
745.793	0.0144689
745.871	0.0143473
745.950	0.0144456
746.028	0.0143687
746.106	0.0143407
746.184	0.0144299
746.262	0.0143490
746.340	0.0143269
746.418	0.0143835
746.496	0.0144704
746.575	0.0144724
746.653	0.0143114
746.731	0.0144422
746.809	0.0145390
746.887	0.0144444
746.965	0.0146086
747.043	0.0147325
747.121	0.0146341
747.200	0.0146010
747.278	0.0148380
747.356	0.0146680
747.434	0.0146542
747.512	0.0146392
747.590	0.0146685
747.668	0.0146451
747.746	0.0146146
747.825	0.0144636
747.903	0.0143359
747.981	0.0144989
748.059	0.0143368
748.137	0.0143961
748.215	0.0143172
748.293	0.0142911
748.371	0.0142561
748.450	0.0143069
748.528	0.0144358
748.606	0.0144204
748.684	0.0145902
748.762	0.0147235
748.840	0.0146353
748.918	0.0146889
748.996	0.0147251
749.075	0.0148164
749.153	0.0146687
749.231	0.0145964
749.309	0.0147443
749.387	0.0146458
749.465	0.0147102
749.543	0.0146818
749.621	0.0146169
749.700	0.0146416
749.778	0.0144671
749.856	0.0144787
749.934	0.0145029
750.012	0.0144860
750.090	0.0142659
750.168	0.0142626
750.246	0.0142867
750.325	0.0142795
750.403	0.0142775
750.481	0.0142798
750.559	0.0143316
750.637	0.0142821
750.715	0.0142652
750.793	0.0143658
750.871	0.0143074
750.950	0.0143645
751.028	0.0144429
751.106	0.0143425
751.184	0.0141879
751.262	0.0143684
751.340	0.0143414
751.418	0.0144896
751.496	0.0145005
751.575	0.0144118
751.653	0.0144052
751.731	0.0144562
751.809	0.0144000
751.887	0.0144998
751.965	0.0143748
752.043	0.0143356
752.121	0.0143718
752.200	0.0143854
752.278	0.0143884
752.356	0.0144416
752.434	0.0142864
752.512	0.0141216
752.590	0.0144931
752.668	0.0143570
752.746	0.0143489
752.825	0.0144038
752.903	0.0142804
752.981	0.0143439
753.059	0.0144690
753.137	0.0143333
753.215	0.0143117
753.293	0.0143394
753.371	0.0144715
753.450	0.0143658
753.528	0.0144842
753.606	0.0144982
753.684	0.0144664
753.762	0.0147268
753.840	0.0144841
753.918	0.0145992
753.996	0.0145557
754.075	0.0145884
754.153	0.0145892
754.231	0.0144596
754.309	0.0144557
754.387	0.0146223
754.465	0.0144863
754.543	0.0145940
754.621	0.0145963
754.700	0.0145488
754.778	0.0143704
754.856	0.0144017
754.934	0.0145409
755.012	0.0145596
755.090	0.0143304
755.168	0.0142537
755.246	0.0143585
755.325	0.0145326
755.403	0.0145146
755.481	0.0144678
755.559	0.0144704
755.637	0.0142700
755.715	0.0145035
755.793	0.0144338
755.871	0.0143901
755.950	0.0144923
756.028	0.0144649
756.106	0.0143565
756.184	0.0145506
756.262	0.0143513
756.340	0.0143607
756.418	0.0143842
756.496	0.0145307
756.575	0.0145581
756.653	0.0145267
756.731	0.0144937
756.809	0.0145123
756.887	0.0145041
756.965	0.0146188
757.043	0.0144720
757.121	0.0145747
757.200	0.0144160
757.278	0.0145365
757.356	0.0145043
757.434	0.0147247
757.512	0.0144787
757.590	0.0144572
757.668	0.0146480
757.746	0.0146154
757.825	0.0145457
757.903	0.0144897
757.981	0.0145975
758.059	0.0144522
758.137	0.0144371
758.215	0.0145452
758.293	0.0145552
758.371	0.0145023
758.450	0.0145695
758.528	0.0145748
758.606	0.0144379
758.684	0.0143061
758.762	0.0143719
758.840	0.0143193
758.918	0.0143793
758.996	0.0143900
759.075	0.0144331
759.153	0.0144201
759.231	0.0143242
759.309	0.0142180
759.387	0.0143854
759.465	0.0143412
759.543	0.0143304
759.621	0.0143326
759.700	0.0142783
759.778	0.0143336
759.856	0.0143645
759.934	0.0143919
760.012	0.0143481
760.090	0.0142395
760.168	0.0143790
760.246	0.0143931
760.325	0.0143781
760.403	0.0144647
760.481	0.0142582
760.559	0.0144242
760.637	0.0144396
760.715	0.0143085
760.793	0.0142524
760.871	0.0144000
760.950	0.0142991
761.028	0.0142561
761.106	0.0145181
761.184	0.0145773
761.262	0.0144195
761.340	0.0143820
761.418	0.0147260
761.496	0.0146277
761.575	0.0145914
761.653	0.0145988
761.731	0.0147366
761.809	0.0144833
761.887	0.0144906
761.965	0.0145421
762.043	0.0143724
762.121	0.0144466
762.200	0.0144763
762.278	0.0143634
762.356	0.0145021
762.434	0.0144630
762.512	0.0144505
762.590	0.0145193
762.668	0.0143184
762.746	0.0145524
762.825	0.0145380
762.903	0.0144817
762.981	0.0144904
763.059	0.0144848
763.137	0.0144344
763.215	0.0144820
763.293	0.0143092
763.371	0.0144392
763.450	0.0143044
763.528	0.0143161
763.606	0.0143266
763.684	0.0143656
763.762	0.0144950
763.840	0.0143243
763.918	0.0144315
763.996	0.0145012
764.075	0.0143600
764.153	0.0144273
764.231	0.0144236
764.309	0.0144469
764.387	0.0143556
764.465	0.0144682
764.543	0.0144013
764.621	0.0143213
764.700	0.0144221
