05/04/2022	21:22:03	Ver.	4.1	UNKNOWN
Optical Delay	678.996401	Delta X		0.078125	Sweeps	1	Scan Rate	0/0
Coordinates	Axis 1	NaN	Axis 2	NaN	Axis 3	NaN	Axis 4	NaN	Axis 5	NaN	Axis 6	0.000000
TX Power	0.000000	RX Power	0.000000

678.996	0.0143027
679.075	0.0142325
679.153	0.0143851
679.231	0.0142590
679.309	0.0141300
679.387	0.0141103
679.465	0.0141962
679.543	0.0142989
679.621	0.0142924
679.700	0.0142802
679.778	0.0142033
679.856	0.0143256
679.934	0.0142927
680.012	0.0143880
680.090	0.0143362
680.168	0.0143748
680.246	0.0143710
680.325	0.0142355
680.403	0.0145319
680.481	0.0144277
680.559	0.0144445
680.637	0.0145126
680.715	0.0144141
680.793	0.0145499
680.871	0.0144680
680.950	0.0145007
681.028	0.0143990
681.106	0.0144397
681.184	0.0144186
681.262	0.0143481
681.340	0.0144940
681.418	0.0144234
681.496	0.0143864
681.575	0.0142812
681.653	0.0142786
681.731	0.0142561
681.809	0.0142568
681.887	0.0143015
681.965	0.0142321
682.043	0.0142394
682.121	0.0142297
682.200	0.0141540
682.278	0.0143929
682.356	0.0144022
682.434	0.0142886
682.512	0.0143719
682.590	0.0143335
682.668	0.0144202
682.746	0.0144427
682.825	0.0145704
682.903	0.0144379
682.981	0.0143745
683.059	0.0144890
683.137	0.0144989
683.215	0.0144051
683.293	0.0144711
683.371	0.0143545
683.450	0.0145482
683.528	0.0143562
683.606	0.0143575
683.684	0.0144471
683.762	0.0144160
683.840	0.0143157
683.918	0.0143797
683.996	0.0143324
684.075	0.0143266
684.153	0.0143894
684.231	0.0142883
684.309	0.0144061
684.387	0.0142918
684.465	0.0141984
684.543	0.0144368
684.621	0.0143192
684.700	0.0143491
684.778	0.0144356
684.856	0.0143462
684.934	0.0142580
685.012	0.0144770
685.090	0.0144277
685.168	0.0145177
685.246	0.0145206
685.325	0.0144090
685.403	0.0144155
685.481	0.0144534
685.559	0.0144950
685.637	0.0145127
685.715	0.0146912
685.793	0.0146080
685.871	0.0146029
685.950	0.0144564
686.028	0.0143512
686.106	0.0142522
686.184	0.0143060
686.262	0.0142722
686.340	0.0142934
686.418	0.0143785
686.496	0.0142868
686.575	0.0142071
686.653	0.0145000
686.731	0.0143038
686.809	0.0143175
686.887	0.0144095
686.965	0.0143098
687.043	0.0143732
687.121	0.0144906
687.200	0.0145085
687.278	0.0144567
687.356	0.0145885
687.434	0.0145921
687.512	0.0145580
687.590	0.0145053
687.668	0.0144748
687.746	0.0145703
687.825	0.0145143
687.903	0.0144513
687.981	0.0143862
688.059	0.0144359
688.137	0.0143494
688.215	0.0143817
688.293	0.0144264
688.371	0.0143706
688.450	0.0142980
688.528	0.0142089
688.606	0.0142466
688.684	0.0141707
688.762	0.0142084
688.840	0.0141931
688.918	0.0141296
688.996	0.0142381
689.075	0.0142863
689.153	0.0141557
689.231	0.0142059
689.309	0.0143639
689.387	0.0143507
689.465	0.0142249
689.543	0.0142524
689.621	0.0142949
689.700	0.0143201
689.778	0.0142803
689.856	0.0143738
689.934	0.0142531
690.012	0.0142556
690.090	0.0143184
690.168	0.0142445
690.246	0.0143688
690.325	0.0143476
690.403	0.0142472
690.481	0.0142024
690.559	0.0143633
690.637	0.0142699
690.715	0.0142826
690.793	0.0142529
690.871	0.0143266
690.950	0.0143663
691.028	0.0143938
691.106	0.0143262
691.184	0.0142905
691.262	0.0144823
691.340	0.0144164
691.418	0.0144160
691.496	0.0144596
691.575	0.0142480
691.653	0.0142109
691.731	0.0143343
691.809	0.0142284
691.887	0.0142341
691.965	0.0141644
692.043	0.0142278
692.121	0.0142290
692.200	0.0143171
692.278	0.0144450
692.356	0.0142889
692.434	0.0144059
692.512	0.0144727
692.590	0.0145107
692.668	0.0145697
692.746	0.0144576
692.825	0.0144093
692.903	0.0144234
692.981	0.0146255
693.059	0.0146824
693.137	0.0144846
693.215	0.0144331
693.293	0.0145412
693.371	0.0142609
693.450	0.0141138
693.528	0.0140226
693.606	0.0140059
693.684	0.0139610
693.762	0.0138283
693.840	0.0139291
693.918	0.0138181
693.996	0.0139496
694.075	0.0138689
694.153	0.0140260
694.231	0.0142829
694.309	0.0145879
694.387	0.0144692
694.465	0.0146848
694.543	0.0146556
694.621	0.0146753
694.700	0.0146552
694.778	0.0147296
694.856	0.0145985
694.934	0.0144589
695.012	0.0142751
695.090	0.0142339
695.168	0.0140718
695.246	0.0139896
695.325	0.0137952
695.403	0.0137365
695.481	0.0138029
695.559	0.0138650
695.637	0.0138820
695.715	0.0140616
695.793	0.0142259
695.871	0.0143874
695.950	0.0143724
696.028	0.0146402
696.106	0.0148317
696.184	0.0147759
696.262	0.0147804
696.340	0.0148908
696.418	0.0149055
696.496	0.0148011
696.575	0.0146277
696.653	0.0146098
696.731	0.0143200
696.809	0.0143432
696.887	0.0142045
696.965	0.0138603
697.043	0.0137691
697.121	0.0139040
697.200	0.0137939
697.278	0.0139477
697.356	0.0139975
697.434	0.0142751
697.512	0.0144691
697.590	0.0146703
697.668	0.0147839
697.746	0.0149460
697.825	0.0149899
697.903	0.0150723
697.981	0.0151438
698.059	0.0151209
698.137	0.0149008
698.215	0.0147108
698.293	0.0145229
698.371	0.0144991
698.450	0.0139420
698.528	0.0136439
698.606	0.0135944
698.684	0.0134648
698.762	0.0134190
698.840	0.0135722
698.918	0.0136850
698.996	0.0139134
699.075	0.0141784
699.153	0.0144305
699.231	0.0146985
699.309	0.0148116
699.387	0.0150318
699.465	0.0151986
699.543	0.0152831
699.621	0.0151302
699.700	0.0151835
699.778	0.0148875
699.856	0.0146877
699.934	0.0143715
700.012	0.0141301
700.090	0.0137846
700.168	0.0136877
700.246	0.0136801
700.325	0.0136050
700.403	0.0135300
700.481	0.0136536
700.559	0.0138236
700.637	0.0140707
700.715	0.0143419
700.793	0.0146188
700.871	0.0147019
700.950	0.0149680
701.028	0.0151061
701.106	0.0150127
701.184	0.0149953
701.262	0.0149440
701.340	0.0146432
701.418	0.0144924
701.496	0.0141681
701.575	0.0140064
701.653	0.0137231
701.731	0.0134392
701.809	0.0137747
701.887	0.0138988
701.965	0.0137465
702.043	0.0141595
702.121	0.0143769
702.200	0.0145329
702.278	0.0147736
702.356	0.0149056
702.434	0.0150469
702.512	0.0150574
702.590	0.0150241
702.668	0.0150087
702.746	0.0148805
702.825	0.0147057
702.903	0.0144815
702.981	0.0144936
703.059	0.0143855
703.137	0.0141730
703.215	0.0139198
703.293	0.0138818
703.371	0.0137080
703.450	0.0137726
703.528	0.0139091
703.606	0.0139571
703.684	0.0138219
703.762	0.0141891
703.840	0.0142862
703.918	0.0146712
703.996	0.0147016
704.075	0.0150944
704.153	0.0151650
704.231	0.0151735
704.309	0.0152948
704.387	0.0153202
704.465	0.0152197
704.543	0.0151956
704.621	0.0150201
704.700	0.0148449
704.778	0.0146555
704.856	0.0145172
704.934	0.0143151
705.012	0.0142132
705.090	0.0139368
705.168	0.0136380
705.246	0.0135790
705.325	0.0135114
705.403	0.0133250
705.481	0.0132183
705.559	0.0131087
705.637	0.0132673
705.715	0.0135192
705.793	0.0137602
705.871	0.0140681
705.950	0.0146468
706.028	0.0151396
706.106	0.0154677
706.184	0.0158015
706.262	0.0158527
706.340	0.0158659
706.418	0.0158676
706.496	0.0155222
706.575	0.0151411
706.653	0.0149287
706.731	0.0145212
706.809	0.0141887
706.887	0.0139169
706.965	0.0135749
707.043	0.0133673
707.121	0.0132937
707.200	0.0132703
707.278	0.0132124
707.356	0.0133473
707.434	0.0134129
707.512	0.0136633
707.590	0.0139726
707.668	0.0140807
707.746	0.0141514
707.825	0.0145501
707.903	0.0147895
707.981	0.0148029
708.059	0.0149587
708.137	0.0151351
708.215	0.0151189
708.293	0.0151917
708.371	0.0152122
708.450	0.0151066
708.528	0.0149884
708.606	0.0148665
708.684	0.0146059
708.762	0.0143723
708.840	0.0143764
708.918	0.0142706
708.996	0.0140824
709.075	0.0139272
709.153	0.0138280
709.231	0.0137405
709.309	0.0136501
709.387	0.0137215
709.465	0.0137363
709.543	0.0135835
709.621	0.0138461
709.700	0.0139397
709.778	0.0140722
709.856	0.0144365
709.934	0.0146262
710.012	0.0147247
710.090	0.0148193
710.168	0.0149393
710.246	0.0150327
710.325	0.0151183
710.403	0.0150069
710.481	0.0147855
710.559	0.0145695
710.637	0.0145195
710.715	0.0144851
710.793	0.0143380
710.871	0.0142183
710.950	0.0142245
711.028	0.0141993
711.106	0.0141518
711.184	0.0141485
711.262	0.0140459
711.340	0.0142819
711.418	0.0141927
711.496	0.0142219
711.575	0.0143136
711.653	0.0142585
711.731	0.0140148
711.809	0.0140910
711.887	0.0141789
711.965	0.0140253
712.043	0.0138862
712.121	0.0140319
712.200	0.0141952
712.278	0.0142011
712.356	0.0141346
712.434	0.0142312
712.512	0.0143390
712.590	0.0144794
712.668	0.0145025
712.746	0.0146603
712.825	0.0144218
712.903	0.0147185
712.981	0.0145325
713.059	0.0145090
713.137	0.0145734
713.215	0.0143755
713.293	0.0144555
713.371	0.0144880
713.450	0.0143256
713.528	0.0143474
713.606	0.0142258
713.684	0.0143127
713.762	0.0143472
713.840	0.0143695
713.918	0.0144469
713.996	0.0143934
714.075	0.0145221
714.153	0.0145050
714.231	0.0145462
714.309	0.0145956
714.387	0.0143763
714.465	0.0145373
714.543	0.0144540
714.621	0.0143887
714.700	0.0142361
714.778	0.0142121
714.856	0.0140183
714.934	0.0139958
715.012	0.0138738
715.090	0.0138047
715.168	0.0138467
715.246	0.0137228
715.325	0.0137758
715.403	0.0136288
715.481	0.0139144
715.559	0.0138544
715.637	0.0140942
715.715	0.0142576
715.793	0.0144894
715.871	0.0144692
715.950	0.0147375
716.028	0.0148099
716.106	0.0149217
716.184	0.0148618
716.262	0.0148987
716.340	0.0149180
716.418	0.0149044
716.496	0.0148099
716.575	0.0146999
716.653	0.0145499
716.731	0.0145367
716.809	0.0143255
716.887	0.0143401
716.965	0.0140402
717.043	0.0139535
717.121	0.0139879
717.200	0.0139660
717.278	0.0137559
717.356	0.0136080
717.434	0.0136317
717.512	0.0136761
717.590	0.0136671
717.668	0.0137874
717.746	0.0139164
717.825	0.0141303
717.903	0.0142130
717.981	0.0143820
718.059	0.0146215
718.137	0.0148310
718.215	0.0148947
718.293	0.0149060
718.371	0.0151872
718.450	0.0152950
718.528	0.0151881
718.606	0.0150929
718.684	0.0150243
718.762	0.0149870
718.840	0.0148202
718.918	0.0146835
718.996	0.0146170
719.075	0.0142690
719.153	0.0140747
719.231	0.0140491
719.309	0.0138922
719.387	0.0136968
719.465	0.0135751
719.543	0.0135393
719.621	0.0136080
719.700	0.0138244
719.778	0.0137681
719.856	0.0140083
719.934	0.0143107
720.012	0.0144523
720.090	0.0146462
720.168	0.0146013
720.246	0.0147260
720.325	0.0146947
720.403	0.0149409
720.481	0.0148852
720.559	0.0149122
720.637	0.0148447
720.715	0.0147986
720.793	0.0147084
720.871	0.0146721
720.950	0.0146384
721.028	0.0146687
721.106	0.0145391
721.184	0.0145865
721.262	0.0144208
721.340	0.0143659
721.418	0.0143635
721.496	0.0141341
721.575	0.0139947
721.653	0.0140436
721.731	0.0139354
721.809	0.0141496
721.887	0.0138705
721.965	0.0137247
722.043	0.0138663
722.121	0.0139137
722.200	0.0139241
722.278	0.0139429
722.356	0.0139584
722.434	0.0142491
722.512	0.0143801
722.590	0.0145744
722.668	0.0147222
722.746	0.0149178
722.825	0.0148804
722.903	0.0152056
722.981	0.0152307
723.059	0.0154123
723.137	0.0152477
723.215	0.0151229
723.293	0.0150026
723.371	0.0149627
723.450	0.0147890
723.528	0.0145354
723.606	0.0143854
723.684	0.0141805
723.762	0.0139983
723.840	0.0139989
723.918	0.0138950
723.996	0.0138327
724.075	0.0138499
724.153	0.0136427
724.231	0.0137300
724.309	0.0138355
724.387	0.0139601
724.465	0.0137867
724.543	0.0139697
724.621	0.0142366
724.700	0.0142140
724.778	0.0143864
724.856	0.0145072
724.934	0.0145650
725.012	0.0147896
725.090	0.0147831
725.168	0.0148286
725.246	0.0147643
725.325	0.0150141
725.403	0.0150610
725.481	0.0148694
725.559	0.0149738
725.637	0.0146761
725.715	0.0145985
725.793	0.0145749
725.871	0.0144764
725.950	0.0142604
726.028	0.0141428
726.106	0.0140218
726.184	0.0139886
726.262	0.0139313
726.340	0.0138684
726.418	0.0139214
726.496	0.0141311
726.575	0.0139947
726.653	0.0140142
726.731	0.0143159
726.809	0.0144704
726.887	0.0145544
726.965	0.0146237
727.043	0.0146887
727.121	0.0148360
727.200	0.0148214
727.278	0.0148699
727.356	0.0148466
727.434	0.0148782
727.512	0.0147529
727.590	0.0147237
727.668	0.0146656
727.746	0.0146104
727.825	0.0143691
727.903	0.0141650
727.981	0.0143251
728.059	0.0142246
728.137	0.0141946
728.215	0.0142264
728.293	0.0141814
728.371	0.0142017
728.450	0.0143445
728.528	0.0142255
728.606	0.0141686
728.684	0.0142383
728.762	0.0143276
728.840	0.0143241
728.918	0.0142094
728.996	0.0143088
729.075	0.0143917
729.153	0.0144146
729.231	0.0143470
729.309	0.0142897
729.387	0.0143048
729.465	0.0142741
729.543	0.0143298
729.621	0.0143221
729.700	0.0144321
729.778	0.0143062
729.856	0.0143001
729.934	0.0143964
730.012	0.0145497
730.090	0.0143372
730.168	0.0142243
730.246	0.0143613
730.325	0.0145191
730.403	0.0145391
730.481	0.0144032
730.559	0.0144254
730.637	0.0144885
730.715	0.0144760
730.793	0.0144585
730.871	0.0143405
730.950	0.0143313
731.028	0.0142585
731.106	0.0142780
731.184	0.0142621
731.262	0.0141099
731.340	0.0140211
731.418	0.0140466
731.496	0.0141235
731.575	0.0140556
731.653	0.0141390
731.731	0.0141193
731.809	0.0141113
731.887	0.0141187
731.965	0.0142580
732.043	0.0142587
732.121	0.0144187
732.200	0.0144069
732.278	0.0145480
732.356	0.0145779
732.434	0.0145324
732.512	0.0145071
732.590	0.0144984
732.668	0.0144176
732.746	0.0146197
732.825	0.0145881
732.903	0.0145223
732.981	0.0145676
733.059	0.0145395
733.137	0.0143150
733.215	0.0143222
733.293	0.0143583
733.371	0.0143357
733.450	0.0142078
733.528	0.0142908
733.606	0.0142408
733.684	0.0141503
733.762	0.0140462
733.840	0.0140998
733.918	0.0139762
733.996	0.0141447
734.075	0.0142520
734.153	0.0142136
734.231	0.0142249
734.309	0.0142743
734.387	0.0145166
734.465	0.0145079
734.543	0.0146442
734.621	0.0146615
734.700	0.0146886
734.778	0.0146494
734.856	0.0146627
734.934	0.0147409
735.012	0.0145975
735.090	0.0146797
735.168	0.0145667
735.246	0.0144911
735.325	0.0142974
735.403	0.0142759
735.481	0.0141385
735.559	0.0140680
735.637	0.0140412
735.715	0.0139906
735.793	0.0139339
735.871	0.0139481
735.950	0.0140316
736.028	0.0139404
736.106	0.0140223
736.184	0.0140550
736.262	0.0140597
736.340	0.0140940
736.418	0.0143366
736.496	0.0144157
736.575	0.0143291
736.653	0.0144054
736.731	0.0144040
736.809	0.0143323
736.887	0.0144258
736.965	0.0145290
737.043	0.0145155
737.121	0.0145409
737.200	0.0144702
737.278	0.0144106
737.356	0.0143041
737.434	0.0144142
737.512	0.0143845
737.590	0.0142906
737.668	0.0142660
737.746	0.0141155
737.825	0.0142638
737.903	0.0142005
737.981	0.0142519
738.059	0.0140886
738.137	0.0139671
738.215	0.0141399
738.293	0.0141042
738.371	0.0139362
738.450	0.0140628
738.528	0.0141273
738.606	0.0139980
738.684	0.0141153
738.762	0.0141941
738.840	0.0141680
738.918	0.0142504
738.996	0.0144424
739.075	0.0144489
739.153	0.0145267
739.231	0.0144440
739.309	0.0145109
739.387	0.0144976
739.465	0.0146362
739.543	0.0146446
739.621	0.0145287
739.700	0.0146313
739.778	0.0146291
739.856	0.0145658
739.934	0.0145386
740.012	0.0143934
740.090	0.0144284
740.168	0.0144064
740.246	0.0144015
740.325	0.0144430
740.403	0.0143209
740.481	0.0142688
740.559	0.0143086
740.637	0.0144958
740.715	0.0143864
740.793	0.0143275
740.871	0.0144122
740.950	0.0142567
741.028	0.0144613
741.106	0.0144720
741.184	0.0145638
741.262	0.0144298
741.340	0.0144083
741.418	0.0145458
741.496	0.0145441
741.575	0.0146822
741.653	0.0145509
741.731	0.0145089
741.809	0.0145629
741.887	0.0144366
741.965	0.0144397
742.043	0.0144614
742.121	0.0144471
742.200	0.0145197
742.278	0.0145650
742.356	0.0144167
742.434	0.0143816
742.512	0.0145419
742.590	0.0143835
742.668	0.0143485
742.746	0.0143451
742.825	0.0143171
742.903	0.0143555
742.981	0.0142156
743.059	0.0141938
743.137	0.0141758
743.215	0.0140884
743.293	0.0141116
743.371	0.0141419
743.450	0.0139954
743.528	0.0139599
743.606	0.0141722
743.684	0.0141466
743.762	0.0142803
743.840	0.0144349
743.918	0.0143150
743.996	0.0144814
744.075	0.0146011
744.153	0.0146278
744.231	0.0145564
744.309	0.0146558
744.387	0.0146873
744.465	0.0146247
744.543	0.0147225
744.621	0.0146590
744.700	0.0145888
744.778	0.0145275
744.856	0.0145804
744.934	0.0144041
745.012	0.0145136
745.090	0.0143358
745.168	0.0142848
745.246	0.0143305
745.325	0.0142844
745.403	0.0141142
745.481	0.0141482
745.559	0.0142165
745.637	0.0140726
745.715	0.0140571
745.793	0.0140505
745.871	0.0139584
745.950	0.0139509
746.028	0.0141202
746.106	0.0141211
746.184	0.0141242
746.262	0.0140387
746.340	0.0142358
746.418	0.0143158
746.496	0.0143887
746.575	0.0145148
746.653	0.0144225
746.731	0.0144861
746.809	0.0144534
746.887	0.0144166
746.965	0.0144926
747.043	0.0146295
747.121	0.0145280
747.200	0.0144960
747.278	0.0143835
747.356	0.0142590
747.434	0.0141550
747.512	0.0142974
747.590	0.0143103
747.668	0.0141153
747.746	0.0141383
747.825	0.0140839
747.903	0.0142575
747.981	0.0142481
748.059	0.0141314
748.137	0.0142284
748.215	0.0143508
748.293	0.0144128
748.371	0.0143516
748.450	0.0143983
748.528	0.0144080
748.606	0.0143867
748.684	0.0145456
748.762	0.0145558
748.840	0.0145354
748.918	0.0145192
748.996	0.0147565
749.075	0.0147792
749.153	0.0145113
749.231	0.0146143
749.309	0.0145953
749.387	0.0145412
749.465	0.0144131
749.543	0.0144601
749.621	0.0143629
749.700	0.0144218
749.778	0.0144077
749.856	0.0143707
749.934	0.0143937
750.012	0.0143997
750.090	0.0141060
750.168	0.0143401
750.246	0.0143476
750.325	0.0142669
750.403	0.0143391
750.481	0.0141720
750.559	0.0141762
750.637	0.0143914
750.715	0.0143470
750.793	0.0142506
750.871	0.0143095
750.950	0.0142468
751.028	0.0144389
751.106	0.0142271
751.184	0.0143635
751.262	0.0143195
751.340	0.0143594
751.418	0.0143682
751.496	0.0144303
751.575	0.0143836
751.653	0.0143983
751.731	0.0144686
751.809	0.0145522
751.887	0.0144861
751.965	0.0145497
752.043	0.0145435
752.121	0.0143765
752.200	0.0144770
752.278	0.0143107
752.356	0.0142968
752.434	0.0143101
752.512	0.0143197
752.590	0.0142712
752.668	0.0143255
752.746	0.0142583
752.825	0.0142947
752.903	0.0142413
752.981	0.0142807
753.059	0.0142648
753.137	0.0142494
753.215	0.0142902
753.293	0.0143165
753.371	0.0143022
753.450	0.0144266
753.528	0.0143684
753.606	0.0143504
753.684	0.0145364
753.762	0.0143604
753.840	0.0142767
753.918	0.0143796
753.996	0.0143639
754.075	0.0143677
754.153	0.0143917
754.231	0.0143535
754.309	0.0142146
754.387	0.0142583
754.465	0.0143642
754.543	0.0143053
754.621	0.0141705
754.700	0.0141470
754.778	0.0141945
754.856	0.0143462
754.934	0.0142858
755.012	0.0142797
755.090	0.0141697
755.168	0.0143296
755.246	0.0142033
755.325	0.0142239
755.403	0.0142897
755.481	0.0142751
755.559	0.0143385
755.637	0.0142616
755.715	0.0143141
755.793	0.0142082
755.871	0.0142905
755.950	0.0142886
756.028	0.0142164
756.106	0.0144480
756.184	0.0144843
756.262	0.0142927
756.340	0.0142754
756.418	0.0143837
756.496	0.0142243
756.575	0.0143759
756.653	0.0144356
756.731	0.0144029
756.809	0.0144065
756.887	0.0144970
756.965	0.0144298
757.043	0.0145341
757.121	0.0144112
757.200	0.0143615
757.278	0.0143925
757.356	0.0144252
757.434	0.0145841
757.512	0.0143861
757.590	0.0144093
757.668	0.0142611
757.746	0.0143884
757.825	0.0142696
757.903	0.0143415
757.981	0.0142504
758.059	0.0142430
758.137	0.0143889
758.215	0.0143333
758.293	0.0143348
758.371	0.0142934
758.450	0.0142533
758.528	0.0142392
758.606	0.0142610
758.684	0.0142009
758.762	0.0142309
758.840	0.0144483
758.918	0.0142387
758.996	0.0141961
759.075	0.0142807
759.153	0.0143821
759.231	0.0141909
759.309	0.0143089
759.387	0.0144993
759.465	0.0144736
759.543	0.0144888
759.621	0.0144216
759.700	0.0142689
759.778	0.0143754
759.856	0.0144427
759.934	0.0143595
760.012	0.0144093
760.090	0.0143494
760.168	0.0142216
760.246	0.0142502
760.325	0.0142750
760.403	0.0142881
760.481	0.0143299
760.559	0.0142877
760.637	0.0143852
760.715	0.0143201
760.793	0.0143391
760.871	0.0143764
760.950	0.0145171
761.028	0.0146440
761.106	0.0143781
761.184	0.0145554
761.262	0.0145947
761.340	0.0145601
761.418	0.0145686
761.496	0.0144810
761.575	0.0146030
761.653	0.0144795
761.731	0.0146092
761.809	0.0144918
761.887	0.0145137
761.965	0.0144949
762.043	0.0144868
762.121	0.0144652
762.200	0.0143859
762.278	0.0143585
762.356	0.0144499
762.434	0.0145522
762.512	0.0144548
762.590	0.0143383
762.668	0.0143991
762.746	0.0144492
762.825	0.0144995
762.903	0.0143362
762.981	0.0142960
763.059	0.0141872
763.137	0.0143130
763.215	0.0141756
763.293	0.0143605
763.371	0.0142704
763.450	0.0143876
763.528	0.0143174
763.606	0.0142041
763.684	0.0143172
763.762	0.0144587
763.840	0.0143288
763.918	0.0143879
763.996	0.0144256
764.075	0.0143982
764.153	0.0144289
764.231	0.0143826
764.309	0.0144315
764.387	0.0143399
764.465	0.0145125
764.543	0.0144280
764.621	0.0143806
764.700	0.0144490
