05/04/2022	21:23:13	Ver.	4.1	UNKNOWN
Optical Delay	678.996401	Delta X		0.078125	Sweeps	1	Scan Rate	0/0
Coordinates	Axis 1	NaN	Axis 2	NaN	Axis 3	NaN	Axis 4	NaN	Axis 5	NaN	Axis 6	0.000000
TX Power	0.000000	RX Power	0.000000

678.996	0.0149690
679.075	0.0149822
679.153	0.0151329
679.231	0.0151147
679.309	0.0149185
679.387	0.0149236
679.465	0.0149206
679.543	0.0150674
679.621	0.0150266
679.700	0.0149554
679.778	0.0148133
679.856	0.0149595
679.934	0.0148837
680.012	0.0151575
680.090	0.0150259
680.168	0.0150516
680.246	0.0149207
680.325	0.0149654
680.403	0.0150645
680.481	0.0150577
680.559	0.0149659
680.637	0.0149648
680.715	0.0152230
680.793	0.0151098
680.871	0.0151490
680.950	0.0151682
681.028	0.0152130
681.106	0.0152805
681.184	0.0151992
681.262	0.0151181
681.340	0.0151620
681.418	0.0151357
681.496	0.0150607
681.575	0.0150871
681.653	0.0149332
681.731	0.0147909
681.809	0.0148100
681.887	0.0147882
681.965	0.0148921
682.043	0.0148626
682.121	0.0149788
682.200	0.0148699
682.278	0.0149091
682.356	0.0150096
682.434	0.0149257
682.512	0.0149832
682.590	0.0151241
682.668	0.0150159
682.746	0.0151734
682.825	0.0150784
682.903	0.0150541
682.981	0.0151790
683.059	0.0151414
683.137	0.0151816
683.215	0.0151926
683.293	0.0150862
683.371	0.0151999
683.450	0.0150835
683.528	0.0150080
683.606	0.0151469
683.684	0.0150316
683.762	0.0150173
683.840	0.0149883
683.918	0.0148402
683.996	0.0150170
684.075	0.0149664
684.153	0.0148404
684.231	0.0148634
684.309	0.0150846
684.387	0.0150205
684.465	0.0150173
684.543	0.0150864
684.621	0.0150392
684.700	0.0151378
684.778	0.0151772
684.856	0.0151176
684.934	0.0151459
685.012	0.0151247
685.090	0.0151100
685.168	0.0151580
685.246	0.0150521
685.325	0.0151337
685.403	0.0153649
685.481	0.0152068
685.559	0.0150895
685.637	0.0151294
685.715	0.0150863
685.793	0.0151206
685.871	0.0149978
685.950	0.0150279
686.028	0.0150910
686.106	0.0151064
686.184	0.0151189
686.262	0.0151450
686.340	0.0150913
686.418	0.0150748
686.496	0.0151035
686.575	0.0149397
686.653	0.0150394
686.731	0.0150483
686.809	0.0149981
686.887	0.0149525
686.965	0.0149899
687.043	0.0150706
687.121	0.0151100
687.200	0.0151095
687.278	0.0150632
687.356	0.0151220
687.434	0.0151881
687.512	0.0151102
687.590	0.0150643
687.668	0.0151741
687.746	0.0150699
687.825	0.0151453
687.903	0.0150349
687.981	0.0150494
688.059	0.0151809
688.137	0.0150599
688.215	0.0150684
688.293	0.0150089
688.371	0.0151117
688.450	0.0151002
688.528	0.0151226
688.606	0.0151233
688.684	0.0150312
688.762	0.0150910
688.840	0.0150726
688.918	0.0151050
688.996	0.0152394
689.075	0.0150867
689.153	0.0150689
689.231	0.0150204
689.309	0.0150143
689.387	0.0150893
689.465	0.0150098
689.543	0.0150321
689.621	0.0149160
689.700	0.0149557
689.778	0.0151365
689.856	0.0149641
689.934	0.0150370
690.012	0.0151048
690.090	0.0150027
690.168	0.0150600
690.246	0.0151619
690.325	0.0150763
690.403	0.0149876
690.481	0.0149541
690.559	0.0150850
690.637	0.0150613
690.715	0.0150185
690.793	0.0148553
690.871	0.0150476
690.950	0.0151426
691.028	0.0149669
691.106	0.0150820
691.184	0.0151412
691.262	0.0150716
691.340	0.0152021
691.418	0.0152410
691.496	0.0151676
691.575	0.0152846
691.653	0.0153127
691.731	0.0152113
691.809	0.0153062
691.887	0.0152600
691.965	0.0152243
692.043	0.0150177
692.121	0.0150259
692.200	0.0148871
692.278	0.0147535
692.356	0.0147453
692.434	0.0145711
692.512	0.0145116
692.590	0.0144751
692.668	0.0145582
692.746	0.0146262
692.825	0.0147674
692.903	0.0148748
692.981	0.0150457
693.059	0.0152888
693.137	0.0155195
693.215	0.0154211
693.293	0.0155101
693.371	0.0154300
693.450	0.0156109
693.528	0.0156983
693.606	0.0155307
693.684	0.0154036
693.762	0.0154176
693.840	0.0151569
693.918	0.0151598
693.996	0.0150478
694.075	0.0149613
694.153	0.0146497
694.231	0.0144563
694.309	0.0144347
694.387	0.0143238
694.465	0.0143106
694.543	0.0144830
694.621	0.0145810
694.700	0.0145708
694.778	0.0146461
694.856	0.0149092
694.934	0.0150885
695.012	0.0152837
695.090	0.0154858
695.168	0.0153380
695.246	0.0155231
695.325	0.0154034
695.403	0.0154337
695.481	0.0154958
695.559	0.0155926
695.637	0.0154633
695.715	0.0152732
695.793	0.0152652
695.871	0.0152276
695.950	0.0149696
696.028	0.0149099
696.106	0.0147688
696.184	0.0146230
696.262	0.0147509
696.340	0.0145794
696.418	0.0145790
696.496	0.0147848
696.575	0.0149403
696.653	0.0148055
696.731	0.0149088
696.809	0.0150463
696.887	0.0151116
696.965	0.0152511
697.043	0.0152013
697.121	0.0153415
697.200	0.0152290
697.278	0.0151041
697.356	0.0150696
697.434	0.0149789
697.512	0.0149255
697.590	0.0147887
697.668	0.0148510
697.746	0.0149442
697.825	0.0150597
697.903	0.0149623
697.981	0.0151041
698.059	0.0152119
698.137	0.0150306
698.215	0.0150591
698.293	0.0151137
698.371	0.0152159
698.450	0.0151859
698.528	0.0152676
698.606	0.0151547
698.684	0.0150201
698.762	0.0149025
698.840	0.0147570
698.918	0.0146880
698.996	0.0145714
699.075	0.0145508
699.153	0.0145947
699.231	0.0146249
699.309	0.0145042
699.387	0.0147020
699.465	0.0150231
699.543	0.0152231
699.621	0.0152644
699.700	0.0154171
699.778	0.0155779
699.856	0.0155966
699.934	0.0157298
700.012	0.0155209
700.090	0.0154017
700.168	0.0152639
700.246	0.0151512
700.325	0.0149510
700.403	0.0147456
700.481	0.0144174
700.559	0.0142979
700.637	0.0142220
700.715	0.0142568
700.793	0.0143658
700.871	0.0145680
700.950	0.0146716
701.028	0.0148730
701.106	0.0152288
701.184	0.0155519
701.262	0.0158144
701.340	0.0157636
701.418	0.0158646
701.496	0.0160213
701.575	0.0159434
701.653	0.0159516
701.731	0.0158179
701.809	0.0157545
701.887	0.0154318
701.965	0.0151351
702.043	0.0148938
702.121	0.0146495
702.200	0.0143437
702.278	0.0142454
702.356	0.0142130
702.434	0.0141441
702.512	0.0141341
702.590	0.0142403
702.668	0.0143467
702.746	0.0144591
702.825	0.0144591
702.903	0.0146960
702.981	0.0147325
703.059	0.0149580
703.137	0.0151007
703.215	0.0153973
703.293	0.0155611
703.371	0.0157662
703.450	0.0158690
703.528	0.0160430
703.606	0.0159477
703.684	0.0160580
703.762	0.0161527
703.840	0.0159665
703.918	0.0158704
703.996	0.0155634
704.075	0.0153633
704.153	0.0151056
704.231	0.0148325
704.309	0.0145145
704.387	0.0144057
704.465	0.0139322
704.543	0.0137463
704.621	0.0136884
704.700	0.0135693
704.778	0.0137954
704.856	0.0137254
704.934	0.0139114
705.012	0.0143449
705.090	0.0145104
705.168	0.0150158
705.246	0.0153626
705.325	0.0158337
705.403	0.0161894
705.481	0.0163599
705.559	0.0165989
705.637	0.0165308
705.715	0.0164685
705.793	0.0164568
705.871	0.0162830
705.950	0.0159647
706.028	0.0156274
706.106	0.0153187
706.184	0.0149777
706.262	0.0145505
706.340	0.0143514
706.418	0.0141189
706.496	0.0140007
706.575	0.0140370
706.653	0.0138830
706.731	0.0139193
706.809	0.0140448
706.887	0.0141319
706.965	0.0144592
707.043	0.0145365
707.121	0.0146991
707.200	0.0149666
707.278	0.0152042
707.356	0.0152875
707.434	0.0154710
707.512	0.0156287
707.590	0.0156115
707.668	0.0156628
707.746	0.0155183
707.825	0.0155536
707.903	0.0157241
707.981	0.0154789
708.059	0.0153174
708.137	0.0152273
708.215	0.0151355
708.293	0.0149601
708.371	0.0149074
708.450	0.0149173
708.528	0.0148550
708.606	0.0148947
708.684	0.0148888
708.762	0.0148780
708.840	0.0149335
708.918	0.0149539
708.996	0.0149796
709.075	0.0149773
709.153	0.0149388
709.231	0.0148210
709.309	0.0149529
709.387	0.0149570
709.465	0.0150433
709.543	0.0150443
709.621	0.0149522
709.700	0.0151131
709.778	0.0151833
709.856	0.0152846
709.934	0.0154022
710.012	0.0154175
710.090	0.0152266
710.168	0.0151626
710.246	0.0153075
710.325	0.0151049
710.403	0.0150155
710.481	0.0151243
710.559	0.0149174
710.637	0.0148928
710.715	0.0149306
710.793	0.0148400
710.871	0.0148394
710.950	0.0149534
711.028	0.0148859
711.106	0.0150311
711.184	0.0149102
711.262	0.0149853
711.340	0.0150908
711.418	0.0150579
711.496	0.0150986
711.575	0.0150845
711.653	0.0151028
711.731	0.0152750
711.809	0.0151146
711.887	0.0150933
711.965	0.0150587
712.043	0.0151020
712.121	0.0151355
712.200	0.0149472
712.278	0.0147596
712.356	0.0146616
712.434	0.0148177
712.512	0.0147672
712.590	0.0146443
712.668	0.0147318
712.746	0.0147964
712.825	0.0146516
712.903	0.0149103
712.981	0.0149212
713.059	0.0148582
713.137	0.0151266
713.215	0.0151049
713.293	0.0151858
713.371	0.0152616
713.450	0.0155208
713.528	0.0155924
713.606	0.0153303
713.684	0.0155645
713.762	0.0153634
713.840	0.0153630
713.918	0.0152529
713.996	0.0153268
714.075	0.0150845
714.153	0.0149181
714.231	0.0148537
714.309	0.0147135
714.387	0.0145677
714.465	0.0145664
714.543	0.0145004
714.621	0.0143878
714.700	0.0143893
714.778	0.0143500
714.856	0.0144302
714.934	0.0144598
715.012	0.0148092
715.090	0.0148229
715.168	0.0150947
715.246	0.0151970
715.325	0.0154967
715.403	0.0155315
715.481	0.0155248
715.559	0.0155650
715.637	0.0156332
715.715	0.0155996
715.793	0.0155119
715.871	0.0155331
715.950	0.0156789
716.028	0.0155889
716.106	0.0155312
716.184	0.0154779
716.262	0.0154173
716.340	0.0153997
716.418	0.0153681
716.496	0.0152074
716.575	0.0152258
716.653	0.0149715
716.731	0.0148521
716.809	0.0147166
716.887	0.0144671
716.965	0.0142999
717.043	0.0143714
717.121	0.0142580
717.200	0.0142073
717.278	0.0142564
717.356	0.0141785
717.434	0.0143424
717.512	0.0145443
717.590	0.0148776
717.668	0.0150561
717.746	0.0150200
717.825	0.0152863
717.903	0.0153666
717.981	0.0154543
718.059	0.0155952
718.137	0.0157876
718.215	0.0157230
718.293	0.0155566
718.371	0.0154265
718.450	0.0153486
718.528	0.0151279
718.606	0.0151730
718.684	0.0149195
718.762	0.0148617
718.840	0.0146985
718.918	0.0146733
718.996	0.0146397
719.075	0.0145461
719.153	0.0145467
719.231	0.0145406
719.309	0.0145315
719.387	0.0147408
719.465	0.0147069
719.543	0.0148033
719.621	0.0149872
719.700	0.0149216
719.778	0.0151420
719.856	0.0151682
719.934	0.0151297
720.012	0.0150620
720.090	0.0153326
720.168	0.0152007
720.246	0.0152031
720.325	0.0152716
720.403	0.0153486
720.481	0.0153676
720.559	0.0151382
720.637	0.0151821
720.715	0.0152531
720.793	0.0151284
720.871	0.0149997
720.950	0.0148502
721.028	0.0148145
721.106	0.0148028
721.184	0.0146327
721.262	0.0145955
721.340	0.0145501
721.418	0.0143668
721.496	0.0144563
721.575	0.0145280
721.653	0.0145909
721.731	0.0146420
721.809	0.0147456
721.887	0.0148834
721.965	0.0149685
722.043	0.0152981
722.121	0.0153305
722.200	0.0154453
722.278	0.0156274
722.356	0.0158052
722.434	0.0158421
722.512	0.0158872
722.590	0.0159190
722.668	0.0159215
722.746	0.0157752
722.825	0.0156625
722.903	0.0155576
722.981	0.0153837
723.059	0.0152950
723.137	0.0151877
723.215	0.0148547
723.293	0.0147516
723.371	0.0146562
723.450	0.0147029
723.528	0.0145116
723.606	0.0142821
723.684	0.0145769
723.762	0.0146675
723.840	0.0147254
723.918	0.0147768
723.996	0.0148582
724.075	0.0150335
724.153	0.0151012
724.231	0.0152496
724.309	0.0153999
724.387	0.0155366
724.465	0.0155725
724.543	0.0154598
724.621	0.0156845
724.700	0.0155411
724.778	0.0155034
724.856	0.0155616
724.934	0.0152042
725.012	0.0150977
725.090	0.0151466
725.168	0.0149909
725.246	0.0148431
725.325	0.0147413
725.403	0.0146405
725.481	0.0145466
725.559	0.0146771
725.637	0.0146330
725.715	0.0147787
725.793	0.0149300
725.871	0.0148724
725.950	0.0149457
726.028	0.0148973
726.106	0.0149989
726.184	0.0152235
726.262	0.0151380
726.340	0.0151285
726.418	0.0151422
726.496	0.0151987
726.575	0.0151052
726.653	0.0151396
726.731	0.0151176
726.809	0.0150712
726.887	0.0150551
726.965	0.0151915
727.043	0.0150445
727.121	0.0150818
727.200	0.0149344
727.278	0.0148895
727.356	0.0149819
727.434	0.0148492
727.512	0.0149136
727.590	0.0150145
727.668	0.0148982
727.746	0.0149878
727.825	0.0149826
727.903	0.0150517
727.981	0.0147511
728.059	0.0147540
728.137	0.0146990
728.215	0.0146588
728.293	0.0147973
728.371	0.0148485
728.450	0.0147054
728.528	0.0148324
728.606	0.0146261
728.684	0.0146629
728.762	0.0146539
728.840	0.0147305
728.918	0.0146046
728.996	0.0147939
729.075	0.0149407
729.153	0.0148665
729.231	0.0149602
729.309	0.0151263
729.387	0.0150240
729.465	0.0152121
729.543	0.0152465
729.621	0.0152867
729.700	0.0154562
729.778	0.0155085
729.856	0.0153596
729.934	0.0153044
730.012	0.0155342
730.090	0.0155122
730.168	0.0152209
730.246	0.0153320
730.325	0.0152201
730.403	0.0150974
730.481	0.0151237
730.559	0.0150285
730.637	0.0148119
730.715	0.0147610
730.793	0.0146715
730.871	0.0146808
730.950	0.0146240
731.028	0.0145348
731.106	0.0145767
731.184	0.0146857
731.262	0.0147387
731.340	0.0147867
731.418	0.0147493
731.496	0.0149216
731.575	0.0151062
731.653	0.0149572
731.731	0.0151236
731.809	0.0152337
731.887	0.0152570
731.965	0.0153960
732.043	0.0153687
732.121	0.0152827
732.200	0.0153773
732.278	0.0153259
732.356	0.0153506
732.434	0.0152391
732.512	0.0151705
732.590	0.0151785
732.668	0.0150292
732.746	0.0149493
732.825	0.0149465
732.903	0.0149990
732.981	0.0149651
733.059	0.0147758
733.137	0.0146845
733.215	0.0146862
733.293	0.0147096
733.371	0.0146883
733.450	0.0147813
733.528	0.0148232
733.606	0.0147765
733.684	0.0147408
733.762	0.0149406
733.840	0.0150175
733.918	0.0151388
733.996	0.0153893
734.075	0.0152198
734.153	0.0152846
734.231	0.0153679
734.309	0.0152680
734.387	0.0152838
734.465	0.0153999
734.543	0.0154118
734.621	0.0154713
734.700	0.0151652
734.778	0.0152322
734.856	0.0151648
734.934	0.0152197
735.012	0.0151884
735.090	0.0151747
735.168	0.0148815
735.246	0.0148717
735.325	0.0148701
735.403	0.0148451
735.481	0.0148152
735.559	0.0147977
735.637	0.0147675
735.715	0.0147044
735.793	0.0148515
735.871	0.0147610
735.950	0.0147201
736.028	0.0147200
736.106	0.0148193
736.184	0.0148193
736.262	0.0148843
736.340	0.0150012
736.418	0.0149196
736.496	0.0150140
736.575	0.0152097
736.653	0.0152122
736.731	0.0153474
736.809	0.0152619
736.887	0.0153187
736.965	0.0152956
737.043	0.0154253
737.121	0.0154518
737.200	0.0152859
737.278	0.0152456
737.356	0.0153237
737.434	0.0152921
737.512	0.0151940
737.590	0.0151667
737.668	0.0149311
737.746	0.0150202
737.825	0.0147796
737.903	0.0148090
737.981	0.0148779
738.059	0.0148392
738.137	0.0147009
738.215	0.0146886
738.293	0.0146615
738.371	0.0147211
738.450	0.0147038
738.528	0.0148000
738.606	0.0147290
738.684	0.0147610
738.762	0.0148843
738.840	0.0148102
738.918	0.0149625
738.996	0.0149577
739.075	0.0149641
739.153	0.0151389
739.231	0.0153137
739.309	0.0153185
739.387	0.0152874
739.465	0.0154321
739.543	0.0153986
739.621	0.0152743
739.700	0.0153451
739.778	0.0155686
739.856	0.0153913
739.934	0.0154156
740.012	0.0153033
740.090	0.0151775
740.168	0.0150617
740.246	0.0150926
740.325	0.0150354
740.403	0.0149324
740.481	0.0149377
740.559	0.0148585
740.637	0.0148660
740.715	0.0147890
740.793	0.0146708
740.871	0.0146767
740.950	0.0147148
741.028	0.0146768
741.106	0.0147811
741.184	0.0147753
741.262	0.0149104
741.340	0.0150177
741.418	0.0149272
741.496	0.0151092
741.575	0.0150743
741.653	0.0151113
741.731	0.0151941
741.809	0.0154040
741.887	0.0153407
741.965	0.0151302
742.043	0.0154591
742.121	0.0154645
742.200	0.0153432
742.278	0.0152486
742.356	0.0154085
742.434	0.0151984
742.512	0.0150866
742.590	0.0151276
742.668	0.0150716
742.746	0.0150029
742.825	0.0149888
742.903	0.0150193
742.981	0.0149050
743.059	0.0149769
743.137	0.0148971
743.215	0.0148959
743.293	0.0148489
743.371	0.0150836
743.450	0.0150929
743.528	0.0151086
743.606	0.0150498
743.684	0.0149374
743.762	0.0151231
743.840	0.0153461
743.918	0.0153277
743.996	0.0153783
744.075	0.0153117
744.153	0.0154137
744.231	0.0153830
744.309	0.0153716
744.387	0.0153140
744.465	0.0152810
744.543	0.0151678
744.621	0.0151144
744.700	0.0151566
744.778	0.0150594
744.856	0.0151616
744.934	0.0151212
745.012	0.0148617
745.090	0.0148549
745.168	0.0147890
745.246	0.0147253
745.325	0.0147796
745.403	0.0147443
745.481	0.0148852
745.559	0.0148447
745.637	0.0147496
745.715	0.0148960
745.793	0.0149649
745.871	0.0150751
745.950	0.0150230
746.028	0.0150200
746.106	0.0150484
746.184	0.0151905
746.262	0.0151211
746.340	0.0152637
746.418	0.0152911
746.496	0.0153122
746.575	0.0154221
746.653	0.0153833
746.731	0.0154044
746.809	0.0154681
746.887	0.0153823
746.965	0.0154175
747.043	0.0153918
747.121	0.0152408
747.200	0.0152692
747.278	0.0153127
747.356	0.0153976
747.434	0.0152715
747.512	0.0152377
747.590	0.0152388
747.668	0.0152780
747.746	0.0152067
747.825	0.0151137
747.903	0.0149862
747.981	0.0151111
748.059	0.0149846
748.137	0.0151450
748.215	0.0150120
748.293	0.0148529
748.371	0.0148368
748.450	0.0148759
748.528	0.0149668
748.606	0.0150349
748.684	0.0151028
748.762	0.0149441
748.840	0.0149029
748.918	0.0148936
748.996	0.0150863
749.075	0.0150980
749.153	0.0151308
749.231	0.0150267
749.309	0.0150537
749.387	0.0150809
749.465	0.0152490
749.543	0.0150858
749.621	0.0150596
749.700	0.0150861
749.778	0.0151443
749.856	0.0150755
749.934	0.0149093
750.012	0.0149490
750.090	0.0150710
750.168	0.0148483
750.246	0.0149290
750.325	0.0150565
750.403	0.0147821
750.481	0.0149442
750.559	0.0150313
750.637	0.0149782
750.715	0.0148612
750.793	0.0149344
750.871	0.0149752
750.950	0.0150412
751.028	0.0149889
751.106	0.0149769
751.184	0.0150790
751.262	0.0149784
751.340	0.0150219
751.418	0.0150671
751.496	0.0151332
751.575	0.0150796
751.653	0.0151635
751.731	0.0151524
751.809	0.0152410
751.887	0.0151826
751.965	0.0151946
752.043	0.0151095
752.121	0.0152124
752.200	0.0150503
752.278	0.0151521
752.356	0.0150200
752.434	0.0150502
752.512	0.0149907
752.590	0.0148535
752.668	0.0149271
752.746	0.0147784
752.825	0.0147878
752.903	0.0149205
752.981	0.0148215
753.059	0.0147564
753.137	0.0147701
753.215	0.0146729
753.293	0.0148534
753.371	0.0147752
753.450	0.0148782
753.528	0.0148149
753.606	0.0148843
753.684	0.0148543
753.762	0.0149051
753.840	0.0150085
753.918	0.0147811
753.996	0.0149633
754.075	0.0149757
754.153	0.0150036
754.231	0.0150327
754.309	0.0152353
754.387	0.0150342
754.465	0.0149855
754.543	0.0150937
754.621	0.0150519
754.700	0.0151136
754.778	0.0150190
754.856	0.0150275
754.934	0.0149889
755.012	0.0149426
755.090	0.0150775
755.168	0.0149837
755.246	0.0151045
755.325	0.0149231
755.403	0.0148248
755.481	0.0149342
755.559	0.0149914
755.637	0.0148760
755.715	0.0149593
755.793	0.0149836
755.871	0.0149084
755.950	0.0148927
756.028	0.0149200
756.106	0.0148519
756.184	0.0148380
756.262	0.0149796
756.340	0.0149435
756.418	0.0150842
756.496	0.0151037
756.575	0.0152691
756.653	0.0150523
756.731	0.0151983
756.809	0.0152110
756.887	0.0151308
756.965	0.0150708
757.043	0.0151595
757.121	0.0152957
757.200	0.0152088
757.278	0.0151402
757.356	0.0150461
757.434	0.0150030
757.512	0.0149757
757.590	0.0150097
757.668	0.0150206
757.746	0.0151474
757.825	0.0149666
757.903	0.0150348
757.981	0.0150063
758.059	0.0149612
758.137	0.0150143
758.215	0.0149896
758.293	0.0150704
758.371	0.0150425
758.450	0.0150897
758.528	0.0150465
758.606	0.0150021
758.684	0.0150598
758.762	0.0150960
758.840	0.0150616
758.918	0.0149944
758.996	0.0151278
759.075	0.0152760
759.153	0.0151840
759.231	0.0152060
759.309	0.0152148
759.387	0.0151616
759.465	0.0150968
759.543	0.0150734
759.621	0.0151009
759.700	0.0151512
759.778	0.0150751
759.856	0.0151203
759.934	0.0151879
760.012	0.0152001
760.090	0.0151207
760.168	0.0151657
760.246	0.0150987
760.325	0.0150327
760.403	0.0150665
760.481	0.0150234
760.559	0.0150748
760.637	0.0150394
760.715	0.0150095
760.793	0.0149297
760.871	0.0150064
760.950	0.0148894
761.028	0.0147793
761.106	0.0148831
761.184	0.0149512
761.262	0.0148417
761.340	0.0147861
761.418	0.0149561
761.496	0.0151182
761.575	0.0149227
761.653	0.0149687
761.731	0.0149811
761.809	0.0150835
761.887	0.0149625
761.965	0.0150976
762.043	0.0151743
762.121	0.0151156
762.200	0.0152110
762.278	0.0150337
762.356	0.0150975
762.434	0.0151678
762.512	0.0150499
762.590	0.0150600
762.668	0.0151163
762.746	0.0149048
762.825	0.0149111
762.903	0.0149079
762.981	0.0149185
763.059	0.0150518
763.137	0.0149662
763.215	0.0149909
763.293	0.0149750
763.371	0.0150922
763.450	0.0149763
763.528	0.0150522
763.606	0.0150301
763.684	0.0151254
763.762	0.0149474
763.840	0.0151514
763.918	0.0151182
763.996	0.0150817
764.075	0.0150961
764.153	0.0151950
764.231	0.0152193
764.309	0.0152052
764.387	0.0151340
764.465	0.0151565
764.543	0.0152546
764.621	0.0151201
764.700	0.0152192
