05/04/2022	21:23:38	Ver.	4.1	UNKNOWN
Optical Delay	678.996401	Delta X		0.078125	Sweeps	1	Scan Rate	0/0
Coordinates	Axis 1	NaN	Axis 2	NaN	Axis 3	NaN	Axis 4	NaN	Axis 5	NaN	Axis 6	0.000000
TX Power	0.000000	RX Power	0.000000

678.996	0.0149184
679.075	0.0149551
679.153	0.0148750
679.231	0.0148486
679.309	0.0151620
679.387	0.0150296
679.465	0.0149031
679.543	0.0148811
679.621	0.0148223
679.700	0.0147779
679.778	0.0148897
679.856	0.0149741
679.934	0.0149564
680.012	0.0148071
680.090	0.0148439
680.168	0.0150696
680.246	0.0149139
680.325	0.0148194
680.403	0.0147543
680.481	0.0149167
680.559	0.0149844
680.637	0.0149312
680.715	0.0149406
680.793	0.0149342
680.871	0.0148487
680.950	0.0149089
681.028	0.0150342
681.106	0.0149397
681.184	0.0149581
681.262	0.0148969
681.340	0.0149380
681.418	0.0148780
681.496	0.0146826
681.575	0.0148988
681.653	0.0147482
681.731	0.0147353
681.809	0.0148952
681.887	0.0147637
681.965	0.0147814
682.043	0.0147985
682.121	0.0147279
682.200	0.0147334
682.278	0.0147090
682.356	0.0147037
682.434	0.0148623
682.512	0.0148355
682.590	0.0148375
682.668	0.0147660
682.746	0.0146047
682.825	0.0147526
682.903	0.0147651
682.981	0.0147717
683.059	0.0147831
683.137	0.0148317
683.215	0.0147946
683.293	0.0149046
683.371	0.0148895
683.450	0.0148719
683.528	0.0148628
683.606	0.0148185
683.684	0.0148934
683.762	0.0149387
683.840	0.0150081
683.918	0.0148740
683.996	0.0150013
684.075	0.0149535
684.153	0.0148248
684.231	0.0148569
684.309	0.0149349
684.387	0.0148380
684.465	0.0149641
684.543	0.0147930
684.621	0.0148611
684.700	0.0148218
684.778	0.0148522
684.856	0.0148826
684.934	0.0148778
685.012	0.0148332
685.090	0.0147532
685.168	0.0146307
685.246	0.0147892
685.325	0.0148661
685.403	0.0148537
685.481	0.0148151
685.559	0.0147337
685.637	0.0148392
685.715	0.0147372
685.793	0.0148502
685.871	0.0149213
685.950	0.0149213
686.028	0.0148421
686.106	0.0148879
686.184	0.0149825
686.262	0.0150311
686.340	0.0149129
686.418	0.0149018
686.496	0.0149585
686.575	0.0149741
686.653	0.0149245
686.731	0.0149879
686.809	0.0150137
686.887	0.0150522
686.965	0.0149815
687.043	0.0148725
687.121	0.0149212
687.200	0.0148814
687.278	0.0148059
687.356	0.0148038
687.434	0.0149241
687.512	0.0148743
687.590	0.0148208
687.668	0.0147952
687.746	0.0148799
687.825	0.0147615
687.903	0.0146915
687.981	0.0147894
688.059	0.0147763
688.137	0.0147564
688.215	0.0147594
688.293	0.0148540
688.371	0.0147942
688.450	0.0148621
688.528	0.0149014
688.606	0.0151200
688.684	0.0150451
688.762	0.0149470
688.840	0.0148509
688.918	0.0149352
688.996	0.0149023
689.075	0.0147679
689.153	0.0148418
689.231	0.0149250
689.309	0.0148917
689.387	0.0148137
689.465	0.0147462
689.543	0.0147356
689.621	0.0147712
689.700	0.0147055
689.778	0.0147275
689.856	0.0147697
689.934	0.0147478
690.012	0.0147047
690.090	0.0146922
690.168	0.0149316
690.246	0.0149319
690.325	0.0148468
690.403	0.0148814
690.481	0.0149753
690.559	0.0149253
690.637	0.0149039
690.715	0.0149058
690.793	0.0148346
690.871	0.0148660
690.950	0.0147486
691.028	0.0147852
691.106	0.0147893
691.184	0.0146427
691.262	0.0145531
691.340	0.0146220
691.418	0.0144570
691.496	0.0143427
691.575	0.0146776
691.653	0.0147945
691.731	0.0145529
691.809	0.0148247
691.887	0.0148154
691.965	0.0150723
692.043	0.0149241
692.121	0.0151017
692.200	0.0149298
692.278	0.0149290
692.356	0.0148974
692.434	0.0149105
692.512	0.0149741
692.590	0.0149766
692.668	0.0148631
692.746	0.0147278
692.825	0.0147710
692.903	0.0145348
692.981	0.0144682
693.059	0.0143081
693.137	0.0142666
693.215	0.0141929
693.293	0.0143526
693.371	0.0142899
693.450	0.0144106
693.528	0.0145406
693.606	0.0148350
693.684	0.0148163
693.762	0.0149811
693.840	0.0150801
693.918	0.0151558
693.996	0.0152211
694.075	0.0152110
694.153	0.0152342
694.231	0.0151960
694.309	0.0152345
694.387	0.0153223
694.465	0.0150613
694.543	0.0150983
694.621	0.0150646
694.700	0.0148971
694.778	0.0149734
694.856	0.0148423
694.934	0.0145548
695.012	0.0146104
695.090	0.0143652
695.168	0.0143040
695.246	0.0144363
695.325	0.0144318
695.403	0.0143750
695.481	0.0145647
695.559	0.0147365
695.637	0.0147799
695.715	0.0149816
695.793	0.0150562
695.871	0.0149728
695.950	0.0151118
696.028	0.0149403
696.106	0.0148294
696.184	0.0149816
696.262	0.0149915
696.340	0.0147758
696.418	0.0148338
696.496	0.0147947
696.575	0.0148504
696.653	0.0150426
696.731	0.0149373
696.809	0.0149177
696.887	0.0150830
696.965	0.0151425
697.043	0.0151371
697.121	0.0151445
697.200	0.0150520
697.278	0.0149013
697.356	0.0148512
697.434	0.0147398
697.512	0.0147034
697.590	0.0146465
697.668	0.0145395
697.746	0.0143699
697.825	0.0143644
697.903	0.0144116
697.981	0.0142965
698.059	0.0144374
698.137	0.0145792
698.215	0.0146181
698.293	0.0148745
698.371	0.0150786
698.450	0.0152737
698.528	0.0153945
698.606	0.0154653
698.684	0.0154881
698.762	0.0154374
698.840	0.0154640
698.918	0.0153284
698.996	0.0151435
699.075	0.0148718
699.153	0.0145896
699.231	0.0143806
699.309	0.0143268
699.387	0.0142631
699.465	0.0142333
699.543	0.0140578
699.621	0.0140388
699.700	0.0141060
699.778	0.0144812
699.856	0.0146965
699.934	0.0147662
700.012	0.0150606
700.090	0.0152891
700.168	0.0153613
700.246	0.0155085
700.325	0.0156070
700.403	0.0155719
700.481	0.0155714
700.559	0.0155109
700.637	0.0153290
700.715	0.0153030
700.793	0.0151935
700.871	0.0150020
700.950	0.0147793
701.028	0.0146861
701.106	0.0144685
701.184	0.0143526
701.262	0.0141218
701.340	0.0140128
701.418	0.0141222
701.496	0.0141152
701.575	0.0142152
701.653	0.0141705
701.731	0.0143396
701.809	0.0144810
701.887	0.0146512
701.965	0.0148872
702.043	0.0149449
702.121	0.0151405
702.200	0.0154124
702.278	0.0154106
702.356	0.0156035
702.434	0.0157336
702.512	0.0159417
702.590	0.0159943
702.668	0.0158903
702.746	0.0158955
702.825	0.0156955
702.903	0.0153999
702.981	0.0153095
703.059	0.0149915
703.137	0.0146474
703.215	0.0144086
703.293	0.0140837
703.371	0.0138164
703.450	0.0136794
703.528	0.0135504
703.606	0.0136127
703.684	0.0136417
703.762	0.0137189
703.840	0.0140313
703.918	0.0143830
703.996	0.0146328
704.075	0.0149321
704.153	0.0152543
704.231	0.0155063
704.309	0.0157435
704.387	0.0158686
704.465	0.0161091
704.543	0.0161427
704.621	0.0163498
704.700	0.0159106
704.778	0.0157987
704.856	0.0154616
704.934	0.0153786
705.012	0.0151411
705.090	0.0147070
705.168	0.0144033
705.246	0.0141167
705.325	0.0139208
705.403	0.0136917
705.481	0.0137388
705.559	0.0136863
705.637	0.0137830
705.715	0.0138430
705.793	0.0139697
705.871	0.0142039
705.950	0.0142952
706.028	0.0145672
706.106	0.0148535
706.184	0.0149271
706.262	0.0150201
706.340	0.0151221
706.418	0.0152178
706.496	0.0151823
706.575	0.0153076
706.653	0.0153473
706.731	0.0152048
706.809	0.0152113
706.887	0.0150668
706.965	0.0149758
707.043	0.0149477
707.121	0.0147601
707.200	0.0147366
707.278	0.0146345
707.356	0.0145843
707.434	0.0145174
707.512	0.0145468
707.590	0.0146239
707.668	0.0146396
707.746	0.0146240
707.825	0.0147504
707.903	0.0148605
707.981	0.0147862
708.059	0.0146986
708.137	0.0148836
708.215	0.0148296
708.293	0.0149935
708.371	0.0148371
708.450	0.0148667
708.528	0.0150369
708.606	0.0149560
708.684	0.0150618
708.762	0.0150660
708.840	0.0151096
708.918	0.0152097
708.996	0.0151627
709.075	0.0150500
709.153	0.0150301
709.231	0.0148527
709.309	0.0148965
709.387	0.0147364
709.465	0.0147556
709.543	0.0146773
709.621	0.0146763
709.700	0.0147865
709.778	0.0147325
709.856	0.0146246
709.934	0.0147877
710.012	0.0147330
710.090	0.0148095
710.168	0.0150321
710.246	0.0151221
710.325	0.0151274
710.403	0.0150963
710.481	0.0151910
710.559	0.0150986
710.637	0.0151704
710.715	0.0150986
710.793	0.0150484
710.871	0.0149374
710.950	0.0148300
711.028	0.0147606
711.106	0.0146118
711.184	0.0145707
711.262	0.0144286
711.340	0.0143237
711.418	0.0142969
711.496	0.0143600
711.575	0.0141001
711.653	0.0143407
711.731	0.0144219
711.809	0.0146172
711.887	0.0146661
711.965	0.0147300
712.043	0.0147992
712.121	0.0149836
712.200	0.0151590
712.278	0.0153525
712.356	0.0154752
712.434	0.0153747
712.512	0.0154638
712.590	0.0153275
712.668	0.0153260
712.746	0.0151402
712.825	0.0150850
712.903	0.0149990
712.981	0.0147941
713.059	0.0146249
713.137	0.0145006
713.215	0.0143750
713.293	0.0143473
713.371	0.0142545
713.450	0.0140483
713.528	0.0143079
713.606	0.0140363
713.684	0.0141541
713.762	0.0142883
713.840	0.0143152
713.918	0.0143082
713.996	0.0144717
714.075	0.0147089
714.153	0.0148262
714.231	0.0148839
714.309	0.0149630
714.387	0.0150499
714.465	0.0153628
714.543	0.0152988
714.621	0.0152714
714.700	0.0152789
714.778	0.0153641
714.856	0.0153665
714.934	0.0154236
715.012	0.0153902
715.090	0.0155485
715.168	0.0154610
715.246	0.0155064
715.325	0.0152814
715.403	0.0151857
715.481	0.0151279
715.559	0.0149168
715.637	0.0146781
715.715	0.0144810
715.793	0.0143829
715.871	0.0141560
715.950	0.0141461
716.028	0.0140687
716.106	0.0142065
716.184	0.0140565
716.262	0.0139404
716.340	0.0142041
716.418	0.0144549
716.496	0.0148119
716.575	0.0148133
716.653	0.0150839
716.731	0.0152308
716.809	0.0153829
716.887	0.0154462
716.965	0.0155899
717.043	0.0157441
717.121	0.0156474
717.200	0.0157101
717.278	0.0155952
717.356	0.0155312
717.434	0.0154386
717.512	0.0153295
717.590	0.0151711
717.668	0.0148573
717.746	0.0147324
717.825	0.0148884
717.903	0.0147717
717.981	0.0144909
718.059	0.0146461
718.137	0.0145785
718.215	0.0145655
718.293	0.0145304
718.371	0.0146408
718.450	0.0145847
718.528	0.0147453
718.606	0.0148479
718.684	0.0148136
718.762	0.0149741
718.840	0.0150397
718.918	0.0149263
718.996	0.0149781
719.075	0.0149371
719.153	0.0150546
719.231	0.0152408
719.309	0.0149509
719.387	0.0150755
719.465	0.0151846
719.543	0.0150891
719.621	0.0149827
719.700	0.0149975
719.778	0.0147658
719.856	0.0145952
719.934	0.0146850
720.012	0.0145943
720.090	0.0143885
720.168	0.0143850
720.246	0.0143090
720.325	0.0142834
720.403	0.0142525
720.481	0.0143021
720.559	0.0143930
720.637	0.0144975
720.715	0.0145404
720.793	0.0146721
720.871	0.0145822
720.950	0.0148417
721.028	0.0149993
721.106	0.0149746
721.184	0.0151948
721.262	0.0152056
721.340	0.0152542
721.418	0.0153880
721.496	0.0152868
721.575	0.0153650
721.653	0.0154310
721.731	0.0152538
721.809	0.0151160
721.887	0.0151269
721.965	0.0150172
722.043	0.0149327
722.121	0.0146018
722.200	0.0145454
722.278	0.0144214
722.356	0.0144170
722.434	0.0143631
722.512	0.0143715
722.590	0.0144807
722.668	0.0142970
722.746	0.0143761
722.825	0.0144695
722.903	0.0146545
722.981	0.0147284
723.059	0.0148407
723.137	0.0149368
723.215	0.0149362
723.293	0.0151505
723.371	0.0153191
723.450	0.0151379
723.528	0.0153422
723.606	0.0152916
723.684	0.0151669
723.762	0.0151936
723.840	0.0150866
723.918	0.0148801
723.996	0.0148209
724.075	0.0148989
724.153	0.0147706
724.231	0.0146708
724.309	0.0146983
724.387	0.0144872
724.465	0.0146066
724.543	0.0146999
724.621	0.0146535
724.700	0.0146703
724.778	0.0147379
724.856	0.0149474
724.934	0.0147993
725.012	0.0149272
725.090	0.0149235
725.168	0.0148916
725.246	0.0149268
725.325	0.0149896
725.403	0.0150745
725.481	0.0150377
725.559	0.0150983
725.637	0.0149683
725.715	0.0150385
725.793	0.0148961
725.871	0.0150239
725.950	0.0148564
726.028	0.0149168
726.106	0.0149590
726.184	0.0148064
726.262	0.0147640
726.340	0.0149098
726.418	0.0149121
726.496	0.0149802
726.575	0.0148798
726.653	0.0147515
726.731	0.0147613
726.809	0.0148470
726.887	0.0149057
726.965	0.0147648
727.043	0.0146730
727.121	0.0145839
727.200	0.0146014
727.278	0.0145820
727.356	0.0145823
727.434	0.0144539
727.512	0.0143174
727.590	0.0144458
727.668	0.0144359
727.746	0.0143737
727.825	0.0145251
727.903	0.0144489
727.981	0.0144786
728.059	0.0145417
728.137	0.0145683
728.215	0.0146441
728.293	0.0148566
728.371	0.0148197
728.450	0.0149737
728.528	0.0150764
728.606	0.0152016
728.684	0.0152434
728.762	0.0153306
728.840	0.0152258
728.918	0.0151747
728.996	0.0152496
729.075	0.0151143
729.153	0.0151801
729.231	0.0151441
729.309	0.0151673
729.387	0.0149474
729.465	0.0148232
729.543	0.0148109
729.621	0.0145834
729.700	0.0147283
729.778	0.0144328
729.856	0.0143428
729.934	0.0144215
730.012	0.0143755
730.090	0.0144486
730.168	0.0145407
730.246	0.0144490
730.325	0.0144331
730.403	0.0145892
730.481	0.0146049
730.559	0.0148368
730.637	0.0148038
730.715	0.0148374
730.793	0.0150447
730.871	0.0149831
730.950	0.0150414
731.028	0.0150648
731.106	0.0150877
731.184	0.0151342
731.262	0.0150846
731.340	0.0149091
731.418	0.0149206
731.496	0.0149745
731.575	0.0149560
731.653	0.0149919
731.731	0.0147984
731.809	0.0147726
731.887	0.0148624
731.965	0.0148128
732.043	0.0147466
732.121	0.0147824
732.200	0.0147218
732.278	0.0146521
732.356	0.0145557
732.434	0.0146685
732.512	0.0145650
732.590	0.0145276
732.668	0.0147062
732.746	0.0146870
732.825	0.0145953
732.903	0.0147398
732.981	0.0148668
733.059	0.0150172
733.137	0.0150999
733.215	0.0150592
733.293	0.0150497
733.371	0.0150698
733.450	0.0150253
733.528	0.0151557
733.606	0.0149928
733.684	0.0150427
733.762	0.0150594
733.840	0.0151060
733.918	0.0149422
733.996	0.0149822
734.075	0.0149083
734.153	0.0148438
734.231	0.0147820
734.309	0.0147241
734.387	0.0147191
734.465	0.0146545
734.543	0.0147672
734.621	0.0145573
734.700	0.0144784
734.778	0.0145751
734.856	0.0145567
734.934	0.0145728
735.012	0.0144922
735.090	0.0146401
735.168	0.0148222
735.246	0.0147247
735.325	0.0147072
735.403	0.0147838
735.481	0.0147231
735.559	0.0148663
735.637	0.0148437
735.715	0.0149561
735.793	0.0150015
735.871	0.0150112
735.950	0.0150472
736.028	0.0149516
736.106	0.0152153
736.184	0.0151617
736.262	0.0151382
736.340	0.0150864
736.418	0.0150847
736.496	0.0151097
736.575	0.0149787
736.653	0.0148977
736.731	0.0149403
736.809	0.0148253
736.887	0.0145692
736.965	0.0148303
737.043	0.0147846
737.121	0.0146587
737.200	0.0145074
737.278	0.0144712
737.356	0.0145369
737.434	0.0145410
737.512	0.0146269
737.590	0.0145592
737.668	0.0145459
737.746	0.0147832
737.825	0.0148077
737.903	0.0147539
737.981	0.0149786
738.059	0.0149630
738.137	0.0150328
738.215	0.0151241
738.293	0.0151611
738.371	0.0151826
738.450	0.0150298
738.528	0.0152213
738.606	0.0152682
738.684	0.0151836
738.762	0.0153310
738.840	0.0151662
738.918	0.0152238
738.996	0.0150867
739.075	0.0150307
739.153	0.0149428
739.231	0.0148832
739.309	0.0148014
739.387	0.0147454
739.465	0.0146912
739.543	0.0147204
739.621	0.0146297
739.700	0.0146481
739.778	0.0146423
739.856	0.0145642
739.934	0.0146981
740.012	0.0146920
740.090	0.0146326
740.168	0.0145339
740.246	0.0146753
740.325	0.0148240
740.403	0.0147246
740.481	0.0148484
740.559	0.0149267
740.637	0.0150291
740.715	0.0151307
740.793	0.0152636
740.871	0.0151920
740.950	0.0152206
741.028	0.0152431
741.106	0.0151030
741.184	0.0151160
741.262	0.0152263
741.340	0.0151141
741.418	0.0149244
741.496	0.0149878
741.575	0.0148957
741.653	0.0148263
741.731	0.0147826
741.809	0.0148849
741.887	0.0145405
741.965	0.0145967
742.043	0.0145603
742.121	0.0145708
742.200	0.0145531
742.278	0.0145380
742.356	0.0146487
742.434	0.0146179
742.512	0.0146984
742.590	0.0149151
742.668	0.0150633
742.746	0.0149787
742.825	0.0149886
742.903	0.0152449
742.981	0.0151311
743.059	0.0152726
743.137	0.0152146
743.215	0.0150822
743.293	0.0151449
743.371	0.0151550
743.450	0.0152686
743.528	0.0150945
743.606	0.0149942
743.684	0.0149828
743.762	0.0148096
743.840	0.0148606
743.918	0.0147824
743.996	0.0146461
744.075	0.0146904
744.153	0.0145470
744.231	0.0146035
744.309	0.0144964
744.387	0.0145205
744.465	0.0144968
744.543	0.0145829
744.621	0.0146037
744.700	0.0144972
744.778	0.0146130
744.856	0.0146921
744.934	0.0145698
745.012	0.0147330
745.090	0.0146948
745.168	0.0148143
745.246	0.0149989
745.325	0.0149076
745.403	0.0149484
745.481	0.0150718
745.559	0.0149379
745.637	0.0150491
745.715	0.0150970
745.793	0.0151189
745.871	0.0151443
745.950	0.0149984
746.028	0.0150150
746.106	0.0150926
746.184	0.0151531
746.262	0.0151462
746.340	0.0150161
746.418	0.0149416
746.496	0.0148637
746.575	0.0148267
746.653	0.0148082
746.731	0.0148660
746.809	0.0148477
746.887	0.0147417
746.965	0.0147404
747.043	0.0146928
747.121	0.0146645
747.200	0.0145956
747.278	0.0144921
747.356	0.0145689
747.434	0.0145914
747.512	0.0146581
747.590	0.0144705
747.668	0.0145979
747.746	0.0145697
747.825	0.0146869
747.903	0.0146976
747.981	0.0146205
748.059	0.0146523
748.137	0.0147276
748.215	0.0147345
748.293	0.0146853
748.371	0.0147644
748.450	0.0148668
748.528	0.0147367
748.606	0.0147989
748.684	0.0146394
748.762	0.0147321
748.840	0.0145799
748.918	0.0147533
748.996	0.0147523
749.075	0.0148678
749.153	0.0147034
749.231	0.0147132
749.309	0.0147813
749.387	0.0147993
749.465	0.0145406
749.543	0.0147208
749.621	0.0147076
749.700	0.0148027
749.778	0.0149010
749.856	0.0148186
749.934	0.0148438
750.012	0.0149667
750.090	0.0148495
750.168	0.0149292
750.246	0.0149891
750.325	0.0150514
750.403	0.0148629
750.481	0.0149986
750.559	0.0149828
750.637	0.0150719
750.715	0.0150555
750.793	0.0151633
750.871	0.0149815
750.950	0.0149672
751.028	0.0149953
751.106	0.0150066
751.184	0.0149490
751.262	0.0149950
751.340	0.0149931
751.418	0.0148300
751.496	0.0148122
751.575	0.0147470
751.653	0.0147674
751.731	0.0147739
751.809	0.0147807
751.887	0.0147335
751.965	0.0146863
752.043	0.0147244
752.121	0.0147079
752.200	0.0148095
752.278	0.0147573
752.356	0.0147044
752.434	0.0146688
752.512	0.0148988
752.590	0.0148158
752.668	0.0148232
752.746	0.0148895
752.825	0.0148353
752.903	0.0149126
752.981	0.0148319
753.059	0.0149178
753.137	0.0149046
753.215	0.0149184
753.293	0.0150121
753.371	0.0150534
753.450	0.0150365
753.528	0.0149112
753.606	0.0150123
753.684	0.0149705
753.762	0.0148477
753.840	0.0150011
753.918	0.0150340
753.996	0.0150363
754.075	0.0149071
754.153	0.0148535
754.231	0.0147546
754.309	0.0149220
754.387	0.0148808
754.465	0.0148377
754.543	0.0147704
754.621	0.0147490
754.700	0.0148138
754.778	0.0146430
754.856	0.0148127
754.934	0.0148824
755.012	0.0148342
755.090	0.0148869
755.168	0.0148665
755.246	0.0148643
755.325	0.0149011
755.403	0.0148858
755.481	0.0148273
755.559	0.0147811
755.637	0.0149271
755.715	0.0149170
755.793	0.0148689
755.871	0.0147321
755.950	0.0148714
756.028	0.0149155
756.106	0.0147775
756.184	0.0148449
756.262	0.0148138
756.340	0.0148539
756.418	0.0148460
756.496	0.0148432
756.575	0.0147832
756.653	0.0147314
756.731	0.0146852
756.809	0.0146376
756.887	0.0147712
756.965	0.0146733
757.043	0.0148221
757.121	0.0148724
757.200	0.0147964
757.278	0.0147684
757.356	0.0148946
757.434	0.0148534
757.512	0.0147606
757.590	0.0149865
757.668	0.0149757
757.746	0.0149039
757.825	0.0149812
757.903	0.0149680
757.981	0.0151656
758.059	0.0151632
758.137	0.0149406
758.215	0.0149386
758.293	0.0150076
758.371	0.0150205
758.450	0.0150146
758.528	0.0149916
758.606	0.0150343
758.684	0.0149284
758.762	0.0148849
758.840	0.0149242
758.918	0.0149120
758.996	0.0148154
759.075	0.0149612
759.153	0.0147827
759.231	0.0148840
759.309	0.0148575
759.387	0.0149635
759.465	0.0149609
759.543	0.0149694
759.621	0.0149331
759.700	0.0149710
759.778	0.0148405
759.856	0.0148685
759.934	0.0149422
760.012	0.0150257
760.090	0.0148921
760.168	0.0149984
760.246	0.0149448
760.325	0.0149252
760.403	0.0150275
760.481	0.0151056
760.559	0.0149728
760.637	0.0150334
760.715	0.0149003
760.793	0.0151334
760.871	0.0151161
760.950	0.0150455
761.028	0.0151035
761.106	0.0150774
761.184	0.0150609
761.262	0.0150135
761.340	0.0149590
761.418	0.0149080
761.496	0.0148362
761.575	0.0148909
761.653	0.0151176
761.731	0.0148959
761.809	0.0148537
761.887	0.0149738
761.965	0.0148373
762.043	0.0146795
762.121	0.0147545
762.200	0.0148570
762.278	0.0148782
762.356	0.0147964
762.434	0.0147191
762.512	0.0146873
762.590	0.0150146
762.668	0.0149469
762.746	0.0148843
762.825	0.0147548
762.903	0.0146947
762.981	0.0148956
763.059	0.0148048
763.137	0.0147792
763.215	0.0148559
763.293	0.0148973
763.371	0.0148280
763.450	0.0149142
763.528	0.0149385
763.606	0.0149888
763.684	0.0149146
763.762	0.0148112
763.840	0.0148827
763.918	0.0149642
763.996	0.0149185
764.075	0.0149009
764.153	0.0149651
764.231	0.0149625
764.309	0.0148857
764.387	0.0149086
764.465	0.0149576
764.543	0.0148064
764.621	0.0147867
764.700	0.0147428
