05/04/2022	21:25:03	Ver.	4.1	UNKNOWN
Optical Delay	678.996401	Delta X		0.078125	Sweeps	1	Scan Rate	0/0
Coordinates	Axis 1	NaN	Axis 2	NaN	Axis 3	NaN	Axis 4	NaN	Axis 5	NaN	Axis 6	0.000000
TX Power	0.000000	RX Power	0.000000

678.996	0.0147897
679.075	0.0148271
679.153	0.0148952
679.231	0.0148183
679.309	0.0147337
679.387	0.0147092
679.465	0.0147786
679.543	0.0146953
679.621	0.0148266
679.700	0.0148955
679.778	0.0148418
679.856	0.0148391
679.934	0.0148100
680.012	0.0147935
680.090	0.0149703
680.168	0.0148222
680.246	0.0147813
680.325	0.0148284
680.403	0.0147668
680.481	0.0147256
680.559	0.0147456
680.637	0.0148824
680.715	0.0149630
680.793	0.0147775
680.871	0.0146302
680.950	0.0147621
681.028	0.0146959
681.106	0.0147596
681.184	0.0146845
681.262	0.0148362
681.340	0.0147914
681.418	0.0148895
681.496	0.0148351
681.575	0.0147965
681.653	0.0149271
681.731	0.0149208
681.809	0.0149663
681.887	0.0149609
681.965	0.0149178
682.043	0.0150955
682.121	0.0148341
682.200	0.0149614
682.278	0.0150258
682.356	0.0149495
682.434	0.0149174
682.512	0.0149866
682.590	0.0149503
682.668	0.0149007
682.746	0.0147736
682.825	0.0149583
682.903	0.0147865
682.981	0.0148568
683.059	0.0147983
683.137	0.0148671
683.215	0.0148271
683.293	0.0149133
683.371	0.0148998
683.450	0.0148759
683.528	0.0148004
683.606	0.0148319
683.684	0.0148056
683.762	0.0148640
683.840	0.0148457
683.918	0.0148351
683.996	0.0148038
684.075	0.0146806
684.153	0.0146752
684.231	0.0147061
684.309	0.0147560
684.387	0.0147103
684.465	0.0147348
684.543	0.0148850
684.621	0.0146439
684.700	0.0148344
684.778	0.0148576
684.856	0.0148047
684.934	0.0150935
685.012	0.0148206
685.090	0.0148170
685.168	0.0150510
685.246	0.0150161
685.325	0.0150767
685.403	0.0148932
685.481	0.0150069
685.559	0.0148589
685.637	0.0149371
685.715	0.0148956
685.793	0.0148521
685.871	0.0149078
685.950	0.0150249
686.028	0.0149695
686.106	0.0149850
686.184	0.0148685
686.262	0.0148159
686.340	0.0150471
686.418	0.0148641
686.496	0.0148540
686.575	0.0148915
686.653	0.0147845
686.731	0.0148535
686.809	0.0147328
686.887	0.0147897
686.965	0.0148299
687.043	0.0148414
687.121	0.0147509
687.200	0.0149096
687.278	0.0147701
687.356	0.0146416
687.434	0.0148082
687.512	0.0147795
687.590	0.0149879
687.668	0.0149918
687.746	0.0148476
687.825	0.0150809
687.903	0.0149033
687.981	0.0148384
688.059	0.0148235
688.137	0.0150716
688.215	0.0150683
688.293	0.0149362
688.371	0.0149520
688.450	0.0147909
688.528	0.0147482
688.606	0.0148513
688.684	0.0147111
688.762	0.0147710
688.840	0.0146166
688.918	0.0146232
688.996	0.0145483
689.075	0.0146903
689.153	0.0146378
689.231	0.0146273
689.309	0.0147748
689.387	0.0146688
689.465	0.0147722
689.543	0.0148209
689.621	0.0148125
689.700	0.0148502
689.778	0.0147698
689.856	0.0148849
689.934	0.0149673
690.012	0.0149973
690.090	0.0149321
690.168	0.0148303
690.246	0.0147045
690.325	0.0148151
690.403	0.0147897
690.481	0.0145799
690.559	0.0144564
690.637	0.0144923
690.715	0.0145308
690.793	0.0145686
690.871	0.0145925
690.950	0.0144726
691.028	0.0143556
691.106	0.0144308
691.184	0.0145557
691.262	0.0146568
691.340	0.0147999
691.418	0.0148233
691.496	0.0149502
691.575	0.0149150
691.653	0.0150031
691.731	0.0149792
691.809	0.0151205
691.887	0.0151130
691.965	0.0150165
692.043	0.0150710
692.121	0.0150388
692.200	0.0150235
692.278	0.0149566
692.356	0.0149749
692.434	0.0149135
692.512	0.0146362
692.590	0.0144717
692.668	0.0145926
692.746	0.0146318
692.825	0.0144278
692.903	0.0142561
692.981	0.0143295
693.059	0.0144389
693.137	0.0142611
693.215	0.0144004
693.293	0.0145780
693.371	0.0147217
693.450	0.0146286
693.528	0.0149261
693.606	0.0152286
693.684	0.0151870
693.762	0.0152260
693.840	0.0155238
693.918	0.0152972
693.996	0.0154071
694.075	0.0154184
694.153	0.0154328
694.231	0.0153673
694.309	0.0153427
694.387	0.0151946
694.465	0.0150953
694.543	0.0148833
694.621	0.0148323
694.700	0.0145948
694.778	0.0144535
694.856	0.0141997
694.934	0.0141189
695.012	0.0142004
695.090	0.0142334
695.168	0.0143559
695.246	0.0143955
695.325	0.0144331
695.403	0.0145594
695.481	0.0145387
695.559	0.0145771
695.637	0.0146275
695.715	0.0147282
695.793	0.0148032
695.871	0.0149957
695.950	0.0149825
696.028	0.0150591
696.106	0.0153403
696.184	0.0153436
696.262	0.0152919
696.340	0.0154438
696.418	0.0156159
696.496	0.0153551
696.575	0.0153021
696.653	0.0152678
696.731	0.0151655
696.809	0.0150578
696.887	0.0148734
696.965	0.0145600
697.043	0.0143487
697.121	0.0142843
697.200	0.0141651
697.278	0.0140074
697.356	0.0139155
697.434	0.0138359
697.512	0.0137393
697.590	0.0139788
697.668	0.0140123
697.746	0.0140797
697.825	0.0144376
697.903	0.0145391
697.981	0.0149809
698.059	0.0151678
698.137	0.0155267
698.215	0.0156961
698.293	0.0158995
698.371	0.0158793
698.450	0.0157861
698.528	0.0156542
698.606	0.0154964
698.684	0.0150342
698.762	0.0147423
698.840	0.0146439
698.918	0.0144123
698.996	0.0142887
699.075	0.0142004
699.153	0.0141396
699.231	0.0140685
699.309	0.0143736
699.387	0.0144241
699.465	0.0146416
699.543	0.0146751
699.621	0.0147593
699.700	0.0148852
699.778	0.0150806
699.856	0.0152902
699.934	0.0151221
700.012	0.0153825
700.090	0.0154208
700.168	0.0153545
700.246	0.0153828
700.325	0.0154606
700.403	0.0153574
700.481	0.0153183
700.559	0.0152830
700.637	0.0152735
700.715	0.0150645
700.793	0.0148721
700.871	0.0147642
700.950	0.0148085
701.028	0.0148591
701.106	0.0146130
701.184	0.0145152
701.262	0.0144050
701.340	0.0143581
701.418	0.0142792
701.496	0.0141057
701.575	0.0140019
701.653	0.0140861
701.731	0.0139362
701.809	0.0140864
701.887	0.0143919
701.965	0.0146205
702.043	0.0148562
702.121	0.0152290
702.200	0.0155428
702.278	0.0157916
702.356	0.0160565
702.434	0.0159711
702.512	0.0162716
702.590	0.0160946
702.668	0.0158046
702.746	0.0158170
702.825	0.0154358
702.903	0.0151074
702.981	0.0148730
703.059	0.0146567
703.137	0.0144070
703.215	0.0143187
703.293	0.0139414
703.371	0.0139129
703.450	0.0139054
703.528	0.0138359
703.606	0.0141237
703.684	0.0140961
703.762	0.0141154
703.840	0.0144814
703.918	0.0147398
703.996	0.0148230
704.075	0.0152360
704.153	0.0155438
704.231	0.0155101
704.309	0.0156210
704.387	0.0157052
704.465	0.0155852
704.543	0.0153687
704.621	0.0152638
704.700	0.0151633
704.778	0.0149074
704.856	0.0147951
704.934	0.0145460
705.012	0.0144228
705.090	0.0143911
705.168	0.0143036
705.246	0.0142610
705.325	0.0143742
705.403	0.0143703
705.481	0.0144738
705.559	0.0145947
705.637	0.0144987
705.715	0.0145002
705.793	0.0146782
705.871	0.0147891
705.950	0.0148080
706.028	0.0149737
706.106	0.0150771
706.184	0.0150368
706.262	0.0152929
706.340	0.0151880
706.418	0.0152577
706.496	0.0152705
706.575	0.0150329
706.653	0.0150585
706.731	0.0149566
706.809	0.0148450
706.887	0.0147826
706.965	0.0146273
707.043	0.0145897
707.121	0.0143047
707.200	0.0143562
707.278	0.0144237
707.356	0.0144003
707.434	0.0144552
707.512	0.0145510
707.590	0.0145684
707.668	0.0145338
707.746	0.0147412
707.825	0.0147974
707.903	0.0149195
707.981	0.0149083
708.059	0.0149444
708.137	0.0149850
708.215	0.0151853
708.293	0.0152552
708.371	0.0151127
708.450	0.0151928
708.528	0.0151750
708.606	0.0152055
708.684	0.0152361
708.762	0.0150120
708.840	0.0149584
708.918	0.0149406
708.996	0.0147594
709.075	0.0146100
709.153	0.0145205
709.231	0.0144679
709.309	0.0143695
709.387	0.0142409
709.465	0.0140286
709.543	0.0140359
709.621	0.0140749
709.700	0.0138783
709.778	0.0139870
709.856	0.0141917
709.934	0.0143895
710.012	0.0146676
710.090	0.0148082
710.168	0.0151634
710.246	0.0155382
710.325	0.0158080
710.403	0.0159062
710.481	0.0161697
710.559	0.0162030
710.637	0.0160623
710.715	0.0161100
710.793	0.0158168
710.871	0.0156066
710.950	0.0154578
711.028	0.0152036
711.106	0.0149037
711.184	0.0146690
711.262	0.0142039
711.340	0.0138364
711.418	0.0137271
711.496	0.0137321
711.575	0.0134635
711.653	0.0136134
711.731	0.0137536
711.809	0.0137482
711.887	0.0140629
711.965	0.0141586
712.043	0.0145316
712.121	0.0147640
712.200	0.0149416
712.278	0.0151592
712.356	0.0153479
712.434	0.0153230
712.512	0.0154608
712.590	0.0156003
712.668	0.0154981
712.746	0.0155713
712.825	0.0154874
712.903	0.0153810
712.981	0.0152889
713.059	0.0153017
713.137	0.0150884
713.215	0.0150184
713.293	0.0148975
713.371	0.0147672
713.450	0.0146340
713.528	0.0146561
713.606	0.0145899
713.684	0.0143226
713.762	0.0144131
713.840	0.0141822
713.918	0.0140874
713.996	0.0142596
714.075	0.0141813
714.153	0.0140424
714.231	0.0142033
714.309	0.0144092
714.387	0.0143690
714.465	0.0145204
714.543	0.0145047
714.621	0.0146365
714.700	0.0150678
714.778	0.0150164
714.856	0.0151344
714.934	0.0153069
715.012	0.0153900
715.090	0.0154398
715.168	0.0157188
715.246	0.0156131
715.325	0.0155206
715.403	0.0155042
715.481	0.0153854
715.559	0.0152414
715.637	0.0151101
715.715	0.0147942
715.793	0.0144746
715.871	0.0144865
715.950	0.0142859
716.028	0.0141669
716.106	0.0141821
716.184	0.0140817
716.262	0.0141859
716.340	0.0141372
716.418	0.0142206
716.496	0.0143629
716.575	0.0144746
716.653	0.0144947
716.731	0.0146460
716.809	0.0149438
716.887	0.0148071
716.965	0.0150588
717.043	0.0151521
717.121	0.0151795
717.200	0.0151241
717.278	0.0152445
717.356	0.0152042
717.434	0.0151968
717.512	0.0151621
717.590	0.0148930
717.668	0.0147848
717.746	0.0148103
717.825	0.0147367
717.903	0.0147253
717.981	0.0146082
718.059	0.0146680
718.137	0.0146652
718.215	0.0146815
718.293	0.0147533
718.371	0.0148166
718.450	0.0148643
718.528	0.0148965
718.606	0.0149284
718.684	0.0149100
718.762	0.0149360
718.840	0.0148880
718.918	0.0150384
718.996	0.0150112
719.075	0.0148885
719.153	0.0150069
719.231	0.0149390
719.309	0.0147887
719.387	0.0147680
719.465	0.0149364
719.543	0.0146741
719.621	0.0146487
719.700	0.0145923
719.778	0.0146864
719.856	0.0146510
719.934	0.0146951
720.012	0.0146186
720.090	0.0146608
720.168	0.0145864
720.246	0.0145366
720.325	0.0144633
720.403	0.0144171
720.481	0.0146680
720.559	0.0147141
720.637	0.0146913
720.715	0.0146960
720.793	0.0147668
720.871	0.0150389
720.950	0.0151007
721.028	0.0151018
721.106	0.0151160
721.184	0.0150400
721.262	0.0152448
721.340	0.0151678
721.418	0.0151313
721.496	0.0150774
721.575	0.0150930
721.653	0.0151958
721.731	0.0152183
721.809	0.0150217
721.887	0.0149693
721.965	0.0149767
722.043	0.0147341
722.121	0.0147127
722.200	0.0147509
722.278	0.0145865
722.356	0.0146427
722.434	0.0147060
722.512	0.0147518
722.590	0.0148006
722.668	0.0146898
722.746	0.0147919
722.825	0.0148994
722.903	0.0147774
722.981	0.0148088
723.059	0.0149096
723.137	0.0148707
723.215	0.0148541
723.293	0.0148985
723.371	0.0149631
723.450	0.0150256
723.528	0.0150206
723.606	0.0148288
723.684	0.0148421
723.762	0.0148896
723.840	0.0148952
723.918	0.0147662
723.996	0.0148785
724.075	0.0149754
724.153	0.0148808
724.231	0.0149601
724.309	0.0149288
724.387	0.0149043
724.465	0.0150159
724.543	0.0149696
724.621	0.0149728
724.700	0.0149143
724.778	0.0150385
724.856	0.0149790
724.934	0.0151171
725.012	0.0150256
725.090	0.0151163
725.168	0.0151591
725.246	0.0152274
725.325	0.0152155
725.403	0.0150352
725.481	0.0150591
725.559	0.0150574
725.637	0.0148662
725.715	0.0147595
725.793	0.0147913
725.871	0.0146893
725.950	0.0146923
726.028	0.0146744
726.106	0.0146407
726.184	0.0145525
726.262	0.0145831
726.340	0.0148389
726.418	0.0147812
726.496	0.0147859
726.575	0.0149218
726.653	0.0148521
726.731	0.0149159
726.809	0.0149639
726.887	0.0150333
726.965	0.0152077
727.043	0.0151916
727.121	0.0150806
727.200	0.0151392
727.278	0.0149349
727.356	0.0148795
727.434	0.0148393
727.512	0.0146944
727.590	0.0146525
727.668	0.0144756
727.746	0.0144696
727.825	0.0144706
727.903	0.0144630
727.981	0.0145846
728.059	0.0146156
728.137	0.0145493
728.215	0.0145178
728.293	0.0147003
728.371	0.0146961
728.450	0.0147771
728.528	0.0147530
728.606	0.0149543
728.684	0.0151170
728.762	0.0151828
728.840	0.0149126
728.918	0.0150129
728.996	0.0151083
729.075	0.0150594
729.153	0.0152447
729.231	0.0150701
729.309	0.0150716
729.387	0.0151058
729.465	0.0150160
729.543	0.0148987
729.621	0.0148948
729.700	0.0147336
729.778	0.0148339
729.856	0.0147957
729.934	0.0147326
730.012	0.0146384
730.090	0.0146927
730.168	0.0145622
730.246	0.0145318
730.325	0.0143824
730.403	0.0144785
730.481	0.0144394
730.559	0.0143116
730.637	0.0144022
730.715	0.0145073
730.793	0.0144517
730.871	0.0145583
730.950	0.0146127
731.028	0.0144997
731.106	0.0146530
731.184	0.0146561
731.262	0.0147013
731.340	0.0146360
731.418	0.0146368
731.496	0.0146700
731.575	0.0146130
731.653	0.0147290
731.731	0.0146718
731.809	0.0147483
731.887	0.0147998
731.965	0.0149581
732.043	0.0147962
732.121	0.0148598
732.200	0.0149020
732.278	0.0149356
732.356	0.0149694
732.434	0.0149062
732.512	0.0148145
732.590	0.0147095
732.668	0.0147578
732.746	0.0147620
732.825	0.0147171
732.903	0.0146796
732.981	0.0144772
733.059	0.0145376
733.137	0.0145718
733.215	0.0146180
733.293	0.0146106
733.371	0.0146696
733.450	0.0145658
733.528	0.0146556
733.606	0.0147216
733.684	0.0146864
733.762	0.0147359
733.840	0.0147139
733.918	0.0147307
733.996	0.0146601
734.075	0.0148122
734.153	0.0149220
734.231	0.0147841
734.309	0.0147603
734.387	0.0147668
734.465	0.0147826
734.543	0.0147785
734.621	0.0147926
734.700	0.0146326
734.778	0.0148086
734.856	0.0148225
734.934	0.0147297
735.012	0.0146253
735.090	0.0146973
735.168	0.0148987
735.246	0.0147757
735.325	0.0146499
735.403	0.0146806
735.481	0.0146951
735.559	0.0146210
735.637	0.0146368
735.715	0.0145779
735.793	0.0145939
735.871	0.0145145
735.950	0.0144698
736.028	0.0147292
736.106	0.0147802
736.184	0.0148389
736.262	0.0149157
736.340	0.0150304
736.418	0.0149625
736.496	0.0151048
736.575	0.0151268
736.653	0.0151805
736.731	0.0153701
736.809	0.0151878
736.887	0.0150766
736.965	0.0151460
737.043	0.0150913
737.121	0.0149913
737.200	0.0148084
737.278	0.0148582
737.356	0.0149033
737.434	0.0146948
737.512	0.0145901
737.590	0.0146027
737.668	0.0146667
737.746	0.0144901
737.825	0.0144319
737.903	0.0145009
737.981	0.0145946
738.059	0.0144990
738.137	0.0145466
738.215	0.0145432
738.293	0.0147241
738.371	0.0146706
738.450	0.0148043
738.528	0.0145864
738.606	0.0147883
738.684	0.0149827
738.762	0.0149242
738.840	0.0149941
738.918	0.0149704
738.996	0.0149936
739.075	0.0149790
739.153	0.0150428
739.231	0.0150273
739.309	0.0150056
739.387	0.0147997
739.465	0.0148280
739.543	0.0149604
739.621	0.0148055
739.700	0.0146916
739.778	0.0145619
739.856	0.0145786
739.934	0.0146722
740.012	0.0145232
740.090	0.0144281
740.168	0.0146771
740.246	0.0144374
740.325	0.0145592
740.403	0.0145277
740.481	0.0145003
740.559	0.0145204
740.637	0.0146945
740.715	0.0147449
740.793	0.0146781
740.871	0.0148097
740.950	0.0148256
741.028	0.0149422
741.106	0.0151305
741.184	0.0149213
741.262	0.0150111
741.340	0.0151451
741.418	0.0150487
741.496	0.0150882
741.575	0.0149575
741.653	0.0148860
741.731	0.0149296
741.809	0.0149615
741.887	0.0149415
741.965	0.0149751
742.043	0.0148106
742.121	0.0147966
742.200	0.0147413
742.278	0.0148116
742.356	0.0148490
742.434	0.0146412
742.512	0.0145372
742.590	0.0147491
742.668	0.0146439
742.746	0.0146988
742.825	0.0147982
742.903	0.0147967
742.981	0.0149306
743.059	0.0148038
743.137	0.0149007
743.215	0.0147706
743.293	0.0148486
743.371	0.0149102
743.450	0.0150113
743.528	0.0149664
743.606	0.0149437
743.684	0.0148449
743.762	0.0149895
743.840	0.0148835
743.918	0.0149075
743.996	0.0149420
744.075	0.0150147
744.153	0.0148847
744.231	0.0148634
744.309	0.0149554
744.387	0.0149173
744.465	0.0148135
744.543	0.0148560
744.621	0.0148335
744.700	0.0147612
744.778	0.0146880
744.856	0.0145107
744.934	0.0146556
745.012	0.0146904
745.090	0.0147015
745.168	0.0146800
745.246	0.0146490
745.325	0.0147145
745.403	0.0147482
745.481	0.0148579
745.559	0.0147025
745.637	0.0147812
745.715	0.0149072
745.793	0.0148591
745.871	0.0149944
745.950	0.0150031
746.028	0.0150379
746.106	0.0150938
746.184	0.0151444
746.262	0.0150721
746.340	0.0152009
746.418	0.0152363
746.496	0.0152641
746.575	0.0152513
746.653	0.0151048
746.731	0.0151875
746.809	0.0150360
746.887	0.0149552
746.965	0.0149669
747.043	0.0148981
747.121	0.0149546
747.200	0.0147118
747.278	0.0147140
747.356	0.0146906
747.434	0.0146913
747.512	0.0146167
747.590	0.0146326
747.668	0.0145950
747.746	0.0145434
747.825	0.0145897
747.903	0.0146336
747.981	0.0145490
748.059	0.0144767
748.137	0.0147175
748.215	0.0146938
748.293	0.0145939
748.371	0.0146803
748.450	0.0146482
748.528	0.0148425
748.606	0.0148474
748.684	0.0149362
748.762	0.0148807
748.840	0.0148725
748.918	0.0150598
748.996	0.0148296
749.075	0.0147810
749.153	0.0148971
749.231	0.0150518
749.309	0.0148656
749.387	0.0149578
749.465	0.0149941
749.543	0.0148952
749.621	0.0147339
749.700	0.0149384
749.778	0.0148113
749.856	0.0147574
749.934	0.0147022
750.012	0.0146629
750.090	0.0146205
750.168	0.0147116
750.246	0.0147533
750.325	0.0145034
750.403	0.0146814
750.481	0.0146420
750.559	0.0148544
750.637	0.0147359
750.715	0.0147590
750.793	0.0149174
750.871	0.0149908
750.950	0.0148296
751.028	0.0148042
751.106	0.0147285
751.184	0.0147186
751.262	0.0146622
751.340	0.0146968
751.418	0.0148632
751.496	0.0147784
751.575	0.0147206
751.653	0.0147984
751.731	0.0147427
751.809	0.0148235
751.887	0.0146601
751.965	0.0145813
752.043	0.0146020
752.121	0.0145731
752.200	0.0144887
752.278	0.0145313
752.356	0.0145946
752.434	0.0146267
752.512	0.0145927
752.590	0.0145568
752.668	0.0146682
752.746	0.0146337
752.825	0.0145679
752.903	0.0145451
752.981	0.0147234
753.059	0.0147740
753.137	0.0146635
753.215	0.0146918
753.293	0.0147662
753.371	0.0147817
753.450	0.0148166
753.528	0.0147605
753.606	0.0149313
753.684	0.0149097
753.762	0.0147597
753.840	0.0148721
753.918	0.0149294
753.996	0.0148873
754.075	0.0148081
754.153	0.0147147
754.231	0.0148582
754.309	0.0149458
754.387	0.0147764
754.465	0.0147729
754.543	0.0147763
754.621	0.0146851
754.700	0.0148197
754.778	0.0147839
754.856	0.0147795
754.934	0.0146657
755.012	0.0146670
755.090	0.0145743
755.168	0.0146775
755.246	0.0145755
755.325	0.0144796
755.403	0.0146316
755.481	0.0144755
755.559	0.0145000
755.637	0.0144372
755.715	0.0144553
755.793	0.0144926
755.871	0.0146309
755.950	0.0145660
756.028	0.0146304
756.106	0.0146374
756.184	0.0147211
756.262	0.0148580
756.340	0.0148467
756.418	0.0147202
756.496	0.0147277
756.575	0.0149734
756.653	0.0148593
756.731	0.0148204
756.809	0.0149306
756.887	0.0150138
756.965	0.0148708
757.043	0.0149065
757.121	0.0149390
757.200	0.0150327
757.278	0.0147692
757.356	0.0147624
757.434	0.0148919
757.512	0.0148001
757.590	0.0147916
757.668	0.0147034
757.746	0.0148749
757.825	0.0147601
757.903	0.0147420
757.981	0.0147981
758.059	0.0147865
758.137	0.0147099
758.215	0.0146897
758.293	0.0146445
758.371	0.0148899
758.450	0.0148193
758.528	0.0147893
758.606	0.0148464
758.684	0.0146595
758.762	0.0150060
758.840	0.0148273
758.918	0.0149283
758.996	0.0149038
759.075	0.0147826
759.153	0.0147807
759.231	0.0148315
759.309	0.0147749
759.387	0.0147956
759.465	0.0149628
759.543	0.0147656
759.621	0.0147747
759.700	0.0148333
759.778	0.0148820
759.856	0.0147648
759.934	0.0147658
760.012	0.0147968
760.090	0.0147858
760.168	0.0146764
760.246	0.0146828
760.325	0.0146449
760.403	0.0146672
760.481	0.0148177
760.559	0.0148388
760.637	0.0147711
760.715	0.0148299
760.793	0.0147504
760.871	0.0148072
760.950	0.0146613
761.028	0.0148359
761.106	0.0147998
761.184	0.0148414
761.262	0.0148814
761.340	0.0148518
761.418	0.0149317
761.496	0.0147424
761.575	0.0148989
761.653	0.0149059
761.731	0.0147910
761.809	0.0148839
761.887	0.0149986
761.965	0.0148797
762.043	0.0148373
762.121	0.0149041
762.200	0.0147927
762.278	0.0149203
762.356	0.0147608
762.434	0.0146958
762.512	0.0147346
762.590	0.0148751
762.668	0.0148608
762.746	0.0146693
762.825	0.0146771
762.903	0.0148151
762.981	0.0146551
763.059	0.0146483
763.137	0.0146843
763.215	0.0148519
763.293	0.0147665
763.371	0.0149151
763.450	0.0149255
763.528	0.0147726
763.606	0.0147684
763.684	0.0149634
763.762	0.0148113
763.840	0.0147103
763.918	0.0149367
763.996	0.0149853
764.075	0.0148918
764.153	0.0150632
764.231	0.0151096
764.309	0.0150823
764.387	0.0150683
764.465	0.0149210
764.543	0.0149388
764.621	0.0148390
764.700	0.0148860
