05/04/2022	21:25:53	Ver.	4.1	UNKNOWN
Optical Delay	678.996401	Delta X		0.078125	Sweeps	1	Scan Rate	0/0
Coordinates	Axis 1	NaN	Axis 2	NaN	Axis 3	NaN	Axis 4	NaN	Axis 5	NaN	Axis 6	0.000000
TX Power	0.000000	RX Power	0.000000

678.996	0.0144532
679.075	0.0143972
679.153	0.0143393
679.231	0.0143218
679.309	0.0142651
679.387	0.0141672
679.465	0.0143795
679.543	0.0143130
679.621	0.0143643
679.700	0.0144570
679.778	0.0142771
679.856	0.0143411
679.934	0.0143547
680.012	0.0142395
680.090	0.0142995
680.168	0.0143756
680.246	0.0143812
680.325	0.0143414
680.403	0.0143728
680.481	0.0145385
680.559	0.0144650
680.637	0.0144595
680.715	0.0143836
680.793	0.0144141
680.871	0.0144268
680.950	0.0145435
681.028	0.0144190
681.106	0.0143434
681.184	0.0143248
681.262	0.0143903
681.340	0.0144264
681.418	0.0143903
681.496	0.0143046
681.575	0.0143024
681.653	0.0142983
681.731	0.0142725
681.809	0.0143100
681.887	0.0142944
681.965	0.0144347
682.043	0.0144397
682.121	0.0143842
682.200	0.0144906
682.278	0.0143500
682.356	0.0144819
682.434	0.0145272
682.512	0.0144186
682.590	0.0145533
682.668	0.0144819
682.746	0.0144470
682.825	0.0145987
682.903	0.0146072
682.981	0.0145805
683.059	0.0144990
683.137	0.0144543
683.215	0.0145630
683.293	0.0146519
683.371	0.0146537
683.450	0.0145543
683.528	0.0145219
683.606	0.0144804
683.684	0.0145020
683.762	0.0144220
683.840	0.0144930
683.918	0.0144386
683.996	0.0143026
684.075	0.0143681
684.153	0.0144534
684.231	0.0143371
684.309	0.0143454
684.387	0.0144035
684.465	0.0143434
684.543	0.0144312
684.621	0.0144176
684.700	0.0144194
684.778	0.0144569
684.856	0.0145086
684.934	0.0144554
685.012	0.0143613
685.090	0.0144432
685.168	0.0145367
685.246	0.0145891
685.325	0.0147476
685.403	0.0146328
685.481	0.0145355
685.559	0.0146707
685.637	0.0145681
685.715	0.0144729
685.793	0.0145252
685.871	0.0146046
685.950	0.0145129
686.028	0.0144032
686.106	0.0145560
686.184	0.0143712
686.262	0.0143998
686.340	0.0143745
686.418	0.0143026
686.496	0.0143063
686.575	0.0143152
686.653	0.0142215
686.731	0.0141070
686.809	0.0141743
686.887	0.0142271
686.965	0.0141795
687.043	0.0144021
687.121	0.0143124
687.200	0.0142227
687.278	0.0144129
687.356	0.0145081
687.434	0.0144080
687.512	0.0143173
687.590	0.0144012
687.668	0.0144843
687.746	0.0144067
687.825	0.0144899
687.903	0.0145389
687.981	0.0143864
688.059	0.0143785
688.137	0.0143208
688.215	0.0143847
688.293	0.0143800
688.371	0.0142903
688.450	0.0143343
688.528	0.0143005
688.606	0.0143712
688.684	0.0143108
688.762	0.0143484
688.840	0.0144470
688.918	0.0143479
688.996	0.0145353
689.075	0.0145467
689.153	0.0144675
689.231	0.0146360
689.309	0.0145929
689.387	0.0145665
689.465	0.0146053
689.543	0.0146364
689.621	0.0145435
689.700	0.0144656
689.778	0.0145267
689.856	0.0145882
689.934	0.0144303
690.012	0.0145879
690.090	0.0143432
690.168	0.0142299
690.246	0.0142718
690.325	0.0141309
690.403	0.0142208
690.481	0.0143154
690.559	0.0142467
690.637	0.0142839
690.715	0.0144294
690.793	0.0144978
690.871	0.0146494
690.950	0.0146064
691.028	0.0146602
691.106	0.0147781
691.184	0.0147565
691.262	0.0149654
691.340	0.0147578
691.418	0.0147773
691.496	0.0149019
691.575	0.0148402
691.653	0.0146973
691.731	0.0147659
691.809	0.0145924
691.887	0.0145364
691.965	0.0143993
692.043	0.0143544
692.121	0.0142130
692.200	0.0140913
692.278	0.0139105
692.356	0.0140006
692.434	0.0140089
692.512	0.0139178
692.590	0.0140711
692.668	0.0139876
692.746	0.0141472
692.825	0.0143657
692.903	0.0142804
692.981	0.0145719
693.059	0.0146008
693.137	0.0147342
693.215	0.0148344
693.293	0.0149067
693.371	0.0150042
693.450	0.0148979
693.528	0.0151136
693.606	0.0152392
693.684	0.0150723
693.762	0.0150276
693.840	0.0149161
693.918	0.0149924
693.996	0.0147703
694.075	0.0146861
694.153	0.0145065
694.231	0.0143505
694.309	0.0140901
694.387	0.0139177
694.465	0.0140065
694.543	0.0138663
694.621	0.0138141
694.700	0.0139639
694.778	0.0139828
694.856	0.0139655
694.934	0.0140634
695.012	0.0142353
695.090	0.0143750
695.168	0.0143600
695.246	0.0143665
695.325	0.0143314
695.403	0.0145976
695.481	0.0147019
695.559	0.0149162
695.637	0.0149989
695.715	0.0151807
695.793	0.0152805
695.871	0.0153498
695.950	0.0154581
696.028	0.0153827
696.106	0.0153811
696.184	0.0150887
696.262	0.0148809
696.340	0.0146210
696.418	0.0144650
696.496	0.0142530
696.575	0.0140170
696.653	0.0139118
696.731	0.0136306
696.809	0.0136001
696.887	0.0134064
696.965	0.0133154
697.043	0.0135280
697.121	0.0134785
697.200	0.0136713
697.278	0.0137543
697.356	0.0140147
697.434	0.0141762
697.512	0.0144785
697.590	0.0147791
697.668	0.0151498
697.746	0.0151698
697.825	0.0154446
697.903	0.0156923
697.981	0.0156074
698.059	0.0153590
698.137	0.0152430
698.215	0.0151253
698.293	0.0148691
698.371	0.0146243
698.450	0.0143296
698.528	0.0140963
698.606	0.0138666
698.684	0.0137711
698.762	0.0137260
698.840	0.0137086
698.918	0.0137464
698.996	0.0139918
699.075	0.0141007
699.153	0.0142317
699.231	0.0143172
699.309	0.0142837
699.387	0.0145194
699.465	0.0145514
699.543	0.0143703
699.621	0.0145016
699.700	0.0145391
699.778	0.0146837
699.856	0.0146500
699.934	0.0148198
700.012	0.0147911
700.090	0.0147453
700.168	0.0146751
700.246	0.0147796
700.325	0.0147276
700.403	0.0144828
700.481	0.0145367
700.559	0.0145623
700.637	0.0143256
700.715	0.0140489
700.793	0.0141200
700.871	0.0140415
700.950	0.0138966
701.028	0.0139600
701.106	0.0139405
701.184	0.0138509
701.262	0.0137899
701.340	0.0138911
701.418	0.0138547
701.496	0.0139758
701.575	0.0140778
701.653	0.0141628
701.731	0.0142949
701.809	0.0145586
701.887	0.0147195
701.965	0.0149752
702.043	0.0152542
702.121	0.0153122
702.200	0.0152010
702.278	0.0153355
702.356	0.0152892
702.434	0.0150610
702.512	0.0146535
702.590	0.0143940
702.668	0.0143193
702.746	0.0140839
702.825	0.0139353
702.903	0.0137802
702.981	0.0137841
703.059	0.0137060
703.137	0.0139194
703.215	0.0138394
703.293	0.0140282
703.371	0.0141950
703.450	0.0144424
703.528	0.0146113
703.606	0.0144566
703.684	0.0147530
703.762	0.0148234
703.840	0.0148620
703.918	0.0150554
703.996	0.0149559
704.075	0.0148455
704.153	0.0148540
704.231	0.0145809
704.309	0.0144305
704.387	0.0144923
704.465	0.0143602
704.543	0.0141200
704.621	0.0139174
704.700	0.0140733
704.778	0.0139440
704.856	0.0138268
704.934	0.0138271
705.012	0.0137684
705.090	0.0140214
705.168	0.0140947
705.246	0.0143834
705.325	0.0144189
705.403	0.0144692
705.481	0.0146201
705.559	0.0147237
705.637	0.0146615
705.715	0.0147553
705.793	0.0148373
705.871	0.0148096
705.950	0.0146968
706.028	0.0147851
706.106	0.0148479
706.184	0.0147189
706.262	0.0147520
706.340	0.0146718
706.418	0.0147882
706.496	0.0146285
706.575	0.0144571
706.653	0.0143934
706.731	0.0142558
706.809	0.0140453
706.887	0.0139263
706.965	0.0137635
707.043	0.0138043
707.121	0.0137232
707.200	0.0136995
707.278	0.0137635
707.356	0.0140530
707.434	0.0141289
707.512	0.0143925
707.590	0.0145665
707.668	0.0147166
707.746	0.0147852
707.825	0.0147630
707.903	0.0149610
707.981	0.0149567
708.059	0.0151448
708.137	0.0150761
708.215	0.0149312
708.293	0.0149776
708.371	0.0148193
708.450	0.0146742
708.528	0.0145959
708.606	0.0144221
708.684	0.0141833
708.762	0.0140435
708.840	0.0139610
708.918	0.0138554
708.996	0.0136325
709.075	0.0134641
709.153	0.0135272
709.231	0.0134161
709.309	0.0134003
709.387	0.0136063
709.465	0.0137946
709.543	0.0140175
709.621	0.0142056
709.700	0.0143315
709.778	0.0146719
709.856	0.0150353
709.934	0.0151984
710.012	0.0153345
710.090	0.0154774
710.168	0.0155061
710.246	0.0155952
710.325	0.0156088
710.403	0.0153916
710.481	0.0153196
710.559	0.0153646
710.637	0.0151268
710.715	0.0148295
710.793	0.0146489
710.871	0.0142137
710.950	0.0140752
711.028	0.0140240
711.106	0.0136037
711.184	0.0134766
711.262	0.0133958
711.340	0.0134022
711.418	0.0133743
711.496	0.0135265
711.575	0.0136294
711.653	0.0137682
711.731	0.0141864
711.809	0.0141233
711.887	0.0143471
711.965	0.0145167
712.043	0.0146268
712.121	0.0149572
712.200	0.0149027
712.278	0.0150158
712.356	0.0151030
712.434	0.0152050
712.512	0.0152780
712.590	0.0151376
712.668	0.0151553
712.746	0.0152264
712.825	0.0149371
712.903	0.0148756
712.981	0.0148478
713.059	0.0145683
713.137	0.0145606
713.215	0.0145031
713.293	0.0143321
713.371	0.0141953
713.450	0.0140810
713.528	0.0140167
713.606	0.0138192
713.684	0.0138206
713.762	0.0137901
713.840	0.0137118
713.918	0.0138192
713.996	0.0140124
714.075	0.0141400
714.153	0.0141642
714.231	0.0142584
714.309	0.0145690
714.387	0.0147199
714.465	0.0148213
714.543	0.0150340
714.621	0.0151590
714.700	0.0150579
714.778	0.0151892
714.856	0.0150851
714.934	0.0148892
715.012	0.0150868
715.090	0.0148856
715.168	0.0148257
715.246	0.0145843
715.325	0.0145341
715.403	0.0143356
715.481	0.0141320
715.559	0.0141425
715.637	0.0140791
715.715	0.0140229
715.793	0.0139741
715.871	0.0141330
715.950	0.0141906
716.028	0.0140834
716.106	0.0142458
716.184	0.0145056
716.262	0.0145698
716.340	0.0146686
716.418	0.0148090
716.496	0.0148792
716.575	0.0148518
716.653	0.0148716
716.731	0.0149518
716.809	0.0148636
716.887	0.0148955
716.965	0.0147524
717.043	0.0146993
717.121	0.0147898
717.200	0.0145818
717.278	0.0144244
717.356	0.0144101
717.434	0.0143242
717.512	0.0142650
717.590	0.0140759
717.668	0.0142596
717.746	0.0141991
717.825	0.0142183
717.903	0.0142314
717.981	0.0144157
718.059	0.0145028
718.137	0.0145122
718.215	0.0145400
718.293	0.0146994
718.371	0.0147604
718.450	0.0146743
718.528	0.0147955
718.606	0.0148074
718.684	0.0147045
718.762	0.0149342
718.840	0.0147954
718.918	0.0146345
718.996	0.0145808
719.075	0.0144470
719.153	0.0144123
719.231	0.0143617
719.309	0.0143118
719.387	0.0142809
719.465	0.0141097
719.543	0.0142542
719.621	0.0140726
719.700	0.0141616
719.778	0.0141698
719.856	0.0142390
719.934	0.0141397
720.012	0.0141608
720.090	0.0141060
720.168	0.0141084
720.246	0.0142499
720.325	0.0141825
720.403	0.0142484
720.481	0.0142613
720.559	0.0142843
720.637	0.0142841
720.715	0.0144199
720.793	0.0145798
720.871	0.0144592
720.950	0.0145736
721.028	0.0146647
721.106	0.0146319
721.184	0.0147480
721.262	0.0146563
721.340	0.0144984
721.418	0.0145170
721.496	0.0144756
721.575	0.0144963
721.653	0.0144240
721.731	0.0143446
721.809	0.0143330
721.887	0.0142709
721.965	0.0144584
722.043	0.0144121
722.121	0.0141235
722.200	0.0142944
722.278	0.0143731
722.356	0.0144273
722.434	0.0142771
722.512	0.0142413
722.590	0.0142800
722.668	0.0143285
722.746	0.0143512
722.825	0.0142258
722.903	0.0142404
722.981	0.0142819
723.059	0.0143006
723.137	0.0141400
723.215	0.0142191
723.293	0.0142003
723.371	0.0142871
723.450	0.0141384
723.528	0.0140912
723.606	0.0141850
723.684	0.0142599
723.762	0.0141540
723.840	0.0144561
723.918	0.0145191
723.996	0.0145772
724.075	0.0146340
724.153	0.0146613
724.231	0.0147014
724.309	0.0147347
724.387	0.0148025
724.465	0.0148654
724.543	0.0148367
724.621	0.0150110
724.700	0.0148469
724.778	0.0147710
724.856	0.0145353
724.934	0.0145507
725.012	0.0145389
725.090	0.0144874
725.168	0.0144696
725.246	0.0144321
725.325	0.0143590
725.403	0.0140903
725.481	0.0141553
725.559	0.0141570
725.637	0.0141190
725.715	0.0139792
725.793	0.0140553
725.871	0.0142690
725.950	0.0140285
726.028	0.0140979
726.106	0.0141210
726.184	0.0142701
726.262	0.0141859
726.340	0.0143883
726.418	0.0145780
726.496	0.0146387
726.575	0.0147568
726.653	0.0147981
726.731	0.0147406
726.809	0.0147308
726.887	0.0148853
726.965	0.0148466
727.043	0.0148390
727.121	0.0146191
727.200	0.0145570
727.278	0.0145466
727.356	0.0145418
727.434	0.0143886
727.512	0.0141192
727.590	0.0140832
727.668	0.0141303
727.746	0.0140915
727.825	0.0140827
727.903	0.0139707
727.981	0.0141412
728.059	0.0141450
728.137	0.0142078
728.215	0.0142233
728.293	0.0144323
728.371	0.0146428
728.450	0.0143792
728.528	0.0145394
728.606	0.0147773
728.684	0.0146085
728.762	0.0146648
728.840	0.0146823
728.918	0.0146936
728.996	0.0146304
729.075	0.0147487
729.153	0.0147527
729.231	0.0147250
729.309	0.0146307
729.387	0.0145942
729.465	0.0146808
729.543	0.0147448
729.621	0.0146810
729.700	0.0145741
729.778	0.0144061
729.856	0.0145100
729.934	0.0143266
730.012	0.0143326
730.090	0.0142564
730.168	0.0142513
730.246	0.0142278
730.325	0.0141788
730.403	0.0141897
730.481	0.0139986
730.559	0.0140941
730.637	0.0141073
730.715	0.0142561
730.793	0.0141206
730.871	0.0140399
730.950	0.0142197
731.028	0.0143494
731.106	0.0142730
731.184	0.0142901
731.262	0.0142578
731.340	0.0144234
731.418	0.0146969
731.496	0.0144260
731.575	0.0145903
731.653	0.0144957
731.731	0.0147038
731.809	0.0147039
731.887	0.0146933
731.965	0.0147325
732.043	0.0146707
732.121	0.0147437
732.200	0.0148230
732.278	0.0146478
732.356	0.0147430
732.434	0.0146513
732.512	0.0145055
732.590	0.0145229
732.668	0.0147177
732.746	0.0145299
732.825	0.0145061
732.903	0.0145315
732.981	0.0144636
733.059	0.0143296
733.137	0.0143468
733.215	0.0144406
733.293	0.0143614
733.371	0.0143925
733.450	0.0144017
733.528	0.0143504
733.606	0.0144772
733.684	0.0145069
733.762	0.0143740
733.840	0.0145996
733.918	0.0146473
733.996	0.0145435
734.075	0.0145403
734.153	0.0146674
734.231	0.0145911
734.309	0.0144459
734.387	0.0145233
734.465	0.0146912
734.543	0.0146625
734.621	0.0145943
734.700	0.0145046
734.778	0.0145167
734.856	0.0144373
734.934	0.0144672
735.012	0.0143375
735.090	0.0142427
735.168	0.0143061
735.246	0.0142424
735.325	0.0142431
735.403	0.0141167
735.481	0.0142538
735.559	0.0144065
735.637	0.0142296
735.715	0.0143337
735.793	0.0143465
735.871	0.0145100
735.950	0.0145453
736.028	0.0145457
736.106	0.0147977
736.184	0.0147765
736.262	0.0147334
736.340	0.0147456
736.418	0.0148681
736.496	0.0148306
736.575	0.0148618
736.653	0.0148061
736.731	0.0147364
736.809	0.0147397
736.887	0.0146678
736.965	0.0146793
737.043	0.0148409
737.121	0.0146246
737.200	0.0144704
737.278	0.0144840
737.356	0.0143468
737.434	0.0146084
737.512	0.0144001
737.590	0.0142418
737.668	0.0141359
737.746	0.0141501
737.825	0.0141634
737.903	0.0141452
737.981	0.0142126
738.059	0.0141438
738.137	0.0144054
738.215	0.0144524
738.293	0.0144106
738.371	0.0144711
738.450	0.0146824
738.528	0.0145956
738.606	0.0146454
738.684	0.0147143
738.762	0.0147247
738.840	0.0147368
738.918	0.0146382
738.996	0.0148194
739.075	0.0146969
739.153	0.0147469
739.231	0.0146530
739.309	0.0146558
739.387	0.0145947
739.465	0.0146144
739.543	0.0144524
739.621	0.0143806
739.700	0.0143896
739.778	0.0143090
739.856	0.0143632
739.934	0.0144780
740.012	0.0142729
740.090	0.0142290
740.168	0.0141815
740.246	0.0143384
740.325	0.0143018
740.403	0.0142610
740.481	0.0142843
740.559	0.0143270
740.637	0.0143850
740.715	0.0144016
740.793	0.0144798
740.871	0.0144139
740.950	0.0145454
741.028	0.0145534
741.106	0.0145187
741.184	0.0145331
741.262	0.0146304
741.340	0.0145876
741.418	0.0146221
741.496	0.0146755
741.575	0.0145694
741.653	0.0145815
741.731	0.0144670
741.809	0.0143567
741.887	0.0143941
741.965	0.0143909
742.043	0.0142753
742.121	0.0143393
742.200	0.0142706
742.278	0.0141994
742.356	0.0143023
742.434	0.0141953
742.512	0.0143596
742.590	0.0143623
742.668	0.0141890
742.746	0.0143007
742.825	0.0142363
742.903	0.0142994
742.981	0.0142392
743.059	0.0143666
743.137	0.0142714
743.215	0.0143964
743.293	0.0143710
743.371	0.0144133
743.450	0.0143716
743.528	0.0144202
743.606	0.0143661
743.684	0.0145736
743.762	0.0145033
743.840	0.0143347
743.918	0.0143707
743.996	0.0146050
744.075	0.0145891
744.153	0.0145057
744.231	0.0144777
744.309	0.0144879
744.387	0.0142832
744.465	0.0143974
744.543	0.0144090
744.621	0.0143126
744.700	0.0143825
744.778	0.0142141
744.856	0.0140764
744.934	0.0141259
745.012	0.0142640
745.090	0.0140573
745.168	0.0140970
745.246	0.0141737
745.325	0.0141278
745.403	0.0141962
745.481	0.0142652
745.559	0.0144363
745.637	0.0144698
745.715	0.0142590
745.793	0.0144630
745.871	0.0145915
745.950	0.0145166
746.028	0.0146096
746.106	0.0144575
746.184	0.0146802
746.262	0.0146092
746.340	0.0146982
746.418	0.0146599
746.496	0.0145553
746.575	0.0146047
746.653	0.0146214
746.731	0.0145771
746.809	0.0145671
746.887	0.0145265
746.965	0.0144842
747.043	0.0143668
747.121	0.0144477
747.200	0.0143163
747.278	0.0142298
747.356	0.0144022
747.434	0.0142094
747.512	0.0142184
747.590	0.0141583
747.668	0.0142190
747.746	0.0142882
747.825	0.0142580
747.903	0.0143408
747.981	0.0143414
748.059	0.0142101
748.137	0.0143378
748.215	0.0144267
748.293	0.0144312
748.371	0.0144351
748.450	0.0144907
748.528	0.0145283
748.606	0.0144920
748.684	0.0144263
748.762	0.0144569
748.840	0.0144781
748.918	0.0146223
748.996	0.0145911
749.075	0.0145104
749.153	0.0144441
749.231	0.0144052
749.309	0.0144753
749.387	0.0145467
749.465	0.0143898
749.543	0.0145435
749.621	0.0144639
749.700	0.0144901
749.778	0.0144353
749.856	0.0144389
749.934	0.0144406
750.012	0.0144221
750.090	0.0144891
750.168	0.0143973
750.246	0.0145762
750.325	0.0145110
750.403	0.0144613
750.481	0.0145474
750.559	0.0144724
750.637	0.0144067
750.715	0.0145215
750.793	0.0144585
750.871	0.0144772
750.950	0.0144363
751.028	0.0145045
751.106	0.0144907
751.184	0.0144061
751.262	0.0143954
751.340	0.0143710
751.418	0.0143012
751.496	0.0144785
751.575	0.0145992
751.653	0.0144290
751.731	0.0144062
751.809	0.0142927
751.887	0.0143071
751.965	0.0144424
752.043	0.0144291
752.121	0.0143935
752.200	0.0143849
752.278	0.0143691
752.356	0.0144516
752.434	0.0143888
752.512	0.0143797
752.590	0.0143576
752.668	0.0143867
752.746	0.0143549
752.825	0.0143894
752.903	0.0144553
752.981	0.0144939
753.059	0.0144969
753.137	0.0144328
753.215	0.0145049
753.293	0.0144830
753.371	0.0143133
753.450	0.0144345
753.528	0.0144922
753.606	0.0144742
753.684	0.0145441
753.762	0.0145317
753.840	0.0144654
753.918	0.0146196
753.996	0.0146991
754.075	0.0145223
754.153	0.0146374
754.231	0.0146362
754.309	0.0145648
754.387	0.0145368
754.465	0.0146463
754.543	0.0146812
754.621	0.0143801
754.700	0.0144852
754.778	0.0143386
754.856	0.0145140
754.934	0.0144710
755.012	0.0143133
755.090	0.0143594
755.168	0.0143459
755.246	0.0143159
755.325	0.0142801
755.403	0.0142695
755.481	0.0142887
755.559	0.0144707
755.637	0.0143806
755.715	0.0143774
755.793	0.0143687
755.871	0.0143205
755.950	0.0145277
756.028	0.0145465
756.106	0.0144934
756.184	0.0145956
756.262	0.0144727
756.340	0.0145863
756.418	0.0146397
756.496	0.0147071
756.575	0.0146038
756.653	0.0147157
756.731	0.0146192
756.809	0.0147033
756.887	0.0146484
756.965	0.0145798
757.043	0.0145625
757.121	0.0146739
757.200	0.0146623
757.278	0.0146238
757.356	0.0146666
757.434	0.0145777
757.512	0.0144787
757.590	0.0145287
757.668	0.0146062
757.746	0.0145240
757.825	0.0145674
757.903	0.0145966
757.981	0.0144702
758.059	0.0144860
758.137	0.0144825
758.215	0.0144719
758.293	0.0145597
758.371	0.0143846
758.450	0.0143584
758.528	0.0144986
758.606	0.0145110
758.684	0.0145134
758.762	0.0144193
758.840	0.0144023
758.918	0.0145444
758.996	0.0145361
759.075	0.0145604
759.153	0.0143466
759.231	0.0144572
759.309	0.0144788
759.387	0.0144267
759.465	0.0144821
759.543	0.0145610
759.621	0.0143959
759.700	0.0144435
759.778	0.0145056
759.856	0.0144083
759.934	0.0144276
760.012	0.0143756
760.090	0.0142787
760.168	0.0142952
760.246	0.0142158
760.325	0.0142826
760.403	0.0144137
760.481	0.0143434
760.559	0.0143694
760.637	0.0143609
760.715	0.0143713
760.793	0.0142852
760.871	0.0144111
760.950	0.0142670
761.028	0.0143983
761.106	0.0145309
761.184	0.0145408
761.262	0.0148528
761.340	0.0145313
761.418	0.0145000
761.496	0.0145073
761.575	0.0146463
761.653	0.0147716
761.731	0.0146402
761.809	0.0146831
761.887	0.0146840
761.965	0.0146156
762.043	0.0145775
762.121	0.0145850
762.200	0.0144188
762.278	0.0144951
762.356	0.0144944
762.434	0.0145850
762.512	0.0143760
762.590	0.0143892
762.668	0.0142598
762.746	0.0142873
762.825	0.0143504
762.903	0.0143087
762.981	0.0142218
763.059	0.0143195
763.137	0.0143725
763.215	0.0142539
763.293	0.0142543
763.371	0.0143700
763.450	0.0144950
763.528	0.0144906
763.606	0.0142500
763.684	0.0142995
763.762	0.0145152
763.840	0.0145551
763.918	0.0144124
763.996	0.0144948
764.075	0.0144751
764.153	0.0144695
764.231	0.0145109
764.309	0.0143618
764.387	0.0143457
764.465	0.0144537
764.543	0.0142931
764.621	0.0143407
764.700	0.0143617
