05/04/2022	21:26:13	Ver.	4.1	UNKNOWN
Optical Delay	678.996401	Delta X		0.078125	Sweeps	1	Scan Rate	0/0
Coordinates	Axis 1	NaN	Axis 2	NaN	Axis 3	NaN	Axis 4	NaN	Axis 5	NaN	Axis 6	0.000000
TX Power	0.000000	RX Power	0.000000

678.996	0.0148815
679.075	0.0149026
679.153	0.0149963
679.231	0.0149908
679.309	0.0150040
679.387	0.0149789
679.465	0.0149111
679.543	0.0148820
679.621	0.0150275
679.700	0.0148817
679.778	0.0146751
679.856	0.0147381
679.934	0.0147661
680.012	0.0148467
680.090	0.0148018
680.168	0.0147105
680.246	0.0147356
680.325	0.0146532
680.403	0.0148108
680.481	0.0147896
680.559	0.0146777
680.637	0.0147926
680.715	0.0147575
680.793	0.0147849
680.871	0.0148666
680.950	0.0148121
681.028	0.0149510
681.106	0.0149386
681.184	0.0149935
681.262	0.0150099
681.340	0.0150093
681.418	0.0149875
681.496	0.0148811
681.575	0.0149097
681.653	0.0149432
681.731	0.0148462
681.809	0.0148582
681.887	0.0149018
681.965	0.0150545
682.043	0.0148848
682.121	0.0148367
682.200	0.0149118
682.278	0.0148475
682.356	0.0146968
682.434	0.0147727
682.512	0.0148182
682.590	0.0147819
682.668	0.0147939
682.746	0.0148273
682.825	0.0147497
682.903	0.0147165
682.981	0.0148605
683.059	0.0146886
683.137	0.0146252
683.215	0.0147249
683.293	0.0149567
683.371	0.0146587
683.450	0.0148591
683.528	0.0149696
683.606	0.0149033
683.684	0.0149783
683.762	0.0148544
683.840	0.0149577
683.918	0.0149477
683.996	0.0149239
684.075	0.0149564
684.153	0.0150563
684.231	0.0149617
684.309	0.0151000
684.387	0.0149453
684.465	0.0149432
684.543	0.0149734
684.621	0.0147393
684.700	0.0149269
684.778	0.0148472
684.856	0.0148386
684.934	0.0147633
685.012	0.0148093
685.090	0.0148836
685.168	0.0148287
685.246	0.0148808
685.325	0.0148397
685.403	0.0148161
685.481	0.0149310
685.559	0.0148931
685.637	0.0147951
685.715	0.0147928
685.793	0.0148767
685.871	0.0150819
685.950	0.0148241
686.028	0.0150150
686.106	0.0149439
686.184	0.0149351
686.262	0.0150197
686.340	0.0150555
686.418	0.0149748
686.496	0.0149253
686.575	0.0149758
686.653	0.0151337
686.731	0.0150686
686.809	0.0150474
686.887	0.0150814
686.965	0.0148733
687.043	0.0149307
687.121	0.0149560
687.200	0.0149683
687.278	0.0149545
687.356	0.0149651
687.434	0.0149490
687.512	0.0150162
687.590	0.0150582
687.668	0.0147920
687.746	0.0148668
687.825	0.0147545
687.903	0.0147794
687.981	0.0148636
688.059	0.0149338
688.137	0.0148759
688.215	0.0148585
688.293	0.0148869
688.371	0.0149274
688.450	0.0150703
688.528	0.0151894
688.606	0.0150523
688.684	0.0151388
688.762	0.0152611
688.840	0.0151168
688.918	0.0150773
688.996	0.0149521
689.075	0.0149918
689.153	0.0150867
689.231	0.0149512
689.309	0.0147308
689.387	0.0147950
689.465	0.0148040
689.543	0.0148444
689.621	0.0147963
689.700	0.0147017
689.778	0.0145945
689.856	0.0146989
689.934	0.0147318
690.012	0.0148003
690.090	0.0148135
690.168	0.0148651
690.246	0.0149225
690.325	0.0149473
690.403	0.0150538
690.481	0.0151424
690.559	0.0150454
690.637	0.0151716
690.715	0.0152452
690.793	0.0150587
690.871	0.0151673
690.950	0.0151965
691.028	0.0149644
691.106	0.0150551
691.184	0.0150600
691.262	0.0149479
691.340	0.0149915
691.418	0.0148618
691.496	0.0146928
691.575	0.0148721
691.653	0.0145790
691.731	0.0146111
691.809	0.0145731
691.887	0.0145417
691.965	0.0142854
692.043	0.0145711
692.121	0.0145025
692.200	0.0146013
692.278	0.0146145
692.356	0.0148306
692.434	0.0147527
692.512	0.0149535
692.590	0.0150126
692.668	0.0149985
692.746	0.0150121
692.825	0.0152221
692.903	0.0152491
692.981	0.0151785
693.059	0.0153215
693.137	0.0152481
693.215	0.0152877
693.293	0.0152702
693.371	0.0152675
693.450	0.0152708
693.528	0.0150296
693.606	0.0150686
693.684	0.0148628
693.762	0.0146941
693.840	0.0146556
693.918	0.0145603
693.996	0.0143794
694.075	0.0143762
694.153	0.0142696
694.231	0.0142864
694.309	0.0143456
694.387	0.0145187
694.465	0.0144830
694.543	0.0144771
694.621	0.0144214
694.700	0.0145338
694.778	0.0148499
694.856	0.0147451
694.934	0.0149430
695.012	0.0150649
695.090	0.0153207
695.168	0.0153070
695.246	0.0155330
695.325	0.0156191
695.403	0.0155648
695.481	0.0157529
695.559	0.0158156
695.637	0.0156116
695.715	0.0155438
695.793	0.0152573
695.871	0.0151186
695.950	0.0147864
696.028	0.0145396
696.106	0.0143115
696.184	0.0141665
696.262	0.0140201
696.340	0.0139861
696.418	0.0140255
696.496	0.0139535
696.575	0.0139493
696.653	0.0139924
696.731	0.0140916
696.809	0.0142498
696.887	0.0143601
696.965	0.0144948
697.043	0.0149552
697.121	0.0149624
697.200	0.0153411
697.278	0.0155109
697.356	0.0156940
697.434	0.0157806
697.512	0.0158319
697.590	0.0155893
697.668	0.0154742
697.746	0.0154288
697.825	0.0151846
697.903	0.0151379
697.981	0.0149463
698.059	0.0146368
698.137	0.0145779
698.215	0.0144537
698.293	0.0143890
698.371	0.0142097
698.450	0.0142994
698.528	0.0144749
698.606	0.0143216
698.684	0.0144884
698.762	0.0146100
698.840	0.0146660
698.918	0.0146980
698.996	0.0148192
699.075	0.0148265
699.153	0.0148934
699.231	0.0149638
699.309	0.0150764
699.387	0.0151604
699.465	0.0151893
699.543	0.0151968
699.621	0.0151965
699.700	0.0152985
699.778	0.0152744
699.856	0.0151108
699.934	0.0150813
700.012	0.0150154
700.090	0.0149053
700.168	0.0146592
700.246	0.0147562
700.325	0.0145395
700.403	0.0145522
700.481	0.0144698
700.559	0.0144338
700.637	0.0144453
700.715	0.0142429
700.793	0.0144028
700.871	0.0145231
700.950	0.0144881
701.028	0.0145049
701.106	0.0146318
701.184	0.0147246
701.262	0.0148234
701.340	0.0149935
701.418	0.0150846
701.496	0.0152468
701.575	0.0153349
701.653	0.0153487
701.731	0.0155824
701.809	0.0155968
701.887	0.0155166
701.965	0.0155966
702.043	0.0154433
702.121	0.0151674
702.200	0.0149251
702.278	0.0148718
702.356	0.0147351
702.434	0.0144743
702.512	0.0143613
702.590	0.0143416
702.668	0.0144501
702.746	0.0143746
702.825	0.0143552
702.903	0.0146491
702.981	0.0146696
703.059	0.0148581
703.137	0.0150755
703.215	0.0151350
703.293	0.0151909
703.371	0.0150687
703.450	0.0150175
703.528	0.0150076
703.606	0.0149782
703.684	0.0148890
703.762	0.0148823
703.840	0.0147414
703.918	0.0148380
703.996	0.0147079
704.075	0.0148172
704.153	0.0146878
704.231	0.0144821
704.309	0.0146143
704.387	0.0145951
704.465	0.0145845
704.543	0.0146954
704.621	0.0147359
704.700	0.0147904
704.778	0.0147282
704.856	0.0148492
704.934	0.0149818
705.012	0.0150581
705.090	0.0150179
705.168	0.0150609
705.246	0.0151745
705.325	0.0153355
705.403	0.0152229
705.481	0.0151987
705.559	0.0151216
705.637	0.0150749
705.715	0.0150468
705.793	0.0149716
705.871	0.0151461
705.950	0.0149618
706.028	0.0150481
706.106	0.0148926
706.184	0.0149030
706.262	0.0147459
706.340	0.0146286
706.418	0.0147162
706.496	0.0143383
706.575	0.0142614
706.653	0.0141483
706.731	0.0140307
706.809	0.0141040
706.887	0.0140148
706.965	0.0144202
707.043	0.0147142
707.121	0.0147311
707.200	0.0150449
707.278	0.0154672
707.356	0.0156088
707.434	0.0156902
707.512	0.0158435
707.590	0.0158580
707.668	0.0158076
707.746	0.0157036
707.825	0.0157417
707.903	0.0154187
707.981	0.0152322
708.059	0.0151235
708.137	0.0149615
708.215	0.0146371
708.293	0.0145231
708.371	0.0142931
708.450	0.0141087
708.528	0.0139783
708.606	0.0139755
708.684	0.0138776
708.762	0.0137978
708.840	0.0139857
708.918	0.0141055
708.996	0.0142467
709.075	0.0145213
709.153	0.0145839
709.231	0.0149509
709.309	0.0151871
709.387	0.0153860
709.465	0.0156009
709.543	0.0159743
709.621	0.0160699
709.700	0.0161974
709.778	0.0160371
709.856	0.0161929
709.934	0.0159554
710.012	0.0158620
710.090	0.0155532
710.168	0.0154962
710.246	0.0154092
710.325	0.0152674
710.403	0.0149892
710.481	0.0148005
710.559	0.0145857
710.637	0.0144460
710.715	0.0143482
710.793	0.0141994
710.871	0.0141119
710.950	0.0141425
711.028	0.0142440
711.106	0.0140437
711.184	0.0143760
711.262	0.0144148
711.340	0.0144335
711.418	0.0147624
711.496	0.0148227
711.575	0.0149119
711.653	0.0150448
711.731	0.0150420
711.809	0.0152304
711.887	0.0152160
711.965	0.0151956
712.043	0.0153773
712.121	0.0155557
712.200	0.0156130
712.278	0.0155733
712.356	0.0154971
712.434	0.0154053
712.512	0.0153881
712.590	0.0152589
712.668	0.0150885
712.746	0.0149913
712.825	0.0150367
712.903	0.0148804
712.981	0.0145959
713.059	0.0145728
713.137	0.0145567
713.215	0.0144042
713.293	0.0143210
713.371	0.0142930
713.450	0.0144329
713.528	0.0142310
713.606	0.0144091
713.684	0.0145183
713.762	0.0146033
713.840	0.0147839
713.918	0.0149406
713.996	0.0150344
714.075	0.0151094
714.153	0.0152212
714.231	0.0154101
714.309	0.0155054
714.387	0.0154130
714.465	0.0153817
714.543	0.0153184
714.621	0.0151360
714.700	0.0151749
714.778	0.0150117
714.856	0.0148711
714.934	0.0146043
715.012	0.0146449
715.090	0.0144428
715.168	0.0142657
715.246	0.0143712
715.325	0.0143599
715.403	0.0143253
715.481	0.0143223
715.559	0.0144933
715.637	0.0147989
715.715	0.0148172
715.793	0.0149208
715.871	0.0149955
715.950	0.0152214
716.028	0.0152237
716.106	0.0151743
716.184	0.0154717
716.262	0.0152576
716.340	0.0150991
716.418	0.0151717
716.496	0.0151225
716.575	0.0149976
716.653	0.0148647
716.731	0.0149165
716.809	0.0146927
716.887	0.0144958
716.965	0.0145722
717.043	0.0145660
717.121	0.0145753
717.200	0.0145549
717.278	0.0146277
717.356	0.0145681
717.434	0.0144632
717.512	0.0146374
717.590	0.0147104
717.668	0.0147984
717.746	0.0148041
717.825	0.0148428
717.903	0.0149628
717.981	0.0151357
718.059	0.0150021
718.137	0.0150313
718.215	0.0150518
718.293	0.0151490
718.371	0.0150403
718.450	0.0150404
718.528	0.0149847
718.606	0.0149255
718.684	0.0149803
718.762	0.0149500
718.840	0.0148961
718.918	0.0148750
718.996	0.0149000
719.075	0.0148399
719.153	0.0147591
719.231	0.0149178
719.309	0.0146921
719.387	0.0148435
719.465	0.0147285
719.543	0.0146172
719.621	0.0146447
719.700	0.0146484
719.778	0.0147577
719.856	0.0146805
719.934	0.0145320
720.012	0.0146177
720.090	0.0146376
720.168	0.0146377
720.246	0.0146312
720.325	0.0146458
720.403	0.0147591
720.481	0.0150069
720.559	0.0149812
720.637	0.0149570
720.715	0.0151254
720.793	0.0151347
720.871	0.0151273
720.950	0.0151638
721.028	0.0150980
721.106	0.0150640
721.184	0.0151524
721.262	0.0150146
721.340	0.0150063
721.418	0.0150404
721.496	0.0151725
721.575	0.0149638
721.653	0.0148415
721.731	0.0147845
721.809	0.0148794
721.887	0.0149644
721.965	0.0149321
722.043	0.0148798
722.121	0.0147398
722.200	0.0147475
722.278	0.0148316
722.356	0.0147672
722.434	0.0147855
722.512	0.0146708
722.590	0.0146179
722.668	0.0146939
722.746	0.0145708
722.825	0.0145647
722.903	0.0146684
722.981	0.0145866
723.059	0.0145707
723.137	0.0145603
723.215	0.0145649
723.293	0.0146508
723.371	0.0148098
723.450	0.0146625
723.528	0.0147436
723.606	0.0147999
723.684	0.0149152
723.762	0.0150314
723.840	0.0151467
723.918	0.0151070
723.996	0.0153643
724.075	0.0154457
724.153	0.0152728
724.231	0.0152608
724.309	0.0152302
724.387	0.0151796
724.465	0.0151299
724.543	0.0152084
724.621	0.0150060
724.700	0.0150352
724.778	0.0149220
724.856	0.0149486
724.934	0.0146832
725.012	0.0147204
725.090	0.0147110
725.168	0.0146794
725.246	0.0145791
725.325	0.0145966
725.403	0.0145349
725.481	0.0145794
725.559	0.0144470
725.637	0.0145787
725.715	0.0144889
725.793	0.0145882
725.871	0.0147796
725.950	0.0146964
726.028	0.0148268
726.106	0.0148290
726.184	0.0149376
726.262	0.0150787
726.340	0.0151753
726.418	0.0151972
726.496	0.0151734
726.575	0.0151637
726.653	0.0152606
726.731	0.0149418
726.809	0.0151373
726.887	0.0150483
726.965	0.0149384
727.043	0.0149139
727.121	0.0148047
727.200	0.0146233
727.278	0.0147946
727.356	0.0146687
727.434	0.0146909
727.512	0.0145280
727.590	0.0145352
727.668	0.0146011
727.746	0.0147088
727.825	0.0147598
727.903	0.0148727
727.981	0.0148310
728.059	0.0149744
728.137	0.0149384
728.215	0.0149413
728.293	0.0150144
728.371	0.0150084
728.450	0.0149489
728.528	0.0151200
728.606	0.0151643
728.684	0.0150827
728.762	0.0151096
728.840	0.0150270
728.918	0.0152300
728.996	0.0152154
729.075	0.0150816
729.153	0.0151524
729.231	0.0151406
729.309	0.0150079
729.387	0.0150333
729.465	0.0151826
729.543	0.0149638
729.621	0.0148312
729.700	0.0148039
729.778	0.0148581
729.856	0.0147106
729.934	0.0146468
730.012	0.0145322
730.090	0.0145911
730.168	0.0145544
730.246	0.0146168
730.325	0.0146694
730.403	0.0147382
730.481	0.0145451
730.559	0.0146758
730.637	0.0147907
730.715	0.0147692
730.793	0.0148292
730.871	0.0148067
730.950	0.0149110
731.028	0.0150122
731.106	0.0151139
731.184	0.0150448
731.262	0.0151680
731.340	0.0152406
731.418	0.0151653
731.496	0.0151463
731.575	0.0151633
731.653	0.0151458
731.731	0.0150185
731.809	0.0152021
731.887	0.0150244
731.965	0.0149934
732.043	0.0151217
732.121	0.0150132
732.200	0.0150113
732.278	0.0149206
732.356	0.0150156
732.434	0.0149689
732.512	0.0147657
732.590	0.0147202
732.668	0.0148252
732.746	0.0148076
732.825	0.0149589
732.903	0.0149407
732.981	0.0148524
733.059	0.0149400
733.137	0.0149018
733.215	0.0149417
733.293	0.0150255
733.371	0.0149494
733.450	0.0150196
733.528	0.0150557
733.606	0.0150436
733.684	0.0150445
733.762	0.0151421
733.840	0.0152170
733.918	0.0151316
733.996	0.0149995
734.075	0.0148857
734.153	0.0149673
734.231	0.0149404
734.309	0.0148829
734.387	0.0148032
734.465	0.0148292
734.543	0.0148178
734.621	0.0147564
734.700	0.0146040
734.778	0.0142998
734.856	0.0144178
734.934	0.0145664
735.012	0.0144370
735.090	0.0145454
735.168	0.0145620
735.246	0.0146760
735.325	0.0147665
735.403	0.0148711
735.481	0.0148357
735.559	0.0150256
735.637	0.0151139
735.715	0.0150542
735.793	0.0150863
735.871	0.0152239
735.950	0.0153376
736.028	0.0151884
736.106	0.0152679
736.184	0.0152547
736.262	0.0152193
736.340	0.0152348
736.418	0.0150526
736.496	0.0151053
736.575	0.0150368
736.653	0.0148893
736.731	0.0149552
736.809	0.0147720
736.887	0.0148034
736.965	0.0147643
737.043	0.0146964
737.121	0.0146553
737.200	0.0145226
737.278	0.0144701
737.356	0.0144959
737.434	0.0145981
737.512	0.0146198
737.590	0.0144883
737.668	0.0145727
737.746	0.0147533
737.825	0.0146344
737.903	0.0147976
737.981	0.0148241
738.059	0.0149207
738.137	0.0149793
738.215	0.0150084
738.293	0.0150639
738.371	0.0149532
738.450	0.0150227
738.528	0.0150909
738.606	0.0149330
738.684	0.0151128
738.762	0.0151938
738.840	0.0152009
738.918	0.0150971
738.996	0.0149340
739.075	0.0148604
739.153	0.0148904
739.231	0.0148067
739.309	0.0147282
739.387	0.0148167
739.465	0.0146729
739.543	0.0146082
739.621	0.0144970
739.700	0.0146385
739.778	0.0145874
739.856	0.0145061
739.934	0.0145451
740.012	0.0146149
740.090	0.0146242
740.168	0.0146589
740.246	0.0148657
740.325	0.0147526
740.403	0.0148843
740.481	0.0149376
740.559	0.0149813
740.637	0.0150253
740.715	0.0151568
740.793	0.0149709
740.871	0.0150323
740.950	0.0151277
741.028	0.0151694
741.106	0.0151934
741.184	0.0150176
741.262	0.0150703
741.340	0.0150568
741.418	0.0150501
741.496	0.0150155
741.575	0.0148596
741.653	0.0147652
741.731	0.0148684
741.809	0.0147721
741.887	0.0148221
741.965	0.0148203
742.043	0.0147427
742.121	0.0146044
742.200	0.0147308
742.278	0.0146380
742.356	0.0147112
742.434	0.0147960
742.512	0.0146420
742.590	0.0147018
742.668	0.0147272
742.746	0.0148824
742.825	0.0148985
742.903	0.0146872
742.981	0.0148580
743.059	0.0149511
743.137	0.0149551
743.215	0.0147926
743.293	0.0148618
743.371	0.0150169
743.450	0.0149582
743.528	0.0148965
743.606	0.0150255
743.684	0.0149836
743.762	0.0149840
743.840	0.0149646
743.918	0.0149672
743.996	0.0149962
744.075	0.0149174
744.153	0.0148913
744.231	0.0147761
744.309	0.0148125
744.387	0.0147478
744.465	0.0147414
744.543	0.0147360
744.621	0.0147141
744.700	0.0146777
744.778	0.0146336
744.856	0.0146518
744.934	0.0148239
745.012	0.0147643
745.090	0.0148447
745.168	0.0148707
745.246	0.0149174
745.325	0.0150754
745.403	0.0150027
745.481	0.0149260
745.559	0.0150281
745.637	0.0150544
745.715	0.0150150
745.793	0.0151685
745.871	0.0150770
745.950	0.0151112
746.028	0.0150426
746.106	0.0150799
746.184	0.0150406
746.262	0.0149782
746.340	0.0149638
746.418	0.0149180
746.496	0.0149406
746.575	0.0147971
746.653	0.0148995
746.731	0.0148302
746.809	0.0148133
746.887	0.0147290
746.965	0.0147340
747.043	0.0145833
747.121	0.0146866
747.200	0.0148506
747.278	0.0147898
747.356	0.0147887
747.434	0.0146505
747.512	0.0146896
747.590	0.0149265
747.668	0.0148376
747.746	0.0149013
747.825	0.0148763
747.903	0.0148489
747.981	0.0148885
748.059	0.0149998
748.137	0.0148655
748.215	0.0150410
748.293	0.0149917
748.371	0.0149631
748.450	0.0150666
748.528	0.0150865
748.606	0.0150768
748.684	0.0149212
748.762	0.0150408
748.840	0.0151099
748.918	0.0149044
748.996	0.0149586
749.075	0.0149274
749.153	0.0148008
749.231	0.0148568
749.309	0.0148611
749.387	0.0149488
749.465	0.0148389
749.543	0.0148819
749.621	0.0149093
749.700	0.0148196
749.778	0.0149219
749.856	0.0148038
749.934	0.0147937
750.012	0.0150164
750.090	0.0148283
750.168	0.0150639
750.246	0.0149330
750.325	0.0149313
750.403	0.0150511
750.481	0.0149803
750.559	0.0150077
750.637	0.0149891
750.715	0.0150206
750.793	0.0149844
750.871	0.0148338
750.950	0.0148498
751.028	0.0150340
751.106	0.0150539
751.184	0.0149212
751.262	0.0148401
751.340	0.0148550
751.418	0.0147910
751.496	0.0148281
751.575	0.0148667
751.653	0.0149219
751.731	0.0148610
751.809	0.0148822
751.887	0.0148817
751.965	0.0147456
752.043	0.0148220
752.121	0.0148844
752.200	0.0147594
752.278	0.0148246
752.356	0.0149670
752.434	0.0148366
752.512	0.0149516
752.590	0.0148598
752.668	0.0148790
752.746	0.0148397
752.825	0.0150226
752.903	0.0151194
752.981	0.0150191
753.059	0.0149928
753.137	0.0152000
753.215	0.0150948
753.293	0.0150346
753.371	0.0150852
753.450	0.0150420
753.528	0.0150739
753.606	0.0150512
753.684	0.0151721
753.762	0.0150209
753.840	0.0149179
753.918	0.0148890
753.996	0.0150137
754.075	0.0148934
754.153	0.0147584
754.231	0.0148657
754.309	0.0149969
754.387	0.0148662
754.465	0.0148393
754.543	0.0148922
754.621	0.0148316
754.700	0.0146271
754.778	0.0147220
754.856	0.0148212
754.934	0.0147086
755.012	0.0146964
755.090	0.0146367
755.168	0.0146065
755.246	0.0146385
755.325	0.0146452
755.403	0.0148334
755.481	0.0148753
755.559	0.0148225
755.637	0.0147228
755.715	0.0149548
755.793	0.0148967
755.871	0.0149104
755.950	0.0149225
756.028	0.0148991
756.106	0.0149425
756.184	0.0149831
756.262	0.0149786
756.340	0.0150050
756.418	0.0148100
756.496	0.0150121
756.575	0.0150058
756.653	0.0148370
756.731	0.0147685
756.809	0.0149518
756.887	0.0148710
756.965	0.0148814
757.043	0.0149638
757.121	0.0149737
757.200	0.0147588
757.278	0.0147784
757.356	0.0147501
757.434	0.0149497
757.512	0.0149053
757.590	0.0147993
757.668	0.0148590
757.746	0.0148466
757.825	0.0148005
757.903	0.0148129
757.981	0.0149310
758.059	0.0148615
758.137	0.0147919
758.215	0.0147981
758.293	0.0149042
758.371	0.0148124
758.450	0.0148904
758.528	0.0150116
758.606	0.0149814
758.684	0.0147391
758.762	0.0149129
758.840	0.0148795
758.918	0.0148203
758.996	0.0148318
759.075	0.0149383
759.153	0.0147414
759.231	0.0146704
759.309	0.0147375
759.387	0.0146167
759.465	0.0148251
759.543	0.0147520
759.621	0.0148644
759.700	0.0148367
759.778	0.0147131
759.856	0.0147077
759.934	0.0147340
760.012	0.0148923
760.090	0.0148354
760.168	0.0147277
760.246	0.0147767
760.325	0.0147756
760.403	0.0148695
760.481	0.0148332
760.559	0.0148274
760.637	0.0148409
760.715	0.0149449
760.793	0.0148677
760.871	0.0148576
760.950	0.0146781
761.028	0.0147569
761.106	0.0148849
761.184	0.0149627
761.262	0.0148751
761.340	0.0148997
761.418	0.0148770
761.496	0.0149574
761.575	0.0148643
761.653	0.0148725
761.731	0.0149052
761.809	0.0148962
761.887	0.0150050
761.965	0.0148074
762.043	0.0149345
762.121	0.0149220
762.200	0.0148927
762.278	0.0150631
762.356	0.0148533
762.434	0.0147583
762.512	0.0149223
762.590	0.0148302
762.668	0.0148827
762.746	0.0148717
762.825	0.0149086
762.903	0.0148474
762.981	0.0146507
763.059	0.0148126
763.137	0.0148363
763.215	0.0148676
763.293	0.0148556
763.371	0.0148025
763.450	0.0146706
763.528	0.0146957
763.606	0.0146452
763.684	0.0147479
763.762	0.0148956
763.840	0.0148786
763.918	0.0149516
763.996	0.0148471
764.075	0.0148039
764.153	0.0149141
764.231	0.0149646
764.309	0.0149739
764.387	0.0147902
764.465	0.0149092
764.543	0.0148882
764.621	0.0149036
764.700	0.0148425
