05/04/2022	21:26:33	Ver.	4.1	UNKNOWN
Optical Delay	678.996401	Delta X		0.078125	Sweeps	1	Scan Rate	0/0
Coordinates	Axis 1	NaN	Axis 2	NaN	Axis 3	NaN	Axis 4	NaN	Axis 5	NaN	Axis 6	0.000000
TX Power	0.000000	RX Power	0.000000

678.996	0.0145709
679.075	0.0143804
679.153	0.0146000
679.231	0.0144833
679.309	0.0145321
679.387	0.0143990
679.465	0.0145885
679.543	0.0145453
679.621	0.0144026
679.700	0.0145843
679.778	0.0146438
679.856	0.0145754
679.934	0.0145975
680.012	0.0145824
680.090	0.0147812
680.168	0.0147764
680.246	0.0147050
680.325	0.0146918
680.403	0.0146756
680.481	0.0146809
680.559	0.0146169
680.637	0.0147766
680.715	0.0146130
680.793	0.0146943
680.871	0.0146216
680.950	0.0145973
681.028	0.0146862
681.106	0.0146199
681.184	0.0146809
681.262	0.0148062
681.340	0.0147786
681.418	0.0146921
681.496	0.0146970
681.575	0.0145870
681.653	0.0146922
681.731	0.0146312
681.809	0.0146399
681.887	0.0145961
681.965	0.0146100
682.043	0.0145287
682.121	0.0146037
682.200	0.0146622
682.278	0.0145889
682.356	0.0146371
682.434	0.0146131
682.512	0.0145697
682.590	0.0145946
682.668	0.0147135
682.746	0.0147575
682.825	0.0148625
682.903	0.0147537
682.981	0.0148051
683.059	0.0147678
683.137	0.0147475
683.215	0.0146949
683.293	0.0148196
683.371	0.0147363
683.450	0.0146121
683.528	0.0146101
683.606	0.0146420
683.684	0.0146671
683.762	0.0144975
683.840	0.0147540
683.918	0.0146840
683.996	0.0146122
684.075	0.0145963
684.153	0.0146827
684.231	0.0145656
684.309	0.0146039
684.387	0.0145963
684.465	0.0146688
684.543	0.0147096
684.621	0.0146340
684.700	0.0145819
684.778	0.0145210
684.856	0.0145451
684.934	0.0145470
685.012	0.0145788
685.090	0.0145733
685.168	0.0145572
685.246	0.0146195
685.325	0.0146054
685.403	0.0147977
685.481	0.0146510
685.559	0.0146058
685.637	0.0145815
685.715	0.0146680
685.793	0.0147421
685.871	0.0147167
685.950	0.0145998
686.028	0.0146297
686.106	0.0146255
686.184	0.0145863
686.262	0.0146667
686.340	0.0146844
686.418	0.0146885
686.496	0.0146544
686.575	0.0145213
686.653	0.0145300
686.731	0.0145116
686.809	0.0146872
686.887	0.0146275
686.965	0.0145609
687.043	0.0147318
687.121	0.0147009
687.200	0.0146794
687.278	0.0145206
687.356	0.0146004
687.434	0.0147086
687.512	0.0146775
687.590	0.0146218
687.668	0.0146066
687.746	0.0144633
687.825	0.0144632
687.903	0.0144823
687.981	0.0145535
688.059	0.0146355
688.137	0.0144229
688.215	0.0145733
688.293	0.0146274
688.371	0.0147553
688.450	0.0146548
688.528	0.0146529
688.606	0.0148647
688.684	0.0147773
688.762	0.0149031
688.840	0.0147963
688.918	0.0147325
688.996	0.0147392
689.075	0.0147272
689.153	0.0145914
689.231	0.0146014
689.309	0.0147204
689.387	0.0145160
689.465	0.0144916
689.543	0.0144601
689.621	0.0143294
689.700	0.0143273
689.778	0.0144374
689.856	0.0142992
689.934	0.0144353
690.012	0.0143497
690.090	0.0144127
690.168	0.0145661
690.246	0.0146475
690.325	0.0146947
690.403	0.0146227
690.481	0.0147476
690.559	0.0148846
690.637	0.0147759
690.715	0.0149836
690.793	0.0150974
690.871	0.0149767
690.950	0.0148658
691.028	0.0147774
691.106	0.0148700
691.184	0.0147777
691.262	0.0146077
691.340	0.0146104
691.418	0.0145575
691.496	0.0143559
691.575	0.0142356
691.653	0.0140651
691.731	0.0140142
691.809	0.0140051
691.887	0.0140915
691.965	0.0142223
692.043	0.0141340
692.121	0.0141726
692.200	0.0143398
692.278	0.0143768
692.356	0.0144279
692.434	0.0146066
692.512	0.0146796
692.590	0.0148138
692.668	0.0148810
692.746	0.0149945
692.825	0.0150766
692.903	0.0150764
692.981	0.0151125
693.059	0.0151057
693.137	0.0151599
693.215	0.0150861
693.293	0.0150936
693.371	0.0148428
693.450	0.0148267
693.528	0.0147086
693.606	0.0145899
693.684	0.0146461
693.762	0.0142754
693.840	0.0141471
693.918	0.0140250
693.996	0.0138519
694.075	0.0138347
694.153	0.0139498
694.231	0.0140691
694.309	0.0138565
694.387	0.0138836
694.465	0.0142426
694.543	0.0142219
694.621	0.0143295
694.700	0.0145742
694.778	0.0146751
694.856	0.0148026
694.934	0.0148964
695.012	0.0150732
695.090	0.0152380
695.168	0.0154350
695.246	0.0155160
695.325	0.0154948
695.403	0.0156065
695.481	0.0156563
695.559	0.0154414
695.637	0.0151627
695.715	0.0150279
695.793	0.0147501
695.871	0.0144317
695.950	0.0142902
696.028	0.0139575
696.106	0.0139451
696.184	0.0137572
696.262	0.0136562
696.340	0.0137602
696.418	0.0136147
696.496	0.0136996
696.575	0.0140115
696.653	0.0139355
696.731	0.0140424
696.809	0.0140417
696.887	0.0142867
696.965	0.0145486
697.043	0.0146873
697.121	0.0148857
697.200	0.0150826
697.278	0.0153904
697.356	0.0153856
697.434	0.0154626
697.512	0.0153640
697.590	0.0153106
697.668	0.0151828
697.746	0.0151855
697.825	0.0149812
697.903	0.0148612
697.981	0.0147133
698.059	0.0145812
698.137	0.0144398
698.215	0.0143959
698.293	0.0144341
698.371	0.0141199
698.450	0.0141279
698.528	0.0142279
698.606	0.0140965
698.684	0.0142170
698.762	0.0143089
698.840	0.0142434
698.918	0.0143291
698.996	0.0144583
699.075	0.0145950
699.153	0.0146493
699.231	0.0147120
699.309	0.0146430
699.387	0.0148080
699.465	0.0147042
699.543	0.0149049
699.621	0.0149101
699.700	0.0148394
699.778	0.0147668
699.856	0.0147510
699.934	0.0146745
700.012	0.0146294
700.090	0.0144763
700.168	0.0144946
700.246	0.0144650
700.325	0.0144415
700.403	0.0144276
700.481	0.0144512
700.559	0.0144096
700.637	0.0142892
700.715	0.0143181
700.793	0.0144186
700.871	0.0145259
700.950	0.0145415
701.028	0.0144488
701.106	0.0145039
701.184	0.0146940
701.262	0.0147176
701.340	0.0146712
701.418	0.0147215
701.496	0.0148325
701.575	0.0149513
701.653	0.0149643
701.731	0.0147733
701.809	0.0149230
701.887	0.0150867
701.965	0.0148882
702.043	0.0148435
702.121	0.0148278
702.200	0.0146928
702.278	0.0146935
702.356	0.0146356
702.434	0.0143253
702.512	0.0143916
702.590	0.0143994
702.668	0.0142985
702.746	0.0144623
702.825	0.0144287
702.903	0.0145728
702.981	0.0147916
703.059	0.0148715
703.137	0.0149837
703.215	0.0149155
703.293	0.0149648
703.371	0.0149894
703.450	0.0149281
703.528	0.0147126
703.606	0.0148067
703.684	0.0147635
703.762	0.0147170
703.840	0.0144267
703.918	0.0143369
703.996	0.0144019
704.075	0.0144417
704.153	0.0143349
704.231	0.0143504
704.309	0.0143884
704.387	0.0143729
704.465	0.0145078
704.543	0.0145403
704.621	0.0145388
704.700	0.0145385
704.778	0.0147443
704.856	0.0148127
704.934	0.0147648
705.012	0.0147611
705.090	0.0149488
705.168	0.0150348
705.246	0.0150483
705.325	0.0150176
705.403	0.0150266
705.481	0.0148779
705.559	0.0150318
705.637	0.0149109
705.715	0.0148850
705.793	0.0148751
705.871	0.0151377
705.950	0.0148479
706.028	0.0147394
706.106	0.0147254
706.184	0.0148735
706.262	0.0147341
706.340	0.0144545
706.418	0.0143515
706.496	0.0142930
706.575	0.0141562
706.653	0.0140082
706.731	0.0138784
706.809	0.0139247
706.887	0.0138223
706.965	0.0139804
707.043	0.0141072
707.121	0.0144508
707.200	0.0147078
707.278	0.0148821
707.356	0.0152173
707.434	0.0151932
707.512	0.0154153
707.590	0.0154602
707.668	0.0154775
707.746	0.0153865
707.825	0.0154415
707.903	0.0152573
707.981	0.0152440
708.059	0.0149229
708.137	0.0145368
708.215	0.0143374
708.293	0.0141513
708.371	0.0138192
708.450	0.0138129
708.528	0.0137981
708.606	0.0137592
708.684	0.0136267
708.762	0.0137276
708.840	0.0137657
708.918	0.0139014
708.996	0.0140833
709.075	0.0143423
709.153	0.0144953
709.231	0.0148173
709.309	0.0150272
709.387	0.0151604
709.465	0.0153246
709.543	0.0155045
709.621	0.0154607
709.700	0.0156039
709.778	0.0155970
709.856	0.0154243
709.934	0.0153098
710.012	0.0151905
710.090	0.0149797
710.168	0.0148170
710.246	0.0147736
710.325	0.0144655
710.403	0.0144237
710.481	0.0144159
710.559	0.0141421
710.637	0.0140807
710.715	0.0140509
710.793	0.0139159
710.871	0.0138955
710.950	0.0140757
711.028	0.0140318
711.106	0.0141609
711.184	0.0141585
711.262	0.0142140
711.340	0.0143122
711.418	0.0144483
711.496	0.0142346
711.575	0.0144653
711.653	0.0144962
711.731	0.0145573
711.809	0.0145975
711.887	0.0146922
711.965	0.0148181
712.043	0.0148250
712.121	0.0148598
712.200	0.0148499
712.278	0.0150124
712.356	0.0151021
712.434	0.0151299
712.512	0.0149915
712.590	0.0147978
712.668	0.0147993
712.746	0.0146254
712.825	0.0146281
712.903	0.0144012
712.981	0.0144482
713.059	0.0143244
713.137	0.0141241
713.215	0.0138831
713.293	0.0138980
713.371	0.0139203
713.450	0.0142588
713.528	0.0141316
713.606	0.0141924
713.684	0.0142755
713.762	0.0144601
713.840	0.0145216
713.918	0.0148893
713.996	0.0149903
714.075	0.0149386
714.153	0.0150301
714.231	0.0151961
714.309	0.0153174
714.387	0.0151162
714.465	0.0151969
714.543	0.0151150
714.621	0.0149465
714.700	0.0147727
714.778	0.0147737
714.856	0.0145438
714.934	0.0143259
715.012	0.0142854
715.090	0.0140920
715.168	0.0137959
715.246	0.0139947
715.325	0.0138416
715.403	0.0140358
715.481	0.0140226
715.559	0.0143819
715.637	0.0146320
715.715	0.0146075
715.793	0.0147757
715.871	0.0150493
715.950	0.0152454
716.028	0.0152886
716.106	0.0152463
716.184	0.0152300
716.262	0.0152852
716.340	0.0151715
716.418	0.0151288
716.496	0.0149644
716.575	0.0148904
716.653	0.0147013
716.731	0.0145937
716.809	0.0144549
716.887	0.0142039
716.965	0.0140978
717.043	0.0142784
717.121	0.0141285
717.200	0.0141985
717.278	0.0142899
717.356	0.0142318
717.434	0.0143600
717.512	0.0142641
717.590	0.0144250
717.668	0.0145892
717.746	0.0146226
717.825	0.0146273
717.903	0.0145804
717.981	0.0148258
718.059	0.0148154
718.137	0.0149942
718.215	0.0149082
718.293	0.0148009
718.371	0.0147753
718.450	0.0148615
718.528	0.0150046
718.606	0.0148375
718.684	0.0147967
718.762	0.0146377
718.840	0.0146041
718.918	0.0145853
718.996	0.0146510
719.075	0.0147653
719.153	0.0146687
719.231	0.0146679
719.309	0.0146385
719.387	0.0144416
719.465	0.0145236
719.543	0.0144176
719.621	0.0143508
719.700	0.0143246
719.778	0.0143443
719.856	0.0143069
719.934	0.0141970
720.012	0.0142252
720.090	0.0143062
720.168	0.0144071
720.246	0.0143665
720.325	0.0143434
720.403	0.0144556
720.481	0.0144672
720.559	0.0146429
720.637	0.0146409
720.715	0.0148399
720.793	0.0148586
720.871	0.0148343
720.950	0.0148770
721.028	0.0150031
721.106	0.0150507
721.184	0.0151198
721.262	0.0148981
721.340	0.0149107
721.418	0.0149088
721.496	0.0148302
721.575	0.0148319
721.653	0.0149562
721.731	0.0147788
721.809	0.0146496
721.887	0.0145615
721.965	0.0146245
722.043	0.0147663
722.121	0.0147411
722.200	0.0144536
722.278	0.0145238
722.356	0.0145588
722.434	0.0145930
722.512	0.0144986
722.590	0.0143752
722.668	0.0143228
722.746	0.0143362
722.825	0.0143314
722.903	0.0141512
722.981	0.0143493
723.059	0.0144592
723.137	0.0144655
723.215	0.0144640
723.293	0.0145249
723.371	0.0145896
723.450	0.0147062
723.528	0.0147662
723.606	0.0149666
723.684	0.0148174
723.762	0.0149947
723.840	0.0150816
723.918	0.0150409
723.996	0.0152183
724.075	0.0152033
724.153	0.0152530
724.231	0.0150761
724.309	0.0149829
724.387	0.0149107
724.465	0.0148903
724.543	0.0149105
724.621	0.0147815
724.700	0.0147933
724.778	0.0146027
724.856	0.0146714
724.934	0.0145670
725.012	0.0144797
725.090	0.0143524
725.168	0.0142728
725.246	0.0143042
725.325	0.0143291
725.403	0.0143418
725.481	0.0142249
725.559	0.0143862
725.637	0.0143353
725.715	0.0143153
725.793	0.0143932
725.871	0.0146439
725.950	0.0145852
726.028	0.0146358
726.106	0.0148104
726.184	0.0148629
726.262	0.0149464
726.340	0.0149009
726.418	0.0150446
726.496	0.0148656
726.575	0.0149536
726.653	0.0149531
726.731	0.0149443
726.809	0.0149913
726.887	0.0149355
726.965	0.0148026
727.043	0.0146316
727.121	0.0147395
727.200	0.0144586
727.278	0.0145105
727.356	0.0145614
727.434	0.0146803
727.512	0.0144091
727.590	0.0145320
727.668	0.0145665
727.746	0.0145172
727.825	0.0145188
727.903	0.0145599
727.981	0.0145562
728.059	0.0146383
728.137	0.0146072
728.215	0.0146595
728.293	0.0148503
728.371	0.0149083
728.450	0.0147217
728.528	0.0148312
728.606	0.0147433
728.684	0.0148095
728.762	0.0148885
728.840	0.0148550
728.918	0.0147954
728.996	0.0149870
729.075	0.0149974
729.153	0.0148877
729.231	0.0149503
729.309	0.0148771
729.387	0.0148777
729.465	0.0147685
729.543	0.0148393
729.621	0.0146435
729.700	0.0145648
729.778	0.0145961
729.856	0.0144555
729.934	0.0144004
730.012	0.0144054
730.090	0.0143272
730.168	0.0143524
730.246	0.0143002
730.325	0.0142115
730.403	0.0141550
730.481	0.0142126
730.559	0.0142554
730.637	0.0143140
730.715	0.0143655
730.793	0.0142953
730.871	0.0144035
730.950	0.0144210
731.028	0.0145853
731.106	0.0145936
731.184	0.0146696
731.262	0.0147017
731.340	0.0147386
731.418	0.0148370
731.496	0.0147688
731.575	0.0148584
731.653	0.0148505
731.731	0.0147373
731.809	0.0146606
731.887	0.0148309
731.965	0.0147673
732.043	0.0147247
732.121	0.0147677
732.200	0.0146647
732.278	0.0146006
732.356	0.0146521
732.434	0.0144969
732.512	0.0145866
732.590	0.0146258
732.668	0.0144432
732.746	0.0144443
732.825	0.0144389
732.903	0.0144979
732.981	0.0145060
733.059	0.0145209
733.137	0.0145496
733.215	0.0145754
733.293	0.0146691
733.371	0.0146606
733.450	0.0147038
733.528	0.0146246
733.606	0.0145975
733.684	0.0147911
733.762	0.0146858
733.840	0.0146216
733.918	0.0146768
733.996	0.0146895
734.075	0.0145522
734.153	0.0144902
734.231	0.0144838
734.309	0.0146472
734.387	0.0143455
734.465	0.0145116
734.543	0.0145348
734.621	0.0142905
734.700	0.0143420
734.778	0.0144411
734.856	0.0143092
734.934	0.0141555
735.012	0.0143573
735.090	0.0144393
735.168	0.0143292
735.246	0.0144486
735.325	0.0144674
735.403	0.0146080
735.481	0.0146461
735.559	0.0147306
735.637	0.0147478
735.715	0.0148660
735.793	0.0148862
735.871	0.0149974
735.950	0.0150340
736.028	0.0148858
736.106	0.0149535
736.184	0.0149927
736.262	0.0149192
736.340	0.0149762
736.418	0.0149480
736.496	0.0148250
736.575	0.0147691
736.653	0.0147033
736.731	0.0147192
736.809	0.0146085
736.887	0.0145822
736.965	0.0144798
737.043	0.0144169
737.121	0.0144245
737.200	0.0143226
737.278	0.0144143
737.356	0.0144633
737.434	0.0143184
737.512	0.0143191
737.590	0.0143291
737.668	0.0144298
737.746	0.0143910
737.825	0.0143914
737.903	0.0145399
737.981	0.0145695
738.059	0.0146516
738.137	0.0145829
738.215	0.0146539
738.293	0.0147341
738.371	0.0148484
738.450	0.0148403
738.528	0.0149147
738.606	0.0148468
738.684	0.0146900
738.762	0.0148556
738.840	0.0149337
738.918	0.0147588
738.996	0.0148339
739.075	0.0148693
739.153	0.0147286
739.231	0.0145747
739.309	0.0145895
739.387	0.0143103
739.465	0.0145069
739.543	0.0145741
739.621	0.0143205
739.700	0.0144452
739.778	0.0142662
739.856	0.0142345
739.934	0.0145281
740.012	0.0145204
740.090	0.0145037
740.168	0.0144250
740.246	0.0145571
740.325	0.0146134
740.403	0.0144663
740.481	0.0145944
740.559	0.0145736
740.637	0.0148452
740.715	0.0149406
740.793	0.0148081
740.871	0.0148694
740.950	0.0147587
741.028	0.0147182
741.106	0.0148624
741.184	0.0148436
741.262	0.0147948
741.340	0.0146476
741.418	0.0147469
741.496	0.0146538
741.575	0.0147375
741.653	0.0145982
741.731	0.0145863
741.809	0.0145498
741.887	0.0144014
741.965	0.0145857
742.043	0.0145791
742.121	0.0146196
742.200	0.0145773
742.278	0.0145617
742.356	0.0144694
742.434	0.0146344
742.512	0.0144461
742.590	0.0144566
742.668	0.0144602
742.746	0.0145499
742.825	0.0144842
742.903	0.0144486
742.981	0.0145069
743.059	0.0145106
743.137	0.0145458
743.215	0.0146352
743.293	0.0145449
743.371	0.0146754
743.450	0.0147045
743.528	0.0146656
743.606	0.0146024
743.684	0.0148763
743.762	0.0148145
743.840	0.0146631
743.918	0.0148141
743.996	0.0146617
744.075	0.0147260
744.153	0.0147093
744.231	0.0146793
744.309	0.0145093
744.387	0.0145760
744.465	0.0147353
744.543	0.0145196
744.621	0.0145024
744.700	0.0146229
744.778	0.0146331
744.856	0.0145655
744.934	0.0145154
745.012	0.0145888
745.090	0.0145218
745.168	0.0145868
745.246	0.0146415
745.325	0.0146289
745.403	0.0146262
745.481	0.0147287
745.559	0.0146838
745.637	0.0147144
745.715	0.0148555
745.793	0.0148137
745.871	0.0148089
745.950	0.0148176
746.028	0.0148898
746.106	0.0148273
746.184	0.0147455
746.262	0.0146801
746.340	0.0147787
746.418	0.0148599
746.496	0.0145996
746.575	0.0147426
746.653	0.0146494
746.731	0.0145599
746.809	0.0146646
746.887	0.0146011
746.965	0.0145776
747.043	0.0144587
747.121	0.0143906
747.200	0.0146146
747.278	0.0145768
747.356	0.0145147
747.434	0.0146230
747.512	0.0144810
747.590	0.0145554
747.668	0.0146361
747.746	0.0146840
747.825	0.0146365
747.903	0.0145583
747.981	0.0146770
748.059	0.0147054
748.137	0.0146639
748.215	0.0146387
748.293	0.0148334
748.371	0.0145719
748.450	0.0147855
748.528	0.0148058
748.606	0.0146711
748.684	0.0147861
748.762	0.0147762
748.840	0.0147028
748.918	0.0146860
748.996	0.0148215
749.075	0.0146204
749.153	0.0146960
749.231	0.0147741
749.309	0.0147534
749.387	0.0146937
749.465	0.0146812
749.543	0.0145657
749.621	0.0147444
749.700	0.0147121
749.778	0.0146538
749.856	0.0146918
749.934	0.0146513
750.012	0.0147177
750.090	0.0145992
750.168	0.0146063
750.246	0.0145890
750.325	0.0144073
750.403	0.0147085
750.481	0.0146825
750.559	0.0145216
750.637	0.0144740
750.715	0.0145724
750.793	0.0145840
750.871	0.0145862
750.950	0.0145615
751.028	0.0145375
751.106	0.0145218
751.184	0.0146346
751.262	0.0145779
751.340	0.0145713
751.418	0.0146719
751.496	0.0147283
751.575	0.0147477
751.653	0.0144733
751.731	0.0146349
751.809	0.0146907
751.887	0.0145925
751.965	0.0145925
752.043	0.0146465
752.121	0.0146394
752.200	0.0145760
752.278	0.0145821
752.356	0.0146597
752.434	0.0147904
752.512	0.0145058
752.590	0.0145099
752.668	0.0145069
752.746	0.0146026
752.825	0.0146717
752.903	0.0146312
752.981	0.0146682
753.059	0.0146671
753.137	0.0148325
753.215	0.0147975
753.293	0.0146980
753.371	0.0146887
753.450	0.0146891
753.528	0.0147337
753.606	0.0147365
753.684	0.0145985
753.762	0.0146922
753.840	0.0146144
753.918	0.0147267
753.996	0.0147780
754.075	0.0147227
754.153	0.0147446
754.231	0.0146356
754.309	0.0145497
754.387	0.0146626
754.465	0.0145937
754.543	0.0143748
754.621	0.0144861
754.700	0.0144905
754.778	0.0144781
754.856	0.0143755
754.934	0.0144764
755.012	0.0143731
755.090	0.0144641
755.168	0.0143055
755.246	0.0145131
755.325	0.0144475
755.403	0.0145145
755.481	0.0144380
755.559	0.0144478
755.637	0.0144572
755.715	0.0144790
755.793	0.0145409
755.871	0.0147136
755.950	0.0146803
756.028	0.0144714
756.106	0.0146807
756.184	0.0148008
756.262	0.0146232
756.340	0.0146464
756.418	0.0147292
756.496	0.0147176
756.575	0.0147441
756.653	0.0146702
756.731	0.0147350
756.809	0.0146681
756.887	0.0147112
756.965	0.0147225
757.043	0.0147309
757.121	0.0144788
757.200	0.0147289
757.278	0.0147124
757.356	0.0146024
757.434	0.0147123
757.512	0.0146465
757.590	0.0147012
757.668	0.0145647
757.746	0.0144337
757.825	0.0145890
757.903	0.0145670
757.981	0.0146320
758.059	0.0144541
758.137	0.0145443
758.215	0.0145576
758.293	0.0144085
758.371	0.0145404
758.450	0.0145821
758.528	0.0144760
758.606	0.0146818
758.684	0.0145622
758.762	0.0145592
758.840	0.0146224
758.918	0.0145235
758.996	0.0144630
759.075	0.0146857
759.153	0.0146017
759.231	0.0144419
759.309	0.0145582
759.387	0.0145370
759.465	0.0145468
759.543	0.0146728
759.621	0.0146553
759.700	0.0146033
759.778	0.0144614
759.856	0.0146243
759.934	0.0144272
760.012	0.0144283
760.090	0.0144885
760.168	0.0144647
760.246	0.0144361
760.325	0.0144804
760.403	0.0144122
760.481	0.0146745
760.559	0.0145591
760.637	0.0145300
760.715	0.0145413
760.793	0.0144808
760.871	0.0145423
760.950	0.0145950
761.028	0.0146581
761.106	0.0147311
761.184	0.0148006
761.262	0.0148048
761.340	0.0147736
761.418	0.0147611
761.496	0.0147128
761.575	0.0147903
761.653	0.0147659
761.731	0.0147790
761.809	0.0147303
761.887	0.0146445
761.965	0.0146262
762.043	0.0147355
762.121	0.0146965
762.200	0.0146339
762.278	0.0144936
762.356	0.0146898
762.434	0.0146799
762.512	0.0145994
762.590	0.0145177
762.668	0.0145622
762.746	0.0145889
762.825	0.0145071
762.903	0.0145360
762.981	0.0145901
763.059	0.0146210
763.137	0.0147189
763.215	0.0145892
763.293	0.0144875
763.371	0.0147175
763.450	0.0146023
763.528	0.0146228
763.606	0.0144921
763.684	0.0146311
763.762	0.0147610
763.840	0.0147146
763.918	0.0148056
763.996	0.0147911
764.075	0.0147395
764.153	0.0148071
764.231	0.0147211
764.309	0.0147001
764.387	0.0148180
764.465	0.0147633
764.543	0.0145940
764.621	0.0146250
764.700	0.0147037
