05/04/2022	21:29:18	Ver.	4.1	UNKNOWN
Optical Delay	678.996401	Delta X		0.078125	Sweeps	1	Scan Rate	0/0
Coordinates	Axis 1	NaN	Axis 2	NaN	Axis 3	NaN	Axis 4	NaN	Axis 5	NaN	Axis 6	0.000000
TX Power	0.000000	RX Power	0.000000

678.996	0.0148210
679.075	0.0148396
679.153	0.0147745
679.231	0.0148094
679.309	0.0147013
679.387	0.0147841
679.465	0.0150122
679.543	0.0149120
679.621	0.0147967
679.700	0.0148869
679.778	0.0148807
679.856	0.0149644
679.934	0.0150957
680.012	0.0148550
680.090	0.0149778
680.168	0.0149921
680.246	0.0148571
680.325	0.0150378
680.403	0.0149875
680.481	0.0147911
680.559	0.0148687
680.637	0.0148013
680.715	0.0148865
680.793	0.0148247
680.871	0.0147486
680.950	0.0148531
681.028	0.0148894
681.106	0.0148555
681.184	0.0148618
681.262	0.0147457
681.340	0.0148571
681.418	0.0148028
681.496	0.0147806
681.575	0.0147715
681.653	0.0149658
681.731	0.0147958
681.809	0.0148549
681.887	0.0148432
681.965	0.0149415
682.043	0.0148788
682.121	0.0150391
682.200	0.0150716
682.278	0.0150402
682.356	0.0149772
682.434	0.0150366
682.512	0.0147990
682.590	0.0150473
682.668	0.0150227
682.746	0.0148161
682.825	0.0149531
682.903	0.0148500
682.981	0.0148540
683.059	0.0148278
683.137	0.0147914
683.215	0.0147791
683.293	0.0147494
683.371	0.0148371
683.450	0.0148267
683.528	0.0148813
683.606	0.0149786
683.684	0.0148676
683.762	0.0148211
683.840	0.0148422
683.918	0.0148326
683.996	0.0148560
684.075	0.0149475
684.153	0.0148572
684.231	0.0149386
684.309	0.0149621
684.387	0.0147500
684.465	0.0147447
684.543	0.0148352
684.621	0.0148405
684.700	0.0147944
684.778	0.0149617
684.856	0.0148269
684.934	0.0148980
685.012	0.0150156
685.090	0.0148255
685.168	0.0148466
685.246	0.0150186
685.325	0.0149107
685.403	0.0150579
685.481	0.0149431
685.559	0.0149608
685.637	0.0148971
685.715	0.0149203
685.793	0.0148473
685.871	0.0148839
685.950	0.0147965
686.028	0.0148043
686.106	0.0148473
686.184	0.0147517
686.262	0.0147531
686.340	0.0147775
686.418	0.0146685
686.496	0.0145925
686.575	0.0146313
686.653	0.0147089
686.731	0.0146277
686.809	0.0145850
686.887	0.0146547
686.965	0.0147879
687.043	0.0148580
687.121	0.0149174
687.200	0.0149235
687.278	0.0149555
687.356	0.0150633
687.434	0.0150484
687.512	0.0149953
687.590	0.0149934
687.668	0.0149615
687.746	0.0149686
687.825	0.0149774
687.903	0.0149304
687.981	0.0148843
688.059	0.0149820
688.137	0.0149017
688.215	0.0149269
688.293	0.0150092
688.371	0.0147343
688.450	0.0146907
688.528	0.0147757
688.606	0.0146531
688.684	0.0144775
688.762	0.0144931
688.840	0.0145533
688.918	0.0146140
688.996	0.0145277
689.075	0.0146296
689.153	0.0145340
689.231	0.0144529
689.309	0.0145274
689.387	0.0145283
689.465	0.0145925
689.543	0.0147942
689.621	0.0147997
689.700	0.0149520
689.778	0.0149553
689.856	0.0151259
689.934	0.0153027
690.012	0.0154358
690.090	0.0153390
690.168	0.0153298
690.246	0.0154077
690.325	0.0152005
690.403	0.0152594
690.481	0.0150585
690.559	0.0150529
690.637	0.0148913
690.715	0.0146529
690.793	0.0147143
690.871	0.0145255
690.950	0.0144959
691.028	0.0145017
691.106	0.0143192
691.184	0.0144514
691.262	0.0143439
691.340	0.0142916
691.418	0.0143217
691.496	0.0144083
691.575	0.0144539
691.653	0.0143281
691.731	0.0145968
691.809	0.0147073
691.887	0.0148716
691.965	0.0148479
692.043	0.0149564
692.121	0.0149994
692.200	0.0151424
692.278	0.0151698
692.356	0.0151780
692.434	0.0151548
692.512	0.0153316
692.590	0.0153284
692.668	0.0154102
692.746	0.0154436
692.825	0.0155174
692.903	0.0154314
692.981	0.0154101
693.059	0.0153313
693.137	0.0152552
693.215	0.0150024
693.293	0.0149359
693.371	0.0148367
693.450	0.0147441
693.528	0.0145655
693.606	0.0143710
693.684	0.0142629
693.762	0.0140816
693.840	0.0140166
693.918	0.0141069
693.996	0.0140775
694.075	0.0140081
694.153	0.0140656
694.231	0.0141090
694.309	0.0140594
694.387	0.0143376
694.465	0.0143438
694.543	0.0144213
694.621	0.0147477
694.700	0.0147237
694.778	0.0147533
694.856	0.0148733
694.934	0.0150502
695.012	0.0151336
695.090	0.0151150
695.168	0.0152626
695.246	0.0153147
695.325	0.0154211
695.403	0.0155086
695.481	0.0156189
695.559	0.0154743
695.637	0.0154697
695.715	0.0155180
695.793	0.0152469
695.871	0.0153476
695.950	0.0152104
696.028	0.0152485
696.106	0.0149712
696.184	0.0148270
696.262	0.0147864
696.340	0.0146147
696.418	0.0144302
696.496	0.0142323
696.575	0.0143563
696.653	0.0142238
696.731	0.0139540
696.809	0.0140346
696.887	0.0140599
696.965	0.0140307
697.043	0.0141428
697.121	0.0141422
697.200	0.0142474
697.278	0.0144757
697.356	0.0145842
697.434	0.0146797
697.512	0.0149115
697.590	0.0150197
697.668	0.0152155
697.746	0.0153071
697.825	0.0153513
697.903	0.0154568
697.981	0.0154006
698.059	0.0155784
698.137	0.0154456
698.215	0.0155823
698.293	0.0153056
698.371	0.0155092
698.450	0.0156015
698.528	0.0154408
698.606	0.0154209
698.684	0.0151716
698.762	0.0150620
698.840	0.0149395
698.918	0.0146465
698.996	0.0146255
699.075	0.0143041
699.153	0.0142499
699.231	0.0140899
699.309	0.0140481
699.387	0.0139530
699.465	0.0140134
699.543	0.0143618
699.621	0.0143523
699.700	0.0144490
699.778	0.0145795
699.856	0.0149186
699.934	0.0148444
700.012	0.0148347
700.090	0.0149251
700.168	0.0151488
700.246	0.0151207
700.325	0.0150658
700.403	0.0150558
700.481	0.0149929
700.559	0.0151639
700.637	0.0151797
700.715	0.0151059
700.793	0.0149539
700.871	0.0150234
700.950	0.0150277
701.028	0.0149674
701.106	0.0149910
701.184	0.0148873
701.262	0.0149418
701.340	0.0148814
701.418	0.0150014
701.496	0.0149029
701.575	0.0148665
701.653	0.0147890
701.731	0.0146930
701.809	0.0147398
701.887	0.0146284
701.965	0.0145474
702.043	0.0145959
702.121	0.0145078
702.200	0.0143685
702.278	0.0144878
702.356	0.0145839
702.434	0.0146824
702.512	0.0147021
702.590	0.0148178
702.668	0.0147986
702.746	0.0149245
702.825	0.0149567
702.903	0.0150771
702.981	0.0149369
703.059	0.0150546
703.137	0.0149911
703.215	0.0147857
703.293	0.0150088
703.371	0.0151232
703.450	0.0150155
703.528	0.0150093
703.606	0.0151783
703.684	0.0150998
703.762	0.0150462
703.840	0.0149687
703.918	0.0148646
703.996	0.0147264
704.075	0.0149142
704.153	0.0147543
704.231	0.0147537
704.309	0.0146237
704.387	0.0147232
704.465	0.0148525
704.543	0.0148504
704.621	0.0147177
704.700	0.0146611
704.778	0.0147722
704.856	0.0147378
704.934	0.0147451
705.012	0.0146473
705.090	0.0147459
705.168	0.0146436
705.246	0.0146202
705.325	0.0145953
705.403	0.0144666
705.481	0.0145485
705.559	0.0146163
705.637	0.0146715
705.715	0.0144769
705.793	0.0146680
705.871	0.0148609
705.950	0.0148806
706.028	0.0149066
706.106	0.0150155
706.184	0.0150542
706.262	0.0152174
706.340	0.0155251
706.418	0.0153052
706.496	0.0153432
706.575	0.0153507
706.653	0.0152747
706.731	0.0152325
706.809	0.0151405
706.887	0.0151510
706.965	0.0149704
707.043	0.0147793
707.121	0.0147710
707.200	0.0147758
707.278	0.0146548
707.356	0.0144325
707.434	0.0146914
707.512	0.0145440
707.590	0.0147196
707.668	0.0145459
707.746	0.0144394
707.825	0.0144507
707.903	0.0145558
707.981	0.0145062
708.059	0.0144315
708.137	0.0145742
708.215	0.0145142
708.293	0.0145059
708.371	0.0146210
708.450	0.0147821
708.528	0.0147495
708.606	0.0147050
708.684	0.0149128
708.762	0.0150002
708.840	0.0149815
708.918	0.0152073
708.996	0.0150367
709.075	0.0151664
709.153	0.0152460
709.231	0.0153176
709.309	0.0152271
709.387	0.0153059
709.465	0.0153207
709.543	0.0154646
709.621	0.0152460
709.700	0.0153014
709.778	0.0152986
709.856	0.0151752
709.934	0.0151469
710.012	0.0149464
710.090	0.0148618
710.168	0.0149377
710.246	0.0149791
710.325	0.0148558
710.403	0.0147318
710.481	0.0146393
710.559	0.0145218
710.637	0.0144557
710.715	0.0144150
710.793	0.0143181
710.871	0.0142937
710.950	0.0144321
711.028	0.0144434
711.106	0.0146466
711.184	0.0145172
711.262	0.0144244
711.340	0.0146258
711.418	0.0146777
711.496	0.0147661
711.575	0.0147786
711.653	0.0149467
711.731	0.0148794
711.809	0.0149736
711.887	0.0150629
711.965	0.0152734
712.043	0.0152714
712.121	0.0151970
712.200	0.0150869
712.278	0.0151659
712.356	0.0152418
712.434	0.0150909
712.512	0.0151051
712.590	0.0150707
712.668	0.0149793
712.746	0.0149651
712.825	0.0148147
712.903	0.0147621
712.981	0.0147503
713.059	0.0147010
713.137	0.0147589
713.215	0.0148841
713.293	0.0147923
713.371	0.0149103
713.450	0.0148182
713.528	0.0147681
713.606	0.0148087
713.684	0.0148916
713.762	0.0148546
713.840	0.0147438
713.918	0.0146670
713.996	0.0146358
714.075	0.0146655
714.153	0.0145135
714.231	0.0145159
714.309	0.0146247
714.387	0.0146907
714.465	0.0147291
714.543	0.0149389
714.621	0.0149487
714.700	0.0149433
714.778	0.0149332
714.856	0.0151349
714.934	0.0150713
715.012	0.0149945
715.090	0.0150568
715.168	0.0150550
715.246	0.0149503
715.325	0.0149007
715.403	0.0146440
715.481	0.0145046
715.559	0.0146962
715.637	0.0145685
715.715	0.0143974
715.793	0.0145054
715.871	0.0146197
715.950	0.0147501
716.028	0.0147822
716.106	0.0148337
716.184	0.0148517
716.262	0.0149527
716.340	0.0150433
716.418	0.0152222
716.496	0.0152529
716.575	0.0153265
716.653	0.0152180
716.731	0.0152465
716.809	0.0152363
716.887	0.0150962
716.965	0.0149435
717.043	0.0149690
717.121	0.0148982
717.200	0.0148140
717.278	0.0147021
717.356	0.0146426
717.434	0.0146415
717.512	0.0147906
717.590	0.0146382
717.668	0.0146287
717.746	0.0147523
717.825	0.0145687
717.903	0.0145544
717.981	0.0146565
718.059	0.0145776
718.137	0.0145534
718.215	0.0147660
718.293	0.0145071
718.371	0.0145214
718.450	0.0146104
718.528	0.0146930
718.606	0.0147250
718.684	0.0147955
718.762	0.0148454
718.840	0.0148454
718.918	0.0150589
718.996	0.0151665
719.075	0.0152913
719.153	0.0152345
719.231	0.0151010
719.309	0.0152610
719.387	0.0151617
719.465	0.0151561
719.543	0.0151574
719.621	0.0151305
719.700	0.0149527
719.778	0.0148832
719.856	0.0148541
719.934	0.0148536
720.012	0.0147722
720.090	0.0146581
720.168	0.0147136
720.246	0.0147443
720.325	0.0147608
720.403	0.0147605
720.481	0.0147295
720.559	0.0148625
720.637	0.0146661
720.715	0.0146558
720.793	0.0146998
720.871	0.0146611
720.950	0.0147077
721.028	0.0148150
721.106	0.0148721
721.184	0.0148675
721.262	0.0147272
721.340	0.0149079
721.418	0.0148650
721.496	0.0147461
721.575	0.0148560
721.653	0.0148170
721.731	0.0149175
721.809	0.0149864
721.887	0.0149864
721.965	0.0150584
722.043	0.0150170
722.121	0.0148588
722.200	0.0148776
722.278	0.0148837
722.356	0.0148264
722.434	0.0148651
722.512	0.0149806
722.590	0.0147063
722.668	0.0147129
722.746	0.0146690
722.825	0.0148479
722.903	0.0148322
722.981	0.0147977
723.059	0.0147200
723.137	0.0148177
723.215	0.0147912
723.293	0.0147858
723.371	0.0148187
723.450	0.0147163
723.528	0.0148566
723.606	0.0148140
723.684	0.0148245
723.762	0.0148476
723.840	0.0149001
723.918	0.0149416
723.996	0.0150438
724.075	0.0149654
724.153	0.0150498
724.231	0.0150167
724.309	0.0151405
724.387	0.0151204
724.465	0.0150881
724.543	0.0150806
724.621	0.0150731
724.700	0.0148590
724.778	0.0148553
724.856	0.0148930
724.934	0.0148042
725.012	0.0147165
725.090	0.0148058
725.168	0.0146989
725.246	0.0146156
725.325	0.0146285
725.403	0.0145031
725.481	0.0145878
725.559	0.0146060
725.637	0.0144762
725.715	0.0146697
725.793	0.0146381
725.871	0.0147755
725.950	0.0148454
726.028	0.0148264
726.106	0.0148564
726.184	0.0149406
726.262	0.0151881
726.340	0.0152172
726.418	0.0150926
726.496	0.0152489
726.575	0.0153535
726.653	0.0153182
726.731	0.0153416
726.809	0.0153758
726.887	0.0152901
726.965	0.0152560
727.043	0.0151363
727.121	0.0151479
727.200	0.0150008
727.278	0.0148524
727.356	0.0148427
727.434	0.0148352
727.512	0.0147850
727.590	0.0147434
727.668	0.0147384
727.746	0.0145778
727.825	0.0145887
727.903	0.0145462
727.981	0.0147350
728.059	0.0145502
728.137	0.0145679
728.215	0.0146025
728.293	0.0145471
728.371	0.0146168
728.450	0.0147058
728.528	0.0148035
728.606	0.0148022
728.684	0.0147389
728.762	0.0148539
728.840	0.0150202
728.918	0.0151326
728.996	0.0150282
729.075	0.0151630
729.153	0.0151460
729.231	0.0150709
729.309	0.0151487
729.387	0.0151643
729.465	0.0151515
729.543	0.0151385
729.621	0.0149893
729.700	0.0149513
729.778	0.0150112
729.856	0.0149790
729.934	0.0149329
730.012	0.0148012
730.090	0.0148698
730.168	0.0147814
730.246	0.0147923
730.325	0.0145952
730.403	0.0146730
730.481	0.0146371
730.559	0.0146776
730.637	0.0146897
730.715	0.0146886
730.793	0.0146938
730.871	0.0149615
730.950	0.0148597
731.028	0.0149303
731.106	0.0149086
731.184	0.0148538
731.262	0.0148908
731.340	0.0148859
731.418	0.0149709
731.496	0.0148466
731.575	0.0148432
731.653	0.0150695
731.731	0.0148624
731.809	0.0149330
731.887	0.0149049
731.965	0.0149293
732.043	0.0148665
732.121	0.0149455
732.200	0.0148235
732.278	0.0148386
732.356	0.0148585
732.434	0.0147651
732.512	0.0147804
732.590	0.0148365
732.668	0.0148357
732.746	0.0147412
732.825	0.0147175
732.903	0.0144913
732.981	0.0147251
733.059	0.0146944
733.137	0.0146928
733.215	0.0147459
733.293	0.0146536
733.371	0.0147527
733.450	0.0148210
733.528	0.0148513
733.606	0.0149743
733.684	0.0148664
733.762	0.0148257
733.840	0.0148495
733.918	0.0149210
733.996	0.0151135
734.075	0.0151795
734.153	0.0149854
734.231	0.0151695
734.309	0.0151286
734.387	0.0150628
734.465	0.0150156
734.543	0.0149048
734.621	0.0148093
734.700	0.0149268
734.778	0.0148994
734.856	0.0147187
734.934	0.0147709
735.012	0.0146976
735.090	0.0145617
735.168	0.0146352
735.246	0.0146754
735.325	0.0146412
735.403	0.0146485
735.481	0.0145074
735.559	0.0145876
735.637	0.0146900
735.715	0.0147552
735.793	0.0147081
735.871	0.0147193
735.950	0.0148840
736.028	0.0149841
736.106	0.0149406
736.184	0.0149744
736.262	0.0149702
736.340	0.0149915
736.418	0.0150534
736.496	0.0150378
736.575	0.0150228
736.653	0.0150668
736.731	0.0150883
736.809	0.0151462
736.887	0.0148517
736.965	0.0148730
737.043	0.0148962
737.121	0.0148569
737.200	0.0147998
737.278	0.0147155
737.356	0.0145395
737.434	0.0147008
737.512	0.0146475
737.590	0.0146512
737.668	0.0145839
737.746	0.0145412
737.825	0.0144845
737.903	0.0144305
737.981	0.0145163
738.059	0.0146540
738.137	0.0146112
738.215	0.0146362
738.293	0.0148560
738.371	0.0148486
738.450	0.0147674
738.528	0.0147626
738.606	0.0148707
738.684	0.0150960
738.762	0.0150767
738.840	0.0149203
738.918	0.0150162
738.996	0.0149046
739.075	0.0152548
739.153	0.0152468
739.231	0.0151018
739.309	0.0151019
739.387	0.0150271
739.465	0.0149419
739.543	0.0149358
739.621	0.0149542
739.700	0.0147800
739.778	0.0148621
739.856	0.0147414
739.934	0.0146386
740.012	0.0146794
740.090	0.0146725
740.168	0.0144996
740.246	0.0145538
740.325	0.0146663
740.403	0.0144158
740.481	0.0147440
740.559	0.0146366
740.637	0.0145773
740.715	0.0146968
740.793	0.0147011
740.871	0.0146905
740.950	0.0144936
741.028	0.0146992
741.106	0.0147764
741.184	0.0148236
741.262	0.0149944
741.340	0.0148158
741.418	0.0149357
741.496	0.0152211
741.575	0.0150204
741.653	0.0149646
741.731	0.0150032
741.809	0.0149371
741.887	0.0147727
741.965	0.0150645
742.043	0.0149259
742.121	0.0148376
742.200	0.0148532
742.278	0.0147092
742.356	0.0147319
742.434	0.0148962
742.512	0.0147917
742.590	0.0146897
742.668	0.0146127
742.746	0.0146740
742.825	0.0149256
742.903	0.0149132
742.981	0.0145566
743.059	0.0146355
743.137	0.0147738
743.215	0.0148003
743.293	0.0149174
743.371	0.0148908
743.450	0.0147565
743.528	0.0149940
743.606	0.0148680
743.684	0.0148271
743.762	0.0148763
743.840	0.0148208
743.918	0.0148170
743.996	0.0149392
744.075	0.0149557
744.153	0.0147287
744.231	0.0149396
744.309	0.0150526
744.387	0.0150135
744.465	0.0150956
744.543	0.0149940
744.621	0.0149200
744.700	0.0150135
744.778	0.0150381
744.856	0.0149187
744.934	0.0150342
745.012	0.0149358
745.090	0.0148976
745.168	0.0149181
745.246	0.0148808
745.325	0.0148631
745.403	0.0148400
745.481	0.0147701
745.559	0.0147900
745.637	0.0147482
745.715	0.0147144
745.793	0.0148505
745.871	0.0147542
745.950	0.0149129
746.028	0.0149886
746.106	0.0148639
746.184	0.0149908
746.262	0.0149191
746.340	0.0150750
746.418	0.0151981
746.496	0.0149681
746.575	0.0148680
746.653	0.0149181
746.731	0.0149413
746.809	0.0149080
746.887	0.0150998
746.965	0.0149960
747.043	0.0150293
747.121	0.0150080
747.200	0.0149670
747.278	0.0147802
747.356	0.0148148
747.434	0.0148674
747.512	0.0148942
747.590	0.0148640
747.668	0.0148436
747.746	0.0148601
747.825	0.0149809
747.903	0.0148780
747.981	0.0147744
748.059	0.0148057
748.137	0.0148742
748.215	0.0149184
748.293	0.0150065
748.371	0.0148386
748.450	0.0148382
748.528	0.0149300
748.606	0.0148972
748.684	0.0148418
748.762	0.0149741
748.840	0.0150339
748.918	0.0148646
748.996	0.0148983
749.075	0.0149211
749.153	0.0150303
749.231	0.0151229
749.309	0.0149770
749.387	0.0147816
749.465	0.0148376
749.543	0.0148434
749.621	0.0148927
749.700	0.0149214
749.778	0.0148049
749.856	0.0149630
749.934	0.0149506
750.012	0.0148714
750.090	0.0146651
750.168	0.0147494
750.246	0.0148785
750.325	0.0149023
750.403	0.0148811
750.481	0.0147957
750.559	0.0147209
750.637	0.0148315
750.715	0.0148483
750.793	0.0146881
750.871	0.0147940
750.950	0.0149027
751.028	0.0149846
751.106	0.0148775
751.184	0.0149271
751.262	0.0147353
751.340	0.0149998
751.418	0.0149706
751.496	0.0148471
751.575	0.0150332
751.653	0.0150290
751.731	0.0149015
751.809	0.0149496
751.887	0.0150386
751.965	0.0150942
752.043	0.0150135
752.121	0.0148986
752.200	0.0149849
752.278	0.0149211
752.356	0.0149089
752.434	0.0149681
752.512	0.0150926
752.590	0.0148938
752.668	0.0147387
752.746	0.0149026
752.825	0.0148779
752.903	0.0149549
752.981	0.0149485
753.059	0.0148032
753.137	0.0148076
753.215	0.0147205
753.293	0.0146691
753.371	0.0148775
753.450	0.0146625
753.528	0.0147953
753.606	0.0147611
753.684	0.0146729
753.762	0.0146722
753.840	0.0149192
753.918	0.0147196
753.996	0.0148118
754.075	0.0148207
754.153	0.0147995
754.231	0.0148836
754.309	0.0148541
754.387	0.0149192
754.465	0.0149290
754.543	0.0147376
754.621	0.0148681
754.700	0.0150590
754.778	0.0148016
754.856	0.0148604
754.934	0.0149192
755.012	0.0148876
755.090	0.0149491
755.168	0.0148926
755.246	0.0149291
755.325	0.0149796
755.403	0.0149953
755.481	0.0149632
755.559	0.0149081
755.637	0.0149157
755.715	0.0148914
755.793	0.0148991
755.871	0.0148590
755.950	0.0148423
756.028	0.0147948
756.106	0.0149603
756.184	0.0147808
756.262	0.0147137
756.340	0.0147916
756.418	0.0148567
756.496	0.0149491
756.575	0.0149118
756.653	0.0148383
756.731	0.0148723
756.809	0.0148785
756.887	0.0148265
756.965	0.0148270
757.043	0.0148333
757.121	0.0149229
757.200	0.0149683
757.278	0.0149736
757.356	0.0149194
757.434	0.0149645
757.512	0.0149737
757.590	0.0148283
757.668	0.0150136
757.746	0.0148219
757.825	0.0147661
757.903	0.0146981
757.981	0.0148354
758.059	0.0148486
758.137	0.0148769
758.215	0.0149027
758.293	0.0148000
758.371	0.0147119
758.450	0.0148516
758.528	0.0149105
758.606	0.0149379
758.684	0.0148660
758.762	0.0147313
758.840	0.0148848
758.918	0.0148978
758.996	0.0149644
759.075	0.0149613
759.153	0.0148723
759.231	0.0149709
759.309	0.0150441
759.387	0.0150229
759.465	0.0150730
759.543	0.0149892
759.621	0.0149244
759.700	0.0149871
759.778	0.0151082
759.856	0.0150025
759.934	0.0147910
760.012	0.0148906
760.090	0.0150204
760.168	0.0147919
760.246	0.0149137
760.325	0.0148133
760.403	0.0147627
760.481	0.0148987
760.559	0.0147969
760.637	0.0148353
760.715	0.0147901
760.793	0.0149387
760.871	0.0147527
760.950	0.0148019
761.028	0.0147257
761.106	0.0146382
761.184	0.0147744
761.262	0.0147656
761.340	0.0149023
761.418	0.0148979
761.496	0.0148455
761.575	0.0148389
761.653	0.0147785
761.731	0.0149027
761.809	0.0149403
761.887	0.0148132
761.965	0.0147678
762.043	0.0148036
762.121	0.0148493
762.200	0.0148130
762.278	0.0146737
762.356	0.0147252
762.434	0.0147532
762.512	0.0148225
762.590	0.0147424
762.668	0.0147836
762.746	0.0147380
762.825	0.0148717
762.903	0.0147433
762.981	0.0146207
763.059	0.0148250
763.137	0.0147702
763.215	0.0147905
763.293	0.0147536
763.371	0.0148460
763.450	0.0148177
763.528	0.0147020
763.606	0.0148550
763.684	0.0149371
763.762	0.0147759
763.840	0.0147974
763.918	0.0147466
763.996	0.0148605
764.075	0.0148891
764.153	0.0147373
764.231	0.0147983
764.309	0.0147328
764.387	0.0148502
764.465	0.0147720
764.543	0.0147794
764.621	0.0146738
764.700	0.0148389
