05/04/2022	21:29:38	Ver.	4.1	UNKNOWN
Optical Delay	678.996401	Delta X		0.078125	Sweeps	1	Scan Rate	0/0
Coordinates	Axis 1	NaN	Axis 2	NaN	Axis 3	NaN	Axis 4	NaN	Axis 5	NaN	Axis 6	0.000000
TX Power	0.000000	RX Power	0.000000

678.996	0.0147447
679.075	0.0148646
679.153	0.0149226
679.231	0.0147767
679.309	0.0147052
679.387	0.0148157
679.465	0.0147129
679.543	0.0146104
679.621	0.0146017
679.700	0.0145683
679.778	0.0146320
679.856	0.0145850
679.934	0.0145856
680.012	0.0146272
680.090	0.0146489
680.168	0.0145689
680.246	0.0147173
680.325	0.0148241
680.403	0.0147654
680.481	0.0148109
680.559	0.0146913
680.637	0.0147081
680.715	0.0147938
680.793	0.0147871
680.871	0.0147653
680.950	0.0148492
681.028	0.0148305
681.106	0.0146686
681.184	0.0147720
681.262	0.0144912
681.340	0.0148100
681.418	0.0146828
681.496	0.0147697
681.575	0.0147352
681.653	0.0147117
681.731	0.0147805
681.809	0.0147411
681.887	0.0146625
681.965	0.0146774
682.043	0.0147482
682.121	0.0146758
682.200	0.0145603
682.278	0.0147301
682.356	0.0146783
682.434	0.0145535
682.512	0.0147163
682.590	0.0146450
682.668	0.0146210
682.746	0.0146694
682.825	0.0146639
682.903	0.0147836
682.981	0.0146841
683.059	0.0146185
683.137	0.0147560
683.215	0.0146003
683.293	0.0145963
683.371	0.0148350
683.450	0.0148384
683.528	0.0146864
683.606	0.0146745
683.684	0.0147204
683.762	0.0147108
683.840	0.0146539
683.918	0.0146352
683.996	0.0146165
684.075	0.0145970
684.153	0.0145782
684.231	0.0145372
684.309	0.0146750
684.387	0.0146121
684.465	0.0146024
684.543	0.0146300
684.621	0.0146317
684.700	0.0146833
684.778	0.0145330
684.856	0.0146510
684.934	0.0147699
685.012	0.0146986
685.090	0.0147709
685.168	0.0148437
685.246	0.0147375
685.325	0.0147183
685.403	0.0147031
685.481	0.0147565
685.559	0.0147304
685.637	0.0146783
685.715	0.0147420
685.793	0.0145573
685.871	0.0146232
685.950	0.0146495
686.028	0.0146104
686.106	0.0146714
686.184	0.0145531
686.262	0.0145114
686.340	0.0145667
686.418	0.0146275
686.496	0.0145612
686.575	0.0147707
686.653	0.0147593
686.731	0.0148556
686.809	0.0148079
686.887	0.0148164
686.965	0.0149121
687.043	0.0148122
687.121	0.0147168
687.200	0.0146643
687.278	0.0147332
687.356	0.0148180
687.434	0.0148230
687.512	0.0148682
687.590	0.0148780
687.668	0.0149232
687.746	0.0149005
687.825	0.0147963
687.903	0.0148155
687.981	0.0148378
688.059	0.0147108
688.137	0.0145734
688.215	0.0146226
688.293	0.0145988
688.371	0.0144248
688.450	0.0144144
688.528	0.0144414
688.606	0.0144279
688.684	0.0143695
688.762	0.0145289
688.840	0.0144291
688.918	0.0146207
688.996	0.0145346
689.075	0.0145770
689.153	0.0146013
689.231	0.0147361
689.309	0.0147884
689.387	0.0149242
689.465	0.0149765
689.543	0.0151854
689.621	0.0152771
689.700	0.0152158
689.778	0.0152611
689.856	0.0153358
689.934	0.0152080
690.012	0.0151948
690.090	0.0148821
690.168	0.0146719
690.246	0.0146672
690.325	0.0144618
690.403	0.0143562
690.481	0.0144380
690.559	0.0143807
690.637	0.0142545
690.715	0.0141801
690.793	0.0140681
690.871	0.0142043
690.950	0.0141088
691.028	0.0141036
691.106	0.0142494
691.184	0.0143622
691.262	0.0142639
691.340	0.0144810
691.418	0.0147344
691.496	0.0146205
691.575	0.0147632
691.653	0.0148192
691.731	0.0150115
691.809	0.0151253
691.887	0.0150391
691.965	0.0148827
692.043	0.0150986
692.121	0.0151301
692.200	0.0151007
692.278	0.0151216
692.356	0.0151047
692.434	0.0151369
692.512	0.0150468
692.590	0.0151230
692.668	0.0150314
692.746	0.0151122
692.825	0.0150311
692.903	0.0148273
692.981	0.0147184
693.059	0.0146095
693.137	0.0143460
693.215	0.0143751
693.293	0.0143597
693.371	0.0140209
693.450	0.0139461
693.528	0.0139338
693.606	0.0139404
693.684	0.0138429
693.762	0.0138363
693.840	0.0139193
693.918	0.0140745
693.996	0.0142455
694.075	0.0142732
694.153	0.0143973
694.231	0.0146104
694.309	0.0146935
694.387	0.0148665
694.465	0.0148435
694.543	0.0150655
694.621	0.0151447
694.700	0.0151707
694.778	0.0151920
694.856	0.0153372
694.934	0.0152403
695.012	0.0153217
695.090	0.0152351
695.168	0.0153210
695.246	0.0153989
695.325	0.0152047
695.403	0.0151568
695.481	0.0152244
695.559	0.0151903
695.637	0.0150592
695.715	0.0150316
695.793	0.0146380
695.871	0.0145946
695.950	0.0144957
696.028	0.0143885
696.106	0.0144000
696.184	0.0142606
696.262	0.0143137
696.340	0.0141698
696.418	0.0140475
696.496	0.0140623
696.575	0.0139044
696.653	0.0140082
696.731	0.0140648
696.809	0.0141870
696.887	0.0141592
696.965	0.0143273
697.043	0.0143820
697.121	0.0145226
697.200	0.0147980
697.278	0.0149060
697.356	0.0149997
697.434	0.0151322
697.512	0.0153219
697.590	0.0153281
697.668	0.0153524
697.746	0.0153788
697.825	0.0155058
697.903	0.0154405
697.981	0.0153842
698.059	0.0152627
698.137	0.0150465
698.215	0.0152335
698.293	0.0151731
698.371	0.0151450
698.450	0.0148651
698.528	0.0146660
698.606	0.0145285
698.684	0.0143854
698.762	0.0143073
698.840	0.0138700
698.918	0.0138688
698.996	0.0139213
699.075	0.0139835
699.153	0.0139301
699.231	0.0140738
699.309	0.0142108
699.387	0.0144193
699.465	0.0143305
699.543	0.0145941
699.621	0.0147070
699.700	0.0146915
699.778	0.0147001
699.856	0.0148651
699.934	0.0151040
700.012	0.0149642
700.090	0.0148791
700.168	0.0149679
700.246	0.0150342
700.325	0.0148603
700.403	0.0149472
700.481	0.0149764
700.559	0.0148428
700.637	0.0149164
700.715	0.0149141
700.793	0.0149364
700.871	0.0147140
700.950	0.0147237
701.028	0.0147443
701.106	0.0146769
701.184	0.0147600
701.262	0.0147211
701.340	0.0146765
701.418	0.0147030
701.496	0.0146172
701.575	0.0146390
701.653	0.0145153
701.731	0.0144286
701.809	0.0145245
701.887	0.0144807
701.965	0.0144550
702.043	0.0145535
702.121	0.0145145
702.200	0.0146363
702.278	0.0146383
702.356	0.0148502
702.434	0.0147792
702.512	0.0149155
702.590	0.0148180
702.668	0.0149252
702.746	0.0148779
702.825	0.0147820
702.903	0.0147790
702.981	0.0149231
703.059	0.0149612
703.137	0.0148615
703.215	0.0149145
703.293	0.0150274
703.371	0.0149373
703.450	0.0148372
703.528	0.0149117
703.606	0.0146484
703.684	0.0147311
703.762	0.0144924
703.840	0.0145338
703.918	0.0145819
703.996	0.0146124
704.075	0.0145956
704.153	0.0145406
704.231	0.0146877
704.309	0.0147295
704.387	0.0147805
704.465	0.0147604
704.543	0.0146342
704.621	0.0146881
704.700	0.0147085
704.778	0.0146421
704.856	0.0144278
704.934	0.0144422
705.012	0.0143484
705.090	0.0143744
705.168	0.0144225
705.246	0.0142503
705.325	0.0144322
705.403	0.0143240
705.481	0.0145294
705.559	0.0146577
705.637	0.0146083
705.715	0.0146908
705.793	0.0149675
705.871	0.0151431
705.950	0.0152464
706.028	0.0151096
706.106	0.0153339
706.184	0.0152557
706.262	0.0153085
706.340	0.0152505
706.418	0.0151546
706.496	0.0149677
706.575	0.0149601
706.653	0.0148781
706.731	0.0146778
706.809	0.0146754
706.887	0.0144810
706.965	0.0143546
707.043	0.0142978
707.121	0.0142670
707.200	0.0143075
707.278	0.0141467
707.356	0.0143325
707.434	0.0144382
707.512	0.0143986
707.590	0.0144743
707.668	0.0144865
707.746	0.0144672
707.825	0.0144395
707.903	0.0143867
707.981	0.0145348
708.059	0.0145242
708.137	0.0145008
708.215	0.0146355
708.293	0.0147942
708.371	0.0146777
708.450	0.0148755
708.528	0.0149950
708.606	0.0149975
708.684	0.0149312
708.762	0.0148289
708.840	0.0150321
708.918	0.0149562
708.996	0.0149888
709.075	0.0149850
709.153	0.0149770
709.231	0.0150482
709.309	0.0151389
709.387	0.0151044
709.465	0.0151105
709.543	0.0148847
709.621	0.0149088
709.700	0.0148248
709.778	0.0147784
709.856	0.0145918
709.934	0.0145051
710.012	0.0144108
710.090	0.0145527
710.168	0.0144904
710.246	0.0142809
710.325	0.0142774
710.403	0.0144340
710.481	0.0142537
710.559	0.0141482
710.637	0.0141509
710.715	0.0142237
710.793	0.0142397
710.871	0.0142944
710.950	0.0143486
711.028	0.0143161
711.106	0.0143599
711.184	0.0146012
711.262	0.0146265
711.340	0.0147523
711.418	0.0148474
711.496	0.0148817
711.575	0.0149835
711.653	0.0149330
711.731	0.0148582
711.809	0.0151512
711.887	0.0148605
711.965	0.0150324
712.043	0.0149873
712.121	0.0148772
712.200	0.0149409
712.278	0.0147952
712.356	0.0148450
712.434	0.0147832
712.512	0.0146465
712.590	0.0145565
712.668	0.0145712
712.746	0.0146067
712.825	0.0147375
712.903	0.0146882
712.981	0.0147970
713.059	0.0146908
713.137	0.0146634
713.215	0.0147090
713.293	0.0146497
713.371	0.0146775
713.450	0.0145174
713.528	0.0145676
713.606	0.0145312
713.684	0.0143636
713.762	0.0142825
713.840	0.0144346
713.918	0.0143827
713.996	0.0144521
714.075	0.0143180
714.153	0.0145721
714.231	0.0147501
714.309	0.0148961
714.387	0.0150269
714.465	0.0150650
714.543	0.0151017
714.621	0.0149975
714.700	0.0148912
714.778	0.0149030
714.856	0.0148680
714.934	0.0149167
715.012	0.0147462
715.090	0.0145920
715.168	0.0145161
715.246	0.0144001
715.325	0.0143017
715.403	0.0144301
715.481	0.0144707
715.559	0.0144385
715.637	0.0144555
715.715	0.0144998
715.793	0.0147134
715.871	0.0145857
715.950	0.0147986
716.028	0.0149822
716.106	0.0149573
716.184	0.0151045
716.262	0.0150338
716.340	0.0150332
716.418	0.0150646
716.496	0.0149174
716.575	0.0150275
716.653	0.0149221
716.731	0.0148230
716.809	0.0145787
716.887	0.0146181
716.965	0.0144991
717.043	0.0145982
717.121	0.0144218
717.200	0.0143061
717.278	0.0143820
717.356	0.0145012
717.434	0.0144669
717.512	0.0145232
717.590	0.0145253
717.668	0.0144093
717.746	0.0145817
717.825	0.0144554
717.903	0.0145287
717.981	0.0143927
718.059	0.0144570
718.137	0.0146226
718.215	0.0145786
718.293	0.0146471
718.371	0.0144913
718.450	0.0146230
718.528	0.0146497
718.606	0.0147644
718.684	0.0148383
718.762	0.0148518
718.840	0.0149254
718.918	0.0150817
718.996	0.0150134
719.075	0.0151100
719.153	0.0150692
719.231	0.0150150
719.309	0.0148972
719.387	0.0150285
719.465	0.0148415
719.543	0.0148559
719.621	0.0146712
719.700	0.0146600
719.778	0.0146086
719.856	0.0147126
719.934	0.0147024
720.012	0.0145601
720.090	0.0146525
720.168	0.0147907
720.246	0.0146495
720.325	0.0147566
720.403	0.0146495
720.481	0.0145487
720.559	0.0146057
720.637	0.0145949
720.715	0.0146326
720.793	0.0145656
720.871	0.0145200
720.950	0.0146391
721.028	0.0146153
721.106	0.0146773
721.184	0.0147193
721.262	0.0148839
721.340	0.0147806
721.418	0.0147114
721.496	0.0146483
721.575	0.0148576
721.653	0.0149199
721.731	0.0150183
721.809	0.0148759
721.887	0.0148457
721.965	0.0147347
722.043	0.0149404
722.121	0.0147313
722.200	0.0146333
722.278	0.0145842
722.356	0.0147711
722.434	0.0147177
722.512	0.0145651
722.590	0.0147154
722.668	0.0147184
722.746	0.0146127
722.825	0.0147450
722.903	0.0147852
722.981	0.0146950
723.059	0.0148822
723.137	0.0149481
723.215	0.0148624
723.293	0.0148111
723.371	0.0146745
723.450	0.0148248
723.528	0.0149410
723.606	0.0148705
723.684	0.0148058
723.762	0.0148801
723.840	0.0149207
723.918	0.0149093
723.996	0.0147240
724.075	0.0149172
724.153	0.0149684
724.231	0.0148321
724.309	0.0148206
724.387	0.0148115
724.465	0.0147179
724.543	0.0147218
724.621	0.0145031
724.700	0.0145020
724.778	0.0145203
724.856	0.0143789
724.934	0.0145195
725.012	0.0143872
725.090	0.0143867
725.168	0.0143678
725.246	0.0144442
725.325	0.0144967
725.403	0.0145070
725.481	0.0144820
725.559	0.0145564
725.637	0.0147073
725.715	0.0147034
725.793	0.0148259
725.871	0.0147570
725.950	0.0148489
726.028	0.0150060
726.106	0.0149623
726.184	0.0150933
726.262	0.0149588
726.340	0.0150917
726.418	0.0152842
726.496	0.0151113
726.575	0.0150573
726.653	0.0150296
726.731	0.0148039
726.809	0.0148943
726.887	0.0147641
726.965	0.0147295
727.043	0.0147624
727.121	0.0147552
727.200	0.0145993
727.278	0.0143877
727.356	0.0144123
727.434	0.0144028
727.512	0.0144188
727.590	0.0142181
727.668	0.0144724
727.746	0.0142262
727.825	0.0143394
727.903	0.0144353
727.981	0.0143192
728.059	0.0143729
728.137	0.0145956
728.215	0.0146074
728.293	0.0146511
728.371	0.0145124
728.450	0.0146597
728.528	0.0147095
728.606	0.0148650
728.684	0.0148245
728.762	0.0149326
728.840	0.0149853
728.918	0.0148801
728.996	0.0150243
729.075	0.0149361
729.153	0.0148888
729.231	0.0149756
729.309	0.0148892
729.387	0.0147961
729.465	0.0148582
729.543	0.0148724
729.621	0.0147353
729.700	0.0146103
729.778	0.0145482
729.856	0.0145140
729.934	0.0146495
730.012	0.0147067
730.090	0.0145742
730.168	0.0145385
730.246	0.0145705
730.325	0.0146140
730.403	0.0145792
730.481	0.0146336
730.559	0.0145531
730.637	0.0146770
730.715	0.0146697
730.793	0.0146652
730.871	0.0147212
730.950	0.0146973
731.028	0.0147743
731.106	0.0146667
731.184	0.0147739
731.262	0.0148309
731.340	0.0147056
731.418	0.0147210
731.496	0.0147272
731.575	0.0146703
731.653	0.0147477
731.731	0.0146863
731.809	0.0148508
731.887	0.0146775
731.965	0.0147467
732.043	0.0147361
732.121	0.0146088
732.200	0.0146848
732.278	0.0146407
732.356	0.0145244
732.434	0.0146982
732.512	0.0145413
732.590	0.0146300
732.668	0.0145620
732.746	0.0145984
732.825	0.0145589
732.903	0.0145419
732.981	0.0146545
733.059	0.0146214
733.137	0.0146593
733.215	0.0146083
733.293	0.0147949
733.371	0.0147117
733.450	0.0147659
733.528	0.0148415
733.606	0.0147655
733.684	0.0149606
733.762	0.0149430
733.840	0.0148761
733.918	0.0148026
733.996	0.0148554
734.075	0.0148601
734.153	0.0148424
734.231	0.0147653
734.309	0.0145643
734.387	0.0144730
734.465	0.0145728
734.543	0.0145980
734.621	0.0146157
734.700	0.0145480
734.778	0.0144151
734.856	0.0145645
734.934	0.0144386
735.012	0.0144687
735.090	0.0144688
735.168	0.0144405
735.246	0.0147285
735.325	0.0145535
735.403	0.0147347
735.481	0.0146782
735.559	0.0148089
735.637	0.0146690
735.715	0.0148241
735.793	0.0148943
735.871	0.0148901
735.950	0.0148615
736.028	0.0149307
736.106	0.0148042
736.184	0.0148750
736.262	0.0149494
736.340	0.0147549
736.418	0.0146826
736.496	0.0147580
736.575	0.0147970
736.653	0.0147221
736.731	0.0146877
736.809	0.0146435
736.887	0.0146449
736.965	0.0146877
737.043	0.0145545
737.121	0.0146241
737.200	0.0145913
737.278	0.0145307
737.356	0.0145650
737.434	0.0144673
737.512	0.0144199
737.590	0.0146302
737.668	0.0145421
737.746	0.0143829
737.825	0.0145554
737.903	0.0145766
737.981	0.0145371
738.059	0.0145420
738.137	0.0145761
738.215	0.0147439
738.293	0.0147064
738.371	0.0147562
738.450	0.0147977
738.528	0.0148894
738.606	0.0148604
738.684	0.0148146
738.762	0.0151321
738.840	0.0148155
738.918	0.0147806
738.996	0.0149002
739.075	0.0147697
739.153	0.0148398
739.231	0.0146876
739.309	0.0147269
739.387	0.0147462
739.465	0.0149080
739.543	0.0146715
739.621	0.0144504
739.700	0.0145924
739.778	0.0146593
739.856	0.0145425
739.934	0.0146547
740.012	0.0144980
740.090	0.0146198
740.168	0.0145253
740.246	0.0144981
740.325	0.0145316
740.403	0.0145322
740.481	0.0145485
740.559	0.0144574
740.637	0.0144850
740.715	0.0145525
740.793	0.0147215
740.871	0.0146448
740.950	0.0148449
741.028	0.0146742
741.106	0.0148695
741.184	0.0147499
741.262	0.0147991
741.340	0.0147683
741.418	0.0148310
741.496	0.0149187
741.575	0.0147263
741.653	0.0147839
741.731	0.0148066
741.809	0.0148808
741.887	0.0148122
741.965	0.0147675
742.043	0.0148068
742.121	0.0146503
742.200	0.0147160
742.278	0.0147173
742.356	0.0147221
742.434	0.0145021
742.512	0.0146915
742.590	0.0147221
742.668	0.0147215
742.746	0.0148077
742.825	0.0147290
742.903	0.0147365
742.981	0.0147427
743.059	0.0148762
743.137	0.0147044
743.215	0.0148184
743.293	0.0147905
743.371	0.0147467
743.450	0.0147947
743.528	0.0145853
743.606	0.0146669
743.684	0.0147346
743.762	0.0146300
743.840	0.0146903
743.918	0.0147497
743.996	0.0146718
744.075	0.0147678
744.153	0.0149447
744.231	0.0148156
744.309	0.0146918
744.387	0.0148326
744.465	0.0147945
744.543	0.0149856
744.621	0.0147723
744.700	0.0148424
744.778	0.0147332
744.856	0.0146772
744.934	0.0146780
745.012	0.0147867
745.090	0.0146860
745.168	0.0147092
745.246	0.0145895
745.325	0.0145860
745.403	0.0146902
745.481	0.0147344
745.559	0.0146868
745.637	0.0147186
745.715	0.0148005
745.793	0.0147317
745.871	0.0148376
745.950	0.0148058
746.028	0.0148776
746.106	0.0148709
746.184	0.0148638
746.262	0.0148832
746.340	0.0148341
746.418	0.0149004
746.496	0.0150542
746.575	0.0148775
746.653	0.0147293
746.731	0.0149455
746.809	0.0148085
746.887	0.0148045
746.965	0.0147520
747.043	0.0148129
747.121	0.0147465
747.200	0.0148621
747.278	0.0148045
747.356	0.0148946
747.434	0.0147250
747.512	0.0147241
747.590	0.0147817
747.668	0.0148598
747.746	0.0147398
747.825	0.0146610
747.903	0.0146981
747.981	0.0146305
748.059	0.0148793
748.137	0.0147065
748.215	0.0146914
748.293	0.0147808
748.371	0.0146523
748.450	0.0147101
748.528	0.0146639
748.606	0.0148508
748.684	0.0148198
748.762	0.0148915
748.840	0.0148474
748.918	0.0147100
748.996	0.0148689
749.075	0.0149375
749.153	0.0147697
749.231	0.0149391
749.309	0.0148939
749.387	0.0148915
749.465	0.0147851
749.543	0.0148085
749.621	0.0148043
749.700	0.0147450
749.778	0.0146768
749.856	0.0146613
749.934	0.0147276
750.012	0.0147263
750.090	0.0146291
750.168	0.0145877
750.246	0.0145948
750.325	0.0147005
750.403	0.0146130
750.481	0.0148225
750.559	0.0146931
750.637	0.0148026
750.715	0.0146734
750.793	0.0145729
750.871	0.0147797
750.950	0.0147830
751.028	0.0147268
751.106	0.0147178
751.184	0.0147618
751.262	0.0148778
751.340	0.0149057
751.418	0.0149095
751.496	0.0147367
751.575	0.0148698
751.653	0.0148397
751.731	0.0146329
751.809	0.0149150
751.887	0.0148770
751.965	0.0146808
752.043	0.0149026
752.121	0.0147501
752.200	0.0147797
752.278	0.0147146
752.356	0.0148186
752.434	0.0147369
752.512	0.0145942
752.590	0.0147626
752.668	0.0146454
752.746	0.0146883
752.825	0.0147305
752.903	0.0146883
752.981	0.0145833
753.059	0.0145720
753.137	0.0145750
753.215	0.0145330
753.293	0.0146344
753.371	0.0145076
753.450	0.0146905
753.528	0.0147520
753.606	0.0146555
753.684	0.0146846
753.762	0.0147029
753.840	0.0146916
753.918	0.0147652
753.996	0.0148521
754.075	0.0147626
754.153	0.0146431
754.231	0.0148447
754.309	0.0148467
754.387	0.0148624
754.465	0.0149643
754.543	0.0147922
754.621	0.0147015
754.700	0.0147141
754.778	0.0147737
754.856	0.0148267
754.934	0.0148147
755.012	0.0147192
755.090	0.0146999
755.168	0.0147003
755.246	0.0146301
755.325	0.0146806
755.403	0.0147035
755.481	0.0146569
755.559	0.0147438
755.637	0.0147662
755.715	0.0147145
755.793	0.0146636
755.871	0.0147421
755.950	0.0146693
756.028	0.0147364
756.106	0.0146539
756.184	0.0147256
756.262	0.0148594
756.340	0.0147382
756.418	0.0147405
756.496	0.0148667
756.575	0.0146986
756.653	0.0146181
756.731	0.0145824
756.809	0.0147844
756.887	0.0147986
756.965	0.0147343
757.043	0.0146102
757.121	0.0146566
757.200	0.0146904
757.278	0.0146218
757.356	0.0145876
757.434	0.0147389
757.512	0.0145556
757.590	0.0145297
757.668	0.0146183
757.746	0.0146501
757.825	0.0145843
757.903	0.0146453
757.981	0.0145993
758.059	0.0146167
758.137	0.0146638
758.215	0.0146185
758.293	0.0147003
758.371	0.0147431
758.450	0.0147538
758.528	0.0147067
758.606	0.0146985
758.684	0.0148003
758.762	0.0146915
758.840	0.0148728
758.918	0.0146842
758.996	0.0148042
759.075	0.0147976
759.153	0.0147129
759.231	0.0148598
759.309	0.0147302
759.387	0.0146770
759.465	0.0147457
759.543	0.0147509
759.621	0.0146529
759.700	0.0147478
759.778	0.0146833
759.856	0.0148543
759.934	0.0147112
760.012	0.0147509
760.090	0.0147449
760.168	0.0146754
760.246	0.0146681
760.325	0.0146226
760.403	0.0147437
760.481	0.0146416
760.559	0.0145204
760.637	0.0145153
760.715	0.0144572
760.793	0.0145944
760.871	0.0145350
760.950	0.0145767
761.028	0.0144418
761.106	0.0146097
761.184	0.0146181
761.262	0.0146156
761.340	0.0146618
761.418	0.0146291
761.496	0.0145912
761.575	0.0148124
761.653	0.0147250
761.731	0.0146430
761.809	0.0145835
761.887	0.0147144
761.965	0.0147032
762.043	0.0146422
762.121	0.0147826
762.200	0.0147130
762.278	0.0148355
762.356	0.0145658
762.434	0.0146733
762.512	0.0147991
762.590	0.0146242
762.668	0.0146142
762.746	0.0145122
762.825	0.0145380
762.903	0.0147819
762.981	0.0146376
763.059	0.0145506
763.137	0.0146328
763.215	0.0145467
763.293	0.0145985
763.371	0.0145522
763.450	0.0146525
763.528	0.0146610
763.606	0.0147216
763.684	0.0146527
763.762	0.0147137
763.840	0.0147979
763.918	0.0146984
763.996	0.0147356
764.075	0.0147803
764.153	0.0148667
764.231	0.0147095
764.309	0.0148016
764.387	0.0147358
764.465	0.0148757
764.543	0.0146177
764.621	0.0147087
764.700	0.0146621
