05/04/2022	21:31:43	Ver.	4.1	UNKNOWN
Optical Delay	678.996401	Delta X		0.078125	Sweeps	1	Scan Rate	0/0
Coordinates	Axis 1	NaN	Axis 2	NaN	Axis 3	NaN	Axis 4	NaN	Axis 5	NaN	Axis 6	0.000000
TX Power	0.000000	RX Power	0.000000

678.996	0.0146126
679.075	0.0147205
679.153	0.0145762
679.231	0.0145567
679.309	0.0144805
679.387	0.0145601
679.465	0.0145335
679.543	0.0146294
679.621	0.0147446
679.700	0.0146685
679.778	0.0146639
679.856	0.0147081
679.934	0.0146243
680.012	0.0148411
680.090	0.0146442
680.168	0.0147423
680.246	0.0145768
680.325	0.0146845
680.403	0.0147073
680.481	0.0146169
680.559	0.0145287
680.637	0.0146436
680.715	0.0146600
680.793	0.0145291
680.871	0.0144857
680.950	0.0145406
681.028	0.0144184
681.106	0.0144653
681.184	0.0144846
681.262	0.0144707
681.340	0.0143916
681.418	0.0145376
681.496	0.0145509
681.575	0.0145697
681.653	0.0145751
681.731	0.0146844
681.809	0.0146198
681.887	0.0145930
681.965	0.0147025
682.043	0.0147004
682.121	0.0146733
682.200	0.0146893
682.278	0.0145438
682.356	0.0146779
682.434	0.0146873
682.512	0.0146117
682.590	0.0146539
682.668	0.0147162
682.746	0.0145760
682.825	0.0144464
682.903	0.0146499
682.981	0.0146523
683.059	0.0145211
683.137	0.0145766
683.215	0.0144365
683.293	0.0143845
683.371	0.0145222
683.450	0.0144993
683.528	0.0145417
683.606	0.0144405
683.684	0.0146310
683.762	0.0145975
683.840	0.0147414
683.918	0.0146529
683.996	0.0147546
684.075	0.0146378
684.153	0.0146298
684.231	0.0146382
684.309	0.0146396
684.387	0.0147070
684.465	0.0145199
684.543	0.0146767
684.621	0.0145435
684.700	0.0146639
684.778	0.0145703
684.856	0.0145392
684.934	0.0143957
685.012	0.0144292
685.090	0.0144979
685.168	0.0144466
685.246	0.0144640
685.325	0.0144484
685.403	0.0145316
685.481	0.0144412
685.559	0.0145724
685.637	0.0146458
685.715	0.0147002
685.793	0.0146218
685.871	0.0147187
685.950	0.0146436
686.028	0.0147265
686.106	0.0146700
686.184	0.0145286
686.262	0.0146266
686.340	0.0146274
686.418	0.0146434
686.496	0.0146582
686.575	0.0146539
686.653	0.0146799
686.731	0.0147713
686.809	0.0146738
686.887	0.0145555
686.965	0.0145322
687.043	0.0144180
687.121	0.0144358
687.200	0.0143287
687.278	0.0142696
687.356	0.0142228
687.434	0.0142876
687.512	0.0141730
687.590	0.0143741
687.668	0.0144133
687.746	0.0143427
687.825	0.0143774
687.903	0.0145635
687.981	0.0143851
688.059	0.0143616
688.137	0.0145043
688.215	0.0145273
688.293	0.0145023
688.371	0.0145892
688.450	0.0147580
688.528	0.0148498
688.606	0.0148714
688.684	0.0150034
688.762	0.0150083
688.840	0.0150259
688.918	0.0149772
688.996	0.0149065
689.075	0.0147975
689.153	0.0147471
689.231	0.0145036
689.309	0.0144686
689.387	0.0142878
689.465	0.0142902
689.543	0.0143365
689.621	0.0142838
689.700	0.0142650
689.778	0.0141749
689.856	0.0141134
689.934	0.0141304
690.012	0.0142556
690.090	0.0142533
690.168	0.0143492
690.246	0.0145430
690.325	0.0143826
690.403	0.0144706
690.481	0.0146598
690.559	0.0147810
690.637	0.0148421
690.715	0.0148975
690.793	0.0147933
690.871	0.0147902
690.950	0.0150346
691.028	0.0150407
691.106	0.0147305
691.184	0.0148305
691.262	0.0148624
691.340	0.0147121
691.418	0.0148317
691.496	0.0147555
691.575	0.0147691
691.653	0.0147868
691.731	0.0147276
691.809	0.0147215
691.887	0.0147789
691.965	0.0148817
692.043	0.0148111
692.121	0.0146886
692.200	0.0145226
692.278	0.0144637
692.356	0.0145193
692.434	0.0144012
692.512	0.0142343
692.590	0.0141940
692.668	0.0142099
692.746	0.0142607
692.825	0.0141580
692.903	0.0141642
692.981	0.0140861
693.059	0.0141076
693.137	0.0141511
693.215	0.0142307
693.293	0.0142791
693.371	0.0143726
693.450	0.0144762
693.528	0.0146224
693.606	0.0146519
693.684	0.0149400
693.762	0.0148424
693.840	0.0148713
693.918	0.0148585
693.996	0.0148460
694.075	0.0150385
694.153	0.0150848
694.231	0.0147913
694.309	0.0148325
694.387	0.0148840
694.465	0.0149695
694.543	0.0149152
694.621	0.0148116
694.700	0.0148908
694.778	0.0147578
694.856	0.0146714
694.934	0.0147350
695.012	0.0146364
695.090	0.0146997
695.168	0.0145238
695.246	0.0144289
695.325	0.0143994
695.403	0.0143456
695.481	0.0143659
695.559	0.0141757
695.637	0.0143087
695.715	0.0142062
695.793	0.0142059
695.871	0.0141442
695.950	0.0141650
696.028	0.0142268
696.106	0.0142252
696.184	0.0142232
696.262	0.0142816
696.340	0.0143095
696.418	0.0143237
696.496	0.0146705
696.575	0.0147363
696.653	0.0147616
696.731	0.0149531
696.809	0.0150203
696.887	0.0151579
696.965	0.0152087
697.043	0.0153413
697.121	0.0152502
697.200	0.0151187
697.278	0.0151415
697.356	0.0150254
697.434	0.0147708
697.512	0.0148034
697.590	0.0147942
697.668	0.0144594
697.746	0.0146172
697.825	0.0147078
697.903	0.0144219
697.981	0.0143777
698.059	0.0144203
698.137	0.0143674
698.215	0.0142996
698.293	0.0142780
698.371	0.0144128
698.450	0.0143832
698.528	0.0143751
698.606	0.0145204
698.684	0.0145621
698.762	0.0145795
698.840	0.0146055
698.918	0.0145997
698.996	0.0146741
699.075	0.0146105
699.153	0.0146314
699.231	0.0145063
699.309	0.0144257
699.387	0.0143531
699.465	0.0144814
699.543	0.0144040
699.621	0.0144656
699.700	0.0144899
699.778	0.0144607
699.856	0.0145922
699.934	0.0147276
700.012	0.0148306
700.090	0.0148180
700.168	0.0147324
700.246	0.0148236
700.325	0.0147033
700.403	0.0146564
700.481	0.0147694
700.559	0.0148287
700.637	0.0148621
700.715	0.0146546
700.793	0.0146998
700.871	0.0147395
700.950	0.0147873
701.028	0.0147900
701.106	0.0148369
701.184	0.0148406
701.262	0.0145821
701.340	0.0144646
701.418	0.0145514
701.496	0.0144593
701.575	0.0143263
701.653	0.0144560
701.731	0.0143717
701.809	0.0143801
701.887	0.0143787
701.965	0.0145897
702.043	0.0146129
702.121	0.0145826
702.200	0.0146760
702.278	0.0146750
702.356	0.0147639
702.434	0.0146857
702.512	0.0147711
702.590	0.0148252
702.668	0.0147105
702.746	0.0146448
702.825	0.0147263
702.903	0.0146730
702.981	0.0145304
703.059	0.0146495
703.137	0.0146060
703.215	0.0144034
703.293	0.0144878
703.371	0.0146577
703.450	0.0146877
703.528	0.0146323
703.606	0.0145866
703.684	0.0145583
703.762	0.0146263
703.840	0.0147603
703.918	0.0148197
703.996	0.0148018
704.075	0.0146034
704.153	0.0146732
704.231	0.0148867
704.309	0.0145552
704.387	0.0145164
704.465	0.0144512
704.543	0.0145963
704.621	0.0144726
704.700	0.0143250
704.778	0.0143625
704.856	0.0143221
704.934	0.0142976
705.012	0.0145052
705.090	0.0144546
705.168	0.0146333
705.246	0.0146605
705.325	0.0146572
705.403	0.0145930
705.481	0.0146673
705.559	0.0148283
705.637	0.0148769
705.715	0.0147955
705.793	0.0146831
705.871	0.0146378
705.950	0.0145810
706.028	0.0144935
706.106	0.0143755
706.184	0.0143654
706.262	0.0144975
706.340	0.0144700
706.418	0.0145039
706.496	0.0146998
706.575	0.0145985
706.653	0.0146272
706.731	0.0148591
706.809	0.0146984
706.887	0.0146605
706.965	0.0148811
707.043	0.0147464
707.121	0.0146724
707.200	0.0146638
707.278	0.0146458
707.356	0.0146790
707.434	0.0146484
707.512	0.0146120
707.590	0.0145528
707.668	0.0145925
707.746	0.0144576
707.825	0.0143530
707.903	0.0144540
707.981	0.0144561
708.059	0.0142599
708.137	0.0145363
708.215	0.0146809
708.293	0.0144658
708.371	0.0147961
708.450	0.0148303
708.528	0.0148546
708.606	0.0148650
708.684	0.0148362
708.762	0.0148942
708.840	0.0148611
708.918	0.0148450
708.996	0.0147612
709.075	0.0147173
709.153	0.0146136
709.231	0.0145831
709.309	0.0146510
709.387	0.0145617
709.465	0.0144765
709.543	0.0145205
709.621	0.0145853
709.700	0.0145728
709.778	0.0144350
709.856	0.0145081
709.934	0.0144797
710.012	0.0146183
710.090	0.0144226
710.168	0.0144030
710.246	0.0144205
710.325	0.0144675
710.403	0.0144387
710.481	0.0143657
710.559	0.0144250
710.637	0.0143057
710.715	0.0143844
710.793	0.0145236
710.871	0.0145048
710.950	0.0145441
711.028	0.0144427
711.106	0.0145016
711.184	0.0146758
711.262	0.0146596
711.340	0.0147229
711.418	0.0149178
711.496	0.0149253
711.575	0.0148388
711.653	0.0146717
711.731	0.0146159
711.809	0.0147521
711.887	0.0146934
711.965	0.0146377
712.043	0.0146462
712.121	0.0145071
712.200	0.0145547
712.278	0.0145914
712.356	0.0144942
712.434	0.0145646
712.512	0.0145734
712.590	0.0146781
712.668	0.0146651
712.746	0.0146291
712.825	0.0148282
712.903	0.0148051
712.981	0.0145727
713.059	0.0146354
713.137	0.0145171
713.215	0.0146301
713.293	0.0144466
713.371	0.0143493
713.450	0.0144749
713.528	0.0144353
713.606	0.0143851
713.684	0.0145107
713.762	0.0146072
713.840	0.0147299
713.918	0.0147407
713.996	0.0147463
714.075	0.0146057
714.153	0.0147956
714.231	0.0149226
714.309	0.0146581
714.387	0.0147324
714.465	0.0148238
714.543	0.0147608
714.621	0.0147594
714.700	0.0147070
714.778	0.0145019
714.856	0.0144220
714.934	0.0145924
715.012	0.0144823
715.090	0.0145965
715.168	0.0146268
715.246	0.0146883
715.325	0.0144492
715.403	0.0146568
715.481	0.0147556
715.559	0.0147631
715.637	0.0147286
715.715	0.0148063
715.793	0.0148559
715.871	0.0148598
715.950	0.0148382
716.028	0.0147158
716.106	0.0147754
716.184	0.0146857
716.262	0.0145502
716.340	0.0144098
716.418	0.0145614
716.496	0.0145680
716.575	0.0143842
716.653	0.0143410
716.731	0.0143600
716.809	0.0143365
716.887	0.0142169
716.965	0.0144144
717.043	0.0143788
717.121	0.0144923
717.200	0.0143050
717.278	0.0143594
717.356	0.0144041
717.434	0.0145334
717.512	0.0144125
717.590	0.0146123
717.668	0.0145059
717.746	0.0146313
717.825	0.0146922
717.903	0.0146879
717.981	0.0146655
718.059	0.0147251
718.137	0.0145701
718.215	0.0147941
718.293	0.0146150
718.371	0.0147223
718.450	0.0146639
718.528	0.0147129
718.606	0.0146772
718.684	0.0146815
718.762	0.0146433
718.840	0.0146662
718.918	0.0147187
718.996	0.0146204
719.075	0.0146635
719.153	0.0147404
719.231	0.0146796
719.309	0.0146643
719.387	0.0146428
719.465	0.0146288
719.543	0.0146727
719.621	0.0146223
719.700	0.0145737
719.778	0.0146231
719.856	0.0144784
719.934	0.0144135
720.012	0.0145640
720.090	0.0144006
720.168	0.0144518
720.246	0.0143336
720.325	0.0144264
720.403	0.0144016
720.481	0.0143927
720.559	0.0144401
720.637	0.0145084
720.715	0.0145085
720.793	0.0146063
720.871	0.0144932
720.950	0.0145659
721.028	0.0145999
721.106	0.0146786
721.184	0.0146152
721.262	0.0147430
721.340	0.0145561
721.418	0.0146502
721.496	0.0146732
721.575	0.0146982
721.653	0.0146684
721.731	0.0146923
721.809	0.0147031
721.887	0.0146762
721.965	0.0145390
722.043	0.0144069
722.121	0.0144681
722.200	0.0145610
722.278	0.0144932
722.356	0.0146118
722.434	0.0147430
722.512	0.0148115
722.590	0.0146857
722.668	0.0145838
722.746	0.0149030
722.825	0.0147839
722.903	0.0147627
722.981	0.0148236
723.059	0.0149170
723.137	0.0148859
723.215	0.0147753
723.293	0.0147998
723.371	0.0147416
723.450	0.0146742
723.528	0.0145883
723.606	0.0145085
723.684	0.0145969
723.762	0.0144500
723.840	0.0143858
723.918	0.0144408
723.996	0.0143708
724.075	0.0142060
724.153	0.0143792
724.231	0.0142821
724.309	0.0143372
724.387	0.0144117
724.465	0.0143147
724.543	0.0144778
724.621	0.0144714
724.700	0.0143864
724.778	0.0146870
724.856	0.0145666
724.934	0.0145412
725.012	0.0145734
725.090	0.0146039
725.168	0.0145547
725.246	0.0147334
725.325	0.0147514
725.403	0.0148476
725.481	0.0148122
725.559	0.0148002
725.637	0.0148554
725.715	0.0148503
725.793	0.0148181
725.871	0.0149628
725.950	0.0147387
726.028	0.0146584
726.106	0.0147632
726.184	0.0147391
726.262	0.0147420
726.340	0.0147225
726.418	0.0144805
726.496	0.0145531
726.575	0.0146371
726.653	0.0146146
726.731	0.0144032
726.809	0.0144268
726.887	0.0143256
726.965	0.0142274
727.043	0.0143399
727.121	0.0143089
727.200	0.0142406
727.278	0.0142825
727.356	0.0143530
727.434	0.0144519
727.512	0.0144903
727.590	0.0144541
727.668	0.0144640
727.746	0.0145255
727.825	0.0146583
727.903	0.0146768
727.981	0.0145894
728.059	0.0147172
728.137	0.0146498
728.215	0.0146947
728.293	0.0146883
728.371	0.0146576
728.450	0.0146022
728.528	0.0147639
728.606	0.0147285
728.684	0.0146733
728.762	0.0146834
728.840	0.0147658
728.918	0.0145755
728.996	0.0146339
729.075	0.0148413
729.153	0.0147387
729.231	0.0144531
729.309	0.0144875
729.387	0.0146484
729.465	0.0147000
729.543	0.0145535
729.621	0.0145229
729.700	0.0143603
729.778	0.0143569
729.856	0.0146136
729.934	0.0147418
730.012	0.0145742
730.090	0.0144449
730.168	0.0145824
730.246	0.0145066
730.325	0.0146325
730.403	0.0147290
730.481	0.0146157
730.559	0.0146957
730.637	0.0147079
730.715	0.0146719
730.793	0.0148605
730.871	0.0146542
730.950	0.0145837
731.028	0.0146124
731.106	0.0145921
731.184	0.0145248
731.262	0.0145466
731.340	0.0143920
731.418	0.0144769
731.496	0.0145361
731.575	0.0145081
731.653	0.0145749
731.731	0.0143288
731.809	0.0143169
731.887	0.0145110
731.965	0.0145302
732.043	0.0145643
732.121	0.0145432
732.200	0.0145409
732.278	0.0146003
732.356	0.0146025
732.434	0.0146734
732.512	0.0146297
732.590	0.0146054
732.668	0.0147816
732.746	0.0148169
732.825	0.0147315
732.903	0.0146341
732.981	0.0148123
733.059	0.0148279
733.137	0.0148327
733.215	0.0148878
733.293	0.0147877
733.371	0.0147272
733.450	0.0148738
733.528	0.0146783
733.606	0.0147089
733.684	0.0145367
733.762	0.0146909
733.840	0.0146016
733.918	0.0144021
733.996	0.0144954
734.075	0.0144057
734.153	0.0142812
734.231	0.0142892
734.309	0.0143513
734.387	0.0143104
734.465	0.0142648
734.543	0.0142079
734.621	0.0140919
734.700	0.0143481
734.778	0.0144624
734.856	0.0144037
734.934	0.0144595
735.012	0.0145646
735.090	0.0147456
735.168	0.0147287
735.246	0.0147576
735.325	0.0148484
735.403	0.0147517
735.481	0.0149201
735.559	0.0149909
735.637	0.0149381
735.715	0.0148273
735.793	0.0149660
735.871	0.0148107
735.950	0.0147685
736.028	0.0146747
736.106	0.0147572
736.184	0.0149228
736.262	0.0146941
736.340	0.0146039
736.418	0.0146309
736.496	0.0145506
736.575	0.0146376
736.653	0.0146086
736.731	0.0143587
736.809	0.0143713
736.887	0.0143964
736.965	0.0143714
737.043	0.0144607
737.121	0.0143964
737.200	0.0143662
737.278	0.0144068
737.356	0.0143977
737.434	0.0145317
737.512	0.0145381
737.590	0.0146487
737.668	0.0146917
737.746	0.0146449
737.825	0.0147456
737.903	0.0147221
737.981	0.0148556
738.059	0.0150054
738.137	0.0149020
738.215	0.0147910
738.293	0.0150307
738.371	0.0149380
738.450	0.0149020
738.528	0.0149020
738.606	0.0148126
738.684	0.0145815
738.762	0.0147862
738.840	0.0147700
738.918	0.0146490
738.996	0.0146797
739.075	0.0146111
739.153	0.0145240
739.231	0.0146630
739.309	0.0143621
739.387	0.0143013
739.465	0.0144481
739.543	0.0144334
739.621	0.0144342
739.700	0.0145368
739.778	0.0143761
739.856	0.0145196
739.934	0.0144444
740.012	0.0145956
740.090	0.0145406
740.168	0.0144646
740.246	0.0145817
740.325	0.0145163
740.403	0.0144395
740.481	0.0145253
740.559	0.0146442
740.637	0.0145509
740.715	0.0145637
740.793	0.0145610
740.871	0.0146764
740.950	0.0145291
741.028	0.0146419
741.106	0.0143632
741.184	0.0146444
741.262	0.0147559
741.340	0.0146407
741.418	0.0146558
741.496	0.0145755
741.575	0.0146218
741.653	0.0146273
741.731	0.0145044
741.809	0.0145142
741.887	0.0145214
741.965	0.0145212
742.043	0.0144043
742.121	0.0145305
742.200	0.0145892
742.278	0.0145727
742.356	0.0145531
742.434	0.0145012
742.512	0.0147663
742.590	0.0145641
742.668	0.0145071
742.746	0.0145863
742.825	0.0147298
742.903	0.0146708
742.981	0.0146812
743.059	0.0146539
743.137	0.0146859
743.215	0.0146747
743.293	0.0145658
743.371	0.0145515
743.450	0.0145220
743.528	0.0145593
743.606	0.0144910
743.684	0.0144598
743.762	0.0146098
743.840	0.0145018
743.918	0.0144971
743.996	0.0144868
744.075	0.0143900
744.153	0.0144610
744.231	0.0144787
744.309	0.0144370
744.387	0.0143468
744.465	0.0143083
744.543	0.0143339
744.621	0.0142480
744.700	0.0144167
744.778	0.0144294
744.856	0.0144991
744.934	0.0145023
745.012	0.0143963
745.090	0.0146405
745.168	0.0146815
745.246	0.0146414
745.325	0.0147397
745.403	0.0147784
745.481	0.0147765
745.559	0.0147715
745.637	0.0147866
745.715	0.0147350
745.793	0.0146920
745.871	0.0146806
745.950	0.0145930
746.028	0.0146603
746.106	0.0145317
746.184	0.0146548
746.262	0.0146407
746.340	0.0146322
746.418	0.0145429
746.496	0.0144952
746.575	0.0143353
746.653	0.0144751
746.731	0.0144914
746.809	0.0142144
746.887	0.0143682
746.965	0.0143150
747.043	0.0143681
747.121	0.0143359
747.200	0.0142747
747.278	0.0143822
747.356	0.0143504
747.434	0.0143279
747.512	0.0143954
747.590	0.0144016
747.668	0.0146166
747.746	0.0146613
747.825	0.0144509
747.903	0.0146616
747.981	0.0146096
748.059	0.0145412
748.137	0.0146754
748.215	0.0146614
748.293	0.0146275
748.371	0.0147034
748.450	0.0146333
748.528	0.0145325
748.606	0.0146857
748.684	0.0146375
748.762	0.0146670
748.840	0.0145638
748.918	0.0146109
748.996	0.0145348
749.075	0.0145358
749.153	0.0143900
749.231	0.0143829
749.309	0.0144246
749.387	0.0144189
749.465	0.0143970
749.543	0.0145141
749.621	0.0144781
749.700	0.0144691
749.778	0.0145206
749.856	0.0145522
749.934	0.0145238
750.012	0.0146925
750.090	0.0145773
750.168	0.0146268
750.246	0.0146016
750.325	0.0147739
750.403	0.0146506
750.481	0.0148546
750.559	0.0147593
750.637	0.0146877
750.715	0.0147643
750.793	0.0147695
750.871	0.0147748
750.950	0.0147441
751.028	0.0146376
751.106	0.0147211
751.184	0.0145633
751.262	0.0144978
751.340	0.0145402
751.418	0.0145816
751.496	0.0146510
751.575	0.0145372
751.653	0.0145565
751.731	0.0145942
751.809	0.0144525
751.887	0.0145041
751.965	0.0145262
752.043	0.0144997
752.121	0.0144107
752.200	0.0145488
752.278	0.0146038
752.356	0.0146291
752.434	0.0146622
752.512	0.0145082
752.590	0.0145507
752.668	0.0146091
752.746	0.0147724
752.825	0.0146110
752.903	0.0145544
752.981	0.0146948
753.059	0.0146862
753.137	0.0147384
753.215	0.0147204
753.293	0.0146507
753.371	0.0146326
753.450	0.0145036
753.528	0.0147573
753.606	0.0146397
753.684	0.0147001
753.762	0.0147871
753.840	0.0146082
753.918	0.0146306
753.996	0.0145972
754.075	0.0145744
754.153	0.0146152
754.231	0.0147504
754.309	0.0147262
754.387	0.0146142
754.465	0.0147080
754.543	0.0146072
754.621	0.0144865
754.700	0.0145641
754.778	0.0147298
754.856	0.0144847
754.934	0.0145270
755.012	0.0146584
755.090	0.0145876
755.168	0.0145884
755.246	0.0145316
755.325	0.0145786
755.403	0.0146539
755.481	0.0147449
755.559	0.0146046
755.637	0.0146843
755.715	0.0146341
755.793	0.0146970
755.871	0.0147540
755.950	0.0146505
756.028	0.0146864
756.106	0.0146033
756.184	0.0146197
756.262	0.0146465
756.340	0.0146337
756.418	0.0145502
756.496	0.0145738
756.575	0.0145279
756.653	0.0145586
756.731	0.0145466
756.809	0.0145322
756.887	0.0145226
756.965	0.0145026
757.043	0.0144540
757.121	0.0144382
757.200	0.0144818
757.278	0.0143599
757.356	0.0145378
757.434	0.0144708
757.512	0.0145211
757.590	0.0145641
757.668	0.0145908
757.746	0.0146039
757.825	0.0146920
757.903	0.0146089
757.981	0.0146512
758.059	0.0145568
758.137	0.0146740
758.215	0.0146844
758.293	0.0146672
758.371	0.0145990
758.450	0.0147978
758.528	0.0147818
758.606	0.0146565
758.684	0.0146233
758.762	0.0146445
758.840	0.0146465
758.918	0.0145441
758.996	0.0144349
759.075	0.0146331
759.153	0.0146645
759.231	0.0145981
759.309	0.0145828
759.387	0.0144939
759.465	0.0146601
759.543	0.0145566
759.621	0.0146766
759.700	0.0145618
759.778	0.0144946
759.856	0.0145422
759.934	0.0145618
760.012	0.0145310
760.090	0.0144472
760.168	0.0145325
760.246	0.0145542
760.325	0.0146414
760.403	0.0145683
760.481	0.0147430
760.559	0.0145462
760.637	0.0145711
760.715	0.0144985
760.793	0.0146346
760.871	0.0145121
760.950	0.0146523
761.028	0.0146841
761.106	0.0146504
761.184	0.0148259
761.262	0.0145712
761.340	0.0146008
761.418	0.0146701
761.496	0.0146326
761.575	0.0147160
761.653	0.0146728
761.731	0.0144820
761.809	0.0146308
761.887	0.0147258
761.965	0.0145520
762.043	0.0146054
762.121	0.0147614
762.200	0.0146577
762.278	0.0144946
762.356	0.0145753
762.434	0.0145949
762.512	0.0145748
762.590	0.0145267
762.668	0.0147455
762.746	0.0145472
762.825	0.0146307
762.903	0.0145990
762.981	0.0146819
763.059	0.0146792
763.137	0.0145610
763.215	0.0146117
763.293	0.0145995
763.371	0.0147513
763.450	0.0145646
763.528	0.0145705
763.606	0.0147148
763.684	0.0147614
763.762	0.0146531
763.840	0.0145782
763.918	0.0146795
763.996	0.0147204
764.075	0.0147556
764.153	0.0147780
764.231	0.0145097
764.309	0.0145313
764.387	0.0144373
764.465	0.0145215
764.543	0.0145161
764.621	0.0145889
764.700	0.0145567
