05/07/2022	17:39:13	Ver.	4.1	UNKNOWN
Optical Delay	639.989416	Delta X		0.078125	Sweeps	1	Scan Rate	0/0
Coordinates	Axis 1	NaN	Axis 2	NaN	Axis 3	NaN	Axis 4	NaN	Axis 5	NaN	Axis 6	0.000000
TX Power	0.000000	RX Power	0.000000

639.989	0.0129022
640.068	0.0129784
640.146	0.0129382
640.224	0.0129214
640.302	0.0129891
640.380	0.0129602
640.458	0.0129844
640.536	0.0129500
640.614	0.0129234
640.693	0.0129447
640.771	0.0129979
640.849	0.0129237
640.927	0.0129713
641.005	0.0130135
641.083	0.0129852
641.161	0.0129735
641.239	0.0128506
641.318	0.0129632
641.396	0.0129283
641.474	0.0128165
641.552	0.0128727
641.630	0.0129679
641.708	0.0128094
641.786	0.0128008
641.864	0.0129920
641.943	0.0128332
642.021	0.0129570
642.099	0.0130623
642.177	0.0128936
642.255	0.0128070
642.333	0.0128413
642.411	0.0129869
642.489	0.0129348
642.568	0.0128118
642.646	0.0129707
642.724	0.0130809
642.802	0.0128928
642.880	0.0129086
642.958	0.0129283
643.036	0.0129394
643.114	0.0128786
643.193	0.0129665
643.271	0.0128325
643.349	0.0127083
643.427	0.0128441
643.505	0.0128595
643.583	0.0127840
643.661	0.0127261
643.739	0.0128782
643.818	0.0128014
643.896	0.0128606
643.974	0.0128024
644.052	0.0127077
644.130	0.0126176
644.208	0.0125970
644.286	0.0126922
644.364	0.0126694
644.443	0.0126529
644.521	0.0127579
644.599	0.0126740
644.677	0.0125409
644.755	0.0124548
644.833	0.0124767
644.911	0.0125518
644.989	0.0125950
645.068	0.0126401
645.146	0.0125333
645.224	0.0125838
645.302	0.0126747
645.380	0.0124702
645.458	0.0126934
645.536	0.0126901
645.614	0.0127341
645.693	0.0127887
645.771	0.0127224
645.849	0.0127515
645.927	0.0128500
646.005	0.0127580
646.083	0.0127821
646.161	0.0127183
646.239	0.0129249
646.318	0.0128800
646.396	0.0128497
646.474	0.0128380
646.552	0.0128561
646.630	0.0128094
646.708	0.0128155
646.786	0.0128215
646.864	0.0127879
646.943	0.0127022
647.021	0.0125480
647.099	0.0125980
647.177	0.0125477
647.255	0.0125683
647.333	0.0126010
647.411	0.0126741
647.489	0.0125552
647.568	0.0125840
647.646	0.0124925
647.724	0.0124718
647.802	0.0125626
647.880	0.0124249
647.958	0.0123744
648.036	0.0125158
648.114	0.0124860
648.193	0.0123950
648.271	0.0124044
648.349	0.0123652
648.427	0.0123901
648.505	0.0124892
648.583	0.0125562
648.661	0.0123805
648.739	0.0124862
648.818	0.0126041
648.896	0.0125821
648.974	0.0127048
649.052	0.0127885
649.130	0.0129241
649.208	0.0128992
649.286	0.0128764
649.364	0.0130297
649.443	0.0130951
649.521	0.0130733
649.599	0.0132378
649.677	0.0132603
649.755	0.0131618
649.833	0.0132208
649.911	0.0132938
649.989	0.0134978
650.068	0.0133884
650.146	0.0134155
650.224	0.0132663
650.302	0.0133423
650.380	0.0131795
650.458	0.0130318
650.536	0.0131493
650.614	0.0130318
650.693	0.0128450
650.771	0.0127469
650.849	0.0126244
650.927	0.0125602
651.005	0.0123235
651.083	0.0122491
651.161	0.0120016
651.239	0.0120208
651.318	0.0119901
651.396	0.0118550
651.474	0.0117309
651.552	0.0118436
651.630	0.0117622
651.708	0.0117338
651.786	0.0117520
651.864	0.0117348
651.943	0.0117142
652.021	0.0117606
652.099	0.0119305
652.177	0.0119997
652.255	0.0121672
652.333	0.0122850
652.411	0.0124900
652.489	0.0125761
652.568	0.0126409
652.646	0.0128710
652.724	0.0129923
652.802	0.0132067
652.880	0.0133419
652.958	0.0134628
653.036	0.0137589
653.114	0.0138792
653.193	0.0139169
653.271	0.0138733
653.349	0.0141364
653.427	0.0142509
653.505	0.0142403
653.583	0.0142230
653.661	0.0143050
653.739	0.0142149
653.818	0.0141233
653.896	0.0141636
653.974	0.0140571
654.052	0.0138885
654.130	0.0135444
654.208	0.0132842
654.286	0.0132176
654.364	0.0127638
654.443	0.0125629
654.521	0.0124446
654.599	0.0121435
654.677	0.0119900
654.755	0.0116846
654.833	0.0115340
654.911	0.0114350
654.989	0.0114542
655.068	0.0112912
655.146	0.0111794
655.224	0.0110144
655.302	0.0110990
655.380	0.0112260
655.458	0.0112442
655.536	0.0112382
655.614	0.0112643
655.693	0.0115198
655.771	0.0116729
655.849	0.0117599
655.927	0.0119864
656.005	0.0121592
656.083	0.0125155
656.161	0.0126720
656.239	0.0128929
656.318	0.0131668
656.396	0.0135255
656.474	0.0138470
656.552	0.0140179
656.630	0.0141526
656.708	0.0143972
656.786	0.0146577
656.864	0.0147990
656.943	0.0150143
657.021	0.0150286
657.099	0.0149488
657.177	0.0149290
657.255	0.0150879
657.333	0.0148339
657.411	0.0147936
657.489	0.0147790
657.568	0.0145443
657.646	0.0143729
657.724	0.0139648
657.802	0.0138353
657.880	0.0136098
657.958	0.0133142
658.036	0.0131161
658.114	0.0128161
658.193	0.0124971
658.271	0.0122632
658.349	0.0120539
658.427	0.0117483
658.505	0.0114164
658.583	0.0113873
658.661	0.0111974
658.739	0.0109138
658.818	0.0108184
658.896	0.0108942
658.974	0.0108360
659.052	0.0108184
659.130	0.0107785
659.208	0.0108632
659.286	0.0109012
659.364	0.0110817
659.443	0.0111836
659.521	0.0113562
659.599	0.0113126
659.677	0.0115677
659.755	0.0116251
659.833	0.0119748
659.911	0.0123148
659.989	0.0124918
660.068	0.0127670
660.146	0.0128979
660.224	0.0131712
660.302	0.0133080
660.380	0.0137408
660.458	0.0138857
660.536	0.0139634
660.614	0.0141663
660.693	0.0142770
660.771	0.0145000
660.849	0.0146499
660.927	0.0146902
661.005	0.0148470
661.083	0.0149711
661.161	0.0150206
661.239	0.0150221
661.318	0.0149834
661.396	0.0149299
661.474	0.0149456
661.552	0.0148609
661.630	0.0148056
661.708	0.0146851
661.786	0.0145759
661.864	0.0143831
661.943	0.0142850
662.021	0.0140523
662.099	0.0139796
662.177	0.0136726
662.255	0.0134853
662.333	0.0131587
662.411	0.0130573
662.489	0.0127219
662.568	0.0124688
662.646	0.0122279
662.724	0.0120516
662.802	0.0120060
662.880	0.0116084
662.958	0.0114342
663.036	0.0113128
663.114	0.0111929
663.193	0.0110125
663.271	0.0108923
663.349	0.0108384
663.427	0.0107631
663.505	0.0106782
663.583	0.0105898
663.661	0.0106005
663.739	0.0107309
663.818	0.0108247
663.896	0.0107904
663.974	0.0111140
664.052	0.0112514
664.130	0.0114659
664.208	0.0116070
664.286	0.0118401
664.364	0.0121564
664.443	0.0123845
664.521	0.0127510
664.599	0.0129943
664.677	0.0132619
664.755	0.0136283
664.833	0.0139272
664.911	0.0141210
664.989	0.0142532
665.068	0.0143916
665.146	0.0145879
665.224	0.0148109
665.302	0.0147904
665.380	0.0150894
665.458	0.0152074
665.536	0.0152113
665.614	0.0152232
665.693	0.0152177
665.771	0.0153024
665.849	0.0151850
665.927	0.0152418
666.005	0.0149809
666.083	0.0148846
666.161	0.0147629
666.239	0.0147060
666.318	0.0143182
666.396	0.0142203
666.474	0.0139553
666.552	0.0136913
666.630	0.0134962
666.708	0.0131380
666.786	0.0128865
666.864	0.0127916
666.943	0.0125014
667.021	0.0122575
667.099	0.0119712
667.177	0.0116420
667.255	0.0114787
667.333	0.0113573
667.411	0.0110688
667.489	0.0109624
667.568	0.0107433
667.646	0.0105740
667.724	0.0106380
667.802	0.0105181
667.880	0.0105325
667.958	0.0104581
668.036	0.0105546
668.114	0.0107324
668.193	0.0108595
668.271	0.0107526
668.349	0.0109776
668.427	0.0111061
668.505	0.0113261
668.583	0.0115215
668.661	0.0116566
668.739	0.0117604
668.818	0.0121873
668.896	0.0122336
668.974	0.0122997
669.052	0.0125099
669.130	0.0128477
669.208	0.0130885
669.286	0.0131123
669.364	0.0132993
669.443	0.0135247
669.521	0.0136577
669.599	0.0139921
669.677	0.0140753
669.755	0.0141177
669.833	0.0142797
669.911	0.0143759
669.989	0.0143483
670.068	0.0145691
670.146	0.0146341
670.224	0.0147138
670.302	0.0146541
670.380	0.0147010
670.458	0.0147620
670.536	0.0146923
670.614	0.0144079
670.693	0.0143793
670.771	0.0144457
670.849	0.0144296
670.927	0.0141412
671.005	0.0141193
671.083	0.0140218
671.161	0.0137669
671.239	0.0137209
671.318	0.0134341
671.396	0.0133418
671.474	0.0131174
671.552	0.0130145
671.630	0.0127065
671.708	0.0123704
671.786	0.0122140
671.864	0.0119067
671.943	0.0116833
672.021	0.0114846
672.099	0.0113546
672.177	0.0110064
672.255	0.0110207
672.333	0.0107368
672.411	0.0104977
672.489	0.0103380
672.568	0.0103493
672.646	0.0101879
672.724	0.0102084
672.802	0.00992264
672.880	0.0100762
672.958	0.0102086
673.036	0.0104541
673.114	0.0104520
673.193	0.0107292
673.271	0.0108492
673.349	0.0111047
673.427	0.0116049
673.505	0.0117429
673.583	0.0122081
673.661	0.0123344
673.739	0.0126546
673.818	0.0130034
673.896	0.0135551
673.974	0.0137937
674.052	0.0140701
674.130	0.0144201
674.208	0.0145521
674.286	0.0146583
674.364	0.0148735
674.443	0.0151295
674.521	0.0151287
674.599	0.0151338
674.677	0.0150257
674.755	0.0152133
674.833	0.0151072
674.911	0.0150230
674.989	0.0149464
675.068	0.0148225
675.146	0.0144626
675.224	0.0142346
675.302	0.0140268
675.380	0.0137750
675.458	0.0135710
675.536	0.0133045
675.614	0.0131347
675.693	0.0127791
675.771	0.0125056
675.849	0.0126231
675.927	0.0123608
676.005	0.0122183
676.083	0.0120149
676.161	0.0121042
676.239	0.0120383
676.318	0.0120860
676.396	0.0122131
676.474	0.0120358
676.552	0.0120410
676.630	0.0122425
676.708	0.0119647
676.786	0.0120967
676.864	0.0122111
676.943	0.0121902
677.021	0.0122582
677.099	0.0121162
677.177	0.0121963
677.255	0.0120518
677.333	0.0119833
677.411	0.0120660
677.489	0.0119437
677.568	0.0118535
677.646	0.0118345
677.724	0.0117406
677.802	0.0117304
677.880	0.0117068
677.958	0.0116266
678.036	0.0116076
678.114	0.0117157
678.193	0.0116653
678.271	0.0116140
678.349	0.0117397
678.427	0.0118179
678.505	0.0118579
678.583	0.0119729
678.661	0.0121280
678.739	0.0122739
678.818	0.0125883
678.896	0.0126047
678.974	0.0129212
679.052	0.0131931
679.130	0.0134277
679.208	0.0135394
679.286	0.0137842
679.364	0.0140115
679.443	0.0141184
679.521	0.0142989
679.599	0.0144237
679.677	0.0145222
679.755	0.0145001
679.833	0.0143874
679.911	0.0142477
679.989	0.0142580
680.068	0.0141225
680.146	0.0140128
680.224	0.0136819
680.302	0.0135246
680.380	0.0134048
680.458	0.0131409
680.536	0.0127769
680.614	0.0126551
680.693	0.0124714
680.771	0.0121307
680.849	0.0119686
680.927	0.0119330
681.005	0.0116109
681.083	0.0116583
681.161	0.0115864
681.239	0.0116496
681.318	0.0115842
681.396	0.0116623
681.474	0.0118479
681.552	0.0119066
681.630	0.0121600
681.708	0.0123226
681.786	0.0126028
681.864	0.0126825
681.943	0.0128481
682.021	0.0132055
682.099	0.0133892
682.177	0.0134657
682.255	0.0137751
682.333	0.0137782
682.411	0.0137578
682.489	0.0140107
682.568	0.0139349
682.646	0.0138708
682.724	0.0138601
682.802	0.0137153
682.880	0.0134492
682.958	0.0133180
683.036	0.0132009
683.114	0.0128966
683.193	0.0126420
683.271	0.0123356
683.349	0.0120759
683.427	0.0119482
683.505	0.0116452
683.583	0.0114425
683.661	0.0114503
683.739	0.0112209
683.818	0.0111032
683.896	0.0111679
683.974	0.0111682
684.052	0.0113380
684.130	0.0115552
684.208	0.0115925
684.286	0.0118547
684.364	0.0120832
684.443	0.0123260
684.521	0.0126108
684.599	0.0130634
684.677	0.0133976
684.755	0.0136958
684.833	0.0140387
684.911	0.0142081
684.989	0.0147678
685.068	0.0148726
685.146	0.0150500
685.224	0.0152210
685.302	0.0153799
685.380	0.0152984
685.458	0.0153436
685.536	0.0153780
685.614	0.0151115
685.693	0.0150133
685.771	0.0147860
685.849	0.0144684
685.927	0.0143644
686.005	0.0139764
686.083	0.0135934
686.161	0.0133224
686.239	0.0130904
686.318	0.0126258
686.396	0.0125325
686.474	0.0122937
686.552	0.0119411
686.630	0.0118728
686.708	0.0117503
686.786	0.0115645
686.864	0.0115921
686.943	0.0116466
687.021	0.0116185
687.099	0.0117640
687.177	0.0119312
687.255	0.0120898
687.333	0.0122529
687.411	0.0122292
687.489	0.0124554
687.568	0.0127052
687.646	0.0127722
687.724	0.0129308
687.802	0.0130117
687.880	0.0131633
687.958	0.0132541
688.036	0.0132520
688.114	0.0131348
688.193	0.0131921
688.271	0.0130993
688.349	0.0131189
688.427	0.0130618
688.505	0.0129431
688.583	0.0127178
688.661	0.0126408
688.739	0.0124001
688.818	0.0122642
688.896	0.0122551
688.974	0.0119096
689.052	0.0119354
689.130	0.0118587
689.208	0.0118804
689.286	0.0118382
689.364	0.0117608
689.443	0.0119495
689.521	0.0119156
689.599	0.0119863
689.677	0.0121011
689.755	0.0122122
689.833	0.0124944
689.911	0.0127527
689.989	0.0129477
690.068	0.0131364
690.146	0.0134338
690.224	0.0136134
690.302	0.0137124
690.380	0.0139255
690.458	0.0141417
690.536	0.0145851
690.614	0.0146233
690.693	0.0145651
690.771	0.0147817
690.849	0.0145825
690.927	0.0145328
691.005	0.0145688
691.083	0.0144477
691.161	0.0143138
691.239	0.0141615
691.318	0.0138976
691.396	0.0136694
691.474	0.0133698
691.552	0.0132430
691.630	0.0127689
691.708	0.0125925
691.786	0.0121784
691.864	0.0118782
691.943	0.0117021
692.021	0.0114717
692.099	0.0111487
692.177	0.0109059
692.255	0.0108218
692.333	0.0106554
692.411	0.0106525
692.489	0.0107187
692.568	0.0107513
692.646	0.0108772
692.724	0.0109300
692.802	0.0110268
692.880	0.0112662
692.958	0.0115485
693.036	0.0117680
693.114	0.0119239
693.193	0.0121225
693.271	0.0124871
693.349	0.0127501
693.427	0.0130228
693.505	0.0133588
693.583	0.0135228
693.661	0.0137298
693.739	0.0138037
693.818	0.0139370
693.896	0.0141576
693.974	0.0142337
694.052	0.0142782
694.130	0.0143333
694.208	0.0143367
694.286	0.0142989
694.364	0.0141500
694.443	0.0141869
694.521	0.0141077
694.599	0.0139759
694.677	0.0138210
694.755	0.0136853
694.833	0.0137155
694.911	0.0134599
694.989	0.0133440
695.068	0.0131162
695.146	0.0129811
695.224	0.0128911
695.302	0.0128176
695.380	0.0127728
695.458	0.0126162
695.536	0.0124230
695.614	0.0124209
695.693	0.0124095
695.771	0.0123605
695.849	0.0122366
695.927	0.0123374
696.005	0.0123304
696.083	0.0122689
696.161	0.0122604
696.239	0.0122923
696.318	0.0124085
696.396	0.0124038
696.474	0.0125116
696.552	0.0124722
696.630	0.0126354
696.708	0.0127122
696.786	0.0126669
696.864	0.0127281
696.943	0.0127889
697.021	0.0127386
697.099	0.0127599
697.177	0.0127155
697.255	0.0127732
697.333	0.0125312
697.411	0.0126588
697.489	0.0127045
697.568	0.0124933
697.646	0.0123279
697.724	0.0122647
697.802	0.0121554
697.880	0.0121441
697.958	0.0118831
698.036	0.0119305
698.114	0.0119868
698.193	0.0119427
698.271	0.0119023
698.349	0.0118606
698.427	0.0119060
698.505	0.0119857
698.583	0.0120194
698.661	0.0120682
698.739	0.0122204
698.818	0.0123189
698.896	0.0126168
698.974	0.0127144
699.052	0.0128342
699.130	0.0127854
699.208	0.0131840
699.286	0.0133246
699.364	0.0133815
699.443	0.0136489
699.521	0.0136000
699.599	0.0136973
699.677	0.0137163
699.755	0.0139180
699.833	0.0137707
699.911	0.0136846
699.989	0.0136265
700.068	0.0134782
700.146	0.0135298
700.224	0.0134000
700.302	0.0132936
700.380	0.0131811
700.458	0.0129810
700.536	0.0130715
700.614	0.0128468
700.693	0.0129004
700.771	0.0125956
700.849	0.0124001
700.927	0.0124654
701.005	0.0124609
701.083	0.0124306
701.161	0.0122498
701.239	0.0120655
701.318	0.0120972
701.396	0.0121657
701.474	0.0120404
701.552	0.0121268
701.630	0.0121397
701.708	0.0121957
701.786	0.0121896
701.864	0.0122884
701.943	0.0123918
702.021	0.0124689
702.099	0.0124735
702.177	0.0125398
702.255	0.0128857
702.333	0.0129285
702.411	0.0130370
702.489	0.0131084
702.568	0.0130876
702.646	0.0130928
702.724	0.0131041
702.802	0.0132757
702.880	0.0132088
702.958	0.0131136
703.036	0.0129120
703.114	0.0131313
703.193	0.0130325
703.271	0.0129777
703.349	0.0128792
703.427	0.0126794
703.505	0.0128117
703.583	0.0126844
703.661	0.0125470
703.739	0.0124616
703.818	0.0123185
703.896	0.0124727
703.974	0.0123248
704.052	0.0121685
704.130	0.0123391
704.208	0.0123385
704.286	0.0122685
704.364	0.0122229
704.443	0.0123464
704.521	0.0124031
704.599	0.0124477
704.677	0.0124783
704.755	0.0126139
704.833	0.0124715
704.911	0.0125493
704.989	0.0128039
705.068	0.0127111
705.146	0.0127479
705.224	0.0128682
705.302	0.0128825
705.380	0.0129201
705.458	0.0128843
705.536	0.0130640
705.614	0.0130715
705.693	0.0130116
705.771	0.0131458
705.849	0.0132148
705.927	0.0132090
706.005	0.0132984
706.083	0.0134626
706.161	0.0134623
706.239	0.0135617
706.318	0.0136004
706.396	0.0137189
706.474	0.0137780
706.552	0.0137105
706.630	0.0137065
706.708	0.0137160
706.786	0.0138822
706.864	0.0138049
706.943	0.0136405
707.021	0.0136312
707.099	0.0136424
707.177	0.0135331
707.255	0.0135809
707.333	0.0133878
707.411	0.0132584
707.489	0.0132344
707.568	0.0130388
707.646	0.0129583
707.724	0.0126981
707.802	0.0126150
707.880	0.0125050
707.958	0.0123030
708.036	0.0122751
708.114	0.0122364
708.193	0.0122696
708.271	0.0120638
708.349	0.0120438
708.427	0.0119989
708.505	0.0119381
708.583	0.0119579
708.661	0.0120071
708.739	0.0121172
708.818	0.0120810
708.896	0.0118555
708.974	0.0120712
709.052	0.0122276
709.130	0.0122628
709.208	0.0121453
709.286	0.0123278
709.364	0.0124293
709.443	0.0124411
709.521	0.0126212
709.599	0.0126360
709.677	0.0126276
709.755	0.0128307
709.833	0.0129429
709.911	0.0130711
709.989	0.0128955
710.068	0.0129089
710.146	0.0130450
710.224	0.0129964
710.302	0.0130340
710.380	0.0131403
710.458	0.0130296
710.536	0.0130451
710.614	0.0128562
710.693	0.0128606
710.771	0.0128483
710.849	0.0128211
710.927	0.0128828
711.005	0.0127453
711.083	0.0127361
711.161	0.0126590
711.239	0.0127425
711.318	0.0128423
711.396	0.0128641
711.474	0.0128789
711.552	0.0130031
711.630	0.0129586
711.708	0.0129756
711.786	0.0131268
711.864	0.0132086
711.943	0.0132613
712.021	0.0133788
712.099	0.0134994
712.177	0.0135946
712.255	0.0136876
712.333	0.0135628
712.411	0.0137457
712.489	0.0139307
712.568	0.0139253
712.646	0.0139217
712.724	0.0137691
712.802	0.0138781
712.880	0.0137629
712.958	0.0136233
713.036	0.0135292
713.114	0.0134047
713.193	0.0133479
713.271	0.0132971
713.349	0.0130569
713.427	0.0128027
713.505	0.0126634
713.583	0.0123694
713.661	0.0124328
713.739	0.0122536
713.818	0.0119689
713.896	0.0118330
713.974	0.0116635
714.052	0.0116441
714.130	0.0115469
714.208	0.0113562
714.286	0.0115017
714.364	0.0114326
714.443	0.0115138
714.521	0.0117536
714.599	0.0117921
714.677	0.0118253
714.755	0.0119661
714.833	0.0119530
714.911	0.0122752
714.989	0.0123569
715.068	0.0124180
715.146	0.0123615
715.224	0.0125737
715.302	0.0127680
715.380	0.0130453
715.458	0.0129156
715.536	0.0130888
715.614	0.0132601
715.693	0.0131664
715.771	0.0131614
715.849	0.0131876
715.927	0.0132584
716.005	0.0131232
716.083	0.0131137
716.161	0.0131435
716.239	0.0131036
716.318	0.0130604
716.396	0.0128364
716.474	0.0128160
716.552	0.0127311
716.630	0.0127979
716.708	0.0126307
716.786	0.0124790
716.864	0.0124358
716.943	0.0126386
717.021	0.0125144
717.099	0.0126376
717.177	0.0126014
717.255	0.0126414
717.333	0.0126762
717.411	0.0128413
717.489	0.0129568
717.568	0.0130023
717.646	0.0129721
717.724	0.0131328
717.802	0.0132047
717.880	0.0134969
717.958	0.0133578
718.036	0.0135676
718.114	0.0134914
718.193	0.0134764
718.271	0.0135500
718.349	0.0134705
718.427	0.0135196
718.505	0.0135808
718.583	0.0136134
718.661	0.0136180
718.739	0.0135898
718.818	0.0133995
718.896	0.0134206
718.974	0.0132903
719.052	0.0131066
719.130	0.0129695
719.208	0.0129738
719.286	0.0130549
719.364	0.0128411
719.443	0.0128553
719.521	0.0125853
719.599	0.0124149
719.677	0.0122841
719.755	0.0121329
719.833	0.0121108
719.911	0.0119713
719.989	0.0118243
720.068	0.0118776
720.146	0.0117859
720.224	0.0117169
720.302	0.0116223
720.380	0.0117017
720.458	0.0116682
720.536	0.0115906
720.614	0.0117007
720.693	0.0117564
720.771	0.0118140
720.849	0.0119874
720.927	0.0119428
721.005	0.0118881
721.083	0.0120892
721.161	0.0121635
721.239	0.0121585
721.318	0.0123454
721.396	0.0123782
721.474	0.0124730
721.552	0.0125101
721.630	0.0127341
721.708	0.0127652
721.786	0.0129707
721.864	0.0129705
721.943	0.0130048
722.021	0.0131499
722.099	0.0132379
722.177	0.0134055
722.255	0.0133517
722.333	0.0134835
722.411	0.0135206
722.489	0.0135905
722.568	0.0136025
722.646	0.0135600
722.724	0.0134912
722.802	0.0133213
722.880	0.0133342
722.958	0.0132130
723.036	0.0133517
723.114	0.0132079
723.193	0.0129192
723.271	0.0129056
723.349	0.0129455
723.427	0.0129868
723.505	0.0128738
723.583	0.0128141
723.661	0.0128420
723.739	0.0126935
723.818	0.0126683
723.896	0.0126354
723.974	0.0126289
724.052	0.0126059
724.130	0.0125954
724.208	0.0126028
724.286	0.0124447
724.364	0.0125827
724.443	0.0127920
724.521	0.0126360
724.599	0.0127278
724.677	0.0128431
724.755	0.0128964
724.833	0.0129423
724.911	0.0129478
724.989	0.0128717
725.068	0.0127729
725.146	0.0129347
725.224	0.0128817
725.302	0.0127869
725.380	0.0128692
725.458	0.0129633
725.536	0.0128639
725.614	0.0128513
725.693	0.0127440
