05/07/2022	17:39:48	Ver.	4.1	UNKNOWN
Optical Delay	639.989416	Delta X		0.078125	Sweeps	1	Scan Rate	0/0
Coordinates	Axis 1	NaN	Axis 2	NaN	Axis 3	NaN	Axis 4	NaN	Axis 5	NaN	Axis 6	0.000000
TX Power	0.000000	RX Power	0.000000

639.989	0.0128225
640.068	0.0128467
640.146	0.0127867
640.224	0.0127159
640.302	0.0128436
640.380	0.0128391
640.458	0.0127452
640.536	0.0128176
640.614	0.0128920
640.693	0.0128647
640.771	0.0127698
640.849	0.0128288
640.927	0.0127596
641.005	0.0127367
641.083	0.0126906
641.161	0.0126601
641.239	0.0126758
641.318	0.0127399
641.396	0.0125983
641.474	0.0127182
641.552	0.0126873
641.630	0.0126339
641.708	0.0127327
641.786	0.0126601
641.864	0.0128127
641.943	0.0128189
642.021	0.0128373
642.099	0.0127939
642.177	0.0129136
642.255	0.0130042
642.333	0.0128481
642.411	0.0128543
642.489	0.0129699
642.568	0.0129919
642.646	0.0129881
642.724	0.0129173
642.802	0.0128849
642.880	0.0127633
642.958	0.0129242
643.036	0.0129659
643.114	0.0129539
643.193	0.0127157
643.271	0.0128117
643.349	0.0129182
643.427	0.0128720
643.505	0.0128374
643.583	0.0129626
643.661	0.0130107
643.739	0.0129545
643.818	0.0129475
643.896	0.0128601
643.974	0.0128960
644.052	0.0128477
644.130	0.0128904
644.208	0.0128729
644.286	0.0128799
644.364	0.0128551
644.443	0.0127139
644.521	0.0128114
644.599	0.0129050
644.677	0.0127306
644.755	0.0126324
644.833	0.0127878
644.911	0.0127316
644.989	0.0128948
645.068	0.0127065
645.146	0.0127934
645.224	0.0127271
645.302	0.0128065
645.380	0.0127997
645.458	0.0128012
645.536	0.0127466
645.614	0.0127660
645.693	0.0129962
645.771	0.0127913
645.849	0.0128043
645.927	0.0128812
646.005	0.0130222
646.083	0.0130515
646.161	0.0130608
646.239	0.0131052
646.318	0.0130502
646.396	0.0131986
646.474	0.0130135
646.552	0.0129688
646.630	0.0131284
646.708	0.0130032
646.786	0.0130575
646.864	0.0128314
646.943	0.0128656
647.021	0.0129597
647.099	0.0127396
647.177	0.0127686
647.255	0.0127110
647.333	0.0126363
647.411	0.0127603
647.489	0.0126519
647.568	0.0126254
647.646	0.0125783
647.724	0.0126891
647.802	0.0127102
647.880	0.0125289
647.958	0.0127161
648.036	0.0128233
648.114	0.0126054
648.193	0.0126180
648.271	0.0126298
648.349	0.0127966
648.427	0.0128569
648.505	0.0128033
648.583	0.0128246
648.661	0.0128677
648.739	0.0130587
648.818	0.0131006
648.896	0.0130978
648.974	0.0130058
649.052	0.0132782
649.130	0.0132867
649.208	0.0132439
649.286	0.0132725
649.364	0.0133208
649.443	0.0133273
649.521	0.0133047
649.599	0.0134771
649.677	0.0133901
649.755	0.0135033
649.833	0.0135709
649.911	0.0135573
649.989	0.0136272
650.068	0.0136706
650.146	0.0134810
650.224	0.0134192
650.302	0.0134210
650.380	0.0134029
650.458	0.0132953
650.536	0.0130709
650.614	0.0130812
650.693	0.0129196
650.771	0.0128626
650.849	0.0127953
650.927	0.0124892
651.005	0.0126691
651.083	0.0124790
651.161	0.0123058
651.239	0.0122260
651.318	0.0121558
651.396	0.0122475
651.474	0.0122602
651.552	0.0120354
651.630	0.0121956
651.708	0.0121963
651.786	0.0121190
651.864	0.0121572
651.943	0.0123119
652.021	0.0122092
652.099	0.0126254
652.177	0.0124406
652.255	0.0124742
652.333	0.0128426
652.411	0.0128985
652.489	0.0132050
652.568	0.0132681
652.646	0.0135734
652.724	0.0134413
652.802	0.0137206
652.880	0.0139045
652.958	0.0139356
653.036	0.0140514
653.114	0.0142009
653.193	0.0142532
653.271	0.0143925
653.349	0.0145388
653.427	0.0144705
653.505	0.0142208
653.583	0.0144591
653.661	0.0145472
653.739	0.0143227
653.818	0.0142340
653.896	0.0140313
653.974	0.0140021
654.052	0.0137039
654.130	0.0136248
654.208	0.0131788
654.286	0.0131314
654.364	0.0128832
654.443	0.0126925
654.521	0.0124179
654.599	0.0121270
654.677	0.0121862
654.755	0.0117302
654.833	0.0117032
654.911	0.0116689
654.989	0.0114406
655.068	0.0112374
655.146	0.0114106
655.224	0.0112929
655.302	0.0113897
655.380	0.0114936
655.458	0.0114523
655.536	0.0116424
655.614	0.0116036
655.693	0.0118048
655.771	0.0121299
655.849	0.0121445
655.927	0.0122758
656.005	0.0125305
656.083	0.0127554
656.161	0.0130798
656.239	0.0133154
656.318	0.0134867
656.396	0.0138720
656.474	0.0141093
656.552	0.0145007
656.630	0.0147544
656.708	0.0147604
656.786	0.0150507
656.864	0.0151329
656.943	0.0152013
657.021	0.0153561
657.099	0.0153449
657.177	0.0152095
657.255	0.0153046
657.333	0.0153430
657.411	0.0150254
657.489	0.0148701
657.568	0.0146819
657.646	0.0144946
657.724	0.0143141
657.802	0.0140527
657.880	0.0138606
657.958	0.0135612
658.036	0.0132649
658.114	0.0127988
658.193	0.0124355
658.271	0.0121823
658.349	0.0120646
658.427	0.0117516
658.505	0.0115091
658.583	0.0112212
658.661	0.0110605
658.739	0.0110096
658.818	0.0108659
658.896	0.0106087
658.974	0.0106694
659.052	0.0107839
659.130	0.0107069
659.208	0.0107434
659.286	0.0108081
659.364	0.0109738
659.443	0.0111032
659.521	0.0113545
659.599	0.0115528
659.677	0.0117866
659.755	0.0118124
659.833	0.0121006
659.911	0.0122834
659.989	0.0128158
660.068	0.0130116
660.146	0.0131713
660.224	0.0133488
660.302	0.0136527
660.380	0.0138773
660.458	0.0140489
660.536	0.0142680
660.614	0.0143680
660.693	0.0146002
660.771	0.0147797
660.849	0.0147581
660.927	0.0149985
661.005	0.0149947
661.083	0.0150362
661.161	0.0151263
661.239	0.0151125
661.318	0.0151142
661.396	0.0148951
661.474	0.0149241
661.552	0.0146736
661.630	0.0145463
661.708	0.0143327
661.786	0.0142730
661.864	0.0140571
661.943	0.0138792
662.021	0.0136084
662.099	0.0135069
662.177	0.0132844
662.255	0.0128364
662.333	0.0126884
662.411	0.0124903
662.489	0.0121896
662.568	0.0120594
662.646	0.0119163
662.724	0.0115815
662.802	0.0112795
662.880	0.0110406
662.958	0.0111021
663.036	0.0108167
663.114	0.0106685
663.193	0.0105564
663.271	0.0105968
663.349	0.0105124
663.427	0.0103790
663.505	0.0105064
663.583	0.0106038
663.661	0.0105186
663.739	0.0107127
663.818	0.0108745
663.896	0.0109918
663.974	0.0113322
664.052	0.0114056
664.130	0.0117764
664.208	0.0120892
664.286	0.0123620
664.364	0.0125336
664.443	0.0127720
664.521	0.0131362
664.599	0.0133962
664.677	0.0137621
664.755	0.0139527
664.833	0.0143115
664.911	0.0144316
664.989	0.0146865
665.068	0.0147694
665.146	0.0150278
665.224	0.0151665
665.302	0.0152509
665.380	0.0151664
665.458	0.0150617
665.536	0.0151637
665.614	0.0152969
665.693	0.0153211
665.771	0.0152632
665.849	0.0149330
665.927	0.0150049
666.005	0.0148415
666.083	0.0145251
666.161	0.0143723
666.239	0.0142607
666.318	0.0141460
666.396	0.0137562
666.474	0.0133662
666.552	0.0132446
666.630	0.0130368
666.708	0.0128015
666.786	0.0123572
666.864	0.0121689
666.943	0.0118944
667.021	0.0118028
667.099	0.0114867
667.177	0.0113087
667.255	0.0110163
667.333	0.0109585
667.411	0.0107943
667.489	0.0106425
667.568	0.0105276
667.646	0.0105087
667.724	0.0104251
667.802	0.0104211
667.880	0.0105768
667.958	0.0106328
668.036	0.0108238
668.114	0.0109290
668.193	0.0111392
668.271	0.0110590
668.349	0.0112213
668.427	0.0114487
668.505	0.0116105
668.583	0.0117869
668.661	0.0120080
668.739	0.0120428
668.818	0.0122566
668.896	0.0126599
668.974	0.0127851
669.052	0.0128790
669.130	0.0130251
669.208	0.0133930
669.286	0.0136092
669.364	0.0137447
669.443	0.0138897
669.521	0.0141610
669.599	0.0141066
669.677	0.0141005
669.755	0.0144564
669.833	0.0145448
669.911	0.0144781
669.989	0.0146579
670.068	0.0147028
670.146	0.0147697
670.224	0.0148138
670.302	0.0147905
670.380	0.0148039
670.458	0.0147291
670.536	0.0147643
670.614	0.0145621
670.693	0.0145514
670.771	0.0144786
670.849	0.0142258
670.927	0.0142254
671.005	0.0141470
671.083	0.0138649
671.161	0.0136562
671.239	0.0133550
671.318	0.0133294
671.396	0.0132780
671.474	0.0128741
671.552	0.0125941
671.630	0.0125095
671.708	0.0122617
671.786	0.0120619
671.864	0.0119058
671.943	0.0116551
672.021	0.0113629
672.099	0.0112416
672.177	0.0109582
672.255	0.0109000
672.333	0.0107396
672.411	0.0106487
672.489	0.0104942
672.568	0.0104020
672.646	0.0104423
672.724	0.0103868
672.802	0.0104287
672.880	0.0103490
672.958	0.0105009
673.036	0.0107432
673.114	0.0108416
673.193	0.0110626
673.271	0.0113680
673.349	0.0117065
673.427	0.0119632
673.505	0.0121207
673.583	0.0125038
673.661	0.0127055
673.739	0.0130301
673.818	0.0132861
673.896	0.0135003
673.974	0.0137923
674.052	0.0139523
674.130	0.0141844
674.208	0.0143465
674.286	0.0145119
674.364	0.0146504
674.443	0.0147163
674.521	0.0149315
674.599	0.0148985
674.677	0.0148288
674.755	0.0148092
674.833	0.0149123
674.911	0.0147722
674.989	0.0146047
675.068	0.0143851
675.146	0.0144301
675.224	0.0142687
675.302	0.0142052
675.380	0.0139639
675.458	0.0137621
675.536	0.0136771
675.614	0.0136543
675.693	0.0135416
675.771	0.0132027
675.849	0.0131746
675.927	0.0131024
676.005	0.0130926
676.083	0.0129650
676.161	0.0130327
676.239	0.0128751
676.318	0.0127557
676.396	0.0126693
676.474	0.0127975
676.552	0.0127454
676.630	0.0127297
676.708	0.0127228
676.786	0.0125710
676.864	0.0125496
676.943	0.0123708
677.021	0.0123051
677.099	0.0123183
677.177	0.0122421
677.255	0.0120566
677.333	0.0121102
677.411	0.0119264
677.489	0.0118307
677.568	0.0116966
677.646	0.0115475
677.724	0.0116344
677.802	0.0115279
677.880	0.0114614
677.958	0.0115257
678.036	0.0118027
678.114	0.0115172
678.193	0.0117453
678.271	0.0116534
678.349	0.0119448
678.427	0.0121314
678.505	0.0121758
678.583	0.0124657
678.661	0.0128677
678.739	0.0128249
678.818	0.0130801
678.896	0.0133806
678.974	0.0135815
679.052	0.0137823
679.130	0.0140892
679.208	0.0144147
679.286	0.0147075
679.364	0.0147976
679.443	0.0149776
679.521	0.0152037
679.599	0.0151515
679.677	0.0150699
679.755	0.0152160
679.833	0.0151071
679.911	0.0150378
679.989	0.0148553
680.068	0.0147654
680.146	0.0145496
680.224	0.0143689
680.302	0.0140476
680.380	0.0138055
680.458	0.0136153
680.536	0.0133750
680.614	0.0130651
680.693	0.0127785
680.771	0.0125468
680.849	0.0125349
680.927	0.0123003
681.005	0.0120257
681.083	0.0121709
681.161	0.0118771
681.239	0.0118975
681.318	0.0119025
681.396	0.0119691
681.474	0.0119791
681.552	0.0121587
681.630	0.0121571
681.708	0.0122600
681.786	0.0125236
681.864	0.0126913
681.943	0.0128166
682.021	0.0128223
682.099	0.0131359
682.177	0.0129896
682.255	0.0131580
682.333	0.0132123
682.411	0.0132995
682.489	0.0132733
682.568	0.0131949
682.646	0.0132710
682.724	0.0130806
682.802	0.0130286
682.880	0.0130381
682.958	0.0128043
683.036	0.0127148
683.114	0.0125558
683.193	0.0126143
683.271	0.0122965
683.349	0.0121001
683.427	0.0119470
683.505	0.0118807
683.583	0.0118388
683.661	0.0116525
683.739	0.0118391
683.818	0.0116787
683.896	0.0116185
683.974	0.0116784
684.052	0.0118002
684.130	0.0119299
684.208	0.0121523
684.286	0.0123318
684.364	0.0124976
684.443	0.0127534
684.521	0.0129736
684.599	0.0132706
684.677	0.0134892
684.755	0.0136813
684.833	0.0140274
684.911	0.0142085
684.989	0.0143549
685.068	0.0144878
685.146	0.0145221
685.224	0.0145334
685.302	0.0145905
685.380	0.0147852
685.458	0.0146049
685.536	0.0143832
685.614	0.0144048
685.693	0.0142197
685.771	0.0140131
685.849	0.0136985
685.927	0.0134869
686.005	0.0131741
686.083	0.0131484
686.161	0.0129095
686.239	0.0124571
686.318	0.0124126
686.396	0.0121571
686.474	0.0120120
686.552	0.0120252
686.630	0.0118090
686.708	0.0117490
686.786	0.0118545
686.864	0.0116666
686.943	0.0119246
687.021	0.0119696
687.099	0.0121259
687.177	0.0122904
687.255	0.0123370
687.333	0.0125240
687.411	0.0126426
687.489	0.0129230
687.568	0.0130486
687.646	0.0132433
687.724	0.0134241
687.802	0.0133700
687.880	0.0133797
687.958	0.0135715
688.036	0.0136296
688.114	0.0136235
688.193	0.0135029
688.271	0.0134655
688.349	0.0134360
688.427	0.0132562
688.505	0.0130508
688.583	0.0127930
688.661	0.0126250
688.739	0.0125548
688.818	0.0124297
688.896	0.0121712
688.974	0.0120272
689.052	0.0119867
689.130	0.0117657
689.208	0.0116567
689.286	0.0116306
689.364	0.0115662
689.443	0.0116367
689.521	0.0117960
689.599	0.0119621
689.677	0.0119603
689.755	0.0121268
689.833	0.0122051
689.911	0.0123573
689.989	0.0127780
690.068	0.0129655
690.146	0.0130770
690.224	0.0133970
690.302	0.0136628
690.380	0.0138785
690.458	0.0141418
690.536	0.0141983
690.614	0.0141714
690.693	0.0145061
690.771	0.0144983
690.849	0.0145336
690.927	0.0146885
691.005	0.0146065
691.083	0.0145218
691.161	0.0144717
691.239	0.0144250
691.318	0.0141487
691.396	0.0139808
691.474	0.0138572
691.552	0.0135676
691.630	0.0134076
691.708	0.0131706
691.786	0.0127618
691.864	0.0124947
691.943	0.0124050
692.021	0.0121245
692.099	0.0119716
692.177	0.0116725
692.255	0.0116109
692.333	0.0114754
692.411	0.0112220
692.489	0.0112548
692.568	0.0112497
692.646	0.0113540
692.724	0.0113185
692.802	0.0113149
692.880	0.0114874
692.958	0.0116043
693.036	0.0117724
693.114	0.0118292
693.193	0.0120696
693.271	0.0122164
693.349	0.0124191
693.427	0.0125910
693.505	0.0127468
693.583	0.0127296
693.661	0.0131082
693.739	0.0132475
693.818	0.0132738
693.896	0.0132707
693.974	0.0133118
694.052	0.0134174
694.130	0.0135680
694.208	0.0136252
694.286	0.0135977
694.364	0.0133643
694.443	0.0133542
694.521	0.0132061
694.599	0.0132565
694.677	0.0133361
694.755	0.0132192
694.833	0.0132059
694.911	0.0130999
694.989	0.0130933
695.068	0.0130695
695.146	0.0130790
695.224	0.0130270
695.302	0.0130781
695.380	0.0130800
695.458	0.0129121
695.536	0.0128719
695.614	0.0129644
695.693	0.0129945
695.771	0.0130696
695.849	0.0130034
695.927	0.0129743
696.005	0.0129683
696.083	0.0128748
696.161	0.0130003
696.239	0.0129922
696.318	0.0131892
696.396	0.0131157
696.474	0.0131128
696.552	0.0131431
696.630	0.0132635
696.708	0.0131691
696.786	0.0131268
696.864	0.0132114
696.943	0.0131023
697.021	0.0129585
697.099	0.0130342
697.177	0.0129377
697.255	0.0128301
697.333	0.0128545
697.411	0.0126783
697.489	0.0125566
697.568	0.0124812
697.646	0.0123548
697.724	0.0123246
697.802	0.0122472
697.880	0.0121663
697.958	0.0120851
698.036	0.0119613
698.114	0.0120248
698.193	0.0119712
698.271	0.0119140
698.349	0.0119734
698.427	0.0119306
698.505	0.0120119
698.583	0.0120704
698.661	0.0123258
698.739	0.0123258
698.818	0.0125085
698.896	0.0127872
698.974	0.0127150
699.052	0.0129836
699.130	0.0132140
699.208	0.0134548
699.286	0.0135797
699.364	0.0136065
699.443	0.0137339
699.521	0.0140240
699.599	0.0141231
699.677	0.0142577
699.755	0.0143769
699.833	0.0143521
699.911	0.0144778
699.989	0.0143881
700.068	0.0143973
700.146	0.0143735
700.224	0.0141290
700.302	0.0140842
700.380	0.0139055
700.458	0.0136043
700.536	0.0137014
700.614	0.0135976
700.693	0.0131261
700.771	0.0131281
700.849	0.0128864
700.927	0.0126831
701.005	0.0126527
701.083	0.0124997
701.161	0.0121828
701.239	0.0121090
701.318	0.0120956
701.396	0.0118903
701.474	0.0120607
701.552	0.0119122
701.630	0.0118157
701.708	0.0119157
701.786	0.0119525
701.864	0.0119371
701.943	0.0120921
702.021	0.0122360
702.099	0.0121838
702.177	0.0124455
702.255	0.0125205
702.333	0.0126456
702.411	0.0128182
702.489	0.0129934
702.568	0.0132039
702.646	0.0134017
702.724	0.0135654
702.802	0.0135893
702.880	0.0137431
702.958	0.0137856
703.036	0.0137857
703.114	0.0137367
703.193	0.0138036
703.271	0.0136358
703.349	0.0136115
703.427	0.0135828
703.505	0.0135954
703.583	0.0132996
703.661	0.0131566
703.739	0.0130296
703.818	0.0129241
703.896	0.0128944
703.974	0.0128368
704.052	0.0125968
704.130	0.0124398
704.208	0.0124790
704.286	0.0123199
704.364	0.0123678
704.443	0.0122927
704.521	0.0121259
704.599	0.0122742
704.677	0.0122414
704.755	0.0122155
704.833	0.0123387
704.911	0.0122974
704.989	0.0123264
705.068	0.0125263
705.146	0.0125950
705.224	0.0126538
705.302	0.0126876
705.380	0.0127745
705.458	0.0129510
705.536	0.0128021
705.614	0.0129932
705.693	0.0132550
705.771	0.0132343
705.849	0.0132929
705.927	0.0133093
706.005	0.0134892
706.083	0.0135207
706.161	0.0134730
706.239	0.0135431
706.318	0.0136520
706.396	0.0135121
706.474	0.0134338
706.552	0.0134278
706.630	0.0134856
706.708	0.0133865
706.786	0.0134029
706.864	0.0133082
706.943	0.0131633
707.021	0.0132069
707.099	0.0131197
707.177	0.0130520
707.255	0.0130376
707.333	0.0128939
707.411	0.0129964
707.489	0.0129998
707.568	0.0129227
707.646	0.0126183
707.724	0.0126907
707.802	0.0127794
707.880	0.0126145
707.958	0.0125890
708.036	0.0126313
708.114	0.0127156
708.193	0.0127088
708.271	0.0126101
708.349	0.0127426
708.427	0.0126311
708.505	0.0127673
708.583	0.0127091
708.661	0.0127999
708.739	0.0126257
708.818	0.0126333
708.896	0.0126497
708.974	0.0126618
709.052	0.0126478
709.130	0.0126589
709.208	0.0126898
709.286	0.0125807
709.364	0.0125795
709.443	0.0125304
709.521	0.0124857
709.599	0.0124827
709.677	0.0124139
709.755	0.0123736
709.833	0.0125118
709.911	0.0125241
709.989	0.0124966
710.068	0.0124205
710.146	0.0125806
710.224	0.0126236
710.302	0.0126696
710.380	0.0126363
710.458	0.0127022
710.536	0.0127497
710.614	0.0128754
710.693	0.0128759
710.771	0.0129652
710.849	0.0129063
710.927	0.0128571
711.005	0.0128414
711.083	0.0128781
711.161	0.0127753
711.239	0.0128320
711.318	0.0129099
711.396	0.0129102
711.474	0.0130079
711.552	0.0130570
711.630	0.0131787
711.708	0.0131876
711.786	0.0133188
711.864	0.0133558
711.943	0.0134925
712.021	0.0134426
712.099	0.0134357
712.177	0.0135606
712.255	0.0134833
712.333	0.0136971
712.411	0.0136958
712.489	0.0136755
712.568	0.0137574
712.646	0.0136543
712.724	0.0135496
712.802	0.0135946
712.880	0.0136058
712.958	0.0134411
713.036	0.0134119
713.114	0.0131016
713.193	0.0130668
713.271	0.0131423
713.349	0.0130108
713.427	0.0127789
713.505	0.0127059
713.583	0.0125810
713.661	0.0126545
713.739	0.0123628
713.818	0.0124839
713.896	0.0125605
713.974	0.0122900
714.052	0.0120336
714.130	0.0119971
714.208	0.0118847
714.286	0.0120837
714.364	0.0119225
714.443	0.0119008
714.521	0.0119654
714.599	0.0119949
714.677	0.0120037
714.755	0.0119869
714.833	0.0121603
714.911	0.0122411
714.989	0.0122546
715.068	0.0124333
715.146	0.0125959
715.224	0.0124530
715.302	0.0127036
715.380	0.0129213
715.458	0.0128381
715.536	0.0129652
715.614	0.0130257
715.693	0.0131841
715.771	0.0130563
715.849	0.0131693
715.927	0.0129886
716.005	0.0130407
716.083	0.0131376
716.161	0.0130050
716.239	0.0129437
716.318	0.0128421
716.396	0.0127908
716.474	0.0128088
716.552	0.0127875
716.630	0.0126922
716.708	0.0126205
716.786	0.0125678
716.864	0.0126340
716.943	0.0125848
717.021	0.0124603
717.099	0.0124857
717.177	0.0123623
717.255	0.0126316
717.333	0.0126031
717.411	0.0126778
717.489	0.0125218
717.568	0.0126537
717.646	0.0126517
717.724	0.0126597
717.802	0.0127984
717.880	0.0130041
717.958	0.0130161
718.036	0.0131528
718.114	0.0133080
718.193	0.0134453
718.271	0.0133334
718.349	0.0134922
718.427	0.0135960
718.505	0.0135300
718.583	0.0136616
718.661	0.0136937
718.739	0.0136514
718.818	0.0136983
718.896	0.0137363
718.974	0.0137617
719.052	0.0136960
719.130	0.0135791
719.208	0.0135725
719.286	0.0136152
719.364	0.0134160
719.443	0.0132575
719.521	0.0131495
719.599	0.0130437
719.677	0.0130999
719.755	0.0128745
719.833	0.0127083
719.911	0.0123592
719.989	0.0124156
720.068	0.0122762
720.146	0.0120196
720.224	0.0120658
720.302	0.0118720
720.380	0.0119362
720.458	0.0119429
720.536	0.0118193
720.614	0.0117228
720.693	0.0117531
720.771	0.0117432
720.849	0.0117259
720.927	0.0118529
721.005	0.0118039
721.083	0.0120341
721.161	0.0117921
721.239	0.0121267
721.318	0.0121192
721.396	0.0123356
721.474	0.0121915
721.552	0.0124759
721.630	0.0125837
721.708	0.0127362
721.786	0.0128448
721.864	0.0130560
721.943	0.0131233
722.021	0.0133021
722.099	0.0134655
722.177	0.0135379
722.255	0.0136218
722.333	0.0137337
722.411	0.0138757
722.489	0.0138985
722.568	0.0138802
722.646	0.0139664
722.724	0.0139719
722.802	0.0141212
722.880	0.0140309
722.958	0.0139586
723.036	0.0139870
723.114	0.0140128
723.193	0.0139363
723.271	0.0138659
723.349	0.0137931
723.427	0.0137997
723.505	0.0136332
723.583	0.0133708
723.661	0.0133370
723.739	0.0132124
723.818	0.0130506
723.896	0.0130305
723.974	0.0129153
724.052	0.0128545
724.130	0.0128457
724.208	0.0129075
724.286	0.0127842
724.364	0.0130163
724.443	0.0127749
724.521	0.0128574
724.599	0.0128354
724.677	0.0128016
724.755	0.0128748
724.833	0.0129546
724.911	0.0129618
724.989	0.0130318
725.068	0.0130799
725.146	0.0131389
725.224	0.0131609
725.302	0.0130836
725.380	0.0129158
725.458	0.0131000
725.536	0.0130765
725.614	0.0131275
725.693	0.0130462
