05/07/2022	17:02:46	Ver.	4.1	UNKNOWN
Optical Delay	639.989416	Delta X		0.078125	Sweeps	1	Scan Rate	0/0
Coordinates	Axis 1	NaN	Axis 2	NaN	Axis 3	NaN	Axis 4	NaN	Axis 5	NaN	Axis 6	0.000000
TX Power	0.000000	RX Power	0.000000

639.989	0.0127882
640.068	0.0128567
640.146	0.0128383
640.224	0.0128949
640.302	0.0129031
640.380	0.0128098
640.458	0.0127820
640.536	0.0127941
640.614	0.0127981
640.693	0.0127951
640.771	0.0128487
640.849	0.0128152
640.927	0.0127579
641.005	0.0128808
641.083	0.0129216
641.161	0.0128777
641.239	0.0127570
641.318	0.0128532
641.396	0.0128351
641.474	0.0128255
641.552	0.0127583
641.630	0.0128938
641.708	0.0127973
641.786	0.0127619
641.864	0.0127070
641.943	0.0128610
642.021	0.0127799
642.099	0.0127905
642.177	0.0129105
642.255	0.0128126
642.333	0.0127745
642.411	0.0127862
642.489	0.0126777
642.568	0.0126692
642.646	0.0127814
642.724	0.0127291
642.802	0.0128512
642.880	0.0126431
642.958	0.0126436
643.036	0.0127900
643.114	0.0129095
643.193	0.0128385
643.271	0.0127392
643.349	0.0128754
643.427	0.0128158
643.505	0.0127512
643.583	0.0126105
643.661	0.0128343
643.739	0.0127810
643.818	0.0127020
643.896	0.0127090
643.974	0.0127859
644.052	0.0128422
644.130	0.0127190
644.208	0.0128878
644.286	0.0127079
644.364	0.0126308
644.443	0.0128599
644.521	0.0128342
644.599	0.0127891
644.677	0.0127163
644.755	0.0128835
644.833	0.0127906
644.911	0.0128495
644.989	0.0128293
645.068	0.0128423
645.146	0.0129303
645.224	0.0129099
645.302	0.0128922
645.380	0.0127364
645.458	0.0129007
645.536	0.0128688
645.614	0.0128444
645.693	0.0127431
645.771	0.0128472
645.849	0.0128041
645.927	0.0128360
646.005	0.0128333
646.083	0.0128283
646.161	0.0128102
646.239	0.0128333
646.318	0.0128138
646.396	0.0127290
646.474	0.0128803
646.552	0.0129043
646.630	0.0127470
646.708	0.0128043
646.786	0.0128544
646.864	0.0128530
646.943	0.0128149
647.021	0.0127557
647.099	0.0127985
647.177	0.0129043
647.255	0.0129009
647.333	0.0127277
647.411	0.0129476
647.489	0.0129021
647.568	0.0127061
647.646	0.0128244
647.724	0.0129721
647.802	0.0128548
647.880	0.0127692
647.958	0.0127502
648.036	0.0128749
648.114	0.0127375
648.193	0.0127948
648.271	0.0129167
648.349	0.0128126
648.427	0.0127981
648.505	0.0127495
648.583	0.0128230
648.661	0.0128802
648.739	0.0128338
648.818	0.0129645
648.896	0.0128214
648.974	0.0127508
649.052	0.0128687
649.130	0.0129037
649.208	0.0127732
649.286	0.0128098
649.364	0.0127895
649.443	0.0128249
649.521	0.0129125
649.599	0.0127688
649.677	0.0128548
649.755	0.0128543
649.833	0.0128122
649.911	0.0128122
649.989	0.0128522
650.068	0.0127924
650.146	0.0127186
650.224	0.0127482
650.302	0.0128676
650.380	0.0128989
650.458	0.0128653
650.536	0.0128706
650.614	0.0128296
650.693	0.0128130
650.771	0.0128186
650.849	0.0128497
650.927	0.0128313
651.005	0.0128728
651.083	0.0128434
651.161	0.0127589
651.239	0.0127029
651.318	0.0127049
651.396	0.0126852
651.474	0.0129626
651.552	0.0128673
651.630	0.0127530
651.708	0.0127679
651.786	0.0127856
651.864	0.0129983
651.943	0.0127584
652.021	0.0127773
652.099	0.0129146
652.177	0.0127430
652.255	0.0128680
652.333	0.0128732
652.411	0.0127803
652.489	0.0127529
652.568	0.0127090
652.646	0.0127884
652.724	0.0129534
652.802	0.0128635
652.880	0.0127524
652.958	0.0127387
653.036	0.0127805
653.114	0.0127106
653.193	0.0127526
653.271	0.0128777
653.349	0.0128220
653.427	0.0128647
653.505	0.0128883
653.583	0.0129597
653.661	0.0128490
653.739	0.0128683
653.818	0.0126875
653.896	0.0127213
653.974	0.0127759
654.052	0.0128168
654.130	0.0128119
654.208	0.0128360
654.286	0.0127241
654.364	0.0126469
654.443	0.0128879
654.521	0.0128803
654.599	0.0127628
654.677	0.0128488
654.755	0.0127359
654.833	0.0128141
654.911	0.0129318
654.989	0.0126966
655.068	0.0127931
655.146	0.0129088
655.224	0.0127906
655.302	0.0127753
655.380	0.0127635
655.458	0.0127351
655.536	0.0128528
655.614	0.0128799
655.693	0.0128594
655.771	0.0128104
655.849	0.0128234
655.927	0.0127731
656.005	0.0128100
656.083	0.0127638
656.161	0.0127240
656.239	0.0128497
656.318	0.0128086
656.396	0.0129082
656.474	0.0128580
656.552	0.0128704
656.630	0.0127843
656.708	0.0128906
656.786	0.0129967
656.864	0.0128732
656.943	0.0127399
657.021	0.0127910
657.099	0.0127701
657.177	0.0129058
657.255	0.0127383
657.333	0.0127464
657.411	0.0127933
657.489	0.0128420
657.568	0.0128371
657.646	0.0128153
657.724	0.0130042
657.802	0.0128484
657.880	0.0128133
657.958	0.0128794
658.036	0.0128270
658.114	0.0127212
658.193	0.0128564
658.271	0.0127498
658.349	0.0127286
658.427	0.0128550
658.505	0.0128246
658.583	0.0127688
658.661	0.0127213
658.739	0.0128185
658.818	0.0126952
658.896	0.0127463
658.974	0.0128336
659.052	0.0127705
659.130	0.0128655
659.208	0.0128155
659.286	0.0127547
659.364	0.0128790
659.443	0.0128879
659.521	0.0126853
659.599	0.0127951
659.677	0.0127881
659.755	0.0128516
659.833	0.0128382
659.911	0.0128227
659.989	0.0128870
660.068	0.0128664
660.146	0.0128445
660.224	0.0127863
660.302	0.0126788
660.380	0.0128105
660.458	0.0129868
660.536	0.0126988
660.614	0.0128237
660.693	0.0129172
660.771	0.0128168
660.849	0.0127500
660.927	0.0128456
661.005	0.0126673
661.083	0.0128362
661.161	0.0127992
661.239	0.0126924
661.318	0.0126908
661.396	0.0127361
661.474	0.0128233
661.552	0.0128368
661.630	0.0126247
661.708	0.0126167
661.786	0.0127242
661.864	0.0127135
661.943	0.0128042
662.021	0.0127168
662.099	0.0128368
662.177	0.0128757
662.255	0.0127659
662.333	0.0128619
662.411	0.0127623
662.489	0.0126778
662.568	0.0129179
662.646	0.0128751
662.724	0.0128319
662.802	0.0129153
662.880	0.0128271
662.958	0.0127544
663.036	0.0127659
663.114	0.0127492
663.193	0.0127534
663.271	0.0128876
663.349	0.0128028
663.427	0.0127006
663.505	0.0126775
663.583	0.0127749
663.661	0.0128648
663.739	0.0126727
663.818	0.0127517
663.896	0.0128638
663.974	0.0128001
664.052	0.0127722
664.130	0.0128981
664.208	0.0127843
664.286	0.0127676
664.364	0.0127464
664.443	0.0128143
664.521	0.0129142
664.599	0.0128145
664.677	0.0128184
664.755	0.0127210
664.833	0.0127793
664.911	0.0128239
664.989	0.0128903
665.068	0.0127775
665.146	0.0126585
665.224	0.0128143
665.302	0.0128231
665.380	0.0128091
665.458	0.0128091
665.536	0.0127565
665.614	0.0128722
665.693	0.0129484
665.771	0.0127525
665.849	0.0127045
665.927	0.0127800
666.005	0.0128342
666.083	0.0127444
666.161	0.0127206
666.239	0.0126913
666.318	0.0126910
666.396	0.0128498
666.474	0.0128460
666.552	0.0126627
666.630	0.0128213
666.708	0.0127683
666.786	0.0126888
666.864	0.0127898
666.943	0.0126166
667.021	0.0127956
667.099	0.0128442
667.177	0.0127090
667.255	0.0126799
667.333	0.0128011
667.411	0.0128415
667.489	0.0126331
667.568	0.0127324
667.646	0.0128748
667.724	0.0127026
667.802	0.0127472
667.880	0.0126962
667.958	0.0128559
668.036	0.0128040
668.114	0.0127161
668.193	0.0127765
668.271	0.0128580
668.349	0.0127070
668.427	0.0128329
668.505	0.0126265
668.583	0.0128500
668.661	0.0128211
668.739	0.0125593
668.818	0.0126813
668.896	0.0128400
668.974	0.0127843
669.052	0.0127020
669.130	0.0127011
669.208	0.0126801
669.286	0.0127796
669.364	0.0127736
669.443	0.0128152
669.521	0.0128242
669.599	0.0126833
669.677	0.0127497
669.755	0.0127082
669.833	0.0127892
669.911	0.0127701
669.989	0.0128004
670.068	0.0128288
670.146	0.0128233
670.224	0.0128777
670.302	0.0128410
670.380	0.0127839
670.458	0.0128236
670.536	0.0128335
670.614	0.0127165
670.693	0.0127754
670.771	0.0128630
670.849	0.0128828
670.927	0.0128540
671.005	0.0129191
671.083	0.0128152
671.161	0.0128319
671.239	0.0128664
671.318	0.0127688
671.396	0.0129028
671.474	0.0127541
671.552	0.0129135
671.630	0.0127794
671.708	0.0128258
671.786	0.0129170
671.864	0.0128297
671.943	0.0127557
672.021	0.0129244
672.099	0.0127839
672.177	0.0127418
672.255	0.0129370
672.333	0.0127873
672.411	0.0127803
672.489	0.0130614
672.568	0.0128439
672.646	0.0128932
672.724	0.0129318
672.802	0.0128569
672.880	0.0127979
672.958	0.0129255
673.036	0.0129395
673.114	0.0127767
673.193	0.0128987
673.271	0.0128651
673.349	0.0129085
673.427	0.0129434
673.505	0.0129089
673.583	0.0128528
673.661	0.0127486
673.739	0.0127480
673.818	0.0128366
673.896	0.0129630
673.974	0.0128543
674.052	0.0128838
674.130	0.0130400
674.208	0.0127617
674.286	0.0128013
674.364	0.0129633
674.443	0.0128963
674.521	0.0129410
674.599	0.0129003
674.677	0.0129861
674.755	0.0128289
674.833	0.0128944
674.911	0.0129741
674.989	0.0129676
675.068	0.0128661
675.146	0.0128104
675.224	0.0127306
675.302	0.0128186
675.380	0.0128748
675.458	0.0128404
675.536	0.0128731
675.614	0.0128095
675.693	0.0128665
675.771	0.0129208
675.849	0.0128359
675.927	0.0128392
676.005	0.0128088
676.083	0.0128900
676.161	0.0128374
676.239	0.0129294
676.318	0.0127810
676.396	0.0127729
676.474	0.0128552
676.552	0.0128226
676.630	0.0127320
676.708	0.0126871
676.786	0.0128533
676.864	0.0127872
676.943	0.0128262
677.021	0.0127956
677.099	0.0128643
677.177	0.0127431
677.255	0.0127853
677.333	0.0128951
677.411	0.0128313
677.489	0.0128111
677.568	0.0129164
677.646	0.0127499
677.724	0.0126637
677.802	0.0128758
677.880	0.0128561
677.958	0.0127076
678.036	0.0127937
678.114	0.0127572
678.193	0.0128409
678.271	0.0128099
678.349	0.0127595
678.427	0.0127617
678.505	0.0128232
678.583	0.0128025
678.661	0.0127792
678.739	0.0128346
678.818	0.0127835
678.896	0.0126672
678.974	0.0127162
679.052	0.0128360
679.130	0.0127679
679.208	0.0128733
679.286	0.0128088
679.364	0.0126876
679.443	0.0127081
679.521	0.0127607
679.599	0.0126957
679.677	0.0126678
679.755	0.0128574
679.833	0.0127606
679.911	0.0127708
679.989	0.0127767
680.068	0.0127008
680.146	0.0127544
680.224	0.0128275
680.302	0.0127690
680.380	0.0128101
680.458	0.0126768
680.536	0.0128082
680.614	0.0127525
680.693	0.0127867
680.771	0.0129205
680.849	0.0128729
680.927	0.0128581
681.005	0.0128135
681.083	0.0128714
681.161	0.0127917
681.239	0.0127861
681.318	0.0128490
681.396	0.0128100
681.474	0.0128167
681.552	0.0127744
681.630	0.0127041
681.708	0.0129456
681.786	0.0127923
681.864	0.0128133
681.943	0.0127590
682.021	0.0128318
682.099	0.0126618
682.177	0.0129541
682.255	0.0128207
682.333	0.0127325
682.411	0.0129044
682.489	0.0129147
682.568	0.0128569
682.646	0.0129053
682.724	0.0129237
682.802	0.0129599
682.880	0.0129340
682.958	0.0129270
683.036	0.0127868
683.114	0.0127789
683.193	0.0128476
683.271	0.0128669
683.349	0.0128469
683.427	0.0129077
683.505	0.0128886
683.583	0.0129591
683.661	0.0129882
683.739	0.0128884
683.818	0.0128664
683.896	0.0129868
683.974	0.0130876
684.052	0.0128310
684.130	0.0128162
684.208	0.0129375
684.286	0.0130048
684.364	0.0129372
684.443	0.0128130
684.521	0.0128741
684.599	0.0127463
684.677	0.0127219
684.755	0.0128152
684.833	0.0127566
684.911	0.0129420
684.989	0.0129576
685.068	0.0131142
685.146	0.0129833
685.224	0.0129459
685.302	0.0129338
685.380	0.0129424
685.458	0.0128487
685.536	0.0128136
685.614	0.0127634
685.693	0.0126232
685.771	0.0126919
685.849	0.0126678
685.927	0.0125407
686.005	0.0128085
686.083	0.0128188
686.161	0.0130077
686.239	0.0131005
686.318	0.0131961
686.396	0.0133118
686.474	0.0132011
686.552	0.0133412
686.630	0.0134248
686.708	0.0132626
686.786	0.0132018
686.864	0.0130386
686.943	0.0128985
687.021	0.0126707
687.099	0.0124745
687.177	0.0123105
687.255	0.0121481
687.333	0.0120708
687.411	0.0121024
687.489	0.0121777
687.568	0.0122012
687.646	0.0123825
687.724	0.0123743
687.802	0.0125863
687.880	0.0128975
687.958	0.0129109
688.036	0.0131561
688.114	0.0132834
688.193	0.0135726
688.271	0.0135169
688.349	0.0135837
688.427	0.0135088
688.505	0.0135363
688.583	0.0135398
688.661	0.0132455
688.739	0.0132541
688.818	0.0129633
688.896	0.0127731
688.974	0.0125773
689.052	0.0123683
689.130	0.0122202
689.208	0.0120995
689.286	0.0119160
689.364	0.0118915
689.443	0.0118616
689.521	0.0118942
689.599	0.0118541
689.677	0.0119354
689.755	0.0120953
689.833	0.0121465
689.911	0.0124062
689.989	0.0124944
690.068	0.0125957
690.146	0.0127805
690.224	0.0131085
690.302	0.0131407
690.380	0.0133002
690.458	0.0135978
690.536	0.0136247
690.614	0.0137188
690.693	0.0137029
690.771	0.0138965
690.849	0.0137864
690.927	0.0136277
691.005	0.0135242
691.083	0.0134099
691.161	0.0131796
691.239	0.0129909
691.318	0.0129186
691.396	0.0127408
691.474	0.0125452
691.552	0.0123183
691.630	0.0122881
691.708	0.0120738
691.786	0.0119116
691.864	0.0120541
691.943	0.0120245
692.021	0.0119514
692.099	0.0121346
692.177	0.0121198
692.255	0.0122606
692.333	0.0123042
692.411	0.0124664
692.489	0.0125262
692.568	0.0122898
692.646	0.0125330
692.724	0.0126414
692.802	0.0126912
692.880	0.0127110
692.958	0.0128306
693.036	0.0128867
693.114	0.0128807
693.193	0.0128729
693.271	0.0130097
693.349	0.0131676
693.427	0.0132682
693.505	0.0133978
693.583	0.0133723
693.661	0.0135153
693.739	0.0134300
693.818	0.0133225
693.896	0.0133172
693.974	0.0132791
694.052	0.0133548
694.130	0.0130799
694.208	0.0130144
694.286	0.0128503
694.364	0.0128104
694.443	0.0125751
694.521	0.0125351
694.599	0.0124012
694.677	0.0122141
694.755	0.0121090
694.833	0.0120793
694.911	0.0119369
694.989	0.0119622
695.068	0.0118654
695.146	0.0118764
695.224	0.0119894
695.302	0.0119418
695.380	0.0119883
695.458	0.0122181
695.536	0.0124115
695.614	0.0125827
695.693	0.0125923
695.771	0.0128316
695.849	0.0128902
695.927	0.0130450
696.005	0.0131508
696.083	0.0132294
696.161	0.0133355
696.239	0.0133019
696.318	0.0134486
696.396	0.0132874
696.474	0.0134023
696.552	0.0133003
696.630	0.0132650
696.708	0.0131686
696.786	0.0129726
696.864	0.0130733
696.943	0.0129115
697.021	0.0128222
697.099	0.0126325
697.177	0.0127097
697.255	0.0126987
697.333	0.0125392
697.411	0.0126406
697.489	0.0127188
697.568	0.0126305
697.646	0.0127600
697.724	0.0126326
697.802	0.0127397
697.880	0.0127296
697.958	0.0128005
698.036	0.0127792
698.114	0.0128653
698.193	0.0128226
698.271	0.0129809
698.349	0.0129248
698.427	0.0129807
698.505	0.0129568
698.583	0.0130534
698.661	0.0131622
698.739	0.0129585
698.818	0.0129560
698.896	0.0129224
698.974	0.0130126
699.052	0.0129211
699.130	0.0128693
699.208	0.0128197
699.286	0.0126955
699.364	0.0126398
699.443	0.0126125
699.521	0.0126446
699.599	0.0124142
699.677	0.0123351
699.755	0.0122972
699.833	0.0122039
699.911	0.0121886
699.989	0.0122141
700.068	0.0122678
700.146	0.0121867
700.224	0.0121407
700.302	0.0121751
700.380	0.0121412
700.458	0.0121584
700.536	0.0123975
700.614	0.0124325
700.693	0.0126202
700.771	0.0125867
700.849	0.0128735
700.927	0.0130871
701.005	0.0134221
701.083	0.0134510
701.161	0.0135437
701.239	0.0136457
701.318	0.0137928
701.396	0.0138502
701.474	0.0138205
701.552	0.0141025
701.630	0.0139331
701.708	0.0139450
701.786	0.0138400
701.864	0.0136484
701.943	0.0137176
702.021	0.0135163
702.099	0.0131197
702.177	0.0131927
702.255	0.0130756
702.333	0.0129858
702.411	0.0126868
702.489	0.0126060
702.568	0.0124694
702.646	0.0124001
702.724	0.0123679
702.802	0.0123354
702.880	0.0120440
702.958	0.0120361
703.036	0.0120873
703.114	0.0120434
703.193	0.0119559
703.271	0.0120904
703.349	0.0120855
703.427	0.0119153
703.505	0.0119595
703.583	0.0120343
703.661	0.0120432
703.739	0.0121354
703.818	0.0122899
703.896	0.0121795
703.974	0.0124139
704.052	0.0124557
704.130	0.0125121
704.208	0.0124955
704.286	0.0125669
704.364	0.0128185
704.443	0.0128458
704.521	0.0129618
704.599	0.0130233
704.677	0.0131120
704.755	0.0131773
704.833	0.0132061
704.911	0.0132172
704.989	0.0131644
705.068	0.0132684
705.146	0.0133897
705.224	0.0131665
705.302	0.0134430
705.380	0.0134566
705.458	0.0134788
705.536	0.0133971
705.614	0.0133530
705.693	0.0132848
705.771	0.0133508
705.849	0.0132055
705.927	0.0131931
706.005	0.0131888
706.083	0.0131300
706.161	0.0129557
706.239	0.0128191
706.318	0.0127188
706.396	0.0126452
706.474	0.0127529
706.552	0.0125730
706.630	0.0125507
706.708	0.0125105
706.786	0.0125086
706.864	0.0124474
706.943	0.0124341
707.021	0.0125688
707.099	0.0126418
707.177	0.0125456
707.255	0.0125582
707.333	0.0123455
707.411	0.0124496
707.489	0.0123654
707.568	0.0124403
707.646	0.0122158
707.724	0.0121156
707.802	0.0121955
707.880	0.0122063
707.958	0.0122740
708.036	0.0122607
708.114	0.0122906
708.193	0.0123035
708.271	0.0125041
708.349	0.0124669
708.427	0.0124659
708.505	0.0126125
708.583	0.0125900
708.661	0.0126167
708.739	0.0127692
708.818	0.0128445
708.896	0.0128927
708.974	0.0128384
709.052	0.0129467
709.130	0.0130356
709.208	0.0130154
709.286	0.0129671
709.364	0.0130787
709.443	0.0132410
709.521	0.0133343
709.599	0.0132381
709.677	0.0132952
709.755	0.0132037
709.833	0.0133642
709.911	0.0134079
709.989	0.0134628
710.068	0.0133934
710.146	0.0135777
710.224	0.0136053
710.302	0.0133955
710.380	0.0134486
710.458	0.0134026
710.536	0.0135480
710.614	0.0133559
710.693	0.0131139
710.771	0.0133108
710.849	0.0132497
710.927	0.0130822
711.005	0.0130212
711.083	0.0129942
711.161	0.0129021
711.239	0.0128466
711.318	0.0128622
711.396	0.0125688
711.474	0.0124857
711.552	0.0124474
711.630	0.0125886
711.708	0.0124740
711.786	0.0125912
711.864	0.0126259
711.943	0.0124117
712.021	0.0125087
712.099	0.0125986
712.177	0.0124646
712.255	0.0124664
712.333	0.0125460
712.411	0.0124290
712.489	0.0124963
712.568	0.0125078
712.646	0.0125246
712.724	0.0124380
712.802	0.0124310
712.880	0.0125182
712.958	0.0124815
713.036	0.0125518
713.114	0.0126364
713.193	0.0125803
713.271	0.0125797
713.349	0.0125760
713.427	0.0127522
713.505	0.0126987
713.583	0.0127355
713.661	0.0128714
713.739	0.0128363
713.818	0.0128906
713.896	0.0130360
713.974	0.0129813
714.052	0.0130038
714.130	0.0131417
714.208	0.0130022
714.286	0.0131170
714.364	0.0132382
714.443	0.0131923
714.521	0.0132015
714.599	0.0132723
714.677	0.0131369
714.755	0.0131429
714.833	0.0133495
714.911	0.0133991
714.989	0.0132892
715.068	0.0132455
715.146	0.0132481
715.224	0.0131646
715.302	0.0132568
715.380	0.0131868
715.458	0.0130801
715.536	0.0129918
715.614	0.0130946
715.693	0.0129921
715.771	0.0129698
715.849	0.0129137
715.927	0.0129359
716.005	0.0129021
716.083	0.0126640
716.161	0.0128242
716.239	0.0127316
716.318	0.0126270
716.396	0.0124642
716.474	0.0125921
716.552	0.0125467
716.630	0.0124135
716.708	0.0123732
716.786	0.0125081
716.864	0.0122630
716.943	0.0122476
717.021	0.0124299
717.099	0.0123409
717.177	0.0121622
717.255	0.0123294
717.333	0.0123352
717.411	0.0124117
717.489	0.0124132
717.568	0.0123498
717.646	0.0124216
717.724	0.0124706
717.802	0.0124980
717.880	0.0124076
717.958	0.0125459
718.036	0.0125751
718.114	0.0124934
718.193	0.0124284
718.271	0.0125408
718.349	0.0124964
718.427	0.0125463
718.505	0.0125243
718.583	0.0126363
718.661	0.0127067
718.739	0.0127068
718.818	0.0129455
718.896	0.0128513
718.974	0.0130517
719.052	0.0129295
719.130	0.0131029
719.208	0.0133051
719.286	0.0130592
719.364	0.0132879
719.443	0.0134629
719.521	0.0134144
719.599	0.0134068
719.677	0.0134408
719.755	0.0135336
719.833	0.0133504
719.911	0.0133687
719.989	0.0134328
720.068	0.0134248
720.146	0.0134532
720.224	0.0131356
720.302	0.0130325
720.380	0.0128953
720.458	0.0129221
720.536	0.0128355
720.614	0.0125055
720.693	0.0123554
720.771	0.0123199
720.849	0.0123550
720.927	0.0121360
721.005	0.0121219
721.083	0.0121806
721.161	0.0121880
721.239	0.0122596
721.318	0.0121466
721.396	0.0123727
721.474	0.0123669
721.552	0.0122850
721.630	0.0124866
721.708	0.0127924
721.786	0.0128539
721.864	0.0128642
721.943	0.0130372
722.021	0.0129257
722.099	0.0130301
722.177	0.0131316
722.255	0.0130592
722.333	0.0130344
722.411	0.0131784
722.489	0.0129367
722.568	0.0130334
722.646	0.0129317
722.724	0.0129078
722.802	0.0129314
722.880	0.0126841
722.958	0.0125907
723.036	0.0125610
723.114	0.0124509
723.193	0.0124641
723.271	0.0123692
723.349	0.0123687
723.427	0.0123306
723.505	0.0122504
723.583	0.0121530
723.661	0.0123126
723.739	0.0122250
723.818	0.0122873
723.896	0.0122255
723.974	0.0123129
724.052	0.0126450
724.130	0.0125574
724.208	0.0125982
724.286	0.0128954
724.364	0.0128899
724.443	0.0130124
724.521	0.0130914
724.599	0.0131204
724.677	0.0132147
724.755	0.0132806
724.833	0.0135556
724.911	0.0135483
724.989	0.0133887
725.068	0.0135584
725.146	0.0135188
725.224	0.0135748
725.302	0.0136269
725.380	0.0133467
725.458	0.0132805
725.536	0.0131170
725.614	0.0131030
725.693	0.0130672
