05/07/2022	17:43:28	Ver.	4.1	UNKNOWN
Optical Delay	639.989416	Delta X		0.078125	Sweeps	1	Scan Rate	0/0
Coordinates	Axis 1	NaN	Axis 2	NaN	Axis 3	NaN	Axis 4	NaN	Axis 5	NaN	Axis 6	0.000000
TX Power	0.000000	RX Power	0.000000

639.989	0.0128915
640.068	0.0127705
640.146	0.0128063
640.224	0.0128965
640.302	0.0128084
640.380	0.0129063
640.458	0.0127750
640.536	0.0129173
640.614	0.0128448
640.693	0.0128659
640.771	0.0128571
640.849	0.0127524
640.927	0.0127499
641.005	0.0127863
641.083	0.0127792
641.161	0.0129764
641.239	0.0128993
641.318	0.0129762
641.396	0.0129095
641.474	0.0129821
641.552	0.0129176
641.630	0.0129572
641.708	0.0130218
641.786	0.0129521
641.864	0.0130147
641.943	0.0129382
642.021	0.0128043
642.099	0.0130319
642.177	0.0129770
642.255	0.0129303
642.333	0.0129859
642.411	0.0129419
642.489	0.0129696
642.568	0.0131244
642.646	0.0130755
642.724	0.0129881
642.802	0.0128187
642.880	0.0130162
642.958	0.0129578
643.036	0.0128417
643.114	0.0129962
643.193	0.0130690
643.271	0.0130780
643.349	0.0130876
643.427	0.0129991
643.505	0.0128775
643.583	0.0129302
643.661	0.0128986
643.739	0.0131196
643.818	0.0131443
643.896	0.0130598
643.974	0.0130952
644.052	0.0131696
644.130	0.0131592
644.208	0.0131705
644.286	0.0132816
644.364	0.0130780
644.443	0.0131624
644.521	0.0131030
644.599	0.0129845
644.677	0.0130982
644.755	0.0132811
644.833	0.0130827
644.911	0.0130128
644.989	0.0129669
645.068	0.0130139
645.146	0.0128901
645.224	0.0128498
645.302	0.0129392
645.380	0.0128923
645.458	0.0128093
645.536	0.0127908
645.614	0.0128310
645.693	0.0127968
645.771	0.0127699
645.849	0.0127996
645.927	0.0126698
646.005	0.0127418
646.083	0.0126787
646.161	0.0127073
646.239	0.0128537
646.318	0.0128864
646.396	0.0128541
646.474	0.0130095
646.552	0.0128941
646.630	0.0129659
646.708	0.0130025
646.786	0.0129983
646.864	0.0130968
646.943	0.0130476
647.021	0.0132198
647.099	0.0131994
647.177	0.0132733
647.255	0.0134657
647.333	0.0134483
647.411	0.0134380
647.489	0.0133627
647.568	0.0132711
647.646	0.0133553
647.724	0.0133323
647.802	0.0132701
647.880	0.0132192
647.958	0.0133141
648.036	0.0131252
648.114	0.0129244
648.193	0.0128812
648.271	0.0126705
648.349	0.0127422
648.427	0.0127802
648.505	0.0126543
648.583	0.0126006
648.661	0.0125759
648.739	0.0124635
648.818	0.0123916
648.896	0.0124172
648.974	0.0123138
649.052	0.0122511
649.130	0.0123019
649.208	0.0122981
649.286	0.0122359
649.364	0.0122236
649.443	0.0124008
649.521	0.0123288
649.599	0.0123850
649.677	0.0123642
649.755	0.0124665
649.833	0.0124471
649.911	0.0125622
649.989	0.0126354
650.068	0.0127489
650.146	0.0128163
650.224	0.0129224
650.302	0.0129597
650.380	0.0131281
650.458	0.0130899
650.536	0.0130113
650.614	0.0133176
650.693	0.0133310
650.771	0.0132860
650.849	0.0134579
650.927	0.0133903
651.005	0.0133812
651.083	0.0133882
651.161	0.0134794
651.239	0.0137078
651.318	0.0135714
651.396	0.0135233
651.474	0.0136670
651.552	0.0136546
651.630	0.0135592
651.708	0.0135742
651.786	0.0133314
651.864	0.0132091
651.943	0.0131922
652.021	0.0129286
652.099	0.0130549
652.177	0.0128829
652.255	0.0126078
652.333	0.0124646
652.411	0.0124263
652.489	0.0124815
652.568	0.0121667
652.646	0.0122550
652.724	0.0120037
652.802	0.0120072
652.880	0.0116727
652.958	0.0117401
653.036	0.0117798
653.114	0.0117807
653.193	0.0115247
653.271	0.0116793
653.349	0.0116182
653.427	0.0115910
653.505	0.0118585
653.583	0.0119054
653.661	0.0119377
653.739	0.0121413
653.818	0.0122440
653.896	0.0124271
653.974	0.0125634
654.052	0.0127200
654.130	0.0130569
654.208	0.0131638
654.286	0.0133607
654.364	0.0135282
654.443	0.0137358
654.521	0.0139299
654.599	0.0138988
654.677	0.0141811
654.755	0.0142933
654.833	0.0144851
654.911	0.0145809
654.989	0.0146075
655.068	0.0145801
655.146	0.0145934
655.224	0.0144279
655.302	0.0143748
655.380	0.0143916
655.458	0.0142569
655.536	0.0141782
655.614	0.0139242
655.693	0.0137624
655.771	0.0136492
655.849	0.0134566
655.927	0.0133361
656.005	0.0130013
656.083	0.0127652
656.161	0.0126108
656.239	0.0122417
656.318	0.0119789
656.396	0.0116827
656.474	0.0115527
656.552	0.0113496
656.630	0.0113112
656.708	0.0111456
656.786	0.0110865
656.864	0.0108390
656.943	0.0108498
657.021	0.0108434
657.099	0.0108855
657.177	0.0107520
657.255	0.0107746
657.333	0.0109334
657.411	0.0110204
657.489	0.0112254
657.568	0.0113288
657.646	0.0116055
657.724	0.0116779
657.802	0.0117807
657.880	0.0120288
657.958	0.0122786
658.036	0.0125446
658.114	0.0129401
658.193	0.0130508
658.271	0.0134220
658.349	0.0136521
658.427	0.0139722
658.505	0.0143581
658.583	0.0145175
658.661	0.0150141
658.739	0.0151241
658.818	0.0151694
658.896	0.0153044
658.974	0.0156609
659.052	0.0156084
659.130	0.0157120
659.208	0.0156275
659.286	0.0156416
659.364	0.0155925
659.443	0.0155931
659.521	0.0153477
659.599	0.0152077
659.677	0.0149052
659.755	0.0147463
659.833	0.0145076
659.911	0.0141940
659.989	0.0139091
660.068	0.0135146
660.146	0.0130918
660.224	0.0127090
660.302	0.0122710
660.380	0.0118818
660.458	0.0115527
660.536	0.0112034
660.614	0.0108755
660.693	0.0105727
660.771	0.0103118
660.849	0.0101994
660.927	0.00980217
661.005	0.00961021
661.083	0.00949821
661.161	0.00951492
661.239	0.00959572
661.318	0.00948311
661.396	0.00959152
661.474	0.00959724
661.552	0.00983002
661.630	0.0100522
661.708	0.0102796
661.786	0.0105155
661.864	0.0107937
661.943	0.0112270
662.021	0.0116669
662.099	0.0120184
662.177	0.0124770
662.255	0.0127962
662.333	0.0132462
662.411	0.0134602
662.489	0.0140578
662.568	0.0143916
662.646	0.0146894
662.724	0.0150857
662.802	0.0152489
662.880	0.0156326
662.958	0.0156519
663.036	0.0157607
663.114	0.0160251
663.193	0.0161336
663.271	0.0160737
663.349	0.0160454
663.427	0.0161370
663.505	0.0159142
663.583	0.0158418
663.661	0.0156097
663.739	0.0152718
663.818	0.0152213
663.896	0.0149495
663.974	0.0146826
664.052	0.0143435
664.130	0.0140762
664.208	0.0138777
664.286	0.0135193
664.364	0.0132337
664.443	0.0128326
664.521	0.0123726
664.599	0.0120512
664.677	0.0117918
664.755	0.0115391
664.833	0.0112418
664.911	0.0107025
664.989	0.0105267
665.068	0.0104607
665.146	0.0101380
665.224	0.00995804
665.302	0.00973610
665.380	0.00984138
665.458	0.00962273
665.536	0.00958740
665.614	0.00970154
665.693	0.00977158
665.771	0.00992851
665.849	0.0100928
665.927	0.0102473
666.005	0.0104612
666.083	0.0107201
666.161	0.0111478
666.239	0.0114487
666.318	0.0116994
666.396	0.0120074
666.474	0.0124650
666.552	0.0128231
666.630	0.0131645
666.708	0.0135162
666.786	0.0140230
666.864	0.0142001
666.943	0.0146600
667.021	0.0148872
667.099	0.0150779
667.177	0.0152428
667.255	0.0153655
667.333	0.0156567
667.411	0.0158611
667.489	0.0159305
667.568	0.0157324
667.646	0.0157275
667.724	0.0158475
667.802	0.0157062
667.880	0.0154324
667.958	0.0153181
668.036	0.0151495
668.114	0.0149348
668.193	0.0146843
668.271	0.0144879
668.349	0.0142855
668.427	0.0140659
668.505	0.0137740
668.583	0.0134092
668.661	0.0132732
668.739	0.0129582
668.818	0.0128017
668.896	0.0125024
668.974	0.0124074
669.052	0.0121954
669.130	0.0119581
669.208	0.0119586
669.286	0.0117343
669.364	0.0115546
669.443	0.0114602
669.521	0.0113767
669.599	0.0112403
669.677	0.0112872
669.755	0.0111732
669.833	0.0111861
669.911	0.0112878
669.989	0.0113544
670.068	0.0113827
670.146	0.0113938
670.224	0.0114385
670.302	0.0114236
670.380	0.0115984
670.458	0.0115601
670.536	0.0115919
670.614	0.0117429
670.693	0.0118860
670.771	0.0119979
670.849	0.0122248
670.927	0.0122104
671.005	0.0121889
671.083	0.0124913
671.161	0.0127627
671.239	0.0128497
671.318	0.0130207
671.396	0.0130383
671.474	0.0132222
671.552	0.0133942
671.630	0.0135918
671.708	0.0136205
671.786	0.0137064
671.864	0.0136739
671.943	0.0138467
672.021	0.0138979
672.099	0.0140070
672.177	0.0139312
672.255	0.0139320
672.333	0.0138348
672.411	0.0138848
672.489	0.0138447
672.568	0.0137139
672.646	0.0136142
672.724	0.0135402
672.802	0.0133832
672.880	0.0134691
672.958	0.0134097
673.036	0.0132921
673.114	0.0132806
673.193	0.0131940
673.271	0.0130746
673.349	0.0129125
673.427	0.0128429
673.505	0.0129922
673.583	0.0128738
673.661	0.0128344
673.739	0.0128878
673.818	0.0128788
673.896	0.0130344
673.974	0.0131577
674.052	0.0131679
674.130	0.0132357
674.208	0.0133341
674.286	0.0133164
674.364	0.0134071
674.443	0.0134166
674.521	0.0133491
674.599	0.0134360
674.677	0.0134753
674.755	0.0133369
674.833	0.0134109
674.911	0.0132628
674.989	0.0132903
675.068	0.0132396
675.146	0.0131223
675.224	0.0128848
675.302	0.0126192
675.380	0.0126430
675.458	0.0125267
675.536	0.0122730
675.614	0.0121574
675.693	0.0119647
675.771	0.0119317
675.849	0.0118244
675.927	0.0116514
676.005	0.0115468
676.083	0.0115109
676.161	0.0112381
676.239	0.0113139
676.318	0.0112511
676.396	0.0111813
676.474	0.0115003
676.552	0.0113653
676.630	0.0114282
676.708	0.0115519
676.786	0.0116546
676.864	0.0118230
676.943	0.0119897
677.021	0.0122053
677.099	0.0122285
677.177	0.0125916
677.255	0.0126508
677.333	0.0127000
677.411	0.0129912
677.489	0.0131255
677.568	0.0132714
677.646	0.0135977
677.724	0.0135625
677.802	0.0137060
677.880	0.0138905
677.958	0.0140306
678.036	0.0141238
678.114	0.0142296
678.193	0.0142188
678.271	0.0143597
678.349	0.0142272
678.427	0.0143747
678.505	0.0145577
678.583	0.0144880
678.661	0.0144167
678.739	0.0143808
678.818	0.0143689
678.896	0.0142124
678.974	0.0143009
679.052	0.0142653
679.130	0.0141203
679.208	0.0141673
679.286	0.0141245
679.364	0.0139059
679.443	0.0138904
679.521	0.0137448
679.599	0.0138424
679.677	0.0136430
679.755	0.0136655
679.833	0.0136217
679.911	0.0134296
679.989	0.0133929
680.068	0.0133666
680.146	0.0131902
680.224	0.0130357
680.302	0.0127559
680.380	0.0126976
680.458	0.0123518
680.536	0.0122667
680.614	0.0118932
680.693	0.0115182
680.771	0.0114240
680.849	0.0112386
680.927	0.0109529
681.005	0.0107492
681.083	0.0106670
681.161	0.0103548
681.239	0.0103236
681.318	0.0101962
681.396	0.0102026
681.474	0.0102258
681.552	0.0102525
681.630	0.0103462
681.708	0.0103284
681.786	0.0104678
681.864	0.0105656
681.943	0.0108836
682.021	0.0111189
682.099	0.0114488
682.177	0.0117789
682.255	0.0121162
682.333	0.0123616
682.411	0.0125977
682.489	0.0129478
682.568	0.0133083
682.646	0.0138152
682.724	0.0141685
682.802	0.0144933
682.880	0.0147984
682.958	0.0150073
683.036	0.0152045
683.114	0.0154535
683.193	0.0157668
683.271	0.0157587
683.349	0.0158664
683.427	0.0159394
683.505	0.0160109
683.583	0.0157831
683.661	0.0157639
683.739	0.0156098
683.818	0.0154678
683.896	0.0153532
683.974	0.0149930
684.052	0.0147854
684.130	0.0145402
684.208	0.0142691
684.286	0.0139282
684.364	0.0135736
684.443	0.0132838
684.521	0.0129478
684.599	0.0126383
684.677	0.0124041
684.755	0.0122414
684.833	0.0119981
684.911	0.0117703
684.989	0.0115570
685.068	0.0115219
685.146	0.0114947
685.224	0.0112997
685.302	0.0114371
685.380	0.0114531
685.458	0.0114227
685.536	0.0115425
685.614	0.0114355
685.693	0.0115623
685.771	0.0116795
685.849	0.0117509
685.927	0.0118794
686.005	0.0120666
686.083	0.0119725
686.161	0.0122274
686.239	0.0121478
686.318	0.0122903
686.396	0.0123842
686.474	0.0122274
686.552	0.0123412
686.630	0.0123447
686.708	0.0121439
686.786	0.0123131
686.864	0.0122408
686.943	0.0122515
687.021	0.0122005
687.099	0.0122215
687.177	0.0123203
687.255	0.0122340
687.333	0.0124295
687.411	0.0123389
687.489	0.0124642
687.568	0.0125751
687.646	0.0125523
687.724	0.0127491
687.802	0.0129239
687.880	0.0130045
687.958	0.0131381
688.036	0.0134808
688.114	0.0134438
688.193	0.0135992
688.271	0.0139169
688.349	0.0140717
688.427	0.0141409
688.505	0.0143011
688.583	0.0143085
688.661	0.0146212
688.739	0.0147645
688.818	0.0147924
688.896	0.0147933
688.974	0.0148583
689.052	0.0147110
689.130	0.0145730
689.208	0.0145334
689.286	0.0145026
689.364	0.0142402
689.443	0.0140249
689.521	0.0139713
689.599	0.0137376
689.677	0.0134950
689.755	0.0133685
689.833	0.0129598
689.911	0.0128571
689.989	0.0126373
690.068	0.0123724
690.146	0.0123704
690.224	0.0120666
690.302	0.0120411
690.380	0.0118266
690.458	0.0118050
690.536	0.0117175
690.614	0.0117461
690.693	0.0117135
690.771	0.0118978
690.849	0.0119798
690.927	0.0120340
691.005	0.0122913
691.083	0.0123887
691.161	0.0123592
691.239	0.0125392
691.318	0.0125304
691.396	0.0125677
691.474	0.0128145
691.552	0.0126817
691.630	0.0126929
691.708	0.0128072
691.786	0.0128219
691.864	0.0128035
691.943	0.0127743
692.021	0.0126334
692.099	0.0124934
692.177	0.0125005
692.255	0.0123431
692.333	0.0124723
692.411	0.0123015
692.489	0.0123397
692.568	0.0125027
692.646	0.0122883
692.724	0.0121665
692.802	0.0122076
692.880	0.0121576
692.958	0.0121564
693.036	0.0121317
693.114	0.0123282
693.193	0.0123241
693.271	0.0123524
693.349	0.0125948
693.427	0.0126932
693.505	0.0126765
693.583	0.0127366
693.661	0.0129086
693.739	0.0130466
693.818	0.0132150
693.896	0.0133980
693.974	0.0133890
694.052	0.0136517
694.130	0.0136504
694.208	0.0137883
694.286	0.0140115
694.364	0.0141540
694.443	0.0139723
694.521	0.0140852
694.599	0.0143133
694.677	0.0143242
694.755	0.0142881
694.833	0.0141902
694.911	0.0143417
694.989	0.0141735
695.068	0.0139423
695.146	0.0138515
695.224	0.0135831
695.302	0.0135358
695.380	0.0133489
695.458	0.0132651
695.536	0.0130921
695.614	0.0127262
695.693	0.0126099
695.771	0.0124758
695.849	0.0121855
695.927	0.0122641
696.005	0.0121774
696.083	0.0120536
696.161	0.0121235
696.239	0.0119881
696.318	0.0119323
696.396	0.0119914
696.474	0.0120669
696.552	0.0118837
696.630	0.0120207
696.708	0.0123235
696.786	0.0123006
696.864	0.0124455
696.943	0.0124506
697.021	0.0124536
697.099	0.0126260
697.177	0.0126719
697.255	0.0127190
697.333	0.0129877
697.411	0.0129833
697.489	0.0130678
697.568	0.0132074
697.646	0.0132181
697.724	0.0133215
697.802	0.0133448
697.880	0.0133229
697.958	0.0134658
698.036	0.0134617
698.114	0.0135583
698.193	0.0135559
698.271	0.0134933
698.349	0.0134835
698.427	0.0133633
698.505	0.0134638
698.583	0.0132478
698.661	0.0132697
698.739	0.0131364
698.818	0.0129799
698.896	0.0127921
698.974	0.0126495
699.052	0.0125546
699.130	0.0126170
699.208	0.0124865
699.286	0.0122749
699.364	0.0120216
699.443	0.0121350
699.521	0.0121564
699.599	0.0118852
699.677	0.0118707
699.755	0.0118893
699.833	0.0120472
699.911	0.0120105
699.989	0.0121738
700.068	0.0120728
700.146	0.0123032
700.224	0.0125893
700.302	0.0127146
700.380	0.0128696
700.458	0.0130349
700.536	0.0132550
700.614	0.0133642
700.693	0.0136261
700.771	0.0139152
700.849	0.0140218
700.927	0.0139312
701.005	0.0140233
701.083	0.0142496
701.161	0.0143717
701.239	0.0144379
701.318	0.0142618
701.396	0.0143327
701.474	0.0143496
701.552	0.0142529
701.630	0.0142410
701.708	0.0143651
701.786	0.0142584
701.864	0.0139789
701.943	0.0139503
702.021	0.0137858
702.099	0.0136629
702.177	0.0135602
702.255	0.0133122
702.333	0.0132027
702.411	0.0129726
702.489	0.0128302
702.568	0.0127106
702.646	0.0124608
702.724	0.0122166
702.802	0.0122039
702.880	0.0120908
702.958	0.0120950
703.036	0.0120673
703.114	0.0117704
703.193	0.0117409
703.271	0.0118614
703.349	0.0116718
703.427	0.0117471
703.505	0.0117493
703.583	0.0118374
703.661	0.0118813
703.739	0.0119908
703.818	0.0118790
703.896	0.0120216
703.974	0.0122376
704.052	0.0121523
704.130	0.0121812
704.208	0.0122998
704.286	0.0123895
704.364	0.0124647
704.443	0.0124055
704.521	0.0124789
704.599	0.0125494
704.677	0.0124619
704.755	0.0125016
704.833	0.0125542
704.911	0.0124989
704.989	0.0123045
705.068	0.0124288
705.146	0.0124263
705.224	0.0124666
705.302	0.0124096
705.380	0.0125121
705.458	0.0126850
705.536	0.0127231
705.614	0.0130064
705.693	0.0131348
705.771	0.0131612
705.849	0.0132242
705.927	0.0133503
706.005	0.0136487
706.083	0.0136366
706.161	0.0137685
706.239	0.0138826
706.318	0.0139993
706.396	0.0141463
706.474	0.0141589
706.552	0.0142776
706.630	0.0141016
706.708	0.0141208
706.786	0.0142314
706.864	0.0141029
706.943	0.0140633
707.021	0.0141649
707.099	0.0139284
707.177	0.0138073
707.255	0.0138634
707.333	0.0135806
707.411	0.0135439
707.489	0.0135235
707.568	0.0134023
707.646	0.0132249
707.724	0.0130035
707.802	0.0129266
707.880	0.0128152
707.958	0.0127603
708.036	0.0126192
708.114	0.0124093
708.193	0.0123407
708.271	0.0123376
708.349	0.0123158
708.427	0.0122739
708.505	0.0120892
708.583	0.0119551
708.661	0.0120692
708.739	0.0118745
708.818	0.0118594
708.896	0.0118746
708.974	0.0118591
709.052	0.0119127
709.130	0.0119855
709.208	0.0120004
709.286	0.0123181
709.364	0.0122781
709.443	0.0121786
709.521	0.0122318
709.599	0.0126008
709.677	0.0127230
709.755	0.0129096
709.833	0.0128902
709.911	0.0131847
709.989	0.0131741
710.068	0.0131356
710.146	0.0132146
710.224	0.0132903
710.302	0.0135551
710.380	0.0135020
710.458	0.0136048
710.536	0.0134902
710.614	0.0136484
710.693	0.0135097
710.771	0.0134314
710.849	0.0135215
710.927	0.0133675
711.005	0.0134882
711.083	0.0135326
711.161	0.0135565
711.239	0.0132872
711.318	0.0132651
711.396	0.0133440
711.474	0.0132574
711.552	0.0130717
711.630	0.0133002
711.708	0.0131650
711.786	0.0130735
711.864	0.0130132
711.943	0.0130380
712.021	0.0129620
712.099	0.0130465
712.177	0.0128317
712.255	0.0130083
712.333	0.0128924
712.411	0.0129393
712.489	0.0128267
712.568	0.0127828
712.646	0.0127766
712.724	0.0129811
712.802	0.0128520
712.880	0.0129047
712.958	0.0128236
713.036	0.0129079
713.114	0.0130614
713.193	0.0130228
713.271	0.0130598
713.349	0.0132013
713.427	0.0131673
713.505	0.0131641
713.583	0.0132735
713.661	0.0134526
713.739	0.0134862
713.818	0.0134096
713.896	0.0134255
713.974	0.0136385
714.052	0.0136438
714.130	0.0135033
714.208	0.0135651
714.286	0.0134175
714.364	0.0134710
714.443	0.0134627
714.521	0.0131859
714.599	0.0131691
714.677	0.0129532
714.755	0.0130080
714.833	0.0128020
714.911	0.0127676
714.989	0.0126384
715.068	0.0124826
715.146	0.0123071
715.224	0.0122361
715.302	0.0121771
715.380	0.0122238
715.458	0.0120308
715.536	0.0119824
715.614	0.0119627
715.693	0.0118829
715.771	0.0119926
715.849	0.0118427
715.927	0.0119135
716.005	0.0119391
716.083	0.0120148
716.161	0.0120995
716.239	0.0121242
716.318	0.0121016
716.396	0.0123516
716.474	0.0124226
716.552	0.0127333
716.630	0.0126732
716.708	0.0129752
716.786	0.0129964
716.864	0.0130209
716.943	0.0132644
717.021	0.0133056
717.099	0.0134236
717.177	0.0133868
717.255	0.0134703
717.333	0.0136898
717.411	0.0134439
717.489	0.0135950
717.568	0.0134769
717.646	0.0134690
717.724	0.0133103
717.802	0.0132499
717.880	0.0133989
717.958	0.0133156
718.036	0.0131527
718.114	0.0132186
718.193	0.0130717
718.271	0.0129838
718.349	0.0131658
718.427	0.0130074
718.505	0.0129974
718.583	0.0129504
718.661	0.0128938
718.739	0.0128813
718.818	0.0129568
718.896	0.0128973
718.974	0.0127995
719.052	0.0129827
719.130	0.0129461
719.208	0.0129218
719.286	0.0129962
719.364	0.0129383
719.443	0.0131522
719.521	0.0132533
719.599	0.0130524
719.677	0.0131149
719.755	0.0131802
719.833	0.0130872
719.911	0.0132847
719.989	0.0129984
720.068	0.0131548
720.146	0.0131261
720.224	0.0128970
720.302	0.0129230
720.380	0.0129570
720.458	0.0129487
720.536	0.0128441
720.614	0.0128696
720.693	0.0126997
720.771	0.0126616
720.849	0.0126743
720.927	0.0125714
721.005	0.0125860
721.083	0.0125945
721.161	0.0124068
721.239	0.0124380
721.318	0.0125749
721.396	0.0125346
721.474	0.0124762
721.552	0.0122591
721.630	0.0123066
721.708	0.0122522
721.786	0.0122563
721.864	0.0122101
721.943	0.0121708
722.021	0.0121675
722.099	0.0121658
722.177	0.0122357
722.255	0.0122913
722.333	0.0122156
722.411	0.0122437
722.489	0.0124416
722.568	0.0124203
722.646	0.0124429
722.724	0.0126519
722.802	0.0126404
722.880	0.0127320
722.958	0.0127856
723.036	0.0129971
723.114	0.0127711
723.193	0.0130538
723.271	0.0131227
723.349	0.0131585
723.427	0.0130818
723.505	0.0131348
723.583	0.0131541
723.661	0.0130566
723.739	0.0130973
723.818	0.0130231
723.896	0.0128895
723.974	0.0131609
724.052	0.0130917
724.130	0.0130215
724.208	0.0129982
724.286	0.0130086
724.364	0.0129446
724.443	0.0130011
724.521	0.0129240
724.599	0.0129802
724.677	0.0129851
724.755	0.0130317
724.833	0.0131211
724.911	0.0130417
724.989	0.0129736
725.068	0.0131642
725.146	0.0131371
725.224	0.0131063
725.302	0.0131467
725.380	0.0132873
725.458	0.0133085
725.536	0.0133775
725.614	0.0133186
