05/07/2022	17:43:53	Ver.	4.1	UNKNOWN
Optical Delay	639.989416	Delta X		0.078125	Sweeps	1	Scan Rate	0/0
Coordinates	Axis 1	NaN	Axis 2	NaN	Axis 3	NaN	Axis 4	NaN	Axis 5	NaN	Axis 6	0.000000
TX Power	0.000000	RX Power	0.000000

639.989	0.0128928
640.068	0.0132019
640.146	0.0129703
640.224	0.0129898
640.302	0.0129283
640.380	0.0129516
640.458	0.0127486
640.536	0.0129243
640.614	0.0130016
640.693	0.0128812
640.771	0.0129708
640.849	0.0129169
640.927	0.0128328
641.005	0.0129699
641.083	0.0128706
641.161	0.0129256
641.239	0.0128941
641.318	0.0129564
641.396	0.0129471
641.474	0.0128484
641.552	0.0128275
641.630	0.0128319
641.708	0.0129637
641.786	0.0129467
641.864	0.0127448
641.943	0.0127397
642.021	0.0127770
642.099	0.0129176
642.177	0.0127739
642.255	0.0128310
642.333	0.0127617
642.411	0.0127564
642.489	0.0127507
642.568	0.0128631
642.646	0.0127983
642.724	0.0127113
642.802	0.0128691
642.880	0.0126661
642.958	0.0127618
643.036	0.0127805
643.114	0.0128172
643.193	0.0126517
643.271	0.0127065
643.349	0.0128484
643.427	0.0126840
643.505	0.0126796
643.583	0.0127477
643.661	0.0128921
643.739	0.0127460
643.818	0.0129529
643.896	0.0128874
643.974	0.0129008
644.052	0.0128139
644.130	0.0129198
644.208	0.0128133
644.286	0.0129333
644.364	0.0128269
644.443	0.0126895
644.521	0.0128467
644.599	0.0127235
644.677	0.0126971
644.755	0.0127013
644.833	0.0126162
644.911	0.0125662
644.989	0.0125018
645.068	0.0125565
645.146	0.0123889
645.224	0.0123687
645.302	0.0125182
645.380	0.0123772
645.458	0.0124923
645.536	0.0124169
645.614	0.0125425
645.693	0.0124956
645.771	0.0125121
645.849	0.0125099
645.927	0.0125414
646.005	0.0126351
646.083	0.0125908
646.161	0.0126283
646.239	0.0125512
646.318	0.0127518
646.396	0.0129478
646.474	0.0127755
646.552	0.0129894
646.630	0.0130293
646.708	0.0128735
646.786	0.0131744
646.864	0.0131799
646.943	0.0131521
647.021	0.0130974
647.099	0.0133283
647.177	0.0131986
647.255	0.0133390
647.333	0.0132195
647.411	0.0130428
647.489	0.0130492
647.568	0.0131716
647.646	0.0129433
647.724	0.0129109
647.802	0.0128114
647.880	0.0127678
647.958	0.0126070
648.036	0.0125231
648.114	0.0124937
648.193	0.0125575
648.271	0.0125301
648.349	0.0123593
648.427	0.0123380
648.505	0.0122308
648.583	0.0121620
648.661	0.0123631
648.739	0.0123262
648.818	0.0123335
648.896	0.0121615
648.974	0.0122291
649.052	0.0123706
649.130	0.0122240
649.208	0.0123455
649.286	0.0124078
649.364	0.0123483
649.443	0.0125108
649.521	0.0126431
649.599	0.0126794
649.677	0.0127220
649.755	0.0128626
649.833	0.0128455
649.911	0.0129661
649.989	0.0131248
650.068	0.0129996
650.146	0.0130661
650.224	0.0131709
650.302	0.0132632
650.380	0.0132481
650.458	0.0132143
650.536	0.0133284
650.614	0.0133562
650.693	0.0133616
650.771	0.0133627
650.849	0.0136092
650.927	0.0134570
651.005	0.0135162
651.083	0.0135068
651.161	0.0133567
651.239	0.0133441
651.318	0.0134078
651.396	0.0133813
651.474	0.0132336
651.552	0.0131493
651.630	0.0130604
651.708	0.0130236
651.786	0.0129163
651.864	0.0126995
651.943	0.0126131
652.021	0.0125597
652.099	0.0124561
652.177	0.0122272
652.255	0.0122386
652.333	0.0121539
652.411	0.0119175
652.489	0.0120103
652.568	0.0117466
652.646	0.0117957
652.724	0.0116247
652.802	0.0117702
652.880	0.0116185
652.958	0.0116055
653.036	0.0116934
653.114	0.0116492
653.193	0.0118118
653.271	0.0119505
653.349	0.0119456
653.427	0.0121164
653.505	0.0122574
653.583	0.0124197
653.661	0.0124739
653.739	0.0126746
653.818	0.0127991
653.896	0.0130905
653.974	0.0133291
654.052	0.0134131
654.130	0.0135884
654.208	0.0138107
654.286	0.0139513
654.364	0.0141570
654.443	0.0141095
654.521	0.0142116
654.599	0.0144319
654.677	0.0144895
654.755	0.0143941
654.833	0.0146005
654.911	0.0144780
654.989	0.0142551
655.068	0.0142684
655.146	0.0141858
655.224	0.0140112
655.302	0.0138641
655.380	0.0137503
655.458	0.0136680
655.536	0.0134196
655.614	0.0130963
655.693	0.0128332
655.771	0.0126699
655.849	0.0123315
655.927	0.0121056
656.005	0.0119292
656.083	0.0116740
656.161	0.0113393
656.239	0.0112879
656.318	0.0110847
656.396	0.0109116
656.474	0.0108462
656.552	0.0106770
656.630	0.0104966
656.708	0.0105454
656.786	0.0105563
656.864	0.0106222
656.943	0.0107182
657.021	0.0107777
657.099	0.0108377
657.177	0.0110014
657.255	0.0110921
657.333	0.0113477
657.411	0.0112928
657.489	0.0116517
657.568	0.0119491
657.646	0.0122621
657.724	0.0122947
657.802	0.0125480
657.880	0.0128686
657.958	0.0132818
658.036	0.0134384
658.114	0.0137241
658.193	0.0140690
658.271	0.0143652
658.349	0.0146970
658.427	0.0148983
658.505	0.0149539
658.583	0.0151812
658.661	0.0153016
658.739	0.0154124
658.818	0.0154823
658.896	0.0155236
658.974	0.0153898
659.052	0.0152486
659.130	0.0152281
659.208	0.0151190
659.286	0.0149437
659.364	0.0148911
659.443	0.0145547
659.521	0.0143320
659.599	0.0141591
659.677	0.0136804
659.755	0.0133134
659.833	0.0131663
659.911	0.0126555
659.989	0.0124122
660.068	0.0119583
660.146	0.0115895
660.224	0.0112621
660.302	0.0108128
660.380	0.0105511
660.458	0.0103164
660.536	0.0101138
660.614	0.00981133
660.693	0.00961929
660.771	0.00948799
660.849	0.00956238
660.927	0.00942780
661.005	0.00950798
661.083	0.00975098
661.161	0.00959427
661.239	0.00985588
661.318	0.0100730
661.396	0.0102828
661.474	0.0105925
661.552	0.0110492
661.630	0.0111678
661.708	0.0116026
661.786	0.0118808
661.864	0.0125216
661.943	0.0128186
662.021	0.0131059
662.099	0.0136890
662.177	0.0139950
662.255	0.0143994
662.333	0.0147556
662.411	0.0152036
662.489	0.0154615
662.568	0.0156432
662.646	0.0159049
662.724	0.0160648
662.802	0.0162296
662.880	0.0163701
662.958	0.0163920
663.036	0.0163303
663.114	0.0163516
663.193	0.0161843
663.271	0.0161373
663.349	0.0158835
663.427	0.0156927
663.505	0.0154417
663.583	0.0152523
663.661	0.0149485
663.739	0.0146916
663.818	0.0142902
663.896	0.0139215
663.974	0.0135176
664.052	0.0130802
664.130	0.0128117
664.208	0.0125368
664.286	0.0121023
664.364	0.0117178
664.443	0.0111732
664.521	0.0110597
664.599	0.0106451
664.677	0.0103947
664.755	0.0100857
664.833	0.00992332
664.911	0.00954590
664.989	0.00946136
665.068	0.00946007
665.146	0.00936516
665.224	0.00921028
665.302	0.00914566
665.380	0.00927032
665.458	0.00940346
665.536	0.00959717
665.614	0.00975700
665.693	0.0101054
665.771	0.0103931
665.849	0.0105870
665.927	0.0109057
666.005	0.0112832
666.083	0.0115897
666.161	0.0121712
666.239	0.0125224
666.318	0.0129488
666.396	0.0133494
666.474	0.0137158
666.552	0.0140735
666.630	0.0144207
666.708	0.0149068
666.786	0.0151010
666.864	0.0153854
666.943	0.0155331
667.021	0.0157275
667.099	0.0157861
667.177	0.0158674
667.255	0.0159807
667.333	0.0159059
667.411	0.0157111
667.489	0.0156567
667.568	0.0158193
667.646	0.0155453
667.724	0.0151768
667.802	0.0149701
667.880	0.0147452
667.958	0.0144738
668.036	0.0142300
668.114	0.0139243
668.193	0.0136165
668.271	0.0134090
668.349	0.0130961
668.427	0.0128805
668.505	0.0124844
668.583	0.0123195
668.661	0.0120586
668.739	0.0118998
668.818	0.0116982
668.896	0.0114913
668.974	0.0113711
669.052	0.0112667
669.130	0.0112390
669.208	0.0109867
669.286	0.0108848
669.364	0.0108800
669.443	0.0108585
669.521	0.0108127
669.599	0.0107449
669.677	0.0107346
669.755	0.0108848
669.833	0.0108900
669.911	0.0110370
669.989	0.0109264
670.068	0.0110588
670.146	0.0110990
670.224	0.0113696
670.302	0.0114007
670.380	0.0116859
670.458	0.0118643
670.536	0.0119968
670.614	0.0120663
670.693	0.0122003
670.771	0.0126554
670.849	0.0127641
670.927	0.0128579
671.005	0.0130960
671.083	0.0133469
671.161	0.0134718
671.239	0.0136917
671.318	0.0139011
671.396	0.0141335
671.474	0.0141400
671.552	0.0143933
671.630	0.0143275
671.708	0.0143367
671.786	0.0143655
671.864	0.0143557
671.943	0.0142690
672.021	0.0142281
672.099	0.0140155
672.177	0.0139746
672.255	0.0138744
672.333	0.0137819
672.411	0.0136129
672.489	0.0133675
672.568	0.0133956
672.646	0.0129945
672.724	0.0129533
672.802	0.0128121
672.880	0.0126812
672.958	0.0126532
673.036	0.0125151
673.114	0.0124647
673.193	0.0124410
673.271	0.0123605
673.349	0.0125407
673.427	0.0124925
673.505	0.0125543
673.583	0.0125368
673.661	0.0125561
673.739	0.0127148
673.818	0.0127965
673.896	0.0130094
673.974	0.0130772
674.052	0.0132262
674.130	0.0132298
674.208	0.0131789
674.286	0.0132394
674.364	0.0133338
674.443	0.0134275
674.521	0.0132750
674.599	0.0131949
674.677	0.0130215
674.755	0.0128294
674.833	0.0127718
674.911	0.0126714
674.989	0.0125404
675.068	0.0124854
675.146	0.0122689
675.224	0.0120226
675.302	0.0118882
675.380	0.0119540
675.458	0.0118303
675.536	0.0115237
675.614	0.0115182
675.693	0.0113908
675.771	0.0113766
675.849	0.0113290
675.927	0.0113284
676.005	0.0112175
676.083	0.0113732
676.161	0.0113918
676.239	0.0114181
676.318	0.0114834
676.396	0.0116860
676.474	0.0118210
676.552	0.0121698
676.630	0.0122205
676.708	0.0122534
676.786	0.0126160
676.864	0.0127615
676.943	0.0127988
677.021	0.0130211
677.099	0.0133168
677.177	0.0134278
677.255	0.0135123
677.333	0.0135262
677.411	0.0137701
677.489	0.0140015
677.568	0.0139896
677.646	0.0140308
677.724	0.0140900
677.802	0.0141252
677.880	0.0141159
677.958	0.0141544
678.036	0.0142004
678.114	0.0142728
678.193	0.0141017
678.271	0.0141712
678.349	0.0140993
678.427	0.0140638
678.505	0.0140929
678.583	0.0139767
678.661	0.0139581
678.739	0.0140304
678.818	0.0139122
678.896	0.0137175
678.974	0.0138003
679.052	0.0135786
679.130	0.0135776
679.208	0.0136395
679.286	0.0135592
679.364	0.0134196
679.443	0.0134196
679.521	0.0132520
679.599	0.0130927
679.677	0.0130698
679.755	0.0130303
679.833	0.0129360
679.911	0.0126954
679.989	0.0125181
680.068	0.0124525
680.146	0.0123016
680.224	0.0121255
680.302	0.0117930
680.380	0.0116325
680.458	0.0114503
680.536	0.0113619
680.614	0.0111159
680.693	0.0109744
680.771	0.0106822
680.849	0.0105289
680.927	0.0105695
681.005	0.0103273
681.083	0.0101671
681.161	0.0103094
681.239	0.0101744
681.318	0.0102679
681.396	0.0105239
681.474	0.0105433
681.552	0.0107542
681.630	0.0109808
681.708	0.0111265
681.786	0.0114658
681.864	0.0118091
681.943	0.0120685
682.021	0.0123721
682.099	0.0128153
682.177	0.0131687
682.255	0.0135134
682.333	0.0138358
682.411	0.0140721
682.489	0.0142370
682.568	0.0145493
682.646	0.0149596
682.724	0.0151688
682.802	0.0151839
682.880	0.0154041
682.958	0.0155251
683.036	0.0155862
683.114	0.0157907
683.193	0.0156754
683.271	0.0154716
683.349	0.0154951
683.427	0.0153407
683.505	0.0151124
683.583	0.0149107
683.661	0.0148542
683.739	0.0146075
683.818	0.0143644
683.896	0.0140451
683.974	0.0137189
684.052	0.0133990
684.130	0.0131725
684.208	0.0129288
684.286	0.0125842
684.364	0.0123626
684.443	0.0121670
684.521	0.0120890
684.599	0.0118239
684.677	0.0116605
684.755	0.0115672
684.833	0.0114682
684.911	0.0113982
684.989	0.0113598
685.068	0.0114845
685.146	0.0115428
685.224	0.0114687
685.302	0.0115253
685.380	0.0115571
685.458	0.0115762
685.536	0.0117429
685.614	0.0118609
685.693	0.0118689
685.771	0.0119614
685.849	0.0118816
685.927	0.0120449
686.005	0.0121791
686.083	0.0120242
686.161	0.0120972
686.239	0.0121751
686.318	0.0121224
686.396	0.0121069
686.474	0.0121334
686.552	0.0120279
686.630	0.0120954
686.708	0.0121537
686.786	0.0121263
686.864	0.0120326
686.943	0.0122449
687.021	0.0122404
687.099	0.0123216
687.177	0.0124701
687.255	0.0124632
687.333	0.0125392
687.411	0.0127654
687.489	0.0127529
687.568	0.0129138
687.646	0.0131844
687.724	0.0131942
687.802	0.0130599
687.880	0.0132738
687.958	0.0135974
688.036	0.0136034
688.114	0.0137212
688.193	0.0140222
688.271	0.0140508
688.349	0.0140861
688.427	0.0141767
688.505	0.0142519
688.583	0.0144221
688.661	0.0145896
688.739	0.0145473
688.818	0.0144077
688.896	0.0144989
688.974	0.0143252
689.052	0.0141470
689.130	0.0140096
689.208	0.0138776
689.286	0.0138663
689.364	0.0136568
689.443	0.0133915
689.521	0.0133341
689.599	0.0130444
689.677	0.0127815
689.755	0.0126748
689.833	0.0126137
689.911	0.0122321
689.989	0.0123141
690.068	0.0121873
690.146	0.0120068
690.224	0.0120162
690.302	0.0119230
690.380	0.0118512
690.458	0.0117189
690.536	0.0118036
690.614	0.0118125
690.693	0.0120039
690.771	0.0121242
690.849	0.0122308
690.927	0.0121887
691.005	0.0123048
691.083	0.0124363
691.161	0.0125096
691.239	0.0125793
691.318	0.0125977
691.396	0.0125901
691.474	0.0126474
691.552	0.0126127
691.630	0.0126299
691.708	0.0128834
691.786	0.0126340
691.864	0.0125178
691.943	0.0124174
692.021	0.0124801
692.099	0.0123621
692.177	0.0122930
692.255	0.0123489
692.333	0.0122398
692.411	0.0121806
692.489	0.0121100
692.568	0.0121848
692.646	0.0122123
692.724	0.0120773
692.802	0.0121950
692.880	0.0122051
692.958	0.0122415
693.036	0.0124620
693.114	0.0124212
693.193	0.0125889
693.271	0.0127267
693.349	0.0129635
693.427	0.0128800
693.505	0.0132089
693.583	0.0133742
693.661	0.0136421
693.739	0.0137924
693.818	0.0138867
693.896	0.0138302
693.974	0.0139824
694.052	0.0140932
694.130	0.0143737
694.208	0.0143897
694.286	0.0144617
694.364	0.0144240
694.443	0.0144703
694.521	0.0143935
694.599	0.0144458
694.677	0.0143571
694.755	0.0142149
694.833	0.0141034
694.911	0.0139019
694.989	0.0136984
695.068	0.0137025
695.146	0.0133743
695.224	0.0133262
695.302	0.0130267
695.380	0.0129150
695.458	0.0127213
695.536	0.0125187
695.614	0.0122183
695.693	0.0121771
695.771	0.0119975
695.849	0.0118832
695.927	0.0117993
696.005	0.0116694
696.083	0.0116708
696.161	0.0116326
696.239	0.0116650
696.318	0.0117921
696.396	0.0119739
696.474	0.0120815
696.552	0.0120460
696.630	0.0122286
696.708	0.0122012
696.786	0.0123627
696.864	0.0124754
696.943	0.0125239
697.021	0.0126726
697.099	0.0126562
697.177	0.0127328
697.255	0.0129865
697.333	0.0129390
697.411	0.0130024
697.489	0.0131687
697.568	0.0133511
697.646	0.0133131
697.724	0.0132584
697.802	0.0134622
697.880	0.0133626
697.958	0.0133799
698.036	0.0133389
698.114	0.0135611
698.193	0.0132570
698.271	0.0133451
698.349	0.0132679
698.427	0.0131367
698.505	0.0129174
698.583	0.0128132
698.661	0.0127905
698.739	0.0126224
698.818	0.0125063
698.896	0.0124182
698.974	0.0123129
699.052	0.0123859
699.130	0.0120594
699.208	0.0121069
699.286	0.0119215
699.364	0.0117898
699.443	0.0118813
699.521	0.0117323
699.599	0.0118255
699.677	0.0116842
699.755	0.0117516
699.833	0.0117783
699.911	0.0119114
699.989	0.0119150
700.068	0.0121229
700.146	0.0123586
700.224	0.0124153
700.302	0.0125898
700.380	0.0128035
700.458	0.0129831
700.536	0.0129941
700.614	0.0131529
700.693	0.0132516
700.771	0.0132964
700.849	0.0134394
700.927	0.0137231
701.005	0.0137106
701.083	0.0135923
701.161	0.0138432
701.239	0.0140957
701.318	0.0138508
701.396	0.0138190
701.474	0.0138798
701.552	0.0139267
701.630	0.0139436
701.708	0.0138366
701.786	0.0139409
701.864	0.0137310
701.943	0.0137431
702.021	0.0137037
702.099	0.0135102
702.177	0.0133276
702.255	0.0130635
702.333	0.0130133
702.411	0.0129295
702.489	0.0126505
702.568	0.0126117
702.646	0.0124150
702.724	0.0123660
702.802	0.0122355
702.880	0.0121029
702.958	0.0118977
703.036	0.0119329
703.114	0.0118394
703.193	0.0118745
703.271	0.0121096
703.349	0.0119560
703.427	0.0117852
703.505	0.0118555
703.583	0.0120600
703.661	0.0119600
703.739	0.0120138
703.818	0.0121646
703.896	0.0121400
703.974	0.0123352
704.052	0.0123829
704.130	0.0123672
704.208	0.0122550
704.286	0.0124659
704.364	0.0125248
704.443	0.0125186
704.521	0.0124532
704.599	0.0123124
704.677	0.0125140
704.755	0.0123927
704.833	0.0122813
704.911	0.0124058
704.989	0.0125086
705.068	0.0124023
705.146	0.0125381
705.224	0.0126796
705.302	0.0127085
705.380	0.0126909
705.458	0.0128485
705.536	0.0129153
705.614	0.0130376
705.693	0.0132357
705.771	0.0131998
705.849	0.0133225
705.927	0.0135667
706.005	0.0137326
706.083	0.0138013
706.161	0.0138774
706.239	0.0140659
706.318	0.0140781
706.396	0.0141626
706.474	0.0141499
706.552	0.0142570
706.630	0.0144624
706.708	0.0145157
706.786	0.0143628
706.864	0.0143236
706.943	0.0143195
707.021	0.0141020
707.099	0.0140549
707.177	0.0139945
707.255	0.0138731
707.333	0.0137180
707.411	0.0135899
707.489	0.0133427
707.568	0.0132008
707.646	0.0130461
707.724	0.0129446
707.802	0.0126395
707.880	0.0124531
707.958	0.0124033
708.036	0.0123375
708.114	0.0121954
708.193	0.0120210
708.271	0.0119329
708.349	0.0118393
708.427	0.0117709
708.505	0.0116322
708.583	0.0116405
708.661	0.0115454
708.739	0.0116399
708.818	0.0114915
708.896	0.0115579
708.974	0.0116759
709.052	0.0117026
709.130	0.0116866
709.208	0.0116955
709.286	0.0117919
709.364	0.0121246
709.443	0.0121474
709.521	0.0122593
709.599	0.0123603
709.677	0.0125406
709.755	0.0127218
709.833	0.0127921
709.911	0.0130005
709.989	0.0130579
710.068	0.0131622
710.146	0.0132275
710.224	0.0134113
710.302	0.0133960
710.380	0.0133195
710.458	0.0132593
710.536	0.0133617
710.614	0.0132091
710.693	0.0132314
710.771	0.0132973
710.849	0.0131553
710.927	0.0131143
711.005	0.0130626
711.083	0.0130073
711.161	0.0129667
711.239	0.0130457
711.318	0.0130445
711.396	0.0130837
711.474	0.0129772
711.552	0.0128378
711.630	0.0128493
711.708	0.0128917
711.786	0.0127489
711.864	0.0128336
711.943	0.0128384
712.021	0.0127533
712.099	0.0128104
712.177	0.0127832
712.255	0.0129041
712.333	0.0126333
712.411	0.0126319
712.489	0.0128719
712.568	0.0129834
712.646	0.0128733
712.724	0.0128470
712.802	0.0129621
712.880	0.0130965
712.958	0.0131841
713.036	0.0130769
713.114	0.0131520
713.193	0.0132471
713.271	0.0133646
713.349	0.0131259
713.427	0.0132069
713.505	0.0132202
713.583	0.0131544
713.661	0.0132021
713.739	0.0130949
713.818	0.0130202
713.896	0.0130110
713.974	0.0130805
714.052	0.0130047
714.130	0.0129588
714.208	0.0128664
714.286	0.0127725
714.364	0.0127386
714.443	0.0124987
714.521	0.0125690
714.599	0.0124584
714.677	0.0124358
714.755	0.0124056
714.833	0.0123906
714.911	0.0123124
714.989	0.0121272
715.068	0.0121021
715.146	0.0122142
715.224	0.0120356
715.302	0.0121249
715.380	0.0120332
715.458	0.0120787
715.536	0.0121135
715.614	0.0122350
715.693	0.0121178
715.771	0.0121342
715.849	0.0120036
715.927	0.0121635
716.005	0.0122859
716.083	0.0123616
716.161	0.0123665
716.239	0.0124454
716.318	0.0123905
716.396	0.0125817
716.474	0.0127181
716.552	0.0126295
716.630	0.0128009
716.708	0.0129456
716.786	0.0129961
716.864	0.0130109
716.943	0.0130887
717.021	0.0130532
717.099	0.0133014
717.177	0.0132498
717.255	0.0131047
717.333	0.0131908
717.411	0.0132130
717.489	0.0132539
717.568	0.0130673
717.646	0.0132036
717.724	0.0130860
717.802	0.0129768
717.880	0.0129189
717.958	0.0129353
718.036	0.0129786
718.114	0.0129618
718.193	0.0127851
718.271	0.0128223
718.349	0.0128452
718.427	0.0128783
718.505	0.0129002
718.583	0.0127573
718.661	0.0129443
718.739	0.0129523
718.818	0.0126931
718.896	0.0128020
718.974	0.0127412
719.052	0.0128188
719.130	0.0128720
719.208	0.0128837
719.286	0.0129764
719.364	0.0128648
719.443	0.0127210
719.521	0.0129057
719.599	0.0129325
719.677	0.0128666
719.755	0.0128708
719.833	0.0128459
719.911	0.0128511
719.989	0.0127906
720.068	0.0127732
720.146	0.0127954
720.224	0.0128194
720.302	0.0127541
720.380	0.0127731
720.458	0.0128128
720.536	0.0127059
720.614	0.0126751
720.693	0.0125731
720.771	0.0127445
720.849	0.0126099
720.927	0.0125742
721.005	0.0125665
721.083	0.0124079
721.161	0.0123410
721.239	0.0123593
721.318	0.0122485
721.396	0.0120660
721.474	0.0120850
721.552	0.0121912
721.630	0.0121409
721.708	0.0120610
721.786	0.0123015
721.864	0.0121677
721.943	0.0121084
722.021	0.0123431
722.099	0.0125430
722.177	0.0124900
722.255	0.0126433
722.333	0.0126679
722.411	0.0127499
722.489	0.0128514
722.568	0.0130578
722.646	0.0130525
722.724	0.0132500
722.802	0.0132990
722.880	0.0133237
722.958	0.0132926
723.036	0.0134295
723.114	0.0134537
723.193	0.0134869
723.271	0.0135812
723.349	0.0134283
723.427	0.0133970
723.505	0.0134577
723.583	0.0133897
723.661	0.0131609
723.739	0.0131653
723.818	0.0132040
723.896	0.0132034
723.974	0.0130898
724.052	0.0131182
724.130	0.0129674
724.208	0.0128187
724.286	0.0130495
724.364	0.0130517
724.443	0.0129064
724.521	0.0126527
724.599	0.0127998
724.677	0.0128897
724.755	0.0128307
724.833	0.0128327
724.911	0.0129257
724.989	0.0129522
725.068	0.0128880
725.146	0.0130759
725.224	0.0127967
725.302	0.0130017
725.380	0.0132360
725.458	0.0131211
725.536	0.0132757
725.614	0.0132525
