05/07/2022	17:47:54	Ver.	4.1	UNKNOWN
Optical Delay	639.989416	Delta X		0.078125	Sweeps	1	Scan Rate	0/0
Coordinates	Axis 1	NaN	Axis 2	NaN	Axis 3	NaN	Axis 4	NaN	Axis 5	NaN	Axis 6	0.000000
TX Power	0.000000	RX Power	0.000000

639.989	0.0129105
640.068	0.0128547
640.146	0.0128583
640.224	0.0129308
640.302	0.0128758
640.380	0.0129058
640.458	0.0129014
640.536	0.0129455
640.614	0.0128723
640.693	0.0128750
640.771	0.0127339
640.849	0.0128637
640.927	0.0129654
641.005	0.0127683
641.083	0.0127564
641.161	0.0127657
641.239	0.0126826
641.318	0.0127279
641.396	0.0127506
641.474	0.0127012
641.552	0.0127131
641.630	0.0126881
641.708	0.0126878
641.786	0.0126056
641.864	0.0127510
641.943	0.0128111
642.021	0.0126534
642.099	0.0128055
642.177	0.0127309
642.255	0.0128054
642.333	0.0127522
642.411	0.0128674
642.489	0.0129758
642.568	0.0129091
642.646	0.0129903
642.724	0.0129933
642.802	0.0128503
642.880	0.0129778
642.958	0.0128906
643.036	0.0130387
643.114	0.0129053
643.193	0.0127219
643.271	0.0127027
643.349	0.0127840
643.427	0.0129102
643.505	0.0127326
643.583	0.0127592
643.661	0.0127560
643.739	0.0125751
643.818	0.0126855
643.896	0.0125462
643.974	0.0125089
644.052	0.0124274
644.130	0.0125769
644.208	0.0123932
644.286	0.0125199
644.364	0.0125812
644.443	0.0126701
644.521	0.0126035
644.599	0.0126405
644.677	0.0126772
644.755	0.0126225
644.833	0.0128632
644.911	0.0129700
644.989	0.0130585
645.068	0.0130325
645.146	0.0130619
645.224	0.0132185
645.302	0.0131380
645.380	0.0133187
645.458	0.0133441
645.536	0.0133878
645.614	0.0132991
645.693	0.0132738
645.771	0.0133915
645.849	0.0133394
645.927	0.0132352
646.005	0.0131760
646.083	0.0131774
646.161	0.0131076
646.239	0.0130231
646.318	0.0129678
646.396	0.0127589
646.474	0.0126985
646.552	0.0125652
646.630	0.0125781
646.708	0.0124461
646.786	0.0123233
646.864	0.0123518
646.943	0.0122311
647.021	0.0122344
647.099	0.0120834
647.177	0.0121983
647.255	0.0122581
647.333	0.0123743
647.411	0.0124628
647.489	0.0123111
647.568	0.0123793
647.646	0.0124501
647.724	0.0126240
647.802	0.0127747
647.880	0.0127786
647.958	0.0128230
648.036	0.0128546
648.114	0.0128200
648.193	0.0130428
648.271	0.0131300
648.349	0.0130592
648.427	0.0132796
648.505	0.0133894
648.583	0.0131710
648.661	0.0132875
648.739	0.0134121
648.818	0.0135622
648.896	0.0134161
648.974	0.0133085
649.052	0.0131563
649.130	0.0133952
649.208	0.0134045
649.286	0.0133232
649.364	0.0132327
649.443	0.0132264
649.521	0.0132384
649.599	0.0131214
649.677	0.0130107
649.755	0.0129742
649.833	0.0126803
649.911	0.0128989
649.989	0.0128717
650.068	0.0127280
650.146	0.0125949
650.224	0.0124856
650.302	0.0125661
650.380	0.0125502
650.458	0.0124402
650.536	0.0122058
650.614	0.0124957
650.693	0.0124066
650.771	0.0123362
650.849	0.0123796
650.927	0.0122736
651.005	0.0122830
651.083	0.0123621
651.161	0.0121891
651.239	0.0121513
651.318	0.0121273
651.396	0.0122265
651.474	0.0122527
651.552	0.0121899
651.630	0.0123246
651.708	0.0123508
651.786	0.0122919
651.864	0.0122931
651.943	0.0123435
652.021	0.0124124
652.099	0.0124776
652.177	0.0125401
652.255	0.0126781
652.333	0.0126623
652.411	0.0127966
652.489	0.0128643
652.568	0.0129265
652.646	0.0130093
652.724	0.0131865
652.802	0.0133469
652.880	0.0133178
652.958	0.0135737
653.036	0.0136174
653.114	0.0135632
653.193	0.0136977
653.271	0.0137827
653.349	0.0136120
653.427	0.0138746
653.505	0.0136930
653.583	0.0137540
653.661	0.0135679
653.739	0.0135768
653.818	0.0135911
653.896	0.0133071
653.974	0.0132648
654.052	0.0132634
654.130	0.0130564
654.208	0.0129955
654.286	0.0129030
654.364	0.0127710
654.443	0.0124751
654.521	0.0123848
654.599	0.0122740
654.677	0.0120455
654.755	0.0119512
654.833	0.0117699
654.911	0.0116252
654.989	0.0114468
655.068	0.0112603
655.146	0.0113727
655.224	0.0111603
655.302	0.0111181
655.380	0.0109894
655.458	0.0112449
655.536	0.0110838
655.614	0.0111719
655.693	0.0112395
655.771	0.0113895
655.849	0.0115536
655.927	0.0116768
656.005	0.0118450
656.083	0.0118203
656.161	0.0120033
656.239	0.0122765
656.318	0.0127220
656.396	0.0129156
656.474	0.0131153
656.552	0.0132610
656.630	0.0134452
656.708	0.0138342
656.786	0.0139419
656.864	0.0140958
656.943	0.0142547
657.021	0.0144556
657.099	0.0146831
657.177	0.0147366
657.255	0.0147882
657.333	0.0148782
657.411	0.0148168
657.489	0.0146837
657.568	0.0147666
657.646	0.0147400
657.724	0.0145573
657.802	0.0143400
657.880	0.0142436
657.958	0.0139824
658.036	0.0138248
658.114	0.0134526
658.193	0.0133165
658.271	0.0130752
658.349	0.0127826
658.427	0.0127821
658.505	0.0123946
658.583	0.0121458
658.661	0.0120146
658.739	0.0116824
658.818	0.0114492
658.896	0.0112879
658.974	0.0111459
659.052	0.0109057
659.130	0.0109245
659.208	0.0109159
659.286	0.0107124
659.364	0.0106950
659.443	0.0105910
659.521	0.0106388
659.599	0.0108639
659.677	0.0108856
659.755	0.0109033
659.833	0.0109657
659.911	0.0110066
659.989	0.0112617
660.068	0.0113372
660.146	0.0116212
660.224	0.0117042
660.302	0.0119216
660.380	0.0121172
660.458	0.0122668
660.536	0.0126508
660.614	0.0129086
660.693	0.0130209
660.771	0.0131210
660.849	0.0133934
660.927	0.0136550
661.005	0.0138997
661.083	0.0140207
661.161	0.0141306
661.239	0.0143308
661.318	0.0145168
661.396	0.0147147
661.474	0.0148544
661.552	0.0150090
661.630	0.0151064
661.708	0.0151894
661.786	0.0152175
661.864	0.0151089
661.943	0.0151979
662.021	0.0152737
662.099	0.0151840
662.177	0.0150471
662.255	0.0149222
662.333	0.0149687
662.411	0.0147467
662.489	0.0145680
662.568	0.0144273
662.646	0.0141921
662.724	0.0139088
662.802	0.0135662
662.880	0.0132915
662.958	0.0129267
663.036	0.0127602
663.114	0.0123851
663.193	0.0119743
663.271	0.0116921
663.349	0.0113471
663.427	0.0110190
663.505	0.0107619
663.583	0.0104156
663.661	0.0100496
663.739	0.00991158
663.818	0.00985970
663.896	0.00971336
663.974	0.00969894
664.052	0.00959442
664.130	0.00954414
664.208	0.00972687
664.286	0.00986664
664.364	0.00981804
664.443	0.0101859
664.521	0.0103696
664.599	0.0106463
664.677	0.0109724
664.755	0.0113584
664.833	0.0116847
664.911	0.0119780
664.989	0.0123737
665.068	0.0129619
665.146	0.0131879
665.224	0.0135294
665.302	0.0140010
665.380	0.0140810
665.458	0.0146103
665.536	0.0145705
665.614	0.0150449
665.693	0.0151394
665.771	0.0152448
665.849	0.0153891
665.927	0.0155090
666.005	0.0155777
666.083	0.0155417
666.161	0.0157021
666.239	0.0155795
666.318	0.0154987
666.396	0.0154158
666.474	0.0153709
666.552	0.0153625
666.630	0.0153601
666.708	0.0151403
666.786	0.0148067
666.864	0.0147205
666.943	0.0144810
667.021	0.0140588
667.099	0.0140120
667.177	0.0137790
667.255	0.0135180
667.333	0.0133630
667.411	0.0131204
667.489	0.0128119
667.568	0.0124751
667.646	0.0122407
667.724	0.0120181
667.802	0.0116981
667.880	0.0113876
667.958	0.0113272
668.036	0.0108851
668.114	0.0106325
668.193	0.0104379
668.271	0.0101105
668.349	0.00980736
668.427	0.00978653
668.505	0.00968414
668.583	0.00954315
668.661	0.00950722
668.739	0.00948151
668.818	0.00965828
668.896	0.00967857
668.974	0.00985580
669.052	0.0101435
669.130	0.0103378
669.208	0.0106886
669.286	0.0108615
669.364	0.0112411
669.443	0.0118092
669.521	0.0120465
669.599	0.0125005
669.677	0.0130208
669.755	0.0132436
669.833	0.0136481
669.911	0.0140836
669.989	0.0144691
670.068	0.0146767
670.146	0.0150588
670.224	0.0152110
670.302	0.0154455
670.380	0.0155809
670.458	0.0157192
670.536	0.0158667
670.614	0.0157397
670.693	0.0157654
670.771	0.0156815
670.849	0.0156450
670.927	0.0155418
671.005	0.0152259
671.083	0.0151438
671.161	0.0147194
671.239	0.0146643
671.318	0.0143478
671.396	0.0142000
671.474	0.0137485
671.552	0.0135309
671.630	0.0132156
671.708	0.0130064
671.786	0.0129373
671.864	0.0126213
671.943	0.0124034
672.021	0.0123239
672.099	0.0120413
672.177	0.0118350
672.255	0.0118420
672.333	0.0116763
672.411	0.0113985
672.489	0.0114764
672.568	0.0114278
672.646	0.0114372
672.724	0.0112737
672.802	0.0112727
672.880	0.0111689
672.958	0.0111631
673.036	0.0110558
673.114	0.0110991
673.193	0.0111192
673.271	0.0111453
673.349	0.0111379
673.427	0.0110857
673.505	0.0111084
673.583	0.0112351
673.661	0.0112807
673.739	0.0110992
673.818	0.0113906
673.896	0.0114954
673.974	0.0114108
674.052	0.0117042
674.130	0.0118906
674.208	0.0119759
674.286	0.0120856
674.364	0.0124704
674.443	0.0124617
674.521	0.0125800
674.599	0.0130430
674.677	0.0131492
674.755	0.0131492
674.833	0.0134840
674.911	0.0134605
674.989	0.0137318
675.068	0.0137864
675.146	0.0139287
675.224	0.0140947
675.302	0.0141982
675.380	0.0142209
675.458	0.0142840
675.536	0.0142245
675.614	0.0141899
675.693	0.0141396
675.771	0.0140279
675.849	0.0138968
675.927	0.0137385
676.005	0.0136499
676.083	0.0136295
676.161	0.0133470
676.239	0.0133958
676.318	0.0132010
676.396	0.0130502
676.474	0.0129784
676.552	0.0129588
676.630	0.0127854
676.708	0.0127443
676.786	0.0127106
676.864	0.0125861
676.943	0.0126389
677.021	0.0126064
677.099	0.0124300
677.177	0.0124867
677.255	0.0124924
677.333	0.0125768
677.411	0.0126364
677.489	0.0125835
677.568	0.0127834
677.646	0.0127253
677.724	0.0127665
677.802	0.0127995
677.880	0.0127081
677.958	0.0128754
678.036	0.0130595
678.114	0.0129385
678.193	0.0129777
678.271	0.0130219
678.349	0.0129120
678.427	0.0129158
678.505	0.0127417
678.583	0.0127068
678.661	0.0125929
678.739	0.0126065
678.818	0.0124739
678.896	0.0125669
678.974	0.0123950
679.052	0.0123322
679.130	0.0122368
679.208	0.0122302
679.286	0.0121153
679.364	0.0119865
679.443	0.0119636
679.521	0.0118329
679.599	0.0118228
679.677	0.0116779
679.755	0.0115479
679.833	0.0117378
679.911	0.0117635
679.989	0.0119146
680.068	0.0117834
680.146	0.0119328
680.224	0.0121544
680.302	0.0120610
680.380	0.0122022
680.458	0.0122524
680.536	0.0124484
680.614	0.0124725
680.693	0.0126868
680.771	0.0126070
680.849	0.0128195
680.927	0.0129774
681.005	0.0130684
681.083	0.0132052
681.161	0.0134109
681.239	0.0135589
681.318	0.0135841
681.396	0.0137163
681.474	0.0137753
681.552	0.0137915
681.630	0.0139029
681.708	0.0139155
681.786	0.0140271
681.864	0.0140473
681.943	0.0140573
682.021	0.0141046
682.099	0.0140556
682.177	0.0139537
682.255	0.0139249
682.333	0.0139289
682.411	0.0136959
682.489	0.0135291
682.568	0.0136274
682.646	0.0134911
682.724	0.0133437
682.802	0.0130446
682.880	0.0128662
682.958	0.0128784
683.036	0.0127412
683.114	0.0126976
683.193	0.0124751
683.271	0.0122935
683.349	0.0122356
683.427	0.0122987
683.505	0.0122650
683.583	0.0122124
683.661	0.0121114
683.739	0.0120859
683.818	0.0121626
683.896	0.0120924
683.974	0.0119540
684.052	0.0119485
684.130	0.0120096
684.208	0.0121636
684.286	0.0120036
684.364	0.0119828
684.443	0.0120044
684.521	0.0121343
684.599	0.0121349
684.677	0.0122714
684.755	0.0121416
684.833	0.0122266
684.911	0.0122114
684.989	0.0121790
685.068	0.0122066
685.146	0.0122856
685.224	0.0121600
685.302	0.0124212
685.380	0.0124190
685.458	0.0124075
685.536	0.0124923
685.614	0.0125050
685.693	0.0125282
685.771	0.0126359
685.849	0.0127052
685.927	0.0127065
686.005	0.0126781
686.083	0.0128187
686.161	0.0129362
686.239	0.0130338
686.318	0.0130309
686.396	0.0130489
686.474	0.0131993
686.552	0.0133278
686.630	0.0131573
686.708	0.0131608
686.786	0.0134000
686.864	0.0134705
686.943	0.0132655
687.021	0.0133350
687.099	0.0132819
687.177	0.0134345
687.255	0.0133547
687.333	0.0132959
687.411	0.0131944
687.489	0.0131861
687.568	0.0132105
687.646	0.0128834
687.724	0.0129598
687.802	0.0129788
687.880	0.0129154
687.958	0.0128123
688.036	0.0128613
688.114	0.0128043
688.193	0.0126491
688.271	0.0126323
688.349	0.0127207
688.427	0.0126819
688.505	0.0127154
688.583	0.0125851
688.661	0.0127094
688.739	0.0128064
688.818	0.0126362
688.896	0.0127448
688.974	0.0129037
689.052	0.0128882
689.130	0.0129778
689.208	0.0129184
689.286	0.0129108
689.364	0.0131923
689.443	0.0133254
689.521	0.0132422
689.599	0.0132997
689.677	0.0132893
689.755	0.0133326
689.833	0.0133392
689.911	0.0134680
689.989	0.0135334
690.068	0.0134842
690.146	0.0133026
690.224	0.0132253
690.302	0.0132377
690.380	0.0132301
690.458	0.0129696
690.536	0.0129190
690.614	0.0127488
690.693	0.0128254
690.771	0.0123792
690.849	0.0124435
690.927	0.0122688
691.005	0.0120835
691.083	0.0119244
691.161	0.0118602
691.239	0.0115773
691.318	0.0114687
691.396	0.0113409
691.474	0.0114074
691.552	0.0113873
691.630	0.0111786
691.708	0.0113647
691.786	0.0112995
691.864	0.0113159
691.943	0.0115350
692.021	0.0116422
692.099	0.0117892
692.177	0.0120022
692.255	0.0121411
692.333	0.0122214
692.411	0.0125068
692.489	0.0127509
692.568	0.0129214
692.646	0.0132287
692.724	0.0133025
692.802	0.0136418
692.880	0.0137074
692.958	0.0138223
693.036	0.0141518
693.114	0.0142539
693.193	0.0143404
693.271	0.0142062
693.349	0.0144017
693.427	0.0145718
693.505	0.0144535
693.583	0.0145982
693.661	0.0145421
693.739	0.0145560
693.818	0.0145129
693.896	0.0144761
693.974	0.0143248
694.052	0.0143224
694.130	0.0142252
694.208	0.0141878
694.286	0.0139542
694.364	0.0139679
694.443	0.0137491
694.521	0.0134987
694.599	0.0134528
694.677	0.0132618
694.755	0.0133497
694.833	0.0131498
694.911	0.0128654
694.989	0.0127820
695.068	0.0127297
695.146	0.0125124
695.224	0.0123284
695.302	0.0123530
695.380	0.0123132
695.458	0.0121841
695.536	0.0119759
695.614	0.0120248
695.693	0.0119849
695.771	0.0119233
695.849	0.0117636
695.927	0.0116409
696.005	0.0119466
696.083	0.0117914
696.161	0.0117892
696.239	0.0118934
696.318	0.0117688
696.396	0.0117804
696.474	0.0119183
696.552	0.0119254
696.630	0.0119180
696.708	0.0120582
696.786	0.0120699
696.864	0.0120939
696.943	0.0120944
697.021	0.0121010
697.099	0.0123210
697.177	0.0123290
697.255	0.0123318
697.333	0.0122942
697.411	0.0123880
697.489	0.0125665
697.568	0.0125949
697.646	0.0126448
697.724	0.0126231
697.802	0.0128144
697.880	0.0129259
697.958	0.0129655
698.036	0.0129257
698.114	0.0129261
698.193	0.0131524
698.271	0.0131319
698.349	0.0132107
698.427	0.0132078
698.505	0.0132137
698.583	0.0133234
698.661	0.0132214
698.739	0.0132001
698.818	0.0133050
698.896	0.0133778
698.974	0.0132607
699.052	0.0133678
699.130	0.0134771
699.208	0.0135326
699.286	0.0135359
699.364	0.0135252
699.443	0.0135696
699.521	0.0135110
699.599	0.0135049
699.677	0.0135958
699.755	0.0135233
699.833	0.0135991
699.911	0.0134902
699.989	0.0135047
700.068	0.0133997
700.146	0.0135376
700.224	0.0133445
700.302	0.0131547
700.380	0.0133881
700.458	0.0132198
700.536	0.0129733
700.614	0.0130167
700.693	0.0129221
700.771	0.0127744
700.849	0.0127384
700.927	0.0126260
701.005	0.0124838
701.083	0.0124174
701.161	0.0124114
701.239	0.0122003
701.318	0.0121861
701.396	0.0119910
701.474	0.0118757
701.552	0.0119424
701.630	0.0120009
701.708	0.0120010
701.786	0.0119827
701.864	0.0120054
701.943	0.0120401
702.021	0.0120406
702.099	0.0120561
702.177	0.0122321
702.255	0.0121716
702.333	0.0122659
702.411	0.0123782
702.489	0.0123757
702.568	0.0124249
702.646	0.0125729
702.724	0.0123296
702.802	0.0124194
702.880	0.0125039
702.958	0.0124244
703.036	0.0123634
703.114	0.0124586
703.193	0.0126281
703.271	0.0125890
703.349	0.0124667
703.427	0.0124798
703.505	0.0124866
703.583	0.0125562
703.661	0.0125002
703.739	0.0124644
703.818	0.0124265
703.896	0.0124432
703.974	0.0125652
704.052	0.0124728
704.130	0.0125388
704.208	0.0125888
704.286	0.0125738
704.364	0.0127055
704.443	0.0127648
704.521	0.0129374
704.599	0.0128474
704.677	0.0129880
704.755	0.0131774
704.833	0.0131896
704.911	0.0132469
704.989	0.0133329
705.068	0.0135510
705.146	0.0134246
705.224	0.0135040
705.302	0.0135202
705.380	0.0135517
705.458	0.0135346
705.536	0.0137337
705.614	0.0137058
705.693	0.0135908
705.771	0.0135091
705.849	0.0134632
705.927	0.0134653
706.005	0.0135548
706.083	0.0133942
706.161	0.0134342
706.239	0.0132695
706.318	0.0133340
706.396	0.0133073
706.474	0.0131940
706.552	0.0129856
706.630	0.0131473
706.708	0.0129403
706.786	0.0128599
706.864	0.0128140
706.943	0.0127774
707.021	0.0126653
707.099	0.0126032
707.177	0.0123149
707.255	0.0123800
707.333	0.0124108
707.411	0.0123112
707.489	0.0121781
707.568	0.0122775
707.646	0.0122341
707.724	0.0122940
707.802	0.0123239
707.880	0.0121140
707.958	0.0122008
708.036	0.0121906
708.114	0.0121822
708.193	0.0124474
708.271	0.0122238
708.349	0.0123307
708.427	0.0122805
708.505	0.0120934
708.583	0.0121887
708.661	0.0122771
708.739	0.0125337
708.818	0.0123453
708.896	0.0123173
708.974	0.0124866
709.052	0.0124765
709.130	0.0125042
709.208	0.0126209
709.286	0.0126199
709.364	0.0126895
709.443	0.0126823
709.521	0.0126909
709.599	0.0128783
709.677	0.0128902
709.755	0.0128561
709.833	0.0128202
709.911	0.0129276
709.989	0.0129260
710.068	0.0128470
710.146	0.0128987
710.224	0.0129957
710.302	0.0131071
710.380	0.0130746
710.458	0.0129300
710.536	0.0130157
710.614	0.0130379
710.693	0.0130660
710.771	0.0129719
710.849	0.0129538
710.927	0.0129803
711.005	0.0130533
711.083	0.0131611
711.161	0.0130351
711.239	0.0130418
711.318	0.0131278
711.396	0.0132717
711.474	0.0132074
711.552	0.0133534
711.630	0.0134595
711.708	0.0133341
711.786	0.0135175
711.864	0.0137051
711.943	0.0134417
712.021	0.0137354
712.099	0.0137238
712.177	0.0137012
712.255	0.0136260
712.333	0.0136269
712.411	0.0136809
712.489	0.0136638
712.568	0.0136200
712.646	0.0135156
712.724	0.0136288
712.802	0.0135005
712.880	0.0134566
712.958	0.0132444
713.036	0.0130907
713.114	0.0131573
713.193	0.0128864
713.271	0.0126742
713.349	0.0127184
713.427	0.0125638
713.505	0.0124490
713.583	0.0124191
713.661	0.0123950
713.739	0.0120938
713.818	0.0121514
713.896	0.0120425
713.974	0.0122118
714.052	0.0120457
714.130	0.0119529
714.208	0.0120543
714.286	0.0120920
714.364	0.0119379
714.443	0.0121041
714.521	0.0120962
714.599	0.0121049
714.677	0.0122052
714.755	0.0123079
714.833	0.0123730
714.911	0.0122433
714.989	0.0122987
715.068	0.0123276
715.146	0.0124395
715.224	0.0126276
715.302	0.0127113
715.380	0.0125669
715.458	0.0126529
715.536	0.0126173
715.614	0.0127280
715.693	0.0127369
715.771	0.0128306
715.849	0.0129702
715.927	0.0131012
716.005	0.0130309
716.083	0.0130996
716.161	0.0130111
716.239	0.0131599
716.318	0.0132156
716.396	0.0133218
716.474	0.0134259
716.552	0.0133159
716.630	0.0133927
716.708	0.0134504
716.786	0.0133884
716.864	0.0133062
716.943	0.0133994
717.021	0.0132186
717.099	0.0133469
717.177	0.0134890
717.255	0.0134415
717.333	0.0133494
717.411	0.0132407
717.489	0.0133230
717.568	0.0134031
717.646	0.0134507
717.724	0.0135324
717.802	0.0134652
717.880	0.0135472
717.958	0.0135087
718.036	0.0133373
718.114	0.0133466
718.193	0.0135542
718.271	0.0134432
718.349	0.0132449
718.427	0.0132208
718.505	0.0132461
718.583	0.0132097
718.661	0.0130476
718.739	0.0131358
718.818	0.0130472
718.896	0.0128793
718.974	0.0128796
719.052	0.0128880
719.130	0.0127701
719.208	0.0127780
719.286	0.0127747
719.364	0.0126193
719.443	0.0125777
719.521	0.0125491
719.599	0.0126115
719.677	0.0124801
719.755	0.0125330
719.833	0.0123800
719.911	0.0124684
719.989	0.0124010
720.068	0.0122344
720.146	0.0122781
720.224	0.0123214
720.302	0.0122769
720.380	0.0122903
720.458	0.0123176
720.536	0.0122788
720.614	0.0122756
720.693	0.0123820
720.771	0.0123077
720.849	0.0123830
720.927	0.0122950
721.005	0.0124148
721.083	0.0124671
721.161	0.0123647
721.239	0.0124174
721.318	0.0126862
721.396	0.0125133
721.474	0.0126585
721.552	0.0125275
721.630	0.0126431
721.708	0.0127805
721.786	0.0128596
721.864	0.0129305
721.943	0.0128749
722.021	0.0129266
722.099	0.0129284
722.177	0.0129484
722.255	0.0130144
722.333	0.0130664
722.411	0.0130418
722.489	0.0128278
722.568	0.0129029
722.646	0.0130691
722.724	0.0130772
722.802	0.0129401
722.880	0.0128843
722.958	0.0130304
723.036	0.0130520
723.114	0.0131154
723.193	0.0130855
723.271	0.0130761
723.349	0.0128822
723.427	0.0129438
723.505	0.0130566
723.583	0.0128069
723.661	0.0129291
723.739	0.0130386
723.818	0.0128445
723.896	0.0129661
723.974	0.0130399
724.052	0.0128920
724.130	0.0128860
724.208	0.0129406
724.286	0.0128936
724.364	0.0130318
724.443	0.0129906
724.521	0.0129622
724.599	0.0129470
724.677	0.0129993
724.755	0.0130467
724.833	0.0129310
724.911	0.0128866
724.989	0.0130548
725.068	0.0130331
725.146	0.0130246
725.224	0.0130186
725.302	0.0130029
725.380	0.0129486
725.458	0.0131072
725.536	0.0129390
725.614	0.0128572
