05/07/2022	17:48:44	Ver.	4.1	UNKNOWN
Optical Delay	639.989416	Delta X		0.078125	Sweeps	1	Scan Rate	0/0
Coordinates	Axis 1	NaN	Axis 2	NaN	Axis 3	NaN	Axis 4	NaN	Axis 5	NaN	Axis 6	0.000000
TX Power	0.000000	RX Power	0.000000

639.989	0.0126154
640.068	0.0127962
640.146	0.0128179
640.224	0.0127177
640.302	0.0127197
640.380	0.0126182
640.458	0.0126976
640.536	0.0126559
640.614	0.0124726
640.693	0.0126275
640.771	0.0124333
640.849	0.0125089
640.927	0.0125486
641.005	0.0124560
641.083	0.0125243
641.161	0.0125333
641.239	0.0124327
641.318	0.0124785
641.396	0.0123021
641.474	0.0124405
641.552	0.0124839
641.630	0.0124612
641.708	0.0125816
641.786	0.0127707
641.864	0.0125024
641.943	0.0125858
642.021	0.0127429
642.099	0.0127682
642.177	0.0127161
642.255	0.0127365
642.333	0.0126834
642.411	0.0128151
642.489	0.0128544
642.568	0.0127380
642.646	0.0126362
642.724	0.0128055
642.802	0.0127054
642.880	0.0127496
642.958	0.0127299
643.036	0.0125011
643.114	0.0125228
643.193	0.0124471
643.271	0.0125656
643.349	0.0124314
643.427	0.0122927
643.505	0.0123306
643.583	0.0122953
643.661	0.0123047
643.739	0.0123376
643.818	0.0122835
643.896	0.0121175
643.974	0.0124716
644.052	0.0122523
644.130	0.0124358
644.208	0.0123790
644.286	0.0123901
644.364	0.0124158
644.443	0.0125172
644.521	0.0126460
644.599	0.0127125
644.677	0.0127379
644.755	0.0127802
644.833	0.0129108
644.911	0.0128880
644.989	0.0130083
645.068	0.0129677
645.146	0.0130787
645.224	0.0131341
645.302	0.0130320
645.380	0.0130202
645.458	0.0129934
645.536	0.0129295
645.614	0.0130202
645.693	0.0128427
645.771	0.0128403
645.849	0.0128236
645.927	0.0127581
646.005	0.0125086
646.083	0.0124418
646.161	0.0124139
646.239	0.0120763
646.318	0.0121539
646.396	0.0121017
646.474	0.0118688
646.552	0.0117843
646.630	0.0118167
646.708	0.0118783
646.786	0.0118861
646.864	0.0117770
646.943	0.0119717
647.021	0.0119869
647.099	0.0119183
647.177	0.0120998
647.255	0.0121099
647.333	0.0121997
647.411	0.0123168
647.489	0.0123631
647.568	0.0124856
647.646	0.0126115
647.724	0.0126559
647.802	0.0127396
647.880	0.0128489
647.958	0.0129378
648.036	0.0128719
648.114	0.0130138
648.193	0.0132008
648.271	0.0132159
648.349	0.0131248
648.427	0.0131798
648.505	0.0131314
648.583	0.0130622
648.661	0.0128622
648.739	0.0129990
648.818	0.0129605
648.896	0.0129331
648.974	0.0128270
649.052	0.0126544
649.130	0.0127630
649.208	0.0126307
649.286	0.0123922
649.364	0.0126041
649.443	0.0125887
649.521	0.0124196
649.599	0.0124998
649.677	0.0124163
649.755	0.0123362
649.833	0.0123392
649.911	0.0123478
649.989	0.0123074
650.068	0.0123107
650.146	0.0122989
650.224	0.0123116
650.302	0.0122160
650.380	0.0123196
650.458	0.0123254
650.536	0.0122702
650.614	0.0122607
650.693	0.0124810
650.771	0.0124342
650.849	0.0123561
650.927	0.0122701
651.005	0.0123146
651.083	0.0123409
651.161	0.0124033
651.239	0.0123225
651.318	0.0125256
651.396	0.0124457
651.474	0.0121976
651.552	0.0123140
651.630	0.0124209
651.708	0.0124676
651.786	0.0126035
651.864	0.0125068
651.943	0.0125331
652.021	0.0127083
652.099	0.0128944
652.177	0.0128682
652.255	0.0128526
652.333	0.0129958
652.411	0.0131335
652.489	0.0130689
652.568	0.0132806
652.646	0.0132523
652.724	0.0133356
652.802	0.0133884
652.880	0.0135413
652.958	0.0134721
653.036	0.0135610
653.114	0.0134855
653.193	0.0134751
653.271	0.0134510
653.349	0.0134827
653.427	0.0133566
653.505	0.0133201
653.583	0.0132114
653.661	0.0131341
653.739	0.0130142
653.818	0.0129920
653.896	0.0128505
653.974	0.0126054
654.052	0.0125116
654.130	0.0124332
654.208	0.0122440
654.286	0.0122123
654.364	0.0119798
654.443	0.0120281
654.521	0.0118828
654.599	0.0119016
654.677	0.0116373
654.755	0.0116187
654.833	0.0114282
654.911	0.0113596
654.989	0.0112939
655.068	0.0112198
655.146	0.0111356
655.224	0.0112535
655.302	0.0112711
655.380	0.0113188
655.458	0.0115639
655.536	0.0116412
655.614	0.0116853
655.693	0.0119646
655.771	0.0120543
655.849	0.0123008
655.927	0.0125409
656.005	0.0126727
656.083	0.0128835
656.161	0.0131790
656.239	0.0133775
656.318	0.0136491
656.396	0.0136156
656.474	0.0139056
656.552	0.0142268
656.630	0.0143616
656.708	0.0144517
656.786	0.0146113
656.864	0.0147424
656.943	0.0146639
657.021	0.0146610
657.099	0.0147736
657.177	0.0146298
657.255	0.0145100
657.333	0.0146501
657.411	0.0142654
657.489	0.0140464
657.568	0.0137603
657.646	0.0135344
657.724	0.0133764
657.802	0.0132725
657.880	0.0129008
657.958	0.0126254
658.036	0.0122961
658.114	0.0121481
658.193	0.0118665
658.271	0.0117268
658.349	0.0116216
658.427	0.0113224
658.505	0.0112331
658.583	0.0110468
658.661	0.0109110
658.739	0.0109327
658.818	0.0107835
658.896	0.0108663
658.974	0.0106480
659.052	0.0106100
659.130	0.0108056
659.208	0.0109274
659.286	0.0109155
659.364	0.0110986
659.443	0.0111228
659.521	0.0112193
659.599	0.0112695
659.677	0.0115832
659.755	0.0116639
659.833	0.0117731
659.911	0.0120071
659.989	0.0121805
660.068	0.0123293
660.146	0.0125577
660.224	0.0126186
660.302	0.0126997
660.380	0.0128053
660.458	0.0129868
660.536	0.0130700
660.614	0.0131109
660.693	0.0133551
660.771	0.0133842
660.849	0.0134338
660.927	0.0136954
661.005	0.0137083
661.083	0.0138481
661.161	0.0137724
661.239	0.0140079
661.318	0.0140759
661.396	0.0141569
661.474	0.0143264
661.552	0.0143523
661.630	0.0142684
661.708	0.0144030
661.786	0.0142989
661.864	0.0143433
661.943	0.0142452
662.021	0.0139807
662.099	0.0138208
662.177	0.0137167
662.255	0.0136096
662.333	0.0134014
662.411	0.0131825
662.489	0.0129659
662.568	0.0128070
662.646	0.0124269
662.724	0.0121049
662.802	0.0119404
662.880	0.0117652
662.958	0.0113403
663.036	0.0109924
663.114	0.0107034
663.193	0.0105809
663.271	0.0102560
663.349	0.0102606
663.427	0.00990021
663.505	0.00993271
663.583	0.00981842
663.661	0.00963989
663.739	0.00972794
663.818	0.00984718
663.896	0.00992203
663.974	0.00998703
664.052	0.0101681
664.130	0.0103159
664.208	0.0104885
664.286	0.0108360
664.364	0.0112891
664.443	0.0113548
664.521	0.0116321
664.599	0.0120611
664.677	0.0122710
664.755	0.0125203
664.833	0.0129986
664.911	0.0131261
664.989	0.0134769
665.068	0.0137156
665.146	0.0138225
665.224	0.0139266
665.302	0.0143102
665.380	0.0144539
665.458	0.0145150
665.536	0.0146082
665.614	0.0146010
665.693	0.0146296
665.771	0.0147246
665.849	0.0148683
665.927	0.0149485
666.005	0.0148787
666.083	0.0147664
666.161	0.0148260
666.239	0.0148818
666.318	0.0147131
666.396	0.0147626
666.474	0.0145967
666.552	0.0145120
666.630	0.0144062
666.708	0.0143010
666.786	0.0139876
666.864	0.0138583
666.943	0.0135273
667.021	0.0134519
667.099	0.0131518
667.177	0.0127260
667.255	0.0126031
667.333	0.0123878
667.411	0.0120998
667.489	0.0118335
667.568	0.0114538
667.646	0.0111620
667.724	0.0109173
667.802	0.0105218
667.880	0.0102543
667.958	0.0100665
668.036	0.00984863
668.114	0.00941994
668.193	0.00937523
668.271	0.00928604
668.349	0.00912697
668.427	0.00906700
668.505	0.00934578
668.583	0.00923164
668.661	0.00942886
668.739	0.00972458
668.818	0.00976746
668.896	0.0101013
668.974	0.0105986
669.052	0.0108793
669.130	0.0113299
669.208	0.0117079
669.286	0.0121202
669.364	0.0125849
669.443	0.0129927
669.521	0.0135257
669.599	0.0138732
669.677	0.0141991
669.755	0.0144376
669.833	0.0147720
669.911	0.0149666
669.989	0.0151405
670.068	0.0153024
670.146	0.0152728
670.224	0.0154500
670.302	0.0153725
670.380	0.0154055
670.458	0.0152036
670.536	0.0151025
670.614	0.0149623
670.693	0.0149777
670.771	0.0147451
670.849	0.0144843
670.927	0.0143670
671.005	0.0140916
671.083	0.0137920
671.161	0.0137749
671.239	0.0135227
671.318	0.0133324
671.396	0.0130199
671.474	0.0129588
671.552	0.0126288
671.630	0.0126077
671.708	0.0123923
671.786	0.0123181
671.864	0.0120419
671.943	0.0118739
672.021	0.0117876
672.099	0.0118145
672.177	0.0117234
672.255	0.0114520
672.333	0.0113792
672.411	0.0112568
672.489	0.0110783
672.568	0.0110688
672.646	0.0109097
672.724	0.0107762
672.802	0.0106558
672.880	0.0105516
672.958	0.0106564
673.036	0.0104204
673.114	0.0104359
673.193	0.0104157
673.271	0.0105286
673.349	0.0107278
673.427	0.0106657
673.505	0.0108350
673.583	0.0109109
673.661	0.0110369
673.739	0.0113603
673.818	0.0114016
673.896	0.0116039
673.974	0.0119791
674.052	0.0121169
674.130	0.0123079
674.208	0.0125877
674.286	0.0129636
674.364	0.0132960
674.443	0.0135404
674.521	0.0137217
674.599	0.0139517
674.677	0.0140459
674.755	0.0142126
674.833	0.0144473
674.911	0.0145663
674.989	0.0146219
675.068	0.0144550
675.146	0.0144037
675.224	0.0144582
675.302	0.0144350
675.380	0.0143128
675.458	0.0141329
675.536	0.0140593
675.614	0.0137322
675.693	0.0136844
675.771	0.0133168
675.849	0.0132020
675.927	0.0130339
676.005	0.0130180
676.083	0.0127832
676.161	0.0124495
676.239	0.0124306
676.318	0.0123573
676.396	0.0122794
676.474	0.0122178
676.552	0.0120770
676.630	0.0121507
676.708	0.0121369
676.786	0.0120870
676.864	0.0121278
676.943	0.0121072
677.021	0.0122127
677.099	0.0123118
677.177	0.0122202
677.255	0.0123357
677.333	0.0122773
677.411	0.0125154
677.489	0.0125459
677.568	0.0126542
677.646	0.0125821
677.724	0.0126198
677.802	0.0127008
677.880	0.0126189
677.958	0.0123776
678.036	0.0125150
678.114	0.0125575
678.193	0.0124023
678.271	0.0123669
678.349	0.0122481
678.427	0.0121825
678.505	0.0122307
678.583	0.0122878
678.661	0.0120752
678.739	0.0118253
678.818	0.0119756
678.896	0.0118649
678.974	0.0118765
679.052	0.0119270
679.130	0.0119158
679.208	0.0119572
679.286	0.0119195
679.364	0.0120721
679.443	0.0121362
679.521	0.0120876
679.599	0.0121360
679.677	0.0123740
679.755	0.0124699
679.833	0.0124072
679.911	0.0126389
679.989	0.0126690
680.068	0.0129819
680.146	0.0128047
680.224	0.0129559
680.302	0.0130254
680.380	0.0130885
680.458	0.0131286
680.536	0.0131771
680.614	0.0132803
680.693	0.0133990
680.771	0.0133498
680.849	0.0134390
680.927	0.0133553
681.005	0.0133209
681.083	0.0132618
681.161	0.0133617
681.239	0.0133098
681.318	0.0132901
681.396	0.0132321
681.474	0.0133173
681.552	0.0133093
681.630	0.0132759
681.708	0.0132076
681.786	0.0133977
681.864	0.0132196
681.943	0.0132135
682.021	0.0133311
682.099	0.0132496
682.177	0.0130907
682.255	0.0130705
682.333	0.0131300
682.411	0.0130777
682.489	0.0129384
682.568	0.0129359
682.646	0.0127846
682.724	0.0127510
682.802	0.0126910
682.880	0.0126343
682.958	0.0126036
683.036	0.0124231
683.114	0.0124338
683.193	0.0123524
683.271	0.0123508
683.349	0.0123318
683.427	0.0122061
683.505	0.0122618
683.583	0.0121506
683.661	0.0121990
683.739	0.0121465
683.818	0.0122649
683.896	0.0122137
683.974	0.0121497
684.052	0.0121121
684.130	0.0119584
684.208	0.0120508
684.286	0.0121156
684.364	0.0119961
684.443	0.0120353
684.521	0.0120139
684.599	0.0120338
684.677	0.0121641
684.755	0.0121345
684.833	0.0119788
684.911	0.0121772
684.989	0.0123286
685.068	0.0122919
685.146	0.0122526
685.224	0.0122359
685.302	0.0122453
685.380	0.0124635
685.458	0.0123887
685.536	0.0123742
685.614	0.0125146
685.693	0.0125778
685.771	0.0126514
685.849	0.0128429
685.927	0.0128459
686.005	0.0129477
686.083	0.0129122
686.161	0.0129835
686.239	0.0131050
686.318	0.0131549
686.396	0.0132071
686.474	0.0132435
686.552	0.0132563
686.630	0.0132990
686.708	0.0134048
686.786	0.0133011
686.864	0.0134291
686.943	0.0132443
687.021	0.0134019
687.099	0.0133691
687.177	0.0132581
687.255	0.0132045
687.333	0.0132372
687.411	0.0132820
687.489	0.0131325
687.568	0.0131422
687.646	0.0131907
687.724	0.0130589
687.802	0.0128944
687.880	0.0129353
687.958	0.0129425
688.036	0.0128056
688.114	0.0127595
688.193	0.0125050
688.271	0.0125766
688.349	0.0124866
688.427	0.0122974
688.505	0.0123920
688.583	0.0123188
688.661	0.0122036
688.739	0.0123073
688.818	0.0122878
688.896	0.0122216
688.974	0.0121725
689.052	0.0124882
689.130	0.0124207
689.208	0.0125961
689.286	0.0124761
689.364	0.0125430
689.443	0.0126221
689.521	0.0129589
689.599	0.0127812
689.677	0.0127592
689.755	0.0129803
689.833	0.0129476
689.911	0.0129494
689.989	0.0129524
690.068	0.0129186
690.146	0.0129891
690.224	0.0129224
690.302	0.0128570
690.380	0.0129018
690.458	0.0128062
690.536	0.0128423
690.614	0.0126288
690.693	0.0125529
690.771	0.0125243
690.849	0.0124005
690.927	0.0121870
691.005	0.0120914
691.083	0.0120567
691.161	0.0118541
691.239	0.0117867
691.318	0.0118021
691.396	0.0118219
691.474	0.0117772
691.552	0.0116670
691.630	0.0115530
691.708	0.0114957
691.786	0.0114684
691.864	0.0116306
691.943	0.0118058
692.021	0.0117992
692.099	0.0119749
692.177	0.0119701
692.255	0.0121816
692.333	0.0122070
692.411	0.0124547
692.489	0.0124993
692.568	0.0126892
692.646	0.0125252
692.724	0.0126773
692.802	0.0128796
692.880	0.0129317
692.958	0.0132493
693.036	0.0129430
693.114	0.0131413
693.193	0.0134306
693.271	0.0134275
693.349	0.0136202
693.427	0.0134138
693.505	0.0135175
693.583	0.0134991
693.661	0.0135257
693.739	0.0135849
693.818	0.0135721
693.896	0.0132607
693.974	0.0134465
694.052	0.0132670
694.130	0.0133488
694.208	0.0132121
694.286	0.0131701
694.364	0.0130123
694.443	0.0129511
694.521	0.0128175
694.599	0.0127482
694.677	0.0127901
694.755	0.0128082
694.833	0.0126545
694.911	0.0126475
694.989	0.0125935
695.068	0.0125948
695.146	0.0124454
695.224	0.0123644
695.302	0.0123254
695.380	0.0122758
695.458	0.0121580
695.536	0.0121857
695.614	0.0120963
695.693	0.0121432
695.771	0.0120175
695.849	0.0119072
695.927	0.0119877
696.005	0.0119418
696.083	0.0118491
696.161	0.0118613
696.239	0.0118089
696.318	0.0117102
696.396	0.0118122
696.474	0.0118827
696.552	0.0118922
696.630	0.0118102
696.708	0.0119479
696.786	0.0119189
696.864	0.0121239
696.943	0.0121537
697.021	0.0121113
697.099	0.0121060
697.177	0.0123015
697.255	0.0123626
697.333	0.0123710
697.411	0.0124479
697.489	0.0124800
697.568	0.0126909
697.646	0.0127160
697.724	0.0124586
697.802	0.0125647
697.880	0.0125686
697.958	0.0127407
698.036	0.0128854
698.114	0.0129379
698.193	0.0127589
698.271	0.0129300
698.349	0.0130201
698.427	0.0130467
698.505	0.0129720
698.583	0.0129804
698.661	0.0130704
698.739	0.0132672
698.818	0.0132118
698.896	0.0132027
698.974	0.0132728
699.052	0.0131927
699.130	0.0133160
699.208	0.0133167
699.286	0.0133260
699.364	0.0133624
699.443	0.0134009
699.521	0.0135098
699.599	0.0134100
699.677	0.0134205
699.755	0.0134621
699.833	0.0134331
699.911	0.0134007
699.989	0.0133889
700.068	0.0132445
700.146	0.0132341
700.224	0.0132118
700.302	0.0130915
700.380	0.0129153
700.458	0.0128056
700.536	0.0128514
700.614	0.0126103
700.693	0.0125410
700.771	0.0123820
700.849	0.0122269
700.927	0.0124487
701.005	0.0123176
701.083	0.0121907
701.161	0.0120685
701.239	0.0120702
701.318	0.0121310
701.396	0.0120795
701.474	0.0120400
701.552	0.0119578
701.630	0.0118631
701.708	0.0119038
701.786	0.0119345
701.864	0.0120950
701.943	0.0120225
702.021	0.0118206
702.099	0.0119309
702.177	0.0120527
702.255	0.0120956
702.333	0.0119376
702.411	0.0120274
702.489	0.0120464
702.568	0.0121410
702.646	0.0122663
702.724	0.0122108
702.802	0.0123370
702.880	0.0122037
702.958	0.0122601
703.036	0.0122160
703.114	0.0121849
703.193	0.0122715
703.271	0.0122773
703.349	0.0124300
703.427	0.0121793
703.505	0.0123433
703.583	0.0123434
703.661	0.0123025
703.739	0.0123943
703.818	0.0124992
703.896	0.0125140
703.974	0.0125830
704.052	0.0127517
704.130	0.0127845
704.208	0.0128362
704.286	0.0131815
704.364	0.0131416
704.443	0.0131302
704.521	0.0132508
704.599	0.0133997
704.677	0.0134138
704.755	0.0134401
704.833	0.0136315
704.911	0.0138183
704.989	0.0138608
705.068	0.0137507
705.146	0.0139203
705.224	0.0138801
705.302	0.0138197
705.380	0.0140926
705.458	0.0139092
705.536	0.0138405
705.614	0.0139468
705.693	0.0136504
705.771	0.0136801
705.849	0.0135883
705.927	0.0133710
706.005	0.0133011
706.083	0.0132065
706.161	0.0131667
706.239	0.0128204
706.318	0.0128214
706.396	0.0126847
706.474	0.0127489
706.552	0.0125616
706.630	0.0123497
706.708	0.0123989
706.786	0.0122506
706.864	0.0120889
706.943	0.0121336
707.021	0.0120433
707.099	0.0120098
707.177	0.0119316
707.255	0.0119549
707.333	0.0119462
707.411	0.0119193
707.489	0.0118627
707.568	0.0119380
707.646	0.0119822
707.724	0.0119958
707.802	0.0120058
707.880	0.0120480
707.958	0.0118930
708.036	0.0119543
708.114	0.0119766
708.193	0.0120553
708.271	0.0120212
708.349	0.0121389
708.427	0.0121603
708.505	0.0119820
708.583	0.0121325
708.661	0.0122130
708.739	0.0123404
708.818	0.0122700
708.896	0.0124570
708.974	0.0125569
709.052	0.0124657
709.130	0.0123735
709.208	0.0126420
709.286	0.0126595
709.364	0.0125053
709.443	0.0127119
709.521	0.0128246
709.599	0.0128804
709.677	0.0129425
709.755	0.0128722
709.833	0.0130550
709.911	0.0130003
709.989	0.0132164
710.068	0.0131233
710.146	0.0131222
710.224	0.0133219
710.302	0.0134673
710.380	0.0132941
710.458	0.0132775
710.536	0.0132004
710.614	0.0131697
710.693	0.0131714
710.771	0.0132144
710.849	0.0133606
710.927	0.0131992
711.005	0.0130591
711.083	0.0131493
711.161	0.0131332
711.239	0.0131983
711.318	0.0131335
711.396	0.0131506
711.474	0.0132714
711.552	0.0132218
711.630	0.0132967
711.708	0.0131532
711.786	0.0132224
711.864	0.0132607
711.943	0.0132014
712.021	0.0130488
712.099	0.0130383
712.177	0.0131066
712.255	0.0131226
712.333	0.0129461
712.411	0.0127567
712.489	0.0127790
712.568	0.0126618
712.646	0.0125387
712.724	0.0124853
712.802	0.0123141
712.880	0.0122469
712.958	0.0122710
713.036	0.0123645
713.114	0.0121150
713.193	0.0120837
713.271	0.0119441
713.349	0.0120523
713.427	0.0120295
713.505	0.0118068
713.583	0.0119087
713.661	0.0118667
713.739	0.0117764
713.818	0.0119716
713.896	0.0118581
713.974	0.0119414
714.052	0.0119221
714.130	0.0118751
714.208	0.0120850
714.286	0.0120274
714.364	0.0119958
714.443	0.0120119
714.521	0.0119523
714.599	0.0122022
714.677	0.0121537
714.755	0.0120888
714.833	0.0122775
714.911	0.0123806
714.989	0.0123589
715.068	0.0124174
715.146	0.0125298
715.224	0.0125099
715.302	0.0124738
715.380	0.0125468
715.458	0.0127052
715.536	0.0128359
715.614	0.0127184
715.693	0.0127705
715.771	0.0126662
715.849	0.0127211
715.927	0.0129382
716.005	0.0128825
716.083	0.0128007
716.161	0.0129524
716.239	0.0128966
716.318	0.0130377
716.396	0.0129050
716.474	0.0130900
716.552	0.0130399
716.630	0.0129340
716.708	0.0129929
716.786	0.0131052
716.864	0.0131215
716.943	0.0131719
717.021	0.0131924
717.099	0.0132604
717.177	0.0130413
717.255	0.0131744
717.333	0.0132474
717.411	0.0133355
717.489	0.0133650
717.568	0.0132999
717.646	0.0133478
717.724	0.0132650
717.802	0.0132307
717.880	0.0134336
717.958	0.0132198
718.036	0.0132228
718.114	0.0133828
718.193	0.0130871
718.271	0.0129965
718.349	0.0129463
718.427	0.0129124
718.505	0.0127464
718.583	0.0125941
718.661	0.0126186
718.739	0.0125552
718.818	0.0124144
718.896	0.0122112
718.974	0.0121790
719.052	0.0121100
719.130	0.0120227
719.208	0.0117806
719.286	0.0119157
719.364	0.0119598
719.443	0.0117693
719.521	0.0117529
719.599	0.0119355
719.677	0.0119167
719.755	0.0118783
719.833	0.0118279
719.911	0.0118467
719.989	0.0120040
720.068	0.0121075
720.146	0.0120902
720.224	0.0120571
720.302	0.0123265
720.380	0.0123578
720.458	0.0122567
720.536	0.0122300
720.614	0.0122933
720.693	0.0123574
720.771	0.0124155
720.849	0.0123863
720.927	0.0123503
721.005	0.0124295
721.083	0.0125140
721.161	0.0125289
721.239	0.0125878
721.318	0.0124855
721.396	0.0126927
721.474	0.0127937
721.552	0.0128646
721.630	0.0127834
721.708	0.0127644
721.786	0.0129586
721.864	0.0128950
721.943	0.0129430
722.021	0.0128822
722.099	0.0129364
722.177	0.0128716
722.255	0.0128558
722.333	0.0128828
722.411	0.0128042
722.489	0.0128719
722.568	0.0128573
722.646	0.0127674
722.724	0.0126740
722.802	0.0128462
722.880	0.0126891
722.958	0.0127244
723.036	0.0127822
723.114	0.0127133
723.193	0.0126990
723.271	0.0126633
723.349	0.0124976
723.427	0.0126794
723.505	0.0126463
723.583	0.0127341
723.661	0.0126660
723.739	0.0126451
723.818	0.0125985
723.896	0.0126367
723.974	0.0126993
724.052	0.0127329
724.130	0.0128007
724.208	0.0127018
724.286	0.0127246
724.364	0.0127542
724.443	0.0128339
724.521	0.0129281
724.599	0.0128963
724.677	0.0128575
724.755	0.0128956
724.833	0.0129286
724.911	0.0130190
724.989	0.0129707
725.068	0.0128583
725.146	0.0129231
725.224	0.0129905
725.302	0.0130302
725.380	0.0127855
725.458	0.0127662
725.536	0.0127388
725.614	0.0129433
