05/07/2022	17:03:36	Ver.	4.1	UNKNOWN
Optical Delay	639.989416	Delta X		0.078125	Sweeps	1	Scan Rate	0/0
Coordinates	Axis 1	NaN	Axis 2	NaN	Axis 3	NaN	Axis 4	NaN	Axis 5	NaN	Axis 6	0.000000
TX Power	0.000000	RX Power	0.000000

639.989	0.0129300
640.068	0.0128695
640.146	0.0129029
640.224	0.0128856
640.302	0.0130484
640.380	0.0131042
640.458	0.0129828
640.536	0.0128355
640.614	0.0130474
640.693	0.0131111
640.771	0.0128629
640.849	0.0129360
640.927	0.0128718
641.005	0.0128992
641.083	0.0129976
641.161	0.0129246
641.239	0.0130038
641.318	0.0130051
641.396	0.0130000
641.474	0.0130379
641.552	0.0130652
641.630	0.0129076
641.708	0.0129603
641.786	0.0129521
641.864	0.0129218
641.943	0.0129159
642.021	0.0129182
642.099	0.0130218
642.177	0.0129369
642.255	0.0129664
642.333	0.0128427
642.411	0.0128191
642.489	0.0128676
642.568	0.0128715
642.646	0.0128380
642.724	0.0129066
642.802	0.0128035
642.880	0.0129672
642.958	0.0128633
643.036	0.0127669
643.114	0.0128722
643.193	0.0130270
643.271	0.0127826
643.349	0.0129303
643.427	0.0129933
643.505	0.0129710
643.583	0.0128952
643.661	0.0130392
643.739	0.0129004
643.818	0.0129908
643.896	0.0128743
643.974	0.0129015
644.052	0.0128707
644.130	0.0129325
644.208	0.0130216
644.286	0.0129716
644.364	0.0128798
644.443	0.0129601
644.521	0.0127403
644.599	0.0128650
644.677	0.0129309
644.755	0.0129261
644.833	0.0129227
644.911	0.0128993
644.989	0.0128990
645.068	0.0129852
645.146	0.0128888
645.224	0.0128986
645.302	0.0129293
645.380	0.0128241
645.458	0.0128458
645.536	0.0129383
645.614	0.0128699
645.693	0.0128594
645.771	0.0131094
645.849	0.0129369
645.927	0.0127520
646.005	0.0128873
646.083	0.0128805
646.161	0.0128809
646.239	0.0129061
646.318	0.0128538
646.396	0.0128782
646.474	0.0128999
646.552	0.0128855
646.630	0.0129586
646.708	0.0129853
646.786	0.0128856
646.864	0.0129263
646.943	0.0128408
647.021	0.0128992
647.099	0.0128043
647.177	0.0128922
647.255	0.0129014
647.333	0.0129085
647.411	0.0129699
647.489	0.0128532
647.568	0.0129255
647.646	0.0128963
647.724	0.0128793
647.802	0.0129282
647.880	0.0129782
647.958	0.0129230
648.036	0.0129903
648.114	0.0129803
648.193	0.0128962
648.271	0.0129388
648.349	0.0128324
648.427	0.0128963
648.505	0.0129998
648.583	0.0128979
648.661	0.0128284
648.739	0.0129180
648.818	0.0129518
648.896	0.0128598
648.974	0.0129015
649.052	0.0128130
649.130	0.0128828
649.208	0.0130120
649.286	0.0128664
649.364	0.0129120
649.443	0.0129592
649.521	0.0128676
649.599	0.0128213
649.677	0.0128610
649.755	0.0129152
649.833	0.0128355
649.911	0.0129972
649.989	0.0129767
650.068	0.0129814
650.146	0.0129388
650.224	0.0129533
650.302	0.0128860
650.380	0.0128642
650.458	0.0129627
650.536	0.0128295
650.614	0.0129128
650.693	0.0130288
650.771	0.0127786
650.849	0.0127280
650.927	0.0129433
651.005	0.0129540
651.083	0.0128562
651.161	0.0128037
651.239	0.0128193
651.318	0.0128587
651.396	0.0127935
651.474	0.0128978
651.552	0.0129546
651.630	0.0130154
651.708	0.0129220
651.786	0.0128587
651.864	0.0128441
651.943	0.0129861
652.021	0.0129498
652.099	0.0127962
652.177	0.0129102
652.255	0.0129091
652.333	0.0129449
652.411	0.0128922
652.489	0.0129359
652.568	0.0129379
652.646	0.0129596
652.724	0.0129301
652.802	0.0129383
652.880	0.0130434
652.958	0.0129661
653.036	0.0128393
653.114	0.0129441
653.193	0.0129345
653.271	0.0130074
653.349	0.0129478
653.427	0.0129069
653.505	0.0128937
653.583	0.0128976
653.661	0.0129933
653.739	0.0129837
653.818	0.0128912
653.896	0.0129665
653.974	0.0129753
654.052	0.0129438
654.130	0.0129111
654.208	0.0127943
654.286	0.0129242
654.364	0.0128687
654.443	0.0128204
654.521	0.0129842
654.599	0.0128497
654.677	0.0129541
654.755	0.0129683
654.833	0.0128832
654.911	0.0127845
654.989	0.0130131
655.068	0.0129194
655.146	0.0129675
655.224	0.0130116
655.302	0.0129229
655.380	0.0128590
655.458	0.0129872
655.536	0.0128139
655.614	0.0129753
655.693	0.0130527
655.771	0.0129453
655.849	0.0127653
655.927	0.0129015
656.005	0.0128954
656.083	0.0129485
656.161	0.0129175
656.239	0.0129111
656.318	0.0129556
656.396	0.0128772
656.474	0.0129546
656.552	0.0128992
656.630	0.0129026
656.708	0.0128722
656.786	0.0127681
656.864	0.0129023
656.943	0.0129243
657.021	0.0130492
657.099	0.0129681
657.177	0.0128700
657.255	0.0128554
657.333	0.0128783
657.411	0.0128324
657.489	0.0128252
657.568	0.0128820
657.646	0.0129727
657.724	0.0129455
657.802	0.0128889
657.880	0.0128546
657.958	0.0128941
658.036	0.0129965
658.114	0.0129682
658.193	0.0129181
658.271	0.0127135
658.349	0.0129323
658.427	0.0130038
658.505	0.0129013
658.583	0.0128386
658.661	0.0129562
658.739	0.0129236
658.818	0.0130536
658.896	0.0127184
658.974	0.0127945
659.052	0.0129095
659.130	0.0130386
659.208	0.0129427
659.286	0.0127273
659.364	0.0128185
659.443	0.0128876
659.521	0.0129185
659.599	0.0128828
659.677	0.0129659
659.755	0.0127814
659.833	0.0129267
659.911	0.0129099
659.989	0.0129237
660.068	0.0128464
660.146	0.0128696
660.224	0.0128554
660.302	0.0129745
660.380	0.0129590
660.458	0.0129008
660.536	0.0127253
660.614	0.0127671
660.693	0.0129827
660.771	0.0128592
660.849	0.0129463
660.927	0.0128076
661.005	0.0127574
661.083	0.0128732
661.161	0.0128007
661.239	0.0128046
661.318	0.0128234
661.396	0.0128185
661.474	0.0128806
661.552	0.0128167
661.630	0.0127552
661.708	0.0128851
661.786	0.0128921
661.864	0.0128467
661.943	0.0128758
662.021	0.0128271
662.099	0.0129066
662.177	0.0128014
662.255	0.0128125
662.333	0.0127731
662.411	0.0128568
662.489	0.0129084
662.568	0.0128998
662.646	0.0130328
662.724	0.0129143
662.802	0.0129689
662.880	0.0130322
662.958	0.0128593
663.036	0.0128120
663.114	0.0129527
663.193	0.0129472
663.271	0.0129644
663.349	0.0129621
663.427	0.0128360
663.505	0.0129003
663.583	0.0127565
663.661	0.0128770
663.739	0.0129198
663.818	0.0129136
663.896	0.0128333
663.974	0.0128785
664.052	0.0127840
664.130	0.0128968
664.208	0.0129167
664.286	0.0129282
664.364	0.0129871
664.443	0.0128516
664.521	0.0128703
664.599	0.0128380
664.677	0.0129152
664.755	0.0128763
664.833	0.0129339
664.911	0.0129626
664.989	0.0129174
665.068	0.0128693
665.146	0.0130758
665.224	0.0127968
665.302	0.0128923
665.380	0.0129416
665.458	0.0128597
665.536	0.0128117
665.614	0.0128895
665.693	0.0128722
665.771	0.0128229
665.849	0.0129535
665.927	0.0128711
666.005	0.0128947
666.083	0.0129076
666.161	0.0128568
666.239	0.0128531
666.318	0.0129206
666.396	0.0128745
666.474	0.0127977
666.552	0.0128317
666.630	0.0128458
666.708	0.0128890
666.786	0.0127573
666.864	0.0128452
666.943	0.0128821
667.021	0.0126647
667.099	0.0127774
667.177	0.0129575
667.255	0.0128731
667.333	0.0127527
667.411	0.0128318
667.489	0.0128957
667.568	0.0128487
667.646	0.0127948
667.724	0.0127810
667.802	0.0128001
667.880	0.0128029
667.958	0.0128170
668.036	0.0128147
668.114	0.0129405
668.193	0.0127521
668.271	0.0129626
668.349	0.0129380
668.427	0.0128976
668.505	0.0128448
668.583	0.0129333
668.661	0.0128451
668.739	0.0129578
668.818	0.0128976
668.896	0.0128397
668.974	0.0129106
669.052	0.0129717
669.130	0.0129700
669.208	0.0129096
669.286	0.0128401
669.364	0.0128602
669.443	0.0129041
669.521	0.0128736
669.599	0.0129696
669.677	0.0129487
669.755	0.0129485
669.833	0.0128797
669.911	0.0128519
669.989	0.0128075
670.068	0.0129004
670.146	0.0128481
670.224	0.0129365
670.302	0.0128609
670.380	0.0129934
670.458	0.0130034
670.536	0.0131188
670.614	0.0129451
670.693	0.0129301
670.771	0.0128514
670.849	0.0129054
670.927	0.0130608
671.005	0.0130171
671.083	0.0129440
671.161	0.0129980
671.239	0.0129586
671.318	0.0129061
671.396	0.0129321
671.474	0.0130838
671.552	0.0130849
671.630	0.0130391
671.708	0.0128993
671.786	0.0129590
671.864	0.0128648
671.943	0.0131216
672.021	0.0130696
672.099	0.0130297
672.177	0.0129384
672.255	0.0129108
672.333	0.0129951
672.411	0.0130943
672.489	0.0131097
672.568	0.0130791
672.646	0.0129624
672.724	0.0129712
672.802	0.0130455
672.880	0.0129301
672.958	0.0130124
673.036	0.0130545
673.114	0.0131001
673.193	0.0129292
673.271	0.0129473
673.349	0.0130463
673.427	0.0130193
673.505	0.0130009
673.583	0.0128974
673.661	0.0130568
673.739	0.0131195
673.818	0.0129774
673.896	0.0128960
673.974	0.0129809
674.052	0.0129207
674.130	0.0128445
674.208	0.0131215
674.286	0.0130338
674.364	0.0130467
674.443	0.0130493
674.521	0.0129671
674.599	0.0128988
674.677	0.0130112
674.755	0.0129625
674.833	0.0130395
674.911	0.0129726
674.989	0.0129568
675.068	0.0128832
675.146	0.0130403
675.224	0.0129694
675.302	0.0129655
675.380	0.0128513
675.458	0.0129144
675.536	0.0129549
675.614	0.0128823
675.693	0.0128434
675.771	0.0129092
675.849	0.0127567
675.927	0.0129539
676.005	0.0129430
676.083	0.0129547
676.161	0.0128124
676.239	0.0128693
676.318	0.0129533
676.396	0.0128594
676.474	0.0129453
676.552	0.0130155
676.630	0.0129698
676.708	0.0129135
676.786	0.0128379
676.864	0.0129632
676.943	0.0130449
677.021	0.0130020
677.099	0.0128994
677.177	0.0128711
677.255	0.0129877
677.333	0.0129873
677.411	0.0128862
677.489	0.0130016
677.568	0.0128297
677.646	0.0127482
677.724	0.0129041
677.802	0.0128764
677.880	0.0128419
677.958	0.0128412
678.036	0.0128918
678.114	0.0127664
678.193	0.0128196
678.271	0.0127739
678.349	0.0127882
678.427	0.0127979
678.505	0.0128574
678.583	0.0127595
678.661	0.0127202
678.739	0.0127924
678.818	0.0128786
678.896	0.0128400
678.974	0.0128442
679.052	0.0126983
679.130	0.0129414
679.208	0.0129174
679.286	0.0128660
679.364	0.0127174
679.443	0.0127817
679.521	0.0128297
679.599	0.0127591
679.677	0.0128612
679.755	0.0128385
679.833	0.0126871
679.911	0.0127642
679.989	0.0128693
680.068	0.0128214
680.146	0.0127413
680.224	0.0129042
680.302	0.0129728
680.380	0.0128158
680.458	0.0129702
680.536	0.0129448
680.614	0.0128025
680.693	0.0129635
680.771	0.0129140
680.849	0.0128846
680.927	0.0129975
681.005	0.0128523
681.083	0.0128935
681.161	0.0129675
681.239	0.0129919
681.318	0.0129237
681.396	0.0127857
681.474	0.0129115
681.552	0.0129008
681.630	0.0130167
681.708	0.0129389
681.786	0.0130030
681.864	0.0129415
681.943	0.0128280
682.021	0.0129175
682.099	0.0129470
682.177	0.0129594
682.255	0.0129313
682.333	0.0128470
682.411	0.0128839
682.489	0.0130253
682.568	0.0128992
682.646	0.0129903
682.724	0.0129270
682.802	0.0128913
682.880	0.0129321
682.958	0.0130634
683.036	0.0128314
683.114	0.0130817
683.193	0.0128707
683.271	0.0129215
683.349	0.0129755
683.427	0.0129411
683.505	0.0129604
683.583	0.0129587
683.661	0.0129080
683.739	0.0128363
683.818	0.0128954
683.896	0.0129765
683.974	0.0130534
684.052	0.0131001
684.130	0.0130514
684.208	0.0131353
684.286	0.0129564
684.364	0.0129540
684.443	0.0129178
684.521	0.0128262
684.599	0.0127478
684.677	0.0126603
684.755	0.0126554
684.833	0.0126561
684.911	0.0128054
684.989	0.0127123
685.068	0.0129942
685.146	0.0131703
685.224	0.0133971
685.302	0.0134400
685.380	0.0135101
685.458	0.0135696
685.536	0.0136857
685.614	0.0137135
685.693	0.0135372
685.771	0.0133224
685.849	0.0132941
685.927	0.0130336
686.005	0.0127191
686.083	0.0126171
686.161	0.0122549
686.239	0.0120660
686.318	0.0119254
686.396	0.0118102
686.474	0.0116791
686.552	0.0117273
686.630	0.0120690
686.708	0.0122814
686.786	0.0126591
686.864	0.0128517
686.943	0.0130196
687.021	0.0134654
687.099	0.0137960
687.177	0.0139807
687.255	0.0141045
687.333	0.0143566
687.411	0.0143819
687.489	0.0141549
687.568	0.0140314
687.646	0.0138630
687.724	0.0136753
687.802	0.0132615
687.880	0.0128358
687.958	0.0124165
688.036	0.0122700
688.114	0.0118068
688.193	0.0115590
688.271	0.0113289
688.349	0.0112270
688.427	0.0110579
688.505	0.0111380
688.583	0.0113437
688.661	0.0115228
688.739	0.0117488
688.818	0.0120706
688.896	0.0124585
688.974	0.0127889
689.052	0.0132106
689.130	0.0135774
689.208	0.0140248
689.286	0.0140714
689.364	0.0143803
689.443	0.0146126
689.521	0.0145448
689.599	0.0145052
689.677	0.0144512
689.755	0.0143391
689.833	0.0141097
689.911	0.0138882
689.989	0.0136090
690.068	0.0134168
690.146	0.0130964
690.224	0.0127829
690.302	0.0124902
690.380	0.0124163
690.458	0.0122602
690.536	0.0120320
690.614	0.0118356
690.693	0.0117882
690.771	0.0117429
690.849	0.0117317
690.927	0.0118110
691.005	0.0119431
691.083	0.0119599
691.161	0.0121118
691.239	0.0121461
691.318	0.0123358
691.396	0.0124335
691.474	0.0124967
691.552	0.0124945
691.630	0.0127654
691.708	0.0127567
691.786	0.0125693
691.864	0.0127161
691.943	0.0128075
692.021	0.0128607
692.099	0.0130137
692.177	0.0129242
692.255	0.0131737
692.333	0.0132433
692.411	0.0133273
692.489	0.0135237
692.568	0.0136355
692.646	0.0135870
692.724	0.0137997
692.802	0.0138035
692.880	0.0139062
692.958	0.0138103
693.036	0.0136409
693.114	0.0134151
693.193	0.0133880
693.271	0.0132548
693.349	0.0130649
693.427	0.0129045
693.505	0.0127016
693.583	0.0126414
693.661	0.0123657
693.739	0.0121899
693.818	0.0120322
693.896	0.0119504
693.974	0.0119852
694.052	0.0117431
694.130	0.0117773
694.208	0.0118105
694.286	0.0117426
694.364	0.0120336
694.443	0.0120570
694.521	0.0121590
694.599	0.0124162
694.677	0.0125706
694.755	0.0128057
694.833	0.0128232
694.911	0.0130455
694.989	0.0132836
695.068	0.0133584
695.146	0.0133768
695.224	0.0135441
695.302	0.0135591
695.380	0.0136644
695.458	0.0137171
695.536	0.0137305
695.614	0.0136816
695.693	0.0138205
695.771	0.0136649
695.849	0.0137536
695.927	0.0136505
696.005	0.0134864
696.083	0.0133839
696.161	0.0133289
696.239	0.0131962
696.318	0.0131337
696.396	0.0129319
696.474	0.0128594
696.552	0.0127593
696.630	0.0126494
696.708	0.0125283
696.786	0.0125495
696.864	0.0126461
696.943	0.0125517
697.021	0.0124825
697.099	0.0124636
697.177	0.0126260
697.255	0.0126232
697.333	0.0125809
697.411	0.0127119
697.489	0.0127711
697.568	0.0129670
697.646	0.0130655
697.724	0.0132258
697.802	0.0132500
697.880	0.0132849
697.958	0.0132637
698.036	0.0133260
698.114	0.0132790
698.193	0.0134068
698.271	0.0132939
698.349	0.0130891
698.427	0.0130576
698.505	0.0128536
698.583	0.0126930
698.661	0.0126393
698.739	0.0125169
698.818	0.0123931
698.896	0.0122170
698.974	0.0123086
699.052	0.0123417
699.130	0.0121931
699.208	0.0121010
699.286	0.0120679
699.364	0.0121436
699.443	0.0121642
699.521	0.0120982
699.599	0.0122556
699.677	0.0124088
699.755	0.0126277
699.833	0.0127491
699.911	0.0128970
699.989	0.0130963
700.068	0.0132184
700.146	0.0135519
700.224	0.0136439
700.302	0.0138870
700.380	0.0138306
700.458	0.0140198
700.536	0.0139693
700.614	0.0141711
700.693	0.0142518
700.771	0.0142117
700.849	0.0140797
700.927	0.0140406
701.005	0.0138792
701.083	0.0139439
701.161	0.0137433
701.239	0.0135431
701.318	0.0133646
701.396	0.0131040
701.474	0.0130688
701.552	0.0129493
701.630	0.0127626
701.708	0.0125211
701.786	0.0122733
701.864	0.0121967
701.943	0.0120811
702.021	0.0119184
702.099	0.0117703
702.177	0.0117752
702.255	0.0116582
702.333	0.0116107
702.411	0.0117641
702.489	0.0117136
702.568	0.0117027
702.646	0.0116415
702.724	0.0116318
702.802	0.0118249
702.880	0.0119364
702.958	0.0119493
703.036	0.0122105
703.114	0.0121406
703.193	0.0123613
703.271	0.0123927
703.349	0.0125858
703.427	0.0126976
703.505	0.0128027
703.583	0.0130308
703.661	0.0132401
703.739	0.0133244
703.818	0.0134683
703.896	0.0136270
703.974	0.0136562
704.052	0.0137030
704.130	0.0138468
704.208	0.0138531
704.286	0.0138441
704.364	0.0138288
704.443	0.0138147
704.521	0.0138919
704.599	0.0139443
704.677	0.0137689
704.755	0.0138690
704.833	0.0137359
704.911	0.0133961
704.989	0.0134775
705.068	0.0132452
705.146	0.0132833
705.224	0.0130208
705.302	0.0128501
705.380	0.0128109
705.458	0.0128264
705.536	0.0125955
705.614	0.0125995
705.693	0.0125492
705.771	0.0126374
705.849	0.0126214
705.927	0.0126341
706.005	0.0124596
706.083	0.0126356
706.161	0.0126053
706.239	0.0125270
706.318	0.0124829
706.396	0.0125369
706.474	0.0125791
706.552	0.0124503
706.630	0.0124277
706.708	0.0122531
706.786	0.0121761
706.864	0.0122976
706.943	0.0121960
707.021	0.0121362
707.099	0.0120932
707.177	0.0120618
707.255	0.0121867
707.333	0.0120670
707.411	0.0121303
707.489	0.0123014
707.568	0.0123686
707.646	0.0124659
707.724	0.0127342
707.802	0.0128199
707.880	0.0128192
707.958	0.0129023
708.036	0.0131052
708.114	0.0131215
708.193	0.0132019
708.271	0.0133901
708.349	0.0133741
708.427	0.0133531
708.505	0.0135040
708.583	0.0134717
708.661	0.0135741
708.739	0.0136343
708.818	0.0135701
708.896	0.0136655
708.974	0.0136388
709.052	0.0137391
709.130	0.0137120
709.208	0.0135699
709.286	0.0136944
709.364	0.0138341
709.443	0.0137595
709.521	0.0137027
709.599	0.0136971
709.677	0.0135929
709.755	0.0135879
709.833	0.0136378
709.911	0.0136207
709.989	0.0132915
710.068	0.0133849
710.146	0.0132234
710.224	0.0131496
710.302	0.0129430
710.380	0.0129192
710.458	0.0128066
710.536	0.0127261
710.614	0.0125858
710.693	0.0125736
710.771	0.0123856
710.849	0.0123340
710.927	0.0122426
711.005	0.0121220
711.083	0.0122601
711.161	0.0122176
711.239	0.0121130
711.318	0.0121606
711.396	0.0121713
711.474	0.0121187
711.552	0.0121622
711.630	0.0122984
711.708	0.0122015
711.786	0.0121478
711.864	0.0124317
711.943	0.0123045
712.021	0.0124323
712.099	0.0124538
712.177	0.0125271
712.255	0.0126447
712.333	0.0128164
712.411	0.0126170
712.489	0.0127103
712.568	0.0128472
712.646	0.0129041
712.724	0.0129204
712.802	0.0131007
712.880	0.0132392
712.958	0.0131769
713.036	0.0133403
713.114	0.0133846
713.193	0.0133775
713.271	0.0135449
713.349	0.0135136
713.427	0.0135752
713.505	0.0135090
713.583	0.0136291
713.661	0.0137365
713.739	0.0137311
713.818	0.0137475
713.896	0.0138487
713.974	0.0138755
714.052	0.0139291
714.130	0.0137442
714.208	0.0136405
714.286	0.0135758
714.364	0.0136243
714.443	0.0135635
714.521	0.0133929
714.599	0.0133694
714.677	0.0133441
714.755	0.0132176
714.833	0.0129662
714.911	0.0128393
714.989	0.0127667
715.068	0.0127825
715.146	0.0126772
715.224	0.0125117
715.302	0.0125806
715.380	0.0123971
715.458	0.0123978
715.536	0.0123531
715.614	0.0122424
715.693	0.0122010
715.771	0.0121285
715.849	0.0121613
715.927	0.0120601
716.005	0.0121829
716.083	0.0122661
716.161	0.0121194
716.239	0.0119960
716.318	0.0120188
716.396	0.0122447
716.474	0.0123189
716.552	0.0121763
716.630	0.0121976
716.708	0.0121249
716.786	0.0123295
716.864	0.0123897
716.943	0.0123353
717.021	0.0124464
717.099	0.0124252
717.177	0.0124952
717.255	0.0126093
717.333	0.0126809
717.411	0.0128886
717.489	0.0128107
717.568	0.0128620
717.646	0.0128610
717.724	0.0129413
717.802	0.0129961
717.880	0.0131140
717.958	0.0132024
718.036	0.0132282
718.114	0.0133220
718.193	0.0133602
718.271	0.0134932
718.349	0.0135768
718.427	0.0135789
718.505	0.0135631
718.583	0.0135265
718.661	0.0136730
718.739	0.0137077
718.818	0.0136681
718.896	0.0137747
718.974	0.0136292
719.052	0.0135937
719.130	0.0134766
719.208	0.0135481
719.286	0.0133841
719.364	0.0132340
719.443	0.0132709
719.521	0.0129181
719.599	0.0128751
719.677	0.0127826
719.755	0.0126177
719.833	0.0124486
719.911	0.0124770
719.989	0.0124315
720.068	0.0123035
720.146	0.0121331
720.224	0.0122610
720.302	0.0121538
720.380	0.0121567
720.458	0.0123555
720.536	0.0125526
720.614	0.0124326
720.693	0.0124376
720.771	0.0125974
720.849	0.0126914
720.927	0.0127616
721.005	0.0128623
721.083	0.0129443
721.161	0.0129228
721.239	0.0131163
721.318	0.0129411
721.396	0.0129520
721.474	0.0130120
721.552	0.0129736
721.630	0.0129802
721.708	0.0129569
721.786	0.0128724
721.864	0.0128144
721.943	0.0127597
722.021	0.0127248
722.099	0.0128101
722.177	0.0126107
722.255	0.0125690
722.333	0.0124733
722.411	0.0123636
722.489	0.0124590
722.568	0.0124800
722.646	0.0124937
722.724	0.0124249
722.802	0.0125446
722.880	0.0126360
722.958	0.0125278
723.036	0.0124285
723.114	0.0126389
723.193	0.0127486
723.271	0.0129018
723.349	0.0129613
723.427	0.0130679
723.505	0.0131296
723.583	0.0131618
723.661	0.0133432
723.739	0.0133936
723.818	0.0137329
723.896	0.0137986
723.974	0.0136534
724.052	0.0137205
724.130	0.0138093
724.208	0.0138501
724.286	0.0138457
724.364	0.0138432
724.443	0.0136977
724.521	0.0134809
724.599	0.0136264
724.677	0.0133763
724.755	0.0132685
724.833	0.0131291
724.911	0.0130766
724.989	0.0130138
725.068	0.0127179
725.146	0.0125354
725.224	0.0125832
725.302	0.0124966
725.380	0.0122785
725.458	0.0123354
725.536	0.0123611
725.614	0.0122839
725.693	0.0122462
