05/07/2022	17:04:11	Ver.	4.1	UNKNOWN
Optical Delay	639.989416	Delta X		0.078125	Sweeps	1	Scan Rate	0/0
Coordinates	Axis 1	NaN	Axis 2	NaN	Axis 3	NaN	Axis 4	NaN	Axis 5	NaN	Axis 6	0.000000
TX Power	0.000000	RX Power	0.000000

639.989	0.0125807
640.068	0.0125320
640.146	0.0126671
640.224	0.0126297
640.302	0.0125947
640.380	0.0125391
640.458	0.0126103
640.536	0.0125517
640.614	0.0125272
640.693	0.0125469
640.771	0.0125776
640.849	0.0124919
640.927	0.0126907
641.005	0.0126987
641.083	0.0126363
641.161	0.0125212
641.239	0.0125798
641.318	0.0125610
641.396	0.0124518
641.474	0.0126833
641.552	0.0125067
641.630	0.0126503
641.708	0.0126169
641.786	0.0125450
641.864	0.0126611
641.943	0.0124664
642.021	0.0126167
642.099	0.0126607
642.177	0.0124783
642.255	0.0125272
642.333	0.0126717
642.411	0.0126467
642.489	0.0127225
642.568	0.0125230
642.646	0.0125666
642.724	0.0126254
642.802	0.0125513
642.880	0.0125181
642.958	0.0126756
643.036	0.0125650
643.114	0.0126479
643.193	0.0125407
643.271	0.0127650
643.349	0.0125656
643.427	0.0125864
643.505	0.0127406
643.583	0.0125310
643.661	0.0125683
643.739	0.0126539
643.818	0.0127106
643.896	0.0126788
643.974	0.0125600
644.052	0.0125919
644.130	0.0126458
644.208	0.0125452
644.286	0.0126395
644.364	0.0126320
644.443	0.0125763
644.521	0.0125433
644.599	0.0124940
644.677	0.0125636
644.755	0.0125980
644.833	0.0124512
644.911	0.0126411
644.989	0.0125890
645.068	0.0126650
645.146	0.0125928
645.224	0.0126430
645.302	0.0127232
645.380	0.0126066
645.458	0.0125520
645.536	0.0126198
645.614	0.0125480
645.693	0.0125725
645.771	0.0124855
645.849	0.0126042
645.927	0.0125539
646.005	0.0125584
646.083	0.0127094
646.161	0.0126516
646.239	0.0125478
646.318	0.0126373
646.396	0.0126681
646.474	0.0126134
646.552	0.0126597
646.630	0.0126314
646.708	0.0125916
646.786	0.0126282
646.864	0.0125732
646.943	0.0126271
647.021	0.0125543
647.099	0.0126698
647.177	0.0125310
647.255	0.0127174
647.333	0.0126142
647.411	0.0124310
647.489	0.0124590
647.568	0.0125345
647.646	0.0125958
647.724	0.0126583
647.802	0.0125449
647.880	0.0125669
647.958	0.0127225
648.036	0.0125922
648.114	0.0125965
648.193	0.0125831
648.271	0.0125686
648.349	0.0127505
648.427	0.0125694
648.505	0.0125666
648.583	0.0125999
648.661	0.0125840
648.739	0.0123744
648.818	0.0124564
648.896	0.0126384
648.974	0.0125864
649.052	0.0125403
649.130	0.0125923
649.208	0.0126415
649.286	0.0126163
649.364	0.0125578
649.443	0.0125334
649.521	0.0125184
649.599	0.0125337
649.677	0.0124978
649.755	0.0126089
649.833	0.0125393
649.911	0.0125365
649.989	0.0126289
650.068	0.0125395
650.146	0.0125964
650.224	0.0124811
650.302	0.0126960
650.380	0.0125780
650.458	0.0125569
650.536	0.0125877
650.614	0.0125502
650.693	0.0126163
650.771	0.0127003
650.849	0.0125268
650.927	0.0125745
651.005	0.0126534
651.083	0.0126306
651.161	0.0126208
651.239	0.0126495
651.318	0.0126558
651.396	0.0127660
651.474	0.0125377
651.552	0.0126478
651.630	0.0125825
651.708	0.0125838
651.786	0.0126823
651.864	0.0126347
651.943	0.0127099
652.021	0.0126456
652.099	0.0126577
652.177	0.0125581
652.255	0.0125220
652.333	0.0125632
652.411	0.0126384
652.489	0.0126727
652.568	0.0125807
652.646	0.0126308
652.724	0.0126440
652.802	0.0126540
652.880	0.0127692
652.958	0.0125956
653.036	0.0125174
653.114	0.0125478
653.193	0.0125381
653.271	0.0126429
653.349	0.0125967
653.427	0.0127193
653.505	0.0126382
653.583	0.0126223
653.661	0.0125308
653.739	0.0125840
653.818	0.0125632
653.896	0.0124588
653.974	0.0126636
654.052	0.0124886
654.130	0.0126147
654.208	0.0125408
654.286	0.0125097
654.364	0.0125752
654.443	0.0126607
654.521	0.0125095
654.599	0.0124794
654.677	0.0125969
654.755	0.0125082
654.833	0.0125902
654.911	0.0128503
654.989	0.0126686
655.068	0.0125812
655.146	0.0126840
655.224	0.0124779
655.302	0.0125604
655.380	0.0125732
655.458	0.0126528
655.536	0.0125484
655.614	0.0124654
655.693	0.0125934
655.771	0.0125198
655.849	0.0126404
655.927	0.0124791
656.005	0.0125900
656.083	0.0125313
656.161	0.0125083
656.239	0.0125615
656.318	0.0125668
656.396	0.0124955
656.474	0.0125703
656.552	0.0126329
656.630	0.0127537
656.708	0.0126178
656.786	0.0124168
656.864	0.0125345
656.943	0.0126833
657.021	0.0126980
657.099	0.0124228
657.177	0.0125027
657.255	0.0126678
657.333	0.0126194
657.411	0.0126949
657.489	0.0124648
657.568	0.0125146
657.646	0.0125653
657.724	0.0124998
657.802	0.0125796
657.880	0.0126265
657.958	0.0126352
658.036	0.0126350
658.114	0.0126269
658.193	0.0125703
658.271	0.0126414
658.349	0.0126303
658.427	0.0125017
658.505	0.0126460
658.583	0.0126471
658.661	0.0126313
658.739	0.0126037
658.818	0.0124040
658.896	0.0125649
658.974	0.0125143
659.052	0.0126382
659.130	0.0125551
659.208	0.0125634
659.286	0.0125190
659.364	0.0126151
659.443	0.0125828
659.521	0.0126083
659.599	0.0124184
659.677	0.0125209
659.755	0.0126250
659.833	0.0126716
659.911	0.0125964
659.989	0.0125684
660.068	0.0125350
660.146	0.0125610
660.224	0.0125230
660.302	0.0126695
660.380	0.0125916
660.458	0.0127910
660.536	0.0126720
660.614	0.0124626
660.693	0.0125322
660.771	0.0126084
660.849	0.0125654
660.927	0.0126218
661.005	0.0127264
661.083	0.0124613
661.161	0.0124182
661.239	0.0125982
661.318	0.0125789
661.396	0.0127588
661.474	0.0126109
661.552	0.0125960
661.630	0.0126177
661.708	0.0125311
661.786	0.0127833
661.864	0.0125897
661.943	0.0124075
662.021	0.0124603
662.099	0.0125888
662.177	0.0126553
662.255	0.0125500
662.333	0.0126193
662.411	0.0125853
662.489	0.0125664
662.568	0.0124747
662.646	0.0124883
662.724	0.0127000
662.802	0.0126470
662.880	0.0125529
662.958	0.0125557
663.036	0.0125497
663.114	0.0125826
663.193	0.0125723
663.271	0.0125163
663.349	0.0126263
663.427	0.0127213
663.505	0.0125295
663.583	0.0126699
663.661	0.0125444
663.739	0.0126778
663.818	0.0125807
663.896	0.0124705
663.974	0.0125802
664.052	0.0126582
664.130	0.0125528
664.208	0.0124493
664.286	0.0124715
664.364	0.0124803
664.443	0.0127158
664.521	0.0124986
664.599	0.0125539
664.677	0.0124960
664.755	0.0126514
664.833	0.0125529
664.911	0.0125654
664.989	0.0126013
665.068	0.0126216
665.146	0.0125376
665.224	0.0126169
665.302	0.0125295
665.380	0.0125400
665.458	0.0124968
665.536	0.0126838
665.614	0.0125935
665.693	0.0125518
665.771	0.0124712
665.849	0.0125407
665.927	0.0125758
666.005	0.0125709
666.083	0.0125694
666.161	0.0123880
666.239	0.0125537
666.318	0.0126913
666.396	0.0125846
666.474	0.0125765
666.552	0.0125763
666.630	0.0124930
666.708	0.0124390
666.786	0.0126053
666.864	0.0125795
666.943	0.0125143
667.021	0.0124807
667.099	0.0125170
667.177	0.0126015
667.255	0.0123875
667.333	0.0125686
667.411	0.0125529
667.489	0.0126393
667.568	0.0126083
667.646	0.0126497
667.724	0.0125718
667.802	0.0124792
667.880	0.0125307
667.958	0.0126810
668.036	0.0123936
668.114	0.0125891
668.193	0.0126801
668.271	0.0126610
668.349	0.0126177
668.427	0.0126508
668.505	0.0124935
668.583	0.0125407
668.661	0.0125954
668.739	0.0124896
668.818	0.0125790
668.896	0.0126418
668.974	0.0125800
669.052	0.0127844
669.130	0.0125863
669.208	0.0126232
669.286	0.0125736
669.364	0.0126189
669.443	0.0126864
669.521	0.0127891
669.599	0.0127102
669.677	0.0127771
669.755	0.0126600
669.833	0.0127308
669.911	0.0128226
669.989	0.0126216
670.068	0.0126139
670.146	0.0127055
670.224	0.0126355
670.302	0.0126923
670.380	0.0126563
670.458	0.0126727
670.536	0.0128327
670.614	0.0125935
670.693	0.0127715
670.771	0.0128403
670.849	0.0127430
670.927	0.0128034
671.005	0.0127113
671.083	0.0126699
671.161	0.0126677
671.239	0.0127411
671.318	0.0127454
671.396	0.0126505
671.474	0.0126405
671.552	0.0127554
671.630	0.0126977
671.708	0.0126615
671.786	0.0127294
671.864	0.0127630
671.943	0.0128542
672.021	0.0127171
672.099	0.0127744
672.177	0.0127727
672.255	0.0127003
672.333	0.0128457
672.411	0.0127100
672.489	0.0125565
672.568	0.0125641
672.646	0.0126878
672.724	0.0128694
672.802	0.0126994
672.880	0.0126173
672.958	0.0127280
673.036	0.0127203
673.114	0.0125760
673.193	0.0127016
673.271	0.0128056
673.349	0.0127951
673.427	0.0126624
673.505	0.0126939
673.583	0.0125974
673.661	0.0127017
673.739	0.0127492
673.818	0.0127622
673.896	0.0125473
673.974	0.0127097
674.052	0.0125516
674.130	0.0127695
674.208	0.0126302
674.286	0.0126524
674.364	0.0126428
674.443	0.0125655
674.521	0.0125148
674.599	0.0125790
674.677	0.0124352
674.755	0.0127263
674.833	0.0126644
674.911	0.0126348
674.989	0.0124921
675.068	0.0126183
675.146	0.0126932
675.224	0.0126526
675.302	0.0126445
675.380	0.0127193
675.458	0.0125465
675.536	0.0126191
675.614	0.0125729
675.693	0.0125274
675.771	0.0125558
675.849	0.0125263
675.927	0.0125410
676.005	0.0125871
676.083	0.0125768
676.161	0.0125815
676.239	0.0125696
676.318	0.0126099
676.396	0.0125184
676.474	0.0123874
676.552	0.0125214
676.630	0.0125758
676.708	0.0125457
676.786	0.0125808
676.864	0.0124632
676.943	0.0126650
677.021	0.0126105
677.099	0.0126046
677.177	0.0125310
677.255	0.0124145
677.333	0.0125108
677.411	0.0125278
677.489	0.0125703
677.568	0.0125026
677.646	0.0125318
677.724	0.0126057
677.802	0.0124858
677.880	0.0125848
677.958	0.0124371
678.036	0.0125034
678.114	0.0126279
678.193	0.0125097
678.271	0.0124845
678.349	0.0125058
678.427	0.0124747
678.505	0.0126161
678.583	0.0125792
678.661	0.0124158
678.739	0.0124543
678.818	0.0124661
678.896	0.0124780
678.974	0.0124525
679.052	0.0125743
679.130	0.0125288
679.208	0.0124322
679.286	0.0124570
679.364	0.0124706
679.443	0.0125428
679.521	0.0126490
679.599	0.0124081
679.677	0.0126639
679.755	0.0126215
679.833	0.0126096
679.911	0.0126067
679.989	0.0124982
680.068	0.0125494
680.146	0.0124889
680.224	0.0125170
680.302	0.0125542
680.380	0.0125613
680.458	0.0124889
680.536	0.0125558
680.614	0.0125726
680.693	0.0125230
680.771	0.0126212
680.849	0.0125040
680.927	0.0125982
681.005	0.0125121
681.083	0.0126600
681.161	0.0125936
681.239	0.0124462
681.318	0.0126137
681.396	0.0125395
681.474	0.0125853
681.552	0.0125645
681.630	0.0125334
681.708	0.0125364
681.786	0.0126952
681.864	0.0125973
681.943	0.0124650
682.021	0.0126791
682.099	0.0126511
682.177	0.0125623
682.255	0.0124994
682.333	0.0125993
682.411	0.0125191
682.489	0.0125671
682.568	0.0127084
682.646	0.0126405
682.724	0.0125515
682.802	0.0125339
682.880	0.0127356
682.958	0.0127847
683.036	0.0127577
683.114	0.0126307
683.193	0.0127505
683.271	0.0126405
683.349	0.0126225
683.427	0.0125246
683.505	0.0124693
683.583	0.0124201
683.661	0.0124140
683.739	0.0122913
683.818	0.0122977
683.896	0.0124593
683.974	0.0124642
684.052	0.0124760
684.130	0.0126268
684.208	0.0129052
684.286	0.0130794
684.364	0.0132368
684.443	0.0132033
684.521	0.0133356
684.599	0.0133570
684.677	0.0132825
684.755	0.0133447
684.833	0.0133036
684.911	0.0130193
684.989	0.0127343
685.068	0.0124559
685.146	0.0122741
685.224	0.0119549
685.302	0.0117045
685.380	0.0114792
685.458	0.0113267
685.536	0.0113299
685.614	0.0114353
685.693	0.0116931
685.771	0.0119114
685.849	0.0121188
685.927	0.0125425
686.005	0.0128294
686.083	0.0131708
686.161	0.0135407
686.239	0.0137872
686.318	0.0140968
686.396	0.0142203
686.474	0.0143062
686.552	0.0142416
686.630	0.0140456
686.708	0.0139310
686.786	0.0136101
686.864	0.0131734
686.943	0.0127184
687.021	0.0123471
687.099	0.0119057
687.177	0.0117218
687.255	0.0111502
687.333	0.0107410
687.411	0.0106378
687.489	0.0104813
687.568	0.0104720
687.646	0.0104370
687.724	0.0106842
687.802	0.0109708
687.880	0.0113675
687.958	0.0118324
688.036	0.0122744
688.114	0.0127208
688.193	0.0130921
688.271	0.0133298
688.349	0.0138824
688.427	0.0142368
688.505	0.0144357
688.583	0.0146227
688.661	0.0147562
688.739	0.0148140
688.818	0.0147874
688.896	0.0145953
688.974	0.0144719
689.052	0.0141449
689.130	0.0138733
689.208	0.0135200
689.286	0.0130845
689.364	0.0126109
689.443	0.0121195
689.521	0.0116842
689.599	0.0113271
689.677	0.0110629
689.755	0.0108475
689.833	0.0106360
689.911	0.0105049
689.989	0.0105439
690.068	0.0106046
690.146	0.0106603
690.224	0.0109690
690.302	0.0113681
690.380	0.0115229
690.458	0.0119682
690.536	0.0120030
690.614	0.0124347
690.693	0.0127623
690.771	0.0128724
690.849	0.0131674
690.927	0.0133276
691.005	0.0133737
691.083	0.0134776
691.161	0.0134568
691.239	0.0135252
691.318	0.0136789
691.396	0.0136216
691.474	0.0136743
691.552	0.0137334
691.630	0.0137038
691.708	0.0136294
691.786	0.0136736
691.864	0.0135056
691.943	0.0135279
692.021	0.0133678
692.099	0.0131483
692.177	0.0128821
692.255	0.0127283
692.333	0.0126620
692.411	0.0125005
692.489	0.0122427
692.568	0.0120123
692.646	0.0118026
692.724	0.0114407
692.802	0.0113519
692.880	0.0115188
692.958	0.0113525
693.036	0.0113288
693.114	0.0112186
693.193	0.0113019
693.271	0.0113557
693.349	0.0113404
693.427	0.0116804
693.505	0.0119492
693.583	0.0120772
693.661	0.0123743
693.739	0.0124260
693.818	0.0128225
693.896	0.0129717
693.974	0.0131041
694.052	0.0131704
694.130	0.0135762
694.208	0.0135034
694.286	0.0136100
694.364	0.0137254
694.443	0.0137545
694.521	0.0137798
694.599	0.0138356
694.677	0.0138662
694.755	0.0137106
694.833	0.0136707
694.911	0.0135040
694.989	0.0135860
695.068	0.0131850
695.146	0.0130402
695.224	0.0130829
695.302	0.0126871
695.380	0.0126601
695.458	0.0123562
695.536	0.0123283
695.614	0.0122684
695.693	0.0121732
695.771	0.0119685
695.849	0.0118987
695.927	0.0118861
696.005	0.0118991
696.083	0.0118829
696.161	0.0121252
696.239	0.0119974
696.318	0.0121976
696.396	0.0121543
696.474	0.0122941
696.552	0.0124508
696.630	0.0124982
696.708	0.0127041
696.786	0.0129532
696.864	0.0131058
696.943	0.0131017
697.021	0.0131332
697.099	0.0131476
697.177	0.0132175
697.255	0.0131011
697.333	0.0131654
697.411	0.0130592
697.489	0.0129475
697.568	0.0128489
697.646	0.0126932
697.724	0.0123681
697.802	0.0122092
697.880	0.0121432
697.958	0.0120458
698.036	0.0118761
698.114	0.0117694
698.193	0.0117339
698.271	0.0116653
698.349	0.0115747
698.427	0.0116297
698.505	0.0117413
698.583	0.0117524
698.661	0.0118319
698.739	0.0120696
698.818	0.0121671
698.896	0.0123930
698.974	0.0127432
699.052	0.0127675
699.130	0.0130886
699.208	0.0132674
699.286	0.0134374
699.364	0.0136946
699.443	0.0138541
699.521	0.0138458
699.599	0.0140471
699.677	0.0139101
699.755	0.0138550
699.833	0.0138854
699.911	0.0138524
699.989	0.0138574
700.068	0.0136650
700.146	0.0133307
700.224	0.0132018
700.302	0.0132027
700.380	0.0130059
700.458	0.0127378
700.536	0.0124780
700.614	0.0123319
700.693	0.0121523
700.771	0.0119349
700.849	0.0118966
700.927	0.0115601
701.005	0.0115983
701.083	0.0116151
701.161	0.0115916
701.239	0.0114966
701.318	0.0113666
701.396	0.0115044
701.474	0.0116124
701.552	0.0116100
701.630	0.0115456
701.708	0.0116010
701.786	0.0118883
701.864	0.0118436
701.943	0.0120255
702.021	0.0120657
702.099	0.0119134
702.177	0.0120557
702.255	0.0121256
702.333	0.0123013
702.411	0.0122881
702.489	0.0123209
702.568	0.0123787
702.646	0.0125508
702.724	0.0126223
702.802	0.0127605
702.880	0.0127221
702.958	0.0128880
703.036	0.0128559
703.114	0.0130695
703.193	0.0133222
703.271	0.0132909
703.349	0.0133884
703.427	0.0135105
703.505	0.0134125
703.583	0.0135818
703.661	0.0135231
703.739	0.0136583
703.818	0.0135936
703.896	0.0135223
703.974	0.0134097
704.052	0.0135565
704.130	0.0132393
704.208	0.0132030
704.286	0.0131561
704.364	0.0130919
704.443	0.0128757
704.521	0.0129637
704.599	0.0127634
704.677	0.0126673
704.755	0.0126075
704.833	0.0126189
704.911	0.0123673
704.989	0.0124329
705.068	0.0123053
705.146	0.0124332
705.224	0.0123855
705.302	0.0122572
705.380	0.0123141
705.458	0.0123590
705.536	0.0122760
705.614	0.0120996
705.693	0.0120699
705.771	0.0121234
705.849	0.0120870
705.927	0.0119370
706.005	0.0118111
706.083	0.0117874
706.161	0.0117126
706.239	0.0116388
706.318	0.0116586
706.396	0.0115964
706.474	0.0117701
706.552	0.0116582
706.630	0.0118327
706.708	0.0118305
706.786	0.0119517
706.864	0.0120026
706.943	0.0121888
707.021	0.0121656
707.099	0.0124133
707.177	0.0124980
707.255	0.0125865
707.333	0.0127586
707.411	0.0129309
707.489	0.0129389
707.568	0.0129390
707.646	0.0130472
707.724	0.0130713
707.802	0.0132008
707.880	0.0133128
707.958	0.0135619
708.036	0.0137451
708.114	0.0135677
708.193	0.0137460
708.271	0.0136459
708.349	0.0135959
708.427	0.0136435
708.505	0.0137775
708.583	0.0138493
708.661	0.0136586
708.739	0.0136649
708.818	0.0134529
708.896	0.0135030
708.974	0.0133654
709.052	0.0132501
709.130	0.0131043
709.208	0.0130325
709.286	0.0128672
709.364	0.0125664
709.443	0.0126496
709.521	0.0124934
709.599	0.0124231
709.677	0.0123167
709.755	0.0120875
709.833	0.0120440
709.911	0.0118577
709.989	0.0117712
710.068	0.0117294
710.146	0.0118573
710.224	0.0115134
710.302	0.0114960
710.380	0.0116946
710.458	0.0116204
710.536	0.0113881
710.614	0.0114989
710.693	0.0117731
710.771	0.0115658
710.849	0.0117336
710.927	0.0118761
711.005	0.0118497
711.083	0.0119863
711.161	0.0120689
711.239	0.0121384
711.318	0.0124124
711.396	0.0123689
711.474	0.0124137
711.552	0.0124068
711.630	0.0126339
711.708	0.0125485
711.786	0.0127074
711.864	0.0128169
711.943	0.0127243
712.021	0.0129461
712.099	0.0131048
712.177	0.0131124
712.255	0.0131714
712.333	0.0131788
712.411	0.0131184
712.489	0.0134316
712.568	0.0135168
712.646	0.0134653
712.724	0.0136316
712.802	0.0136329
712.880	0.0136422
712.958	0.0138477
713.036	0.0138443
713.114	0.0138420
713.193	0.0137753
713.271	0.0137422
713.349	0.0137619
713.427	0.0135422
713.505	0.0136069
713.583	0.0133508
713.661	0.0131704
713.739	0.0132148
713.818	0.0128654
713.896	0.0128439
713.974	0.0126213
714.052	0.0122995
714.130	0.0121408
714.208	0.0120981
714.286	0.0118381
714.364	0.0118490
714.443	0.0116785
714.521	0.0116430
714.599	0.0116656
714.677	0.0115557
714.755	0.0115286
714.833	0.0115703
714.911	0.0116627
714.989	0.0116891
715.068	0.0116473
715.146	0.0117555
715.224	0.0117193
715.302	0.0118492
715.380	0.0118376
715.458	0.0119713
715.536	0.0119408
715.614	0.0118865
715.693	0.0119411
715.771	0.0120563
715.849	0.0120305
715.927	0.0121463
716.005	0.0121980
716.083	0.0120712
716.161	0.0121606
716.239	0.0122445
716.318	0.0123457
716.396	0.0124124
716.474	0.0124757
716.552	0.0125313
716.630	0.0124911
716.708	0.0127449
716.786	0.0128098
716.864	0.0128276
716.943	0.0130026
717.021	0.0129073
717.099	0.0129465
717.177	0.0128696
717.255	0.0132485
717.333	0.0132693
717.411	0.0131560
717.489	0.0132806
717.568	0.0134518
717.646	0.0133124
717.724	0.0134893
717.802	0.0135933
717.880	0.0136903
717.958	0.0135562
718.036	0.0134225
718.114	0.0135023
718.193	0.0134614
718.271	0.0134051
718.349	0.0132671
718.427	0.0132478
718.505	0.0130490
718.583	0.0129494
718.661	0.0127895
718.739	0.0126337
718.818	0.0124246
718.896	0.0124068
718.974	0.0124338
719.052	0.0121081
719.130	0.0120495
719.208	0.0121247
719.286	0.0119352
719.364	0.0119859
719.443	0.0118678
719.521	0.0118474
719.599	0.0119779
719.677	0.0121720
719.755	0.0120663
719.833	0.0121807
719.911	0.0122229
719.989	0.0122321
720.068	0.0124114
720.146	0.0124534
720.224	0.0123067
720.302	0.0125024
720.380	0.0125722
720.458	0.0126154
720.536	0.0125326
720.614	0.0124820
720.693	0.0124760
720.771	0.0124633
720.849	0.0123600
720.927	0.0123982
721.005	0.0124592
721.083	0.0124780
721.161	0.0122256
721.239	0.0123890
721.318	0.0123072
721.396	0.0121965
721.474	0.0123804
721.552	0.0123282
721.630	0.0121368
721.708	0.0122265
721.786	0.0123313
721.864	0.0124419
721.943	0.0123488
722.021	0.0122972
722.099	0.0124027
722.177	0.0124266
722.255	0.0125324
722.333	0.0125935
722.411	0.0126985
722.489	0.0126935
722.568	0.0128321
722.646	0.0128667
722.724	0.0131767
722.802	0.0130897
722.880	0.0132815
722.958	0.0133342
723.036	0.0134541
723.114	0.0135396
723.193	0.0135606
723.271	0.0136012
723.349	0.0136715
723.427	0.0136903
723.505	0.0135094
723.583	0.0134795
723.661	0.0133747
723.739	0.0132327
723.818	0.0130738
723.896	0.0128516
723.974	0.0128107
724.052	0.0126588
724.130	0.0124723
724.208	0.0124277
724.286	0.0122472
724.364	0.0122392
724.443	0.0119195
724.521	0.0121013
724.599	0.0120467
724.677	0.0119460
724.755	0.0120102
724.833	0.0120149
724.911	0.0119567
724.989	0.0120966
725.068	0.0120485
725.146	0.0123151
725.224	0.0123640
725.302	0.0123162
725.380	0.0125594
725.458	0.0124886
725.536	0.0124030
725.614	0.0124432
725.693	0.0125795
