05/07/2022	17:06:56	Ver.	4.1	UNKNOWN
Optical Delay	639.989416	Delta X		0.078125	Sweeps	1	Scan Rate	0/0
Coordinates	Axis 1	NaN	Axis 2	NaN	Axis 3	NaN	Axis 4	NaN	Axis 5	NaN	Axis 6	0.000000
TX Power	0.000000	RX Power	0.000000

639.989	0.0128004
640.068	0.0127887
640.146	0.0127093
640.224	0.0127758
640.302	0.0129372
640.380	0.0128720
640.458	0.0126460
640.536	0.0127884
640.614	0.0128666
640.693	0.0128469
640.771	0.0128609
640.849	0.0127938
640.927	0.0129115
641.005	0.0128629
641.083	0.0128404
641.161	0.0127964
641.239	0.0128909
641.318	0.0128429
641.396	0.0128533
641.474	0.0128284
641.552	0.0128009
641.630	0.0127930
641.708	0.0128184
641.786	0.0127389
641.864	0.0128174
641.943	0.0128819
642.021	0.0126923
642.099	0.0126990
642.177	0.0127795
642.255	0.0127535
642.333	0.0127748
642.411	0.0127518
642.489	0.0128618
642.568	0.0127728
642.646	0.0128405
642.724	0.0129327
642.802	0.0127554
642.880	0.0128091
642.958	0.0127666
643.036	0.0126969
643.114	0.0129388
643.193	0.0127353
643.271	0.0126903
643.349	0.0128606
643.427	0.0128228
643.505	0.0127025
643.583	0.0129408
643.661	0.0129203
643.739	0.0125678
643.818	0.0127900
643.896	0.0127837
643.974	0.0127099
644.052	0.0128400
644.130	0.0127216
644.208	0.0127473
644.286	0.0127053
644.364	0.0127193
644.443	0.0128976
644.521	0.0128030
644.599	0.0128883
644.677	0.0128135
644.755	0.0127591
644.833	0.0127145
644.911	0.0126875
644.989	0.0128693
645.068	0.0126962
645.146	0.0127005
645.224	0.0127639
645.302	0.0128338
645.380	0.0128645
645.458	0.0128020
645.536	0.0127835
645.614	0.0127414
645.693	0.0128014
645.771	0.0127561
645.849	0.0127105
645.927	0.0126988
646.005	0.0127705
646.083	0.0129066
646.161	0.0128291
646.239	0.0127618
646.318	0.0127946
646.396	0.0128030
646.474	0.0128622
646.552	0.0128918
646.630	0.0129093
646.708	0.0128947
646.786	0.0128690
646.864	0.0127039
646.943	0.0127008
647.021	0.0127945
647.099	0.0127657
647.177	0.0128861
647.255	0.0128193
647.333	0.0127068
647.411	0.0127448
647.489	0.0128033
647.568	0.0129720
647.646	0.0126418
647.724	0.0127058
647.802	0.0127957
647.880	0.0127151
647.958	0.0127688
648.036	0.0127976
648.114	0.0128189
648.193	0.0127853
648.271	0.0128069
648.349	0.0127623
648.427	0.0128001
648.505	0.0128136
648.583	0.0127724
648.661	0.0128896
648.739	0.0128619
648.818	0.0126597
648.896	0.0128297
648.974	0.0128108
649.052	0.0127587
649.130	0.0128342
649.208	0.0128240
649.286	0.0128226
649.364	0.0126965
649.443	0.0128345
649.521	0.0128606
649.599	0.0127441
649.677	0.0128790
649.755	0.0128293
649.833	0.0128091
649.911	0.0127241
649.989	0.0127341
650.068	0.0127871
650.146	0.0127822
650.224	0.0128646
650.302	0.0129036
650.380	0.0129447
650.458	0.0127841
650.536	0.0127422
650.614	0.0129056
650.693	0.0129106
650.771	0.0127093
650.849	0.0128883
650.927	0.0127336
651.005	0.0126801
651.083	0.0127353
651.161	0.0127427
651.239	0.0128189
651.318	0.0129018
651.396	0.0127851
651.474	0.0128164
651.552	0.0128170
651.630	0.0127711
651.708	0.0128687
651.786	0.0128841
651.864	0.0127779
651.943	0.0128262
652.021	0.0128610
652.099	0.0127582
652.177	0.0127935
652.255	0.0128123
652.333	0.0127076
652.411	0.0128631
652.489	0.0127826
652.568	0.0128431
652.646	0.0127139
652.724	0.0126780
652.802	0.0127470
652.880	0.0127569
652.958	0.0128201
653.036	0.0128290
653.114	0.0129306
653.193	0.0128024
653.271	0.0127039
653.349	0.0127435
653.427	0.0127165
653.505	0.0127518
653.583	0.0127403
653.661	0.0126921
653.739	0.0127631
653.818	0.0127854
653.896	0.0126873
653.974	0.0126517
654.052	0.0128627
654.130	0.0127084
654.208	0.0126577
654.286	0.0126614
654.364	0.0126976
654.443	0.0127998
654.521	0.0128909
654.599	0.0127855
654.677	0.0127539
654.755	0.0128436
654.833	0.0128146
654.911	0.0128020
654.989	0.0126734
655.068	0.0127134
655.146	0.0128969
655.224	0.0128897
655.302	0.0127087
655.380	0.0126324
655.458	0.0127244
655.536	0.0128027
655.614	0.0128125
655.693	0.0127571
655.771	0.0127808
655.849	0.0128706
655.927	0.0128487
656.005	0.0127610
656.083	0.0127040
656.161	0.0126559
656.239	0.0127840
656.318	0.0126832
656.396	0.0127242
656.474	0.0127583
656.552	0.0128262
656.630	0.0127387
656.708	0.0127220
656.786	0.0126725
656.864	0.0128769
656.943	0.0129768
657.021	0.0128889
657.099	0.0128063
657.177	0.0126797
657.255	0.0126177
657.333	0.0127575
657.411	0.0127171
657.489	0.0127473
657.568	0.0127869
657.646	0.0126766
657.724	0.0128152
657.802	0.0128212
657.880	0.0128117
657.958	0.0127798
658.036	0.0128703
658.114	0.0126316
658.193	0.0127583
658.271	0.0129206
658.349	0.0127959
658.427	0.0128765
658.505	0.0127856
658.583	0.0127237
658.661	0.0126096
658.739	0.0127830
658.818	0.0127955
658.896	0.0127007
658.974	0.0127573
659.052	0.0128920
659.130	0.0127013
659.208	0.0126901
659.286	0.0128305
659.364	0.0128175
659.443	0.0126807
659.521	0.0126513
659.599	0.0128810
659.677	0.0128438
659.755	0.0127686
659.833	0.0128254
659.911	0.0128770
659.989	0.0127625
660.068	0.0127937
660.146	0.0128818
660.224	0.0127652
660.302	0.0128397
660.380	0.0127829
660.458	0.0126288
660.536	0.0128368
660.614	0.0129069
660.693	0.0129053
660.771	0.0126753
660.849	0.0127080
660.927	0.0128384
661.005	0.0127785
661.083	0.0127045
661.161	0.0128031
661.239	0.0127621
661.318	0.0127490
661.396	0.0128981
661.474	0.0126837
661.552	0.0127557
661.630	0.0127956
661.708	0.0127688
661.786	0.0128364
661.864	0.0128526
661.943	0.0126913
662.021	0.0128630
662.099	0.0127031
662.177	0.0126303
662.255	0.0126801
662.333	0.0128444
662.411	0.0128510
662.489	0.0127349
662.568	0.0127637
662.646	0.0128296
662.724	0.0127093
662.802	0.0127834
662.880	0.0129002
662.958	0.0127778
663.036	0.0127634
663.114	0.0128889
663.193	0.0126972
663.271	0.0127838
663.349	0.0128314
663.427	0.0127628
663.505	0.0129274
663.583	0.0127924
663.661	0.0128836
663.739	0.0128523
663.818	0.0128662
663.896	0.0128139
663.974	0.0127682
664.052	0.0128690
664.130	0.0127338
664.208	0.0129054
664.286	0.0127522
664.364	0.0127728
664.443	0.0129198
664.521	0.0128936
664.599	0.0128771
664.677	0.0126654
664.755	0.0127647
664.833	0.0127563
664.911	0.0127940
664.989	0.0128094
665.068	0.0126825
665.146	0.0128510
665.224	0.0127897
665.302	0.0128883
665.380	0.0128695
665.458	0.0127396
665.536	0.0127039
665.614	0.0128327
665.693	0.0127151
665.771	0.0127447
665.849	0.0127226
665.927	0.0128472
666.005	0.0129281
666.083	0.0127303
666.161	0.0126975
666.239	0.0127738
666.318	0.0127304
666.396	0.0129104
666.474	0.0127348
666.552	0.0127112
666.630	0.0129537
666.708	0.0128570
666.786	0.0126516
666.864	0.0127922
666.943	0.0128774
667.021	0.0126945
667.099	0.0125974
667.177	0.0127134
667.255	0.0128253
667.333	0.0128820
667.411	0.0126711
667.489	0.0128047
667.568	0.0129582
667.646	0.0129152
667.724	0.0128310
667.802	0.0128632
667.880	0.0128381
667.958	0.0127523
668.036	0.0128413
668.114	0.0127197
668.193	0.0128062
668.271	0.0127778
668.349	0.0127592
668.427	0.0128400
668.505	0.0127585
668.583	0.0127643
668.661	0.0128194
668.739	0.0127374
668.818	0.0128869
668.896	0.0128047
668.974	0.0127854
669.052	0.0128009
669.130	0.0126103
669.208	0.0128143
669.286	0.0129192
669.364	0.0127715
669.443	0.0129283
669.521	0.0128438
669.599	0.0127876
669.677	0.0128411
669.755	0.0127699
669.833	0.0126063
669.911	0.0128474
669.989	0.0128268
670.068	0.0127141
670.146	0.0128042
670.224	0.0129224
670.302	0.0126978
670.380	0.0129888
670.458	0.0128029
670.536	0.0127132
670.614	0.0128359
670.693	0.0127151
670.771	0.0126606
670.849	0.0128867
670.927	0.0128783
671.005	0.0128800
671.083	0.0126786
671.161	0.0128471
671.239	0.0128119
671.318	0.0127159
671.396	0.0128439
671.474	0.0127342
671.552	0.0127888
671.630	0.0127056
671.708	0.0128904
671.786	0.0128663
671.864	0.0127680
671.943	0.0127506
672.021	0.0129207
672.099	0.0128008
672.177	0.0128273
672.255	0.0126975
672.333	0.0128155
672.411	0.0128006
672.489	0.0128584
672.568	0.0127566
672.646	0.0127580
672.724	0.0127353
672.802	0.0128316
672.880	0.0127786
672.958	0.0126686
673.036	0.0128600
673.114	0.0127915
673.193	0.0128001
673.271	0.0128578
673.349	0.0127251
673.427	0.0127484
673.505	0.0128230
673.583	0.0127764
673.661	0.0126881
673.739	0.0126907
673.818	0.0127216
673.896	0.0127262
673.974	0.0128441
674.052	0.0128453
674.130	0.0128580
674.208	0.0127006
674.286	0.0127752
674.364	0.0127730
674.443	0.0128942
674.521	0.0128634
674.599	0.0127907
674.677	0.0127229
674.755	0.0127363
674.833	0.0128002
674.911	0.0128217
674.989	0.0126898
675.068	0.0127686
675.146	0.0127668
675.224	0.0128064
675.302	0.0127726
675.380	0.0127393
675.458	0.0126942
675.536	0.0127940
675.614	0.0126401
675.693	0.0127427
675.771	0.0128069
675.849	0.0126215
675.927	0.0126749
676.005	0.0128510
676.083	0.0126956
676.161	0.0127248
676.239	0.0128188
676.318	0.0125867
676.396	0.0126777
676.474	0.0127314
676.552	0.0127474
676.630	0.0127493
676.708	0.0128317
676.786	0.0127496
676.864	0.0128394
676.943	0.0128165
677.021	0.0128228
677.099	0.0126254
677.177	0.0126899
677.255	0.0127381
677.333	0.0127256
677.411	0.0127179
677.489	0.0127223
677.568	0.0127550
677.646	0.0127821
677.724	0.0127219
677.802	0.0126962
677.880	0.0126670
677.958	0.0128022
678.036	0.0127164
678.114	0.0127418
678.193	0.0128094
678.271	0.0127103
678.349	0.0126973
678.427	0.0126019
678.505	0.0126835
678.583	0.0127151
678.661	0.0126996
678.739	0.0126202
678.818	0.0125912
678.896	0.0127547
678.974	0.0128183
679.052	0.0127174
679.130	0.0127964
679.208	0.0128896
679.286	0.0127205
679.364	0.0128289
679.443	0.0127880
679.521	0.0128338
679.599	0.0127332
679.677	0.0127811
679.755	0.0128465
679.833	0.0126376
679.911	0.0127052
679.989	0.0126591
680.068	0.0124693
680.146	0.0125917
680.224	0.0126706
680.302	0.0127889
680.380	0.0129186
680.458	0.0128749
680.536	0.0128416
680.614	0.0131979
680.693	0.0131898
680.771	0.0131387
680.849	0.0131666
680.927	0.0130588
681.005	0.0131227
681.083	0.0130901
681.161	0.0130201
681.239	0.0128179
681.318	0.0128023
681.396	0.0126659
681.474	0.0125732
681.552	0.0124175
681.630	0.0122861
681.708	0.0121450
681.786	0.0122595
681.864	0.0120634
681.943	0.0121703
682.021	0.0121539
682.099	0.0123425
682.177	0.0123724
682.255	0.0126792
682.333	0.0125596
682.411	0.0128105
682.489	0.0130550
682.568	0.0131791
682.646	0.0133716
682.724	0.0134949
682.802	0.0135215
682.880	0.0138275
682.958	0.0136386
683.036	0.0137350
683.114	0.0136476
683.193	0.0135377
683.271	0.0134853
683.349	0.0133654
683.427	0.0132610
683.505	0.0131486
683.583	0.0130302
683.661	0.0127447
683.739	0.0124725
683.818	0.0122932
683.896	0.0120708
683.974	0.0118574
684.052	0.0114303
684.130	0.0113118
684.208	0.0111321
684.286	0.0111420
684.364	0.0109607
684.443	0.0110605
684.521	0.0112845
684.599	0.0114355
684.677	0.0116901
684.755	0.0120205
684.833	0.0124716
684.911	0.0127232
684.989	0.0132168
685.068	0.0137759
685.146	0.0139988
685.224	0.0142735
685.302	0.0144851
685.380	0.0147861
685.458	0.0150413
685.536	0.0150990
685.614	0.0149493
685.693	0.0149447
685.771	0.0148562
685.849	0.0146877
685.927	0.0144943
686.005	0.0141508
686.083	0.0139545
686.161	0.0136508
686.239	0.0134608
686.318	0.0130869
686.396	0.0126362
686.474	0.0122577
686.552	0.0119057
686.630	0.0114848
686.708	0.0111779
686.786	0.0107233
686.864	0.0102215
686.943	0.0100501
687.021	0.00987434
687.099	0.00981453
687.177	0.00967171
687.255	0.00966331
687.333	0.00992638
687.411	0.0101551
687.489	0.0105831
687.568	0.0108497
687.646	0.0114793
687.724	0.0119301
687.802	0.0126821
687.880	0.0133608
687.958	0.0140011
688.036	0.0146130
688.114	0.0150919
688.193	0.0157478
688.271	0.0161911
688.349	0.0165166
688.427	0.0167455
688.505	0.0168996
688.583	0.0167889
688.661	0.0165477
688.739	0.0162844
688.818	0.0160479
688.896	0.0155183
688.974	0.0150777
689.052	0.0147119
689.130	0.0141540
689.208	0.0135379
689.286	0.0129737
689.364	0.0124402
689.443	0.0119630
689.521	0.0113072
689.599	0.0107068
689.677	0.0102597
689.755	0.00995369
689.833	0.00957741
689.911	0.00908485
689.989	0.00884155
690.068	0.00867836
690.146	0.00864586
690.224	0.00862038
690.302	0.00868614
690.380	0.00888809
690.458	0.00896431
690.536	0.00952393
690.614	0.00976738
690.693	0.0102407
690.771	0.0109454
690.849	0.0117268
690.927	0.0123545
691.005	0.0130990
691.083	0.0139268
691.161	0.0145854
691.239	0.0154141
691.318	0.0162476
691.396	0.0167580
691.474	0.0172544
691.552	0.0178098
691.630	0.0180566
691.708	0.0181100
691.786	0.0183650
691.864	0.0182108
691.943	0.0179025
692.021	0.0175980
692.099	0.0169751
692.177	0.0165202
692.255	0.0157459
692.333	0.0149869
692.411	0.0141254
692.489	0.0132118
692.568	0.0123928
692.646	0.0115837
692.724	0.0107190
692.802	0.00994835
692.880	0.00935265
692.958	0.00880630
693.036	0.00835030
693.114	0.00804108
693.193	0.00783501
693.271	0.00766869
693.349	0.00786758
693.427	0.00791229
693.505	0.00832222
693.583	0.00876472
693.661	0.00904877
693.739	0.00980034
693.818	0.0103561
693.896	0.0106983
693.974	0.0114019
694.052	0.0121664
694.130	0.0127094
694.208	0.0133091
694.286	0.0139773
694.364	0.0144058
694.443	0.0149178
694.521	0.0154815
694.599	0.0158662
694.677	0.0160765
694.755	0.0163450
694.833	0.0164497
694.911	0.0164327
694.989	0.0162246
695.068	0.0161391
695.146	0.0159100
695.224	0.0156204
695.302	0.0151074
695.380	0.0145711
695.458	0.0141148
695.536	0.0137128
695.614	0.0133921
695.693	0.0127836
695.771	0.0124876
695.849	0.0123684
695.927	0.0121060
696.005	0.0118703
696.083	0.0117569
696.161	0.0118201
696.239	0.0118273
696.318	0.0119556
696.396	0.0120238
696.474	0.0120930
696.552	0.0120987
696.630	0.0123270
696.708	0.0123747
696.786	0.0125210
696.864	0.0124896
696.943	0.0124025
697.021	0.0124695
697.099	0.0124736
697.177	0.0123866
697.255	0.0121067
697.333	0.0121317
697.411	0.0120282
697.489	0.0118698
697.568	0.0118456
697.646	0.0117353
697.724	0.0116163
697.802	0.0115067
697.880	0.0113071
697.958	0.0113827
698.036	0.0112635
698.114	0.0112446
698.193	0.0112878
698.271	0.0112308
698.349	0.0114339
698.427	0.0114252
698.505	0.0115909
698.583	0.0116564
698.661	0.0117828
698.739	0.0119534
698.818	0.0121337
698.896	0.0126811
698.974	0.0129792
699.052	0.0134299
699.130	0.0137551
699.208	0.0141306
699.286	0.0145761
699.364	0.0151448
699.443	0.0154599
699.521	0.0157072
699.599	0.0160753
699.677	0.0163419
699.755	0.0162254
699.833	0.0162839
699.911	0.0161360
699.989	0.0160693
700.068	0.0156992
700.146	0.0152760
700.224	0.0150003
700.302	0.0145796
700.380	0.0140958
700.458	0.0134053
700.536	0.0129245
700.614	0.0122134
700.693	0.0119115
700.771	0.0113209
700.849	0.0108685
700.927	0.0106617
701.005	0.0103000
701.083	0.00996727
701.161	0.00984543
701.239	0.00965141
701.318	0.00974129
701.396	0.00966537
701.474	0.00976654
701.552	0.00984276
701.630	0.0101067
701.708	0.0104338
701.786	0.0107975
701.864	0.0111049
701.943	0.0114454
702.021	0.0118115
702.099	0.0120092
702.177	0.0125469
702.255	0.0129197
702.333	0.0133046
702.411	0.0135000
702.489	0.0136512
702.568	0.0139589
702.646	0.0141391
702.724	0.0141039
702.802	0.0142485
702.880	0.0142607
702.958	0.0141286
703.036	0.0142091
703.114	0.0142322
703.193	0.0141678
703.271	0.0140822
703.349	0.0140768
703.427	0.0138793
703.505	0.0138206
703.583	0.0136243
703.661	0.0133881
703.739	0.0132703
703.818	0.0131911
703.896	0.0129166
703.974	0.0128093
704.052	0.0124842
704.130	0.0121581
704.208	0.0121237
704.286	0.0118652
704.364	0.0117319
704.443	0.0119260
704.521	0.0118229
704.599	0.0117303
704.677	0.0119263
704.755	0.0119473
704.833	0.0120375
704.911	0.0122127
704.989	0.0123038
705.068	0.0125077
705.146	0.0127432
705.224	0.0131495
705.302	0.0133192
705.380	0.0135743
705.458	0.0137443
705.536	0.0139131
705.614	0.0140598
705.693	0.0141559
705.771	0.0141340
705.849	0.0140939
705.927	0.0142716
706.005	0.0140977
706.083	0.0138297
706.161	0.0136832
706.239	0.0134453
706.318	0.0132168
706.396	0.0130319
706.474	0.0127794
706.552	0.0122430
706.630	0.0121441
706.708	0.0119298
706.786	0.0117608
706.864	0.0115806
706.943	0.0113892
707.021	0.0114165
707.099	0.0113392
707.177	0.0111956
707.255	0.0109302
707.333	0.0109354
707.411	0.0109641
707.489	0.0108937
707.568	0.0108741
707.646	0.0108284
707.724	0.0109573
707.802	0.0111066
707.880	0.0112778
707.958	0.0114890
708.036	0.0116775
708.114	0.0118345
708.193	0.0120853
708.271	0.0123543
708.349	0.0126740
708.427	0.0129883
708.505	0.0132754
708.583	0.0135596
708.661	0.0136699
708.739	0.0138831
708.818	0.0142271
708.896	0.0142420
708.974	0.0145151
709.052	0.0145863
709.130	0.0146595
709.208	0.0147106
709.286	0.0147321
709.364	0.0148346
709.443	0.0147949
709.521	0.0146053
709.599	0.0144531
709.677	0.0144653
709.755	0.0143313
709.833	0.0141677
709.911	0.0139016
709.989	0.0137296
710.068	0.0135191
710.146	0.0132952
710.224	0.0130659
710.302	0.0126736
710.380	0.0123893
710.458	0.0123915
710.536	0.0121622
710.614	0.0119869
710.693	0.0116710
710.771	0.0117385
710.849	0.0115814
710.927	0.0112881
711.005	0.0112650
711.083	0.0112318
711.161	0.0112956
711.239	0.0111725
711.318	0.0112527
711.396	0.0113608
711.474	0.0113393
711.552	0.0114931
711.630	0.0114799
711.708	0.0116058
711.786	0.0117362
711.864	0.0117869
711.943	0.0120570
712.021	0.0121396
712.099	0.0121568
712.177	0.0123931
712.255	0.0125140
712.333	0.0127720
712.411	0.0129097
712.489	0.0131850
712.568	0.0132198
712.646	0.0134352
712.724	0.0134399
712.802	0.0136353
712.880	0.0138184
712.958	0.0137864
713.036	0.0139202
713.114	0.0138495
713.193	0.0136762
713.271	0.0136144
713.349	0.0136743
713.427	0.0134406
713.505	0.0134245
713.583	0.0133147
713.661	0.0130173
713.739	0.0130001
713.818	0.0128999
713.896	0.0128217
713.974	0.0126192
714.052	0.0125472
714.130	0.0125738
714.208	0.0123920
714.286	0.0123972
714.364	0.0123012
714.443	0.0123255
714.521	0.0124274
714.599	0.0122545
714.677	0.0122403
714.755	0.0123730
714.833	0.0125724
714.911	0.0125123
714.989	0.0126764
715.068	0.0128801
715.146	0.0130277
715.224	0.0134050
715.302	0.0135360
715.380	0.0136595
715.458	0.0137511
715.536	0.0139193
715.614	0.0140541
715.693	0.0140813
715.771	0.0140649
715.849	0.0139687
715.927	0.0141413
716.005	0.0139443
716.083	0.0139135
716.161	0.0135809
716.239	0.0135003
716.318	0.0133676
716.396	0.0131757
716.474	0.0129467
716.552	0.0128448
716.630	0.0126503
716.708	0.0124237
716.786	0.0122105
716.864	0.0121356
716.943	0.0119329
717.021	0.0117693
717.099	0.0113977
717.177	0.0113499
717.255	0.0113954
717.333	0.0114540
717.411	0.0112688
717.489	0.0113075
717.568	0.0112591
717.646	0.0113030
717.724	0.0112494
717.802	0.0114030
717.880	0.0115259
717.958	0.0115159
718.036	0.0117126
718.114	0.0118888
718.193	0.0119787
718.271	0.0123137
718.349	0.0124910
718.427	0.0126249
718.505	0.0128535
718.583	0.0129092
718.661	0.0131980
718.739	0.0132756
718.818	0.0133105
718.896	0.0133429
718.974	0.0134395
719.052	0.0136785
719.130	0.0135197
719.208	0.0136765
719.286	0.0136040
719.364	0.0136583
719.443	0.0136152
719.521	0.0138190
719.599	0.0136965
719.677	0.0138042
719.755	0.0138323
719.833	0.0138005
719.911	0.0139233
719.989	0.0138932
720.068	0.0141113
720.146	0.0141709
720.224	0.0141359
720.302	0.0140504
720.380	0.0141135
720.458	0.0141524
720.536	0.0140062
720.614	0.0137962
720.693	0.0138570
720.771	0.0138924
720.849	0.0134263
720.927	0.0134132
721.005	0.0132592
721.083	0.0130410
721.161	0.0127443
721.239	0.0125504
721.318	0.0123219
721.396	0.0120152
721.474	0.0118689
721.552	0.0116520
721.630	0.0113965
721.708	0.0113104
721.786	0.0110714
721.864	0.0112473
721.943	0.0112622
722.021	0.0113086
722.099	0.0111517
722.177	0.0111697
722.255	0.0113908
722.333	0.0114372
722.411	0.0116254
722.489	0.0116661
722.568	0.0117579
722.646	0.0120333
722.724	0.0122219
722.802	0.0123248
722.880	0.0125672
722.958	0.0126509
723.036	0.0127176
723.114	0.0127940
723.193	0.0129173
723.271	0.0130776
723.349	0.0132009
723.427	0.0132492
723.505	0.0132985
723.583	0.0134576
723.661	0.0133133
723.739	0.0133395
723.818	0.0133120
723.896	0.0133554
723.974	0.0132397
724.052	0.0132351
724.130	0.0132005
724.208	0.0130026
724.286	0.0128988
724.364	0.0128667
724.443	0.0126656
724.521	0.0126717
724.599	0.0127621
724.677	0.0128361
724.755	0.0126440
724.833	0.0128420
724.911	0.0129340
724.989	0.0129996
725.068	0.0131416
725.146	0.0131614
725.224	0.0131956
725.302	0.0132954
725.380	0.0133425
725.458	0.0134050
725.536	0.0136932
