05/07/2022	17:11:12	Ver.	4.1	UNKNOWN
Optical Delay	639.989416	Delta X		0.078125	Sweeps	1	Scan Rate	0/0
Coordinates	Axis 1	NaN	Axis 2	NaN	Axis 3	NaN	Axis 4	NaN	Axis 5	NaN	Axis 6	0.000000
TX Power	0.000000	RX Power	0.000000

639.989	0.0127341
640.068	0.0128109
640.146	0.0126103
640.224	0.0127519
640.302	0.0127429
640.380	0.0127554
640.458	0.0127473
640.536	0.0126269
640.614	0.0128665
640.693	0.0128343
640.771	0.0127679
640.849	0.0126912
640.927	0.0128712
641.005	0.0127131
641.083	0.0126709
641.161	0.0127866
641.239	0.0127087
641.318	0.0128351
641.396	0.0127812
641.474	0.0127502
641.552	0.0126540
641.630	0.0127007
641.708	0.0127600
641.786	0.0127760
641.864	0.0127474
641.943	0.0128072
642.021	0.0127293
642.099	0.0127595
642.177	0.0126216
642.255	0.0127532
642.333	0.0128130
642.411	0.0127420
642.489	0.0127426
642.568	0.0127376
642.646	0.0127172
642.724	0.0128192
642.802	0.0127725
642.880	0.0127187
642.958	0.0126797
643.036	0.0127451
643.114	0.0127740
643.193	0.0127838
643.271	0.0126254
643.349	0.0127214
643.427	0.0125751
643.505	0.0127823
643.583	0.0128360
643.661	0.0126993
643.739	0.0128207
643.818	0.0127842
643.896	0.0125982
643.974	0.0125778
644.052	0.0125581
644.130	0.0126373
644.208	0.0126076
644.286	0.0127201
644.364	0.0127590
644.443	0.0126324
644.521	0.0126904
644.599	0.0128506
644.677	0.0126465
644.755	0.0126473
644.833	0.0127492
644.911	0.0127968
644.989	0.0127314
645.068	0.0127668
645.146	0.0126922
645.224	0.0127573
645.302	0.0126896
645.380	0.0126772
645.458	0.0126877
645.536	0.0127673
645.614	0.0126995
645.693	0.0128278
645.771	0.0128339
645.849	0.0127931
645.927	0.0127266
646.005	0.0127853
646.083	0.0128647
646.161	0.0127166
646.239	0.0126827
646.318	0.0126479
646.396	0.0128345
646.474	0.0126511
646.552	0.0128015
646.630	0.0127872
646.708	0.0128435
646.786	0.0128737
646.864	0.0126572
646.943	0.0128541
647.021	0.0128342
647.099	0.0126817
647.177	0.0126730
647.255	0.0128428
647.333	0.0127815
647.411	0.0127099
647.489	0.0127075
647.568	0.0127467
647.646	0.0126553
647.724	0.0127341
647.802	0.0127673
647.880	0.0127230
647.958	0.0128323
648.036	0.0128477
648.114	0.0127431
648.193	0.0127318
648.271	0.0126974
648.349	0.0127261
648.427	0.0127307
648.505	0.0127255
648.583	0.0127888
648.661	0.0128080
648.739	0.0126286
648.818	0.0126410
648.896	0.0128245
648.974	0.0128799
649.052	0.0127429
649.130	0.0127708
649.208	0.0126865
649.286	0.0127704
649.364	0.0128218
649.443	0.0127794
649.521	0.0127434
649.599	0.0128249
649.677	0.0127394
649.755	0.0128185
649.833	0.0128115
649.911	0.0127643
649.989	0.0128314
650.068	0.0128660
650.146	0.0128089
650.224	0.0127621
650.302	0.0127906
650.380	0.0126348
650.458	0.0126793
650.536	0.0127000
650.614	0.0128977
650.693	0.0127452
650.771	0.0126872
650.849	0.0127814
650.927	0.0127681
651.005	0.0126955
651.083	0.0127583
651.161	0.0125687
651.239	0.0125208
651.318	0.0127631
651.396	0.0128954
651.474	0.0127866
651.552	0.0126648
651.630	0.0128340
651.708	0.0126649
651.786	0.0127248
651.864	0.0126322
651.943	0.0126588
652.021	0.0127748
652.099	0.0127758
652.177	0.0126610
652.255	0.0127291
652.333	0.0128561
652.411	0.0126435
652.489	0.0126429
652.568	0.0127570
652.646	0.0127782
652.724	0.0128013
652.802	0.0126465
652.880	0.0126396
652.958	0.0127978
653.036	0.0127559
653.114	0.0127482
653.193	0.0127230
653.271	0.0128095
653.349	0.0126315
653.427	0.0127263
653.505	0.0127268
653.583	0.0127541
653.661	0.0126225
653.739	0.0127193
653.818	0.0126969
653.896	0.0127074
653.974	0.0126734
654.052	0.0126069
654.130	0.0127083
654.208	0.0127686
654.286	0.0127335
654.364	0.0128104
654.443	0.0126635
654.521	0.0126698
654.599	0.0126231
654.677	0.0126504
654.755	0.0127081
654.833	0.0126951
654.911	0.0127005
654.989	0.0125833
655.068	0.0127133
655.146	0.0127338
655.224	0.0126476
655.302	0.0127515
655.380	0.0127491
655.458	0.0128183
655.536	0.0126270
655.614	0.0128372
655.693	0.0126702
655.771	0.0125857
655.849	0.0127155
655.927	0.0126772
656.005	0.0127073
656.083	0.0126938
656.161	0.0128209
656.239	0.0127992
656.318	0.0127390
656.396	0.0128315
656.474	0.0127618
656.552	0.0127885
656.630	0.0127880
656.708	0.0127193
656.786	0.0127589
656.864	0.0128144
656.943	0.0127881
657.021	0.0128741
657.099	0.0127108
657.177	0.0126411
657.255	0.0127882
657.333	0.0128546
657.411	0.0128509
657.489	0.0127535
657.568	0.0126898
657.646	0.0126939
657.724	0.0128156
657.802	0.0128147
657.880	0.0127744
657.958	0.0127204
658.036	0.0128393
658.114	0.0127966
658.193	0.0126820
658.271	0.0128132
658.349	0.0127657
658.427	0.0128020
658.505	0.0127312
658.583	0.0127541
658.661	0.0128194
658.739	0.0126521
658.818	0.0126519
658.896	0.0127589
658.974	0.0128750
659.052	0.0127599
659.130	0.0126456
659.208	0.0129969
659.286	0.0127214
659.364	0.0127933
659.443	0.0127343
659.521	0.0128712
659.599	0.0127740
659.677	0.0127927
659.755	0.0128001
659.833	0.0126806
659.911	0.0127121
659.989	0.0127943
660.068	0.0128325
660.146	0.0127866
660.224	0.0128667
660.302	0.0128802
660.380	0.0128927
660.458	0.0127950
660.536	0.0126980
660.614	0.0127245
660.693	0.0128380
660.771	0.0127299
660.849	0.0127444
660.927	0.0127834
661.005	0.0127695
661.083	0.0127395
661.161	0.0127056
661.239	0.0125964
661.318	0.0126497
661.396	0.0128389
661.474	0.0128489
661.552	0.0127680
661.630	0.0127248
661.708	0.0126876
661.786	0.0128802
661.864	0.0127661
661.943	0.0128093
662.021	0.0127079
662.099	0.0128040
662.177	0.0127905
662.255	0.0126745
662.333	0.0127934
662.411	0.0129280
662.489	0.0126791
662.568	0.0125507
662.646	0.0125808
662.724	0.0128299
662.802	0.0127229
662.880	0.0126901
662.958	0.0126940
663.036	0.0128022
663.114	0.0128279
663.193	0.0126798
663.271	0.0126873
663.349	0.0126675
663.427	0.0127026
663.505	0.0128854
663.583	0.0124638
663.661	0.0127012
663.739	0.0126928
663.818	0.0127324
663.896	0.0127082
663.974	0.0125806
664.052	0.0128275
664.130	0.0127220
664.208	0.0127164
664.286	0.0127279
664.364	0.0127087
664.443	0.0127801
664.521	0.0128492
664.599	0.0126527
664.677	0.0125703
664.755	0.0126469
664.833	0.0127415
664.911	0.0127261
664.989	0.0127713
665.068	0.0127590
665.146	0.0126601
665.224	0.0126458
665.302	0.0127320
665.380	0.0127901
665.458	0.0127060
665.536	0.0127971
665.614	0.0126059
665.693	0.0127859
665.771	0.0127598
665.849	0.0127718
665.927	0.0126279
666.005	0.0127409
666.083	0.0126498
666.161	0.0127068
666.239	0.0126609
666.318	0.0127013
666.396	0.0126516
666.474	0.0126613
666.552	0.0126878
666.630	0.0127728
666.708	0.0126698
666.786	0.0127408
666.864	0.0127280
666.943	0.0127325
667.021	0.0127724
667.099	0.0126614
667.177	0.0128116
667.255	0.0128586
667.333	0.0127693
667.411	0.0127466
667.489	0.0128094
667.568	0.0127296
667.646	0.0125914
667.724	0.0126077
667.802	0.0127798
667.880	0.0128786
667.958	0.0126157
668.036	0.0126321
668.114	0.0126886
668.193	0.0125928
668.271	0.0125697
668.349	0.0127597
668.427	0.0127550
668.505	0.0127936
668.583	0.0127221
668.661	0.0127521
668.739	0.0127206
668.818	0.0127539
668.896	0.0126368
668.974	0.0127486
669.052	0.0128688
669.130	0.0126365
669.208	0.0127548
669.286	0.0125723
669.364	0.0127274
669.443	0.0127413
669.521	0.0126768
669.599	0.0126374
669.677	0.0126868
669.755	0.0126841
669.833	0.0126640
669.911	0.0126636
669.989	0.0127084
670.068	0.0127086
670.146	0.0127484
670.224	0.0127823
670.302	0.0126960
670.380	0.0126994
670.458	0.0127153
670.536	0.0127340
670.614	0.0126369
670.693	0.0128954
670.771	0.0127769
670.849	0.0126817
670.927	0.0128260
671.005	0.0128864
671.083	0.0127248
671.161	0.0126734
671.239	0.0128668
671.318	0.0127707
671.396	0.0127853
671.474	0.0127432
671.552	0.0128393
671.630	0.0127241
671.708	0.0127602
671.786	0.0128722
671.864	0.0127596
671.943	0.0127069
672.021	0.0126575
672.099	0.0127593
672.177	0.0127280
672.255	0.0127045
672.333	0.0128352
672.411	0.0126497
672.489	0.0127562
672.568	0.0127637
672.646	0.0126974
672.724	0.0127848
672.802	0.0127300
672.880	0.0127505
672.958	0.0128005
673.036	0.0126811
673.114	0.0126913
673.193	0.0127899
673.271	0.0127528
673.349	0.0125129
673.427	0.0125626
673.505	0.0125787
673.583	0.0126375
673.661	0.0126984
673.739	0.0128109
673.818	0.0128010
673.896	0.0128975
673.974	0.0128462
674.052	0.0128638
674.130	0.0129813
674.208	0.0128716
674.286	0.0130238
674.364	0.0130660
674.443	0.0129350
674.521	0.0127179
674.599	0.0127644
674.677	0.0126932
674.755	0.0126999
674.833	0.0127213
674.911	0.0126260
674.989	0.0124167
675.068	0.0126285
675.146	0.0128164
675.224	0.0125538
675.302	0.0126145
675.380	0.0124320
675.458	0.0125257
675.536	0.0126038
675.614	0.0126334
675.693	0.0127016
675.771	0.0127657
675.849	0.0127731
675.927	0.0126797
676.005	0.0128875
676.083	0.0128674
676.161	0.0128259
676.239	0.0126836
676.318	0.0128159
676.396	0.0128312
676.474	0.0127778
676.552	0.0128838
676.630	0.0128524
676.708	0.0129137
676.786	0.0130624
676.864	0.0130235
676.943	0.0130979
677.021	0.0130168
677.099	0.0131705
677.177	0.0129548
677.255	0.0130419
677.333	0.0127327
677.411	0.0127870
677.489	0.0126157
677.568	0.0125134
677.646	0.0122982
677.724	0.0121459
677.802	0.0120640
677.880	0.0119740
677.958	0.0119608
678.036	0.0120634
678.114	0.0122451
678.193	0.0122073
678.271	0.0121442
678.349	0.0124258
678.427	0.0126131
678.505	0.0127325
678.583	0.0128514
678.661	0.0130078
678.739	0.0131239
678.818	0.0130875
678.896	0.0132964
678.974	0.0134944
679.052	0.0134264
679.130	0.0133470
679.208	0.0134022
679.286	0.0135605
679.364	0.0133157
679.443	0.0133069
679.521	0.0133310
679.599	0.0131192
679.677	0.0131116
679.755	0.0130624
679.833	0.0130659
679.911	0.0130276
679.989	0.0128585
680.068	0.0128996
680.146	0.0127438
680.224	0.0125591
680.302	0.0125057
680.380	0.0125155
680.458	0.0124715
680.536	0.0123814
680.614	0.0122540
680.693	0.0122923
680.771	0.0123211
680.849	0.0121537
680.927	0.0121677
681.005	0.0120409
681.083	0.0120520
681.161	0.0118222
681.239	0.0117847
681.318	0.0118877
681.396	0.0119202
681.474	0.0118678
681.552	0.0120198
681.630	0.0121524
681.708	0.0123975
681.786	0.0127137
681.864	0.0130300
681.943	0.0130936
682.021	0.0135569
682.099	0.0137673
682.177	0.0140501
682.255	0.0139146
682.333	0.0141734
682.411	0.0140508
682.489	0.0140587
682.568	0.0139706
682.646	0.0138755
682.724	0.0136053
682.802	0.0134277
682.880	0.0133665
682.958	0.0132763
683.036	0.0129994
683.114	0.0128448
683.193	0.0130386
683.271	0.0127451
683.349	0.0127976
683.427	0.0127868
683.505	0.0125193
683.583	0.0124120
683.661	0.0123324
683.739	0.0122547
683.818	0.0123492
683.896	0.0120243
683.974	0.0120953
684.052	0.0119392
684.130	0.0118950
684.208	0.0118704
684.286	0.0118826
684.364	0.0118337
684.443	0.0119167
684.521	0.0118844
684.599	0.0120837
684.677	0.0120621
684.755	0.0119233
684.833	0.0119643
684.911	0.0118378
684.989	0.0118354
685.068	0.0116939
685.146	0.0117580
685.224	0.0119395
685.302	0.0120151
685.380	0.0122124
685.458	0.0124001
685.536	0.0125710
685.614	0.0128598
685.693	0.0131528
685.771	0.0135027
685.849	0.0138718
685.927	0.0140160
686.005	0.0142741
686.083	0.0145614
686.161	0.0146177
686.239	0.0147475
686.318	0.0148559
686.396	0.0146379
686.474	0.0146502
686.552	0.0145148
686.630	0.0144170
686.708	0.0142276
686.786	0.0139930
686.864	0.0138813
686.943	0.0136047
687.021	0.0136170
687.099	0.0135102
687.177	0.0132582
687.255	0.0131128
687.333	0.0130254
687.411	0.0127988
687.489	0.0126783
687.568	0.0122532
687.646	0.0120550
687.724	0.0116753
687.802	0.0113664
687.880	0.0110631
687.958	0.0108859
688.036	0.0106535
688.114	0.0104906
688.193	0.0103658
688.271	0.0102818
688.349	0.0102290
688.427	0.0101933
688.505	0.0103452
688.583	0.0104099
688.661	0.0106705
688.739	0.0107508
688.818	0.0109395
688.896	0.0111155
688.974	0.0113837
689.052	0.0112894
689.130	0.0115758
689.208	0.0119315
689.286	0.0120663
689.364	0.0123035
689.443	0.0124660
689.521	0.0127306
689.599	0.0129951
689.677	0.0135506
689.755	0.0139462
689.833	0.0143858
689.911	0.0148193
689.989	0.0153414
690.068	0.0158215
690.146	0.0160624
690.224	0.0162759
690.302	0.0165477
690.380	0.0167902
690.458	0.0167497
690.536	0.0166270
690.614	0.0164044
690.693	0.0163487
690.771	0.0159549
690.849	0.0155580
690.927	0.0151435
691.005	0.0146490
691.083	0.0140146
691.161	0.0135433
691.239	0.0130548
691.318	0.0125657
691.396	0.0119302
691.474	0.0116071
691.552	0.0111621
691.630	0.0109073
691.708	0.0104527
691.786	0.0101563
691.864	0.0101343
691.943	0.00981544
692.021	0.00949165
692.099	0.00941689
692.177	0.00916527
692.255	0.00909477
692.333	0.00907295
692.411	0.00916435
692.489	0.00935669
692.568	0.00929329
692.646	0.00938988
692.724	0.00962029
692.802	0.00997742
692.880	0.0102542
692.958	0.0106093
693.036	0.0109787
693.114	0.0113956
693.193	0.0119228
693.271	0.0123466
693.349	0.0127980
693.427	0.0132122
693.505	0.0137930
693.583	0.0139322
693.661	0.0143005
693.739	0.0144069
693.818	0.0146642
693.896	0.0147278
693.974	0.0148375
694.052	0.0149991
694.130	0.0149130
694.208	0.0151007
694.286	0.0150878
694.364	0.0152759
694.443	0.0151579
694.521	0.0153925
694.599	0.0154938
694.677	0.0155920
694.755	0.0157021
694.833	0.0157067
694.911	0.0157007
694.989	0.0156974
695.068	0.0156152
695.146	0.0155422
695.224	0.0154323
695.302	0.0152573
695.380	0.0151247
695.458	0.0148120
695.536	0.0146317
695.614	0.0143626
695.693	0.0141186
695.771	0.0137967
695.849	0.0135008
695.927	0.0130562
696.005	0.0126743
696.083	0.0123199
696.161	0.0115616
696.239	0.0110046
696.318	0.0103120
696.396	0.00965645
696.474	0.00916725
696.552	0.00842194
696.630	0.00774162
696.708	0.00732338
696.786	0.00683525
696.864	0.00643822
696.943	0.00611382
697.021	0.00610603
697.099	0.00606613
697.177	0.00617813
697.255	0.00662193
697.333	0.00697922
697.411	0.00762321
697.489	0.00835289
697.568	0.00919426
697.646	0.0101222
697.724	0.0110290
697.802	0.0120533
697.880	0.0132395
697.958	0.0140927
698.036	0.0150078
698.114	0.0159567
698.193	0.0166736
698.271	0.0172335
698.349	0.0176482
698.427	0.0178681
698.505	0.0180780
698.583	0.0181077
698.661	0.0181569
698.739	0.0181531
698.818	0.0180549
698.896	0.0178096
698.974	0.0179234
699.052	0.0176839
699.130	0.0173878
699.208	0.0172468
699.286	0.0170421
699.364	0.0166673
699.443	0.0163577
699.521	0.0161127
699.599	0.0156662
699.677	0.0152827
699.755	0.0149905
699.833	0.0144891
699.911	0.0139891
699.989	0.0137016
700.068	0.0131212
700.146	0.0126495
700.224	0.0123257
700.302	0.0119122
700.380	0.0115457
700.458	0.0111356
700.536	0.0108087
700.614	0.0102994
700.693	0.0100116
700.771	0.00952141
700.849	0.00919403
700.927	0.00891571
701.005	0.00864143
701.083	0.00825066
701.161	0.00791573
701.239	0.00755058
701.318	0.00723923
701.396	0.00712845
701.474	0.00677040
701.552	0.00661545
701.630	0.00652061
701.708	0.00654068
701.786	0.00642212
701.864	0.00644302
701.943	0.00680130
702.021	0.00725304
702.099	0.00784958
702.177	0.00830894
702.255	0.00911774
702.333	0.0101382
702.411	0.0111379
702.489	0.0124015
702.568	0.0133125
702.646	0.0144650
702.724	0.0154839
702.802	0.0166568
702.880	0.0176849
702.958	0.0182440
703.036	0.0190208
703.114	0.0195980
703.193	0.0199239
703.271	0.0201730
703.349	0.0203078
703.427	0.0204763
703.505	0.0206442
703.583	0.0204833
703.661	0.0201748
703.739	0.0198643
703.818	0.0196959
703.896	0.0194053
703.974	0.0187519
704.052	0.0181366
704.130	0.0174050
704.208	0.0167331
704.286	0.0159166
704.364	0.0149707
704.443	0.0140676
704.521	0.0133757
704.599	0.0123795
704.677	0.0115634
704.755	0.0108710
704.833	0.0101852
704.911	0.00947205
704.989	0.00895241
705.068	0.00863411
705.146	0.00823433
705.224	0.00777962
705.302	0.00754242
705.380	0.00740700
705.458	0.00728035
705.536	0.00698830
705.614	0.00698364
705.693	0.00688774
705.771	0.00701965
705.849	0.00718643
705.927	0.00708473
706.005	0.00740120
706.083	0.00763359
706.161	0.00791054
706.239	0.00810028
706.318	0.00853226
706.396	0.00900200
706.474	0.00921700
706.552	0.00992462
706.630	0.0103081
706.708	0.0109088
706.786	0.0112772
706.864	0.0118716
706.943	0.0125326
707.021	0.0129456
707.099	0.0135444
707.177	0.0140327
707.255	0.0145633
707.333	0.0151303
707.411	0.0156284
707.489	0.0160050
707.568	0.0166539
707.646	0.0168661
707.724	0.0170770
707.802	0.0174177
707.880	0.0175985
707.958	0.0176087
708.036	0.0176742
708.114	0.0175829
708.193	0.0176366
708.271	0.0175623
708.349	0.0174130
708.427	0.0173896
708.505	0.0171184
708.583	0.0168126
708.661	0.0166547
708.739	0.0163154
708.818	0.0159641
708.896	0.0156596
708.974	0.0151141
709.052	0.0148825
709.130	0.0144297
709.208	0.0140904
709.286	0.0136727
709.364	0.0132597
709.443	0.0127236
709.521	0.0122577
709.599	0.0117813
709.677	0.0114565
709.755	0.0108150
709.833	0.0104807
709.911	0.0100216
709.989	0.00962532
710.068	0.00935219
710.146	0.00919685
710.224	0.00901825
710.302	0.00874664
710.380	0.00877502
710.458	0.00885880
710.536	0.00892265
710.614	0.00896881
710.693	0.00920837
710.771	0.00934883
710.849	0.00950974
710.927	0.00959862
711.005	0.00980949
711.083	0.0100003
711.161	0.0102282
711.239	0.0104538
711.318	0.0107215
711.396	0.0111184
711.474	0.0113067
711.552	0.0116104
711.630	0.0119066
711.708	0.0122430
711.786	0.0126250
711.864	0.0129200
711.943	0.0132654
712.021	0.0135007
712.099	0.0137676
712.177	0.0138968
712.255	0.0140911
712.333	0.0142328
712.411	0.0142635
712.489	0.0143849
712.568	0.0143135
712.646	0.0141720
712.724	0.0141251
712.802	0.0141099
712.880	0.0140519
712.958	0.0140284
713.036	0.0141461
713.114	0.0141101
713.193	0.0141827
713.271	0.0142072
713.349	0.0145879
713.427	0.0145323
713.505	0.0146575
713.583	0.0148758
713.661	0.0148486
713.739	0.0150099
713.818	0.0152050
713.896	0.0151077
713.974	0.0151777
714.052	0.0152880
714.130	0.0152860
714.208	0.0152268
714.286	0.0152459
714.364	0.0151975
714.443	0.0151252
714.521	0.0150572
714.599	0.0148547
714.677	0.0145819
714.755	0.0144343
714.833	0.0140779
714.911	0.0136639
714.989	0.0132313
715.068	0.0128525
715.146	0.0123030
715.224	0.0118590
715.302	0.0114506
715.380	0.0107979
715.458	0.0102227
715.536	0.00983772
715.614	0.00955017
715.693	0.00905548
715.771	0.00867508
715.849	0.00846252
715.927	0.00818764
716.005	0.00825928
716.083	0.00829666
716.161	0.00846802
716.239	0.00868614
716.318	0.00902161
716.396	0.00917809
716.474	0.00950844
716.552	0.0102006
716.630	0.0107069
716.708	0.0111914
716.786	0.0115537
716.864	0.0121821
716.943	0.0126688
717.021	0.0130301
717.099	0.0135490
717.177	0.0138971
717.255	0.0142389
717.333	0.0144088
717.411	0.0146061
717.489	0.0146092
717.568	0.0148398
717.646	0.0149584
717.724	0.0145959
717.802	0.0145444
717.880	0.0145296
717.958	0.0141498
718.036	0.0138674
718.114	0.0136711
718.193	0.0135416
718.271	0.0131345
718.349	0.0129809
718.427	0.0130122
718.505	0.0129289
718.583	0.0128581
718.661	0.0128629
718.739	0.0129910
718.818	0.0131292
718.896	0.0133875
718.974	0.0135372
719.052	0.0138980
719.130	0.0141583
719.208	0.0144878
719.286	0.0145781
719.364	0.0147715
719.443	0.0150662
719.521	0.0152092
719.599	0.0153161
719.677	0.0152560
719.755	0.0152276
719.833	0.0152198
719.911	0.0151019
719.989	0.0148065
720.068	0.0144673
720.146	0.0140625
720.224	0.0139218
720.302	0.0134385
720.380	0.0129467
720.458	0.0123899
720.536	0.0121828
720.614	0.0117374
720.693	0.0111937
720.771	0.0107406
720.849	0.0104870
720.927	0.0102074
721.005	0.0100454
721.083	0.00997589
721.161	0.00959442
721.239	0.00961525
721.318	0.00987518
721.396	0.00989838
721.474	0.00999908
721.552	0.0102518
721.630	0.0103962
721.708	0.0106813
721.786	0.0111222
721.864	0.0113165
721.943	0.0114925
722.021	0.0117967
722.099	0.0119929
722.177	0.0122679
722.255	0.0124525
722.333	0.0127129
722.411	0.0127203
722.489	0.0128325
722.568	0.0127393
722.646	0.0128121
722.724	0.0128020
722.802	0.0127417
722.880	0.0127936
722.958	0.0126173
723.036	0.0125349
723.114	0.0126366
723.193	0.0125889
723.271	0.0126683
723.349	0.0125668
723.427	0.0126456
723.505	0.0128463
723.583	0.0128653
723.661	0.0131357
723.739	0.0131482
723.818	0.0133614
723.896	0.0136963
723.974	0.0139216
724.052	0.0139165
724.130	0.0142245
724.208	0.0142876
724.286	0.0145013
724.364	0.0145122
724.443	0.0145872
724.521	0.0145746
724.599	0.0145237
724.677	0.0146077
724.755	0.0144142
724.833	0.0143568
724.911	0.0142461
724.989	0.0140415
725.068	0.0139481
725.146	0.0137557
725.224	0.0133500
725.302	0.0134190
