05/07/2022	17:12:02	Ver.	4.1	UNKNOWN
Optical Delay	639.989416	Delta X		0.078125	Sweeps	1	Scan Rate	0/0
Coordinates	Axis 1	NaN	Axis 2	NaN	Axis 3	NaN	Axis 4	NaN	Axis 5	NaN	Axis 6	0.000000
TX Power	0.000000	RX Power	0.000000

639.989	0.0128806
640.068	0.0128841
640.146	0.0129508
640.224	0.0128221
640.302	0.0128119
640.380	0.0129020
640.458	0.0129467
640.536	0.0129678
640.614	0.0130083
640.693	0.0128341
640.771	0.0128556
640.849	0.0128471
640.927	0.0128693
641.005	0.0128377
641.083	0.0128098
641.161	0.0129063
641.239	0.0128300
641.318	0.0128942
641.396	0.0128690
641.474	0.0128543
641.552	0.0129273
641.630	0.0128862
641.708	0.0128806
641.786	0.0127785
641.864	0.0128934
641.943	0.0129230
642.021	0.0128400
642.099	0.0128709
642.177	0.0128542
642.255	0.0128391
642.333	0.0129724
642.411	0.0128368
642.489	0.0128468
642.568	0.0128010
642.646	0.0128743
642.724	0.0129151
642.802	0.0128902
642.880	0.0128154
642.958	0.0129011
643.036	0.0128307
643.114	0.0130009
643.193	0.0128261
643.271	0.0127120
643.349	0.0129292
643.427	0.0127498
643.505	0.0129077
643.583	0.0128728
643.661	0.0128822
643.739	0.0129034
643.818	0.0128963
643.896	0.0128892
643.974	0.0128169
644.052	0.0129272
644.130	0.0129104
644.208	0.0128418
644.286	0.0128878
644.364	0.0128070
644.443	0.0129416
644.521	0.0129623
644.599	0.0127336
644.677	0.0129197
644.755	0.0130333
644.833	0.0129588
644.911	0.0129520
644.989	0.0129939
645.068	0.0130134
645.146	0.0129423
645.224	0.0128565
645.302	0.0127605
645.380	0.0130011
645.458	0.0129222
645.536	0.0129730
645.614	0.0128716
645.693	0.0129666
645.771	0.0128616
645.849	0.0129827
645.927	0.0130035
646.005	0.0128255
646.083	0.0127854
646.161	0.0127757
646.239	0.0128603
646.318	0.0128152
646.396	0.0130401
646.474	0.0129274
646.552	0.0127999
646.630	0.0128467
646.708	0.0128157
646.786	0.0129804
646.864	0.0130680
646.943	0.0129069
647.021	0.0127773
647.099	0.0128540
647.177	0.0129897
647.255	0.0128333
647.333	0.0128137
647.411	0.0128427
647.489	0.0130103
647.568	0.0128835
647.646	0.0127505
647.724	0.0127428
647.802	0.0129365
647.880	0.0128950
647.958	0.0129269
648.036	0.0129185
648.114	0.0129060
648.193	0.0128735
648.271	0.0127345
648.349	0.0128880
648.427	0.0128981
648.505	0.0128284
648.583	0.0128275
648.661	0.0129080
648.739	0.0130280
648.818	0.0129360
648.896	0.0129172
648.974	0.0128674
649.052	0.0129812
649.130	0.0128848
649.208	0.0129654
649.286	0.0129333
649.364	0.0128117
649.443	0.0129183
649.521	0.0129440
649.599	0.0129597
649.677	0.0129679
649.755	0.0127675
649.833	0.0128255
649.911	0.0129986
649.989	0.0128421
650.068	0.0128994
650.146	0.0129096
650.224	0.0129045
650.302	0.0128233
650.380	0.0129723
650.458	0.0129452
650.536	0.0129890
650.614	0.0128507
650.693	0.0128587
650.771	0.0129354
650.849	0.0129980
650.927	0.0128932
651.005	0.0128545
651.083	0.0128469
651.161	0.0129163
651.239	0.0128255
651.318	0.0128405
651.396	0.0128358
651.474	0.0127753
651.552	0.0130605
651.630	0.0129106
651.708	0.0128336
651.786	0.0128480
651.864	0.0129517
651.943	0.0128918
652.021	0.0127863
652.099	0.0129211
652.177	0.0128805
652.255	0.0129855
652.333	0.0129310
652.411	0.0129566
652.489	0.0130216
652.568	0.0128905
652.646	0.0128796
652.724	0.0129335
652.802	0.0129257
652.880	0.0129211
652.958	0.0127683
653.036	0.0128480
653.114	0.0128132
653.193	0.0127222
653.271	0.0130141
653.349	0.0128253
653.427	0.0127766
653.505	0.0129905
653.583	0.0131561
653.661	0.0129236
653.739	0.0128468
653.818	0.0129073
653.896	0.0128406
653.974	0.0127110
654.052	0.0128157
654.130	0.0129292
654.208	0.0129106
654.286	0.0129993
654.364	0.0128992
654.443	0.0129469
654.521	0.0128300
654.599	0.0128123
654.677	0.0129309
654.755	0.0129762
654.833	0.0128771
654.911	0.0129124
654.989	0.0129025
655.068	0.0130003
655.146	0.0129092
655.224	0.0129498
655.302	0.0128497
655.380	0.0128897
655.458	0.0129120
655.536	0.0129715
655.614	0.0129278
655.693	0.0129269
655.771	0.0129163
655.849	0.0127562
655.927	0.0128899
656.005	0.0129140
656.083	0.0130288
656.161	0.0129904
656.239	0.0128395
656.318	0.0129389
656.396	0.0128458
656.474	0.0128913
656.552	0.0130122
656.630	0.0127531
656.708	0.0128294
656.786	0.0128730
656.864	0.0128943
656.943	0.0129131
657.021	0.0129514
657.099	0.0129969
657.177	0.0127969
657.255	0.0129094
657.333	0.0128667
657.411	0.0128931
657.489	0.0129079
657.568	0.0129058
657.646	0.0128293
657.724	0.0128983
657.802	0.0129485
657.880	0.0128974
657.958	0.0129874
658.036	0.0128098
658.114	0.0128428
658.193	0.0128336
658.271	0.0128541
658.349	0.0128635
658.427	0.0128339
658.505	0.0128813
658.583	0.0128004
658.661	0.0129665
658.739	0.0127822
658.818	0.0127121
658.896	0.0129050
658.974	0.0127718
659.052	0.0128419
659.130	0.0127328
659.208	0.0127888
659.286	0.0128197
659.364	0.0130307
659.443	0.0129105
659.521	0.0129837
659.599	0.0127985
659.677	0.0129138
659.755	0.0129198
659.833	0.0129101
659.911	0.0128296
659.989	0.0128426
660.068	0.0129639
660.146	0.0129305
660.224	0.0128487
660.302	0.0128571
660.380	0.0128932
660.458	0.0128497
660.536	0.0129747
660.614	0.0129507
660.693	0.0129253
660.771	0.0129360
660.849	0.0128469
660.927	0.0128671
661.005	0.0129830
661.083	0.0129489
661.161	0.0129755
661.239	0.0128900
661.318	0.0129063
661.396	0.0128863
661.474	0.0128072
661.552	0.0128656
661.630	0.0129258
661.708	0.0127764
661.786	0.0130186
661.864	0.0128300
661.943	0.0128507
662.021	0.0128720
662.099	0.0130177
662.177	0.0128171
662.255	0.0129330
662.333	0.0129443
662.411	0.0130064
662.489	0.0128341
662.568	0.0128699
662.646	0.0128836
662.724	0.0129661
662.802	0.0129514
662.880	0.0127470
662.958	0.0128857
663.036	0.0130247
663.114	0.0129089
663.193	0.0127126
663.271	0.0128866
663.349	0.0129682
663.427	0.0128181
663.505	0.0127170
663.583	0.0128447
663.661	0.0128947
663.739	0.0129872
663.818	0.0127889
663.896	0.0127712
663.974	0.0128325
664.052	0.0129549
664.130	0.0129502
664.208	0.0127892
664.286	0.0128384
664.364	0.0129825
664.443	0.0129289
664.521	0.0129044
664.599	0.0128446
664.677	0.0128935
664.755	0.0129133
664.833	0.0128802
664.911	0.0128288
664.989	0.0129203
665.068	0.0128502
665.146	0.0129216
665.224	0.0129588
665.302	0.0127474
665.380	0.0126021
665.458	0.0128008
665.536	0.0129503
665.614	0.0129192
665.693	0.0128987
665.771	0.0130072
665.849	0.0128387
665.927	0.0127292
666.005	0.0129252
666.083	0.0128098
666.161	0.0128989
666.239	0.0128288
666.318	0.0128498
666.396	0.0128113
666.474	0.0129065
666.552	0.0128820
666.630	0.0128259
666.708	0.0127997
666.786	0.0128198
666.864	0.0128407
666.943	0.0128848
667.021	0.0128982
667.099	0.0129362
667.177	0.0127518
667.255	0.0128327
667.333	0.0128477
667.411	0.0127342
667.489	0.0128525
667.568	0.0129148
667.646	0.0128985
667.724	0.0127357
667.802	0.0129989
667.880	0.0129273
667.958	0.0128601
668.036	0.0129365
668.114	0.0128999
668.193	0.0127629
668.271	0.0128963
668.349	0.0129333
668.427	0.0128334
668.505	0.0128819
668.583	0.0127917
668.661	0.0129191
668.739	0.0129002
668.818	0.0128744
668.896	0.0128348
668.974	0.0129899
669.052	0.0128243
669.130	0.0128688
669.208	0.0129440
669.286	0.0128518
669.364	0.0128067
669.443	0.0130394
669.521	0.0128510
669.599	0.0128561
669.677	0.0129946
669.755	0.0129324
669.833	0.0129341
669.911	0.0129398
669.989	0.0130048
670.068	0.0129177
670.146	0.0127695
670.224	0.0127328
670.302	0.0127949
670.380	0.0129955
670.458	0.0129821
670.536	0.0129423
670.614	0.0129205
670.693	0.0129214
670.771	0.0129125
670.849	0.0128597
670.927	0.0128233
671.005	0.0127351
671.083	0.0129663
671.161	0.0129824
671.239	0.0129626
671.318	0.0130202
671.396	0.0128964
671.474	0.0129914
671.552	0.0129699
671.630	0.0130667
671.708	0.0127356
671.786	0.0128732
671.864	0.0128291
671.943	0.0127408
672.021	0.0129294
672.099	0.0128900
672.177	0.0128587
672.255	0.0127238
672.333	0.0127728
672.411	0.0128050
672.489	0.0128269
672.568	0.0128770
672.646	0.0130090
672.724	0.0129704
672.802	0.0131136
672.880	0.0130720
672.958	0.0131883
673.036	0.0131386
673.114	0.0130839
673.193	0.0130386
673.271	0.0130194
673.349	0.0129860
673.427	0.0128076
673.505	0.0128596
673.583	0.0127432
673.661	0.0128078
673.739	0.0126579
673.818	0.0126857
673.896	0.0126378
673.974	0.0126227
674.052	0.0126858
674.130	0.0126370
674.208	0.0126453
674.286	0.0127715
674.364	0.0128213
674.443	0.0128556
674.521	0.0128838
674.599	0.0130707
674.677	0.0130450
674.755	0.0131693
674.833	0.0131261
674.911	0.0131832
674.989	0.0130889
675.068	0.0130559
675.146	0.0129617
675.224	0.0129927
675.302	0.0128812
675.380	0.0129377
675.458	0.0129388
675.536	0.0127662
675.614	0.0130268
675.693	0.0129840
675.771	0.0129018
675.849	0.0129518
675.927	0.0129856
676.005	0.0130803
676.083	0.0130956
676.161	0.0129647
676.239	0.0129660
676.318	0.0128033
676.396	0.0126360
676.474	0.0126812
676.552	0.0127320
676.630	0.0126184
676.708	0.0125163
676.786	0.0125114
676.864	0.0125170
676.943	0.0124754
677.021	0.0124306
677.099	0.0122696
677.177	0.0125771
677.255	0.0126344
677.333	0.0127380
677.411	0.0129446
677.489	0.0130184
677.568	0.0132483
677.646	0.0131734
677.724	0.0133353
677.802	0.0135466
677.880	0.0135825
677.958	0.0135220
678.036	0.0135640
678.114	0.0135876
678.193	0.0134422
678.271	0.0135512
678.349	0.0134119
678.427	0.0133230
678.505	0.0132062
678.583	0.0131575
678.661	0.0130003
678.739	0.0129259
678.818	0.0127694
678.896	0.0127792
678.974	0.0126537
679.052	0.0126063
679.130	0.0125759
679.208	0.0126085
679.286	0.0125362
679.364	0.0124149
679.443	0.0124531
679.521	0.0126428
679.599	0.0125990
679.677	0.0125746
679.755	0.0125380
679.833	0.0125407
679.911	0.0124650
679.989	0.0124757
680.068	0.0124352
680.146	0.0123120
680.224	0.0122806
680.302	0.0122313
680.380	0.0123050
680.458	0.0121746
680.536	0.0123573
680.614	0.0126173
680.693	0.0127930
680.771	0.0129481
680.849	0.0133887
680.927	0.0136217
681.005	0.0138350
681.083	0.0141527
681.161	0.0143337
681.239	0.0144502
681.318	0.0144800
681.396	0.0146344
681.474	0.0143552
681.552	0.0142120
681.630	0.0140679
681.708	0.0137417
681.786	0.0135232
681.864	0.0133465
681.943	0.0130661
682.021	0.0128883
682.099	0.0127412
682.177	0.0126294
682.255	0.0124670
682.333	0.0125078
682.411	0.0122738
682.489	0.0122275
682.568	0.0122259
682.646	0.0122367
682.724	0.0121561
682.802	0.0119791
682.880	0.0119991
682.958	0.0119742
683.036	0.0121398
683.114	0.0121992
683.193	0.0122515
683.271	0.0122593
683.349	0.0122687
683.427	0.0124028
683.505	0.0124793
683.583	0.0124473
683.661	0.0125658
683.739	0.0126867
683.818	0.0124738
683.896	0.0126725
683.974	0.0126054
684.052	0.0125909
684.130	0.0126050
684.208	0.0127171
684.286	0.0128428
684.364	0.0129182
684.443	0.0129932
684.521	0.0132262
684.599	0.0134470
684.677	0.0135442
684.755	0.0138486
684.833	0.0139949
684.911	0.0141517
684.989	0.0142097
685.068	0.0143353
685.146	0.0143651
685.224	0.0144033
685.302	0.0143517
685.380	0.0142918
685.458	0.0142016
685.536	0.0139293
685.614	0.0138785
685.693	0.0136543
685.771	0.0133650
685.849	0.0132819
685.927	0.0132320
686.005	0.0130455
686.083	0.0129655
686.161	0.0128219
686.239	0.0126293
686.318	0.0125201
686.396	0.0125347
686.474	0.0123199
686.552	0.0121633
686.630	0.0119957
686.708	0.0118401
686.786	0.0117160
686.864	0.0116247
686.943	0.0112711
687.021	0.0112685
687.099	0.0111823
687.177	0.0109777
687.255	0.0109353
687.333	0.0109294
687.411	0.0110146
687.489	0.0110081
687.568	0.0111667
687.646	0.0113197
687.724	0.0115361
687.802	0.0117831
687.880	0.0118767
687.958	0.0119751
688.036	0.0121397
688.114	0.0123325
688.193	0.0125420
688.271	0.0127876
688.349	0.0128757
688.427	0.0129019
688.505	0.0129858
688.583	0.0133209
688.661	0.0134580
688.739	0.0137034
688.818	0.0141528
688.896	0.0143744
688.974	0.0146443
689.052	0.0150066
689.130	0.0152386
689.208	0.0154749
689.286	0.0157928
689.364	0.0159755
689.443	0.0160885
689.521	0.0163611
689.599	0.0162923
689.677	0.0161005
689.755	0.0161418
689.833	0.0158124
689.911	0.0154671
689.989	0.0151825
690.068	0.0146539
690.146	0.0144335
690.224	0.0137614
690.302	0.0132285
690.380	0.0124743
690.458	0.0119817
690.536	0.0115117
690.614	0.0109470
690.693	0.0103275
690.771	0.00999626
690.849	0.00955376
690.927	0.00888878
691.005	0.00867874
691.083	0.00830765
691.161	0.00810631
691.239	0.00813293
691.318	0.00814835
691.396	0.00824287
691.474	0.00842285
691.552	0.00876701
691.630	0.00915581
691.708	0.00970192
691.786	0.0102866
691.864	0.0109090
691.943	0.0116869
692.021	0.0122031
692.099	0.0127563
692.177	0.0132734
692.255	0.0136624
692.333	0.0142320
692.411	0.0147357
692.489	0.0149049
692.568	0.0151752
692.646	0.0153255
692.724	0.0156554
692.802	0.0157401
692.880	0.0159181
692.958	0.0159581
693.036	0.0160680
693.114	0.0159874
693.193	0.0161401
693.271	0.0159808
693.349	0.0160553
693.427	0.0159184
693.505	0.0157130
693.583	0.0155452
693.661	0.0153955
693.739	0.0150890
693.818	0.0147990
693.896	0.0147233
693.974	0.0144072
694.052	0.0141068
694.130	0.0138685
694.208	0.0135376
694.286	0.0134409
694.364	0.0132535
694.443	0.0130802
694.521	0.0129221
694.599	0.0127139
694.677	0.0124877
694.755	0.0123392
694.833	0.0120647
694.911	0.0118692
694.989	0.0117056
695.068	0.0114133
695.146	0.0111475
695.224	0.0108779
695.302	0.0106033
695.380	0.0102402
695.458	0.00998917
695.536	0.00952965
695.614	0.00928314
695.693	0.00922714
695.771	0.00884445
695.849	0.00846786
695.927	0.00850143
696.005	0.00836983
696.083	0.00836739
696.161	0.00829697
696.239	0.00881279
696.318	0.00908455
696.396	0.00952965
696.474	0.0102110
696.552	0.0107503
696.630	0.0114248
696.708	0.0122494
696.786	0.0127824
696.864	0.0136387
696.943	0.0143850
697.021	0.0150077
697.099	0.0155011
697.177	0.0159255
697.255	0.0163187
697.333	0.0165757
697.411	0.0169384
697.489	0.0171118
697.568	0.0172047
697.646	0.0171628
697.724	0.0172197
697.802	0.0172740
697.880	0.0173380
697.958	0.0172507
698.036	0.0170975
698.114	0.0169569
698.193	0.0166671
698.271	0.0164822
698.349	0.0161317
698.427	0.0158318
698.505	0.0156197
698.583	0.0152468
698.661	0.0146812
698.739	0.0144231
698.818	0.0139945
698.896	0.0135751
698.974	0.0133124
699.052	0.0128873
699.130	0.0126244
699.208	0.0122452
699.286	0.0118903
699.364	0.0116785
699.443	0.0115412
699.521	0.0111824
699.599	0.0110667
699.677	0.0107275
699.755	0.0104460
699.833	0.0102524
699.911	0.00994041
699.989	0.00974350
700.068	0.00953362
700.146	0.00913322
700.224	0.00878975
700.302	0.00844078
700.380	0.00815262
700.458	0.00796631
700.536	0.00783554
700.614	0.00773064
700.693	0.00736519
700.771	0.00740929
700.849	0.00765678
700.927	0.00773880
701.005	0.00803177
701.083	0.00831718
701.161	0.00891624
701.239	0.00976509
701.318	0.0104963
701.396	0.0114967
701.474	0.0124224
701.552	0.0132340
701.630	0.0143779
701.708	0.0153851
701.786	0.0163177
701.864	0.0170212
701.943	0.0177565
702.021	0.0183906
702.099	0.0189626
702.177	0.0192220
702.255	0.0195509
702.333	0.0197866
702.411	0.0197926
702.489	0.0198371
702.568	0.0196136
702.646	0.0193839
702.724	0.0191816
702.802	0.0187851
702.880	0.0183126
702.958	0.0177148
703.036	0.0171423
703.114	0.0163946
703.193	0.0158855
703.271	0.0151714
703.349	0.0144032
703.427	0.0136847
703.505	0.0129586
703.583	0.0125391
703.661	0.0118798
703.739	0.0113146
703.818	0.0112184
703.896	0.0106695
703.974	0.0104615
704.052	0.0102699
704.130	0.0100571
704.208	0.00969887
704.286	0.00970047
704.364	0.00970016
704.443	0.00960289
704.521	0.00958702
704.599	0.00960884
704.677	0.00957123
704.755	0.00954422
704.833	0.00957726
704.911	0.00949829
704.989	0.00933510
705.068	0.00898766
705.146	0.00910912
705.224	0.00893021
705.302	0.00876129
705.380	0.00852371
705.458	0.00843178
705.536	0.00820236
705.614	0.00814255
705.693	0.00840569
705.771	0.00858093
705.849	0.00868835
705.927	0.00917374
706.005	0.00961525
706.083	0.0103923
706.161	0.0112169
706.239	0.0119209
706.318	0.0127921
706.396	0.0138538
706.474	0.0149288
706.552	0.0159368
706.630	0.0168527
706.708	0.0176469
706.786	0.0184219
706.864	0.0190617
706.943	0.0194643
707.021	0.0197501
707.099	0.0199157
707.177	0.0199921
707.255	0.0199706
707.333	0.0195813
707.411	0.0192566
707.489	0.0190021
707.568	0.0185068
707.646	0.0179503
707.724	0.0175285
707.802	0.0168069
707.880	0.0162177
707.958	0.0156125
708.036	0.0149614
708.114	0.0145558
708.193	0.0138950
708.271	0.0132249
708.349	0.0126820
708.427	0.0121551
708.505	0.0117519
708.583	0.0112983
708.661	0.0108439
708.739	0.0105873
708.818	0.0102739
708.896	0.0100576
708.974	0.00997475
709.052	0.00976242
709.130	0.00976082
709.208	0.00975334
709.286	0.00956558
709.364	0.00976006
709.443	0.00970940
709.521	0.00978775
709.599	0.00992584
709.677	0.00987053
709.755	0.0100890
709.833	0.0100854
709.911	0.0101345
709.989	0.0103548
710.068	0.0102502
710.146	0.0102253
710.224	0.0102753
710.302	0.0102876
710.380	0.0102879
710.458	0.0103772
710.536	0.0103259
710.614	0.0105049
710.693	0.0103761
710.771	0.0107141
710.849	0.0110424
710.927	0.0112795
711.005	0.0116322
711.083	0.0120705
711.161	0.0125951
711.239	0.0127941
711.318	0.0133286
711.396	0.0138038
711.474	0.0140279
711.552	0.0142845
711.630	0.0146281
711.708	0.0148345
711.786	0.0151407
711.864	0.0151408
711.943	0.0153111
712.021	0.0155302
712.099	0.0155128
712.177	0.0157233
712.255	0.0158170
712.333	0.0158308
712.411	0.0159637
712.489	0.0160765
712.568	0.0161898
712.646	0.0161394
712.724	0.0160425
712.802	0.0161195
712.880	0.0160278
712.958	0.0160093
713.036	0.0159426
713.114	0.0157983
713.193	0.0158275
713.271	0.0156773
713.349	0.0153994
713.427	0.0153165
713.505	0.0151696
713.583	0.0148627
713.661	0.0144812
713.739	0.0142223
713.818	0.0140230
713.896	0.0136919
713.974	0.0131342
714.052	0.0127929
714.130	0.0122081
714.208	0.0118668
714.286	0.0113747
714.364	0.0108907
714.443	0.0105422
714.521	0.0101216
714.599	0.00968285
714.677	0.00944046
714.755	0.00902847
714.833	0.00856316
714.911	0.00838181
714.989	0.00831161
715.068	0.00804352
715.146	0.00794067
715.224	0.00793068
715.302	0.00794586
715.380	0.00809364
715.458	0.00826088
715.536	0.00868980
715.614	0.00903824
715.693	0.00953819
715.771	0.0101443
715.849	0.0106844
715.927	0.0113453
716.005	0.0120625
716.083	0.0127158
716.161	0.0131624
716.239	0.0138889
716.318	0.0142758
716.396	0.0147991
716.474	0.0152048
716.552	0.0152958
716.630	0.0155285
716.708	0.0158504
716.786	0.0157336
716.864	0.0157336
716.943	0.0155452
717.021	0.0154399
717.099	0.0150946
717.177	0.0149526
717.255	0.0145982
717.333	0.0144243
717.411	0.0143824
717.489	0.0141269
717.568	0.0139442
717.646	0.0139678
717.724	0.0140432
717.802	0.0137576
717.880	0.0139436
717.958	0.0141433
718.036	0.0140733
718.114	0.0143082
718.193	0.0144937
718.271	0.0146332
718.349	0.0147394
718.427	0.0151004
718.505	0.0152347
718.583	0.0153181
718.661	0.0152894
718.739	0.0152670
718.818	0.0152859
718.896	0.0151871
718.974	0.0150328
719.052	0.0148164
719.130	0.0144215
719.208	0.0143129
719.286	0.0138871
719.364	0.0133325
719.443	0.0130471
719.521	0.0123827
719.599	0.0120491
719.677	0.0116351
719.755	0.0110945
719.833	0.0106292
719.911	0.0101733
719.989	0.00982948
720.068	0.00965652
720.146	0.00931244
720.224	0.00889847
720.302	0.00869522
720.380	0.00863106
720.458	0.00872688
720.536	0.00876945
720.614	0.00908600
720.693	0.00935783
720.771	0.00977150
720.849	0.0102428
720.927	0.0106632
721.005	0.0110580
721.083	0.0117470
721.161	0.0123219
721.239	0.0126472
721.318	0.0130798
721.396	0.0134653
721.474	0.0138185
721.552	0.0138712
721.630	0.0141017
721.708	0.0141904
721.786	0.0141170
721.864	0.0141459
721.943	0.0141475
722.021	0.0139404
722.099	0.0137012
722.177	0.0136346
722.255	0.0133833
722.333	0.0134418
722.411	0.0132737
722.489	0.0132388
722.568	0.0130950
722.646	0.0130721
722.724	0.0130193
722.802	0.0129515
722.880	0.0131426
722.958	0.0132632
723.036	0.0133466
723.114	0.0134577
723.193	0.0136221
723.271	0.0138398
723.349	0.0141649
723.427	0.0141911
723.505	0.0144541
723.583	0.0145888
723.661	0.0148925
723.739	0.0147713
723.818	0.0148861
723.896	0.0149989
723.974	0.0150826
724.052	0.0149879
724.130	0.0148733
724.208	0.0147658
724.286	0.0147865
724.364	0.0144682
724.443	0.0144823
724.521	0.0142223
724.599	0.0139664
724.677	0.0136737
724.755	0.0135059
724.833	0.0131276
724.911	0.0131425
724.989	0.0128127
725.068	0.0123984
725.146	0.0124464
725.224	0.0122894
