05/07/2022	17:13:22	Ver.	4.1	UNKNOWN
Optical Delay	639.989416	Delta X		0.078125	Sweeps	1	Scan Rate	0/0
Coordinates	Axis 1	NaN	Axis 2	NaN	Axis 3	NaN	Axis 4	NaN	Axis 5	NaN	Axis 6	0.000000
TX Power	0.000000	RX Power	0.000000

639.989	0.0130117
640.068	0.0130061
640.146	0.0131445
640.224	0.0130806
640.302	0.0130460
640.380	0.0128265
640.458	0.0130247
640.536	0.0130965
640.614	0.0129585
640.693	0.0130853
640.771	0.0129875
640.849	0.0130329
640.927	0.0129669
641.005	0.0129781
641.083	0.0130732
641.161	0.0129942
641.239	0.0129417
641.318	0.0129950
641.396	0.0130774
641.474	0.0130711
641.552	0.0129398
641.630	0.0128913
641.708	0.0129464
641.786	0.0130621
641.864	0.0130907
641.943	0.0131163
642.021	0.0130176
642.099	0.0129429
642.177	0.0129447
642.255	0.0131306
642.333	0.0129805
642.411	0.0130743
642.489	0.0129641
642.568	0.0129854
642.646	0.0130454
642.724	0.0130788
642.802	0.0128725
642.880	0.0129794
642.958	0.0129257
643.036	0.0129945
643.114	0.0130058
643.193	0.0130589
643.271	0.0129673
643.349	0.0130591
643.427	0.0131125
643.505	0.0130694
643.583	0.0128589
643.661	0.0129779
643.739	0.0129868
643.818	0.0129285
643.896	0.0129575
643.974	0.0129885
644.052	0.0130729
644.130	0.0129530
644.208	0.0129427
644.286	0.0129659
644.364	0.0130112
644.443	0.0129212
644.521	0.0129880
644.599	0.0129440
644.677	0.0129745
644.755	0.0129923
644.833	0.0130417
644.911	0.0129818
644.989	0.0128974
645.068	0.0129057
645.146	0.0129618
645.224	0.0129148
645.302	0.0130210
645.380	0.0130800
645.458	0.0130554
645.536	0.0129388
645.614	0.0128016
645.693	0.0129577
645.771	0.0129234
645.849	0.0127962
645.927	0.0129192
646.005	0.0129949
646.083	0.0130532
646.161	0.0129539
646.239	0.0129546
646.318	0.0129653
646.396	0.0129937
646.474	0.0129799
646.552	0.0129187
646.630	0.0130489
646.708	0.0129654
646.786	0.0128027
646.864	0.0129874
646.943	0.0129652
647.021	0.0129124
647.099	0.0129574
647.177	0.0129176
647.255	0.0129674
647.333	0.0130317
647.411	0.0129644
647.489	0.0128604
647.568	0.0130067
647.646	0.0130535
647.724	0.0131120
647.802	0.0131128
647.880	0.0129263
647.958	0.0130467
648.036	0.0130750
648.114	0.0129748
648.193	0.0129258
648.271	0.0129926
648.349	0.0130772
648.427	0.0129690
648.505	0.0129543
648.583	0.0129391
648.661	0.0131140
648.739	0.0130293
648.818	0.0128857
648.896	0.0130502
648.974	0.0131635
649.052	0.0129881
649.130	0.0130679
649.208	0.0130685
649.286	0.0131028
649.364	0.0129521
649.443	0.0130030
649.521	0.0129216
649.599	0.0129823
649.677	0.0131649
649.755	0.0130110
649.833	0.0130608
649.911	0.0128720
649.989	0.0129867
650.068	0.0129937
650.146	0.0128744
650.224	0.0128761
650.302	0.0128826
650.380	0.0129781
650.458	0.0130149
650.536	0.0129714
650.614	0.0129382
650.693	0.0129998
650.771	0.0129328
650.849	0.0128040
650.927	0.0129738
651.005	0.0128658
651.083	0.0130780
651.161	0.0129580
651.239	0.0129124
651.318	0.0129822
651.396	0.0129742
651.474	0.0130267
651.552	0.0129385
651.630	0.0130191
651.708	0.0129269
651.786	0.0129986
651.864	0.0130320
651.943	0.0130717
652.021	0.0130212
652.099	0.0128886
652.177	0.0129690
652.255	0.0130401
652.333	0.0130868
652.411	0.0130221
652.489	0.0130439
652.568	0.0129636
652.646	0.0130928
652.724	0.0129961
652.802	0.0131056
652.880	0.0130868
652.958	0.0129707
653.036	0.0129064
653.114	0.0129819
653.193	0.0130541
653.271	0.0130503
653.349	0.0129872
653.427	0.0128493
653.505	0.0128680
653.583	0.0131628
653.661	0.0129387
653.739	0.0129533
653.818	0.0128378
653.896	0.0129363
653.974	0.0129659
654.052	0.0131332
654.130	0.0130044
654.208	0.0129395
654.286	0.0128448
654.364	0.0129534
654.443	0.0129986
654.521	0.0131166
654.599	0.0130733
654.677	0.0128351
654.755	0.0130966
654.833	0.0129839
654.911	0.0130067
654.989	0.0128837
655.068	0.0128880
655.146	0.0129028
655.224	0.0130147
655.302	0.0131451
655.380	0.0130515
655.458	0.0129245
655.536	0.0128926
655.614	0.0129726
655.693	0.0129954
655.771	0.0129346
655.849	0.0128806
655.927	0.0129352
656.005	0.0130925
656.083	0.0130173
656.161	0.0130191
656.239	0.0129568
656.318	0.0129831
656.396	0.0130128
656.474	0.0129622
656.552	0.0128698
656.630	0.0130978
656.708	0.0128867
656.786	0.0129313
656.864	0.0129195
656.943	0.0129813
657.021	0.0129943
657.099	0.0129818
657.177	0.0130040
657.255	0.0129230
657.333	0.0130716
657.411	0.0129729
657.489	0.0128432
657.568	0.0129144
657.646	0.0129404
657.724	0.0130184
657.802	0.0130247
657.880	0.0128555
657.958	0.0129097
658.036	0.0129757
658.114	0.0129546
658.193	0.0129640
658.271	0.0129774
658.349	0.0130286
658.427	0.0129014
658.505	0.0129883
658.583	0.0130250
658.661	0.0130639
658.739	0.0129368
658.818	0.0128277
658.896	0.0130502
658.974	0.0130354
659.052	0.0129267
659.130	0.0130374
659.208	0.0130840
659.286	0.0129792
659.364	0.0131146
659.443	0.0129598
659.521	0.0129050
659.599	0.0129291
659.677	0.0129636
659.755	0.0129614
659.833	0.0130045
659.911	0.0131013
659.989	0.0131146
660.068	0.0129944
660.146	0.0130248
660.224	0.0129137
660.302	0.0130588
660.380	0.0130836
660.458	0.0130334
660.536	0.0129693
660.614	0.0129285
660.693	0.0130835
660.771	0.0129191
660.849	0.0130528
660.927	0.0129653
661.005	0.0130524
661.083	0.0129728
661.161	0.0129461
661.239	0.0129716
661.318	0.0128333
661.396	0.0130233
661.474	0.0128923
661.552	0.0129037
661.630	0.0130063
661.708	0.0129439
661.786	0.0130003
661.864	0.0130035
661.943	0.0130637
662.021	0.0130721
662.099	0.0130241
662.177	0.0130885
662.255	0.0129649
662.333	0.0129611
662.411	0.0129000
662.489	0.0130362
662.568	0.0129314
662.646	0.0130688
662.724	0.0128910
662.802	0.0130441
662.880	0.0129945
662.958	0.0129887
663.036	0.0129174
663.114	0.0130460
663.193	0.0130441
663.271	0.0130215
663.349	0.0130059
663.427	0.0129615
663.505	0.0131003
663.583	0.0130856
663.661	0.0129890
663.739	0.0130138
663.818	0.0130056
663.896	0.0130027
663.974	0.0129929
664.052	0.0130427
664.130	0.0130256
664.208	0.0129768
664.286	0.0129853
664.364	0.0129286
664.443	0.0130728
664.521	0.0130781
664.599	0.0130217
664.677	0.0129665
664.755	0.0131538
664.833	0.0128818
664.911	0.0129313
664.989	0.0130451
665.068	0.0129839
665.146	0.0130178
665.224	0.0129684
665.302	0.0129612
665.380	0.0131582
665.458	0.0131286
665.536	0.0130032
665.614	0.0128924
665.693	0.0129737
665.771	0.0129945
665.849	0.0129920
665.927	0.0129942
666.005	0.0130283
666.083	0.0129921
666.161	0.0129530
666.239	0.0129250
666.318	0.0129659
666.396	0.0129507
666.474	0.0130219
666.552	0.0129383
666.630	0.0129945
666.708	0.0130007
666.786	0.0129647
666.864	0.0131416
666.943	0.0129234
667.021	0.0129289
667.099	0.0129108
667.177	0.0127962
667.255	0.0128412
667.333	0.0129783
667.411	0.0130435
667.489	0.0129981
667.568	0.0129888
667.646	0.0129089
667.724	0.0127550
667.802	0.0130896
667.880	0.0129445
667.958	0.0129757
668.036	0.0129955
668.114	0.0130635
668.193	0.0128999
668.271	0.0128961
668.349	0.0130597
668.427	0.0130211
668.505	0.0129272
668.583	0.0129324
668.661	0.0130674
668.739	0.0130039
668.818	0.0130504
668.896	0.0129545
668.974	0.0129485
669.052	0.0130130
669.130	0.0128928
669.208	0.0130666
669.286	0.0129855
669.364	0.0128896
669.443	0.0129976
669.521	0.0130086
669.599	0.0129857
669.677	0.0130794
669.755	0.0129929
669.833	0.0131016
669.911	0.0128992
669.989	0.0129916
670.068	0.0128558
670.146	0.0128681
670.224	0.0127243
670.302	0.0128136
670.380	0.0128285
670.458	0.0128372
670.536	0.0129656
670.614	0.0130562
670.693	0.0128982
670.771	0.0129922
670.849	0.0128622
670.927	0.0128575
671.005	0.0130283
671.083	0.0129951
671.161	0.0131903
671.239	0.0130804
671.318	0.0131434
671.396	0.0131551
671.474	0.0129362
671.552	0.0130899
671.630	0.0131332
671.708	0.0130488
671.786	0.0130896
671.864	0.0129863
671.943	0.0129984
672.021	0.0129179
672.099	0.0127241
672.177	0.0128419
672.255	0.0127806
672.333	0.0126756
672.411	0.0125922
672.489	0.0127198
672.568	0.0127721
672.646	0.0126705
672.724	0.0128888
672.802	0.0130779
672.880	0.0131133
672.958	0.0130813
673.036	0.0132091
673.114	0.0132833
673.193	0.0133688
673.271	0.0134034
673.349	0.0134194
673.427	0.0135477
673.505	0.0134604
673.583	0.0132303
673.661	0.0132016
673.739	0.0131323
673.818	0.0131501
673.896	0.0129137
673.974	0.0129074
674.052	0.0128722
674.130	0.0128008
674.208	0.0128406
674.286	0.0128060
674.364	0.0126227
674.443	0.0127032
674.521	0.0125622
674.599	0.0125985
674.677	0.0126615
674.755	0.0126458
674.833	0.0125951
674.911	0.0127851
674.989	0.0128590
675.068	0.0129130
675.146	0.0129852
675.224	0.0129960
675.302	0.0131228
675.380	0.0131158
675.458	0.0132171
675.536	0.0133028
675.614	0.0131794
675.693	0.0133513
675.771	0.0132943
675.849	0.0133891
675.927	0.0133775
676.005	0.0132700
676.083	0.0130939
676.161	0.0129786
676.239	0.0130319
676.318	0.0130404
676.396	0.0130312
676.474	0.0127972
676.552	0.0129880
676.630	0.0129828
676.708	0.0129200
676.786	0.0128721
676.864	0.0129190
676.943	0.0129287
677.021	0.0131169
677.099	0.0130341
677.177	0.0132461
677.255	0.0132390
677.333	0.0133189
677.411	0.0130843
677.489	0.0132864
677.568	0.0131989
677.646	0.0130142
677.724	0.0128463
677.802	0.0129816
677.880	0.0126348
677.958	0.0126030
678.036	0.0125488
678.114	0.0124748
678.193	0.0124165
678.271	0.0124338
678.349	0.0124355
678.427	0.0123940
678.505	0.0125388
678.583	0.0125078
678.661	0.0127357
678.739	0.0127190
678.818	0.0127279
678.896	0.0128095
678.974	0.0128923
679.052	0.0129391
679.130	0.0130564
679.208	0.0132576
679.286	0.0133311
679.364	0.0133519
679.443	0.0134494
679.521	0.0134212
679.599	0.0134511
679.677	0.0133754
679.755	0.0134225
679.833	0.0133835
679.911	0.0137318
679.989	0.0136417
680.068	0.0134759
680.146	0.0135496
680.224	0.0135857
680.302	0.0135633
680.380	0.0135733
680.458	0.0135152
680.536	0.0136922
680.614	0.0135149
680.693	0.0134226
680.771	0.0133352
680.849	0.0130932
680.927	0.0129520
681.005	0.0128836
681.083	0.0127418
681.161	0.0125021
681.239	0.0124615
681.318	0.0122875
681.396	0.0120918
681.474	0.0119258
681.552	0.0119051
681.630	0.0118874
681.708	0.0121007
681.786	0.0119737
681.864	0.0119608
681.943	0.0120927
682.021	0.0121666
682.099	0.0122182
682.177	0.0123017
682.255	0.0123670
682.333	0.0124178
682.411	0.0125777
682.489	0.0128057
682.568	0.0128526
682.646	0.0129474
682.724	0.0132280
682.802	0.0134043
682.880	0.0135851
682.958	0.0135810
683.036	0.0138550
683.114	0.0139249
683.193	0.0141987
683.271	0.0143487
683.349	0.0144740
683.427	0.0143559
683.505	0.0144753
683.583	0.0145621
683.661	0.0145586
683.739	0.0145769
683.818	0.0144469
683.896	0.0141972
683.974	0.0140267
684.052	0.0139357
684.130	0.0137239
684.208	0.0134521
684.286	0.0131558
684.364	0.0128744
684.443	0.0127679
684.521	0.0125271
684.599	0.0123297
684.677	0.0122272
684.755	0.0120375
684.833	0.0117144
684.911	0.0118445
684.989	0.0116805
685.068	0.0115900
685.146	0.0115781
685.224	0.0115681
685.302	0.0117293
685.380	0.0117852
685.458	0.0117304
685.536	0.0117799
685.614	0.0119167
685.693	0.0120562
685.771	0.0121722
685.849	0.0122115
685.927	0.0124068
686.005	0.0126708
686.083	0.0127648
686.161	0.0129518
686.239	0.0129188
686.318	0.0131225
686.396	0.0131161
686.474	0.0132716
686.552	0.0132661
686.630	0.0133737
686.708	0.0133630
686.786	0.0135246
686.864	0.0136256
686.943	0.0136473
687.021	0.0135249
687.099	0.0136752
687.177	0.0136396
687.255	0.0137784
687.333	0.0137980
687.411	0.0141263
687.489	0.0139622
687.568	0.0141472
687.646	0.0143028
687.724	0.0144071
687.802	0.0143674
687.880	0.0143935
687.958	0.0146046
688.036	0.0144009
688.114	0.0143824
688.193	0.0142757
688.271	0.0141985
688.349	0.0139908
688.427	0.0137428
688.505	0.0137842
688.583	0.0134796
688.661	0.0133400
688.739	0.0133362
688.818	0.0128923
688.896	0.0129166
688.974	0.0127828
689.052	0.0124360
689.130	0.0121485
689.208	0.0120999
689.286	0.0120002
689.364	0.0117531
689.443	0.0115552
689.521	0.0112951
689.599	0.0111720
689.677	0.0110365
689.755	0.0109544
689.833	0.0108889
689.911	0.0107836
689.989	0.0107336
690.068	0.0108536
690.146	0.0109527
690.224	0.0111245
690.302	0.0112703
690.380	0.0114838
690.458	0.0117088
690.536	0.0119662
690.614	0.0122574
690.693	0.0126533
690.771	0.0127068
690.849	0.0129697
690.927	0.0132323
691.005	0.0131689
691.083	0.0134000
691.161	0.0134236
691.239	0.0137716
691.318	0.0137940
691.396	0.0138103
691.474	0.0140687
691.552	0.0142127
691.630	0.0144360
691.708	0.0146133
691.786	0.0148647
691.864	0.0150263
691.943	0.0151294
692.021	0.0152537
692.099	0.0151751
692.177	0.0153647
692.255	0.0155428
692.333	0.0155830
692.411	0.0156715
692.489	0.0154385
692.568	0.0153366
692.646	0.0153345
692.724	0.0154433
692.802	0.0150725
692.880	0.0149833
692.958	0.0147197
693.036	0.0145415
693.114	0.0142894
693.193	0.0139938
693.271	0.0136523
693.349	0.0133417
693.427	0.0129027
693.505	0.0125185
693.583	0.0121375
693.661	0.0115775
693.739	0.0110742
693.818	0.0105516
693.896	0.0100900
693.974	0.00958336
694.052	0.00933723
694.130	0.00879044
694.208	0.00849625
694.286	0.00830284
694.364	0.00810822
694.443	0.00799896
694.521	0.00803322
694.599	0.00810028
694.677	0.00840179
694.755	0.00887512
694.833	0.00920959
694.911	0.00993210
694.989	0.0101983
695.068	0.0107890
695.146	0.0114167
695.224	0.0121796
695.302	0.0127986
695.380	0.0134827
695.458	0.0140376
695.536	0.0146726
695.614	0.0152039
695.693	0.0157954
695.771	0.0159636
695.849	0.0165496
695.927	0.0167557
696.005	0.0170913
696.083	0.0173699
696.161	0.0174580
696.239	0.0175818
696.318	0.0176925
696.396	0.0178021
696.474	0.0177287
696.552	0.0175527
696.630	0.0174785
696.708	0.0170666
696.786	0.0167695
696.864	0.0165071
696.943	0.0159939
697.021	0.0154056
697.099	0.0150558
697.177	0.0146074
697.255	0.0139709
697.333	0.0133315
697.411	0.0129678
697.489	0.0124041
697.568	0.0120177
697.646	0.0115782
697.724	0.0112743
697.802	0.0109093
697.880	0.0107365
697.958	0.0106164
698.036	0.0103861
698.114	0.0103406
698.193	0.0103186
698.271	0.0101647
698.349	0.0102443
698.427	0.0102483
698.505	0.0102159
698.583	0.0102660
698.661	0.0103674
698.739	0.0103703
698.818	0.0101576
698.896	0.0101826
698.974	0.0101479
699.052	0.0101982
699.130	0.0100835
699.208	0.0101028
699.286	0.00993919
699.364	0.00997169
699.443	0.00994812
699.521	0.00997292
699.599	0.0102186
699.677	0.0102486
699.755	0.0105127
699.833	0.0109885
699.911	0.0113745
699.989	0.0120058
700.068	0.0126883
700.146	0.0131244
700.224	0.0139801
700.302	0.0147366
700.380	0.0152551
700.458	0.0159434
700.536	0.0165556
700.614	0.0170121
700.693	0.0173733
700.771	0.0176906
700.849	0.0180383
700.927	0.0183407
701.005	0.0183857
701.083	0.0184357
701.161	0.0183755
701.239	0.0179950
701.318	0.0177893
701.396	0.0174915
701.474	0.0168958
701.552	0.0164738
701.630	0.0158336
701.708	0.0151562
701.786	0.0144214
701.864	0.0136955
701.943	0.0130244
702.021	0.0123506
702.099	0.0116763
702.177	0.0110530
702.255	0.0106102
702.333	0.0103463
702.411	0.00983559
702.489	0.00989113
702.568	0.00973221
702.646	0.00950294
702.724	0.00973534
702.802	0.00981842
702.880	0.0101369
702.958	0.0105875
703.036	0.0108042
703.114	0.0111424
703.193	0.0118314
703.271	0.0121246
703.349	0.0126078
703.427	0.0128864
703.505	0.0132614
703.583	0.0133570
703.661	0.0136093
703.739	0.0135499
703.818	0.0135560
703.896	0.0134119
703.974	0.0132289
704.052	0.0129169
704.130	0.0124743
704.208	0.0120108
704.286	0.0116156
704.364	0.0111889
704.443	0.0105849
704.521	0.0101138
704.599	0.00970909
704.677	0.00928040
704.755	0.00901619
704.833	0.00883545
704.911	0.00879440
704.989	0.00901443
705.068	0.00920311
705.146	0.00969177
705.224	0.0100312
705.302	0.0109258
705.380	0.0118308
705.458	0.0125507
705.536	0.0134211
705.614	0.0144120
705.693	0.0152841
705.771	0.0160762
705.849	0.0169670
705.927	0.0176330
706.005	0.0180870
706.083	0.0187173
706.161	0.0189688
706.239	0.0192593
706.318	0.0193916
706.396	0.0193256
706.474	0.0192653
706.552	0.0189552
706.630	0.0187405
706.708	0.0182262
706.786	0.0177845
706.864	0.0171515
706.943	0.0162889
707.021	0.0154453
707.099	0.0146996
707.177	0.0139031
707.255	0.0131059
707.333	0.0123745
707.411	0.0115606
707.489	0.0108822
707.568	0.0104846
707.646	0.00988945
707.724	0.00960503
707.802	0.00960419
707.880	0.00928909
707.958	0.00940948
708.036	0.00941963
708.114	0.00965675
708.193	0.00999756
708.271	0.0104869
708.349	0.0107682
708.427	0.0112411
708.505	0.0116187
708.583	0.0118613
708.661	0.0121610
708.739	0.0124198
708.818	0.0125024
708.896	0.0124973
708.974	0.0124522
709.052	0.0122739
709.130	0.0119382
709.208	0.0118156
709.286	0.0115655
709.364	0.0112936
709.443	0.0107595
709.521	0.0105695
709.599	0.0101562
709.677	0.0100815
709.755	0.00978035
709.833	0.00954758
709.911	0.00946465
709.989	0.00948448
710.068	0.00948997
710.146	0.00957970
710.224	0.00989647
710.302	0.0103666
710.380	0.0108121
710.458	0.0114147
710.536	0.0121793
710.614	0.0128850
710.693	0.0138290
710.771	0.0147743
710.849	0.0155873
710.927	0.0163749
711.005	0.0171978
711.083	0.0180138
711.161	0.0187076
711.239	0.0191526
711.318	0.0194427
711.396	0.0197433
711.474	0.0198736
711.552	0.0197024
711.630	0.0196630
711.708	0.0194073
711.786	0.0190587
711.864	0.0184575
711.943	0.0179070
712.021	0.0172942
712.099	0.0165694
712.177	0.0156174
712.255	0.0146869
712.333	0.0139718
712.411	0.0131218
712.489	0.0124165
712.568	0.0116297
712.646	0.0109301
712.724	0.0103108
712.802	0.00972336
712.880	0.00947105
712.958	0.00902634
713.036	0.00882759
713.114	0.00886131
713.193	0.00893570
713.271	0.00905685
713.349	0.00932228
713.427	0.00970230
713.505	0.0101170
713.583	0.0105857
713.661	0.0110851
713.739	0.0114518
713.818	0.0118603
713.896	0.0122971
713.974	0.0127852
714.052	0.0130145
714.130	0.0131226
714.208	0.0132639
714.286	0.0131985
714.364	0.0130964
714.443	0.0128191
714.521	0.0124572
714.599	0.0121010
714.677	0.0118848
714.755	0.0113739
714.833	0.0110011
714.911	0.0105338
714.989	0.0102650
715.068	0.0101271
715.146	0.00974747
715.224	0.00962273
715.302	0.00980148
715.380	0.00985199
715.458	0.0100705
715.536	0.0100950
715.614	0.0105939
715.693	0.0111739
715.771	0.0116050
715.849	0.0122235
715.927	0.0128189
716.005	0.0133549
716.083	0.0142300
716.161	0.0147339
716.239	0.0152409
716.318	0.0157288
716.396	0.0162515
716.474	0.0166901
716.552	0.0171964
716.630	0.0175371
716.708	0.0178172
716.786	0.0181569
716.864	0.0180129
716.943	0.0181469
717.021	0.0182484
717.099	0.0180157
717.177	0.0178766
717.255	0.0176446
717.333	0.0171866
717.411	0.0168228
717.489	0.0164047
717.568	0.0159415
717.646	0.0154250
717.724	0.0147523
717.802	0.0141365
717.880	0.0138010
717.958	0.0132626
718.036	0.0129477
718.114	0.0122857
718.193	0.0118909
718.271	0.0115621
718.349	0.0113225
718.427	0.0112415
718.505	0.0108143
718.583	0.0107649
718.661	0.0106135
718.739	0.0104875
718.818	0.0105548
718.896	0.0104681
718.974	0.0103968
719.052	0.0100964
719.130	0.0103882
719.208	0.0102856
719.286	0.0104082
719.364	0.0104584
719.443	0.0104313
719.521	0.0102673
719.599	0.0103525
719.677	0.0102991
719.755	0.0102573
719.833	0.0102087
719.911	0.0101807
719.989	0.0100748
720.068	0.0100789
720.146	0.0102649
720.224	0.0103967
720.302	0.0105403
720.380	0.0105437
720.458	0.0107732
720.536	0.0109798
720.614	0.0113435
720.693	0.0117368
720.771	0.0123431
720.849	0.0128829
720.927	0.0132222
721.005	0.0135908
721.083	0.0139812
721.161	0.0145838
721.239	0.0148319
721.318	0.0149957
721.396	0.0153334
721.474	0.0154242
721.552	0.0155125
721.630	0.0154955
721.708	0.0156107
721.786	0.0153687
721.864	0.0153806
721.943	0.0154179
722.021	0.0151678
722.099	0.0151247
722.177	0.0149637
722.255	0.0150121
722.333	0.0149635
722.411	0.0148093
722.489	0.0147663
722.568	0.0146617
722.646	0.0147234
722.724	0.0147453
722.802	0.0146967
722.880	0.0144757
722.958	0.0144814
723.036	0.0144957
723.114	0.0143708
723.193	0.0143082
723.271	0.0143861
723.349	0.0144189
723.427	0.0141472
723.505	0.0140499
723.583	0.0141365
723.661	0.0141711
723.739	0.0140749
723.818	0.0140324
723.896	0.0138455
723.974	0.0136756
724.052	0.0136492
724.130	0.0133090
724.208	0.0130843
724.286	0.0127806
724.364	0.0123945
724.443	0.0121232
724.521	0.0117709
724.599	0.0113914
724.677	0.0110496
724.755	0.0106297
724.833	0.0102456
724.911	0.00986366
724.989	0.00969315
725.068	0.00930199
725.146	0.00904739
725.224	0.00879425
725.302	0.00882675
725.380	0.00877876
725.458	0.00877716
