05/07/2022	17:17:22	Ver.	4.1	UNKNOWN
Optical Delay	639.989416	Delta X		0.078125	Sweeps	1	Scan Rate	0/0
Coordinates	Axis 1	NaN	Axis 2	NaN	Axis 3	NaN	Axis 4	NaN	Axis 5	NaN	Axis 6	0.000000
TX Power	0.000000	RX Power	0.000000

639.989	0.0126850
640.068	0.0127541
640.146	0.0127094
640.224	0.0126331
640.302	0.0127128
640.380	0.0127340
640.458	0.0126588
640.536	0.0127496
640.614	0.0126590
640.693	0.0126505
640.771	0.0126706
640.849	0.0128506
640.927	0.0127305
641.005	0.0126997
641.083	0.0127680
641.161	0.0126978
641.239	0.0127254
641.318	0.0126508
641.396	0.0127156
641.474	0.0127152
641.552	0.0126608
641.630	0.0128245
641.708	0.0127518
641.786	0.0125970
641.864	0.0126614
641.943	0.0127516
642.021	0.0126148
642.099	0.0125327
642.177	0.0127817
642.255	0.0127338
642.333	0.0127654
642.411	0.0127614
642.489	0.0126202
642.568	0.0126734
642.646	0.0126543
642.724	0.0128146
642.802	0.0125984
642.880	0.0126303
642.958	0.0126727
643.036	0.0126364
643.114	0.0125815
643.193	0.0126545
643.271	0.0127249
643.349	0.0127113
643.427	0.0126447
643.505	0.0126524
643.583	0.0127290
643.661	0.0125862
643.739	0.0127508
643.818	0.0127195
643.896	0.0127055
643.974	0.0126579
644.052	0.0128042
644.130	0.0127925
644.208	0.0126265
644.286	0.0126771
644.364	0.0128071
644.443	0.0127274
644.521	0.0127737
644.599	0.0125875
644.677	0.0126166
644.755	0.0126655
644.833	0.0127360
644.911	0.0128257
644.989	0.0127915
645.068	0.0127966
645.146	0.0129386
645.224	0.0127293
645.302	0.0127846
645.380	0.0127894
645.458	0.0128071
645.536	0.0127303
645.614	0.0127064
645.693	0.0127914
645.771	0.0128152
645.849	0.0128165
645.927	0.0126535
646.005	0.0127074
646.083	0.0126222
646.161	0.0126154
646.239	0.0127178
646.318	0.0128268
646.396	0.0127946
646.474	0.0128582
646.552	0.0127666
646.630	0.0127603
646.708	0.0128143
646.786	0.0128135
646.864	0.0127235
646.943	0.0126951
647.021	0.0128680
647.099	0.0128032
647.177	0.0128504
647.255	0.0127904
647.333	0.0127397
647.411	0.0126189
647.489	0.0128216
647.568	0.0127621
647.646	0.0128151
647.724	0.0128103
647.802	0.0127083
647.880	0.0127178
647.958	0.0127988
648.036	0.0127010
648.114	0.0127239
648.193	0.0127019
648.271	0.0126441
648.349	0.0127013
648.427	0.0126974
648.505	0.0126976
648.583	0.0127177
648.661	0.0127097
648.739	0.0128834
648.818	0.0125627
648.896	0.0128012
648.974	0.0126917
649.052	0.0126451
649.130	0.0128171
649.208	0.0128326
649.286	0.0127769
649.364	0.0128284
649.443	0.0126154
649.521	0.0126567
649.599	0.0127534
649.677	0.0127341
649.755	0.0127473
649.833	0.0126894
649.911	0.0127990
649.989	0.0126282
650.068	0.0126661
650.146	0.0127802
650.224	0.0125328
650.302	0.0126292
650.380	0.0128060
650.458	0.0127428
650.536	0.0127162
650.614	0.0127266
650.693	0.0127602
650.771	0.0127352
650.849	0.0127162
650.927	0.0126408
651.005	0.0128210
651.083	0.0127683
651.161	0.0127847
651.239	0.0128122
651.318	0.0127706
651.396	0.0128197
651.474	0.0127502
651.552	0.0128239
651.630	0.0128082
651.708	0.0127864
651.786	0.0126483
651.864	0.0128043
651.943	0.0128362
652.021	0.0128217
652.099	0.0127377
652.177	0.0126453
652.255	0.0127747
652.333	0.0126491
652.411	0.0128489
652.489	0.0128529
652.568	0.0126843
652.646	0.0128128
652.724	0.0126612
652.802	0.0126365
652.880	0.0128950
652.958	0.0127795
653.036	0.0127540
653.114	0.0127237
653.193	0.0127230
653.271	0.0126436
653.349	0.0126711
653.427	0.0126842
653.505	0.0127163
653.583	0.0127637
653.661	0.0125920
653.739	0.0126266
653.818	0.0126102
653.896	0.0127945
653.974	0.0126814
654.052	0.0127448
654.130	0.0127058
654.208	0.0126912
654.286	0.0127088
654.364	0.0128143
654.443	0.0126448
654.521	0.0127364
654.599	0.0127370
654.677	0.0127058
654.755	0.0126917
654.833	0.0127241
654.911	0.0125979
654.989	0.0126728
655.068	0.0126926
655.146	0.0127071
655.224	0.0126832
655.302	0.0126958
655.380	0.0126766
655.458	0.0127608
655.536	0.0128316
655.614	0.0126530
655.693	0.0127285
655.771	0.0126700
655.849	0.0128553
655.927	0.0127055
656.005	0.0127867
656.083	0.0127019
656.161	0.0127863
656.239	0.0126460
656.318	0.0126507
656.396	0.0127523
656.474	0.0127743
656.552	0.0127036
656.630	0.0126385
656.708	0.0126890
656.786	0.0127110
656.864	0.0125813
656.943	0.0126718
657.021	0.0127177
657.099	0.0127817
657.177	0.0126756
657.255	0.0128442
657.333	0.0126306
657.411	0.0127273
657.489	0.0125755
657.568	0.0125597
657.646	0.0127307
657.724	0.0127404
657.802	0.0127558
657.880	0.0126181
657.958	0.0126856
658.036	0.0125981
658.114	0.0126998
658.193	0.0127412
658.271	0.0126218
658.349	0.0127159
658.427	0.0126823
658.505	0.0126479
658.583	0.0127155
658.661	0.0126867
658.739	0.0126675
658.818	0.0127439
658.896	0.0126885
658.974	0.0126517
659.052	0.0127309
659.130	0.0127753
659.208	0.0127533
659.286	0.0127564
659.364	0.0127715
659.443	0.0126837
659.521	0.0126503
659.599	0.0127422
659.677	0.0126947
659.755	0.0125942
659.833	0.0127176
659.911	0.0127791
659.989	0.0128107
660.068	0.0127248
660.146	0.0127312
660.224	0.0127393
660.302	0.0127309
660.380	0.0128434
660.458	0.0127836
660.536	0.0126888
660.614	0.0125465
660.693	0.0126780
660.771	0.0126476
660.849	0.0127573
660.927	0.0127027
661.005	0.0127381
661.083	0.0127850
661.161	0.0127455
661.239	0.0127393
661.318	0.0126231
661.396	0.0126728
661.474	0.0127308
661.552	0.0127004
661.630	0.0126029
661.708	0.0127155
661.786	0.0126772
661.864	0.0127367
661.943	0.0126714
662.021	0.0126257
662.099	0.0127384
662.177	0.0126720
662.255	0.0126077
662.333	0.0126984
662.411	0.0127808
662.489	0.0127495
662.568	0.0127428
662.646	0.0126646
662.724	0.0127020
662.802	0.0127351
662.880	0.0126419
662.958	0.0126821
663.036	0.0127494
663.114	0.0126745
663.193	0.0126630
663.271	0.0125396
663.349	0.0126367
663.427	0.0126831
663.505	0.0126110
663.583	0.0126337
663.661	0.0126270
663.739	0.0127032
663.818	0.0128371
663.896	0.0127501
663.974	0.0126805
664.052	0.0126856
664.130	0.0127037
664.208	0.0126392
664.286	0.0127868
664.364	0.0128160
664.443	0.0126447
664.521	0.0127055
664.599	0.0126542
664.677	0.0128058
664.755	0.0126217
664.833	0.0127991
664.911	0.0127013
664.989	0.0125874
665.068	0.0125285
665.146	0.0126706
665.224	0.0126096
665.302	0.0127116
665.380	0.0126224
665.458	0.0125552
665.536	0.0128101
665.614	0.0126389
665.693	0.0126917
665.771	0.0127271
665.849	0.0127082
665.927	0.0126722
666.005	0.0124606
666.083	0.0123698
666.161	0.0124917
666.239	0.0125349
666.318	0.0126857
666.396	0.0127004
666.474	0.0125530
666.552	0.0126443
666.630	0.0127197
666.708	0.0127085
666.786	0.0127268
666.864	0.0128283
666.943	0.0127181
667.021	0.0128642
667.099	0.0128191
667.177	0.0128344
667.255	0.0128484
667.333	0.0127231
667.411	0.0126492
667.489	0.0128107
667.568	0.0125970
667.646	0.0125468
667.724	0.0124578
667.802	0.0123807
667.880	0.0126046
667.958	0.0124496
668.036	0.0127603
668.114	0.0126257
668.193	0.0124431
668.271	0.0124751
668.349	0.0125187
668.427	0.0127022
668.505	0.0125587
668.583	0.0126213
668.661	0.0126749
668.739	0.0126731
668.818	0.0127786
668.896	0.0127969
668.974	0.0127673
669.052	0.0129632
669.130	0.0128692
669.208	0.0127956
669.286	0.0129455
669.364	0.0128978
669.443	0.0129430
669.521	0.0129417
669.599	0.0130866
669.677	0.0129839
669.755	0.0129002
669.833	0.0129137
669.911	0.0128712
669.989	0.0128304
670.068	0.0127158
670.146	0.0125960
670.224	0.0123787
670.302	0.0123077
670.380	0.0122961
670.458	0.0122564
670.536	0.0123126
670.614	0.0119427
670.693	0.0120921
670.771	0.0121696
670.849	0.0121748
670.927	0.0122334
671.005	0.0123508
671.083	0.0125195
671.161	0.0126231
671.239	0.0126708
671.318	0.0127978
671.396	0.0128490
671.474	0.0128913
671.552	0.0129327
671.630	0.0131563
671.708	0.0131509
671.786	0.0132236
671.864	0.0134024
671.943	0.0133215
672.021	0.0132594
672.099	0.0132472
672.177	0.0133176
672.255	0.0132796
672.333	0.0131767
672.411	0.0130743
672.489	0.0129848
672.568	0.0129863
672.646	0.0129903
672.724	0.0127081
672.802	0.0125110
672.880	0.0124702
672.958	0.0123440
673.036	0.0121305
673.114	0.0120335
673.193	0.0119728
673.271	0.0117995
673.349	0.0118916
673.427	0.0119711
673.505	0.0119328
673.583	0.0118716
673.661	0.0119997
673.739	0.0122707
673.818	0.0123203
673.896	0.0122897
673.974	0.0124277
674.052	0.0126028
674.130	0.0126508
674.208	0.0127670
674.286	0.0128915
674.364	0.0129623
674.443	0.0130524
674.521	0.0131898
674.599	0.0130686
674.677	0.0134444
674.755	0.0134068
674.833	0.0134151
674.911	0.0134731
674.989	0.0136564
675.068	0.0137086
675.146	0.0136546
675.224	0.0135204
675.302	0.0133213
675.380	0.0133908
675.458	0.0131160
675.536	0.0129712
675.614	0.0128115
675.693	0.0125951
675.771	0.0123145
675.849	0.0123355
675.927	0.0119995
676.005	0.0119739
676.083	0.0118769
676.161	0.0118052
676.239	0.0118416
676.318	0.0117905
676.396	0.0118772
676.474	0.0118688
676.552	0.0121028
676.630	0.0122246
676.708	0.0124877
676.786	0.0124015
676.864	0.0124843
676.943	0.0127833
677.021	0.0128486
677.099	0.0130868
677.177	0.0132344
677.255	0.0133134
677.333	0.0134825
677.411	0.0135784
677.489	0.0135467
677.568	0.0135400
677.646	0.0135011
677.724	0.0134072
677.802	0.0131416
677.880	0.0130432
677.958	0.0130347
678.036	0.0126170
678.114	0.0125462
678.193	0.0123227
678.271	0.0121959
678.349	0.0118934
678.427	0.0116956
678.505	0.0119186
678.583	0.0117650
678.661	0.0117728
678.739	0.0115993
678.818	0.0118519
678.896	0.0119247
678.974	0.0121831
679.052	0.0121592
679.130	0.0121593
679.208	0.0123961
679.286	0.0124522
679.364	0.0126974
679.443	0.0128673
679.521	0.0129704
679.599	0.0132530
679.677	0.0135464
679.755	0.0137362
679.833	0.0136482
679.911	0.0137002
679.989	0.0138654
680.068	0.0140440
680.146	0.0140694
680.224	0.0141067
680.302	0.0141944
680.380	0.0140925
680.458	0.0139087
680.536	0.0137862
680.614	0.0137116
680.693	0.0134374
680.771	0.0133067
680.849	0.0130653
680.927	0.0128747
681.005	0.0125153
681.083	0.0122281
681.161	0.0120190
681.239	0.0119315
681.318	0.0117519
681.396	0.0114576
681.474	0.0113203
681.552	0.0112518
681.630	0.0111189
681.708	0.0109675
681.786	0.0109850
681.864	0.0109379
681.943	0.0110754
682.021	0.0111795
682.099	0.0111964
682.177	0.0112634
682.255	0.0114321
682.333	0.0115005
682.411	0.0119254
682.489	0.0121939
682.568	0.0124241
682.646	0.0125971
682.724	0.0129521
682.802	0.0133423
682.880	0.0134491
682.958	0.0137622
683.036	0.0138946
683.114	0.0140623
683.193	0.0142152
683.271	0.0144371
683.349	0.0144411
683.427	0.0144582
683.505	0.0143324
683.583	0.0143040
683.661	0.0143330
683.739	0.0140952
683.818	0.0139054
683.896	0.0139303
683.974	0.0137564
684.052	0.0135732
684.130	0.0134856
684.208	0.0135785
684.286	0.0134081
684.364	0.0130936
684.443	0.0131374
684.521	0.0131587
684.599	0.0130303
684.677	0.0128795
684.755	0.0126240
684.833	0.0122788
684.911	0.0122608
684.989	0.0119879
685.068	0.0118351
685.146	0.0117841
685.224	0.0116269
685.302	0.0114862
685.380	0.0113276
685.458	0.0112536
685.536	0.0111966
685.614	0.0112185
685.693	0.0111670
685.771	0.0112476
685.849	0.0112820
685.927	0.0113123
686.005	0.0113528
686.083	0.0112751
686.161	0.0112720
686.239	0.0116148
686.318	0.0116427
686.396	0.0114870
686.474	0.0116681
686.552	0.0117457
686.630	0.0117505
686.708	0.0117533
686.786	0.0119965
686.864	0.0121770
686.943	0.0122395
687.021	0.0124255
687.099	0.0126846
687.177	0.0130674
687.255	0.0133956
687.333	0.0134875
687.411	0.0139867
687.489	0.0141934
687.568	0.0145108
687.646	0.0148986
687.724	0.0152489
687.802	0.0154408
687.880	0.0156458
687.958	0.0158858
688.036	0.0160741
688.114	0.0159525
688.193	0.0160550
688.271	0.0158511
688.349	0.0157260
688.427	0.0154662
688.505	0.0150094
688.583	0.0147326
688.661	0.0142706
688.739	0.0136522
688.818	0.0131905
688.896	0.0125498
688.974	0.0119221
689.052	0.0114776
689.130	0.0109804
689.208	0.0105604
689.286	0.0101718
689.364	0.00983002
689.443	0.00943138
689.521	0.00918839
689.599	0.00918915
689.677	0.00911713
689.755	0.00921013
689.833	0.00920006
689.911	0.00950989
689.989	0.00972504
690.068	0.00983543
690.146	0.00992645
690.224	0.0103666
690.302	0.0106909
690.380	0.0109396
690.458	0.0112695
690.536	0.0116593
690.614	0.0119245
690.693	0.0123587
690.771	0.0127733
690.849	0.0130122
690.927	0.0132903
691.005	0.0137701
691.083	0.0140832
691.161	0.0142793
691.239	0.0143993
691.318	0.0146073
691.396	0.0147902
691.474	0.0149216
691.552	0.0149898
691.630	0.0151897
691.708	0.0151854
691.786	0.0150968
691.864	0.0150203
691.943	0.0150202
692.021	0.0149244
692.099	0.0148061
692.177	0.0143699
692.255	0.0143401
692.333	0.0140214
692.411	0.0136626
692.489	0.0134666
692.568	0.0131841
692.646	0.0129433
692.724	0.0127182
692.802	0.0124596
692.880	0.0123666
692.958	0.0122313
693.036	0.0121711
693.114	0.0119604
693.193	0.0121203
693.271	0.0121911
693.349	0.0121321
693.427	0.0120075
693.505	0.0121539
693.583	0.0122620
693.661	0.0122758
693.739	0.0121374
693.818	0.0122465
693.896	0.0121344
693.974	0.0121559
694.052	0.0120815
694.130	0.0119630
694.208	0.0119064
694.286	0.0117809
694.364	0.0117113
694.443	0.0116091
694.521	0.0115575
694.599	0.0116013
694.677	0.0115331
694.755	0.0115091
694.833	0.0114952
694.911	0.0114129
694.989	0.0114072
695.068	0.0114792
695.146	0.0116640
695.224	0.0116419
695.302	0.0116400
695.380	0.0117660
695.458	0.0117387
695.536	0.0118223
695.614	0.0119221
695.693	0.0119798
695.771	0.0121173
695.849	0.0122618
695.927	0.0125214
696.005	0.0127006
696.083	0.0128960
696.161	0.0129800
696.239	0.0131586
696.318	0.0135596
696.396	0.0136783
696.474	0.0138187
696.552	0.0138884
696.630	0.0140489
696.708	0.0141228
696.786	0.0141277
696.864	0.0140819
696.943	0.0141974
697.021	0.0143498
697.099	0.0140912
697.177	0.0140971
697.255	0.0140154
697.333	0.0138026
697.411	0.0135738
697.489	0.0133820
697.568	0.0133786
697.646	0.0133484
697.724	0.0130221
697.802	0.0130378
697.880	0.0128597
697.958	0.0127403
698.036	0.0127963
698.114	0.0127477
698.193	0.0128081
698.271	0.0126648
698.349	0.0127531
698.427	0.0127068
698.505	0.0126604
698.583	0.0126638
698.661	0.0127210
698.739	0.0127644
698.818	0.0127991
698.896	0.0128721
698.974	0.0129695
699.052	0.0130515
699.130	0.0128912
699.208	0.0129763
699.286	0.0130182
699.364	0.0129327
699.443	0.0127782
699.521	0.0127788
699.599	0.0127573
699.677	0.0126354
699.755	0.0125256
699.833	0.0124215
699.911	0.0120774
699.989	0.0118261
700.068	0.0117265
700.146	0.0113268
700.224	0.0112604
700.302	0.0110298
700.380	0.0106023
700.458	0.0104871
700.536	0.0102115
700.614	0.0100024
700.693	0.00984108
700.771	0.00984680
700.849	0.00981819
700.927	0.00998878
701.005	0.00974075
701.083	0.00987549
701.161	0.0102413
701.239	0.0106289
701.318	0.0107746
701.396	0.0113209
701.474	0.0118507
701.552	0.0122662
701.630	0.0126957
701.708	0.0133560
701.786	0.0139532
701.864	0.0142774
701.943	0.0147356
702.021	0.0152159
702.099	0.0156330
702.177	0.0158828
702.255	0.0162916
702.333	0.0163969
702.411	0.0163177
702.489	0.0165694
702.568	0.0165704
702.646	0.0166900
702.724	0.0166562
702.802	0.0164618
702.880	0.0161814
702.958	0.0158943
703.036	0.0158539
703.114	0.0154516
703.193	0.0150220
703.271	0.0146197
703.349	0.0139954
703.427	0.0136887
703.505	0.0129971
703.583	0.0125139
703.661	0.0119462
703.739	0.0113046
703.818	0.0108163
703.896	0.0103768
703.974	0.0101255
704.052	0.00993042
704.130	0.00979149
704.208	0.00969261
704.286	0.00973824
704.364	0.00991837
704.443	0.0100519
704.521	0.0101088
704.599	0.0103288
704.677	0.0106542
704.755	0.0108111
704.833	0.0110909
704.911	0.0113777
704.989	0.0115220
705.068	0.0117175
705.146	0.0121054
705.224	0.0122636
705.302	0.0122906
705.380	0.0124125
705.458	0.0126523
705.536	0.0125993
705.614	0.0126750
705.693	0.0126159
705.771	0.0125403
705.849	0.0124914
705.927	0.0124760
706.005	0.0124972
706.083	0.0118670
706.161	0.0118802
706.239	0.0118663
706.318	0.0116096
706.396	0.0112917
706.474	0.0113294
706.552	0.0112856
706.630	0.0112856
706.708	0.0112728
706.786	0.0115188
706.864	0.0116206
706.943	0.0117753
707.021	0.0120948
707.099	0.0125032
707.177	0.0130060
707.255	0.0134196
707.333	0.0139439
707.411	0.0144192
707.489	0.0150056
707.568	0.0156530
707.646	0.0158175
707.724	0.0164171
707.802	0.0166483
707.880	0.0168468
707.958	0.0168736
708.036	0.0170467
708.114	0.0169147
708.193	0.0168477
708.271	0.0165094
708.349	0.0162747
708.427	0.0159233
708.505	0.0154462
708.583	0.0150013
708.661	0.0146027
708.739	0.0139340
708.818	0.0134477
708.896	0.0128522
708.974	0.0123644
709.052	0.0118874
709.130	0.0114384
709.208	0.0109724
709.286	0.0105717
709.364	0.0102027
709.443	0.00970352
709.521	0.00958527
709.599	0.00937340
709.677	0.00922279
709.755	0.00916191
709.833	0.00903641
709.911	0.00924263
709.989	0.00936127
710.068	0.00965385
710.146	0.00994942
710.224	0.0102105
710.302	0.0105151
710.380	0.0111872
710.458	0.0117242
710.536	0.0120121
710.614	0.0122678
710.693	0.0126551
710.771	0.0130604
710.849	0.0133034
710.927	0.0134109
711.005	0.0135564
711.083	0.0136036
711.161	0.0137021
711.239	0.0134562
711.318	0.0134861
711.396	0.0134760
711.474	0.0133159
711.552	0.0131836
711.630	0.0129900
711.708	0.0127740
711.786	0.0127876
711.864	0.0127824
711.943	0.0125079
712.021	0.0122141
712.099	0.0121530
712.177	0.0121149
712.255	0.0120372
712.333	0.0119798
712.411	0.0121278
712.489	0.0121357
712.568	0.0123147
712.646	0.0125227
712.724	0.0128632
712.802	0.0130610
712.880	0.0133407
712.958	0.0136937
713.036	0.0138318
713.114	0.0141467
713.193	0.0146260
713.271	0.0147138
713.349	0.0149290
713.427	0.0149931
713.505	0.0151230
713.583	0.0153205
713.661	0.0151260
713.739	0.0151123
713.818	0.0148756
713.896	0.0146870
713.974	0.0144530
714.052	0.0143861
714.130	0.0140750
714.208	0.0136813
714.286	0.0135986
714.364	0.0133221
714.443	0.0130429
714.521	0.0127431
714.599	0.0125789
714.677	0.0122523
714.755	0.0120200
714.833	0.0117417
714.911	0.0114048
714.989	0.0113825
715.068	0.0110858
715.146	0.0109776
715.224	0.0108089
715.302	0.0106900
715.380	0.0104817
715.458	0.0105558
715.536	0.0104769
715.614	0.0105309
715.693	0.0106367
715.771	0.0106728
715.849	0.0107690
715.927	0.0108626
716.005	0.0114525
716.083	0.0116786
716.161	0.0117786
716.239	0.0123945
716.318	0.0127632
716.396	0.0131277
716.474	0.0133892
716.552	0.0134769
716.630	0.0139508
716.708	0.0140942
716.786	0.0140768
716.864	0.0141646
716.943	0.0142436
717.021	0.0143141
717.099	0.0138220
717.177	0.0136816
717.255	0.0135464
717.333	0.0133736
717.411	0.0129771
717.489	0.0127494
717.568	0.0123930
717.646	0.0119938
717.724	0.0118586
717.802	0.0115353
717.880	0.0109951
717.958	0.0106658
718.036	0.0104736
718.114	0.0103870
718.193	0.0103054
718.271	0.0101573
718.349	0.0102741
718.427	0.0103436
718.505	0.0106882
718.583	0.0110627
718.661	0.0113358
718.739	0.0119173
718.818	0.0123602
718.896	0.0128239
718.974	0.0133690
719.052	0.0140220
719.130	0.0145461
719.208	0.0149474
719.286	0.0154864
719.364	0.0158936
719.443	0.0161741
719.521	0.0164047
719.599	0.0166962
719.677	0.0165904
719.755	0.0166270
719.833	0.0166477
719.911	0.0165111
719.989	0.0164025
720.068	0.0160114
720.146	0.0156950
720.224	0.0153810
720.302	0.0151092
720.380	0.0147630
720.458	0.0141798
720.536	0.0136497
720.614	0.0130938
720.693	0.0126924
720.771	0.0120406
720.849	0.0114514
720.927	0.0111415
721.005	0.0106941
721.083	0.0102540
721.161	0.00983116
721.239	0.00945175
721.318	0.00926689
721.396	0.00911774
721.474	0.00904381
721.552	0.00910667
721.630	0.00916222
721.708	0.00917671
721.786	0.00932419
721.864	0.00977135
721.943	0.0100480
722.021	0.0102978
722.099	0.0106702
722.177	0.0110226
722.255	0.0115937
722.333	0.0119677
722.411	0.0124242
722.489	0.0127023
722.568	0.0129476
722.646	0.0132377
722.724	0.0136011
722.802	0.0135826
722.880	0.0135336
722.958	0.0137794
723.036	0.0137000
723.114	0.0137462
723.193	0.0136417
723.271	0.0135728
723.349	0.0132200
723.427	0.0133128
723.505	0.0130100
723.583	0.0125603
723.661	0.0123988
723.739	0.0122574
723.818	0.0120283
723.896	0.0118192
723.974	0.0116517
724.052	0.0114342
724.130	0.0113715
724.208	0.0115284
724.286	0.0116199
724.364	0.0117421
724.443	0.0119778
724.521	0.0122354
724.599	0.0127173
724.677	0.0130873
724.755	0.0133891
724.833	0.0137511
724.911	0.0141604
724.989	0.0144168
725.068	0.0148235
725.146	0.0152464
725.224	0.0155988
725.302	0.0157132
725.380	0.0159779
725.458	0.0161476
725.536	0.0161080
