05/07/2022	17:21:22	Ver.	4.1	UNKNOWN
Optical Delay	639.989416	Delta X		0.078125	Sweeps	1	Scan Rate	0/0
Coordinates	Axis 1	NaN	Axis 2	NaN	Axis 3	NaN	Axis 4	NaN	Axis 5	NaN	Axis 6	0.000000
TX Power	0.000000	RX Power	0.000000

639.989	0.0126489
640.068	0.0126575
640.146	0.0125444
640.224	0.0125859
640.302	0.0127203
640.380	0.0126563
640.458	0.0125447
640.536	0.0127186
640.614	0.0126694
640.693	0.0127695
640.771	0.0125389
640.849	0.0125784
640.927	0.0126823
641.005	0.0126794
641.083	0.0126714
641.161	0.0127000
641.239	0.0125623
641.318	0.0128075
641.396	0.0127676
641.474	0.0127191
641.552	0.0126929
641.630	0.0126453
641.708	0.0126003
641.786	0.0125102
641.864	0.0126926
641.943	0.0127864
642.021	0.0127558
642.099	0.0126719
642.177	0.0127193
642.255	0.0127460
642.333	0.0128336
642.411	0.0127618
642.489	0.0127053
642.568	0.0125060
642.646	0.0124913
642.724	0.0126328
642.802	0.0127410
642.880	0.0126801
642.958	0.0126047
643.036	0.0127189
643.114	0.0126533
643.193	0.0126749
643.271	0.0126003
643.349	0.0125812
643.427	0.0125538
643.505	0.0127608
643.583	0.0126955
643.661	0.0127277
643.739	0.0128333
643.818	0.0127099
643.896	0.0126189
643.974	0.0126378
644.052	0.0126170
644.130	0.0127741
644.208	0.0126643
644.286	0.0127561
644.364	0.0127016
644.443	0.0128201
644.521	0.0125719
644.599	0.0127000
644.677	0.0127010
644.755	0.0127750
644.833	0.0127199
644.911	0.0128494
644.989	0.0126519
645.068	0.0127170
645.146	0.0127129
645.224	0.0126693
645.302	0.0127154
645.380	0.0127501
645.458	0.0125826
645.536	0.0127139
645.614	0.0126333
645.693	0.0125913
645.771	0.0127550
645.849	0.0128193
645.927	0.0127579
646.005	0.0127053
646.083	0.0127961
646.161	0.0127374
646.239	0.0126915
646.318	0.0128734
646.396	0.0128307
646.474	0.0126865
646.552	0.0127568
646.630	0.0127350
646.708	0.0126569
646.786	0.0127051
646.864	0.0128240
646.943	0.0126331
647.021	0.0127907
647.099	0.0126435
647.177	0.0126172
647.255	0.0127886
647.333	0.0127274
647.411	0.0127660
647.489	0.0127214
647.568	0.0128313
647.646	0.0127731
647.724	0.0127654
647.802	0.0125977
647.880	0.0126103
647.958	0.0126332
648.036	0.0127248
648.114	0.0127571
648.193	0.0127799
648.271	0.0127624
648.349	0.0125756
648.427	0.0126093
648.505	0.0127022
648.583	0.0127944
648.661	0.0126490
648.739	0.0126434
648.818	0.0126347
648.896	0.0126741
648.974	0.0125549
649.052	0.0126359
649.130	0.0128181
649.208	0.0126041
649.286	0.0125507
649.364	0.0127177
649.443	0.0125745
649.521	0.0125904
649.599	0.0126959
649.677	0.0126675
649.755	0.0124809
649.833	0.0125890
649.911	0.0126260
649.989	0.0126469
650.068	0.0126273
650.146	0.0125275
650.224	0.0127039
650.302	0.0126408
650.380	0.0126923
650.458	0.0127148
650.536	0.0126121
650.614	0.0125513
650.693	0.0127254
650.771	0.0126146
650.849	0.0126295
650.927	0.0126035
651.005	0.0126403
651.083	0.0127988
651.161	0.0127780
651.239	0.0126187
651.318	0.0126434
651.396	0.0126116
651.474	0.0126001
651.552	0.0124915
651.630	0.0126964
651.708	0.0126347
651.786	0.0127187
651.864	0.0126421
651.943	0.0126534
652.021	0.0125916
652.099	0.0126099
652.177	0.0127443
652.255	0.0125920
652.333	0.0125599
652.411	0.0126017
652.489	0.0126341
652.568	0.0125227
652.646	0.0126180
652.724	0.0126353
652.802	0.0127045
652.880	0.0126250
652.958	0.0126694
653.036	0.0127466
653.114	0.0126196
653.193	0.0125548
653.271	0.0126874
653.349	0.0126688
653.427	0.0127083
653.505	0.0126604
653.583	0.0126291
653.661	0.0127052
653.739	0.0126092
653.818	0.0127061
653.896	0.0127486
653.974	0.0125514
654.052	0.0127138
654.130	0.0127914
654.208	0.0126104
654.286	0.0126098
654.364	0.0127781
654.443	0.0126597
654.521	0.0126196
654.599	0.0125787
654.677	0.0126437
654.755	0.0126638
654.833	0.0125150
654.911	0.0125755
654.989	0.0127184
655.068	0.0129286
655.146	0.0127447
655.224	0.0127330
655.302	0.0126893
655.380	0.0127198
655.458	0.0126331
655.536	0.0127026
655.614	0.0125922
655.693	0.0127034
655.771	0.0127233
655.849	0.0124662
655.927	0.0125304
656.005	0.0125443
656.083	0.0126138
656.161	0.0126409
656.239	0.0127046
656.318	0.0126226
656.396	0.0125674
656.474	0.0127041
656.552	0.0125993
656.630	0.0126659
656.708	0.0126572
656.786	0.0126276
656.864	0.0125929
656.943	0.0127325
657.021	0.0125732
657.099	0.0125465
657.177	0.0127632
657.255	0.0126524
657.333	0.0127251
657.411	0.0126704
657.489	0.0127057
657.568	0.0127660
657.646	0.0125060
657.724	0.0126002
657.802	0.0125127
657.880	0.0127184
657.958	0.0126980
658.036	0.0126419
658.114	0.0127030
658.193	0.0126005
658.271	0.0126740
658.349	0.0127156
658.427	0.0128252
658.505	0.0127025
658.583	0.0125545
658.661	0.0127406
658.739	0.0126748
658.818	0.0126694
658.896	0.0125035
658.974	0.0124241
659.052	0.0125407
659.130	0.0125493
659.208	0.0125518
659.286	0.0126006
659.364	0.0126505
659.443	0.0125980
659.521	0.0125169
659.599	0.0127171
659.677	0.0127270
659.755	0.0126878
659.833	0.0128282
659.911	0.0128328
659.989	0.0127876
660.068	0.0127156
660.146	0.0128178
660.224	0.0127463
660.302	0.0127983
660.380	0.0127409
660.458	0.0126023
660.536	0.0125532
660.614	0.0126345
660.693	0.0124839
660.771	0.0124009
660.849	0.0123010
660.927	0.0124135
661.005	0.0123247
661.083	0.0124329
661.161	0.0124574
661.239	0.0123276
661.318	0.0124004
661.396	0.0125284
661.474	0.0127803
661.552	0.0128473
661.630	0.0127872
661.708	0.0128521
661.786	0.0129059
661.864	0.0128635
661.943	0.0129388
662.021	0.0130609
662.099	0.0129449
662.177	0.0128913
662.255	0.0128860
662.333	0.0128786
662.411	0.0127373
662.489	0.0126240
662.568	0.0127089
662.646	0.0126345
662.724	0.0125199
662.802	0.0126900
662.880	0.0125500
662.958	0.0125671
663.036	0.0124884
663.114	0.0124031
663.193	0.0123318
663.271	0.0123730
663.349	0.0123843
663.427	0.0126031
663.505	0.0124707
663.583	0.0123715
663.661	0.0124033
663.739	0.0125397
663.818	0.0125864
663.896	0.0124911
663.974	0.0126961
664.052	0.0127551
664.130	0.0127916
664.208	0.0129799
664.286	0.0128529
664.364	0.0129875
664.443	0.0131098
664.521	0.0130713
664.599	0.0130675
664.677	0.0131792
664.755	0.0129675
664.833	0.0129300
664.911	0.0130318
664.989	0.0129897
665.068	0.0127884
665.146	0.0127120
665.224	0.0125739
665.302	0.0125191
665.380	0.0124378
665.458	0.0123753
665.536	0.0124253
665.614	0.0123946
665.693	0.0124680
665.771	0.0125503
665.849	0.0124799
665.927	0.0126035
666.005	0.0125534
666.083	0.0126264
666.161	0.0126485
666.239	0.0125974
666.318	0.0126920
666.396	0.0124895
666.474	0.0124551
666.552	0.0126598
666.630	0.0124942
666.708	0.0124025
666.786	0.0125444
666.864	0.0123952
666.943	0.0124379
667.021	0.0121782
667.099	0.0124474
667.177	0.0125203
667.255	0.0125499
667.333	0.0124728
667.411	0.0125972
667.489	0.0125735
667.568	0.0127142
667.646	0.0126439
667.724	0.0127564
667.802	0.0127812
667.880	0.0129046
667.958	0.0129622
668.036	0.0129444
668.114	0.0129174
668.193	0.0130096
668.271	0.0128575
668.349	0.0129126
668.427	0.0132336
668.505	0.0131530
668.583	0.0131246
668.661	0.0129647
668.739	0.0132558
668.818	0.0130411
668.896	0.0130242
668.974	0.0129526
669.052	0.0130254
669.130	0.0130366
669.208	0.0130451
669.286	0.0128423
669.364	0.0127972
669.443	0.0130555
669.521	0.0128844
669.599	0.0126984
669.677	0.0126282
669.755	0.0125599
669.833	0.0124002
669.911	0.0123006
669.989	0.0121247
670.068	0.0120568
670.146	0.0119975
670.224	0.0118432
670.302	0.0118021
670.380	0.0118992
670.458	0.0117746
670.536	0.0116510
670.614	0.0116624
670.693	0.0117031
670.771	0.0118228
670.849	0.0119842
670.927	0.0118825
671.005	0.0120659
671.083	0.0121890
671.161	0.0123397
671.239	0.0125734
671.318	0.0127328
671.396	0.0128817
671.474	0.0131461
671.552	0.0134196
671.630	0.0136700
671.708	0.0137351
671.786	0.0138173
671.864	0.0140103
671.943	0.0141550
672.021	0.0140805
672.099	0.0141008
672.177	0.0140765
672.255	0.0139388
672.333	0.0137883
672.411	0.0136864
672.489	0.0136852
672.568	0.0135785
672.646	0.0133745
672.724	0.0131627
672.802	0.0131052
672.880	0.0130312
672.958	0.0128613
673.036	0.0126385
673.114	0.0124998
673.193	0.0123540
673.271	0.0120924
673.349	0.0118540
673.427	0.0117594
673.505	0.0114507
673.583	0.0113767
673.661	0.0111089
673.739	0.0110567
673.818	0.0109048
673.896	0.0106779
673.974	0.0107368
674.052	0.0108932
674.130	0.0109468
674.208	0.0111663
674.286	0.0113189
674.364	0.0115124
674.443	0.0119655
674.521	0.0120718
674.599	0.0123575
674.677	0.0126493
674.755	0.0128291
674.833	0.0130235
674.911	0.0131788
674.989	0.0133571
675.068	0.0134267
675.146	0.0134577
675.224	0.0136381
675.302	0.0138248
675.380	0.0137843
675.458	0.0139407
675.536	0.0139360
675.614	0.0139810
675.693	0.0140940
675.771	0.0138799
675.849	0.0141871
675.927	0.0140585
676.005	0.0139620
676.083	0.0140166
676.161	0.0138587
676.239	0.0138570
676.318	0.0135668
676.396	0.0135564
676.474	0.0131448
676.552	0.0131981
676.630	0.0131570
676.708	0.0128722
676.786	0.0127890
676.864	0.0126775
676.943	0.0124384
677.021	0.0123788
677.099	0.0121752
677.177	0.0121228
677.255	0.0119200
677.333	0.0117787
677.411	0.0116795
677.489	0.0114769
677.568	0.0113578
677.646	0.0112012
677.724	0.0111320
677.802	0.0110467
677.880	0.0110558
677.958	0.0109920
678.036	0.0110762
678.114	0.0110857
678.193	0.0111025
678.271	0.0110794
678.349	0.0111676
678.427	0.0112150
678.505	0.0113773
678.583	0.0114967
678.661	0.0116527
678.739	0.0120303
678.818	0.0121714
678.896	0.0125040
678.974	0.0126078
679.052	0.0130305
679.130	0.0133723
679.208	0.0134497
679.286	0.0138538
679.364	0.0139860
679.443	0.0143394
679.521	0.0146085
679.599	0.0144939
679.677	0.0148056
679.755	0.0147475
679.833	0.0147612
679.911	0.0149892
679.989	0.0148814
680.068	0.0148789
680.146	0.0147984
680.224	0.0145717
680.302	0.0145216
680.380	0.0142525
680.458	0.0139053
680.536	0.0136395
680.614	0.0133672
680.693	0.0130771
680.771	0.0125759
680.849	0.0122350
680.927	0.0118184
681.005	0.0116283
681.083	0.0111637
681.161	0.0109023
681.239	0.0106223
681.318	0.0104188
681.396	0.0104787
681.474	0.0103001
681.552	0.0103894
681.630	0.0102940
681.708	0.0105125
681.786	0.0107403
681.864	0.0109707
681.943	0.0110762
682.021	0.0112811
682.099	0.0117011
682.177	0.0117707
682.255	0.0120515
682.333	0.0123068
682.411	0.0126527
682.489	0.0127451
682.568	0.0129716
682.646	0.0131299
682.724	0.0134171
682.802	0.0134664
682.880	0.0136869
682.958	0.0137939
683.036	0.0137470
683.114	0.0140356
683.193	0.0140589
683.271	0.0141582
683.349	0.0143012
683.427	0.0143712
683.505	0.0143837
683.583	0.0141788
683.661	0.0141204
683.739	0.0141652
683.818	0.0139500
683.896	0.0136964
683.974	0.0135562
684.052	0.0134480
684.130	0.0131640
684.208	0.0127454
684.286	0.0127210
684.364	0.0123975
684.443	0.0120108
684.521	0.0120109
684.599	0.0120525
684.677	0.0119222
684.755	0.0118799
684.833	0.0118081
684.911	0.0117755
684.989	0.0117902
685.068	0.0118253
685.146	0.0116264
685.224	0.0115798
685.302	0.0117660
685.380	0.0117061
685.458	0.0117054
685.536	0.0118278
685.614	0.0116968
685.693	0.0118079
685.771	0.0118010
685.849	0.0119205
685.927	0.0120488
686.005	0.0123650
686.083	0.0124164
686.161	0.0125645
686.239	0.0127742
686.318	0.0130307
686.396	0.0131779
686.474	0.0134457
686.552	0.0136478
686.630	0.0137373
686.708	0.0139886
686.786	0.0143192
686.864	0.0142917
686.943	0.0143517
687.021	0.0143925
687.099	0.0143842
687.177	0.0143753
687.255	0.0142160
687.333	0.0140160
687.411	0.0139875
687.489	0.0136418
687.568	0.0135660
687.646	0.0133440
687.724	0.0130027
687.802	0.0126992
687.880	0.0125809
687.958	0.0120940
688.036	0.0118639
688.114	0.0115460
688.193	0.0113964
688.271	0.0112280
688.349	0.0109890
688.427	0.0108591
688.505	0.0106097
688.583	0.0107281
688.661	0.0106725
688.739	0.0107538
688.818	0.0108757
688.896	0.0110223
688.974	0.0112019
689.052	0.0114153
689.130	0.0115672
689.208	0.0117599
689.286	0.0120497
689.364	0.0123695
689.443	0.0125767
689.521	0.0127679
689.599	0.0129879
689.677	0.0130741
689.755	0.0132864
689.833	0.0135146
689.911	0.0135957
689.989	0.0137805
690.068	0.0138138
690.146	0.0139808
690.224	0.0140508
690.302	0.0139297
690.380	0.0138785
690.458	0.0138822
690.536	0.0135753
690.614	0.0135744
690.693	0.0135410
690.771	0.0134506
690.849	0.0134292
690.927	0.0133704
691.005	0.0133116
691.083	0.0134016
691.161	0.0131953
691.239	0.0131146
691.318	0.0131186
691.396	0.0131516
691.474	0.0131541
691.552	0.0131704
691.630	0.0131106
691.708	0.0132560
691.786	0.0132241
691.864	0.0131821
691.943	0.0133040
692.021	0.0133387
692.099	0.0132957
692.177	0.0133775
692.255	0.0133451
692.333	0.0133306
692.411	0.0131334
692.489	0.0130155
692.568	0.0128654
692.646	0.0124688
692.724	0.0122999
692.802	0.0120094
692.880	0.0116759
692.958	0.0114179
693.036	0.0109861
693.114	0.0109143
693.193	0.0106317
693.271	0.0104787
693.349	0.0101309
693.427	0.0100436
693.505	0.0100426
693.583	0.00995087
693.661	0.0100929
693.739	0.0102552
693.818	0.0104937
693.896	0.0107002
693.974	0.0110574
694.052	0.0113391
694.130	0.0117294
694.208	0.0123382
694.286	0.0128291
694.364	0.0131211
694.443	0.0135084
694.521	0.0139408
694.599	0.0143302
694.677	0.0145099
694.755	0.0148465
694.833	0.0151499
694.911	0.0152423
694.989	0.0152872
695.068	0.0152908
695.146	0.0152261
695.224	0.0149965
695.302	0.0148389
695.380	0.0147251
695.458	0.0144176
695.536	0.0141834
695.614	0.0138123
695.693	0.0135294
695.771	0.0130482
695.849	0.0129932
695.927	0.0127373
696.005	0.0125496
696.083	0.0123039
696.161	0.0122584
696.239	0.0121867
696.318	0.0123700
696.396	0.0123672
696.474	0.0123374
696.552	0.0124774
696.630	0.0123652
696.708	0.0125322
696.786	0.0126344
696.864	0.0127733
696.943	0.0129347
697.021	0.0129795
697.099	0.0128658
697.177	0.0130086
697.255	0.0130018
697.333	0.0131586
697.411	0.0130843
697.489	0.0131262
697.568	0.0129419
697.646	0.0129694
697.724	0.0127969
697.802	0.0125526
697.880	0.0124850
697.958	0.0122428
698.036	0.0120004
698.114	0.0115475
698.193	0.0112183
698.271	0.0110332
698.349	0.0107883
698.427	0.0106126
698.505	0.0106001
698.583	0.0103577
698.661	0.0103909
698.739	0.0103924
698.818	0.0103771
698.896	0.0105734
698.974	0.0108064
699.052	0.0109835
699.130	0.0111436
699.208	0.0114692
699.286	0.0118712
699.364	0.0121103
699.443	0.0122903
699.521	0.0125784
699.599	0.0128185
699.677	0.0130266
699.755	0.0131520
699.833	0.0133637
699.911	0.0135249
699.989	0.0136489
700.068	0.0136729
700.146	0.0135938
700.224	0.0138345
700.302	0.0138835
700.380	0.0138774
700.458	0.0139847
700.536	0.0140294
700.614	0.0141318
700.693	0.0139999
700.771	0.0142467
700.849	0.0141885
700.927	0.0139550
701.005	0.0140335
701.083	0.0140298
701.161	0.0139594
701.239	0.0138586
701.318	0.0137082
701.396	0.0135815
701.474	0.0136433
701.552	0.0135155
701.630	0.0135246
701.708	0.0135549
701.786	0.0133324
701.864	0.0134296
701.943	0.0136094
702.021	0.0134311
702.099	0.0132304
702.177	0.0130901
702.255	0.0129340
702.333	0.0128840
702.411	0.0125645
702.489	0.0122420
702.568	0.0121598
702.646	0.0118378
702.724	0.0114661
702.802	0.0111391
702.880	0.0108572
702.958	0.0106542
703.036	0.0104587
703.114	0.0101969
703.193	0.0103590
703.271	0.0102777
703.349	0.0101462
703.427	0.0102895
703.505	0.0101347
703.583	0.0103503
703.661	0.0103642
703.739	0.0108243
703.818	0.0110374
703.896	0.0111803
703.974	0.0114362
704.052	0.0117004
704.130	0.0121238
704.208	0.0123150
704.286	0.0125126
704.364	0.0127130
704.443	0.0131477
704.521	0.0134584
704.599	0.0135396
704.677	0.0137485
704.755	0.0139312
704.833	0.0140211
704.911	0.0138665
704.989	0.0139470
705.068	0.0139490
705.146	0.0138601
705.224	0.0139909
705.302	0.0136903
705.380	0.0134585
705.458	0.0132722
705.536	0.0131837
705.614	0.0129921
705.693	0.0128670
705.771	0.0128300
705.849	0.0128097
705.927	0.0127903
706.005	0.0128726
706.083	0.0129385
706.161	0.0128491
706.239	0.0129603
706.318	0.0131275
706.396	0.0133482
706.474	0.0134779
706.552	0.0137951
706.630	0.0138219
706.708	0.0140137
706.786	0.0142558
706.864	0.0142174
706.943	0.0143616
707.021	0.0143551
707.099	0.0143828
707.177	0.0143666
707.255	0.0142276
707.333	0.0140888
707.411	0.0141450
707.489	0.0139870
707.568	0.0136459
707.646	0.0134549
707.724	0.0131175
707.802	0.0130276
707.880	0.0125140
707.958	0.0122841
708.036	0.0118961
708.114	0.0115620
708.193	0.0113135
708.271	0.0108955
708.349	0.0106844
708.427	0.0104707
708.505	0.0100912
708.583	0.00996803
708.661	0.00990906
708.739	0.00996857
708.818	0.00994904
708.896	0.00998039
708.974	0.0101350
709.052	0.0104150
709.130	0.0106744
709.208	0.0110192
709.286	0.0113734
709.364	0.0117424
709.443	0.0119816
709.521	0.0122656
709.599	0.0125491
709.677	0.0127109
709.755	0.0130136
709.833	0.0132794
709.911	0.0134631
709.989	0.0134909
710.068	0.0136176
710.146	0.0136319
710.224	0.0136657
710.302	0.0139081
710.380	0.0137595
710.458	0.0137868
710.536	0.0136704
710.614	0.0136457
710.693	0.0136246
710.771	0.0135687
710.849	0.0134241
710.927	0.0133482
711.005	0.0133911
711.083	0.0132759
711.161	0.0131581
711.239	0.0132986
711.318	0.0133232
711.396	0.0130827
711.474	0.0133202
711.552	0.0132252
711.630	0.0134464
711.708	0.0134863
711.786	0.0135165
711.864	0.0134141
711.943	0.0135158
712.021	0.0136230
712.099	0.0136927
712.177	0.0136629
712.255	0.0136519
712.333	0.0137205
712.411	0.0135828
712.489	0.0136713
712.568	0.0134621
712.646	0.0135089
712.724	0.0134931
712.802	0.0132677
712.880	0.0131332
712.958	0.0130550
713.036	0.0129441
713.114	0.0127531
713.193	0.0126414
713.271	0.0126010
713.349	0.0123019
713.427	0.0120801
713.505	0.0119263
713.583	0.0116058
713.661	0.0113296
713.739	0.0112878
713.818	0.0110336
713.896	0.0109151
713.974	0.0108010
714.052	0.0106404
714.130	0.0106533
714.208	0.0105552
714.286	0.0106168
714.364	0.0106673
714.443	0.0108343
714.521	0.0110799
714.599	0.0111142
714.677	0.0114394
714.755	0.0116933
714.833	0.0121545
714.911	0.0124360
714.989	0.0126706
715.068	0.0130585
715.146	0.0132560
715.224	0.0132266
715.302	0.0133984
715.380	0.0135319
715.458	0.0135654
715.536	0.0136295
715.614	0.0136461
715.693	0.0135715
715.771	0.0134897
715.849	0.0135036
715.927	0.0133019
716.005	0.0133047
716.083	0.0129565
716.161	0.0131139
716.239	0.0130156
716.318	0.0128500
716.396	0.0127554
716.474	0.0127022
716.552	0.0126910
716.630	0.0126034
716.708	0.0126810
716.786	0.0125210
716.864	0.0125835
716.943	0.0126597
717.021	0.0127096
717.099	0.0126997
717.177	0.0127372
717.255	0.0125920
717.333	0.0127386
717.411	0.0126727
717.489	0.0127275
717.568	0.0127840
717.646	0.0128813
717.724	0.0127654
717.802	0.0129217
717.880	0.0129868
717.958	0.0128769
718.036	0.0130492
718.114	0.0130746
718.193	0.0130654
718.271	0.0131841
718.349	0.0131042
718.427	0.0132291
718.505	0.0131763
718.583	0.0130546
718.661	0.0132000
718.739	0.0131601
718.818	0.0131498
718.896	0.0130933
718.974	0.0129012
719.052	0.0128472
719.130	0.0127138
719.208	0.0125858
719.286	0.0124065
719.364	0.0122778
719.443	0.0122054
719.521	0.0121007
719.599	0.0118596
719.677	0.0118355
719.755	0.0118477
719.833	0.0117561
719.911	0.0115548
719.989	0.0115381
720.068	0.0116960
720.146	0.0117690
720.224	0.0117610
720.302	0.0119675
720.380	0.0118678
720.458	0.0119231
720.536	0.0121348
720.614	0.0122535
720.693	0.0122173
720.771	0.0122313
720.849	0.0122372
720.927	0.0123393
721.005	0.0123499
721.083	0.0125159
721.161	0.0125089
721.239	0.0123203
721.318	0.0123638
721.396	0.0123581
721.474	0.0124622
721.552	0.0123794
721.630	0.0124675
721.708	0.0122845
721.786	0.0122153
721.864	0.0123945
721.943	0.0123764
722.021	0.0125608
722.099	0.0127345
722.177	0.0128793
722.255	0.0131077
722.333	0.0132958
722.411	0.0136321
722.489	0.0136120
722.568	0.0138390
722.646	0.0140155
722.724	0.0141637
722.802	0.0141990
722.880	0.0142458
722.958	0.0141260
723.036	0.0140876
723.114	0.0140442
723.193	0.0137880
723.271	0.0135676
723.349	0.0134258
723.427	0.0130954
723.505	0.0129431
723.583	0.0128159
723.661	0.0124793
723.739	0.0122092
723.818	0.0120483
723.896	0.0118083
723.974	0.0116031
724.052	0.0115739
724.130	0.0114372
724.208	0.0112669
724.286	0.0113842
724.364	0.0112942
724.443	0.0113714
724.521	0.0113893
724.599	0.0114256
724.677	0.0114983
724.755	0.0118637
724.833	0.0120137
724.911	0.0122073
724.989	0.0123981
725.068	0.0126401
725.146	0.0127313
725.224	0.0129098
725.302	0.0130452
725.380	0.0132429
725.458	0.0132758
725.536	0.0133013
725.614	0.0133520
725.693	0.0135715
