05/07/2022	17:24:27	Ver.	4.1	UNKNOWN
Optical Delay	639.989416	Delta X		0.078125	Sweeps	1	Scan Rate	0/0
Coordinates	Axis 1	NaN	Axis 2	NaN	Axis 3	NaN	Axis 4	NaN	Axis 5	NaN	Axis 6	0.000000
TX Power	0.000000	RX Power	0.000000

639.989	0.0128539
640.068	0.0128924
640.146	0.0127647
640.224	0.0128162
640.302	0.0129232
640.380	0.0128065
640.458	0.0128144
640.536	0.0128269
640.614	0.0128910
640.693	0.0128449
640.771	0.0129214
640.849	0.0128188
640.927	0.0127128
641.005	0.0128425
641.083	0.0128503
641.161	0.0127835
641.239	0.0128221
641.318	0.0129014
641.396	0.0128152
641.474	0.0128733
641.552	0.0128571
641.630	0.0126530
641.708	0.0129156
641.786	0.0127843
641.864	0.0128615
641.943	0.0130130
642.021	0.0128054
642.099	0.0126764
642.177	0.0128579
642.255	0.0129991
642.333	0.0128307
642.411	0.0128455
642.489	0.0129041
642.568	0.0127610
642.646	0.0129198
642.724	0.0127135
642.802	0.0128570
642.880	0.0128428
642.958	0.0128778
643.036	0.0129034
643.114	0.0127463
643.193	0.0128407
643.271	0.0129179
643.349	0.0130082
643.427	0.0128713
643.505	0.0127528
643.583	0.0129559
643.661	0.0129985
643.739	0.0129227
643.818	0.0126781
643.896	0.0128739
643.974	0.0128065
644.052	0.0130186
644.130	0.0128999
644.208	0.0128238
644.286	0.0129033
644.364	0.0128324
644.443	0.0129445
644.521	0.0128664
644.599	0.0128790
644.677	0.0130006
644.755	0.0128887
644.833	0.0129202
644.911	0.0127591
644.989	0.0128844
645.068	0.0129628
645.146	0.0128880
645.224	0.0128993
645.302	0.0129104
645.380	0.0128850
645.458	0.0128368
645.536	0.0128389
645.614	0.0129700
645.693	0.0128281
645.771	0.0127903
645.849	0.0129431
645.927	0.0129115
646.005	0.0127563
646.083	0.0127956
646.161	0.0129362
646.239	0.0128545
646.318	0.0128432
646.396	0.0128242
646.474	0.0128014
646.552	0.0127292
646.630	0.0127837
646.708	0.0128691
646.786	0.0128996
646.864	0.0127742
646.943	0.0127666
647.021	0.0127379
647.099	0.0127551
647.177	0.0128836
647.255	0.0127717
647.333	0.0127625
647.411	0.0127599
647.489	0.0128643
647.568	0.0128342
647.646	0.0128294
647.724	0.0128373
647.802	0.0128614
647.880	0.0127579
647.958	0.0127792
648.036	0.0129144
648.114	0.0127050
648.193	0.0128556
648.271	0.0127061
648.349	0.0127093
648.427	0.0129903
648.505	0.0127723
648.583	0.0126097
648.661	0.0129088
648.739	0.0129325
648.818	0.0127583
648.896	0.0128531
648.974	0.0129855
649.052	0.0127319
649.130	0.0128054
649.208	0.0128316
649.286	0.0127808
649.364	0.0128181
649.443	0.0127426
649.521	0.0128193
649.599	0.0128310
649.677	0.0128555
649.755	0.0127261
649.833	0.0126926
649.911	0.0127512
649.989	0.0128523
650.068	0.0128401
650.146	0.0129922
650.224	0.0128379
650.302	0.0127277
650.380	0.0128842
650.458	0.0129690
650.536	0.0130257
650.614	0.0128828
650.693	0.0128833
650.771	0.0129025
650.849	0.0127758
650.927	0.0128080
651.005	0.0127580
651.083	0.0128209
651.161	0.0128130
651.239	0.0129074
651.318	0.0127898
651.396	0.0127038
651.474	0.0129421
651.552	0.0128089
651.630	0.0127464
651.708	0.0127443
651.786	0.0127479
651.864	0.0129121
651.943	0.0128506
652.021	0.0127425
652.099	0.0127564
652.177	0.0127261
652.255	0.0128259
652.333	0.0127480
652.411	0.0128356
652.489	0.0127472
652.568	0.0126948
652.646	0.0126665
652.724	0.0128714
652.802	0.0128612
652.880	0.0129095
652.958	0.0127641
653.036	0.0127496
653.114	0.0128015
653.193	0.0128619
653.271	0.0127434
653.349	0.0127463
653.427	0.0128158
653.505	0.0127062
653.583	0.0128952
653.661	0.0128458
653.739	0.0127970
653.818	0.0126517
653.896	0.0127203
653.974	0.0127570
654.052	0.0128346
654.130	0.0128917
654.208	0.0127661
654.286	0.0128694
654.364	0.0128793
654.443	0.0128114
654.521	0.0128911
654.599	0.0130224
654.677	0.0129124
654.755	0.0128952
654.833	0.0130135
654.911	0.0130210
654.989	0.0129032
655.068	0.0129794
655.146	0.0128554
655.224	0.0129611
655.302	0.0128316
655.380	0.0127790
655.458	0.0128520
655.536	0.0128013
655.614	0.0128804
655.693	0.0128135
655.771	0.0126612
655.849	0.0126568
655.927	0.0127847
656.005	0.0126791
656.083	0.0126752
656.161	0.0128256
656.239	0.0126766
656.318	0.0125750
656.396	0.0128403
656.474	0.0129990
656.552	0.0128376
656.630	0.0128041
656.708	0.0128317
656.786	0.0129398
656.864	0.0130900
656.943	0.0131393
657.021	0.0131580
657.099	0.0131245
657.177	0.0131985
657.255	0.0132429
657.333	0.0131265
657.411	0.0131135
657.489	0.0131523
657.568	0.0129421
657.646	0.0128739
657.724	0.0128578
657.802	0.0128207
657.880	0.0126472
657.958	0.0126751
658.036	0.0126191
658.114	0.0125533
658.193	0.0124590
658.271	0.0124911
658.349	0.0122166
658.427	0.0123341
658.505	0.0124197
658.583	0.0124535
658.661	0.0124203
658.739	0.0125550
658.818	0.0126006
658.896	0.0127075
658.974	0.0127560
659.052	0.0128368
659.130	0.0131586
659.208	0.0131267
659.286	0.0133730
659.364	0.0133624
659.443	0.0133202
659.521	0.0135795
659.599	0.0135206
659.677	0.0135300
659.755	0.0135693
659.833	0.0134933
659.911	0.0136330
659.989	0.0134087
660.068	0.0133056
660.146	0.0131675
660.224	0.0130407
660.302	0.0129392
660.380	0.0128027
660.458	0.0128324
660.536	0.0125362
660.614	0.0125721
660.693	0.0125149
660.771	0.0125859
660.849	0.0124390
660.927	0.0122521
661.005	0.0123163
661.083	0.0123490
661.161	0.0122620
661.239	0.0123320
661.318	0.0123313
661.396	0.0123882
661.474	0.0124841
661.552	0.0124949
661.630	0.0125621
661.708	0.0126714
661.786	0.0127934
661.864	0.0130143
661.943	0.0129462
662.021	0.0130722
662.099	0.0132655
662.177	0.0132725
662.255	0.0131379
662.333	0.0133421
662.411	0.0133829
662.489	0.0134883
662.568	0.0134639
662.646	0.0135880
662.724	0.0135860
662.802	0.0135797
662.880	0.0136052
662.958	0.0133913
663.036	0.0135181
663.114	0.0134719
663.193	0.0133540
663.271	0.0132986
663.349	0.0132001
663.427	0.0130164
663.505	0.0128636
663.583	0.0126954
663.661	0.0127049
663.739	0.0125905
663.818	0.0123151
663.896	0.0122340
663.974	0.0122847
664.052	0.0121630
664.130	0.0121048
664.208	0.0121651
664.286	0.0119798
664.364	0.0122579
664.443	0.0122870
664.521	0.0122455
664.599	0.0124331
664.677	0.0126019
664.755	0.0126976
664.833	0.0128440
664.911	0.0129349
664.989	0.0131161
665.068	0.0133418
665.146	0.0132351
665.224	0.0133376
665.302	0.0134277
665.380	0.0133847
665.458	0.0133473
665.536	0.0134064
665.614	0.0132301
665.693	0.0132492
665.771	0.0131142
665.849	0.0129365
665.927	0.0127982
666.005	0.0127267
666.083	0.0126442
666.161	0.0126835
666.239	0.0125736
666.318	0.0125022
666.396	0.0123902
666.474	0.0124800
666.552	0.0124997
666.630	0.0124008
666.708	0.0124229
666.786	0.0126755
666.864	0.0127114
666.943	0.0125730
667.021	0.0127181
667.099	0.0126885
667.177	0.0126578
667.255	0.0128897
667.333	0.0127942
667.411	0.0129100
667.489	0.0129156
667.568	0.0130092
667.646	0.0131091
667.724	0.0133862
667.802	0.0133818
667.880	0.0135149
667.958	0.0134195
668.036	0.0136485
668.114	0.0137312
668.193	0.0135783
668.271	0.0136360
668.349	0.0135601
668.427	0.0134752
668.505	0.0135236
668.583	0.0132317
668.661	0.0130837
668.739	0.0131293
668.818	0.0127614
668.896	0.0125870
668.974	0.0126551
669.052	0.0121677
669.130	0.0121339
669.208	0.0120866
669.286	0.0117617
669.364	0.0118121
669.443	0.0117902
669.521	0.0116414
669.599	0.0117436
669.677	0.0116998
669.755	0.0115611
669.833	0.0117680
669.911	0.0120576
669.989	0.0120698
670.068	0.0121233
670.146	0.0120708
670.224	0.0122908
670.302	0.0124384
670.380	0.0127435
670.458	0.0128307
670.536	0.0129810
670.614	0.0132212
670.693	0.0133821
670.771	0.0134975
670.849	0.0137582
670.927	0.0139515
671.005	0.0139757
671.083	0.0140960
671.161	0.0141106
671.239	0.0142854
671.318	0.0143144
671.396	0.0143143
671.474	0.0141749
671.552	0.0143265
671.630	0.0143018
671.708	0.0142605
671.786	0.0141180
671.864	0.0140558
671.943	0.0137215
672.021	0.0137588
672.099	0.0135358
672.177	0.0133227
672.255	0.0130007
672.333	0.0129892
672.411	0.0127607
672.489	0.0125559
672.568	0.0124816
672.646	0.0122532
672.724	0.0120569
672.802	0.0119791
672.880	0.0117495
672.958	0.0116368
673.036	0.0114069
673.114	0.0113844
673.193	0.0112232
673.271	0.0110928
673.349	0.0110184
673.427	0.0108270
673.505	0.0107767
673.583	0.0108497
673.661	0.0107927
673.739	0.0108939
673.818	0.0108814
673.896	0.0111413
673.974	0.0113110
674.052	0.0116643
674.130	0.0119085
674.208	0.0122387
674.286	0.0125026
674.364	0.0127311
674.443	0.0128677
674.521	0.0131328
674.599	0.0133395
674.677	0.0137717
674.755	0.0138573
674.833	0.0139216
674.911	0.0141225
674.989	0.0143158
675.068	0.0144491
675.146	0.0145966
675.224	0.0146666
675.302	0.0148708
675.380	0.0150279
675.458	0.0151270
675.536	0.0152740
675.614	0.0153004
675.693	0.0151901
675.771	0.0151424
675.849	0.0151772
675.927	0.0149403
676.005	0.0148128
676.083	0.0146555
676.161	0.0145172
676.239	0.0142605
676.318	0.0139449
676.396	0.0137067
676.474	0.0132918
676.552	0.0129483
676.630	0.0126464
676.708	0.0123320
676.786	0.0120325
676.864	0.0117375
676.943	0.0113451
677.021	0.0111181
677.099	0.0108597
677.177	0.0107790
677.255	0.0106670
677.333	0.0104717
677.411	0.0103442
677.489	0.0101673
677.568	0.0103176
677.646	0.0102271
677.724	0.0103815
677.802	0.0102592
677.880	0.0102728
677.958	0.0106096
678.036	0.0106789
678.114	0.0108157
678.193	0.0109013
678.271	0.0114085
678.349	0.0116041
678.427	0.0120307
678.505	0.0123788
678.583	0.0126595
678.661	0.0130288
678.739	0.0133698
678.818	0.0136723
678.896	0.0139458
678.974	0.0143295
679.052	0.0146198
679.130	0.0148763
679.208	0.0149435
679.286	0.0149996
679.364	0.0152036
679.443	0.0153729
679.521	0.0152710
679.599	0.0154250
679.677	0.0153224
679.755	0.0155583
679.833	0.0153376
679.911	0.0152864
679.989	0.0151453
680.068	0.0149167
680.146	0.0149957
680.224	0.0149192
680.302	0.0146980
680.380	0.0145745
680.458	0.0144109
680.536	0.0141846
680.614	0.0138612
680.693	0.0136664
680.771	0.0135262
680.849	0.0131762
680.927	0.0129800
681.005	0.0127861
681.083	0.0125815
681.161	0.0123345
681.239	0.0119302
681.318	0.0119815
681.396	0.0117910
681.474	0.0117135
681.552	0.0116499
681.630	0.0115621
681.708	0.0114243
681.786	0.0112463
681.864	0.0111910
681.943	0.0109986
682.021	0.0109727
682.099	0.0107417
682.177	0.0107475
682.255	0.0105894
682.333	0.0105193
682.411	0.0107840
682.489	0.0104384
682.568	0.0102297
682.646	0.0103930
682.724	0.0105466
682.802	0.0106001
682.880	0.0106674
682.958	0.0107921
683.036	0.0110955
683.114	0.0113577
683.193	0.0116219
683.271	0.0119227
683.349	0.0122208
683.427	0.0125288
683.505	0.0128101
683.583	0.0132515
683.661	0.0137078
683.739	0.0138906
683.818	0.0141289
683.896	0.0148105
683.974	0.0150566
684.052	0.0153591
684.130	0.0155780
684.208	0.0158401
684.286	0.0159961
684.364	0.0162081
684.443	0.0163171
684.521	0.0163029
684.599	0.0163921
684.677	0.0164524
684.755	0.0164100
684.833	0.0162643
684.911	0.0163332
684.989	0.0161246
685.068	0.0158379
685.146	0.0155754
685.224	0.0153747
685.302	0.0150768
685.380	0.0146416
685.458	0.0141440
685.536	0.0137444
685.614	0.0131931
685.693	0.0128646
685.771	0.0122116
685.849	0.0117608
685.927	0.0112929
686.005	0.0107244
686.083	0.0104271
686.161	0.00997688
686.239	0.00949532
686.318	0.00944420
686.396	0.00921570
686.474	0.00909012
686.552	0.00911171
686.630	0.00898300
686.708	0.00877335
686.786	0.00900848
686.864	0.00931084
686.943	0.00933105
687.021	0.00950806
687.099	0.00984566
687.177	0.0100293
687.255	0.0103893
687.333	0.0106985
687.411	0.0109492
687.489	0.0113365
687.568	0.0118192
687.646	0.0123419
687.724	0.0128352
687.802	0.0130726
687.880	0.0134740
687.958	0.0140228
688.036	0.0143079
688.114	0.0146138
688.193	0.0150082
688.271	0.0152399
688.349	0.0154597
688.427	0.0155210
688.505	0.0157406
688.583	0.0156161
688.661	0.0157149
688.739	0.0157034
688.818	0.0155361
688.896	0.0153426
688.974	0.0153017
689.052	0.0151625
689.130	0.0149778
689.208	0.0148086
689.286	0.0147984
689.364	0.0147290
689.443	0.0144739
689.521	0.0142206
689.599	0.0141835
689.677	0.0140459
689.755	0.0140554
689.833	0.0136848
689.911	0.0136439
689.989	0.0134438
690.068	0.0133449
690.146	0.0130415
690.224	0.0128271
690.302	0.0127563
690.380	0.0124654
690.458	0.0123894
690.536	0.0123077
690.614	0.0119473
690.693	0.0116804
690.771	0.0115753
690.849	0.0113612
690.927	0.0111477
691.005	0.0110395
691.083	0.0106302
691.161	0.0103865
691.239	0.0102998
691.318	0.0101917
691.396	0.0101628
691.474	0.0101450
691.552	0.0101489
691.630	0.0101405
691.708	0.0101824
691.786	0.0105853
691.864	0.0106449
691.943	0.0108458
692.021	0.0113260
692.099	0.0116440
692.177	0.0119920
692.255	0.0122632
692.333	0.0127949
692.411	0.0132828
692.489	0.0135533
692.568	0.0139124
692.646	0.0141243
692.724	0.0146199
692.802	0.0150588
692.880	0.0151555
692.958	0.0153500
693.036	0.0155610
693.114	0.0157524
693.193	0.0156983
693.271	0.0158242
693.349	0.0157576
693.427	0.0154632
693.505	0.0153082
693.583	0.0151637
693.661	0.0149295
693.739	0.0146397
693.818	0.0142625
693.896	0.0140952
693.974	0.0136035
694.052	0.0131940
694.130	0.0127876
694.208	0.0126304
694.286	0.0122707
694.364	0.0118446
694.443	0.0118128
694.521	0.0114257
694.599	0.0114099
694.677	0.0113480
694.755	0.0111466
694.833	0.0112917
694.911	0.0112817
694.989	0.0113456
695.068	0.0114707
695.146	0.0115239
695.224	0.0117789
695.302	0.0117574
695.380	0.0121152
695.458	0.0122123
695.536	0.0124067
695.614	0.0126837
695.693	0.0129129
695.771	0.0129970
695.849	0.0132954
695.927	0.0137014
696.005	0.0137933
696.083	0.0140555
696.161	0.0140790
696.239	0.0141350
696.318	0.0142145
696.396	0.0142362
696.474	0.0141286
696.552	0.0140379
696.630	0.0138602
696.708	0.0136208
696.786	0.0132805
696.864	0.0130917
696.943	0.0127382
697.021	0.0125228
697.099	0.0121022
697.177	0.0119407
697.255	0.0118806
697.333	0.0116389
697.411	0.0115408
697.489	0.0115612
697.568	0.0115119
697.646	0.0113373
697.724	0.0114194
697.802	0.0115085
697.880	0.0116183
697.958	0.0117666
698.036	0.0118134
698.114	0.0119846
698.193	0.0122450
698.271	0.0124155
698.349	0.0128062
698.427	0.0130747
698.505	0.0132070
698.583	0.0133762
698.661	0.0136383
698.739	0.0140128
698.818	0.0141356
698.896	0.0143547
698.974	0.0143022
699.052	0.0145370
699.130	0.0145050
699.208	0.0144419
699.286	0.0143458
699.364	0.0141546
699.443	0.0140014
699.521	0.0138302
699.599	0.0135054
699.677	0.0134199
699.755	0.0132100
699.833	0.0128903
699.911	0.0128278
699.989	0.0124838
700.068	0.0122881
700.146	0.0120163
700.224	0.0117283
700.302	0.0116476
700.380	0.0116787
700.458	0.0115514
700.536	0.0114632
700.614	0.0116245
700.693	0.0116125
700.771	0.0117552
700.849	0.0119421
700.927	0.0120404
701.005	0.0122317
701.083	0.0124500
701.161	0.0127442
701.239	0.0130571
701.318	0.0130954
701.396	0.0132085
701.474	0.0136110
701.552	0.0137585
701.630	0.0137930
701.708	0.0140359
701.786	0.0140512
701.864	0.0139886
701.943	0.0141598
702.021	0.0140930
702.099	0.0140704
702.177	0.0140495
702.255	0.0139413
702.333	0.0138129
702.411	0.0136076
702.489	0.0133978
702.568	0.0132236
702.646	0.0129955
702.724	0.0126321
702.802	0.0122926
702.880	0.0123141
702.958	0.0121656
703.036	0.0118856
703.114	0.0117353
703.193	0.0116178
703.271	0.0113074
703.349	0.0113505
703.427	0.0113364
703.505	0.0113609
703.583	0.0114680
703.661	0.0114571
703.739	0.0117032
703.818	0.0119103
703.896	0.0119695
703.974	0.0123659
704.052	0.0127361
704.130	0.0128616
704.208	0.0130906
704.286	0.0131863
704.364	0.0136166
704.443	0.0136489
704.521	0.0139297
704.599	0.0139951
704.677	0.0140189
704.755	0.0140373
704.833	0.0141368
704.911	0.0141599
704.989	0.0141319
705.068	0.0141922
705.146	0.0140431
705.224	0.0136834
705.302	0.0136412
705.380	0.0134992
705.458	0.0130849
705.536	0.0128368
705.614	0.0127315
705.693	0.0124455
705.771	0.0120906
705.849	0.0119984
705.927	0.0116064
706.005	0.0115755
706.083	0.0115241
706.161	0.0114304
706.239	0.0114360
706.318	0.0115018
706.396	0.0115228
706.474	0.0115834
706.552	0.0118052
706.630	0.0120448
706.708	0.0121921
706.786	0.0124432
706.864	0.0126448
706.943	0.0129774
707.021	0.0130303
707.099	0.0133461
707.177	0.0133819
707.255	0.0137817
707.333	0.0139082
707.411	0.0140679
707.489	0.0142353
707.568	0.0142531
707.646	0.0142310
707.724	0.0142230
707.802	0.0142046
707.880	0.0140417
707.958	0.0138829
708.036	0.0137550
708.114	0.0133996
708.193	0.0133558
708.271	0.0130445
708.349	0.0129280
708.427	0.0126981
708.505	0.0125166
708.583	0.0124611
708.661	0.0124110
708.739	0.0120718
708.818	0.0120239
708.896	0.0122679
708.974	0.0120063
709.052	0.0120147
709.130	0.0120577
709.208	0.0120634
709.286	0.0122121
709.364	0.0124816
709.443	0.0124295
709.521	0.0126485
709.599	0.0126991
709.677	0.0128629
709.755	0.0129153
709.833	0.0130655
709.911	0.0131241
709.989	0.0131376
710.068	0.0131855
710.146	0.0134387
710.224	0.0134375
710.302	0.0134330
710.380	0.0133857
710.458	0.0134055
710.536	0.0132317
710.614	0.0133698
710.693	0.0132446
710.771	0.0132240
710.849	0.0131924
710.927	0.0131670
711.005	0.0130185
711.083	0.0129315
711.161	0.0128032
711.239	0.0128262
711.318	0.0127200
711.396	0.0123908
711.474	0.0124277
711.552	0.0122374
711.630	0.0120973
711.708	0.0121724
711.786	0.0118502
711.864	0.0118458
711.943	0.0117486
712.021	0.0117926
712.099	0.0118479
712.177	0.0119138
712.255	0.0121388
712.333	0.0122255
712.411	0.0121490
712.489	0.0122968
712.568	0.0125620
712.646	0.0127982
712.724	0.0130333
712.802	0.0132465
712.880	0.0132941
712.958	0.0136678
713.036	0.0138615
713.114	0.0138388
713.193	0.0140881
713.271	0.0142514
713.349	0.0143861
713.427	0.0143948
713.505	0.0142845
713.583	0.0142143
713.661	0.0142904
713.739	0.0141670
713.818	0.0138310
713.896	0.0138501
713.974	0.0134914
714.052	0.0133636
714.130	0.0131705
714.208	0.0130186
714.286	0.0127717
714.364	0.0127144
714.443	0.0124823
714.521	0.0121786
714.599	0.0121455
714.677	0.0120848
714.755	0.0117529
714.833	0.0117827
714.911	0.0119698
714.989	0.0118359
715.068	0.0118322
715.146	0.0117818
715.224	0.0117461
715.302	0.0118959
715.380	0.0120129
715.458	0.0123055
715.536	0.0123420
715.614	0.0123399
715.693	0.0125961
715.771	0.0126513
715.849	0.0129559
715.927	0.0131461
716.005	0.0132188
716.083	0.0133129
716.161	0.0134102
716.239	0.0135679
716.318	0.0136093
716.396	0.0137048
716.474	0.0136694
716.552	0.0137014
716.630	0.0136880
716.708	0.0136993
716.786	0.0134636
716.864	0.0135583
716.943	0.0133064
717.021	0.0132090
717.099	0.0130042
717.177	0.0128133
717.255	0.0128075
717.333	0.0126806
717.411	0.0122569
717.489	0.0121495
717.568	0.0120097
717.646	0.0118384
717.724	0.0117928
717.802	0.0116460
717.880	0.0115115
717.958	0.0114865
718.036	0.0114332
718.114	0.0116011
718.193	0.0115343
718.271	0.0116781
718.349	0.0119447
718.427	0.0120704
718.505	0.0121444
718.583	0.0123079
718.661	0.0126515
718.739	0.0127535
718.818	0.0130540
718.896	0.0133984
718.974	0.0134304
719.052	0.0136452
719.130	0.0137260
719.208	0.0138561
719.286	0.0139843
719.364	0.0141071
719.443	0.0140267
719.521	0.0140788
719.599	0.0142586
719.677	0.0141235
719.755	0.0140913
719.833	0.0140674
719.911	0.0137994
719.989	0.0137386
720.068	0.0136897
720.146	0.0136620
720.224	0.0133998
720.302	0.0132919
720.380	0.0131557
720.458	0.0130380
720.536	0.0128486
720.614	0.0126965
720.693	0.0126817
720.771	0.0124851
720.849	0.0124216
720.927	0.0124979
721.005	0.0125183
721.083	0.0123938
721.161	0.0126071
721.239	0.0123907
721.318	0.0125104
721.396	0.0127090
721.474	0.0127427
721.552	0.0128397
721.630	0.0127843
721.708	0.0127594
721.786	0.0127604
721.864	0.0127814
721.943	0.0127869
722.021	0.0129690
722.099	0.0129684
722.177	0.0128119
722.255	0.0127788
722.333	0.0127592
722.411	0.0125343
722.489	0.0125771
722.568	0.0124649
722.646	0.0123757
722.724	0.0123129
722.802	0.0121532
722.880	0.0120805
722.958	0.0121290
723.036	0.0120444
723.114	0.0121406
723.193	0.0120395
723.271	0.0120944
723.349	0.0119930
723.427	0.0119056
723.505	0.0119956
723.583	0.0122749
723.661	0.0122496
723.739	0.0124931
723.818	0.0125985
723.896	0.0127038
723.974	0.0126788
724.052	0.0127805
724.130	0.0129293
724.208	0.0130235
724.286	0.0133445
724.364	0.0133598
724.443	0.0134873
724.521	0.0137779
724.599	0.0138660
724.677	0.0139528
724.755	0.0139590
724.833	0.0140739
724.911	0.0140851
724.989	0.0141201
725.068	0.0139842
725.146	0.0139068
725.224	0.0138776
725.302	0.0138210
725.380	0.0135669
725.458	0.0134947
725.536	0.0134666
725.614	0.0131439
725.693	0.0132212
