05/07/2022	17:25:32	Ver.	4.1	UNKNOWN
Optical Delay	639.989416	Delta X		0.078125	Sweeps	1	Scan Rate	0/0
Coordinates	Axis 1	NaN	Axis 2	NaN	Axis 3	NaN	Axis 4	NaN	Axis 5	NaN	Axis 6	0.000000
TX Power	0.000000	RX Power	0.000000

639.989	0.0130387
640.068	0.0128154
640.146	0.0130786
640.224	0.0130127
640.302	0.0129495
640.380	0.0130737
640.458	0.0130087
640.536	0.0129342
640.614	0.0130796
640.693	0.0130115
640.771	0.0129416
640.849	0.0130312
640.927	0.0128889
641.005	0.0130106
641.083	0.0128364
641.161	0.0129887
641.239	0.0130859
641.318	0.0129565
641.396	0.0129903
641.474	0.0129510
641.552	0.0130305
641.630	0.0131718
641.708	0.0130220
641.786	0.0128560
641.864	0.0130326
641.943	0.0130446
642.021	0.0130223
642.099	0.0130436
642.177	0.0130130
642.255	0.0130640
642.333	0.0130247
642.411	0.0129831
642.489	0.0129514
642.568	0.0130116
642.646	0.0131330
642.724	0.0128836
642.802	0.0128315
642.880	0.0129943
642.958	0.0130853
643.036	0.0130312
643.114	0.0129475
643.193	0.0128072
643.271	0.0129919
643.349	0.0129178
643.427	0.0130707
643.505	0.0130773
643.583	0.0129209
643.661	0.0130896
643.739	0.0129909
643.818	0.0129156
643.896	0.0128488
643.974	0.0128744
644.052	0.0128967
644.130	0.0130458
644.208	0.0129557
644.286	0.0130821
644.364	0.0129964
644.443	0.0130019
644.521	0.0129144
644.599	0.0129349
644.677	0.0130809
644.755	0.0129694
644.833	0.0130006
644.911	0.0129588
644.989	0.0129028
645.068	0.0130907
645.146	0.0130526
645.224	0.0128738
645.302	0.0129541
645.380	0.0129108
645.458	0.0129287
645.536	0.0130096
645.614	0.0129955
645.693	0.0130039
645.771	0.0129908
645.849	0.0129972
645.927	0.0129152
646.005	0.0130898
646.083	0.0130207
646.161	0.0131011
646.239	0.0130365
646.318	0.0128088
646.396	0.0130386
646.474	0.0130454
646.552	0.0129389
646.630	0.0129914
646.708	0.0130603
646.786	0.0130312
646.864	0.0130983
646.943	0.0130025
647.021	0.0131113
647.099	0.0130676
647.177	0.0129842
647.255	0.0130808
647.333	0.0130319
647.411	0.0130768
647.489	0.0130737
647.568	0.0130734
647.646	0.0130393
647.724	0.0129533
647.802	0.0130932
647.880	0.0129639
647.958	0.0130408
648.036	0.0129541
648.114	0.0131188
648.193	0.0130410
648.271	0.0131246
648.349	0.0129694
648.427	0.0129808
648.505	0.0130997
648.583	0.0130374
648.661	0.0130749
648.739	0.0129852
648.818	0.0131789
648.896	0.0130896
648.974	0.0130750
649.052	0.0131569
649.130	0.0129885
649.208	0.0130726
649.286	0.0129794
649.364	0.0130505
649.443	0.0130670
649.521	0.0130547
649.599	0.0130793
649.677	0.0131348
649.755	0.0130935
649.833	0.0130999
649.911	0.0131664
649.989	0.0130943
650.068	0.0131026
650.146	0.0130096
650.224	0.0130143
650.302	0.0129942
650.380	0.0130492
650.458	0.0131577
650.536	0.0130610
650.614	0.0130056
650.693	0.0131413
650.771	0.0131155
650.849	0.0131258
650.927	0.0131802
651.005	0.0130384
651.083	0.0132127
651.161	0.0130408
651.239	0.0130286
651.318	0.0130283
651.396	0.0131036
651.474	0.0129353
651.552	0.0131453
651.630	0.0131265
651.708	0.0131342
651.786	0.0131110
651.864	0.0130939
651.943	0.0129975
652.021	0.0130986
652.099	0.0130918
652.177	0.0132078
652.255	0.0130976
652.333	0.0130556
652.411	0.0130765
652.489	0.0132530
652.568	0.0130879
652.646	0.0131525
652.724	0.0131666
652.802	0.0131070
652.880	0.0131554
652.958	0.0131845
653.036	0.0132024
653.114	0.0132512
653.193	0.0131622
653.271	0.0131499
653.349	0.0130909
653.427	0.0131860
653.505	0.0130917
653.583	0.0131521
653.661	0.0129888
653.739	0.0130192
653.818	0.0129347
653.896	0.0130091
653.974	0.0130812
654.052	0.0128180
654.130	0.0129794
654.208	0.0129572
654.286	0.0129395
654.364	0.0128941
654.443	0.0129874
654.521	0.0128999
654.599	0.0131316
654.677	0.0131850
654.755	0.0130963
654.833	0.0131879
654.911	0.0130910
654.989	0.0130956
655.068	0.0132507
655.146	0.0132952
655.224	0.0134168
655.302	0.0133772
655.380	0.0132204
655.458	0.0134218
655.536	0.0133634
655.614	0.0134032
655.693	0.0131044
655.771	0.0131496
655.849	0.0130653
655.927	0.0129692
656.005	0.0129917
656.083	0.0129183
656.161	0.0130681
656.239	0.0128860
656.318	0.0127625
656.396	0.0126453
656.474	0.0126680
656.552	0.0126974
656.630	0.0126700
656.708	0.0124800
656.786	0.0125456
656.864	0.0125468
656.943	0.0127562
657.021	0.0128783
657.099	0.0129096
657.177	0.0131777
657.255	0.0132654
657.333	0.0132089
657.411	0.0131879
657.489	0.0136929
657.568	0.0136468
657.646	0.0136311
657.724	0.0136453
657.802	0.0138279
657.880	0.0137914
657.958	0.0137579
658.036	0.0138999
658.114	0.0136958
658.193	0.0137328
658.271	0.0136362
658.349	0.0133566
658.427	0.0132793
658.505	0.0131937
658.583	0.0129724
658.661	0.0130127
658.739	0.0128630
658.818	0.0126346
658.896	0.0124506
658.974	0.0124712
659.052	0.0124811
659.130	0.0122908
659.208	0.0123007
659.286	0.0121603
659.364	0.0123178
659.443	0.0122348
659.521	0.0123247
659.599	0.0124696
659.677	0.0123465
659.755	0.0124984
659.833	0.0126160
659.911	0.0127415
659.989	0.0127705
660.068	0.0129757
660.146	0.0129700
660.224	0.0129828
660.302	0.0132833
660.380	0.0132893
660.458	0.0133345
660.536	0.0135036
660.614	0.0135020
660.693	0.0134544
660.771	0.0136880
660.849	0.0136833
660.927	0.0137946
661.005	0.0135619
661.083	0.0136168
661.161	0.0136809
661.239	0.0134115
661.318	0.0135103
661.396	0.0133665
661.474	0.0133355
661.552	0.0132468
661.630	0.0130693
661.708	0.0129996
661.786	0.0126949
661.864	0.0125794
661.943	0.0125267
662.021	0.0123493
662.099	0.0122637
662.177	0.0120792
662.255	0.0120132
662.333	0.0120803
662.411	0.0119530
662.489	0.0120556
662.568	0.0120964
662.646	0.0120544
662.724	0.0121222
662.802	0.0123025
662.880	0.0123169
662.958	0.0125291
663.036	0.0126219
663.114	0.0129153
663.193	0.0128676
663.271	0.0130870
663.349	0.0131537
663.427	0.0133714
663.505	0.0135355
663.583	0.0135301
663.661	0.0138229
663.739	0.0138780
663.818	0.0137943
663.896	0.0138698
663.974	0.0138732
664.052	0.0137842
664.130	0.0137016
664.208	0.0136943
664.286	0.0136966
664.364	0.0134126
664.443	0.0132619
664.521	0.0131889
664.599	0.0131465
664.677	0.0132367
664.755	0.0129366
664.833	0.0129623
664.911	0.0128587
664.989	0.0127680
665.068	0.0126067
665.146	0.0124532
665.224	0.0125411
665.302	0.0125971
665.380	0.0125011
665.458	0.0125767
665.536	0.0124170
665.614	0.0124844
665.693	0.0125526
665.771	0.0125636
665.849	0.0127408
665.927	0.0127890
666.005	0.0128159
666.083	0.0129916
666.161	0.0128952
666.239	0.0131549
666.318	0.0132094
666.396	0.0132490
666.474	0.0132330
666.552	0.0133177
666.630	0.0133228
666.708	0.0133741
666.786	0.0134126
666.864	0.0134179
666.943	0.0134357
667.021	0.0133916
667.099	0.0135489
667.177	0.0132260
667.255	0.0131933
667.333	0.0130222
667.411	0.0129027
667.489	0.0127781
667.568	0.0127521
667.646	0.0126643
667.724	0.0125975
667.802	0.0126086
667.880	0.0124513
667.958	0.0124632
668.036	0.0123529
668.114	0.0124258
668.193	0.0123664
668.271	0.0125710
668.349	0.0125789
668.427	0.0126904
668.505	0.0126420
668.583	0.0128336
668.661	0.0127969
668.739	0.0129387
668.818	0.0132658
668.896	0.0132745
668.974	0.0134241
669.052	0.0136022
669.130	0.0136755
669.208	0.0137544
669.286	0.0139254
669.364	0.0141128
669.443	0.0141380
669.521	0.0139601
669.599	0.0140210
669.677	0.0141151
669.755	0.0141648
669.833	0.0140037
669.911	0.0141202
669.989	0.0140341
670.068	0.0140612
670.146	0.0138912
670.224	0.0137375
670.302	0.0136327
670.380	0.0136797
670.458	0.0134859
670.536	0.0133796
670.614	0.0131949
670.693	0.0131647
670.771	0.0128807
670.849	0.0128986
670.927	0.0127473
671.005	0.0125984
671.083	0.0125406
671.161	0.0125208
671.239	0.0123336
671.318	0.0123402
671.396	0.0121085
671.474	0.0122261
671.552	0.0121721
671.630	0.0120284
671.708	0.0120305
671.786	0.0122478
671.864	0.0120600
671.943	0.0120925
672.021	0.0123077
672.099	0.0124854
672.177	0.0123262
672.255	0.0123471
672.333	0.0124857
672.411	0.0124815
672.489	0.0126380
672.568	0.0127476
672.646	0.0128444
672.724	0.0127811
672.802	0.0127850
672.880	0.0128852
672.958	0.0131233
673.036	0.0131581
673.114	0.0131351
673.193	0.0134849
673.271	0.0135339
673.349	0.0136372
673.427	0.0138544
673.505	0.0138152
673.583	0.0139863
673.661	0.0142561
673.739	0.0143696
673.818	0.0144740
673.896	0.0145123
673.974	0.0147854
674.052	0.0149071
674.130	0.0150345
674.208	0.0151106
674.286	0.0151710
674.364	0.0150526
674.443	0.0148634
674.521	0.0150366
674.599	0.0149668
674.677	0.0146567
674.755	0.0145250
674.833	0.0141667
674.911	0.0138506
674.989	0.0134919
675.068	0.0132088
675.146	0.0129792
675.224	0.0126440
675.302	0.0122876
675.380	0.0119145
675.458	0.0116472
675.536	0.0112325
675.614	0.0108193
675.693	0.0107515
675.771	0.0104700
675.849	0.0103381
675.927	0.0100768
676.005	0.00982841
676.083	0.00971809
676.161	0.00975372
676.239	0.00962509
676.318	0.00981750
676.396	0.00991348
676.474	0.0101376
676.552	0.0104463
676.630	0.0107394
676.708	0.0112040
676.786	0.0116787
676.864	0.0121200
676.943	0.0124432
677.021	0.0127090
677.099	0.0133920
677.177	0.0138811
677.255	0.0140826
677.333	0.0146896
677.411	0.0148827
677.489	0.0151851
677.568	0.0153319
677.646	0.0156068
677.724	0.0158480
677.802	0.0159464
677.880	0.0160950
677.958	0.0163111
678.036	0.0160851
678.114	0.0161024
678.193	0.0159511
678.271	0.0158945
678.349	0.0156311
678.427	0.0154061
678.505	0.0152052
678.583	0.0149177
678.661	0.0145911
678.739	0.0143684
678.818	0.0139704
678.896	0.0136890
678.974	0.0134222
679.052	0.0130148
679.130	0.0125933
679.208	0.0123020
679.286	0.0120248
679.364	0.0118295
679.443	0.0115636
679.521	0.0115697
679.599	0.0113280
679.677	0.0111160
679.755	0.0110805
679.833	0.0111610
679.911	0.0111185
679.989	0.0110920
680.068	0.0110648
680.146	0.0111761
680.224	0.0111585
680.302	0.0113169
680.380	0.0113272
680.458	0.0113803
680.536	0.0114102
680.614	0.0114814
680.693	0.0114240
680.771	0.0114440
680.849	0.0115746
680.927	0.0116683
681.005	0.0115496
681.083	0.0116205
681.161	0.0117941
681.239	0.0119756
681.318	0.0120856
681.396	0.0121719
681.474	0.0123344
681.552	0.0125341
681.630	0.0127618
681.708	0.0130400
681.786	0.0132928
681.864	0.0133949
681.943	0.0137309
682.021	0.0138700
682.099	0.0142793
682.177	0.0143876
682.255	0.0145251
682.333	0.0146464
682.411	0.0147794
682.489	0.0147758
682.568	0.0147496
682.646	0.0147179
682.724	0.0147542
682.802	0.0147715
682.880	0.0146643
682.958	0.0147355
683.036	0.0146129
683.114	0.0144841
683.193	0.0143138
683.271	0.0142464
683.349	0.0143298
683.427	0.0143253
683.505	0.0141181
683.583	0.0140604
683.661	0.0139368
683.739	0.0140459
683.818	0.0139299
683.896	0.0136310
683.974	0.0135036
684.052	0.0131497
684.130	0.0130225
684.208	0.0128578
684.286	0.0127040
684.364	0.0125899
684.443	0.0124290
684.521	0.0122826
684.599	0.0120579
684.677	0.0118723
684.755	0.0117845
684.833	0.0117688
684.911	0.0114742
684.989	0.0116483
685.068	0.0114802
685.146	0.0113921
685.224	0.0114320
685.302	0.0113056
685.380	0.0113167
685.458	0.0113036
685.536	0.0111315
685.614	0.0112232
685.693	0.0111840
685.771	0.0112931
685.849	0.0112084
685.927	0.0112372
686.005	0.0113519
686.083	0.0114778
686.161	0.0114818
686.239	0.0115693
686.318	0.0116541
686.396	0.0119621
686.474	0.0120067
686.552	0.0121645
686.630	0.0124402
686.708	0.0125680
686.786	0.0126690
686.864	0.0129398
686.943	0.0130411
687.021	0.0131205
687.099	0.0135372
687.177	0.0138596
687.255	0.0140165
687.333	0.0141226
687.411	0.0146552
687.489	0.0147382
687.568	0.0149236
687.646	0.0151759
687.724	0.0153686
687.802	0.0155929
687.880	0.0158833
687.958	0.0159554
688.036	0.0158615
688.114	0.0160241
688.193	0.0158813
688.271	0.0159400
688.349	0.0159296
688.427	0.0158073
688.505	0.0156628
688.583	0.0156479
688.661	0.0154310
688.739	0.0152172
688.818	0.0149310
688.896	0.0145714
688.974	0.0143266
689.052	0.0140695
689.130	0.0136741
689.208	0.0133342
689.286	0.0128822
689.364	0.0125134
689.443	0.0120515
689.521	0.0115446
689.599	0.0111469
689.677	0.0109113
689.755	0.0105664
689.833	0.0100838
689.911	0.0100107
689.989	0.00971481
690.068	0.00950722
690.146	0.00961388
690.224	0.00952087
690.302	0.00937386
690.380	0.00958481
690.458	0.00968216
690.536	0.00977814
690.614	0.00996613
690.693	0.0101623
690.771	0.0105110
690.849	0.0106726
690.927	0.0110082
691.005	0.0113091
691.083	0.0116689
691.161	0.0121842
691.239	0.0125640
691.318	0.0126882
691.396	0.0131038
691.474	0.0135075
691.552	0.0137524
691.630	0.0140641
691.708	0.0144864
691.786	0.0147073
691.864	0.0146696
691.943	0.0149859
692.021	0.0149722
692.099	0.0150616
692.177	0.0150644
692.255	0.0150318
692.333	0.0149963
692.411	0.0149109
692.489	0.0149198
692.568	0.0148500
692.646	0.0148315
692.724	0.0146934
692.802	0.0146487
692.880	0.0145998
692.958	0.0145769
693.036	0.0147674
693.114	0.0147363
693.193	0.0146793
693.271	0.0146079
693.349	0.0147529
693.427	0.0148555
693.505	0.0147755
693.583	0.0146854
693.661	0.0146604
693.739	0.0144357
693.818	0.0143699
693.896	0.0140711
693.974	0.0138608
694.052	0.0137109
694.130	0.0137097
694.208	0.0134751
694.286	0.0131686
694.364	0.0130260
694.443	0.0126772
694.521	0.0126163
694.599	0.0122977
694.677	0.0122679
694.755	0.0119681
694.833	0.0116300
694.911	0.0114320
694.989	0.0111681
695.068	0.0110391
695.146	0.0107449
695.224	0.0105972
695.302	0.0104070
695.380	0.0102764
695.458	0.0100641
695.536	0.0100787
695.614	0.0100264
695.693	0.00997215
695.771	0.0101315
695.849	0.0101836
695.927	0.0103825
696.005	0.0105335
696.083	0.0105844
696.161	0.0107700
696.239	0.0110434
696.318	0.0113821
696.396	0.0117593
696.474	0.0121986
696.552	0.0123607
696.630	0.0127771
696.708	0.0131743
696.786	0.0135770
696.864	0.0139852
696.943	0.0140614
697.021	0.0144865
697.099	0.0147735
697.177	0.0150842
697.255	0.0155004
697.333	0.0157005
697.411	0.0157888
697.489	0.0158315
697.568	0.0159287
697.646	0.0160369
697.724	0.0159397
697.802	0.0160018
697.880	0.0158140
697.958	0.0157271
698.036	0.0155434
698.114	0.0153837
698.193	0.0150845
698.271	0.0150138
698.349	0.0146730
698.427	0.0143545
698.505	0.0142643
698.583	0.0141269
698.661	0.0136683
698.739	0.0135123
698.818	0.0133400
698.896	0.0130051
698.974	0.0128394
699.052	0.0125808
699.130	0.0124779
699.208	0.0123440
699.286	0.0120781
699.364	0.0119360
699.443	0.0117129
699.521	0.0116754
699.599	0.0115427
699.677	0.0112740
699.755	0.0111919
699.833	0.0110857
699.911	0.0111572
699.989	0.0112561
700.068	0.0111306
700.146	0.0112402
700.224	0.0111999
700.302	0.0111681
700.380	0.0113178
700.458	0.0114334
700.536	0.0115456
700.614	0.0116839
700.693	0.0116661
700.771	0.0117981
700.849	0.0119508
700.927	0.0121053
701.005	0.0121353
701.083	0.0123501
701.161	0.0123717
701.239	0.0125163
701.318	0.0128080
701.396	0.0128489
701.474	0.0129631
701.552	0.0131425
701.630	0.0131848
701.708	0.0132201
701.786	0.0133226
701.864	0.0136669
701.943	0.0136210
702.021	0.0138190
702.099	0.0139675
702.177	0.0141138
702.255	0.0140451
702.333	0.0143632
702.411	0.0145405
702.489	0.0145239
702.568	0.0146678
702.646	0.0147051
702.724	0.0147076
702.802	0.0149286
702.880	0.0147685
702.958	0.0145432
703.036	0.0145185
703.114	0.0145103
703.193	0.0142826
703.271	0.0143369
703.349	0.0141570
703.427	0.0138306
703.505	0.0136782
703.583	0.0133938
703.661	0.0131419
703.739	0.0128518
703.818	0.0125309
703.896	0.0124021
703.974	0.0119296
704.052	0.0118172
704.130	0.0117953
704.208	0.0116400
704.286	0.0114814
704.364	0.0113682
704.443	0.0113868
704.521	0.0113699
704.599	0.0113469
704.677	0.0115760
704.755	0.0117768
704.833	0.0118183
704.911	0.0119864
704.989	0.0122947
705.068	0.0125367
705.146	0.0125793
705.224	0.0127254
705.302	0.0129802
705.380	0.0129983
705.458	0.0131638
705.536	0.0134033
705.614	0.0135458
705.693	0.0135509
705.771	0.0134427
705.849	0.0137742
705.927	0.0136976
706.005	0.0137166
706.083	0.0136392
706.161	0.0136510
706.239	0.0135865
706.318	0.0135784
706.396	0.0134084
706.474	0.0132380
706.552	0.0130450
706.630	0.0129498
706.708	0.0128550
706.786	0.0126254
706.864	0.0124560
706.943	0.0123931
707.021	0.0122162
707.099	0.0121245
707.177	0.0120174
707.255	0.0120222
707.333	0.0119427
707.411	0.0118764
707.489	0.0117345
707.568	0.0118565
707.646	0.0118632
707.724	0.0120533
707.802	0.0121387
707.880	0.0122038
707.958	0.0125272
708.036	0.0127878
708.114	0.0131298
708.193	0.0132964
708.271	0.0134751
708.349	0.0136394
708.427	0.0141923
708.505	0.0141753
708.583	0.0145068
708.661	0.0143679
708.739	0.0145913
708.818	0.0145465
708.896	0.0146949
708.974	0.0147119
709.052	0.0145360
709.130	0.0146764
709.208	0.0146526
709.286	0.0144801
709.364	0.0143401
709.443	0.0140739
709.521	0.0138324
709.599	0.0138104
709.677	0.0135928
709.755	0.0133643
709.833	0.0129068
709.911	0.0128160
709.989	0.0124936
710.068	0.0124638
710.146	0.0122078
710.224	0.0121311
710.302	0.0119559
710.380	0.0117949
710.458	0.0114952
710.536	0.0114685
710.614	0.0116727
710.693	0.0114856
710.771	0.0114270
710.849	0.0114304
710.927	0.0114209
711.005	0.0115504
711.083	0.0116305
711.161	0.0118357
711.239	0.0119175
711.318	0.0120879
711.396	0.0122549
711.474	0.0123327
711.552	0.0126379
711.630	0.0129279
711.708	0.0130141
711.786	0.0132091
711.864	0.0133868
711.943	0.0136520
712.021	0.0135954
712.099	0.0138712
712.177	0.0138351
712.255	0.0140828
712.333	0.0139610
712.411	0.0142471
712.489	0.0139829
712.568	0.0140038
712.646	0.0139049
712.724	0.0138558
712.802	0.0139955
712.880	0.0138069
712.958	0.0136784
713.036	0.0136916
713.114	0.0133825
713.193	0.0131586
713.271	0.0131305
713.349	0.0128378
713.427	0.0127614
713.505	0.0125050
713.583	0.0124470
713.661	0.0125507
713.739	0.0122918
713.818	0.0122117
713.896	0.0123527
713.974	0.0122062
714.052	0.0120716
714.130	0.0122217
714.208	0.0123728
714.286	0.0125663
714.364	0.0125658
714.443	0.0126527
714.521	0.0126444
714.599	0.0127541
714.677	0.0130022
714.755	0.0130194
714.833	0.0131351
714.911	0.0132439
714.989	0.0132605
715.068	0.0134660
715.146	0.0134007
715.224	0.0134377
715.302	0.0136379
715.380	0.0135686
715.458	0.0137237
715.536	0.0137902
715.614	0.0137646
715.693	0.0136712
715.771	0.0136305
715.849	0.0135632
715.927	0.0133310
716.005	0.0131967
716.083	0.0132541
716.161	0.0130785
716.239	0.0128678
716.318	0.0126987
716.396	0.0126318
716.474	0.0125190
716.552	0.0123410
716.630	0.0121565
716.708	0.0122047
716.786	0.0121658
716.864	0.0119740
716.943	0.0121036
717.021	0.0120168
717.099	0.0121784
717.177	0.0123143
717.255	0.0124091
717.333	0.0124270
717.411	0.0126447
717.489	0.0128471
717.568	0.0128340
717.646	0.0129771
717.724	0.0132634
717.802	0.0134662
717.880	0.0134894
717.958	0.0136795
718.036	0.0136298
718.114	0.0137531
718.193	0.0138018
718.271	0.0139607
718.349	0.0139105
718.427	0.0138953
718.505	0.0137738
718.583	0.0137634
718.661	0.0136044
718.739	0.0137637
718.818	0.0135473
718.896	0.0133903
718.974	0.0132187
719.052	0.0132473
719.130	0.0133128
719.208	0.0129868
719.286	0.0128609
719.364	0.0128650
719.443	0.0125883
719.521	0.0124709
719.599	0.0126723
719.677	0.0124518
719.755	0.0124600
719.833	0.0124272
719.911	0.0124297
719.989	0.0124660
720.068	0.0124363
720.146	0.0123599
720.224	0.0125459
720.302	0.0125002
720.380	0.0125012
720.458	0.0126153
720.536	0.0127840
720.614	0.0128876
720.693	0.0128806
720.771	0.0129442
720.849	0.0129868
720.927	0.0130012
721.005	0.0131723
721.083	0.0132739
721.161	0.0133941
721.239	0.0132544
721.318	0.0135387
721.396	0.0134402
721.474	0.0134192
721.552	0.0133837
721.630	0.0134219
721.708	0.0132286
721.786	0.0132010
721.864	0.0131515
721.943	0.0130751
722.021	0.0128219
722.099	0.0126324
722.177	0.0124881
722.255	0.0125672
722.333	0.0124577
722.411	0.0123805
722.489	0.0123151
722.568	0.0121321
722.646	0.0121555
722.724	0.0121067
722.802	0.0121092
722.880	0.0121697
722.958	0.0120625
723.036	0.0121098
723.114	0.0122060
723.193	0.0123092
723.271	0.0125145
723.349	0.0127034
723.427	0.0127361
723.505	0.0128401
723.583	0.0132342
723.661	0.0133138
723.739	0.0133770
723.818	0.0136855
723.896	0.0138013
723.974	0.0139441
724.052	0.0140150
724.130	0.0140488
724.208	0.0141324
724.286	0.0141927
724.364	0.0141338
724.443	0.0142128
724.521	0.0141716
724.599	0.0140253
724.677	0.0140572
724.755	0.0139963
724.833	0.0139129
724.911	0.0138000
724.989	0.0135504
725.068	0.0135280
725.146	0.0132732
725.224	0.0131156
725.302	0.0129491
725.380	0.0126662
725.458	0.0125104
725.536	0.0124493
725.614	0.0123672
