05/07/2022	17:25:47	Ver.	4.1	UNKNOWN
Optical Delay	639.989416	Delta X		0.078125	Sweeps	1	Scan Rate	0/0
Coordinates	Axis 1	NaN	Axis 2	NaN	Axis 3	NaN	Axis 4	NaN	Axis 5	NaN	Axis 6	0.000000
TX Power	0.000000	RX Power	0.000000

639.989	0.0125806
640.068	0.0125429
640.146	0.0126565
640.224	0.0125891
640.302	0.0124802
640.380	0.0125221
640.458	0.0124280
640.536	0.0124271
640.614	0.0125658
640.693	0.0124377
640.771	0.0124198
640.849	0.0125045
640.927	0.0125114
641.005	0.0126152
641.083	0.0124982
641.161	0.0124583
641.239	0.0126001
641.318	0.0125079
641.396	0.0124314
641.474	0.0126752
641.552	0.0126364
641.630	0.0124758
641.708	0.0124966
641.786	0.0125396
641.864	0.0125684
641.943	0.0124596
642.021	0.0124287
642.099	0.0126596
642.177	0.0125880
642.255	0.0125648
642.333	0.0126283
642.411	0.0125614
642.489	0.0125333
642.568	0.0124945
642.646	0.0124822
642.724	0.0125105
642.802	0.0125195
642.880	0.0125633
642.958	0.0126009
643.036	0.0125620
643.114	0.0124660
643.193	0.0124959
643.271	0.0126087
643.349	0.0123764
643.427	0.0125676
643.505	0.0125001
643.583	0.0126689
643.661	0.0126478
643.739	0.0125410
643.818	0.0127210
643.896	0.0125858
643.974	0.0125542
644.052	0.0124524
644.130	0.0125240
644.208	0.0124994
644.286	0.0126765
644.364	0.0127541
644.443	0.0126753
644.521	0.0126447
644.599	0.0125180
644.677	0.0125684
644.755	0.0127223
644.833	0.0126578
644.911	0.0125487
644.989	0.0126754
645.068	0.0126270
645.146	0.0126391
645.224	0.0125360
645.302	0.0125779
645.380	0.0125959
645.458	0.0126029
645.536	0.0126252
645.614	0.0126402
645.693	0.0127120
645.771	0.0125562
645.849	0.0125179
645.927	0.0124644
646.005	0.0125486
646.083	0.0125701
646.161	0.0125866
646.239	0.0126027
646.318	0.0125301
646.396	0.0127151
646.474	0.0126108
646.552	0.0125698
646.630	0.0125936
646.708	0.0127095
646.786	0.0125542
646.864	0.0125388
646.943	0.0127393
647.021	0.0127592
647.099	0.0126270
647.177	0.0126497
647.255	0.0125851
647.333	0.0127441
647.411	0.0125929
647.489	0.0125124
647.568	0.0125930
647.646	0.0127934
647.724	0.0126449
647.802	0.0126412
647.880	0.0127057
647.958	0.0126722
648.036	0.0125394
648.114	0.0126932
648.193	0.0127419
648.271	0.0127060
648.349	0.0127528
648.427	0.0126353
648.505	0.0127560
648.583	0.0127551
648.661	0.0127477
648.739	0.0127002
648.818	0.0127081
648.896	0.0127837
648.974	0.0126808
649.052	0.0126749
649.130	0.0127081
649.208	0.0128168
649.286	0.0127605
649.364	0.0125850
649.443	0.0126644
649.521	0.0126808
649.599	0.0127797
649.677	0.0126620
649.755	0.0127003
649.833	0.0127201
649.911	0.0127271
649.989	0.0127413
650.068	0.0126626
650.146	0.0127026
650.224	0.0127055
650.302	0.0126913
650.380	0.0126107
650.458	0.0127660
650.536	0.0126603
650.614	0.0126879
650.693	0.0127238
650.771	0.0126894
650.849	0.0126651
650.927	0.0126766
651.005	0.0126591
651.083	0.0126925
651.161	0.0126588
651.239	0.0126966
651.318	0.0126289
651.396	0.0125974
651.474	0.0126416
651.552	0.0126430
651.630	0.0125876
651.708	0.0125984
651.786	0.0126778
651.864	0.0127616
651.943	0.0125576
652.021	0.0126293
652.099	0.0127924
652.177	0.0125719
652.255	0.0124492
652.333	0.0126289
652.411	0.0126138
652.489	0.0126176
652.568	0.0126642
652.646	0.0125946
652.724	0.0125697
652.802	0.0126988
652.880	0.0125889
652.958	0.0124233
653.036	0.0126251
653.114	0.0126803
653.193	0.0126717
653.271	0.0126535
653.349	0.0125260
653.427	0.0125770
653.505	0.0126337
653.583	0.0125418
653.661	0.0126748
653.739	0.0125545
653.818	0.0123946
653.896	0.0124891
653.974	0.0125714
654.052	0.0124834
654.130	0.0124516
654.208	0.0124123
654.286	0.0124216
654.364	0.0126865
654.443	0.0126917
654.521	0.0126978
654.599	0.0126461
654.677	0.0126784
654.755	0.0127219
654.833	0.0125508
654.911	0.0127838
654.989	0.0128126
655.068	0.0129237
655.146	0.0127793
655.224	0.0128061
655.302	0.0128960
655.380	0.0128874
655.458	0.0127907
655.536	0.0128284
655.614	0.0128359
655.693	0.0127930
655.771	0.0126963
655.849	0.0126492
655.927	0.0125757
656.005	0.0125061
656.083	0.0123737
656.161	0.0123244
656.239	0.0122851
656.318	0.0122643
656.396	0.0122060
656.474	0.0121941
656.552	0.0120902
656.630	0.0121263
656.708	0.0119770
656.786	0.0121590
656.864	0.0120837
656.943	0.0121999
657.021	0.0123165
657.099	0.0124554
657.177	0.0124570
657.255	0.0127081
657.333	0.0126388
657.411	0.0128297
657.489	0.0129770
657.568	0.0130528
657.646	0.0131017
657.724	0.0130673
657.802	0.0131393
657.880	0.0131599
657.958	0.0132149
658.036	0.0130531
658.114	0.0129921
658.193	0.0129842
658.271	0.0129414
658.349	0.0129351
658.427	0.0126872
658.505	0.0124870
658.583	0.0124881
658.661	0.0122881
658.739	0.0121038
658.818	0.0121299
658.896	0.0120261
658.974	0.0119358
659.052	0.0118768
659.130	0.0118677
659.208	0.0117962
659.286	0.0117620
659.364	0.0116953
659.443	0.0117577
659.521	0.0117864
659.599	0.0118315
659.677	0.0120358
659.755	0.0120595
659.833	0.0121935
659.911	0.0123010
659.989	0.0124630
660.068	0.0124226
660.146	0.0125768
660.224	0.0126385
660.302	0.0128612
660.380	0.0127912
660.458	0.0129439
660.536	0.0131582
660.614	0.0132774
660.693	0.0132718
660.771	0.0132273
660.849	0.0132633
660.927	0.0133602
661.005	0.0132343
661.083	0.0131644
661.161	0.0131845
661.239	0.0132259
661.318	0.0131612
661.396	0.0130719
661.474	0.0128339
661.552	0.0128275
661.630	0.0125786
661.708	0.0124769
661.786	0.0122709
661.864	0.0122645
661.943	0.0121424
662.021	0.0120128
662.099	0.0117840
662.177	0.0116998
662.255	0.0116881
662.333	0.0116595
662.411	0.0114951
662.489	0.0116317
662.568	0.0116504
662.646	0.0116557
662.724	0.0117331
662.802	0.0120049
662.880	0.0119022
662.958	0.0119462
663.036	0.0120951
663.114	0.0123930
663.193	0.0124829
663.271	0.0126205
663.349	0.0128461
663.427	0.0128682
663.505	0.0130165
663.583	0.0131541
663.661	0.0132623
663.739	0.0133704
663.818	0.0133479
663.896	0.0134917
663.974	0.0134113
664.052	0.0134506
664.130	0.0134681
664.208	0.0133296
664.286	0.0133155
664.364	0.0133318
664.443	0.0130503
664.521	0.0128979
664.599	0.0128934
664.677	0.0129919
664.755	0.0126105
664.833	0.0128821
664.911	0.0126087
664.989	0.0125291
665.068	0.0124409
665.146	0.0125269
665.224	0.0123125
665.302	0.0122106
665.380	0.0120803
665.458	0.0121848
665.536	0.0121113
665.614	0.0121788
665.693	0.0121118
665.771	0.0121996
665.849	0.0122377
665.927	0.0123957
666.005	0.0125056
666.083	0.0124016
666.161	0.0125303
666.239	0.0125996
666.318	0.0127652
666.396	0.0127954
666.474	0.0129023
666.552	0.0129044
666.630	0.0130998
666.708	0.0130872
666.786	0.0130052
666.864	0.0132130
666.943	0.0132919
667.021	0.0130621
667.099	0.0131075
667.177	0.0130473
667.255	0.0130920
667.333	0.0128203
667.411	0.0128105
667.489	0.0128069
667.568	0.0126398
667.646	0.0123273
667.724	0.0123956
667.802	0.0123348
667.880	0.0122315
667.958	0.0120076
668.036	0.0122533
668.114	0.0122124
668.193	0.0122246
668.271	0.0121086
668.349	0.0121854
668.427	0.0123220
668.505	0.0122704
668.583	0.0123595
668.661	0.0125965
668.739	0.0125261
668.818	0.0126340
668.896	0.0128312
668.974	0.0128484
669.052	0.0129836
669.130	0.0131377
669.208	0.0132850
669.286	0.0133133
669.364	0.0133860
669.443	0.0135010
669.521	0.0135343
669.599	0.0135918
669.677	0.0136184
669.755	0.0135921
669.833	0.0136424
669.911	0.0134106
669.989	0.0135222
670.068	0.0134538
670.146	0.0132824
670.224	0.0132690
670.302	0.0131372
670.380	0.0130316
670.458	0.0128202
670.536	0.0128219
670.614	0.0127476
670.693	0.0126163
670.771	0.0125372
670.849	0.0123792
670.927	0.0122575
671.005	0.0120142
671.083	0.0119942
671.161	0.0119106
671.239	0.0119044
671.318	0.0117863
671.396	0.0118039
671.474	0.0117723
671.552	0.0118456
671.630	0.0117061
671.708	0.0116632
671.786	0.0114864
671.864	0.0116289
671.943	0.0117776
672.021	0.0117891
672.099	0.0118801
672.177	0.0118962
672.255	0.0118929
672.333	0.0121318
672.411	0.0120702
672.489	0.0121328
672.568	0.0122549
672.646	0.0123709
672.724	0.0123029
672.802	0.0123616
672.880	0.0124383
672.958	0.0124238
673.036	0.0127587
673.114	0.0127604
673.193	0.0128751
673.271	0.0129248
673.349	0.0130121
673.427	0.0130929
673.505	0.0133556
673.583	0.0134057
673.661	0.0134554
673.739	0.0135303
673.818	0.0138976
673.896	0.0139941
673.974	0.0141269
674.052	0.0141611
674.130	0.0144057
674.208	0.0144978
674.286	0.0144160
674.364	0.0145312
674.443	0.0146045
674.521	0.0144875
674.599	0.0143705
674.677	0.0144104
674.755	0.0140306
674.833	0.0139424
674.911	0.0136720
674.989	0.0133704
675.068	0.0131344
675.146	0.0129254
675.224	0.0124848
675.302	0.0122133
675.380	0.0118119
675.458	0.0116415
675.536	0.0113332
675.614	0.0108417
675.693	0.0105499
675.771	0.0103702
675.849	0.0100516
675.927	0.00985191
676.005	0.00970505
676.083	0.00949982
676.161	0.00942703
676.239	0.00944511
676.318	0.00938858
676.396	0.00949532
676.474	0.00970222
676.552	0.00995056
676.630	0.0103444
676.708	0.0106530
676.786	0.0110846
676.864	0.0113714
676.943	0.0116772
677.021	0.0122258
677.099	0.0127618
677.177	0.0131235
677.255	0.0134658
677.333	0.0139287
677.411	0.0142123
677.489	0.0144775
677.568	0.0148399
677.646	0.0150626
677.724	0.0152574
677.802	0.0153896
677.880	0.0155247
677.958	0.0156775
678.036	0.0156799
678.114	0.0155749
678.193	0.0155056
678.271	0.0154025
678.349	0.0151389
678.427	0.0150517
678.505	0.0147628
678.583	0.0145580
678.661	0.0141622
678.739	0.0140830
678.818	0.0136634
678.896	0.0132971
678.974	0.0129707
679.052	0.0126604
679.130	0.0122684
679.208	0.0119587
679.286	0.0116888
679.364	0.0114800
679.443	0.0113435
679.521	0.0111301
679.599	0.0108514
679.677	0.0107525
679.755	0.0106812
679.833	0.0104771
679.911	0.0106378
679.989	0.0106507
680.068	0.0105501
680.146	0.0104620
680.224	0.0104612
680.302	0.0106693
680.380	0.0105814
680.458	0.0106945
680.536	0.0107730
680.614	0.0108656
680.693	0.0109067
680.771	0.0109790
680.849	0.0111456
680.927	0.0110762
681.005	0.0110963
681.083	0.0111815
681.161	0.0114362
681.239	0.0116341
681.318	0.0117158
681.396	0.0119243
681.474	0.0121360
681.552	0.0122720
681.630	0.0123912
681.708	0.0127081
681.786	0.0130341
681.864	0.0132225
681.943	0.0134600
682.021	0.0135345
682.099	0.0139067
682.177	0.0140198
682.255	0.0142275
682.333	0.0143708
682.411	0.0144673
682.489	0.0145496
682.568	0.0145712
682.646	0.0145277
682.724	0.0144987
682.802	0.0143219
682.880	0.0142025
682.958	0.0142381
683.036	0.0141005
683.114	0.0139545
683.193	0.0138187
683.271	0.0138131
683.349	0.0136684
683.427	0.0136335
683.505	0.0135577
683.583	0.0134296
683.661	0.0133895
683.739	0.0132530
683.818	0.0131863
683.896	0.0131565
683.974	0.0128510
684.052	0.0126584
684.130	0.0125803
684.208	0.0124549
684.286	0.0122423
684.364	0.0120956
684.443	0.0120492
684.521	0.0118186
684.599	0.0117066
684.677	0.0114609
684.755	0.0116073
684.833	0.0115306
684.911	0.0115088
684.989	0.0113692
685.068	0.0112492
685.146	0.0111953
685.224	0.0112643
685.302	0.0112424
685.380	0.0111416
685.458	0.0110935
685.536	0.0110577
685.614	0.0109039
685.693	0.0109026
685.771	0.0110353
685.849	0.0110172
685.927	0.0110840
686.005	0.0111021
686.083	0.0110610
686.161	0.0110886
686.239	0.0112214
686.318	0.0113847
686.396	0.0114285
686.474	0.0116474
686.552	0.0115800
686.630	0.0117525
686.708	0.0118389
686.786	0.0119710
686.864	0.0121119
686.943	0.0124969
687.021	0.0126224
687.099	0.0128130
687.177	0.0130528
687.255	0.0131337
687.333	0.0134264
687.411	0.0137328
687.489	0.0139461
687.568	0.0141345
687.646	0.0144289
687.724	0.0147089
687.802	0.0149691
687.880	0.0150021
687.958	0.0152063
688.036	0.0152592
688.114	0.0154393
688.193	0.0155425
688.271	0.0153574
688.349	0.0152960
688.427	0.0154863
688.505	0.0152415
688.583	0.0151543
688.661	0.0149029
688.739	0.0147755
688.818	0.0146123
688.896	0.0143018
688.974	0.0140746
689.052	0.0139694
689.130	0.0133455
689.208	0.0132632
689.286	0.0129079
689.364	0.0124307
689.443	0.0120815
689.521	0.0116314
689.599	0.0113970
689.677	0.0110315
689.755	0.0107230
689.833	0.0103321
689.911	0.00992744
689.989	0.00979790
690.068	0.00965324
690.146	0.00948799
690.224	0.00940765
690.302	0.00926559
690.380	0.00943771
690.458	0.00948616
690.536	0.00959625
690.614	0.00952171
690.693	0.00957382
690.771	0.00985046
690.849	0.0103082
690.927	0.0105131
691.005	0.0107141
691.083	0.0109200
691.161	0.0112527
691.239	0.0115113
691.318	0.0120178
691.396	0.0122274
691.474	0.0124760
691.552	0.0128242
691.630	0.0130688
691.708	0.0133463
691.786	0.0135809
691.864	0.0138501
691.943	0.0140759
692.021	0.0140878
692.099	0.0142769
692.177	0.0141835
692.255	0.0143388
692.333	0.0142728
692.411	0.0141976
692.489	0.0142522
692.568	0.0144124
692.646	0.0142880
692.724	0.0143922
692.802	0.0144896
692.880	0.0143918
692.958	0.0143119
693.036	0.0145390
693.114	0.0144983
693.193	0.0144684
693.271	0.0145885
693.349	0.0145993
693.427	0.0145063
693.505	0.0143925
693.583	0.0143448
693.661	0.0143600
693.739	0.0143897
693.818	0.0142789
693.896	0.0141809
693.974	0.0137653
694.052	0.0136018
694.130	0.0135095
694.208	0.0133158
694.286	0.0131110
694.364	0.0127370
694.443	0.0125164
694.521	0.0123175
694.599	0.0119627
694.677	0.0117458
694.755	0.0114861
694.833	0.0113151
694.911	0.0110117
694.989	0.0108031
695.068	0.0106458
695.146	0.0103609
695.224	0.0101706
695.302	0.00997620
695.380	0.00973198
695.458	0.00971970
695.536	0.00969070
695.614	0.00946037
695.693	0.00952293
695.771	0.00965828
695.849	0.00955330
695.927	0.00970901
696.005	0.00977905
696.083	0.0100094
696.161	0.0102364
696.239	0.0104671
696.318	0.0107156
696.396	0.0109521
696.474	0.0114108
696.552	0.0116985
696.630	0.0119754
696.708	0.0124170
696.786	0.0127301
696.864	0.0131093
696.943	0.0134559
697.021	0.0138450
697.099	0.0143008
697.177	0.0144878
697.255	0.0147843
697.333	0.0150311
697.411	0.0152752
697.489	0.0155428
697.568	0.0157207
697.646	0.0157829
697.724	0.0158130
697.802	0.0157545
697.880	0.0157991
697.958	0.0157666
698.036	0.0155679
698.114	0.0154567
698.193	0.0152843
698.271	0.0150526
698.349	0.0147536
698.427	0.0146691
698.505	0.0145432
698.583	0.0142598
698.661	0.0139792
698.739	0.0137949
698.818	0.0135720
698.896	0.0133557
698.974	0.0131483
699.052	0.0129211
699.130	0.0126708
699.208	0.0124889
699.286	0.0122238
699.364	0.0118879
699.443	0.0116755
699.521	0.0114191
699.599	0.0110981
699.677	0.0108392
699.755	0.0107601
699.833	0.0105501
699.911	0.0102551
699.989	0.0102200
700.068	0.0102352
700.146	0.0101441
700.224	0.0100779
700.302	0.0100759
700.380	0.0102985
700.458	0.0100751
700.536	0.0101089
700.614	0.0102212
700.693	0.0104918
700.771	0.0104590
700.849	0.0104856
700.927	0.0106783
701.005	0.0108490
701.083	0.0109590
701.161	0.0110911
701.239	0.0113442
701.318	0.0115480
701.396	0.0118233
701.474	0.0120610
701.552	0.0121018
701.630	0.0125092
701.708	0.0127351
701.786	0.0129585
701.864	0.0132274
701.943	0.0135040
702.021	0.0135490
702.099	0.0138965
702.177	0.0142076
702.255	0.0141556
702.333	0.0144343
702.411	0.0146583
702.489	0.0147953
702.568	0.0148628
702.646	0.0151884
702.724	0.0149799
702.802	0.0148937
702.880	0.0150451
702.958	0.0150229
703.036	0.0146676
703.114	0.0146454
703.193	0.0145599
703.271	0.0142390
703.349	0.0140878
703.427	0.0139161
703.505	0.0136250
703.583	0.0132272
703.661	0.0130103
703.739	0.0126749
703.818	0.0124001
703.896	0.0120368
703.974	0.0117222
704.052	0.0115174
704.130	0.0113142
704.208	0.0111476
704.286	0.0111784
704.364	0.0110670
704.443	0.0108695
704.521	0.0109283
704.599	0.0108801
704.677	0.0109808
704.755	0.0110085
704.833	0.0113271
704.911	0.0113694
704.989	0.0115305
705.068	0.0116434
705.146	0.0118573
705.224	0.0121967
705.302	0.0122785
705.380	0.0124342
705.458	0.0124972
705.536	0.0126627
705.614	0.0129337
705.693	0.0130406
705.771	0.0130949
705.849	0.0132042
705.927	0.0132366
706.005	0.0134076
706.083	0.0133235
706.161	0.0132654
706.239	0.0133091
706.318	0.0130972
706.396	0.0131174
706.474	0.0129613
706.552	0.0128866
706.630	0.0127896
706.708	0.0126968
706.786	0.0124725
706.864	0.0123211
706.943	0.0122816
707.021	0.0121406
707.099	0.0118056
707.177	0.0117121
707.255	0.0118164
707.333	0.0117009
707.411	0.0115003
707.489	0.0115380
707.568	0.0115388
707.646	0.0113680
707.724	0.0115149
707.802	0.0116916
707.880	0.0117223
707.958	0.0118665
708.036	0.0120631
708.114	0.0123586
708.193	0.0125647
708.271	0.0126587
708.349	0.0129105
708.427	0.0131165
708.505	0.0135422
708.583	0.0137208
708.661	0.0139139
708.739	0.0139280
708.818	0.0141561
708.896	0.0142216
708.974	0.0141778
709.052	0.0142789
709.130	0.0142618
709.208	0.0140781
709.286	0.0139722
709.364	0.0140568
709.443	0.0138805
709.521	0.0137042
709.599	0.0135913
709.677	0.0133385
709.755	0.0131393
709.833	0.0128399
709.911	0.0126686
709.989	0.0124614
710.068	0.0122885
710.146	0.0121294
710.224	0.0118525
710.302	0.0117894
710.380	0.0117607
710.458	0.0114491
710.536	0.0113277
710.614	0.0112067
710.693	0.0113282
710.771	0.0110966
710.849	0.0111134
710.927	0.0110662
711.005	0.0109835
711.083	0.0110818
711.161	0.0113236
711.239	0.0113372
711.318	0.0113457
711.396	0.0114647
711.474	0.0116802
711.552	0.0117673
711.630	0.0121387
711.708	0.0123508
711.786	0.0124542
711.864	0.0126336
711.943	0.0127408
712.021	0.0128227
712.099	0.0131211
712.177	0.0131967
712.255	0.0133192
712.333	0.0132914
712.411	0.0134834
712.489	0.0133443
712.568	0.0134651
712.646	0.0136696
712.724	0.0135591
712.802	0.0135660
712.880	0.0133739
712.958	0.0135104
713.036	0.0132310
713.114	0.0132394
713.193	0.0131168
713.271	0.0130129
713.349	0.0127881
713.427	0.0125697
713.505	0.0125333
713.583	0.0124854
713.661	0.0123363
713.739	0.0122536
713.818	0.0121482
713.896	0.0121987
713.974	0.0121094
714.052	0.0120892
714.130	0.0121844
714.208	0.0123432
714.286	0.0123126
714.364	0.0122505
714.443	0.0124183
714.521	0.0124247
714.599	0.0124109
714.677	0.0123472
714.755	0.0126831
714.833	0.0124945
714.911	0.0125387
714.989	0.0126770
715.068	0.0127621
715.146	0.0127612
715.224	0.0127232
715.302	0.0129211
715.380	0.0129355
715.458	0.0130696
715.536	0.0130679
715.614	0.0129931
715.693	0.0130164
715.771	0.0130006
715.849	0.0128123
715.927	0.0128341
716.005	0.0127638
716.083	0.0126495
716.161	0.0126012
716.239	0.0125972
716.318	0.0122421
716.396	0.0122506
716.474	0.0120554
716.552	0.0120172
716.630	0.0119541
716.708	0.0117960
716.786	0.0117047
716.864	0.0119414
716.943	0.0118005
717.021	0.0117616
717.099	0.0117914
717.177	0.0119478
717.255	0.0119189
717.333	0.0119460
717.411	0.0121744
717.489	0.0122533
717.568	0.0124918
717.646	0.0125701
717.724	0.0125877
717.802	0.0127811
717.880	0.0128650
717.958	0.0131201
718.036	0.0131386
718.114	0.0131037
718.193	0.0130835
718.271	0.0134062
718.349	0.0133919
718.427	0.0132725
718.505	0.0133239
718.583	0.0134331
718.661	0.0132415
718.739	0.0130399
718.818	0.0131309
718.896	0.0131678
718.974	0.0129931
719.052	0.0128764
719.130	0.0128113
719.208	0.0124858
719.286	0.0124436
719.364	0.0124126
719.443	0.0122557
719.521	0.0122861
719.599	0.0122118
719.677	0.0120766
719.755	0.0120505
719.833	0.0120527
719.911	0.0120534
719.989	0.0119517
720.068	0.0120365
720.146	0.0121533
720.224	0.0120244
720.302	0.0120741
720.380	0.0122952
720.458	0.0123534
720.536	0.0124275
720.614	0.0124335
720.693	0.0125689
720.771	0.0126409
720.849	0.0127883
720.927	0.0129227
721.005	0.0128394
721.083	0.0129945
721.161	0.0129663
721.239	0.0130879
721.318	0.0129422
721.396	0.0131962
721.474	0.0130772
721.552	0.0130607
721.630	0.0131752
721.708	0.0130847
721.786	0.0128648
721.864	0.0127487
721.943	0.0128548
722.021	0.0126246
722.099	0.0125151
722.177	0.0124895
722.255	0.0122361
722.333	0.0120587
722.411	0.0120284
722.489	0.0120499
722.568	0.0117988
722.646	0.0117595
722.724	0.0117701
722.802	0.0117466
722.880	0.0118387
722.958	0.0119917
723.036	0.0118312
723.114	0.0120190
723.193	0.0119338
723.271	0.0120461
723.349	0.0121785
723.427	0.0123397
723.505	0.0123705
723.583	0.0125856
723.661	0.0128500
723.739	0.0129166
723.818	0.0129089
723.896	0.0130374
723.974	0.0131981
724.052	0.0133183
724.130	0.0135246
724.208	0.0135943
724.286	0.0135494
724.364	0.0136415
724.443	0.0137325
724.521	0.0137162
724.599	0.0136491
724.677	0.0137242
724.755	0.0134918
724.833	0.0135609
724.911	0.0134299
724.989	0.0132455
725.068	0.0131440
725.146	0.0130598
725.224	0.0128114
725.302	0.0127905
725.380	0.0127030
725.458	0.0124502
725.536	0.0124449
725.614	0.0122233
