05/07/2022	17:27:02	Ver.	4.1	UNKNOWN
Optical Delay	639.989416	Delta X		0.078125	Sweeps	1	Scan Rate	0/0
Coordinates	Axis 1	NaN	Axis 2	NaN	Axis 3	NaN	Axis 4	NaN	Axis 5	NaN	Axis 6	0.000000
TX Power	0.000000	RX Power	0.000000

639.989	0.0126779
640.068	0.0127876
640.146	0.0126651
640.224	0.0126693
640.302	0.0126279
640.380	0.0125032
640.458	0.0126482
640.536	0.0126311
640.614	0.0126999
640.693	0.0126193
640.771	0.0125691
640.849	0.0126522
640.927	0.0126791
641.005	0.0126537
641.083	0.0128030
641.161	0.0126998
641.239	0.0126274
641.318	0.0128043
641.396	0.0127060
641.474	0.0127969
641.552	0.0128807
641.630	0.0127459
641.708	0.0128012
641.786	0.0127249
641.864	0.0126781
641.943	0.0128221
642.021	0.0127230
642.099	0.0127251
642.177	0.0128245
642.255	0.0127593
642.333	0.0126991
642.411	0.0128624
642.489	0.0128094
642.568	0.0127840
642.646	0.0127515
642.724	0.0128973
642.802	0.0128007
642.880	0.0127341
642.958	0.0128641
643.036	0.0129262
643.114	0.0128409
643.193	0.0127613
643.271	0.0128124
643.349	0.0128186
643.427	0.0128024
643.505	0.0128515
643.583	0.0127878
643.661	0.0126295
643.739	0.0127131
643.818	0.0127763
643.896	0.0128910
643.974	0.0127583
644.052	0.0126540
644.130	0.0125508
644.208	0.0125677
644.286	0.0127383
644.364	0.0128799
644.443	0.0125951
644.521	0.0126882
644.599	0.0127153
644.677	0.0127997
644.755	0.0126727
644.833	0.0128388
644.911	0.0127039
644.989	0.0127009
645.068	0.0127426
645.146	0.0127187
645.224	0.0127690
645.302	0.0128113
645.380	0.0127943
645.458	0.0129052
645.536	0.0127534
645.614	0.0127908
645.693	0.0126893
645.771	0.0126267
645.849	0.0127750
645.927	0.0128835
646.005	0.0129147
646.083	0.0126758
646.161	0.0126805
646.239	0.0127925
646.318	0.0128994
646.396	0.0126162
646.474	0.0126299
646.552	0.0126694
646.630	0.0126501
646.708	0.0126495
646.786	0.0126090
646.864	0.0126328
646.943	0.0127816
647.021	0.0125633
647.099	0.0126678
647.177	0.0126045
647.255	0.0126186
647.333	0.0125366
647.411	0.0125837
647.489	0.0125902
647.568	0.0125927
647.646	0.0125225
647.724	0.0126064
647.802	0.0127316
647.880	0.0125444
647.958	0.0125850
648.036	0.0127052
648.114	0.0125777
648.193	0.0126070
648.271	0.0125832
648.349	0.0124706
648.427	0.0126078
648.505	0.0125480
648.583	0.0126945
648.661	0.0125874
648.739	0.0126814
648.818	0.0126412
648.896	0.0126970
648.974	0.0128114
649.052	0.0125649
649.130	0.0126002
649.208	0.0126559
649.286	0.0126447
649.364	0.0126076
649.443	0.0125640
649.521	0.0125681
649.599	0.0127850
649.677	0.0126984
649.755	0.0127571
649.833	0.0125575
649.911	0.0126527
649.989	0.0126407
650.068	0.0127124
650.146	0.0127713
650.224	0.0126062
650.302	0.0127115
650.380	0.0126384
650.458	0.0127666
650.536	0.0128314
650.614	0.0126672
650.693	0.0128185
650.771	0.0127260
650.849	0.0128415
650.927	0.0127626
651.005	0.0128033
651.083	0.0126477
651.161	0.0127955
651.239	0.0128277
651.318	0.0126302
651.396	0.0125475
651.474	0.0125452
651.552	0.0127292
651.630	0.0126473
651.708	0.0125724
651.786	0.0126532
651.864	0.0127650
651.943	0.0126959
652.021	0.0126403
652.099	0.0125498
652.177	0.0125330
652.255	0.0125938
652.333	0.0126660
652.411	0.0128247
652.489	0.0126984
652.568	0.0126504
652.646	0.0127847
652.724	0.0127830
652.802	0.0127927
652.880	0.0128952
652.958	0.0130576
653.036	0.0128035
653.114	0.0128962
653.193	0.0128721
653.271	0.0129758
653.349	0.0127206
653.427	0.0129036
653.505	0.0127235
653.583	0.0128070
653.661	0.0126954
653.739	0.0126643
653.818	0.0125976
653.896	0.0124896
653.974	0.0125453
654.052	0.0124934
654.130	0.0123508
654.208	0.0123519
654.286	0.0122767
654.364	0.0123936
654.443	0.0122337
654.521	0.0122409
654.599	0.0124355
654.677	0.0123482
654.755	0.0123336
654.833	0.0124419
654.911	0.0123105
654.989	0.0125930
655.068	0.0127357
655.146	0.0128418
655.224	0.0129128
655.302	0.0130112
655.380	0.0129952
655.458	0.0130198
655.536	0.0131931
655.614	0.0133968
655.693	0.0131955
655.771	0.0134000
655.849	0.0132638
655.927	0.0132969
656.005	0.0129575
656.083	0.0129104
656.161	0.0129834
656.239	0.0128562
656.318	0.0129005
656.396	0.0127482
656.474	0.0126466
656.552	0.0123491
656.630	0.0121809
656.708	0.0122895
656.786	0.0121758
656.864	0.0120967
656.943	0.0120633
657.021	0.0119366
657.099	0.0119054
657.177	0.0117643
657.255	0.0119261
657.333	0.0120042
657.411	0.0119938
657.489	0.0119445
657.568	0.0121219
657.646	0.0122250
657.724	0.0123483
657.802	0.0125336
657.880	0.0126981
657.958	0.0129245
658.036	0.0130550
658.114	0.0130449
658.193	0.0131669
658.271	0.0134190
658.349	0.0133080
658.427	0.0134922
658.505	0.0136847
658.583	0.0136727
658.661	0.0138237
658.739	0.0137503
658.818	0.0136559
658.896	0.0136411
658.974	0.0136251
659.052	0.0135738
659.130	0.0135810
659.208	0.0133433
659.286	0.0130856
659.364	0.0129883
659.443	0.0128221
659.521	0.0127137
659.599	0.0125736
659.677	0.0123972
659.755	0.0122278
659.833	0.0121369
659.911	0.0119984
659.989	0.0118201
660.068	0.0118794
660.146	0.0117857
660.224	0.0117984
660.302	0.0116196
660.380	0.0117043
660.458	0.0116525
660.536	0.0118603
660.614	0.0120808
660.693	0.0119219
660.771	0.0120885
660.849	0.0122534
660.927	0.0123943
661.005	0.0126813
661.083	0.0127278
661.161	0.0129747
661.239	0.0130354
661.318	0.0131356
661.396	0.0133391
661.474	0.0133181
661.552	0.0134451
661.630	0.0136192
661.708	0.0135030
661.786	0.0135852
661.864	0.0136775
661.943	0.0136658
662.021	0.0138962
662.099	0.0137274
662.177	0.0134837
662.255	0.0135347
662.333	0.0134171
662.411	0.0134663
662.489	0.0133387
662.568	0.0131190
662.646	0.0129053
662.724	0.0130037
662.802	0.0126110
662.880	0.0125640
662.958	0.0125574
663.036	0.0124356
663.114	0.0124918
663.193	0.0122773
663.271	0.0123230
663.349	0.0121837
663.427	0.0120957
663.505	0.0121805
663.583	0.0120705
663.661	0.0120492
663.739	0.0121016
663.818	0.0119396
663.896	0.0120256
663.974	0.0120100
664.052	0.0119841
664.130	0.0120807
664.208	0.0121018
664.286	0.0122109
664.364	0.0122437
664.443	0.0123350
664.521	0.0123479
664.599	0.0125826
664.677	0.0126035
664.755	0.0127984
664.833	0.0129002
664.911	0.0129574
664.989	0.0130457
665.068	0.0132518
665.146	0.0132014
665.224	0.0131469
665.302	0.0132048
665.380	0.0131913
665.458	0.0130698
665.536	0.0131301
665.614	0.0128963
665.693	0.0129075
665.771	0.0128785
665.849	0.0129209
665.927	0.0128857
666.005	0.0127271
666.083	0.0126664
666.161	0.0126430
666.239	0.0126556
666.318	0.0127507
666.396	0.0127077
666.474	0.0127328
666.552	0.0127566
666.630	0.0128204
666.708	0.0127435
666.786	0.0128290
666.864	0.0127489
666.943	0.0128263
667.021	0.0127547
667.099	0.0128998
667.177	0.0127088
667.255	0.0127889
667.333	0.0127874
667.411	0.0128138
667.489	0.0128482
667.568	0.0127814
667.646	0.0128117
667.724	0.0127655
667.802	0.0126344
667.880	0.0126059
667.958	0.0126003
668.036	0.0126360
668.114	0.0125040
668.193	0.0124236
668.271	0.0124756
668.349	0.0123890
668.427	0.0125443
668.505	0.0123756
668.583	0.0124853
668.661	0.0123779
668.739	0.0123788
668.818	0.0124864
668.896	0.0124657
668.974	0.0123643
669.052	0.0124064
669.130	0.0124933
669.208	0.0124396
669.286	0.0124936
669.364	0.0125376
669.443	0.0124004
669.521	0.0125776
669.599	0.0124773
669.677	0.0124265
669.755	0.0125053
669.833	0.0124444
669.911	0.0125214
669.989	0.0127010
670.068	0.0125732
670.146	0.0124046
670.224	0.0126070
670.302	0.0126134
670.380	0.0127026
670.458	0.0125758
670.536	0.0124893
670.614	0.0125181
670.693	0.0124924
670.771	0.0125537
670.849	0.0125272
670.927	0.0124332
671.005	0.0125174
671.083	0.0125507
671.161	0.0127438
671.239	0.0127358
671.318	0.0127761
671.396	0.0127935
671.474	0.0129626
671.552	0.0130182
671.630	0.0129844
671.708	0.0131507
671.786	0.0132332
671.864	0.0133349
671.943	0.0134600
672.021	0.0133270
672.099	0.0135383
672.177	0.0136055
672.255	0.0135350
672.333	0.0135079
672.411	0.0136086
672.489	0.0135841
672.568	0.0134931
672.646	0.0134778
672.724	0.0134685
672.802	0.0132792
672.880	0.0131511
672.958	0.0130538
673.036	0.0130166
673.114	0.0128297
673.193	0.0126967
673.271	0.0125186
673.349	0.0123114
673.427	0.0122238
673.505	0.0119922
673.583	0.0117481
673.661	0.0116926
673.739	0.0113571
673.818	0.0112443
673.896	0.0111890
673.974	0.0111082
674.052	0.0110301
674.130	0.0110767
674.208	0.0110530
674.286	0.0111819
674.364	0.0111346
674.443	0.0114243
674.521	0.0113777
674.599	0.0114996
674.677	0.0116667
674.755	0.0117995
674.833	0.0121614
674.911	0.0121327
674.989	0.0124696
675.068	0.0128597
675.146	0.0129546
675.224	0.0132463
675.302	0.0134283
675.380	0.0134766
675.458	0.0136270
675.536	0.0136700
675.614	0.0139602
675.693	0.0140849
675.771	0.0141133
675.849	0.0143871
675.927	0.0143238
676.005	0.0144098
676.083	0.0144547
676.161	0.0145501
676.239	0.0144231
676.318	0.0143322
676.396	0.0144442
676.474	0.0143404
676.552	0.0142516
676.630	0.0141883
676.708	0.0140374
676.786	0.0139290
676.864	0.0137039
676.943	0.0137519
677.021	0.0135609
677.099	0.0132846
677.177	0.0130580
677.255	0.0129695
677.333	0.0128233
677.411	0.0126279
677.489	0.0124538
677.568	0.0123447
677.646	0.0121235
677.724	0.0117988
677.802	0.0115947
677.880	0.0114236
677.958	0.0113260
678.036	0.0111589
678.114	0.0110383
678.193	0.0108260
678.271	0.0108382
678.349	0.0107316
678.427	0.0105952
678.505	0.0104312
678.583	0.0103346
678.661	0.0104700
678.739	0.0104938
678.818	0.0103213
678.896	0.0104208
678.974	0.0107121
679.052	0.0108677
679.130	0.0110303
679.208	0.0112153
679.286	0.0116322
679.364	0.0118724
679.443	0.0121523
679.521	0.0125088
679.599	0.0128441
679.677	0.0131617
679.755	0.0135643
679.833	0.0138203
679.911	0.0140745
679.989	0.0144839
680.068	0.0147801
680.146	0.0149142
680.224	0.0150358
680.302	0.0152322
680.380	0.0152070
680.458	0.0152219
680.536	0.0152672
680.614	0.0150816
680.693	0.0148988
680.771	0.0148050
680.849	0.0144807
680.927	0.0143307
681.005	0.0140871
681.083	0.0137527
681.161	0.0134792
681.239	0.0132354
681.318	0.0129768
681.396	0.0129745
681.474	0.0127769
681.552	0.0126331
681.630	0.0125517
681.708	0.0123663
681.786	0.0123302
681.864	0.0122978
681.943	0.0122480
682.021	0.0123140
682.099	0.0122519
682.177	0.0121941
682.255	0.0123047
682.333	0.0123222
682.411	0.0124290
682.489	0.0125228
682.568	0.0124242
682.646	0.0123481
682.724	0.0122900
682.802	0.0123994
682.880	0.0123486
682.958	0.0121108
683.036	0.0121697
683.114	0.0119048
683.193	0.0118804
683.271	0.0118518
683.349	0.0117390
683.427	0.0114716
683.505	0.0115300
683.583	0.0113895
683.661	0.0112595
683.739	0.0112116
683.818	0.0111514
683.896	0.0111174
683.974	0.0111182
684.052	0.0112737
684.130	0.0112671
684.208	0.0113614
684.286	0.0113780
684.364	0.0115025
684.443	0.0115349
684.521	0.0115687
684.599	0.0117989
684.677	0.0120686
684.755	0.0122005
684.833	0.0124883
684.911	0.0128355
684.989	0.0129852
685.068	0.0132651
685.146	0.0136279
685.224	0.0139719
685.302	0.0141919
685.380	0.0143218
685.458	0.0146876
685.536	0.0147498
685.614	0.0150955
685.693	0.0150645
685.771	0.0150739
685.849	0.0150647
685.927	0.0151959
686.005	0.0152124
686.083	0.0150566
686.161	0.0149969
686.239	0.0150036
686.318	0.0147253
686.396	0.0147469
686.474	0.0144895
686.552	0.0142259
686.630	0.0139331
686.708	0.0138316
686.786	0.0134814
686.864	0.0132042
686.943	0.0129200
687.021	0.0126313
687.099	0.0124538
687.177	0.0121370
687.255	0.0119640
687.333	0.0116831
687.411	0.0114463
687.489	0.0114220
687.568	0.0111572
687.646	0.0109473
687.724	0.0108472
687.802	0.0106633
687.880	0.0107278
687.958	0.0106852
688.036	0.0106166
688.114	0.0109401
688.193	0.0109992
688.271	0.0109288
688.349	0.0110536
688.427	0.0113788
688.505	0.0114271
688.583	0.0116242
688.661	0.0115938
688.739	0.0115726
688.818	0.0117745
688.896	0.0118227
688.974	0.0118261
689.052	0.0118709
689.130	0.0118437
689.208	0.0118871
689.286	0.0120528
689.364	0.0120690
689.443	0.0120377
689.521	0.0121766
689.599	0.0123112
689.677	0.0122567
689.755	0.0122458
689.833	0.0124117
689.911	0.0125330
689.989	0.0126154
690.068	0.0125761
690.146	0.0128354
690.224	0.0127971
690.302	0.0128329
690.380	0.0130421
690.458	0.0131556
690.536	0.0133678
690.614	0.0134653
690.693	0.0135722
690.771	0.0138139
690.849	0.0139223
690.927	0.0140430
691.005	0.0141885
691.083	0.0143678
691.161	0.0143743
691.239	0.0146094
691.318	0.0146606
691.396	0.0147131
691.474	0.0146951
691.552	0.0146674
691.630	0.0144551
691.708	0.0145665
691.786	0.0145358
691.864	0.0142395
691.943	0.0142356
692.021	0.0140498
692.099	0.0139132
692.177	0.0137366
692.255	0.0134888
692.333	0.0136080
692.411	0.0132709
692.489	0.0131226
692.568	0.0128716
692.646	0.0127603
692.724	0.0125901
692.802	0.0122590
692.880	0.0121826
692.958	0.0119233
693.036	0.0118545
693.114	0.0116913
693.193	0.0116010
693.271	0.0113053
693.349	0.0111725
693.427	0.0110046
693.505	0.0109081
693.583	0.0108191
693.661	0.0106799
693.739	0.0105730
693.818	0.0104127
693.896	0.0104596
693.974	0.0103734
694.052	0.0103910
694.130	0.0102490
694.208	0.0103069
694.286	0.0103278
694.364	0.0102974
694.443	0.0105325
694.521	0.0106503
694.599	0.0105512
694.677	0.0107915
694.755	0.0110069
694.833	0.0111467
694.911	0.0113554
694.989	0.0115277
695.068	0.0118350
695.146	0.0119354
695.224	0.0121167
695.302	0.0124863
695.380	0.0126750
695.458	0.0129750
695.536	0.0131578
695.614	0.0134867
695.693	0.0136984
695.771	0.0139770
695.849	0.0143497
695.927	0.0144627
696.005	0.0145607
696.083	0.0149068
696.161	0.0151730
696.239	0.0154105
696.318	0.0155025
696.396	0.0156731
696.474	0.0158480
696.552	0.0159384
696.630	0.0160122
696.708	0.0159895
696.786	0.0159512
696.864	0.0158627
696.943	0.0157220
697.021	0.0155260
697.099	0.0155354
697.177	0.0152932
697.255	0.0151085
697.333	0.0147025
697.411	0.0143721
697.489	0.0141674
697.568	0.0137990
697.646	0.0134215
697.724	0.0131961
697.802	0.0128278
697.880	0.0122208
697.958	0.0120673
698.036	0.0118100
698.114	0.0114107
698.193	0.0109663
698.271	0.0108951
698.349	0.0104194
698.427	0.0103551
698.505	0.0102599
698.583	0.00992165
698.661	0.00982704
698.739	0.00960358
698.818	0.00950531
698.896	0.00919487
698.974	0.00936005
699.052	0.00917244
699.130	0.00916588
699.208	0.00914993
699.286	0.00906708
699.364	0.00919785
699.443	0.00930763
699.521	0.00955048
699.599	0.00951477
699.677	0.00961479
699.755	0.00996834
699.833	0.0103753
699.911	0.0107212
699.989	0.0110732
700.068	0.0113089
700.146	0.0119175
700.224	0.0125018
700.302	0.0128266
700.380	0.0131468
700.458	0.0138735
700.536	0.0142903
700.614	0.0147984
700.693	0.0151920
700.771	0.0155894
700.849	0.0158381
700.927	0.0161430
701.005	0.0162864
701.083	0.0164371
701.161	0.0166080
701.239	0.0164706
701.318	0.0164265
701.396	0.0163483
701.474	0.0162360
701.552	0.0158762
701.630	0.0156496
701.708	0.0154229
701.786	0.0149679
701.864	0.0146366
701.943	0.0145567
702.021	0.0142722
702.099	0.0139316
702.177	0.0136307
702.255	0.0133712
702.333	0.0132088
702.411	0.0130923
702.489	0.0129856
702.568	0.0127499
702.646	0.0126971
702.724	0.0124689
702.802	0.0125572
702.880	0.0124051
702.958	0.0122403
703.036	0.0120166
703.114	0.0121301
703.193	0.0118666
703.271	0.0116042
703.349	0.0116603
703.427	0.0116474
703.505	0.0114049
703.583	0.0111836
703.661	0.0109995
703.739	0.0110117
703.818	0.0108418
703.896	0.0109794
703.974	0.0109057
704.052	0.0109114
704.130	0.0107571
704.208	0.0107255
704.286	0.0106418
704.364	0.0107659
704.443	0.0108381
704.521	0.0109280
704.599	0.0109603
704.677	0.0109678
704.755	0.0110870
704.833	0.0110776
704.911	0.0111264
704.989	0.0114643
705.068	0.0113937
705.146	0.0115061
705.224	0.0116982
705.302	0.0118923
705.380	0.0120481
705.458	0.0122476
705.536	0.0125449
705.614	0.0127471
705.693	0.0129915
705.771	0.0132389
705.849	0.0135818
705.927	0.0137809
706.005	0.0139210
706.083	0.0141778
706.161	0.0144659
706.239	0.0146071
706.318	0.0147443
706.396	0.0149652
706.474	0.0150542
706.552	0.0150323
706.630	0.0150545
706.708	0.0150180
706.786	0.0148363
706.864	0.0149030
706.943	0.0147706
707.021	0.0146326
707.099	0.0144516
707.177	0.0142849
707.255	0.0142386
707.333	0.0138169
707.411	0.0135796
707.489	0.0135071
707.568	0.0132219
707.646	0.0131609
707.724	0.0130076
707.802	0.0129732
707.880	0.0128568
707.958	0.0126583
708.036	0.0124975
708.114	0.0124075
708.193	0.0124353
708.271	0.0124696
708.349	0.0124875
708.427	0.0123463
708.505	0.0122380
708.583	0.0123019
708.661	0.0121349
708.739	0.0122422
708.818	0.0120911
708.896	0.0119336
708.974	0.0119376
709.052	0.0119024
709.130	0.0118950
709.208	0.0118495
709.286	0.0118349
709.364	0.0117115
709.443	0.0117110
709.521	0.0115757
709.599	0.0117755
709.677	0.0117603
709.755	0.0116563
709.833	0.0117909
709.911	0.0117639
709.989	0.0117569
710.068	0.0117795
710.146	0.0119064
710.224	0.0120759
710.302	0.0119399
710.380	0.0121762
710.458	0.0123537
710.536	0.0123001
710.614	0.0123571
710.693	0.0124791
710.771	0.0125178
710.849	0.0124261
710.927	0.0125781
711.005	0.0125104
711.083	0.0124774
711.161	0.0124520
711.239	0.0124058
711.318	0.0123940
711.396	0.0123872
711.474	0.0123567
711.552	0.0123320
711.630	0.0123521
711.708	0.0123309
711.786	0.0124172
711.864	0.0125710
711.943	0.0124292
712.021	0.0125088
712.099	0.0127988
712.177	0.0129278
712.255	0.0130895
712.333	0.0131577
712.411	0.0132445
712.489	0.0133878
712.568	0.0136343
712.646	0.0137821
712.724	0.0137460
712.802	0.0138339
712.880	0.0139864
712.958	0.0141151
713.036	0.0140535
713.114	0.0141164
713.193	0.0139280
713.271	0.0139150
713.349	0.0139334
713.427	0.0137328
713.505	0.0138242
713.583	0.0135719
713.661	0.0135356
713.739	0.0133515
713.818	0.0131409
713.896	0.0130158
713.974	0.0128989
714.052	0.0126649
714.130	0.0125216
714.208	0.0123460
714.286	0.0122335
714.364	0.0121343
714.443	0.0119592
714.521	0.0117520
714.599	0.0116632
714.677	0.0115303
714.755	0.0115307
714.833	0.0114902
714.911	0.0115037
714.989	0.0114793
715.068	0.0114965
715.146	0.0116469
715.224	0.0114256
715.302	0.0113601
715.380	0.0117301
715.458	0.0117598
715.536	0.0117958
715.614	0.0118778
715.693	0.0121021
715.771	0.0122042
715.849	0.0121989
715.927	0.0124371
716.005	0.0124358
716.083	0.0126154
716.161	0.0124634
716.239	0.0125543
716.318	0.0126132
716.396	0.0126929
716.474	0.0128578
716.552	0.0129343
716.630	0.0129085
716.708	0.0128057
716.786	0.0126187
716.864	0.0127039
716.943	0.0127290
717.021	0.0125766
717.099	0.0127575
717.177	0.0127545
717.255	0.0125645
717.333	0.0126070
717.411	0.0125627
717.489	0.0125065
717.568	0.0126651
717.646	0.0126317
717.724	0.0126271
717.802	0.0128967
717.880	0.0128906
717.958	0.0129877
718.036	0.0130869
718.114	0.0130628
718.193	0.0132075
718.271	0.0134005
718.349	0.0132336
718.427	0.0134933
718.505	0.0133656
718.583	0.0135336
718.661	0.0134019
718.739	0.0133819
718.818	0.0135131
718.896	0.0134484
718.974	0.0133837
719.052	0.0133423
719.130	0.0134634
719.208	0.0133704
719.286	0.0133484
719.364	0.0132484
719.443	0.0133350
719.521	0.0132549
719.599	0.0130542
719.677	0.0129246
719.755	0.0129836
719.833	0.0128557
719.911	0.0128416
719.989	0.0128197
720.068	0.0127293
720.146	0.0126517
720.224	0.0124788
720.302	0.0124934
720.380	0.0124254
720.458	0.0123367
720.536	0.0123643
720.614	0.0122912
720.693	0.0121791
720.771	0.0120808
720.849	0.0120290
720.927	0.0119934
721.005	0.0118764
721.083	0.0118959
721.161	0.0118578
721.239	0.0118455
721.318	0.0117253
721.396	0.0118169
721.474	0.0119024
721.552	0.0118463
721.630	0.0119335
721.708	0.0120267
721.786	0.0119474
721.864	0.0122280
721.943	0.0121945
722.021	0.0123067
722.099	0.0124613
722.177	0.0125412
722.255	0.0125898
722.333	0.0126377
722.411	0.0127686
722.489	0.0127779
722.568	0.0130085
722.646	0.0131596
722.724	0.0131400
722.802	0.0131400
722.880	0.0133382
722.958	0.0133692
723.036	0.0132494
723.114	0.0133568
723.193	0.0135835
723.271	0.0135619
723.349	0.0133958
723.427	0.0134698
723.505	0.0135195
723.583	0.0134020
723.661	0.0133510
723.739	0.0132599
723.818	0.0130549
723.896	0.0130960
723.974	0.0130339
724.052	0.0128754
724.130	0.0128606
724.208	0.0127118
724.286	0.0127402
724.364	0.0126517
724.443	0.0127863
724.521	0.0127049
724.599	0.0126603
724.677	0.0126727
724.755	0.0127666
724.833	0.0127222
724.911	0.0127229
724.989	0.0128061
725.068	0.0127940
725.146	0.0128587
725.224	0.0126996
725.302	0.0127222
725.380	0.0126914
725.458	0.0128294
725.536	0.0127978
725.614	0.0129137
