05/07/2022	17:01:56	Ver.	4.1	UNKNOWN
Optical Delay	639.989416	Delta X		0.078125	Sweeps	1	Scan Rate	0/0
Coordinates	Axis 1	NaN	Axis 2	NaN	Axis 3	NaN	Axis 4	NaN	Axis 5	NaN	Axis 6	0.000000
TX Power	0.000000	RX Power	0.000000

639.989	0.0128179
640.068	0.0128166
640.146	0.0129104
640.224	0.0128432
640.302	0.0129578
640.380	0.0129102
640.458	0.0127831
640.536	0.0127603
640.614	0.0128501
640.693	0.0128799
640.771	0.0128379
640.849	0.0128900
640.927	0.0128769
641.005	0.0129066
641.083	0.0128080
641.161	0.0127886
641.239	0.0129347
641.318	0.0129472
641.396	0.0128085
641.474	0.0127979
641.552	0.0128464
641.630	0.0129921
641.708	0.0128749
641.786	0.0129321
641.864	0.0128304
641.943	0.0127156
642.021	0.0129136
642.099	0.0130370
642.177	0.0128194
642.255	0.0128134
642.333	0.0129037
642.411	0.0127736
642.489	0.0127299
642.568	0.0127604
642.646	0.0128510
642.724	0.0129549
642.802	0.0128089
642.880	0.0127793
642.958	0.0128529
643.036	0.0128371
643.114	0.0128091
643.193	0.0127578
643.271	0.0128880
643.349	0.0128131
643.427	0.0128926
643.505	0.0128423
643.583	0.0128319
643.661	0.0128754
643.739	0.0128623
643.818	0.0128017
643.896	0.0128735
643.974	0.0128925
644.052	0.0128269
644.130	0.0127630
644.208	0.0128417
644.286	0.0130752
644.364	0.0129299
644.443	0.0128403
644.521	0.0127896
644.599	0.0128146
644.677	0.0127892
644.755	0.0127705
644.833	0.0128697
644.911	0.0127237
644.989	0.0128429
645.068	0.0129539
645.146	0.0127653
645.224	0.0129272
645.302	0.0128862
645.380	0.0129155
645.458	0.0127312
645.536	0.0128207
645.614	0.0127325
645.693	0.0129633
645.771	0.0128752
645.849	0.0127243
645.927	0.0128615
646.005	0.0129428
646.083	0.0128421
646.161	0.0127768
646.239	0.0129019
646.318	0.0128731
646.396	0.0128543
646.474	0.0127809
646.552	0.0128423
646.630	0.0128862
646.708	0.0129032
646.786	0.0129472
646.864	0.0128463
646.943	0.0128471
647.021	0.0128618
647.099	0.0128645
647.177	0.0127705
647.255	0.0128275
647.333	0.0129588
647.411	0.0127814
647.489	0.0126877
647.568	0.0126912
647.646	0.0128541
647.724	0.0128893
647.802	0.0128505
647.880	0.0128328
647.958	0.0129169
648.036	0.0128403
648.114	0.0127943
648.193	0.0127875
648.271	0.0127909
648.349	0.0127733
648.427	0.0128410
648.505	0.0129327
648.583	0.0128328
648.661	0.0128937
648.739	0.0129717
648.818	0.0130049
648.896	0.0128242
648.974	0.0128532
649.052	0.0128657
649.130	0.0129677
649.208	0.0128777
649.286	0.0128691
649.364	0.0129127
649.443	0.0128550
649.521	0.0128358
649.599	0.0129044
649.677	0.0128414
649.755	0.0129021
649.833	0.0127180
649.911	0.0127509
649.989	0.0128905
650.068	0.0128464
650.146	0.0129608
650.224	0.0127985
650.302	0.0127608
650.380	0.0129733
650.458	0.0127795
650.536	0.0129345
650.614	0.0128629
650.693	0.0127782
650.771	0.0128242
650.849	0.0129738
650.927	0.0128013
651.005	0.0127896
651.083	0.0128398
651.161	0.0126456
651.239	0.0127558
651.318	0.0129320
651.396	0.0127125
651.474	0.0128142
651.552	0.0129656
651.630	0.0127536
651.708	0.0127901
651.786	0.0129240
651.864	0.0127557
651.943	0.0129203
652.021	0.0128183
652.099	0.0127676
652.177	0.0127699
652.255	0.0128448
652.333	0.0129213
652.411	0.0128452
652.489	0.0128424
652.568	0.0127769
652.646	0.0128141
652.724	0.0128934
652.802	0.0127682
652.880	0.0127280
652.958	0.0128328
653.036	0.0129960
653.114	0.0128562
653.193	0.0128157
653.271	0.0129195
653.349	0.0128185
653.427	0.0127394
653.505	0.0128806
653.583	0.0129271
653.661	0.0128166
653.739	0.0127853
653.818	0.0126905
653.896	0.0127841
653.974	0.0129356
654.052	0.0127558
654.130	0.0128020
654.208	0.0128771
654.286	0.0127966
654.364	0.0129903
654.443	0.0127547
654.521	0.0128436
654.599	0.0128117
654.677	0.0128138
654.755	0.0127893
654.833	0.0130434
654.911	0.0128727
654.989	0.0127962
655.068	0.0129128
655.146	0.0129028
655.224	0.0128978
655.302	0.0129337
655.380	0.0129169
655.458	0.0127695
655.536	0.0127259
655.614	0.0129227
655.693	0.0127757
655.771	0.0127649
655.849	0.0128986
655.927	0.0129299
656.005	0.0129090
656.083	0.0128537
656.161	0.0127929
656.239	0.0128895
656.318	0.0128938
656.396	0.0127895
656.474	0.0128211
656.552	0.0126936
656.630	0.0127907
656.708	0.0129307
656.786	0.0129689
656.864	0.0128681
656.943	0.0128464
657.021	0.0128958
657.099	0.0129589
657.177	0.0128697
657.255	0.0128780
657.333	0.0128731
657.411	0.0128821
657.489	0.0128221
657.568	0.0128961
657.646	0.0130174
657.724	0.0129262
657.802	0.0128642
657.880	0.0128893
657.958	0.0129910
658.036	0.0129073
658.114	0.0128637
658.193	0.0127960
658.271	0.0128361
658.349	0.0130009
658.427	0.0128709
658.505	0.0127965
658.583	0.0128065
658.661	0.0128777
658.739	0.0128449
658.818	0.0129044
658.896	0.0128251
658.974	0.0128686
659.052	0.0127748
659.130	0.0127176
659.208	0.0128729
659.286	0.0129562
659.364	0.0129059
659.443	0.0128391
659.521	0.0127979
659.599	0.0130035
659.677	0.0128517
659.755	0.0126933
659.833	0.0130625
659.911	0.0129111
659.989	0.0129202
660.068	0.0129021
660.146	0.0128775
660.224	0.0128272
660.302	0.0130175
660.380	0.0129709
660.458	0.0129317
660.536	0.0128648
660.614	0.0128286
660.693	0.0129075
660.771	0.0128890
660.849	0.0129254
660.927	0.0129535
661.005	0.0129327
661.083	0.0129711
661.161	0.0128696
661.239	0.0128699
661.318	0.0128539
661.396	0.0129120
661.474	0.0129139
661.552	0.0129753
661.630	0.0128751
661.708	0.0128510
661.786	0.0128466
661.864	0.0128876
661.943	0.0129856
662.021	0.0129233
662.099	0.0127647
662.177	0.0128486
662.255	0.0127664
662.333	0.0128076
662.411	0.0128571
662.489	0.0128468
662.568	0.0129013
662.646	0.0128296
662.724	0.0128059
662.802	0.0128919
662.880	0.0128322
662.958	0.0127653
663.036	0.0127902
663.114	0.0128956
663.193	0.0129686
663.271	0.0128075
663.349	0.0127350
663.427	0.0128059
663.505	0.0128895
663.583	0.0127983
663.661	0.0127805
663.739	0.0128226
663.818	0.0129276
663.896	0.0130005
663.974	0.0128083
664.052	0.0128741
664.130	0.0128875
664.208	0.0128208
664.286	0.0127018
664.364	0.0128343
664.443	0.0128047
664.521	0.0128693
664.599	0.0128120
664.677	0.0128608
664.755	0.0129311
664.833	0.0127932
664.911	0.0127620
664.989	0.0129686
665.068	0.0130051
665.146	0.0129501
665.224	0.0128527
665.302	0.0128265
665.380	0.0127197
665.458	0.0127769
665.536	0.0128551
665.614	0.0128457
665.693	0.0127294
665.771	0.0128156
665.849	0.0127698
665.927	0.0127666
666.005	0.0129030
666.083	0.0127952
666.161	0.0127740
666.239	0.0127579
666.318	0.0129594
666.396	0.0126469
666.474	0.0127490
666.552	0.0129570
666.630	0.0128482
666.708	0.0128811
666.786	0.0128846
666.864	0.0128640
666.943	0.0127431
667.021	0.0127314
667.099	0.0128126
667.177	0.0128376
667.255	0.0128819
667.333	0.0128331
667.411	0.0127821
667.489	0.0127924
667.568	0.0128053
667.646	0.0127569
667.724	0.0127221
667.802	0.0129066
667.880	0.0128547
667.958	0.0127216
668.036	0.0128645
668.114	0.0128990
668.193	0.0127623
668.271	0.0128143
668.349	0.0127884
668.427	0.0127971
668.505	0.0127148
668.583	0.0127377
668.661	0.0126755
668.739	0.0128604
668.818	0.0127184
668.896	0.0126411
668.974	0.0128742
669.052	0.0128963
669.130	0.0127464
669.208	0.0127093
669.286	0.0128162
669.364	0.0126929
669.443	0.0127998
669.521	0.0129224
669.599	0.0127898
669.677	0.0127718
669.755	0.0128849
669.833	0.0127385
669.911	0.0127975
669.989	0.0128334
670.068	0.0129072
670.146	0.0127881
670.224	0.0127339
670.302	0.0126427
670.380	0.0127411
670.458	0.0129855
670.536	0.0126977
670.614	0.0128461
670.693	0.0126366
670.771	0.0126884
670.849	0.0127239
670.927	0.0127262
671.005	0.0127602
671.083	0.0128574
671.161	0.0128254
671.239	0.0128893
671.318	0.0128265
671.396	0.0127364
671.474	0.0127358
671.552	0.0128740
671.630	0.0128417
671.708	0.0127624
671.786	0.0128713
671.864	0.0127197
671.943	0.0128323
672.021	0.0126875
672.099	0.0128046
672.177	0.0127306
672.255	0.0128141
672.333	0.0127359
672.411	0.0128927
672.489	0.0128506
672.568	0.0128475
672.646	0.0128424
672.724	0.0128245
672.802	0.0129037
672.880	0.0128672
672.958	0.0127703
673.036	0.0128123
673.114	0.0127803
673.193	0.0128287
673.271	0.0129150
673.349	0.0126447
673.427	0.0126280
673.505	0.0126276
673.583	0.0127495
673.661	0.0128193
673.739	0.0129177
673.818	0.0126597
673.896	0.0128239
673.974	0.0128110
674.052	0.0127147
674.130	0.0127705
674.208	0.0128551
674.286	0.0128099
674.364	0.0127395
674.443	0.0129992
674.521	0.0130193
674.599	0.0127940
674.677	0.0129313
674.755	0.0127581
674.833	0.0128556
674.911	0.0127623
674.989	0.0128590
675.068	0.0129008
675.146	0.0128832
675.224	0.0129308
675.302	0.0129004
675.380	0.0129697
675.458	0.0128859
675.536	0.0127596
675.614	0.0127753
675.693	0.0129986
675.771	0.0129129
675.849	0.0129786
675.927	0.0128308
676.005	0.0128712
676.083	0.0129944
676.161	0.0129016
676.239	0.0128086
676.318	0.0126842
676.396	0.0129085
676.474	0.0129475
676.552	0.0127805
676.630	0.0129202
676.708	0.0129371
676.786	0.0128658
676.864	0.0128999
676.943	0.0127842
677.021	0.0129113
677.099	0.0128535
677.177	0.0128233
677.255	0.0129833
677.333	0.0127840
677.411	0.0128408
677.489	0.0128101
677.568	0.0127094
677.646	0.0129060
677.724	0.0129441
677.802	0.0127966
677.880	0.0128732
677.958	0.0129611
678.036	0.0129359
678.114	0.0129074
678.193	0.0128236
678.271	0.0127749
678.349	0.0128646
678.427	0.0128837
678.505	0.0127609
678.583	0.0128406
678.661	0.0130251
678.739	0.0129532
678.818	0.0129192
678.896	0.0128496
678.974	0.0129951
679.052	0.0129024
679.130	0.0128940
679.208	0.0129815
679.286	0.0129379
679.364	0.0130068
679.443	0.0129036
679.521	0.0128156
679.599	0.0127799
679.677	0.0128191
679.755	0.0128619
679.833	0.0128355
679.911	0.0128880
679.989	0.0129235
680.068	0.0128946
680.146	0.0128104
680.224	0.0128548
680.302	0.0128105
680.380	0.0128358
680.458	0.0127946
680.536	0.0128094
680.614	0.0130023
680.693	0.0127869
680.771	0.0127779
680.849	0.0128779
680.927	0.0129013
681.005	0.0129552
681.083	0.0128940
681.161	0.0129073
681.239	0.0129979
681.318	0.0128951
681.396	0.0129051
681.474	0.0128602
681.552	0.0129748
681.630	0.0129942
681.708	0.0129139
681.786	0.0129657
681.864	0.0130193
681.943	0.0128956
682.021	0.0129052
682.099	0.0128698
682.177	0.0128402
682.255	0.0130180
682.333	0.0128371
682.411	0.0128948
682.489	0.0130885
682.568	0.0129118
682.646	0.0129859
682.724	0.0129286
682.802	0.0129096
682.880	0.0129072
682.958	0.0130582
683.036	0.0129873
683.114	0.0128980
683.193	0.0130495
683.271	0.0129599
683.349	0.0131033
683.427	0.0128746
683.505	0.0129182
683.583	0.0129314
683.661	0.0128852
683.739	0.0128535
683.818	0.0129273
683.896	0.0127840
683.974	0.0129436
684.052	0.0129501
684.130	0.0129221
684.208	0.0129690
684.286	0.0130666
684.364	0.0130366
684.443	0.0128675
684.521	0.0129056
684.599	0.0129961
684.677	0.0127946
684.755	0.0128979
684.833	0.0127930
684.911	0.0129875
684.989	0.0129033
685.068	0.0127576
685.146	0.0128616
685.224	0.0128391
685.302	0.0128460
685.380	0.0129109
685.458	0.0129940
685.536	0.0128648
685.614	0.0127639
685.693	0.0128996
685.771	0.0128599
685.849	0.0126705
685.927	0.0127668
686.005	0.0130348
686.083	0.0130559
686.161	0.0129119
686.239	0.0130219
686.318	0.0129011
686.396	0.0129466
686.474	0.0128062
686.552	0.0128460
686.630	0.0127982
686.708	0.0129158
686.786	0.0128204
686.864	0.0126075
686.943	0.0127651
687.021	0.0126646
687.099	0.0127255
687.177	0.0128967
687.255	0.0130159
687.333	0.0127948
687.411	0.0130627
687.489	0.0130988
687.568	0.0129813
687.646	0.0130812
687.724	0.0132220
687.802	0.0132399
687.880	0.0130670
687.958	0.0130334
688.036	0.0129260
688.114	0.0128622
688.193	0.0126379
688.271	0.0125191
688.349	0.0125452
688.427	0.0123518
688.505	0.0121971
688.583	0.0121907
688.661	0.0122758
688.739	0.0123637
688.818	0.0124904
688.896	0.0127070
688.974	0.0127770
689.052	0.0129979
689.130	0.0131823
689.208	0.0133225
689.286	0.0135214
689.364	0.0133505
689.443	0.0134965
689.521	0.0134190
689.599	0.0133146
689.677	0.0133906
689.755	0.0131428
689.833	0.0129527
689.911	0.0126608
689.989	0.0125732
690.068	0.0124091
690.146	0.0123160
690.224	0.0122540
690.302	0.0121598
690.380	0.0122621
690.458	0.0122247
690.536	0.0123114
690.614	0.0123618
690.693	0.0123799
690.771	0.0124873
690.849	0.0125040
690.927	0.0127313
691.005	0.0128037
691.083	0.0128614
691.161	0.0129252
691.239	0.0129344
691.318	0.0130283
691.396	0.0130995
691.474	0.0131987
691.552	0.0131204
691.630	0.0132570
691.708	0.0132000
691.786	0.0131834
691.864	0.0131565
691.943	0.0130907
692.021	0.0130618
692.099	0.0132483
692.177	0.0131515
692.255	0.0130354
692.333	0.0130302
692.411	0.0130213
692.489	0.0130112
692.568	0.0129640
692.646	0.0129235
692.724	0.0127924
692.802	0.0126963
692.880	0.0126005
692.958	0.0125755
693.036	0.0125121
693.114	0.0125056
693.193	0.0125443
693.271	0.0124620
693.349	0.0125749
693.427	0.0122990
693.505	0.0123552
693.583	0.0124036
693.661	0.0124271
693.739	0.0125195
693.818	0.0124924
693.896	0.0127350
693.974	0.0127272
694.052	0.0126779
694.130	0.0129393
694.208	0.0130998
694.286	0.0129979
694.364	0.0132004
694.443	0.0132687
694.521	0.0131593
694.599	0.0131373
694.677	0.0133859
694.755	0.0132916
694.833	0.0132381
694.911	0.0131979
694.989	0.0132613
695.068	0.0131571
695.146	0.0130430
695.224	0.0130099
695.302	0.0129075
695.380	0.0128620
695.458	0.0128260
695.536	0.0128591
695.614	0.0126662
695.693	0.0126114
695.771	0.0126467
695.849	0.0125424
695.927	0.0125103
696.005	0.0125377
696.083	0.0125793
696.161	0.0127049
696.239	0.0126319
696.318	0.0126776
696.396	0.0127532
696.474	0.0127811
696.552	0.0128452
696.630	0.0128792
696.708	0.0126505
696.786	0.0128188
696.864	0.0128350
696.943	0.0128986
697.021	0.0130077
697.099	0.0127388
697.177	0.0128181
697.255	0.0128812
697.333	0.0129437
697.411	0.0128913
697.489	0.0128587
697.568	0.0128571
697.646	0.0127544
697.724	0.0127276
697.802	0.0128320
697.880	0.0128089
697.958	0.0126955
698.036	0.0127173
698.114	0.0127792
698.193	0.0127401
698.271	0.0129804
698.349	0.0128807
698.427	0.0128606
698.505	0.0129991
698.583	0.0131123
698.661	0.0129229
698.739	0.0128838
698.818	0.0130102
698.896	0.0130059
698.974	0.0130797
699.052	0.0130619
699.130	0.0130282
699.208	0.0129147
699.286	0.0130695
699.364	0.0129292
699.443	0.0130779
699.521	0.0130054
699.599	0.0130482
699.677	0.0131216
699.755	0.0130516
699.833	0.0131599
699.911	0.0129703
699.989	0.0129082
700.068	0.0129866
700.146	0.0130893
700.224	0.0128519
700.302	0.0127771
700.380	0.0127832
700.458	0.0127747
700.536	0.0127602
700.614	0.0126899
700.693	0.0126459
700.771	0.0124467
700.849	0.0123235
700.927	0.0123872
701.005	0.0123404
701.083	0.0122421
701.161	0.0122222
701.239	0.0123811
701.318	0.0122755
701.396	0.0121590
701.474	0.0122331
701.552	0.0122005
701.630	0.0125098
701.708	0.0124844
701.786	0.0123109
701.864	0.0126736
701.943	0.0127191
702.021	0.0128381
702.099	0.0129658
702.177	0.0130502
702.255	0.0132802
702.333	0.0132872
702.411	0.0134880
702.489	0.0136092
702.568	0.0136128
702.646	0.0136488
702.724	0.0137385
702.802	0.0135449
702.880	0.0135188
702.958	0.0135820
703.036	0.0135398
703.114	0.0133082
703.193	0.0132759
703.271	0.0131279
703.349	0.0131300
703.427	0.0130931
703.505	0.0128539
703.583	0.0128786
703.661	0.0127844
703.739	0.0126739
703.818	0.0128239
703.896	0.0126640
703.974	0.0124884
704.052	0.0125294
704.130	0.0125378
704.208	0.0125246
704.286	0.0123606
704.364	0.0123590
704.443	0.0123056
704.521	0.0122604
704.599	0.0123580
704.677	0.0123740
704.755	0.0123969
704.833	0.0123830
704.911	0.0124129
704.989	0.0125718
705.068	0.0125500
705.146	0.0125407
705.224	0.0127279
705.302	0.0127843
705.380	0.0126273
705.458	0.0129181
705.536	0.0128963
705.614	0.0129183
705.693	0.0130405
705.771	0.0129533
705.849	0.0130689
705.927	0.0130996
706.005	0.0131598
706.083	0.0131168
706.161	0.0131322
706.239	0.0132175
706.318	0.0132215
706.396	0.0132590
706.474	0.0132409
706.552	0.0133256
706.630	0.0133795
706.708	0.0133059
706.786	0.0134024
706.864	0.0133692
706.943	0.0133258
707.021	0.0132871
707.099	0.0131872
707.177	0.0130938
707.255	0.0130682
707.333	0.0131209
707.411	0.0131770
707.489	0.0128495
707.568	0.0129312
707.646	0.0129260
707.724	0.0129243
707.802	0.0128274
707.880	0.0127936
707.958	0.0126961
708.036	0.0128484
708.114	0.0127568
708.193	0.0128409
708.271	0.0126913
708.349	0.0127386
708.427	0.0126397
708.505	0.0126019
708.583	0.0125038
708.661	0.0124430
708.739	0.0125764
708.818	0.0123606
708.896	0.0124994
708.974	0.0124299
709.052	0.0125005
709.130	0.0125124
709.208	0.0125253
709.286	0.0126249
709.364	0.0126282
709.443	0.0126308
709.521	0.0126704
709.599	0.0128420
709.677	0.0127567
709.755	0.0128369
709.833	0.0128255
709.911	0.0129366
709.989	0.0130183
710.068	0.0131145
710.146	0.0130463
710.224	0.0131922
710.302	0.0130717
710.380	0.0131196
710.458	0.0131076
710.536	0.0132316
710.614	0.0131880
710.693	0.0131366
710.771	0.0131963
710.849	0.0132465
710.927	0.0132026
711.005	0.0131804
711.083	0.0131654
711.161	0.0132205
711.239	0.0133572
711.318	0.0130567
711.396	0.0131225
711.474	0.0131799
711.552	0.0130846
711.630	0.0131512
711.708	0.0131096
711.786	0.0129478
711.864	0.0131655
711.943	0.0130733
712.021	0.0128520
712.099	0.0130017
712.177	0.0128764
712.255	0.0126911
712.333	0.0127374
712.411	0.0129168
712.489	0.0128117
712.568	0.0127608
712.646	0.0126854
712.724	0.0127232
712.802	0.0128056
712.880	0.0127630
712.958	0.0126656
713.036	0.0127042
713.114	0.0128959
713.193	0.0128146
713.271	0.0126842
713.349	0.0128081
713.427	0.0127514
713.505	0.0127142
713.583	0.0126797
713.661	0.0126346
713.739	0.0124474
713.818	0.0125011
713.896	0.0125522
713.974	0.0125554
714.052	0.0125555
714.130	0.0124860
714.208	0.0125857
714.286	0.0124050
714.364	0.0125409
714.443	0.0126669
714.521	0.0125126
714.599	0.0127421
714.677	0.0125584
714.755	0.0125800
714.833	0.0126189
714.911	0.0128484
714.989	0.0127870
715.068	0.0127323
715.146	0.0127188
715.224	0.0128835
715.302	0.0128359
715.380	0.0127644
715.458	0.0128873
715.536	0.0129387
715.614	0.0129329
715.693	0.0130624
715.771	0.0131738
715.849	0.0131472
715.927	0.0129919
716.005	0.0129991
716.083	0.0132101
716.161	0.0130952
716.239	0.0130910
716.318	0.0132319
716.396	0.0129963
716.474	0.0130102
716.552	0.0130707
716.630	0.0131430
716.708	0.0130537
716.786	0.0130631
716.864	0.0130814
716.943	0.0128204
717.021	0.0130079
717.099	0.0130701
717.177	0.0129161
717.255	0.0128397
717.333	0.0129156
717.411	0.0128969
717.489	0.0128387
717.568	0.0127962
717.646	0.0127197
717.724	0.0128136
717.802	0.0126179
717.880	0.0126192
717.958	0.0126132
718.036	0.0127646
718.114	0.0128305
718.193	0.0126870
718.271	0.0126367
718.349	0.0127596
718.427	0.0126694
718.505	0.0126144
718.583	0.0128091
718.661	0.0126935
718.739	0.0126425
718.818	0.0126434
718.896	0.0126189
718.974	0.0126396
719.052	0.0126459
719.130	0.0125206
719.208	0.0125804
719.286	0.0124596
719.364	0.0125417
719.443	0.0125929
719.521	0.0124801
719.599	0.0125757
719.677	0.0126985
719.755	0.0127238
719.833	0.0126949
719.911	0.0127780
719.989	0.0128991
720.068	0.0129377
720.146	0.0130502
720.224	0.0131688
720.302	0.0131676
720.380	0.0132845
720.458	0.0131113
720.536	0.0133138
720.614	0.0133270
720.693	0.0133097
720.771	0.0133355
720.849	0.0133784
720.927	0.0132854
721.005	0.0133225
721.083	0.0131821
721.161	0.0131047
721.239	0.0130904
721.318	0.0130300
721.396	0.0128149
721.474	0.0127193
721.552	0.0126469
721.630	0.0125063
721.708	0.0125120
721.786	0.0125741
721.864	0.0123038
721.943	0.0123649
722.021	0.0124193
722.099	0.0121337
722.177	0.0123343
722.255	0.0124482
722.333	0.0122831
722.411	0.0123940
722.489	0.0123843
722.568	0.0124609
722.646	0.0126644
722.724	0.0127415
722.802	0.0127370
722.880	0.0128976
722.958	0.0129767
723.036	0.0129795
723.114	0.0130712
723.193	0.0132388
723.271	0.0131979
723.349	0.0131555
723.427	0.0131271
723.505	0.0131577
723.583	0.0130666
723.661	0.0130252
723.739	0.0130228
723.818	0.0129746
723.896	0.0128467
723.974	0.0127288
724.052	0.0126789
724.130	0.0127325
724.208	0.0126514
724.286	0.0124704
724.364	0.0123459
724.443	0.0123604
724.521	0.0122749
724.599	0.0123263
724.677	0.0123140
724.755	0.0122699
724.833	0.0123444
724.911	0.0123450
724.989	0.0123003
725.068	0.0123629
725.146	0.0123861
725.224	0.0124980
725.302	0.0126477
725.380	0.0126678
725.458	0.0128167
725.536	0.0128330
725.614	0.0129848
725.693	0.0130189
