05/28/2022	13:52:55	Ver.	4.1	UNKNOWN
Optical Delay	599.988409	Delta X		0.078125	Sweeps	1	Scan Rate	0/0
Coordinates	Axis 1	NaN	Axis 2	NaN	Axis 3	NaN	Axis 4	NaN	Axis 5	NaN	Axis 6	0.000000
TX Power	0.000000	RX Power	0.000000

599.988	0.0140652
600.067	0.0141198
600.145	0.0140575
600.223	0.0141195
600.301	0.0139922
600.379	0.0140289
600.457	0.0139822
600.535	0.0140617
600.613	0.0140482
600.692	0.0140533
600.770	0.0140684
600.848	0.0140350
600.926	0.0141708
601.004	0.0141305
601.082	0.0139629
601.160	0.0139824
601.238	0.0140822
601.317	0.0139693
601.395	0.0140477
601.473	0.0139797
601.551	0.0140398
601.629	0.0140990
601.707	0.0141046
601.785	0.0140662
601.863	0.0139965
601.942	0.0140539
602.020	0.0140275
602.098	0.0140938
602.176	0.0139508
602.254	0.0140314
602.332	0.0142028
602.410	0.0141113
602.488	0.0140824
602.567	0.0141010
602.645	0.0141452
602.723	0.0141026
602.801	0.0140582
602.879	0.0140565
602.957	0.0141086
603.035	0.0140067
603.113	0.0141335
603.192	0.0142346
603.270	0.0140325
603.348	0.0142279
603.426	0.0141164
603.504	0.0140591
603.582	0.0141494
603.660	0.0140711
603.738	0.0140427
603.817	0.0140680
603.895	0.0143251
603.973	0.0141422
604.051	0.0139786
604.129	0.0141376
604.207	0.0140852
604.285	0.0140308
604.363	0.0141770
604.442	0.0139890
604.520	0.0140633
604.598	0.0141053
604.676	0.0139539
604.754	0.0140603
604.832	0.0141141
604.910	0.0141933
604.988	0.0141849
605.067	0.0139892
605.145	0.0141284
605.223	0.0141933
605.301	0.0139902
605.379	0.0139141
605.457	0.0141340
605.535	0.0140209
605.613	0.0139651
605.692	0.0141484
605.770	0.0141212
605.848	0.0141892
605.926	0.0138971
606.004	0.0140366
606.082	0.0141320
606.160	0.0140797
606.238	0.0140980
606.317	0.0139912
606.395	0.0140647
606.473	0.0141579
606.551	0.0141145
606.629	0.0141875
606.707	0.0140215
606.785	0.0140516
606.863	0.0139919
606.942	0.0140912
607.020	0.0140537
607.098	0.0140813
607.176	0.0141670
607.254	0.0140692
607.332	0.0139713
607.410	0.0141253
607.488	0.0140038
607.567	0.0139566
607.645	0.0142366
607.723	0.0140681
607.801	0.0139262
607.879	0.0140117
607.957	0.0141502
608.035	0.0140208
608.113	0.0141500
608.192	0.0139945
608.270	0.0140927
608.348	0.0142227
608.426	0.0140806
608.504	0.0141151
608.582	0.0139518
608.660	0.0140404
608.738	0.0140874
608.817	0.0141650
608.895	0.0140978
608.973	0.0140269
609.051	0.0140798
609.129	0.0140498
609.207	0.0140913
609.285	0.0140333
609.363	0.0139263
609.442	0.0139936
609.520	0.0140821
609.598	0.0140706
609.676	0.0142108
609.754	0.0140305
609.832	0.0139242
609.910	0.0139684
609.988	0.0140874
610.067	0.0140862
610.145	0.0140426
610.223	0.0141022
610.301	0.0139928
610.379	0.0141462
610.457	0.0140533
610.535	0.0140266
610.613	0.0141048
610.692	0.0140795
610.770	0.0141413
610.848	0.0140836
610.926	0.0141559
611.004	0.0140800
611.082	0.0140901
611.160	0.0140291
611.238	0.0140606
611.317	0.0143021
611.395	0.0141185
611.473	0.0140301
611.551	0.0140892
611.629	0.0140350
611.707	0.0140549
611.785	0.0140041
611.863	0.0142921
611.942	0.0141151
612.020	0.0140960
612.098	0.0140594
612.176	0.0142421
612.254	0.0139934
612.332	0.0140623
612.410	0.0141237
612.488	0.0139944
612.567	0.0140856
612.645	0.0140262
612.723	0.0141426
612.801	0.0140903
612.879	0.0141426
612.957	0.0141184
613.035	0.0140654
613.113	0.0140508
613.192	0.0139993
613.270	0.0140620
613.348	0.0140909
613.426	0.0140840
613.504	0.0139766
613.582	0.0139799
613.660	0.0141408
613.738	0.0139734
613.817	0.0139816
613.895	0.0142513
613.973	0.0141124
614.051	0.0141175
614.129	0.0140762
614.207	0.0140268
614.285	0.0141409
614.363	0.0140747
614.442	0.0140864
614.520	0.0141527
614.598	0.0141261
614.676	0.0141107
614.754	0.0139864
614.832	0.0139505
614.910	0.0140952
614.988	0.0140778
615.067	0.0139930
615.145	0.0139931
615.223	0.0140422
615.301	0.0141156
615.379	0.0141713
615.457	0.0142698
615.535	0.0141250
615.613	0.0140608
615.692	0.0139004
615.770	0.0141348
615.848	0.0142033
615.926	0.0140123
616.004	0.0140660
616.082	0.0140780
616.160	0.0141037
616.238	0.0140998
616.317	0.0140903
616.395	0.0140548
616.473	0.0142186
616.551	0.0140199
616.629	0.0140096
616.707	0.0140689
616.785	0.0139870
616.863	0.0141210
616.942	0.0142054
617.020	0.0140421
617.098	0.0141859
617.176	0.0139996
617.254	0.0140264
617.332	0.0140854
617.410	0.0140393
617.488	0.0140050
617.567	0.0140515
617.645	0.0140765
617.723	0.0140305
617.801	0.0141399
617.879	0.0140707
617.957	0.0141415
618.035	0.0140483
618.113	0.0139400
618.192	0.0139939
618.270	0.0140966
618.348	0.0141710
618.426	0.0141519
618.504	0.0140480
618.582	0.0141303
618.660	0.0142448
618.738	0.0141340
618.817	0.0140707
618.895	0.0141725
618.973	0.0140602
619.051	0.0140113
619.129	0.0141550
619.207	0.0141286
619.285	0.0139905
619.363	0.0141200
619.442	0.0140716
619.520	0.0141162
619.598	0.0139762
619.676	0.0141824
619.754	0.0141932
619.832	0.0140954
619.910	0.0140781
619.988	0.0141839
620.067	0.0141406
620.145	0.0140511
620.223	0.0140883
620.301	0.0140535
620.379	0.0141422
620.457	0.0141651
620.535	0.0140395
620.613	0.0141488
620.692	0.0141478
620.770	0.0140829
620.848	0.0140396
620.926	0.0140952
621.004	0.0141806
621.082	0.0141269
621.160	0.0141294
621.238	0.0140942
621.317	0.0140479
621.395	0.0141051
621.473	0.0140990
621.551	0.0141471
621.629	0.0141136
621.707	0.0141251
621.785	0.0140821
621.863	0.0140089
621.942	0.0140051
622.020	0.0141349
622.098	0.0141342
622.176	0.0139566
622.254	0.0140867
622.332	0.0140597
622.410	0.0140157
622.488	0.0141647
622.567	0.0140721
622.645	0.0141082
622.723	0.0141676
622.801	0.0141609
622.879	0.0140530
622.957	0.0139664
623.035	0.0139857
623.113	0.0141168
623.192	0.0141236
623.270	0.0139713
623.348	0.0140263
623.426	0.0141021
623.504	0.0141014
623.582	0.0140415
623.660	0.0140710
623.738	0.0141499
623.817	0.0140316
623.895	0.0141175
623.973	0.0140739
624.051	0.0140143
624.129	0.0139876
624.207	0.0139173
624.285	0.0140640
624.363	0.0141317
624.442	0.0141055
624.520	0.0140914
624.598	0.0140662
624.676	0.0140918
624.754	0.0140534
624.832	0.0140683
624.910	0.0140556
624.988	0.0140110
625.067	0.0140826
625.145	0.0141407
625.223	0.0139563
625.301	0.0140902
625.379	0.0140494
625.457	0.0140567
625.535	0.0140338
625.613	0.0140490
625.692	0.0140274
625.770	0.0141099
625.848	0.0141621
625.926	0.0141545
626.004	0.0140599
626.082	0.0141677
626.160	0.0140882
626.238	0.0139967
626.317	0.0141242
626.395	0.0141064
626.473	0.0140300
626.551	0.0140924
626.629	0.0141246
626.707	0.0141072
626.785	0.0140139
626.863	0.0141148
626.942	0.0140363
627.020	0.0141952
627.098	0.0140471
627.176	0.0138503
627.254	0.0140298
627.332	0.0140369
627.410	0.0140950
627.488	0.0141165
627.567	0.0141493
627.645	0.0141460
627.723	0.0140772
627.801	0.0140718
627.879	0.0141139
627.957	0.0140297
628.035	0.0140364
628.113	0.0140596
628.192	0.0140119
628.270	0.0141371
628.348	0.0139693
628.426	0.0139860
628.504	0.0141663
628.582	0.0140575
628.660	0.0140482
628.738	0.0140469
628.817	0.0141022
628.895	0.0141394
628.973	0.0140240
629.051	0.0141087
629.129	0.0141249
629.207	0.0140184
629.285	0.0140302
629.363	0.0140343
629.442	0.0140585
629.520	0.0140640
629.598	0.0141759
629.676	0.0139812
629.754	0.0140557
629.832	0.0139529
629.910	0.0141738
629.988	0.0140501
630.067	0.0139468
630.145	0.0139884
630.223	0.0140521
630.301	0.0140627
630.379	0.0138982
630.457	0.0139900
630.535	0.0140081
630.613	0.0139296
630.692	0.0140827
630.770	0.0141613
630.848	0.0139966
630.926	0.0140495
631.004	0.0139827
631.082	0.0140068
631.160	0.0140600
631.238	0.0140619
631.317	0.0140234
631.395	0.0140121
631.473	0.0141130
631.551	0.0140878
631.629	0.0141077
631.707	0.0140897
631.785	0.0139357
631.863	0.0140820
631.942	0.0140720
632.020	0.0141276
632.098	0.0140599
632.176	0.0140580
632.254	0.0140583
632.332	0.0141341
632.410	0.0140208
632.488	0.0141165
632.567	0.0140444
632.645	0.0141184
632.723	0.0140410
632.801	0.0140915
632.879	0.0140108
632.957	0.0140350
633.035	0.0140108
633.113	0.0140672
633.192	0.0140121
633.270	0.0140181
633.348	0.0140235
633.426	0.0139783
633.504	0.0142059
633.582	0.0141013
633.660	0.0141077
633.738	0.0140379
633.817	0.0140349
633.895	0.0140055
633.973	0.0140756
634.051	0.0140711
634.129	0.0140050
634.207	0.0139782
634.285	0.0140563
634.363	0.0141297
634.442	0.0140702
634.520	0.0140743
634.598	0.0140369
634.676	0.0140730
634.754	0.0140026
634.832	0.0141405
634.910	0.0139801
634.988	0.0139558
635.067	0.0139898
635.145	0.0139554
635.223	0.0140549
635.301	0.0140732
635.379	0.0141353
635.457	0.0139149
635.535	0.0140501
635.613	0.0140125
635.692	0.0140369
635.770	0.0140977
635.848	0.0140290
635.926	0.0141920
636.004	0.0139812
636.082	0.0139983
636.160	0.0140549
636.238	0.0141428
636.317	0.0141230
636.395	0.0140818
636.473	0.0140948
636.551	0.0139719
636.629	0.0140050
636.707	0.0139625
636.785	0.0140742
636.863	0.0140343
636.942	0.0140462
637.020	0.0140906
637.098	0.0141021
637.176	0.0140676
637.254	0.0138610
637.332	0.0139277
637.410	0.0140440
637.488	0.0141158
637.567	0.0141205
637.645	0.0140510
637.723	0.0139501
637.801	0.0140711
637.879	0.0141672
637.957	0.0141276
638.035	0.0140473
638.113	0.0140092
638.192	0.0140968
638.270	0.0140934
638.348	0.0140404
638.426	0.0139414
638.504	0.0140359
638.582	0.0140331
638.660	0.0140683
638.738	0.0140379
638.817	0.0141106
638.895	0.0139973
638.973	0.0139790
639.051	0.0139886
639.129	0.0141196
639.207	0.0140575
639.285	0.0141244
639.363	0.0141147
639.442	0.0141191
639.520	0.0138933
639.598	0.0140265
639.676	0.0141880
639.754	0.0140650
639.832	0.0139125
639.910	0.0139910
639.988	0.0141061
640.067	0.0139355
640.145	0.0140118
640.223	0.0142538
640.301	0.0140576
640.379	0.0139349
640.457	0.0139709
640.535	0.0139462
640.613	0.0141792
640.692	0.0140665
640.770	0.0140605
640.848	0.0140597
640.926	0.0141510
641.004	0.0140426
641.082	0.0140160
641.160	0.0141051
641.238	0.0139554
641.317	0.0139444
641.395	0.0141053
641.473	0.0140676
641.551	0.0140870
641.629	0.0140437
641.707	0.0138979
641.785	0.0139799
641.863	0.0141528
641.942	0.0141240
642.020	0.0140752
642.098	0.0139185
642.176	0.0140202
642.254	0.0139507
642.332	0.0141574
642.410	0.0141459
642.488	0.0140164
642.567	0.0140353
642.645	0.0141244
642.723	0.0140385
642.801	0.0141872
642.879	0.0140627
642.957	0.0140495
643.035	0.0140030
643.113	0.0139722
643.192	0.0139381
643.270	0.0140472
643.348	0.0140737
643.426	0.0139213
643.504	0.0141131
643.582	0.0139984
643.660	0.0141468
643.738	0.0140549
643.817	0.0139819
643.895	0.0139797
643.973	0.0140260
644.051	0.0140346
644.129	0.0141454
644.207	0.0140546
644.285	0.0140872
644.363	0.0140628
644.442	0.0140623
644.520	0.0140965
644.598	0.0141372
644.676	0.0140384
644.754	0.0140382
644.832	0.0139248
644.910	0.0141199
644.988	0.0140240
645.067	0.0140100
645.145	0.0141250
645.223	0.0139985
645.301	0.0141007
645.379	0.0140544
645.457	0.0141064
645.535	0.0140305
645.613	0.0140359
645.692	0.0140360
645.770	0.0139900
645.848	0.0141125
645.926	0.0141395
646.004	0.0140141
646.082	0.0140508
646.160	0.0139156
646.238	0.0140727
646.317	0.0142326
646.395	0.0138877
646.473	0.0141344
646.551	0.0140545
646.629	0.0141217
646.707	0.0140166
646.785	0.0140184
646.863	0.0141522
646.942	0.0141245
647.020	0.0140818
647.098	0.0141513
647.176	0.0139774
647.254	0.0139973
647.332	0.0139400
647.410	0.0141261
647.488	0.0140943
647.567	0.0141244
647.645	0.0140664
647.723	0.0141386
647.801	0.0142558
647.879	0.0140633
647.957	0.0141078
648.035	0.0139841
648.113	0.0139301
648.192	0.0141048
648.270	0.0139671
648.348	0.0139729
648.426	0.0141221
648.504	0.0141638
648.582	0.0140674
648.660	0.0140205
648.738	0.0141437
648.817	0.0140487
648.895	0.0140506
648.973	0.0139794
649.051	0.0141640
649.129	0.0141029
649.207	0.0141113
649.285	0.0141330
649.363	0.0141920
649.442	0.0140395
649.520	0.0140047
649.598	0.0141409
649.676	0.0139532
649.754	0.0140194
649.832	0.0141624
649.910	0.0140730
649.988	0.0141589
650.067	0.0139814
650.145	0.0139398
650.223	0.0140831
650.301	0.0139647
650.379	0.0142191
650.457	0.0141653
650.535	0.0139895
650.613	0.0140071
650.692	0.0141368
650.770	0.0140623
650.848	0.0138965
650.926	0.0140163
651.004	0.0140606
651.082	0.0139790
651.160	0.0139819
651.238	0.0139524
651.317	0.0141973
651.395	0.0140601
651.473	0.0141415
651.551	0.0139928
651.629	0.0139849
651.707	0.0141520
651.785	0.0141978
651.863	0.0141599
651.942	0.0139783
652.020	0.0140524
652.098	0.0138966
652.176	0.0140588
652.254	0.0142235
652.332	0.0141669
652.410	0.0139684
652.488	0.0140919
652.567	0.0141065
652.645	0.0139414
652.723	0.0139926
652.801	0.0141682
652.879	0.0140875
652.957	0.0141248
653.035	0.0141389
653.113	0.0141486
653.192	0.0140778
653.270	0.0140494
653.348	0.0140075
653.426	0.0140638
653.504	0.0139429
653.582	0.0139817
653.660	0.0142020
653.738	0.0140894
653.817	0.0141405
653.895	0.0140874
653.973	0.0140664
654.051	0.0140179
654.129	0.0140685
654.207	0.0141190
654.285	0.0140202
654.363	0.0141661
654.442	0.0140505
654.520	0.0140148
654.598	0.0139290
654.676	0.0140493
654.754	0.0140681
654.832	0.0140479
654.910	0.0140799
654.988	0.0140154
655.067	0.0141007
655.145	0.0140343
655.223	0.0139778
655.301	0.0141295
655.379	0.0140179
655.457	0.0139830
655.535	0.0139516
655.613	0.0139588
655.692	0.0140952
655.770	0.0139360
655.848	0.0141348
655.926	0.0140386
656.004	0.0140588
656.082	0.0140189
656.160	0.0140447
656.238	0.0140865
656.317	0.0141410
656.395	0.0139692
656.473	0.0138763
656.551	0.0140831
656.629	0.0142173
656.707	0.0141332
656.785	0.0140178
656.863	0.0138504
656.942	0.0139998
657.020	0.0140688
657.098	0.0141755
657.176	0.0140696
657.254	0.0140539
657.332	0.0140865
657.410	0.0141445
657.488	0.0140498
657.567	0.0140727
657.645	0.0140374
657.723	0.0140527
657.801	0.0140767
657.879	0.0141803
657.957	0.0139386
658.035	0.0141515
658.113	0.0140674
658.192	0.0140448
658.270	0.0141006
658.348	0.0139240
658.426	0.0139862
658.504	0.0141739
658.582	0.0142295
658.660	0.0140868
658.738	0.0141631
658.817	0.0139663
658.895	0.0139882
658.973	0.0141321
659.051	0.0141209
659.129	0.0140349
659.207	0.0140598
659.285	0.0139925
659.363	0.0140449
659.442	0.0141033
659.520	0.0139365
659.598	0.0141705
659.676	0.0140486
659.754	0.0141208
659.832	0.0140232
659.910	0.0139767
659.988	0.0141082
660.067	0.0141348
660.145	0.0140128
660.223	0.0141927
660.301	0.0140041
660.379	0.0140360
660.457	0.0141293
660.535	0.0140879
660.613	0.0141969
660.692	0.0141742
660.770	0.0140472
660.848	0.0140247
660.926	0.0138988
661.004	0.0140731
661.082	0.0140722
661.160	0.0141998
661.238	0.0141373
661.317	0.0141602
661.395	0.0141260
661.473	0.0141159
661.551	0.0141469
661.629	0.0138893
661.707	0.0140228
661.785	0.0140205
661.863	0.0140951
661.942	0.0141267
662.020	0.0141119
662.098	0.0139944
662.176	0.0140847
662.254	0.0140782
662.332	0.0139257
662.410	0.0139884
662.488	0.0141222
662.567	0.0141507
662.645	0.0140546
662.723	0.0140095
662.801	0.0140639
662.879	0.0141833
662.957	0.0140234
663.035	0.0140520
663.113	0.0141123
663.192	0.0140301
663.270	0.0140178
663.348	0.0140552
663.426	0.0139240
663.504	0.0140205
663.582	0.0140408
663.660	0.0141393
663.738	0.0140615
663.817	0.0139276
663.895	0.0140615
663.973	0.0140462
664.051	0.0140793
664.129	0.0138543
664.207	0.0140325
664.285	0.0140615
664.363	0.0140345
664.442	0.0142100
664.520	0.0139934
664.598	0.0140163
664.676	0.0140520
664.754	0.0140756
664.832	0.0140237
664.910	0.0139929
664.988	0.0141024
665.067	0.0140285
665.145	0.0139805
665.223	0.0142297
665.301	0.0141754
665.379	0.0139443
665.457	0.0141001
665.535	0.0140965
665.613	0.0141601
665.692	0.0141686
665.770	0.0141356
665.848	0.0139298
665.926	0.0141125
666.004	0.0142017
666.082	0.0139215
666.160	0.0139544
666.238	0.0141563
666.317	0.0140817
666.395	0.0141125
666.473	0.0139883
666.551	0.0140844
666.629	0.0141580
666.707	0.0140991
666.785	0.0140637
666.863	0.0140677
666.942	0.0141793
667.020	0.0141251
667.098	0.0140231
667.176	0.0139817
667.254	0.0141212
667.332	0.0141476
667.410	0.0141111
667.488	0.0142452
667.567	0.0140631
667.645	0.0141278
667.723	0.0140615
667.801	0.0139191
667.879	0.0140156
667.957	0.0140069
668.035	0.0140338
668.113	0.0141446
668.192	0.0141806
668.270	0.0140799
668.348	0.0140093
668.426	0.0141221
668.504	0.0140324
668.582	0.0139706
668.660	0.0140996
668.738	0.0140726
668.817	0.0140302
668.895	0.0140912
668.973	0.0142583
669.051	0.0140764
669.129	0.0140813
669.207	0.0140849
669.285	0.0141666
669.363	0.0141497
669.442	0.0141299
669.520	0.0139677
669.598	0.0140578
669.676	0.0140826
669.754	0.0140600
669.832	0.0141821
669.910	0.0140311
669.988	0.0140690
670.067	0.0141228
670.145	0.0141191
670.223	0.0142561
670.301	0.0141290
670.379	0.0140382
670.457	0.0140412
670.535	0.0140554
670.613	0.0140503
670.692	0.0141236
670.770	0.0142464
670.848	0.0140893
670.926	0.0142529
671.004	0.0140385
671.082	0.0140335
671.160	0.0140794
671.238	0.0141254
671.317	0.0139225
671.395	0.0139204
671.473	0.0141561
671.551	0.0140246
671.629	0.0141283
671.707	0.0141355
671.785	0.0140162
671.863	0.0139581
671.942	0.0140215
672.020	0.0140566
672.098	0.0140855
672.176	0.0141718
672.254	0.0140673
672.332	0.0141202
672.410	0.0139770
672.488	0.0141881
672.567	0.0140498
672.645	0.0141201
672.723	0.0141786
672.801	0.0140812
672.879	0.0141125
672.957	0.0141092
673.035	0.0139059
673.113	0.0140254
673.192	0.0140026
673.270	0.0141170
673.348	0.0139822
673.426	0.0139365
673.504	0.0140456
673.582	0.0141412
673.660	0.0141567
673.738	0.0140067
673.817	0.0139503
673.895	0.0141259
673.973	0.0141641
674.051	0.0141114
674.129	0.0140989
674.207	0.0139944
674.285	0.0140467
674.363	0.0139835
674.442	0.0140726
674.520	0.0140269
674.598	0.0140279
674.676	0.0139243
674.754	0.0140025
674.832	0.0140021
674.910	0.0139396
674.988	0.0140332
675.067	0.0140359
675.145	0.0140366
675.223	0.0139822
675.301	0.0139639
675.379	0.0139719
675.457	0.0139415
675.535	0.0139267
675.613	0.0139827
675.692	0.0139640
675.770	0.0139238
675.848	0.0139935
675.926	0.0138659
676.004	0.0139205
676.082	0.0138707
676.160	0.0140837
676.238	0.0139516
676.317	0.0140356
676.395	0.0140125
676.473	0.0139471
676.551	0.0138870
676.629	0.0139926
676.707	0.0138995
676.785	0.0140692
676.863	0.0138602
676.942	0.0140017
677.020	0.0140018
677.098	0.0139770
677.176	0.0139706
677.254	0.0139747
677.332	0.0139260
677.410	0.0139895
677.488	0.0139587
677.567	0.0139963
677.645	0.0140308
677.723	0.0139788
677.801	0.0140254
677.879	0.0139814
677.957	0.0140807
678.035	0.0140774
678.113	0.0139651
678.192	0.0138240
678.270	0.0139162
678.348	0.0141485
678.426	0.0140387
678.504	0.0140757
678.582	0.0140851
678.660	0.0139850
678.738	0.0139854
678.817	0.0141109
678.895	0.0141284
678.973	0.0140971
679.051	0.0140433
679.129	0.0140421
679.207	0.0141248
679.285	0.0140536
679.363	0.0140854
679.442	0.0141105
679.520	0.0140292
679.598	0.0142192
679.676	0.0141676
679.754	0.0140636
679.832	0.0141207
679.910	0.0141501
679.988	0.0141044
680.067	0.0140447
680.145	0.0140757
680.223	0.0142706
680.301	0.0141709
680.379	0.0140780
680.457	0.0141537
680.535	0.0142818
680.613	0.0141875
680.692	0.0142396
680.770	0.0143456
680.848	0.0142889
680.926	0.0142011
681.004	0.0141624
681.082	0.0141302
681.160	0.0142622
681.238	0.0142520
681.317	0.0141196
681.395	0.0141931
681.473	0.0142791
681.551	0.0142924
681.629	0.0142490
681.707	0.0142490
681.785	0.0142599
681.863	0.0142152
681.942	0.0143052
682.020	0.0142199
682.098	0.0143753
682.176	0.0143067
682.254	0.0143021
682.332	0.0142672
682.410	0.0141953
682.488	0.0141697
682.567	0.0142365
682.645	0.0140937
682.723	0.0141033
682.801	0.0142287
682.879	0.0143179
682.957	0.0142377
683.035	0.0143613
683.113	0.0142426
683.192	0.0141532
683.270	0.0141209
683.348	0.0141829
683.426	0.0141312
683.504	0.0141936
683.582	0.0140485
683.660	0.0140677
683.738	0.0141866
683.817	0.0142783
683.895	0.0142283
683.973	0.0140865
684.051	0.0141238
684.129	0.0141439
684.207	0.0141234
684.285	0.0140133
684.363	0.0141621
684.442	0.0139244
684.520	0.0141447
684.598	0.0140878
684.676	0.0140543
684.754	0.0141632
684.832	0.0140726
684.910	0.0141380
684.988	0.0140704
685.067	0.0138776
685.145	0.0139771
685.223	0.0139226
685.301	0.0139561
685.379	0.0141383
685.457	0.0140562
685.535	0.0141259
685.613	0.0139933
685.692	0.0138840
