05/28/2022	14:29:57	Ver.	4.1	UNKNOWN
Optical Delay	599.988409	Delta X		0.078125	Sweeps	1	Scan Rate	0/0
Coordinates	Axis 1	NaN	Axis 2	NaN	Axis 3	NaN	Axis 4	NaN	Axis 5	NaN	Axis 6	0.000000
TX Power	0.000000	RX Power	0.000000

599.988	0.0144437
600.067	0.0143163
600.145	0.0144241
600.223	0.0145855
600.301	0.0145284
600.379	0.0143519
600.457	0.0144379
600.535	0.0144987
600.613	0.0144094
600.692	0.0145867
600.770	0.0144350
600.848	0.0145047
600.926	0.0146046
601.004	0.0144594
601.082	0.0144453
601.160	0.0145573
601.238	0.0145489
601.317	0.0145021
601.395	0.0145290
601.473	0.0145581
601.551	0.0146207
601.629	0.0144683
601.707	0.0145263
601.785	0.0143256
601.863	0.0146238
601.942	0.0145322
602.020	0.0145793
602.098	0.0143729
602.176	0.0145734
602.254	0.0145184
602.332	0.0146440
602.410	0.0144913
602.488	0.0144227
602.567	0.0144638
602.645	0.0145155
602.723	0.0144766
602.801	0.0144163
602.879	0.0144047
602.957	0.0144843
603.035	0.0144990
603.113	0.0144588
603.192	0.0144972
603.270	0.0145308
603.348	0.0144434
603.426	0.0143997
603.504	0.0144169
603.582	0.0144070
603.660	0.0144585
603.738	0.0143770
603.817	0.0143919
603.895	0.0144901
603.973	0.0144186
604.051	0.0145786
604.129	0.0145061
604.207	0.0144458
604.285	0.0142779
604.363	0.0144415
604.442	0.0143676
604.520	0.0144527
604.598	0.0145439
604.676	0.0143581
604.754	0.0143671
604.832	0.0144433
604.910	0.0144577
604.988	0.0143401
605.067	0.0142940
605.145	0.0144188
605.223	0.0144865
605.301	0.0143383
605.379	0.0144563
605.457	0.0143651
605.535	0.0143995
605.613	0.0143410
605.692	0.0143003
605.770	0.0143859
605.848	0.0142793
605.926	0.0142246
606.004	0.0143983
606.082	0.0144413
606.160	0.0141920
606.238	0.0142918
606.317	0.0143060
606.395	0.0144383
606.473	0.0143577
606.551	0.0143936
606.629	0.0143833
606.707	0.0142397
606.785	0.0143082
606.863	0.0144588
606.942	0.0142914
607.020	0.0142842
607.098	0.0143676
607.176	0.0144925
607.254	0.0144034
607.332	0.0143552
607.410	0.0143723
607.488	0.0146165
607.567	0.0145002
607.645	0.0141918
607.723	0.0143377
607.801	0.0143548
607.879	0.0145084
607.957	0.0143601
608.035	0.0143218
608.113	0.0143849
608.192	0.0143372
608.270	0.0144866
608.348	0.0143056
608.426	0.0141580
608.504	0.0143894
608.582	0.0143559
608.660	0.0142342
608.738	0.0144209
608.817	0.0141792
608.895	0.0144074
608.973	0.0143920
609.051	0.0143711
609.129	0.0143863
609.207	0.0143555
609.285	0.0143539
609.363	0.0143399
609.442	0.0142619
609.520	0.0145064
609.598	0.0142778
609.676	0.0144775
609.754	0.0142314
609.832	0.0143953
609.910	0.0141873
609.988	0.0143671
610.067	0.0143169
610.145	0.0142861
610.223	0.0143655
610.301	0.0143646
610.379	0.0143655
610.457	0.0143692
610.535	0.0143519
610.613	0.0143211
610.692	0.0143175
610.770	0.0143233
610.848	0.0142220
610.926	0.0143410
611.004	0.0144241
611.082	0.0142712
611.160	0.0141780
611.238	0.0141781
611.317	0.0143502
611.395	0.0143694
611.473	0.0143739
611.551	0.0143402
611.629	0.0143551
611.707	0.0142518
611.785	0.0142918
611.863	0.0143638
611.942	0.0142151
612.020	0.0143053
612.098	0.0144171
612.176	0.0142605
612.254	0.0143457
612.332	0.0143571
612.410	0.0142881
612.488	0.0142426
612.567	0.0142519
612.645	0.0142921
612.723	0.0142248
612.801	0.0143201
612.879	0.0143460
612.957	0.0141102
613.035	0.0142410
613.113	0.0141582
613.192	0.0143504
613.270	0.0143620
613.348	0.0143913
613.426	0.0143655
613.504	0.0143272
613.582	0.0143085
613.660	0.0143520
613.738	0.0143391
613.817	0.0142748
613.895	0.0143810
613.973	0.0143967
614.051	0.0143842
614.129	0.0143501
614.207	0.0142908
614.285	0.0142581
614.363	0.0144563
614.442	0.0144298
614.520	0.0143111
614.598	0.0142796
614.676	0.0142822
614.754	0.0142376
614.832	0.0142253
614.910	0.0142567
614.988	0.0141944
615.067	0.0142690
615.145	0.0142933
615.223	0.0143056
615.301	0.0141792
615.379	0.0142210
615.457	0.0142377
615.535	0.0142639
615.613	0.0142191
615.692	0.0142068
615.770	0.0142091
615.848	0.0142236
615.926	0.0141658
616.004	0.0140825
616.082	0.0142880
616.160	0.0140891
616.238	0.0141764
616.317	0.0142238
616.395	0.0141088
616.473	0.0141415
616.551	0.0142097
616.629	0.0141915
616.707	0.0141278
616.785	0.0141973
616.863	0.0141778
616.942	0.0139558
617.020	0.0141388
617.098	0.0142204
617.176	0.0143325
617.254	0.0139644
617.332	0.0141367
617.410	0.0142147
617.488	0.0141282
617.567	0.0141727
617.645	0.0141700
617.723	0.0141714
617.801	0.0141817
617.879	0.0141378
617.957	0.0142297
618.035	0.0141152
618.113	0.0140623
618.192	0.0141233
618.270	0.0142426
618.348	0.0141384
618.426	0.0141468
618.504	0.0142738
618.582	0.0142485
618.660	0.0141834
618.738	0.0142812
618.817	0.0142863
618.895	0.0142732
618.973	0.0143723
619.051	0.0142529
619.129	0.0142693
619.207	0.0144392
619.285	0.0143783
619.363	0.0142441
619.442	0.0143112
619.520	0.0143108
619.598	0.0142564
619.676	0.0143336
619.754	0.0142191
619.832	0.0143917
619.910	0.0143503
619.988	0.0142867
620.067	0.0142462
620.145	0.0144310
620.223	0.0142335
620.301	0.0143466
620.379	0.0144188
620.457	0.0144110
620.535	0.0143494
620.613	0.0144754
620.692	0.0145017
620.770	0.0144534
620.848	0.0145363
620.926	0.0143813
621.004	0.0143586
621.082	0.0143962
621.160	0.0144947
621.238	0.0143971
621.317	0.0144729
621.395	0.0145249
621.473	0.0144283
621.551	0.0143871
621.629	0.0144889
621.707	0.0144807
621.785	0.0143636
621.863	0.0143436
621.942	0.0144615
622.020	0.0146535
622.098	0.0144703
622.176	0.0145679
622.254	0.0144533
622.332	0.0143332
622.410	0.0144957
622.488	0.0144326
622.567	0.0145171
622.645	0.0145518
622.723	0.0144453
622.801	0.0144771
622.879	0.0146260
622.957	0.0144820
623.035	0.0145821
623.113	0.0144938
623.192	0.0145740
623.270	0.0145021
623.348	0.0144409
623.426	0.0145068
623.504	0.0144923
623.582	0.0145449
623.660	0.0145033
623.738	0.0144910
623.817	0.0144314
623.895	0.0144885
623.973	0.0144728
624.051	0.0143804
624.129	0.0144692
624.207	0.0144806
624.285	0.0144515
624.363	0.0144791
624.442	0.0144397
624.520	0.0145119
624.598	0.0145099
624.676	0.0144135
624.754	0.0143388
624.832	0.0144439
624.910	0.0144506
624.988	0.0144965
625.067	0.0144945
625.145	0.0145319
625.223	0.0145567
625.301	0.0144483
625.379	0.0145389
625.457	0.0146012
625.535	0.0144305
625.613	0.0145416
625.692	0.0145830
625.770	0.0145482
625.848	0.0145833
625.926	0.0145334
626.004	0.0144616
626.082	0.0145124
626.160	0.0145866
626.238	0.0146098
626.317	0.0145347
626.395	0.0146240
626.473	0.0145628
626.551	0.0145057
626.629	0.0144776
626.707	0.0145586
626.785	0.0143882
626.863	0.0143642
626.942	0.0144199
627.020	0.0143373
627.098	0.0144526
627.176	0.0144711
627.254	0.0144178
627.332	0.0144071
627.410	0.0144110
627.488	0.0143658
627.567	0.0144080
627.645	0.0142632
627.723	0.0143488
627.801	0.0143319
627.879	0.0144791
627.957	0.0144580
628.035	0.0143218
628.113	0.0144668
628.192	0.0145213
628.270	0.0143745
628.348	0.0144631
628.426	0.0145576
628.504	0.0143875
628.582	0.0145019
628.660	0.0145425
628.738	0.0145591
628.817	0.0145886
628.895	0.0144906
628.973	0.0145280
629.051	0.0146516
629.129	0.0146600
629.207	0.0145922
629.285	0.0143961
629.363	0.0146344
629.442	0.0147049
629.520	0.0144990
629.598	0.0145615
629.676	0.0146749
629.754	0.0145262
629.832	0.0144865
629.910	0.0145528
629.988	0.0144212
630.067	0.0143417
630.145	0.0144174
630.223	0.0142177
630.301	0.0142275
630.379	0.0143825
630.457	0.0143813
630.535	0.0142819
630.613	0.0143030
630.692	0.0145275
630.770	0.0144771
630.848	0.0142490
630.926	0.0142838
631.004	0.0143575
631.082	0.0143613
631.160	0.0143584
631.238	0.0145507
631.317	0.0144164
631.395	0.0145005
631.473	0.0143797
631.551	0.0143137
631.629	0.0145166
631.707	0.0143450
631.785	0.0144525
631.863	0.0143369
631.942	0.0144320
632.020	0.0143775
632.098	0.0143475
632.176	0.0143412
632.254	0.0142340
632.332	0.0143239
632.410	0.0142043
632.488	0.0142519
632.567	0.0141498
632.645	0.0142844
632.723	0.0143336
632.801	0.0142918
632.879	0.0143618
632.957	0.0142248
633.035	0.0142391
633.113	0.0145453
633.192	0.0145075
633.270	0.0144447
633.348	0.0143937
633.426	0.0145125
633.504	0.0145742
633.582	0.0146679
633.660	0.0145365
633.738	0.0146095
633.817	0.0147050
633.895	0.0145715
633.973	0.0145849
634.051	0.0145918
634.129	0.0145872
634.207	0.0146188
634.285	0.0145593
634.363	0.0145077
634.442	0.0144547
634.520	0.0144431
634.598	0.0145562
634.676	0.0145708
634.754	0.0145814
634.832	0.0144627
634.910	0.0143783
634.988	0.0144016
635.067	0.0143948
635.145	0.0142363
635.223	0.0143050
635.301	0.0142094
635.379	0.0141023
635.457	0.0139285
635.535	0.0139066
635.613	0.0138990
635.692	0.0138700
635.770	0.0137722
635.848	0.0137441
635.926	0.0138801
636.004	0.0138368
636.082	0.0138543
636.160	0.0139892
636.238	0.0138624
636.317	0.0137683
636.395	0.0139583
636.473	0.0140290
636.551	0.0141667
636.629	0.0140175
636.707	0.0140892
636.785	0.0141017
636.863	0.0141791
636.942	0.0143208
637.020	0.0143983
637.098	0.0142995
637.176	0.0142632
637.254	0.0143671
637.332	0.0143214
637.410	0.0144053
637.488	0.0143793
637.567	0.0144501
637.645	0.0143079
637.723	0.0143848
637.801	0.0142581
637.879	0.0144695
637.957	0.0144276
638.035	0.0145519
638.113	0.0144787
638.192	0.0144411
638.270	0.0143248
638.348	0.0144820
638.426	0.0144758
638.504	0.0145369
638.582	0.0146864
638.660	0.0145491
638.738	0.0146008
638.817	0.0145854
638.895	0.0145389
638.973	0.0145368
639.051	0.0144801
639.129	0.0144489
639.207	0.0145337
639.285	0.0143240
639.363	0.0143398
639.442	0.0143528
639.520	0.0141061
639.598	0.0142401
639.676	0.0141843
639.754	0.0141911
639.832	0.0141282
639.910	0.0140152
639.988	0.0140577
640.067	0.0141051
640.145	0.0140086
640.223	0.0139558
640.301	0.0141248
640.379	0.0141155
640.457	0.0139596
640.535	0.0140998
640.613	0.0140244
640.692	0.0140466
640.770	0.0138969
640.848	0.0139402
640.926	0.0140662
641.004	0.0140454
641.082	0.0140715
641.160	0.0140219
641.238	0.0140402
641.317	0.0140746
641.395	0.0140079
641.473	0.0141501
641.551	0.0142148
641.629	0.0142747
641.707	0.0143201
641.785	0.0144241
641.863	0.0144449
641.942	0.0145290
642.020	0.0145002
642.098	0.0145580
642.176	0.0147380
642.254	0.0146452
642.332	0.0146693
642.410	0.0145389
642.488	0.0147030
642.567	0.0147596
642.645	0.0146124
642.723	0.0147238
642.801	0.0146935
642.879	0.0145194
642.957	0.0146305
643.035	0.0145915
643.113	0.0145060
643.192	0.0145345
643.270	0.0146305
643.348	0.0146896
643.426	0.0146539
643.504	0.0146168
643.582	0.0145559
643.660	0.0145089
643.738	0.0146581
643.817	0.0144549
643.895	0.0145097
643.973	0.0145752
644.051	0.0144971
644.129	0.0143623
644.207	0.0144979
644.285	0.0144206
644.363	0.0143811
644.442	0.0143901
644.520	0.0144182
644.598	0.0144848
644.676	0.0144460
644.754	0.0142484
644.832	0.0143200
644.910	0.0144870
644.988	0.0146184
645.067	0.0143157
645.145	0.0142642
645.223	0.0144241
645.301	0.0143707
645.379	0.0143938
645.457	0.0144411
645.535	0.0143318
645.613	0.0142313
645.692	0.0142745
645.770	0.0143808
645.848	0.0143967
645.926	0.0143056
646.004	0.0143504
646.082	0.0143054
646.160	0.0144077
646.238	0.0144018
646.317	0.0143939
646.395	0.0145188
646.473	0.0143852
646.551	0.0144463
646.629	0.0145204
646.707	0.0146607
646.785	0.0146593
646.863	0.0145232
646.942	0.0145834
647.020	0.0147025
647.098	0.0145937
647.176	0.0146407
647.254	0.0147572
647.332	0.0145725
647.410	0.0145897
647.488	0.0147126
647.567	0.0147022
647.645	0.0146044
647.723	0.0144971
647.801	0.0145555
647.879	0.0144640
647.957	0.0144485
648.035	0.0142970
648.113	0.0144938
648.192	0.0144588
648.270	0.0142499
648.348	0.0143608
648.426	0.0145426
648.504	0.0144172
648.582	0.0143214
648.660	0.0143571
648.738	0.0144527
648.817	0.0144591
648.895	0.0145100
648.973	0.0145211
649.051	0.0144368
649.129	0.0145538
649.207	0.0145998
649.285	0.0146128
649.363	0.0144862
649.442	0.0146098
649.520	0.0146048
649.598	0.0146828
649.676	0.0146973
649.754	0.0145727
649.832	0.0145811
649.910	0.0144175
649.988	0.0145309
650.067	0.0145081
650.145	0.0145135
650.223	0.0144312
650.301	0.0144930
650.379	0.0144971
650.457	0.0146318
650.535	0.0143736
650.613	0.0144823
650.692	0.0144913
650.770	0.0144507
650.848	0.0145451
650.926	0.0144308
651.004	0.0145750
651.082	0.0144647
651.160	0.0144808
651.238	0.0144869
651.317	0.0145441
651.395	0.0144526
651.473	0.0145041
651.551	0.0143780
651.629	0.0144324
651.707	0.0145641
651.785	0.0144369
651.863	0.0143938
651.942	0.0143163
652.020	0.0143614
652.098	0.0144057
652.176	0.0143726
652.254	0.0143759
652.332	0.0143447
652.410	0.0143622
652.488	0.0142884
652.567	0.0143239
652.645	0.0145349
652.723	0.0144334
652.801	0.0144521
652.879	0.0145308
652.957	0.0143736
653.035	0.0145448
653.113	0.0144798
653.192	0.0143893
653.270	0.0144358
653.348	0.0145661
653.426	0.0144720
653.504	0.0146114
653.582	0.0145032
653.660	0.0145167
653.738	0.0145554
653.817	0.0145954
653.895	0.0145857
653.973	0.0145517
654.051	0.0143864
654.129	0.0142139
654.207	0.0142945
654.285	0.0143649
654.363	0.0142712
654.442	0.0142984
654.520	0.0141960
654.598	0.0141158
654.676	0.0143403
654.754	0.0143310
654.832	0.0143687
654.910	0.0143597
654.988	0.0144241
655.067	0.0145212
655.145	0.0144945
655.223	0.0145369
655.301	0.0145458
655.379	0.0146422
655.457	0.0148505
655.535	0.0147944
655.613	0.0148744
655.692	0.0148393
655.770	0.0147930
655.848	0.0149650
655.926	0.0149521
656.004	0.0147549
656.082	0.0147375
656.160	0.0147024
656.238	0.0146753
656.317	0.0146482
656.395	0.0146303
656.473	0.0145310
656.551	0.0143830
656.629	0.0142883
656.707	0.0141497
656.785	0.0140772
656.863	0.0140900
656.942	0.0140137
657.020	0.0140065
657.098	0.0138802
657.176	0.0139490
657.254	0.0138892
657.332	0.0139590
657.410	0.0140159
657.488	0.0138274
657.567	0.0140067
657.645	0.0140079
657.723	0.0140221
657.801	0.0140775
657.879	0.0142035
657.957	0.0142912
658.035	0.0142885
658.113	0.0141215
658.192	0.0142093
658.270	0.0142307
658.348	0.0144188
658.426	0.0142855
658.504	0.0141924
658.582	0.0142329
658.660	0.0142648
658.738	0.0143192
658.817	0.0144118
658.895	0.0142230
658.973	0.0141623
659.051	0.0145323
659.129	0.0144116
659.207	0.0144345
659.285	0.0144874
659.363	0.0145403
659.442	0.0145128
659.520	0.0144566
659.598	0.0145538
659.676	0.0146182
659.754	0.0145181
659.832	0.0146542
659.910	0.0146983
659.988	0.0146439
660.067	0.0148571
660.145	0.0146870
660.223	0.0147170
660.301	0.0146909
660.379	0.0147140
660.457	0.0147104
660.535	0.0147902
660.613	0.0148234
660.692	0.0147295
660.770	0.0145399
660.848	0.0145539
660.926	0.0147068
661.004	0.0144322
661.082	0.0145345
661.160	0.0145347
661.238	0.0143330
661.317	0.0143768
661.395	0.0143478
661.473	0.0142876
661.551	0.0141850
661.629	0.0141439
661.707	0.0140577
661.785	0.0140769
661.863	0.0139169
661.942	0.0140262
662.020	0.0139909
662.098	0.0139468
662.176	0.0138994
662.254	0.0139661
662.332	0.0138901
662.410	0.0139085
662.488	0.0139088
662.567	0.0138842
662.645	0.0138089
662.723	0.0139285
662.801	0.0139496
662.879	0.0138420
662.957	0.0138436
663.035	0.0140605
663.113	0.0139304
663.192	0.0139357
663.270	0.0142008
663.348	0.0142352
663.426	0.0142493
663.504	0.0142522
663.582	0.0143495
663.660	0.0143932
663.738	0.0144994
663.817	0.0145894
663.895	0.0145167
663.973	0.0146664
664.051	0.0146537
664.129	0.0146985
664.207	0.0147232
664.285	0.0147984
664.363	0.0149590
664.442	0.0148325
664.520	0.0149576
664.598	0.0148815
664.676	0.0148824
664.754	0.0148836
664.832	0.0148284
664.910	0.0148423
664.988	0.0147742
665.067	0.0147596
665.145	0.0146918
665.223	0.0146149
665.301	0.0145350
665.379	0.0145222
665.457	0.0143828
665.535	0.0142304
665.613	0.0143990
665.692	0.0142473
665.770	0.0142082
665.848	0.0142680
665.926	0.0141637
666.004	0.0140322
666.082	0.0139816
666.160	0.0141996
666.238	0.0141263
666.317	0.0141341
666.395	0.0140467
666.473	0.0141034
666.551	0.0140061
666.629	0.0143025
666.707	0.0142687
666.785	0.0142971
666.863	0.0143852
666.942	0.0144655
667.020	0.0146064
667.098	0.0147733
667.176	0.0147741
667.254	0.0147401
667.332	0.0148576
667.410	0.0149541
667.488	0.0149869
667.567	0.0149564
667.645	0.0149224
667.723	0.0152029
667.801	0.0151097
667.879	0.0149793
667.957	0.0149889
668.035	0.0149611
668.113	0.0148650
668.192	0.0147792
668.270	0.0146292
668.348	0.0145993
668.426	0.0145892
668.504	0.0144796
668.582	0.0143466
668.660	0.0141673
668.738	0.0140813
668.817	0.0139853
668.895	0.0139683
668.973	0.0139557
669.051	0.0138754
669.129	0.0138433
669.207	0.0139957
669.285	0.0139047
669.363	0.0140083
669.442	0.0141339
669.520	0.0140228
669.598	0.0141107
669.676	0.0142559
669.754	0.0142241
669.832	0.0145683
669.910	0.0145104
669.988	0.0147028
670.067	0.0147133
670.145	0.0147063
670.223	0.0149482
670.301	0.0149437
670.379	0.0149390
670.457	0.0147514
670.535	0.0149313
670.613	0.0147927
670.692	0.0148077
670.770	0.0148396
670.848	0.0146118
670.926	0.0145770
671.004	0.0146035
671.082	0.0145229
671.160	0.0144170
671.238	0.0145202
671.317	0.0145281
671.395	0.0144161
671.473	0.0145261
671.551	0.0143941
671.629	0.0144983
671.707	0.0145328
671.785	0.0145406
671.863	0.0144103
671.942	0.0145357
672.020	0.0145113
672.098	0.0144953
672.176	0.0147441
672.254	0.0148593
672.332	0.0147504
672.410	0.0147622
672.488	0.0148813
672.567	0.0147417
672.645	0.0148987
672.723	0.0147942
672.801	0.0147527
672.879	0.0147791
672.957	0.0147382
673.035	0.0147814
673.113	0.0145524
673.192	0.0144910
673.270	0.0143095
673.348	0.0142905
673.426	0.0142057
673.504	0.0142639
673.582	0.0140060
673.660	0.0138046
673.738	0.0139828
673.817	0.0137737
673.895	0.0137141
673.973	0.0138694
674.051	0.0138219
674.129	0.0137231
674.207	0.0136636
674.285	0.0136522
674.363	0.0136896
674.442	0.0138290
674.520	0.0137112
674.598	0.0137785
674.676	0.0139838
674.754	0.0138894
674.832	0.0140190
674.910	0.0141104
674.988	0.0141132
675.067	0.0141737
675.145	0.0142244
675.223	0.0142915
675.301	0.0143768
675.379	0.0144435
675.457	0.0145773
675.535	0.0144550
675.613	0.0145169
675.692	0.0145547
675.770	0.0145777
675.848	0.0145730
675.926	0.0145594
676.004	0.0144616
676.082	0.0144847
676.160	0.0145824
676.238	0.0145929
676.317	0.0143916
676.395	0.0143340
676.473	0.0142382
676.551	0.0144193
676.629	0.0141077
676.707	0.0142123
676.785	0.0143029
676.863	0.0142710
676.942	0.0141936
677.020	0.0141394
677.098	0.0141977
677.176	0.0141470
677.254	0.0142231
677.332	0.0142001
677.410	0.0140160
677.488	0.0140477
677.567	0.0141005
677.645	0.0138868
677.723	0.0139960
677.801	0.0140572
677.879	0.0140361
677.957	0.0139500
678.035	0.0140722
678.113	0.0140050
678.192	0.0139930
678.270	0.0141008
678.348	0.0141792
678.426	0.0141182
678.504	0.0139624
678.582	0.0143977
678.660	0.0142374
678.738	0.0141263
678.817	0.0141484
678.895	0.0141799
678.973	0.0143656
679.051	0.0144474
679.129	0.0145628
679.207	0.0145647
679.285	0.0144341
679.363	0.0146314
679.442	0.0145541
679.520	0.0145483
679.598	0.0146136
679.676	0.0146924
679.754	0.0144689
679.832	0.0146230
679.910	0.0147691
679.988	0.0146515
680.067	0.0145631
680.145	0.0146298
680.223	0.0147089
680.301	0.0147211
680.379	0.0147240
680.457	0.0146861
680.535	0.0147250
680.613	0.0148423
680.692	0.0147151
680.770	0.0148382
680.848	0.0147522
680.926	0.0147411
681.004	0.0147485
681.082	0.0147632
681.160	0.0147604
681.238	0.0147231
681.317	0.0147887
681.395	0.0148006
681.473	0.0145654
681.551	0.0147252
681.629	0.0146957
681.707	0.0145876
681.785	0.0144418
681.863	0.0144292
681.942	0.0144999
682.020	0.0144365
682.098	0.0143947
682.176	0.0143589
682.254	0.0142003
682.332	0.0143422
682.410	0.0140536
682.488	0.0141057
682.567	0.0141356
682.645	0.0139374
682.723	0.0139352
682.801	0.0138092
682.879	0.0137516
682.957	0.0138277
683.035	0.0139391
683.113	0.0138104
683.192	0.0139737
683.270	0.0140737
683.348	0.0139989
683.426	0.0139407
683.504	0.0141155
683.582	0.0141338
683.660	0.0142436
683.738	0.0143493
683.817	0.0146059
683.895	0.0145470
683.973	0.0146125
684.051	0.0148119
684.129	0.0149915
684.207	0.0149955
684.285	0.0151452
684.363	0.0151593
684.442	0.0150201
684.520	0.0151543
684.598	0.0151932
684.676	0.0151181
684.754	0.0152218
684.832	0.0152026
684.910	0.0150598
684.988	0.0149961
685.067	0.0148923
685.145	0.0146538
685.223	0.0145424
685.301	0.0144118
685.379	0.0143738
685.457	0.0143231
685.535	0.0141319
685.613	0.0139978
685.692	0.0139204
