05/28/2022	14:30:57	Ver.	4.1	UNKNOWN
Optical Delay	599.988409	Delta X		0.078125	Sweeps	1	Scan Rate	0/0
Coordinates	Axis 1	NaN	Axis 2	NaN	Axis 3	NaN	Axis 4	NaN	Axis 5	NaN	Axis 6	0.000000
TX Power	0.000000	RX Power	0.000000

599.988	0.0142613
600.067	0.0142624
600.145	0.0142684
600.223	0.0142429
600.301	0.0142913
600.379	0.0142091
600.457	0.0142915
600.535	0.0141451
600.613	0.0142072
600.692	0.0142156
600.770	0.0141506
600.848	0.0141733
600.926	0.0141888
601.004	0.0142841
601.082	0.0141879
601.160	0.0142744
601.238	0.0143344
601.317	0.0142389
601.395	0.0144003
601.473	0.0142294
601.551	0.0141383
601.629	0.0141026
601.707	0.0141867
601.785	0.0142004
601.863	0.0141719
601.942	0.0142215
602.020	0.0142393
602.098	0.0140550
602.176	0.0140453
602.254	0.0141840
602.332	0.0142142
602.410	0.0142171
602.488	0.0141248
602.567	0.0142422
602.645	0.0141679
602.723	0.0141677
602.801	0.0142583
602.879	0.0141338
602.957	0.0140388
603.035	0.0141429
603.113	0.0141560
603.192	0.0141539
603.270	0.0141354
603.348	0.0141208
603.426	0.0141977
603.504	0.0141458
603.582	0.0140279
603.660	0.0141115
603.738	0.0141139
603.817	0.0142137
603.895	0.0140572
603.973	0.0142829
604.051	0.0142436
604.129	0.0141463
604.207	0.0141256
604.285	0.0140771
604.363	0.0140237
604.442	0.0140834
604.520	0.0141302
604.598	0.0142120
604.676	0.0140951
604.754	0.0142017
604.832	0.0142848
604.910	0.0141595
604.988	0.0142251
605.067	0.0141264
605.145	0.0142817
605.223	0.0140910
605.301	0.0142936
605.379	0.0141934
605.457	0.0143112
605.535	0.0143218
605.613	0.0141603
605.692	0.0142740
605.770	0.0143747
605.848	0.0143011
605.926	0.0142156
606.004	0.0142016
606.082	0.0143842
606.160	0.0143089
606.238	0.0142533
606.317	0.0141462
606.395	0.0142822
606.473	0.0141838
606.551	0.0142451
606.629	0.0142720
606.707	0.0141917
606.785	0.0143555
606.863	0.0142760
606.942	0.0144058
607.020	0.0144810
607.098	0.0142146
607.176	0.0142681
607.254	0.0143645
607.332	0.0143786
607.410	0.0142493
607.488	0.0143203
607.567	0.0143163
607.645	0.0143326
607.723	0.0143470
607.801	0.0143808
607.879	0.0141492
607.957	0.0143172
608.035	0.0144153
608.113	0.0142392
608.192	0.0144371
608.270	0.0143748
608.348	0.0143047
608.426	0.0143977
608.504	0.0142513
608.582	0.0144199
608.660	0.0143240
608.738	0.0143069
608.817	0.0144685
608.895	0.0143591
608.973	0.0144196
609.051	0.0143516
609.129	0.0144674
609.207	0.0144748
609.285	0.0142836
609.363	0.0144433
609.442	0.0143735
609.520	0.0143780
609.598	0.0144029
609.676	0.0144487
609.754	0.0144064
609.832	0.0143942
609.910	0.0144238
609.988	0.0144169
610.067	0.0144226
610.145	0.0145480
610.223	0.0142423
610.301	0.0143438
610.379	0.0143539
610.457	0.0143298
610.535	0.0144681
610.613	0.0144501
610.692	0.0144290
610.770	0.0143799
610.848	0.0142706
610.926	0.0144805
611.004	0.0144814
611.082	0.0144176
611.160	0.0143849
611.238	0.0143881
611.317	0.0143066
611.395	0.0142969
611.473	0.0143484
611.551	0.0144708
611.629	0.0144494
611.707	0.0144582
611.785	0.0144047
611.863	0.0146044
611.942	0.0144589
612.020	0.0143510
612.098	0.0144863
612.176	0.0144498
612.254	0.0145112
612.332	0.0144533
612.410	0.0144753
612.488	0.0143748
612.567	0.0143804
612.645	0.0144122
612.723	0.0144375
612.801	0.0145102
612.879	0.0145318
612.957	0.0144307
613.035	0.0145004
613.113	0.0145873
613.192	0.0144473
613.270	0.0144130
613.348	0.0144554
613.426	0.0144907
613.504	0.0144353
613.582	0.0145107
613.660	0.0144432
613.738	0.0144215
613.817	0.0142981
613.895	0.0145564
613.973	0.0144228
614.051	0.0142903
614.129	0.0144291
614.207	0.0144429
614.285	0.0145396
614.363	0.0143024
614.442	0.0143513
614.520	0.0143787
614.598	0.0144168
614.676	0.0143675
614.754	0.0144206
614.832	0.0143151
614.910	0.0143785
614.988	0.0143418
615.067	0.0142966
615.145	0.0143246
615.223	0.0144032
615.301	0.0143326
615.379	0.0143761
615.457	0.0144273
615.535	0.0143598
615.613	0.0144376
615.692	0.0143932
615.770	0.0142839
615.848	0.0143286
615.926	0.0143149
616.004	0.0143948
616.082	0.0143058
616.160	0.0142828
616.238	0.0142498
616.317	0.0143522
616.395	0.0142537
616.473	0.0143824
616.551	0.0143218
616.629	0.0142670
616.707	0.0142606
616.785	0.0142961
616.863	0.0143232
616.942	0.0143721
617.020	0.0143546
617.098	0.0141077
617.176	0.0143040
617.254	0.0144980
617.332	0.0142254
617.410	0.0142374
617.488	0.0144664
617.567	0.0142653
617.645	0.0142596
617.723	0.0143340
617.801	0.0142956
617.879	0.0142980
617.957	0.0142310
618.035	0.0142711
618.113	0.0142649
618.192	0.0142999
618.270	0.0144668
618.348	0.0144252
618.426	0.0143058
618.504	0.0143744
618.582	0.0142704
618.660	0.0143391
618.738	0.0143352
618.817	0.0142711
618.895	0.0142923
618.973	0.0144007
619.051	0.0143034
619.129	0.0143948
619.207	0.0143142
619.285	0.0143668
619.363	0.0143983
619.442	0.0143454
619.520	0.0143130
619.598	0.0143092
619.676	0.0142999
619.754	0.0144716
619.832	0.0144498
619.910	0.0143525
619.988	0.0142476
620.067	0.0143291
620.145	0.0143319
620.223	0.0143141
620.301	0.0142683
620.379	0.0143128
620.457	0.0143037
620.535	0.0143955
620.613	0.0143083
620.692	0.0143932
620.770	0.0143751
620.848	0.0143513
620.926	0.0144169
621.004	0.0143452
621.082	0.0145023
621.160	0.0143517
621.238	0.0143298
621.317	0.0143868
621.395	0.0145556
621.473	0.0143440
621.551	0.0143472
621.629	0.0144363
621.707	0.0143382
621.785	0.0142568
621.863	0.0144212
621.942	0.0144115
622.020	0.0143053
622.098	0.0143446
622.176	0.0143109
622.254	0.0143543
622.332	0.0143737
622.410	0.0142229
622.488	0.0143001
622.567	0.0142766
622.645	0.0142970
622.723	0.0142576
622.801	0.0142592
622.879	0.0143362
622.957	0.0143194
623.035	0.0142909
623.113	0.0142524
623.192	0.0144087
623.270	0.0142253
623.348	0.0141209
623.426	0.0143685
623.504	0.0142692
623.582	0.0144333
623.660	0.0142738
623.738	0.0142680
623.817	0.0143015
623.895	0.0143243
623.973	0.0144240
624.051	0.0143043
624.129	0.0142767
624.207	0.0143126
624.285	0.0142680
624.363	0.0142016
624.442	0.0142592
624.520	0.0144353
624.598	0.0144637
624.676	0.0143276
624.754	0.0140634
624.832	0.0143117
624.910	0.0141632
624.988	0.0142874
625.067	0.0142970
625.145	0.0141649
625.223	0.0141373
625.301	0.0141445
625.379	0.0141853
625.457	0.0141513
625.535	0.0140680
625.613	0.0141254
625.692	0.0142255
625.770	0.0142454
625.848	0.0141577
625.926	0.0141788
626.004	0.0141471
626.082	0.0142055
626.160	0.0141091
626.238	0.0141389
626.317	0.0140646
626.395	0.0141585
626.473	0.0142062
626.551	0.0141529
626.629	0.0141460
626.707	0.0142436
626.785	0.0143070
626.863	0.0142637
626.942	0.0141767
627.020	0.0140850
627.098	0.0143031
627.176	0.0142338
627.254	0.0141199
627.332	0.0142410
627.410	0.0142313
627.488	0.0141608
627.567	0.0143590
627.645	0.0144321
627.723	0.0142661
627.801	0.0141566
627.879	0.0143552
627.957	0.0141320
628.035	0.0140965
628.113	0.0143054
628.192	0.0141798
628.270	0.0139773
628.348	0.0140424
628.426	0.0141820
628.504	0.0141503
628.582	0.0142108
628.660	0.0140695
628.738	0.0140774
628.817	0.0141839
628.895	0.0141240
628.973	0.0140021
629.051	0.0140447
629.129	0.0140782
629.207	0.0141136
629.285	0.0140491
629.363	0.0141879
629.442	0.0142231
629.520	0.0141804
629.598	0.0140934
629.676	0.0142783
629.754	0.0141785
629.832	0.0143179
629.910	0.0142009
629.988	0.0143294
630.067	0.0143980
630.145	0.0143442
630.223	0.0142444
630.301	0.0142027
630.379	0.0141558
630.457	0.0142885
630.535	0.0142760
630.613	0.0143321
630.692	0.0142877
630.770	0.0142040
630.848	0.0142142
630.926	0.0142912
631.004	0.0142131
631.082	0.0141073
631.160	0.0142213
631.238	0.0141687
631.317	0.0142883
631.395	0.0143648
631.473	0.0143019
631.551	0.0144070
631.629	0.0143314
631.707	0.0143475
631.785	0.0145300
631.863	0.0145161
631.942	0.0144096
632.020	0.0144917
632.098	0.0144659
632.176	0.0144844
632.254	0.0145499
632.332	0.0145373
632.410	0.0143616
632.488	0.0145238
632.567	0.0147273
632.645	0.0144863
632.723	0.0145504
632.801	0.0145402
632.879	0.0145196
632.957	0.0145360
633.035	0.0145713
633.113	0.0143887
633.192	0.0144380
633.270	0.0143010
633.348	0.0141843
633.426	0.0141970
633.504	0.0141122
633.582	0.0142226
633.660	0.0140780
633.738	0.0140125
633.817	0.0138969
633.895	0.0138354
633.973	0.0137997
634.051	0.0139574
634.129	0.0138403
634.207	0.0139059
634.285	0.0139154
634.363	0.0140134
634.442	0.0140899
634.520	0.0141545
634.598	0.0142506
634.676	0.0142142
634.754	0.0143022
634.832	0.0144418
634.910	0.0144923
634.988	0.0144199
635.067	0.0144627
635.145	0.0144246
635.223	0.0145168
635.301	0.0146268
635.379	0.0145145
635.457	0.0145605
635.535	0.0145211
635.613	0.0144942
635.692	0.0146272
635.770	0.0145356
635.848	0.0144290
635.926	0.0144855
636.004	0.0144875
636.082	0.0146354
636.160	0.0146134
636.238	0.0146128
636.317	0.0144706
636.395	0.0144113
636.473	0.0143737
636.551	0.0143812
636.629	0.0143736
636.707	0.0145232
636.785	0.0145235
636.863	0.0144653
636.942	0.0145738
637.020	0.0145013
637.098	0.0145435
637.176	0.0145524
637.254	0.0143990
637.332	0.0144955
637.410	0.0144465
637.488	0.0143440
637.567	0.0143328
637.645	0.0143803
637.723	0.0143225
637.801	0.0142630
637.879	0.0141507
637.957	0.0142580
638.035	0.0141682
638.113	0.0141109
638.192	0.0139590
638.270	0.0138672
638.348	0.0139784
638.426	0.0139845
638.504	0.0140050
638.582	0.0139184
638.660	0.0141127
638.738	0.0140089
638.817	0.0141047
638.895	0.0141306
638.973	0.0140717
639.051	0.0139994
639.129	0.0140690
639.207	0.0141246
639.285	0.0140918
639.363	0.0140963
639.442	0.0141617
639.520	0.0141322
639.598	0.0140498
639.676	0.0142118
639.754	0.0142472
639.832	0.0143192
639.910	0.0143887
639.988	0.0144072
640.067	0.0143170
640.145	0.0144543
640.223	0.0145712
640.301	0.0144978
640.379	0.0145357
640.457	0.0146606
640.535	0.0147195
640.613	0.0146466
640.692	0.0146136
640.770	0.0146735
640.848	0.0145042
640.926	0.0145322
641.004	0.0146497
641.082	0.0146532
641.160	0.0146756
641.238	0.0145528
641.317	0.0144796
641.395	0.0143698
641.473	0.0144077
641.551	0.0143957
641.629	0.0143738
641.707	0.0143013
641.785	0.0144028
641.863	0.0142609
641.942	0.0144146
642.020	0.0144797
642.098	0.0143275
642.176	0.0144868
642.254	0.0143568
642.332	0.0142641
642.410	0.0144551
642.488	0.0145097
642.567	0.0143439
642.645	0.0143529
642.723	0.0143276
642.801	0.0143257
642.879	0.0142419
642.957	0.0142725
643.035	0.0142702
643.113	0.0143390
643.192	0.0142214
643.270	0.0142744
643.348	0.0141364
643.426	0.0141577
643.504	0.0140845
643.582	0.0141599
643.660	0.0141805
643.738	0.0142144
643.817	0.0142594
643.895	0.0145105
643.973	0.0143521
644.051	0.0143010
644.129	0.0143545
644.207	0.0143634
644.285	0.0143794
644.363	0.0142567
644.442	0.0143029
644.520	0.0143237
644.598	0.0142941
644.676	0.0143536
644.754	0.0142280
644.832	0.0143555
644.910	0.0143159
644.988	0.0143301
645.067	0.0143823
645.145	0.0143624
645.223	0.0141830
645.301	0.0144899
645.379	0.0145026
645.457	0.0144685
645.535	0.0145177
645.613	0.0144854
645.692	0.0145020
645.770	0.0145474
645.848	0.0145882
645.926	0.0143999
646.004	0.0146437
646.082	0.0145648
646.160	0.0144186
646.238	0.0144395
646.317	0.0146439
646.395	0.0145478
646.473	0.0144826
646.551	0.0145010
646.629	0.0143661
646.707	0.0143793
646.785	0.0143750
646.863	0.0143492
646.942	0.0143258
647.020	0.0142855
647.098	0.0141883
647.176	0.0141506
647.254	0.0142534
647.332	0.0142339
647.410	0.0141694
647.488	0.0140345
647.567	0.0140835
647.645	0.0141641
647.723	0.0141547
647.801	0.0141303
647.879	0.0141495
647.957	0.0141560
648.035	0.0142586
648.113	0.0142780
648.192	0.0143504
648.270	0.0142508
648.348	0.0144112
648.426	0.0143837
648.504	0.0144870
648.582	0.0145140
648.660	0.0145704
648.738	0.0143569
648.817	0.0143193
648.895	0.0143410
648.973	0.0143040
649.051	0.0142317
649.129	0.0143658
649.207	0.0143813
649.285	0.0143679
649.363	0.0143594
649.442	0.0142431
649.520	0.0144518
649.598	0.0144125
649.676	0.0145225
649.754	0.0144482
649.832	0.0144058
649.910	0.0145416
649.988	0.0143964
650.067	0.0142935
650.145	0.0143934
650.223	0.0144431
650.301	0.0144251
650.379	0.0144831
650.457	0.0144091
650.535	0.0143355
650.613	0.0142272
650.692	0.0142702
650.770	0.0142786
650.848	0.0142525
650.926	0.0141531
651.004	0.0142662
651.082	0.0140939
651.160	0.0140137
651.238	0.0140411
651.317	0.0141116
651.395	0.0142139
651.473	0.0140857
651.551	0.0142109
651.629	0.0141707
651.707	0.0141232
651.785	0.0141979
651.863	0.0141745
651.942	0.0141338
652.020	0.0140257
652.098	0.0143552
652.176	0.0142564
652.254	0.0142961
652.332	0.0142652
652.410	0.0142289
652.488	0.0143414
652.567	0.0143430
652.645	0.0144096
652.723	0.0144982
652.801	0.0144627
652.879	0.0144881
652.957	0.0144368
653.035	0.0145328
653.113	0.0145457
653.192	0.0143766
653.270	0.0143199
653.348	0.0144991
653.426	0.0144485
653.504	0.0143777
653.582	0.0144402
653.660	0.0144229
653.738	0.0143425
653.817	0.0144714
653.895	0.0144846
653.973	0.0142648
654.051	0.0143826
654.129	0.0145597
654.207	0.0143744
654.285	0.0145398
654.363	0.0144366
654.442	0.0144034
654.520	0.0144453
654.598	0.0144592
654.676	0.0143044
654.754	0.0142755
654.832	0.0144475
654.910	0.0143173
654.988	0.0142818
655.067	0.0141668
655.145	0.0140414
655.223	0.0142362
655.301	0.0142005
655.379	0.0141418
655.457	0.0138850
655.535	0.0141178
655.613	0.0140398
655.692	0.0140323
655.770	0.0142740
655.848	0.0141196
655.926	0.0140046
656.004	0.0140543
656.082	0.0142712
656.160	0.0140226
656.238	0.0142029
656.317	0.0141852
656.395	0.0140777
656.473	0.0140987
656.551	0.0142159
656.629	0.0141718
656.707	0.0141391
656.785	0.0141315
656.863	0.0143304
656.942	0.0141190
657.020	0.0142015
657.098	0.0142258
657.176	0.0142165
657.254	0.0143873
657.332	0.0144783
657.410	0.0144150
657.488	0.0144376
657.567	0.0144234
657.645	0.0145776
657.723	0.0144557
657.801	0.0145574
657.879	0.0146286
657.957	0.0147282
658.035	0.0147990
658.113	0.0145705
658.192	0.0147392
658.270	0.0147090
658.348	0.0147424
658.426	0.0147071
658.504	0.0148035
658.582	0.0146879
658.660	0.0148186
658.738	0.0148229
658.817	0.0148859
658.895	0.0146531
658.973	0.0147105
659.051	0.0146568
659.129	0.0148515
659.207	0.0145878
659.285	0.0145491
659.363	0.0147395
659.442	0.0146032
659.520	0.0144022
659.598	0.0143905
659.676	0.0143744
659.754	0.0143916
659.832	0.0144376
659.910	0.0142677
659.988	0.0143900
660.067	0.0143802
660.145	0.0142460
660.223	0.0142506
660.301	0.0142002
660.379	0.0142070
660.457	0.0141372
660.535	0.0140267
660.613	0.0141745
660.692	0.0140536
660.770	0.0139445
660.848	0.0141102
660.926	0.0139988
661.004	0.0137527
661.082	0.0138908
661.160	0.0139408
661.238	0.0139421
661.317	0.0138977
661.395	0.0137274
661.473	0.0138630
661.551	0.0137619
661.629	0.0137650
661.707	0.0137305
661.785	0.0137740
661.863	0.0137851
661.942	0.0138268
662.020	0.0138022
662.098	0.0138429
662.176	0.0139608
662.254	0.0138615
662.332	0.0139297
662.410	0.0142139
662.488	0.0141396
662.567	0.0140873
662.645	0.0143277
662.723	0.0145399
662.801	0.0143736
662.879	0.0144550
662.957	0.0145660
663.035	0.0145940
663.113	0.0147567
663.192	0.0146114
663.270	0.0145056
663.348	0.0147581
663.426	0.0147582
663.504	0.0145863
663.582	0.0145663
663.660	0.0146341
663.738	0.0146674
663.817	0.0145042
663.895	0.0146436
663.973	0.0145913
664.051	0.0144486
664.129	0.0144867
664.207	0.0145915
664.285	0.0144739
664.363	0.0144197
664.442	0.0144032
664.520	0.0143437
664.598	0.0143360
664.676	0.0142747
664.754	0.0141621
664.832	0.0141055
664.910	0.0141687
664.988	0.0140903
665.067	0.0139718
665.145	0.0140245
665.223	0.0139181
665.301	0.0137376
665.379	0.0139130
665.457	0.0139192
665.535	0.0138214
665.613	0.0138247
665.692	0.0138310
665.770	0.0138168
665.848	0.0140237
665.926	0.0139010
666.004	0.0140499
666.082	0.0140631
666.160	0.0142307
666.238	0.0143229
666.317	0.0142222
666.395	0.0144641
666.473	0.0143925
666.551	0.0143040
666.629	0.0146211
666.707	0.0146371
666.785	0.0147157
666.863	0.0147425
666.942	0.0148666
667.020	0.0147901
667.098	0.0147744
667.176	0.0149269
667.254	0.0149177
667.332	0.0149313
667.410	0.0149171
667.488	0.0148741
667.567	0.0148864
667.645	0.0147205
667.723	0.0149172
667.801	0.0148248
667.879	0.0145477
667.957	0.0145872
668.035	0.0145393
668.113	0.0143865
668.192	0.0142886
668.270	0.0143136
668.348	0.0141586
668.426	0.0139438
668.504	0.0140049
668.582	0.0139951
668.660	0.0139013
668.738	0.0138559
668.817	0.0139154
668.895	0.0140222
668.973	0.0139455
669.051	0.0141204
669.129	0.0140577
669.207	0.0139451
669.285	0.0142101
669.363	0.0142633
669.442	0.0143124
669.520	0.0142205
669.598	0.0142598
669.676	0.0143720
669.754	0.0144150
669.832	0.0145340
669.910	0.0146620
669.988	0.0146378
670.067	0.0147358
670.145	0.0147434
670.223	0.0148777
670.301	0.0148489
670.379	0.0148634
670.457	0.0146228
670.535	0.0145372
670.613	0.0146183
670.692	0.0145419
670.770	0.0144548
670.848	0.0145227
670.926	0.0142297
671.004	0.0140650
671.082	0.0140765
671.160	0.0140692
671.238	0.0140495
671.317	0.0139043
671.395	0.0138520
671.473	0.0139332
671.551	0.0138743
671.629	0.0137938
671.707	0.0138849
671.785	0.0140443
671.863	0.0140725
671.942	0.0141673
672.020	0.0140814
672.098	0.0143666
672.176	0.0142903
672.254	0.0143349
672.332	0.0144840
672.410	0.0144967
672.488	0.0146947
672.567	0.0147189
672.645	0.0147524
672.723	0.0147749
672.801	0.0148909
672.879	0.0147876
672.957	0.0149094
673.035	0.0147434
673.113	0.0146169
673.192	0.0146350
673.270	0.0144786
673.348	0.0143644
673.426	0.0144164
673.504	0.0143282
673.582	0.0141702
673.660	0.0140289
673.738	0.0139175
673.817	0.0138024
673.895	0.0139452
673.973	0.0138620
674.051	0.0138760
674.129	0.0137987
674.207	0.0137929
674.285	0.0138931
674.363	0.0138583
674.442	0.0137810
674.520	0.0139202
674.598	0.0140021
674.676	0.0140494
674.754	0.0142158
674.832	0.0143039
674.910	0.0143662
674.988	0.0144326
675.067	0.0144995
675.145	0.0145837
675.223	0.0147099
675.301	0.0148093
675.379	0.0148747
675.457	0.0149534
675.535	0.0149762
675.613	0.0149504
675.692	0.0148978
675.770	0.0149759
675.848	0.0149297
675.926	0.0147617
676.004	0.0149702
676.082	0.0148801
676.160	0.0146032
676.238	0.0146276
676.317	0.0146585
676.395	0.0145881
676.473	0.0145952
676.551	0.0145160
676.629	0.0144155
676.707	0.0142376
676.785	0.0142570
676.863	0.0143352
676.942	0.0143362
677.020	0.0142858
677.098	0.0143277
677.176	0.0141143
677.254	0.0142617
677.332	0.0141882
677.410	0.0140323
677.488	0.0140234
677.567	0.0140819
677.645	0.0141127
677.723	0.0139697
677.801	0.0140474
677.879	0.0140008
677.957	0.0140911
678.035	0.0140144
678.113	0.0140895
678.192	0.0141179
678.270	0.0139900
678.348	0.0142245
678.426	0.0140840
678.504	0.0140802
678.582	0.0140211
678.660	0.0140909
678.738	0.0141339
678.817	0.0139099
678.895	0.0140633
678.973	0.0140952
679.051	0.0140679
679.129	0.0141955
679.207	0.0141217
679.285	0.0142171
679.363	0.0142117
679.442	0.0142958
679.520	0.0141563
679.598	0.0143447
679.676	0.0142763
679.754	0.0144768
679.832	0.0144301
679.910	0.0144346
679.988	0.0144300
680.067	0.0145107
680.145	0.0146424
680.223	0.0146534
680.301	0.0146214
680.379	0.0146835
680.457	0.0147703
680.535	0.0147148
680.613	0.0148547
680.692	0.0148988
680.770	0.0148849
680.848	0.0149766
680.926	0.0149397
681.004	0.0148647
681.082	0.0146982
681.160	0.0146852
681.238	0.0146036
681.317	0.0147152
681.395	0.0146613
681.473	0.0144485
681.551	0.0143697
681.629	0.0142788
681.707	0.0141643
681.785	0.0143275
681.863	0.0139561
681.942	0.0139272
682.020	0.0139176
682.098	0.0138165
682.176	0.0136308
682.254	0.0136227
682.332	0.0136927
682.410	0.0134806
682.488	0.0135892
682.567	0.0135992
682.645	0.0134393
682.723	0.0136063
682.801	0.0135358
682.879	0.0135246
682.957	0.0136613
683.035	0.0136043
683.113	0.0136820
683.192	0.0139133
683.270	0.0137923
683.348	0.0138475
683.426	0.0139766
683.504	0.0141924
683.582	0.0143301
683.660	0.0142931
683.738	0.0143656
683.817	0.0145371
683.895	0.0145860
683.973	0.0146002
684.051	0.0148510
684.129	0.0149130
684.207	0.0149114
684.285	0.0150856
684.363	0.0149158
684.442	0.0150526
684.520	0.0148673
684.598	0.0149820
684.676	0.0148651
684.754	0.0149588
684.832	0.0148733
684.910	0.0147324
684.988	0.0147028
685.067	0.0146070
685.145	0.0146072
685.223	0.0144047
685.301	0.0143134
685.379	0.0142136
685.457	0.0141431
685.535	0.0141545
685.613	0.0140856
685.692	0.0141531
