05/28/2022	14:31:17	Ver.	4.1	UNKNOWN
Optical Delay	599.988409	Delta X		0.078125	Sweeps	1	Scan Rate	0/0
Coordinates	Axis 1	NaN	Axis 2	NaN	Axis 3	NaN	Axis 4	NaN	Axis 5	NaN	Axis 6	0.000000
TX Power	0.000000	RX Power	0.000000

599.988	0.0141302
600.067	0.0142269
600.145	0.0140340
600.223	0.0142075
600.301	0.0139221
600.379	0.0140121
600.457	0.0141750
600.535	0.0140675
600.613	0.0139659
600.692	0.0140956
600.770	0.0140522
600.848	0.0140901
600.926	0.0142199
601.004	0.0140744
601.082	0.0140606
601.160	0.0141286
601.238	0.0141506
601.317	0.0142319
601.395	0.0142766
601.473	0.0142825
601.551	0.0141533
601.629	0.0141360
601.707	0.0142331
601.785	0.0141900
601.863	0.0142510
601.942	0.0143425
602.020	0.0143274
602.098	0.0143458
602.176	0.0143170
602.254	0.0142754
602.332	0.0144292
602.410	0.0144330
602.488	0.0143484
602.567	0.0143349
602.645	0.0143192
602.723	0.0145335
602.801	0.0144979
602.879	0.0144595
602.957	0.0144252
603.035	0.0142942
603.113	0.0143620
603.192	0.0144091
603.270	0.0144572
603.348	0.0145235
603.426	0.0143687
603.504	0.0144289
603.582	0.0144254
603.660	0.0145026
603.738	0.0143224
603.817	0.0142332
603.895	0.0144533
603.973	0.0144487
604.051	0.0143546
604.129	0.0143166
604.207	0.0143958
604.285	0.0142693
604.363	0.0144335
604.442	0.0143945
604.520	0.0144405
604.598	0.0145245
604.676	0.0144362
604.754	0.0144252
604.832	0.0143776
604.910	0.0144335
604.988	0.0144277
605.067	0.0144378
605.145	0.0143932
605.223	0.0143906
605.301	0.0143988
605.379	0.0142265
605.457	0.0143084
605.535	0.0142171
605.613	0.0142913
605.692	0.0143243
605.770	0.0143164
605.848	0.0142983
605.926	0.0143411
606.004	0.0143099
606.082	0.0144653
606.160	0.0144444
606.238	0.0143568
606.317	0.0144013
606.395	0.0142345
606.473	0.0142522
606.551	0.0143532
606.629	0.0143661
606.707	0.0144370
606.785	0.0144081
606.863	0.0143594
606.942	0.0143876
607.020	0.0143009
607.098	0.0143723
607.176	0.0143851
607.254	0.0142989
607.332	0.0143255
607.410	0.0143775
607.488	0.0143064
607.567	0.0143528
607.645	0.0143146
607.723	0.0143038
607.801	0.0142892
607.879	0.0143031
607.957	0.0144097
608.035	0.0141790
608.113	0.0142933
608.192	0.0143531
608.270	0.0142031
608.348	0.0144591
608.426	0.0142788
608.504	0.0144263
608.582	0.0143164
608.660	0.0142881
608.738	0.0143813
608.817	0.0142944
608.895	0.0143496
608.973	0.0144045
609.051	0.0143961
609.129	0.0143315
609.207	0.0142186
609.285	0.0143216
609.363	0.0144385
609.442	0.0145415
609.520	0.0144377
609.598	0.0143259
609.676	0.0144747
609.754	0.0144747
609.832	0.0145491
609.910	0.0145707
609.988	0.0144651
610.067	0.0145113
610.145	0.0143373
610.223	0.0143532
610.301	0.0145331
610.379	0.0144547
610.457	0.0145759
610.535	0.0144429
610.613	0.0145207
610.692	0.0144665
610.770	0.0144952
610.848	0.0143875
610.926	0.0143951
611.004	0.0143804
611.082	0.0144740
611.160	0.0144875
611.238	0.0143269
611.317	0.0143279
611.395	0.0145278
611.473	0.0144090
611.551	0.0144893
611.629	0.0144019
611.707	0.0145108
611.785	0.0143885
611.863	0.0143680
611.942	0.0143608
612.020	0.0143329
612.098	0.0144497
612.176	0.0143942
612.254	0.0143365
612.332	0.0143136
612.410	0.0143443
612.488	0.0143517
612.567	0.0144985
612.645	0.0143672
612.723	0.0143301
612.801	0.0144404
612.879	0.0143296
612.957	0.0143372
613.035	0.0144054
613.113	0.0143494
613.192	0.0143382
613.270	0.0142876
613.348	0.0142820
613.426	0.0142068
613.504	0.0143894
613.582	0.0144498
613.660	0.0142547
613.738	0.0142123
613.817	0.0142921
613.895	0.0142469
613.973	0.0142533
614.051	0.0142395
614.129	0.0142618
614.207	0.0142466
614.285	0.0143279
614.363	0.0143921
614.442	0.0142257
614.520	0.0142779
614.598	0.0145559
614.676	0.0142966
614.754	0.0141736
614.832	0.0143373
614.910	0.0143072
614.988	0.0142178
615.067	0.0143918
615.145	0.0142941
615.223	0.0143519
615.301	0.0142835
615.379	0.0142255
615.457	0.0143293
615.535	0.0141910
615.613	0.0143841
615.692	0.0143674
615.770	0.0143814
615.848	0.0142510
615.926	0.0143114
616.004	0.0143205
616.082	0.0143170
616.160	0.0142708
616.238	0.0144009
616.317	0.0143830
616.395	0.0143378
616.473	0.0142819
616.551	0.0142520
616.629	0.0143024
616.707	0.0143801
616.785	0.0144691
616.863	0.0143824
616.942	0.0143964
617.020	0.0143349
617.098	0.0144467
617.176	0.0143223
617.254	0.0142145
617.332	0.0145079
617.410	0.0143301
617.488	0.0144072
617.567	0.0144044
617.645	0.0143916
617.723	0.0142249
617.801	0.0143463
617.879	0.0143119
617.957	0.0144025
618.035	0.0143206
618.113	0.0143210
618.192	0.0143494
618.270	0.0145182
618.348	0.0144478
618.426	0.0143781
618.504	0.0143194
618.582	0.0144637
618.660	0.0144709
618.738	0.0143461
618.817	0.0144556
618.895	0.0144360
618.973	0.0143142
619.051	0.0144215
619.129	0.0144190
619.207	0.0143290
619.285	0.0144657
619.363	0.0144518
619.442	0.0143139
619.520	0.0143026
619.598	0.0142576
619.676	0.0143243
619.754	0.0142889
619.832	0.0143943
619.910	0.0143671
619.988	0.0145435
620.067	0.0143285
620.145	0.0142719
620.223	0.0143886
620.301	0.0144466
620.379	0.0143251
620.457	0.0142591
620.535	0.0143477
620.613	0.0142983
620.692	0.0142976
620.770	0.0143764
620.848	0.0143135
620.926	0.0143277
621.004	0.0143228
621.082	0.0143798
621.160	0.0142786
621.238	0.0141626
621.317	0.0143446
621.395	0.0142519
621.473	0.0143153
621.551	0.0142385
621.629	0.0143512
621.707	0.0140919
621.785	0.0142295
621.863	0.0142110
621.942	0.0141803
622.020	0.0141538
622.098	0.0143171
622.176	0.0142268
622.254	0.0142663
622.332	0.0142020
622.410	0.0142094
622.488	0.0142847
622.567	0.0142475
622.645	0.0143322
622.723	0.0140818
622.801	0.0143050
622.879	0.0143080
622.957	0.0142584
623.035	0.0142599
623.113	0.0142010
623.192	0.0142822
623.270	0.0142783
623.348	0.0143149
623.426	0.0142232
623.504	0.0142239
623.582	0.0141692
623.660	0.0142910
623.738	0.0141895
623.817	0.0141284
623.895	0.0142278
623.973	0.0141980
624.051	0.0140470
624.129	0.0141476
624.207	0.0141409
624.285	0.0141392
624.363	0.0140815
624.442	0.0142189
624.520	0.0140115
624.598	0.0141169
624.676	0.0140444
624.754	0.0140427
624.832	0.0140721
624.910	0.0141405
624.988	0.0141873
625.067	0.0140847
625.145	0.0140350
625.223	0.0141407
625.301	0.0140989
625.379	0.0142043
625.457	0.0141499
625.535	0.0142033
625.613	0.0141770
625.692	0.0141129
625.770	0.0142760
625.848	0.0141949
625.926	0.0141957
626.004	0.0142991
626.082	0.0142220
626.160	0.0143693
626.238	0.0142316
626.317	0.0142979
626.395	0.0142569
626.473	0.0143342
626.551	0.0142642
626.629	0.0142750
626.707	0.0143703
626.785	0.0142555
626.863	0.0143256
626.942	0.0144204
627.020	0.0143477
627.098	0.0143783
627.176	0.0144434
627.254	0.0142661
627.332	0.0142085
627.410	0.0143437
627.488	0.0142822
627.567	0.0141692
627.645	0.0143426
627.723	0.0141882
627.801	0.0142171
627.879	0.0142509
627.957	0.0143131
628.035	0.0141323
628.113	0.0141390
628.192	0.0142340
628.270	0.0143324
628.348	0.0143526
628.426	0.0141885
628.504	0.0142715
628.582	0.0142621
628.660	0.0142887
628.738	0.0143663
628.817	0.0143095
628.895	0.0143303
628.973	0.0142692
629.051	0.0144911
629.129	0.0143360
629.207	0.0144672
629.285	0.0145082
629.363	0.0142917
629.442	0.0145155
629.520	0.0144270
629.598	0.0143867
629.676	0.0144749
629.754	0.0144469
629.832	0.0143965
629.910	0.0144221
629.988	0.0142310
630.067	0.0142948
630.145	0.0144165
630.223	0.0142181
630.301	0.0142633
630.379	0.0143613
630.457	0.0142181
630.535	0.0142394
630.613	0.0142956
630.692	0.0143316
630.770	0.0142805
630.848	0.0144021
630.926	0.0144432
631.004	0.0143867
631.082	0.0145098
631.160	0.0144523
631.238	0.0144196
631.317	0.0144786
631.395	0.0145155
631.473	0.0144917
631.551	0.0143705
631.629	0.0145625
631.707	0.0145860
631.785	0.0146395
631.863	0.0146404
631.942	0.0144826
632.020	0.0147142
632.098	0.0145874
632.176	0.0144893
632.254	0.0144380
632.332	0.0145252
632.410	0.0143740
632.488	0.0143224
632.567	0.0144107
632.645	0.0143168
632.723	0.0142097
632.801	0.0142400
632.879	0.0142580
632.957	0.0139991
633.035	0.0140916
633.113	0.0138700
633.192	0.0139565
633.270	0.0139651
633.348	0.0140181
633.426	0.0138517
633.504	0.0139122
633.582	0.0138921
633.660	0.0138592
633.738	0.0140578
633.817	0.0140555
633.895	0.0140360
633.973	0.0141959
634.051	0.0140791
634.129	0.0141527
634.207	0.0143611
634.285	0.0145327
634.363	0.0144353
634.442	0.0144714
634.520	0.0144032
634.598	0.0144585
634.676	0.0145028
634.754	0.0145084
634.832	0.0145559
634.910	0.0145736
634.988	0.0145364
635.067	0.0144200
635.145	0.0144215
635.223	0.0144937
635.301	0.0145740
635.379	0.0143383
635.457	0.0146302
635.535	0.0145979
635.613	0.0146033
635.692	0.0143115
635.770	0.0143593
635.848	0.0144372
635.926	0.0145084
636.004	0.0145535
636.082	0.0144479
636.160	0.0144038
636.238	0.0145294
636.317	0.0144877
636.395	0.0145657
636.473	0.0145385
636.551	0.0145181
636.629	0.0144852
636.707	0.0143783
636.785	0.0144736
636.863	0.0145518
636.942	0.0144444
637.020	0.0144286
637.098	0.0144820
637.176	0.0143420
637.254	0.0142351
637.332	0.0143053
637.410	0.0143127
637.488	0.0141130
637.567	0.0141527
637.645	0.0141476
637.723	0.0140236
637.801	0.0139590
637.879	0.0141147
637.957	0.0142105
638.035	0.0141461
638.113	0.0140973
638.192	0.0140989
638.270	0.0140746
638.348	0.0141364
638.426	0.0142403
638.504	0.0142319
638.582	0.0141514
638.660	0.0141698
638.738	0.0143036
638.817	0.0142154
638.895	0.0143497
638.973	0.0142931
639.051	0.0141261
639.129	0.0142700
639.207	0.0143469
639.285	0.0143085
639.363	0.0143988
639.442	0.0144756
639.520	0.0145856
639.598	0.0147004
639.676	0.0145690
639.754	0.0145763
639.832	0.0146249
639.910	0.0145884
639.988	0.0147257
640.067	0.0146795
640.145	0.0146523
640.223	0.0146059
640.301	0.0146095
640.379	0.0145806
640.457	0.0144646
640.535	0.0146158
640.613	0.0144505
640.692	0.0143545
640.770	0.0144973
640.848	0.0143704
640.926	0.0144331
641.004	0.0143548
641.082	0.0143548
641.160	0.0142401
641.238	0.0141335
641.317	0.0142110
641.395	0.0143472
641.473	0.0143610
641.551	0.0142820
641.629	0.0143172
641.707	0.0143370
641.785	0.0142929
641.863	0.0144178
641.942	0.0144400
642.020	0.0143586
642.098	0.0143385
642.176	0.0143195
642.254	0.0141521
642.332	0.0142297
642.410	0.0140972
642.488	0.0142234
642.567	0.0143448
642.645	0.0141947
642.723	0.0140472
642.801	0.0141512
642.879	0.0141756
642.957	0.0141786
643.035	0.0142806
643.113	0.0143142
643.192	0.0143776
643.270	0.0142784
643.348	0.0143255
643.426	0.0144286
643.504	0.0144527
643.582	0.0142870
643.660	0.0143260
643.738	0.0144843
643.817	0.0142525
643.895	0.0143391
643.973	0.0143601
644.051	0.0142721
644.129	0.0142708
644.207	0.0143027
644.285	0.0142213
644.363	0.0142487
644.442	0.0143047
644.520	0.0142868
644.598	0.0143214
644.676	0.0144385
644.754	0.0144571
644.832	0.0144299
644.910	0.0144841
644.988	0.0144530
645.067	0.0145782
645.145	0.0145675
645.223	0.0145117
645.301	0.0145316
645.379	0.0145540
645.457	0.0146382
645.535	0.0146497
645.613	0.0145599
645.692	0.0145327
645.770	0.0145590
645.848	0.0146708
645.926	0.0144892
646.004	0.0144746
646.082	0.0143711
646.160	0.0144491
646.238	0.0145198
646.317	0.0142754
646.395	0.0142103
646.473	0.0142925
646.551	0.0141888
646.629	0.0141049
646.707	0.0140808
646.785	0.0141721
646.863	0.0141043
646.942	0.0141425
647.020	0.0140894
647.098	0.0139998
647.176	0.0140872
647.254	0.0140086
647.332	0.0142036
647.410	0.0142829
647.488	0.0142514
647.567	0.0142409
647.645	0.0141740
647.723	0.0142847
647.801	0.0142963
647.879	0.0143134
647.957	0.0143989
648.035	0.0143572
648.113	0.0144588
648.192	0.0144620
648.270	0.0143346
648.348	0.0144025
648.426	0.0144694
648.504	0.0144800
648.582	0.0143221
648.660	0.0143420
648.738	0.0144086
648.817	0.0143509
648.895	0.0143436
648.973	0.0143942
649.051	0.0145815
649.129	0.0145271
649.207	0.0145453
649.285	0.0143685
649.363	0.0142977
649.442	0.0144827
649.520	0.0144817
649.598	0.0143600
649.676	0.0142787
649.754	0.0143681
649.832	0.0143011
649.910	0.0144196
649.988	0.0142593
650.067	0.0141631
650.145	0.0141234
650.223	0.0142464
650.301	0.0140528
650.379	0.0140707
650.457	0.0141104
650.535	0.0141205
650.613	0.0139845
650.692	0.0139536
650.770	0.0140376
650.848	0.0140639
650.926	0.0141486
651.004	0.0141118
651.082	0.0140902
651.160	0.0141309
651.238	0.0141960
651.317	0.0141032
651.395	0.0142462
651.473	0.0142456
651.551	0.0141476
651.629	0.0142850
651.707	0.0142525
651.785	0.0143168
651.863	0.0143123
651.942	0.0143835
652.020	0.0144253
652.098	0.0146492
652.176	0.0145377
652.254	0.0146661
652.332	0.0146275
652.410	0.0145602
652.488	0.0146204
652.567	0.0146277
652.645	0.0147516
652.723	0.0147514
652.801	0.0147245
652.879	0.0146340
652.957	0.0146591
653.035	0.0146206
653.113	0.0146891
653.192	0.0147484
653.270	0.0147430
653.348	0.0145835
653.426	0.0146137
653.504	0.0146477
653.582	0.0146821
653.660	0.0147209
653.738	0.0146686
653.817	0.0147034
653.895	0.0147879
653.973	0.0147025
654.051	0.0147906
654.129	0.0146341
654.207	0.0145635
654.285	0.0145306
654.363	0.0143638
654.442	0.0146055
654.520	0.0145507
654.598	0.0142412
654.676	0.0143961
654.754	0.0143089
654.832	0.0142287
654.910	0.0142747
654.988	0.0143047
655.067	0.0141554
655.145	0.0142056
655.223	0.0141681
655.301	0.0141952
655.379	0.0142847
655.457	0.0140913
655.535	0.0142059
655.613	0.0142016
655.692	0.0140932
655.770	0.0142158
655.848	0.0141239
655.926	0.0141634
656.004	0.0140942
656.082	0.0139944
656.160	0.0141834
656.238	0.0142237
656.317	0.0140858
656.395	0.0141329
656.473	0.0141714
656.551	0.0142310
656.629	0.0141149
656.707	0.0141547
656.785	0.0143666
656.863	0.0144045
656.942	0.0143060
657.020	0.0144739
657.098	0.0144196
657.176	0.0144012
657.254	0.0143483
657.332	0.0143204
657.410	0.0144333
657.488	0.0144477
657.567	0.0144089
657.645	0.0144400
657.723	0.0146464
657.801	0.0144019
657.879	0.0144866
657.957	0.0144913
658.035	0.0143063
658.113	0.0144354
658.192	0.0145808
658.270	0.0144392
658.348	0.0145660
658.426	0.0144556
658.504	0.0143933
658.582	0.0143340
658.660	0.0143909
658.738	0.0143875
658.817	0.0144064
658.895	0.0143674
658.973	0.0142493
659.051	0.0142537
659.129	0.0142261
659.207	0.0143858
659.285	0.0141667
659.363	0.0139953
659.442	0.0142176
659.520	0.0142559
659.598	0.0142255
659.676	0.0142445
659.754	0.0140803
659.832	0.0141029
659.910	0.0141493
659.988	0.0141566
660.067	0.0141126
660.145	0.0141204
660.223	0.0141075
660.301	0.0140188
660.379	0.0139915
660.457	0.0140597
660.535	0.0141238
660.613	0.0140931
660.692	0.0139681
660.770	0.0139748
660.848	0.0139009
660.926	0.0139080
661.004	0.0139266
661.082	0.0139707
661.160	0.0140028
661.238	0.0140112
661.317	0.0139555
661.395	0.0140737
661.473	0.0139750
661.551	0.0141036
661.629	0.0140874
661.707	0.0143680
661.785	0.0142462
661.863	0.0144265
661.942	0.0144997
662.020	0.0145991
662.098	0.0145498
662.176	0.0146236
662.254	0.0147336
662.332	0.0146112
662.410	0.0147988
662.488	0.0148602
662.567	0.0148537
662.645	0.0147966
662.723	0.0148479
662.801	0.0148373
662.879	0.0148288
662.957	0.0147865
663.035	0.0148257
663.113	0.0148650
663.192	0.0148556
663.270	0.0147616
663.348	0.0149066
663.426	0.0146729
663.504	0.0149434
663.582	0.0148386
663.660	0.0148560
663.738	0.0147768
663.817	0.0148022
663.895	0.0147193
663.973	0.0147190
664.051	0.0145175
664.129	0.0146273
664.207	0.0145995
664.285	0.0144606
664.363	0.0144185
664.442	0.0141958
664.520	0.0142130
664.598	0.0140962
664.676	0.0140902
664.754	0.0141726
664.832	0.0139283
664.910	0.0139567
664.988	0.0140327
665.067	0.0138159
665.145	0.0136534
665.223	0.0138220
665.301	0.0138554
665.379	0.0138158
665.457	0.0138072
665.535	0.0137920
665.613	0.0138537
665.692	0.0138273
665.770	0.0140002
665.848	0.0139465
665.926	0.0140212
666.004	0.0140848
666.082	0.0141589
666.160	0.0142344
666.238	0.0143918
666.317	0.0144125
666.395	0.0145064
666.473	0.0145650
666.551	0.0145999
666.629	0.0145928
666.707	0.0148142
666.785	0.0147517
666.863	0.0147283
666.942	0.0148080
667.020	0.0148305
667.098	0.0147659
667.176	0.0147922
667.254	0.0147059
667.332	0.0148219
667.410	0.0146562
667.488	0.0145741
667.567	0.0145602
667.645	0.0144781
667.723	0.0143885
667.801	0.0144116
667.879	0.0143213
667.957	0.0143586
668.035	0.0141573
668.113	0.0140150
668.192	0.0141130
668.270	0.0140676
668.348	0.0139488
668.426	0.0138400
668.504	0.0139612
668.582	0.0138922
668.660	0.0139080
668.738	0.0138958
668.817	0.0139317
668.895	0.0140051
668.973	0.0139120
669.051	0.0141541
669.129	0.0141286
669.207	0.0142143
669.285	0.0142780
669.363	0.0143633
669.442	0.0143745
669.520	0.0144953
669.598	0.0145181
669.676	0.0146021
669.754	0.0146317
669.832	0.0145363
669.910	0.0147419
669.988	0.0147762
670.067	0.0148473
670.145	0.0148536
670.223	0.0149149
670.301	0.0148646
670.379	0.0148598
670.457	0.0148110
670.535	0.0146416
670.613	0.0147489
670.692	0.0145061
670.770	0.0143712
670.848	0.0142167
670.926	0.0143204
671.004	0.0141582
671.082	0.0140434
671.160	0.0140186
671.238	0.0139918
671.317	0.0139323
671.395	0.0140591
671.473	0.0140871
671.551	0.0141429
671.629	0.0140570
671.707	0.0142158
671.785	0.0143606
671.863	0.0143192
671.942	0.0142886
672.020	0.0144946
672.098	0.0146438
672.176	0.0146986
672.254	0.0148218
672.332	0.0147778
672.410	0.0149192
672.488	0.0149186
672.567	0.0149352
672.645	0.0147516
672.723	0.0148376
672.801	0.0147749
672.879	0.0147259
672.957	0.0144526
673.035	0.0145561
673.113	0.0144123
673.192	0.0142991
673.270	0.0141508
673.348	0.0139275
673.426	0.0139873
673.504	0.0137913
673.582	0.0137185
673.660	0.0138079
673.738	0.0137457
673.817	0.0136026
673.895	0.0137904
673.973	0.0137101
674.051	0.0136026
674.129	0.0138700
674.207	0.0139172
674.285	0.0139175
674.363	0.0139633
674.442	0.0139368
674.520	0.0139259
674.598	0.0142112
674.676	0.0142872
674.754	0.0143198
674.832	0.0143790
674.910	0.0145514
674.988	0.0145126
675.067	0.0145697
675.145	0.0146340
675.223	0.0147810
675.301	0.0146109
675.379	0.0147557
675.457	0.0147572
675.535	0.0147134
675.613	0.0146425
675.692	0.0146276
675.770	0.0147932
675.848	0.0146841
675.926	0.0146682
676.004	0.0147318
676.082	0.0148080
676.160	0.0145477
676.238	0.0145721
676.317	0.0146535
676.395	0.0145698
676.473	0.0143861
676.551	0.0143977
676.629	0.0142777
676.707	0.0143857
676.785	0.0142885
676.863	0.0142128
676.942	0.0142925
677.020	0.0141019
677.098	0.0140340
677.176	0.0140324
677.254	0.0141425
677.332	0.0140478
677.410	0.0140598
677.488	0.0139640
677.567	0.0139773
677.645	0.0139569
677.723	0.0141496
677.801	0.0140584
677.879	0.0139294
677.957	0.0139695
678.035	0.0138527
678.113	0.0139367
678.192	0.0139272
678.270	0.0139546
678.348	0.0139165
678.426	0.0138978
678.504	0.0139044
678.582	0.0140202
678.660	0.0139274
678.738	0.0137961
678.817	0.0139559
678.895	0.0139289
678.973	0.0140032
679.051	0.0140647
679.129	0.0141064
679.207	0.0142037
679.285	0.0141292
679.363	0.0142864
679.442	0.0143342
679.520	0.0144024
679.598	0.0145074
679.676	0.0144353
679.754	0.0145515
679.832	0.0146011
679.910	0.0146427
679.988	0.0146003
680.067	0.0147110
680.145	0.0147188
680.223	0.0147050
680.301	0.0147402
680.379	0.0147798
680.457	0.0147828
680.535	0.0148142
680.613	0.0147430
680.692	0.0146936
680.770	0.0148351
680.848	0.0148648
680.926	0.0148157
681.004	0.0145720
681.082	0.0144516
681.160	0.0146384
681.238	0.0144656
681.317	0.0144983
681.395	0.0143372
681.473	0.0143165
681.551	0.0141434
681.629	0.0140413
681.707	0.0139571
681.785	0.0138795
681.863	0.0137412
681.942	0.0136430
682.020	0.0136313
682.098	0.0137573
682.176	0.0138023
682.254	0.0137871
682.332	0.0136227
682.410	0.0137196
682.488	0.0138329
682.567	0.0136243
682.645	0.0136298
682.723	0.0137419
682.801	0.0138882
682.879	0.0137680
682.957	0.0139613
683.035	0.0140575
683.113	0.0140290
683.192	0.0142717
683.270	0.0144635
683.348	0.0145014
683.426	0.0145334
683.504	0.0146934
683.582	0.0147111
683.660	0.0147334
683.738	0.0148718
683.817	0.0150784
683.895	0.0152579
683.973	0.0152967
684.051	0.0151086
684.129	0.0154475
684.207	0.0155433
684.285	0.0154742
684.363	0.0153168
684.442	0.0152959
684.520	0.0154032
684.598	0.0152571
684.676	0.0151405
684.754	0.0150781
684.832	0.0150485
684.910	0.0149994
684.988	0.0148257
685.067	0.0148055
685.145	0.0146114
685.223	0.0143940
685.301	0.0144336
685.379	0.0144567
685.457	0.0142419
685.535	0.0142068
685.613	0.0140639
685.692	0.0141083
