05/28/2022	14:32:02	Ver.	4.1	UNKNOWN
Optical Delay	599.988409	Delta X		0.078125	Sweeps	1	Scan Rate	0/0
Coordinates	Axis 1	NaN	Axis 2	NaN	Axis 3	NaN	Axis 4	NaN	Axis 5	NaN	Axis 6	0.000000
TX Power	0.000000	RX Power	0.000000

599.988	0.0147931
600.067	0.0148673
600.145	0.0148189
600.223	0.0148808
600.301	0.0147166
600.379	0.0149306
600.457	0.0148470
600.535	0.0147349
600.613	0.0147009
600.692	0.0148563
600.770	0.0148367
600.848	0.0148325
600.926	0.0147749
601.004	0.0148235
601.082	0.0145886
601.160	0.0146966
601.238	0.0148219
601.317	0.0148582
601.395	0.0149702
601.473	0.0147137
601.551	0.0146869
601.629	0.0148820
601.707	0.0147740
601.785	0.0146585
601.863	0.0147291
601.942	0.0149310
602.020	0.0147427
602.098	0.0146483
602.176	0.0147274
602.254	0.0146851
602.332	0.0146484
602.410	0.0147374
602.488	0.0146801
602.567	0.0147392
602.645	0.0147301
602.723	0.0147010
602.801	0.0147629
602.879	0.0147578
602.957	0.0146586
603.035	0.0146457
603.113	0.0147781
603.192	0.0146368
603.270	0.0146520
603.348	0.0147118
603.426	0.0147268
603.504	0.0146886
603.582	0.0147365
603.660	0.0147658
603.738	0.0147224
603.817	0.0147032
603.895	0.0146240
603.973	0.0145599
604.051	0.0147529
604.129	0.0146296
604.207	0.0147003
604.285	0.0146454
604.363	0.0146682
604.442	0.0147667
604.520	0.0145595
604.598	0.0146227
604.676	0.0146617
604.754	0.0146141
604.832	0.0146910
604.910	0.0146662
604.988	0.0146759
605.067	0.0145868
605.145	0.0146943
605.223	0.0146384
605.301	0.0147653
605.379	0.0147318
605.457	0.0145158
605.535	0.0145702
605.613	0.0147776
605.692	0.0146309
605.770	0.0146658
605.848	0.0147246
605.926	0.0146123
606.004	0.0147861
606.082	0.0146439
606.160	0.0146672
606.238	0.0146476
606.317	0.0145180
606.395	0.0145018
606.473	0.0146236
606.551	0.0146873
606.629	0.0147001
606.707	0.0146349
606.785	0.0145213
606.863	0.0147565
606.942	0.0146680
607.020	0.0145721
607.098	0.0146190
607.176	0.0147437
607.254	0.0147559
607.332	0.0145985
607.410	0.0147710
607.488	0.0147102
607.567	0.0147115
607.645	0.0148148
607.723	0.0147257
607.801	0.0146570
607.879	0.0146526
607.957	0.0146571
608.035	0.0146957
608.113	0.0146963
608.192	0.0147052
608.270	0.0147584
608.348	0.0146391
608.426	0.0147441
608.504	0.0147106
608.582	0.0147487
608.660	0.0147847
608.738	0.0148283
608.817	0.0146194
608.895	0.0147540
608.973	0.0147143
609.051	0.0147096
609.129	0.0148178
609.207	0.0146922
609.285	0.0146432
609.363	0.0147384
609.442	0.0147295
609.520	0.0145570
609.598	0.0148240
609.676	0.0146334
609.754	0.0147170
609.832	0.0148649
609.910	0.0146754
609.988	0.0147092
610.067	0.0146451
610.145	0.0147596
610.223	0.0147421
610.301	0.0146733
610.379	0.0145919
610.457	0.0146896
610.535	0.0146032
610.613	0.0147920
610.692	0.0146812
610.770	0.0145975
610.848	0.0147911
610.926	0.0147284
611.004	0.0147263
611.082	0.0145695
611.160	0.0145320
611.238	0.0146925
611.317	0.0146413
611.395	0.0146113
611.473	0.0147041
611.551	0.0146961
611.629	0.0147169
611.707	0.0147073
611.785	0.0147371
611.863	0.0145365
611.942	0.0146535
612.020	0.0147550
612.098	0.0145567
612.176	0.0145152
612.254	0.0145775
612.332	0.0146127
612.410	0.0146520
612.488	0.0145511
612.567	0.0146604
612.645	0.0145821
612.723	0.0146606
612.801	0.0145852
612.879	0.0144859
612.957	0.0145218
613.035	0.0146564
613.113	0.0146618
613.192	0.0146185
613.270	0.0145776
613.348	0.0146143
613.426	0.0146935
613.504	0.0146233
613.582	0.0145619
613.660	0.0145887
613.738	0.0145266
613.817	0.0146312
613.895	0.0145649
613.973	0.0144585
614.051	0.0145901
614.129	0.0145000
614.207	0.0145736
614.285	0.0146945
614.363	0.0145651
614.442	0.0146004
614.520	0.0146039
614.598	0.0145423
614.676	0.0145841
614.754	0.0145837
614.832	0.0146546
614.910	0.0147620
614.988	0.0146975
615.067	0.0145318
615.145	0.0146557
615.223	0.0147301
615.301	0.0146146
615.379	0.0147491
615.457	0.0146600
615.535	0.0147275
615.613	0.0146170
615.692	0.0147543
615.770	0.0146494
615.848	0.0145953
615.926	0.0147153
616.004	0.0145695
616.082	0.0147465
616.160	0.0146194
616.238	0.0147617
616.317	0.0146684
616.395	0.0146416
616.473	0.0146199
616.551	0.0147198
616.629	0.0146901
616.707	0.0147530
616.785	0.0147845
616.863	0.0149008
616.942	0.0148301
617.020	0.0147057
617.098	0.0146822
617.176	0.0148857
617.254	0.0146858
617.332	0.0147832
617.410	0.0146952
617.488	0.0147736
617.567	0.0147469
617.645	0.0148972
617.723	0.0148087
617.801	0.0147604
617.879	0.0147308
617.957	0.0148579
618.035	0.0148289
618.113	0.0148903
618.192	0.0147758
618.270	0.0146449
618.348	0.0147546
618.426	0.0149854
618.504	0.0148987
618.582	0.0147846
618.660	0.0148367
618.738	0.0150058
618.817	0.0149241
618.895	0.0148016
618.973	0.0148163
619.051	0.0148686
619.129	0.0148765
619.207	0.0147646
619.285	0.0148403
619.363	0.0147520
619.442	0.0149778
619.520	0.0148502
619.598	0.0148715
619.676	0.0150226
619.754	0.0149059
619.832	0.0146940
619.910	0.0147232
619.988	0.0147712
620.067	0.0147777
620.145	0.0149009
620.223	0.0148637
620.301	0.0148047
620.379	0.0147295
620.457	0.0147649
620.535	0.0148691
620.613	0.0146777
620.692	0.0146381
620.770	0.0147724
620.848	0.0147999
620.926	0.0149062
621.004	0.0149364
621.082	0.0148479
621.160	0.0148012
621.238	0.0147828
621.317	0.0147072
621.395	0.0147437
621.473	0.0146995
621.551	0.0148769
621.629	0.0149116
621.707	0.0147417
621.785	0.0147511
621.863	0.0147980
621.942	0.0147748
622.020	0.0146972
622.098	0.0147750
622.176	0.0147823
622.254	0.0147372
622.332	0.0146426
622.410	0.0147519
622.488	0.0148132
622.567	0.0146616
622.645	0.0147005
622.723	0.0149194
622.801	0.0147462
622.879	0.0146836
622.957	0.0148064
623.035	0.0146432
623.113	0.0148153
623.192	0.0148051
623.270	0.0148592
623.348	0.0148071
623.426	0.0147343
623.504	0.0148301
623.582	0.0148223
623.660	0.0148640
623.738	0.0148151
623.817	0.0149536
623.895	0.0149281
623.973	0.0147804
624.051	0.0149308
624.129	0.0150252
624.207	0.0148209
624.285	0.0148095
624.363	0.0148476
624.442	0.0148959
624.520	0.0148529
624.598	0.0148052
624.676	0.0148810
624.754	0.0148198
624.832	0.0148511
624.910	0.0149046
624.988	0.0148165
625.067	0.0148209
625.145	0.0148769
625.223	0.0148830
625.301	0.0146252
625.379	0.0146926
625.457	0.0148301
625.535	0.0146553
625.613	0.0147393
625.692	0.0146973
625.770	0.0145444
625.848	0.0145813
625.926	0.0145899
626.004	0.0147801
626.082	0.0146662
626.160	0.0145742
626.238	0.0146014
626.317	0.0145506
626.395	0.0145274
626.473	0.0146034
626.551	0.0145397
626.629	0.0145934
626.707	0.0146031
626.785	0.0145441
626.863	0.0146420
626.942	0.0146998
627.020	0.0147186
627.098	0.0147211
627.176	0.0146336
627.254	0.0146992
627.332	0.0148255
627.410	0.0148379
627.488	0.0147684
627.567	0.0146723
627.645	0.0148428
627.723	0.0148797
627.801	0.0147557
627.879	0.0148451
627.957	0.0147659
628.035	0.0145378
628.113	0.0146624
628.192	0.0145786
628.270	0.0146364
628.348	0.0145556
628.426	0.0146753
628.504	0.0146181
628.582	0.0144491
628.660	0.0145306
628.738	0.0145600
628.817	0.0145099
628.895	0.0145848
628.973	0.0146915
629.051	0.0143651
629.129	0.0146880
629.207	0.0147391
629.285	0.0146783
629.363	0.0147169
629.442	0.0146901
629.520	0.0147781
629.598	0.0147552
629.676	0.0147525
629.754	0.0148438
629.832	0.0148750
629.910	0.0148669
629.988	0.0147946
630.067	0.0148502
630.145	0.0149018
630.223	0.0147965
630.301	0.0146671
630.379	0.0148026
630.457	0.0147324
630.535	0.0146925
630.613	0.0146397
630.692	0.0144063
630.770	0.0144444
630.848	0.0145294
630.926	0.0144287
631.004	0.0144627
631.082	0.0142391
631.160	0.0142223
631.238	0.0142946
631.317	0.0143336
631.395	0.0142674
631.473	0.0143027
631.551	0.0142500
631.629	0.0143149
631.707	0.0145419
631.785	0.0144733
631.863	0.0145777
631.942	0.0145335
632.020	0.0146957
632.098	0.0148211
632.176	0.0146413
632.254	0.0148499
632.332	0.0148214
632.410	0.0148333
632.488	0.0148785
632.567	0.0149918
632.645	0.0150652
632.723	0.0150591
632.801	0.0149774
632.879	0.0148431
632.957	0.0151078
633.035	0.0151011
633.113	0.0148417
633.192	0.0149885
633.270	0.0149829
633.348	0.0149422
633.426	0.0149673
633.504	0.0147966
633.582	0.0147031
633.660	0.0148931
633.738	0.0147687
633.817	0.0148042
633.895	0.0147963
633.973	0.0148257
634.051	0.0146615
634.129	0.0148465
634.207	0.0147189
634.285	0.0146868
634.363	0.0147057
634.442	0.0147680
634.520	0.0147948
634.598	0.0147250
634.676	0.0148409
634.754	0.0147348
634.832	0.0148116
634.910	0.0147468
634.988	0.0147204
635.067	0.0147160
635.145	0.0148251
635.223	0.0146701
635.301	0.0146295
635.379	0.0147341
635.457	0.0145901
635.535	0.0144933
635.613	0.0144843
635.692	0.0147092
635.770	0.0145672
635.848	0.0146252
635.926	0.0144932
636.004	0.0144748
636.082	0.0144482
636.160	0.0144345
636.238	0.0143900
636.317	0.0145015
636.395	0.0144280
636.473	0.0144397
636.551	0.0144432
636.629	0.0145763
636.707	0.0144861
636.785	0.0145981
636.863	0.0146903
636.942	0.0146162
637.020	0.0146398
637.098	0.0147868
637.176	0.0148014
637.254	0.0147699
637.332	0.0149232
637.410	0.0149448
637.488	0.0148315
637.567	0.0148397
637.645	0.0149905
637.723	0.0149406
637.801	0.0149499
637.879	0.0151649
637.957	0.0150235
638.035	0.0149559
638.113	0.0150330
638.192	0.0151119
638.270	0.0150495
638.348	0.0150796
638.426	0.0151167
638.504	0.0149766
638.582	0.0150383
638.660	0.0150623
638.738	0.0149181
638.817	0.0148820
638.895	0.0149710
638.973	0.0148631
639.051	0.0148801
639.129	0.0148209
639.207	0.0147457
639.285	0.0148376
639.363	0.0148681
639.442	0.0147990
639.520	0.0146681
639.598	0.0147404
639.676	0.0147749
639.754	0.0147668
639.832	0.0149038
639.910	0.0147916
639.988	0.0146034
640.067	0.0148341
640.145	0.0147707
640.223	0.0146565
640.301	0.0146390
640.379	0.0147480
640.457	0.0144965
640.535	0.0147412
640.613	0.0146231
640.692	0.0144389
640.770	0.0144843
640.848	0.0146685
640.926	0.0145657
641.004	0.0145926
641.082	0.0147178
641.160	0.0144982
641.238	0.0145124
641.317	0.0146146
641.395	0.0146767
641.473	0.0145829
641.551	0.0147403
641.629	0.0147673
641.707	0.0146888
641.785	0.0146201
641.863	0.0146110
641.942	0.0147092
642.020	0.0147203
642.098	0.0146104
642.176	0.0146454
642.254	0.0145261
642.332	0.0147366
642.410	0.0146973
642.488	0.0147343
642.567	0.0146631
642.645	0.0146059
642.723	0.0147270
642.801	0.0146705
642.879	0.0144659
642.957	0.0146591
643.035	0.0145206
643.113	0.0145515
643.192	0.0146651
643.270	0.0145426
643.348	0.0146947
643.426	0.0147291
643.504	0.0145558
643.582	0.0146680
643.660	0.0147705
643.738	0.0148346
643.817	0.0148759
643.895	0.0148310
643.973	0.0148557
644.051	0.0149022
644.129	0.0148512
644.207	0.0147620
644.285	0.0149694
644.363	0.0147878
644.442	0.0147913
644.520	0.0146906
644.598	0.0146665
644.676	0.0144991
644.754	0.0146432
644.832	0.0147939
644.910	0.0144548
644.988	0.0143142
645.067	0.0142766
645.145	0.0144361
645.223	0.0143685
645.301	0.0144398
645.379	0.0145145
645.457	0.0145289
645.535	0.0144373
645.613	0.0145226
645.692	0.0144685
645.770	0.0145454
645.848	0.0144931
645.926	0.0146268
646.004	0.0146881
646.082	0.0146212
646.160	0.0146453
646.238	0.0145042
646.317	0.0146504
646.395	0.0148415
646.473	0.0149198
646.551	0.0147285
646.629	0.0148409
646.707	0.0149827
646.785	0.0149852
646.863	0.0149702
646.942	0.0151105
647.020	0.0150989
647.098	0.0151436
647.176	0.0150841
647.254	0.0150749
647.332	0.0151640
647.410	0.0150699
647.488	0.0150653
647.567	0.0150269
647.645	0.0149995
647.723	0.0149731
647.801	0.0149430
647.879	0.0146532
647.957	0.0148445
648.035	0.0148602
648.113	0.0147920
648.192	0.0148351
648.270	0.0147944
648.348	0.0146343
648.426	0.0146748
648.504	0.0147686
648.582	0.0146949
648.660	0.0145145
648.738	0.0147877
648.817	0.0146914
648.895	0.0147161
648.973	0.0146911
649.051	0.0145539
649.129	0.0147824
649.207	0.0146781
649.285	0.0147209
649.363	0.0147724
649.442	0.0146481
649.520	0.0146881
649.598	0.0146003
649.676	0.0146693
649.754	0.0146130
649.832	0.0145033
649.910	0.0146651
649.988	0.0146402
650.067	0.0146357
650.145	0.0148427
650.223	0.0149142
650.301	0.0147728
650.379	0.0147776
650.457	0.0148853
650.535	0.0150416
650.613	0.0148969
650.692	0.0150881
650.770	0.0148151
650.848	0.0148798
650.926	0.0150285
651.004	0.0151689
651.082	0.0150436
651.160	0.0150275
651.238	0.0149996
651.317	0.0150050
651.395	0.0149596
651.473	0.0151000
651.551	0.0149892
651.629	0.0148252
651.707	0.0148426
651.785	0.0150195
651.863	0.0146525
651.942	0.0146368
652.020	0.0147474
652.098	0.0147559
652.176	0.0146785
652.254	0.0147830
652.332	0.0147326
652.410	0.0146666
652.488	0.0145664
652.567	0.0146104
652.645	0.0145502
652.723	0.0143868
652.801	0.0145267
652.879	0.0145917
652.957	0.0145628
653.035	0.0145677
653.113	0.0144942
653.192	0.0143929
653.270	0.0145388
653.348	0.0145929
653.426	0.0143791
653.504	0.0145356
653.582	0.0145395
653.660	0.0144301
653.738	0.0144413
653.817	0.0144502
653.895	0.0144405
653.973	0.0144565
654.051	0.0145151
654.129	0.0145633
654.207	0.0146384
654.285	0.0145490
654.363	0.0147330
654.442	0.0146460
654.520	0.0148016
654.598	0.0147122
654.676	0.0147205
654.754	0.0147941
654.832	0.0147585
654.910	0.0150191
654.988	0.0149564
655.067	0.0148909
655.145	0.0148110
655.223	0.0150620
655.301	0.0150456
655.379	0.0149300
655.457	0.0149140
655.535	0.0149702
655.613	0.0148997
655.692	0.0149789
655.770	0.0148913
655.848	0.0149940
655.926	0.0149537
656.004	0.0149854
656.082	0.0148944
656.160	0.0148920
656.238	0.0149266
656.317	0.0148934
656.395	0.0148322
656.473	0.0148051
656.551	0.0149317
656.629	0.0148149
656.707	0.0148620
656.785	0.0149564
656.863	0.0149410
656.942	0.0149892
657.020	0.0149436
657.098	0.0150957
657.176	0.0151794
657.254	0.0150066
657.332	0.0149715
657.410	0.0149715
657.488	0.0149581
657.567	0.0150145
657.645	0.0150555
657.723	0.0149789
657.801	0.0149284
657.879	0.0148437
657.957	0.0147485
658.035	0.0148566
658.113	0.0147646
658.192	0.0147984
658.270	0.0147187
658.348	0.0146748
658.426	0.0146409
658.504	0.0146544
658.582	0.0146556
658.660	0.0145331
658.738	0.0144611
658.817	0.0145936
658.895	0.0147365
658.973	0.0145530
659.051	0.0145844
659.129	0.0147711
659.207	0.0146249
659.285	0.0145549
659.363	0.0145132
659.442	0.0145058
659.520	0.0143861
659.598	0.0144481
659.676	0.0144358
659.754	0.0145612
659.832	0.0146251
659.910	0.0143060
659.988	0.0144889
660.067	0.0143887
660.145	0.0145341
660.223	0.0145361
660.301	0.0146338
660.379	0.0146416
660.457	0.0148038
660.535	0.0147567
660.613	0.0148765
660.692	0.0149032
660.770	0.0149352
660.848	0.0149831
660.926	0.0150713
661.004	0.0149597
661.082	0.0151371
661.160	0.0149819
661.238	0.0150879
661.317	0.0150420
661.395	0.0151089
661.473	0.0150449
661.551	0.0149981
661.629	0.0150337
661.707	0.0148647
661.785	0.0148157
661.863	0.0148196
661.942	0.0149538
662.020	0.0148474
662.098	0.0146662
662.176	0.0148740
662.254	0.0147281
662.332	0.0149089
662.410	0.0150014
662.488	0.0148161
662.567	0.0148665
662.645	0.0147651
662.723	0.0146032
662.801	0.0146493
662.879	0.0146867
662.957	0.0148004
663.035	0.0146744
663.113	0.0147009
663.192	0.0146648
663.270	0.0145016
663.348	0.0145960
663.426	0.0144450
663.504	0.0144608
663.582	0.0143139
663.660	0.0142591
663.738	0.0142024
663.817	0.0140563
663.895	0.0141002
663.973	0.0139188
664.051	0.0139550
664.129	0.0139036
664.207	0.0138308
664.285	0.0139855
664.363	0.0138142
664.442	0.0139891
664.520	0.0140536
664.598	0.0141212
664.676	0.0141926
664.754	0.0142607
664.832	0.0144804
664.910	0.0144806
664.988	0.0145246
665.067	0.0146988
665.145	0.0147089
665.223	0.0148713
665.301	0.0149561
665.379	0.0149765
665.457	0.0151219
665.535	0.0150055
665.613	0.0150584
665.692	0.0151601
665.770	0.0151923
665.848	0.0151632
665.926	0.0152199
666.004	0.0153008
666.082	0.0151466
666.160	0.0151084
666.238	0.0151263
666.317	0.0150237
666.395	0.0150397
666.473	0.0149800
666.551	0.0151246
666.629	0.0149485
666.707	0.0148407
666.785	0.0149576
666.863	0.0149291
666.942	0.0148121
667.020	0.0148810
667.098	0.0148273
667.176	0.0146803
667.254	0.0146838
667.332	0.0147914
667.410	0.0147820
667.488	0.0145832
667.567	0.0145030
667.645	0.0146587
667.723	0.0144659
667.801	0.0144612
667.879	0.0146289
667.957	0.0145317
668.035	0.0144772
668.113	0.0143620
668.192	0.0145419
668.270	0.0144004
668.348	0.0145108
668.426	0.0145535
668.504	0.0144771
668.582	0.0144402
668.660	0.0146981
668.738	0.0146418
668.817	0.0146419
668.895	0.0147104
668.973	0.0147903
669.051	0.0148198
669.129	0.0148887
669.207	0.0149168
669.285	0.0151479
669.363	0.0150800
669.442	0.0150528
669.520	0.0153296
669.598	0.0152457
669.676	0.0151329
669.754	0.0151691
669.832	0.0152789
669.910	0.0153172
669.988	0.0153275
670.067	0.0153062
670.145	0.0151123
670.223	0.0151391
670.301	0.0151916
670.379	0.0151219
670.457	0.0149827
670.535	0.0149331
670.613	0.0148878
670.692	0.0147860
670.770	0.0147229
670.848	0.0146945
670.926	0.0145065
671.004	0.0146734
671.082	0.0145473
671.160	0.0146162
671.238	0.0146880
671.317	0.0145727
671.395	0.0147051
671.473	0.0146584
671.551	0.0145937
671.629	0.0147186
671.707	0.0147858
671.785	0.0146965
671.863	0.0146758
671.942	0.0147237
672.020	0.0148720
672.098	0.0148838
672.176	0.0148518
672.254	0.0149254
672.332	0.0148174
672.410	0.0149924
672.488	0.0149052
672.567	0.0149136
672.645	0.0147842
672.723	0.0147475
672.801	0.0147575
672.879	0.0146711
672.957	0.0145816
673.035	0.0148369
673.113	0.0146442
673.192	0.0145522
673.270	0.0145716
673.348	0.0144947
673.426	0.0145703
673.504	0.0142614
673.582	0.0144975
673.660	0.0144231
673.738	0.0143319
673.817	0.0145535
673.895	0.0143736
673.973	0.0143177
674.051	0.0145216
674.129	0.0145360
674.207	0.0145736
674.285	0.0146019
674.363	0.0145885
674.442	0.0147063
674.520	0.0147733
674.598	0.0149453
674.676	0.0151182
674.754	0.0151077
674.832	0.0151969
674.910	0.0151563
674.988	0.0153864
675.067	0.0152617
675.145	0.0153486
675.223	0.0154603
675.301	0.0154752
675.379	0.0154620
675.457	0.0153789
675.535	0.0154208
675.613	0.0153856
675.692	0.0153585
675.770	0.0151508
675.848	0.0152073
675.926	0.0152340
676.004	0.0150777
676.082	0.0148951
676.160	0.0149855
676.238	0.0147649
676.317	0.0147999
676.395	0.0147337
676.473	0.0146888
676.551	0.0146143
676.629	0.0146335
676.707	0.0145778
676.785	0.0143813
676.863	0.0143587
676.942	0.0144363
677.020	0.0143252
677.098	0.0143841
677.176	0.0142784
677.254	0.0143456
677.332	0.0142757
677.410	0.0143320
677.488	0.0142323
677.567	0.0143797
677.645	0.0145068
677.723	0.0143695
677.801	0.0144806
677.879	0.0145229
677.957	0.0145633
678.035	0.0147047
678.113	0.0146562
678.192	0.0148106
678.270	0.0148000
678.348	0.0149315
678.426	0.0149400
678.504	0.0149152
678.582	0.0149896
678.660	0.0151745
678.738	0.0151079
678.817	0.0152068
678.895	0.0152752
678.973	0.0152740
679.051	0.0152580
679.129	0.0152577
679.207	0.0152114
679.285	0.0152007
679.363	0.0152755
679.442	0.0153687
679.520	0.0151740
679.598	0.0153745
679.676	0.0152720
679.754	0.0153091
679.832	0.0152657
679.910	0.0150698
679.988	0.0150420
680.067	0.0151296
680.145	0.0152610
680.223	0.0150910
680.301	0.0150493
680.379	0.0151508
680.457	0.0150264
680.535	0.0149495
680.613	0.0148491
680.692	0.0148914
680.770	0.0148260
680.848	0.0147743
680.926	0.0146184
681.004	0.0145535
681.082	0.0146516
681.160	0.0143790
681.238	0.0143025
681.317	0.0141578
681.395	0.0141873
681.473	0.0141769
681.551	0.0139593
681.629	0.0141349
681.707	0.0140493
681.785	0.0139376
681.863	0.0138451
681.942	0.0140660
682.020	0.0139296
682.098	0.0140560
682.176	0.0141985
682.254	0.0141381
682.332	0.0142365
682.410	0.0141090
682.488	0.0142950
682.567	0.0143118
682.645	0.0144083
682.723	0.0144572
682.801	0.0147398
682.879	0.0147881
682.957	0.0146806
683.035	0.0147936
683.113	0.0149272
683.192	0.0150760
683.270	0.0150114
683.348	0.0151507
683.426	0.0152111
683.504	0.0153049
683.582	0.0154291
683.660	0.0153036
683.738	0.0153814
683.817	0.0154670
683.895	0.0156667
683.973	0.0156234
684.051	0.0155944
684.129	0.0155357
684.207	0.0156795
684.285	0.0155594
684.363	0.0155212
684.442	0.0153201
684.520	0.0151117
684.598	0.0151526
684.676	0.0150896
684.754	0.0148773
684.832	0.0148830
684.910	0.0145911
684.988	0.0146315
685.067	0.0144506
685.145	0.0142387
685.223	0.0141656
685.301	0.0141721
685.379	0.0142689
685.457	0.0141512
685.535	0.0141004
685.613	0.0140971
685.692	0.0141375
