05/28/2022	14:32:42	Ver.	4.1	UNKNOWN
Optical Delay	599.988409	Delta X		0.078125	Sweeps	1	Scan Rate	0/0
Coordinates	Axis 1	NaN	Axis 2	NaN	Axis 3	NaN	Axis 4	NaN	Axis 5	NaN	Axis 6	0.000000
TX Power	0.000000	RX Power	0.000000

599.988	0.0143583
600.067	0.0141769
600.145	0.0143294
600.223	0.0142699
600.301	0.0142733
600.379	0.0142677
600.457	0.0142188
600.535	0.0142551
600.613	0.0142390
600.692	0.0142706
600.770	0.0142300
600.848	0.0142757
600.926	0.0142567
601.004	0.0141718
601.082	0.0143188
601.160	0.0142410
601.238	0.0141702
601.317	0.0141570
601.395	0.0141470
601.473	0.0143255
601.551	0.0142447
601.629	0.0141892
601.707	0.0143385
601.785	0.0142708
601.863	0.0143831
601.942	0.0143370
602.020	0.0142753
602.098	0.0142419
602.176	0.0142931
602.254	0.0143307
602.332	0.0142715
602.410	0.0143922
602.488	0.0143846
602.567	0.0143491
602.645	0.0141084
602.723	0.0142013
602.801	0.0142733
602.879	0.0143984
602.957	0.0143488
603.035	0.0144109
603.113	0.0144679
603.192	0.0144036
603.270	0.0143913
603.348	0.0144079
603.426	0.0143980
603.504	0.0143775
603.582	0.0144138
603.660	0.0143233
603.738	0.0142889
603.817	0.0143262
603.895	0.0143185
603.973	0.0143887
604.051	0.0143272
604.129	0.0144873
604.207	0.0144102
604.285	0.0142503
604.363	0.0144861
604.442	0.0144855
604.520	0.0144115
604.598	0.0145258
604.676	0.0144439
604.754	0.0144552
604.832	0.0143767
604.910	0.0144831
604.988	0.0144948
605.067	0.0145114
605.145	0.0144153
605.223	0.0143745
605.301	0.0144876
605.379	0.0143441
605.457	0.0144462
605.535	0.0145037
605.613	0.0144855
605.692	0.0144150
605.770	0.0143513
605.848	0.0143256
605.926	0.0145045
606.004	0.0143800
606.082	0.0144700
606.160	0.0145040
606.238	0.0144957
606.317	0.0145364
606.395	0.0144933
606.473	0.0144627
606.551	0.0143993
606.629	0.0144021
606.707	0.0144553
606.785	0.0144145
606.863	0.0143201
606.942	0.0144382
607.020	0.0143978
607.098	0.0145123
607.176	0.0143948
607.254	0.0144180
607.332	0.0143707
607.410	0.0144121
607.488	0.0143718
607.567	0.0144613
607.645	0.0144302
607.723	0.0144070
607.801	0.0144428
607.879	0.0143359
607.957	0.0143346
608.035	0.0143113
608.113	0.0144135
608.192	0.0142628
608.270	0.0142968
608.348	0.0142863
608.426	0.0144093
608.504	0.0146134
608.582	0.0143952
608.660	0.0142908
608.738	0.0143188
608.817	0.0143610
608.895	0.0143233
608.973	0.0142934
609.051	0.0141914
609.129	0.0144389
609.207	0.0143678
609.285	0.0143019
609.363	0.0143719
609.442	0.0143092
609.520	0.0143678
609.598	0.0142748
609.676	0.0144535
609.754	0.0142907
609.832	0.0143007
609.910	0.0143324
609.988	0.0142950
610.067	0.0144119
610.145	0.0142494
610.223	0.0142075
610.301	0.0143204
610.379	0.0144394
610.457	0.0144897
610.535	0.0143156
610.613	0.0141747
610.692	0.0145155
610.770	0.0144667
610.848	0.0143270
610.926	0.0142940
611.004	0.0142686
611.082	0.0142108
611.160	0.0143507
611.238	0.0144118
611.317	0.0144543
611.395	0.0143219
611.473	0.0144608
611.551	0.0144971
611.629	0.0145572
611.707	0.0145158
611.785	0.0145518
611.863	0.0143892
611.942	0.0144718
612.020	0.0143671
612.098	0.0145126
612.176	0.0145515
612.254	0.0145895
612.332	0.0144413
612.410	0.0146073
612.488	0.0144615
612.567	0.0145674
612.645	0.0144759
612.723	0.0144957
612.801	0.0144379
612.879	0.0144603
612.957	0.0145084
613.035	0.0143947
613.113	0.0145381
613.192	0.0146022
613.270	0.0144785
613.348	0.0144361
613.426	0.0145888
613.504	0.0145665
613.582	0.0146292
613.660	0.0144619
613.738	0.0144865
613.817	0.0145173
613.895	0.0145372
613.973	0.0144359
614.051	0.0144109
614.129	0.0145007
614.207	0.0145995
614.285	0.0145673
614.363	0.0145555
614.442	0.0144753
614.520	0.0145985
614.598	0.0144690
614.676	0.0144199
614.754	0.0145390
614.832	0.0143861
614.910	0.0143506
614.988	0.0145390
615.067	0.0143595
615.145	0.0146130
615.223	0.0145937
615.301	0.0145024
615.379	0.0144852
615.457	0.0145363
615.535	0.0145156
615.613	0.0144409
615.692	0.0144314
615.770	0.0144666
615.848	0.0144510
615.926	0.0144013
616.004	0.0144840
616.082	0.0143733
616.160	0.0144480
616.238	0.0145499
616.317	0.0144901
616.395	0.0145463
616.473	0.0144231
616.551	0.0144762
616.629	0.0145866
616.707	0.0145459
616.785	0.0144003
616.863	0.0144287
616.942	0.0144967
617.020	0.0145337
617.098	0.0142580
617.176	0.0145087
617.254	0.0144771
617.332	0.0144418
617.410	0.0145017
617.488	0.0144373
617.567	0.0143668
617.645	0.0143172
617.723	0.0143629
617.801	0.0144131
617.879	0.0144036
617.957	0.0143568
618.035	0.0144290
618.113	0.0143805
618.192	0.0142959
618.270	0.0143623
618.348	0.0143817
618.426	0.0143931
618.504	0.0143737
618.582	0.0142911
618.660	0.0143815
618.738	0.0144194
618.817	0.0144556
618.895	0.0143476
618.973	0.0143018
619.051	0.0145388
619.129	0.0143089
619.207	0.0142986
619.285	0.0143980
619.363	0.0143557
619.442	0.0143211
619.520	0.0143675
619.598	0.0143282
619.676	0.0143706
619.754	0.0143351
619.832	0.0144643
619.910	0.0143948
619.988	0.0144950
620.067	0.0143016
620.145	0.0142931
620.223	0.0143208
620.301	0.0142516
620.379	0.0142834
620.457	0.0143864
620.535	0.0143425
620.613	0.0142232
620.692	0.0143198
620.770	0.0142945
620.848	0.0144392
620.926	0.0143707
621.004	0.0142281
621.082	0.0141875
621.160	0.0143418
621.238	0.0143733
621.317	0.0143745
621.395	0.0143285
621.473	0.0142202
621.551	0.0142928
621.629	0.0143256
621.707	0.0142029
621.785	0.0142686
621.863	0.0141638
621.942	0.0142702
622.020	0.0143388
622.098	0.0142608
622.176	0.0142023
622.254	0.0143081
622.332	0.0142310
622.410	0.0141063
622.488	0.0144498
622.567	0.0142993
622.645	0.0143203
622.723	0.0144707
622.801	0.0143506
622.879	0.0143450
622.957	0.0143858
623.035	0.0144745
623.113	0.0143720
623.192	0.0143148
623.270	0.0143357
623.348	0.0144662
623.426	0.0144259
623.504	0.0145361
623.582	0.0143774
623.660	0.0143070
623.738	0.0144956
623.817	0.0143555
623.895	0.0144633
623.973	0.0143884
624.051	0.0144434
624.129	0.0143937
624.207	0.0144551
624.285	0.0143854
624.363	0.0143829
624.442	0.0143606
624.520	0.0143460
624.598	0.0145079
624.676	0.0143266
624.754	0.0142968
624.832	0.0142374
624.910	0.0143479
624.988	0.0144393
625.067	0.0145047
625.145	0.0142164
625.223	0.0143105
625.301	0.0144558
625.379	0.0143188
625.457	0.0142793
625.535	0.0142413
625.613	0.0143001
625.692	0.0143089
625.770	0.0141541
625.848	0.0142130
625.926	0.0143176
626.004	0.0143195
626.082	0.0143066
626.160	0.0143661
626.238	0.0142885
626.317	0.0143180
626.395	0.0145144
626.473	0.0145716
626.551	0.0144250
626.629	0.0145084
626.707	0.0143866
626.785	0.0144299
626.863	0.0144753
626.942	0.0144523
627.020	0.0145687
627.098	0.0144667
627.176	0.0143382
627.254	0.0142869
627.332	0.0142725
627.410	0.0141462
627.488	0.0143042
627.567	0.0142215
627.645	0.0142231
627.723	0.0142255
627.801	0.0142329
627.879	0.0143626
627.957	0.0142650
628.035	0.0141879
628.113	0.0142035
628.192	0.0142629
628.270	0.0143895
628.348	0.0144471
628.426	0.0143584
628.504	0.0144348
628.582	0.0144689
628.660	0.0146986
628.738	0.0145510
628.817	0.0146554
628.895	0.0146902
628.973	0.0146393
629.051	0.0146516
629.129	0.0146204
629.207	0.0146849
629.285	0.0144846
629.363	0.0146669
629.442	0.0146906
629.520	0.0145847
629.598	0.0144817
629.676	0.0145150
629.754	0.0143214
629.832	0.0143476
629.910	0.0143994
629.988	0.0143465
630.067	0.0144213
630.145	0.0143096
630.223	0.0140875
630.301	0.0142079
630.379	0.0141102
630.457	0.0141599
630.535	0.0142305
630.613	0.0141462
630.692	0.0141198
630.770	0.0141698
630.848	0.0142612
630.926	0.0143752
631.004	0.0143350
631.082	0.0143752
631.160	0.0144500
631.238	0.0144524
631.317	0.0145023
631.395	0.0148121
631.473	0.0147369
631.551	0.0147842
631.629	0.0150406
631.707	0.0149262
631.785	0.0149313
631.863	0.0149532
631.942	0.0150130
632.020	0.0148119
632.098	0.0149584
632.176	0.0148909
632.254	0.0149802
632.332	0.0147878
632.410	0.0149306
632.488	0.0148027
632.567	0.0147802
632.645	0.0147012
632.723	0.0145864
632.801	0.0146378
632.879	0.0146245
632.957	0.0146268
633.035	0.0146097
633.113	0.0143472
633.192	0.0145103
633.270	0.0145531
633.348	0.0146417
633.426	0.0144952
633.504	0.0144798
633.582	0.0143750
633.660	0.0142786
633.738	0.0142690
633.817	0.0144194
633.895	0.0144514
633.973	0.0144298
634.051	0.0144064
634.129	0.0144232
634.207	0.0143527
634.285	0.0142609
634.363	0.0142625
634.442	0.0143098
634.520	0.0141322
634.598	0.0142321
634.676	0.0143044
634.754	0.0140816
634.832	0.0141197
634.910	0.0141624
634.988	0.0138905
635.067	0.0141277
635.145	0.0139885
635.223	0.0138482
635.301	0.0139655
635.379	0.0139912
635.457	0.0141521
635.535	0.0139726
635.613	0.0138891
635.692	0.0139225
635.770	0.0140510
635.848	0.0140778
635.926	0.0141299
636.004	0.0140048
636.082	0.0140744
636.160	0.0141586
636.238	0.0143143
636.317	0.0141261
636.395	0.0140744
636.473	0.0141823
636.551	0.0144721
636.629	0.0143475
636.707	0.0142722
636.785	0.0144318
636.863	0.0144657
636.942	0.0144659
637.020	0.0144012
637.098	0.0145213
637.176	0.0145768
637.254	0.0145091
637.332	0.0144535
637.410	0.0144537
637.488	0.0145268
637.567	0.0144252
637.645	0.0144872
637.723	0.0144872
637.801	0.0145440
637.879	0.0142648
637.957	0.0143816
638.035	0.0144196
638.113	0.0143208
638.192	0.0142785
638.270	0.0144193
638.348	0.0142992
638.426	0.0142924
638.504	0.0142193
638.582	0.0142619
638.660	0.0142431
638.738	0.0142602
638.817	0.0142294
638.895	0.0142676
638.973	0.0142370
639.051	0.0142925
639.129	0.0143292
639.207	0.0142920
639.285	0.0143803
639.363	0.0142409
639.442	0.0143810
639.520	0.0145125
639.598	0.0143157
639.676	0.0144077
639.754	0.0142322
639.832	0.0143889
639.910	0.0144133
639.988	0.0144336
640.067	0.0142284
640.145	0.0143151
640.223	0.0144251
640.301	0.0144971
640.379	0.0145791
640.457	0.0145068
640.535	0.0145530
640.613	0.0144495
640.692	0.0146517
640.770	0.0145290
640.848	0.0145853
640.926	0.0145013
641.004	0.0146108
641.082	0.0145666
641.160	0.0145906
641.238	0.0146738
641.317	0.0146449
641.395	0.0146262
641.473	0.0146568
641.551	0.0147076
641.629	0.0146284
641.707	0.0145628
641.785	0.0145822
641.863	0.0145919
641.942	0.0145278
642.020	0.0146244
642.098	0.0146098
642.176	0.0145833
642.254	0.0144954
642.332	0.0144154
642.410	0.0145620
642.488	0.0146909
642.567	0.0145657
642.645	0.0146891
642.723	0.0145873
642.801	0.0146033
642.879	0.0146178
642.957	0.0147021
643.035	0.0145565
643.113	0.0146623
643.192	0.0146577
643.270	0.0147271
643.348	0.0147116
643.426	0.0146343
643.504	0.0145762
643.582	0.0144695
643.660	0.0145031
643.738	0.0145533
643.817	0.0145290
643.895	0.0144653
643.973	0.0142859
644.051	0.0143958
644.129	0.0142337
644.207	0.0142046
644.285	0.0143008
644.363	0.0142633
644.442	0.0141280
644.520	0.0142058
644.598	0.0141844
644.676	0.0141235
644.754	0.0142379
644.832	0.0142770
644.910	0.0142059
644.988	0.0141405
645.067	0.0142274
645.145	0.0143387
645.223	0.0142293
645.301	0.0143645
645.379	0.0143227
645.457	0.0142197
645.535	0.0144650
645.613	0.0142191
645.692	0.0143077
645.770	0.0144463
645.848	0.0143005
645.926	0.0144507
646.004	0.0144175
646.082	0.0146132
646.160	0.0145712
646.238	0.0146037
646.317	0.0146656
646.395	0.0146243
646.473	0.0146582
646.551	0.0146878
646.629	0.0146752
646.707	0.0147852
646.785	0.0147208
646.863	0.0147812
646.942	0.0146140
647.020	0.0147544
647.098	0.0145600
647.176	0.0144997
647.254	0.0144934
647.332	0.0144638
647.410	0.0144868
647.488	0.0143574
647.567	0.0143637
647.645	0.0143582
647.723	0.0142909
647.801	0.0143531
647.879	0.0142031
647.957	0.0142813
648.035	0.0143038
648.113	0.0143691
648.192	0.0143943
648.270	0.0142277
648.348	0.0142239
648.426	0.0142588
648.504	0.0145145
648.582	0.0142522
648.660	0.0143793
648.738	0.0142987
648.817	0.0142931
648.895	0.0142970
648.973	0.0143134
649.051	0.0143192
649.129	0.0143319
649.207	0.0143972
649.285	0.0143983
649.363	0.0143720
649.442	0.0144446
649.520	0.0144556
649.598	0.0144760
649.676	0.0144424
649.754	0.0146005
649.832	0.0145760
649.910	0.0146518
649.988	0.0145023
650.067	0.0148335
650.145	0.0148591
650.223	0.0148726
650.301	0.0147661
650.379	0.0146586
650.457	0.0147646
650.535	0.0147980
650.613	0.0145599
650.692	0.0146861
650.770	0.0146016
650.848	0.0147034
650.926	0.0145287
651.004	0.0144519
651.082	0.0145524
651.160	0.0145514
651.238	0.0144824
651.317	0.0144296
651.395	0.0143925
651.473	0.0144835
651.551	0.0143628
651.629	0.0143870
651.707	0.0143304
651.785	0.0144459
651.863	0.0143507
651.942	0.0142710
652.020	0.0142024
652.098	0.0143716
652.176	0.0144202
652.254	0.0142140
652.332	0.0143559
652.410	0.0142210
652.488	0.0142262
652.567	0.0141965
652.645	0.0142477
652.723	0.0142244
652.801	0.0141290
652.879	0.0142088
652.957	0.0140839
653.035	0.0142042
653.113	0.0140143
653.192	0.0139629
653.270	0.0141300
653.348	0.0141309
653.426	0.0140573
653.504	0.0139964
653.582	0.0142360
653.660	0.0143726
653.738	0.0143558
653.817	0.0144009
653.895	0.0143427
653.973	0.0145434
654.051	0.0145072
654.129	0.0144125
654.207	0.0146593
654.285	0.0146176
654.363	0.0145692
654.442	0.0146771
654.520	0.0145953
654.598	0.0146880
654.676	0.0147601
654.754	0.0146162
654.832	0.0146867
654.910	0.0146539
654.988	0.0146470
655.067	0.0145892
655.145	0.0145100
655.223	0.0145689
655.301	0.0145184
655.379	0.0143879
655.457	0.0143403
655.535	0.0142646
655.613	0.0144292
655.692	0.0143681
655.770	0.0143143
655.848	0.0141277
655.926	0.0141545
656.004	0.0142393
656.082	0.0142400
656.160	0.0141979
656.238	0.0142121
656.317	0.0141132
656.395	0.0143697
656.473	0.0142537
656.551	0.0141399
656.629	0.0142361
656.707	0.0142550
656.785	0.0141118
656.863	0.0142852
656.942	0.0142502
657.020	0.0142902
657.098	0.0143792
657.176	0.0143394
657.254	0.0141745
657.332	0.0141608
657.410	0.0142198
657.488	0.0142859
657.567	0.0140672
657.645	0.0141222
657.723	0.0139830
657.801	0.0138948
657.879	0.0139823
657.957	0.0140302
658.035	0.0139933
658.113	0.0140076
658.192	0.0139879
658.270	0.0140417
658.348	0.0141575
658.426	0.0140359
658.504	0.0141397
658.582	0.0141566
658.660	0.0141351
658.738	0.0140878
658.817	0.0141177
658.895	0.0141341
658.973	0.0140466
659.051	0.0139151
659.129	0.0139563
659.207	0.0141694
659.285	0.0141383
659.363	0.0141049
659.442	0.0140562
659.520	0.0139041
659.598	0.0142040
659.676	0.0143865
659.754	0.0143317
659.832	0.0142262
659.910	0.0143168
659.988	0.0143340
660.067	0.0144661
660.145	0.0145753
660.223	0.0146999
660.301	0.0146192
660.379	0.0147755
660.457	0.0148682
660.535	0.0149124
660.613	0.0149099
660.692	0.0149626
660.770	0.0148170
660.848	0.0149458
660.926	0.0149652
661.004	0.0149866
661.082	0.0149371
661.160	0.0150097
661.238	0.0147834
661.317	0.0148611
661.395	0.0149801
661.473	0.0149046
661.551	0.0149196
661.629	0.0147604
661.707	0.0148457
661.785	0.0148260
661.863	0.0146858
661.942	0.0146257
662.020	0.0145612
662.098	0.0146652
662.176	0.0146633
662.254	0.0146375
662.332	0.0145152
662.410	0.0146629
662.488	0.0146397
662.567	0.0144508
662.645	0.0144214
662.723	0.0143053
662.801	0.0144068
662.879	0.0143806
662.957	0.0143102
663.035	0.0142852
663.113	0.0143551
663.192	0.0141129
663.270	0.0140308
663.348	0.0141824
663.426	0.0141684
663.504	0.0141922
663.582	0.0139463
663.660	0.0141063
663.738	0.0139725
663.817	0.0140878
663.895	0.0140663
663.973	0.0142500
664.051	0.0141363
664.129	0.0141760
664.207	0.0142014
664.285	0.0141469
664.363	0.0141242
664.442	0.0144467
664.520	0.0143463
664.598	0.0144695
664.676	0.0146319
664.754	0.0144801
664.832	0.0145072
664.910	0.0147036
664.988	0.0147044
665.067	0.0147805
665.145	0.0149099
665.223	0.0148707
665.301	0.0148255
665.379	0.0149693
665.457	0.0149323
665.535	0.0150058
665.613	0.0148315
665.692	0.0148277
665.770	0.0149340
665.848	0.0149873
665.926	0.0149487
666.004	0.0149471
666.082	0.0147569
666.160	0.0147213
666.238	0.0147520
666.317	0.0145940
666.395	0.0146913
666.473	0.0146996
666.551	0.0145367
666.629	0.0144018
666.707	0.0143853
666.785	0.0142432
666.863	0.0143409
666.942	0.0143085
667.020	0.0143439
667.098	0.0142635
667.176	0.0141401
667.254	0.0141379
667.332	0.0141943
667.410	0.0141531
667.488	0.0140604
667.567	0.0139838
667.645	0.0141924
667.723	0.0141838
667.801	0.0140504
667.879	0.0140802
667.957	0.0139840
668.035	0.0141187
668.113	0.0141879
668.192	0.0141539
668.270	0.0140604
668.348	0.0140535
668.426	0.0141098
668.504	0.0141399
668.582	0.0141530
668.660	0.0140735
668.738	0.0142284
668.817	0.0143853
668.895	0.0143914
668.973	0.0143510
669.051	0.0144494
669.129	0.0144415
669.207	0.0145797
669.285	0.0145415
669.363	0.0145183
669.442	0.0147794
669.520	0.0148349
669.598	0.0149005
669.676	0.0149387
669.754	0.0148264
669.832	0.0149654
669.910	0.0149696
669.988	0.0150341
670.067	0.0148676
670.145	0.0148978
670.223	0.0150028
670.301	0.0148879
670.379	0.0148424
670.457	0.0148322
670.535	0.0147255
670.613	0.0146484
670.692	0.0145635
670.770	0.0146742
670.848	0.0146230
670.926	0.0145493
671.004	0.0144544
671.082	0.0143390
671.160	0.0144070
671.238	0.0143948
671.317	0.0143240
671.395	0.0142950
671.473	0.0142902
671.551	0.0144971
671.629	0.0143741
671.707	0.0144938
671.785	0.0145100
671.863	0.0144508
671.942	0.0146001
672.020	0.0145828
672.098	0.0146568
672.176	0.0147591
672.254	0.0145767
672.332	0.0147160
672.410	0.0147865
672.488	0.0148099
672.567	0.0147143
672.645	0.0146921
672.723	0.0147141
672.801	0.0147176
672.879	0.0146024
672.957	0.0145234
673.035	0.0144196
673.113	0.0145150
673.192	0.0144230
673.270	0.0144926
673.348	0.0144647
673.426	0.0141625
673.504	0.0143108
673.582	0.0143951
673.660	0.0143170
673.738	0.0140570
673.817	0.0143443
673.895	0.0143317
673.973	0.0142442
674.051	0.0143234
674.129	0.0142712
674.207	0.0143501
674.285	0.0143556
674.363	0.0143603
674.442	0.0145198
674.520	0.0145633
674.598	0.0145241
674.676	0.0147081
674.754	0.0145612
674.832	0.0147633
674.910	0.0149674
674.988	0.0147298
675.067	0.0146643
675.145	0.0149478
675.223	0.0150044
675.301	0.0149841
675.379	0.0149017
675.457	0.0148467
675.535	0.0147903
675.613	0.0147543
675.692	0.0145464
675.770	0.0145719
675.848	0.0147281
675.926	0.0145439
676.004	0.0145576
676.082	0.0144305
676.160	0.0141628
676.238	0.0142179
676.317	0.0142422
676.395	0.0140565
676.473	0.0139659
676.551	0.0139376
676.629	0.0138618
676.707	0.0138008
676.785	0.0137905
676.863	0.0137385
676.942	0.0136807
677.020	0.0136648
677.098	0.0136974
677.176	0.0136507
677.254	0.0136397
677.332	0.0136945
677.410	0.0138724
677.488	0.0138459
677.567	0.0138035
677.645	0.0139261
677.723	0.0139110
677.801	0.0139219
677.879	0.0139484
677.957	0.0142357
678.035	0.0142546
678.113	0.0142612
678.192	0.0144668
678.270	0.0144859
678.348	0.0143339
678.426	0.0144180
678.504	0.0145264
678.582	0.0144867
678.660	0.0144690
678.738	0.0146550
678.817	0.0145778
678.895	0.0146410
678.973	0.0148215
679.051	0.0146974
679.129	0.0149359
679.207	0.0148280
679.285	0.0147607
679.363	0.0146722
679.442	0.0148289
679.520	0.0145705
679.598	0.0148096
679.676	0.0147324
679.754	0.0148090
679.832	0.0146360
679.910	0.0146423
679.988	0.0143575
680.067	0.0144778
680.145	0.0144521
680.223	0.0143346
680.301	0.0142929
680.379	0.0142045
680.457	0.0141598
680.535	0.0141199
680.613	0.0143035
680.692	0.0141346
680.770	0.0140540
680.848	0.0140000
680.926	0.0140163
681.004	0.0138896
681.082	0.0138962
681.160	0.0140015
681.238	0.0139172
681.317	0.0138544
681.395	0.0139851
681.473	0.0138377
681.551	0.0138577
681.629	0.0138077
681.707	0.0137744
681.785	0.0137155
681.863	0.0137199
681.942	0.0136826
682.020	0.0138296
682.098	0.0139268
682.176	0.0138187
682.254	0.0137467
682.332	0.0138754
682.410	0.0140287
682.488	0.0140334
682.567	0.0140159
682.645	0.0142467
682.723	0.0141963
682.801	0.0142522
682.879	0.0144700
682.957	0.0145012
683.035	0.0146899
683.113	0.0145954
683.192	0.0147768
683.270	0.0149245
683.348	0.0149613
683.426	0.0148850
683.504	0.0148863
683.582	0.0151257
683.660	0.0151124
683.738	0.0151550
683.817	0.0151625
683.895	0.0153011
683.973	0.0152694
684.051	0.0153699
684.129	0.0150665
684.207	0.0150376
684.285	0.0151224
684.363	0.0149969
684.442	0.0147773
684.520	0.0148587
684.598	0.0148170
684.676	0.0145656
684.754	0.0144386
684.832	0.0144392
684.910	0.0142085
684.988	0.0141791
685.067	0.0141309
685.145	0.0141188
685.223	0.0139887
685.301	0.0139087
685.379	0.0138697
685.457	0.0138551
685.535	0.0137372
685.613	0.0138934
685.692	0.0138023
