05/28/2022	14:33:42	Ver.	4.1	UNKNOWN
Optical Delay	599.988409	Delta X		0.078125	Sweeps	1	Scan Rate	0/0
Coordinates	Axis 1	NaN	Axis 2	NaN	Axis 3	NaN	Axis 4	NaN	Axis 5	NaN	Axis 6	0.000000
TX Power	0.000000	RX Power	0.000000

599.988	0.0140473
600.067	0.0140364
600.145	0.0140269
600.223	0.0139880
600.301	0.0140539
600.379	0.0140972
600.457	0.0141997
600.535	0.0141707
600.613	0.0141001
600.692	0.0142004
600.770	0.0140903
600.848	0.0140668
600.926	0.0141840
601.004	0.0139931
601.082	0.0142189
601.160	0.0140784
601.238	0.0139429
601.317	0.0140603
601.395	0.0141473
601.473	0.0141494
601.551	0.0141243
601.629	0.0140859
601.707	0.0142107
601.785	0.0141652
601.863	0.0140977
601.942	0.0141103
602.020	0.0141708
602.098	0.0141688
602.176	0.0142033
602.254	0.0141493
602.332	0.0140788
602.410	0.0142677
602.488	0.0141677
602.567	0.0140923
602.645	0.0141240
602.723	0.0142397
602.801	0.0142056
602.879	0.0140825
602.957	0.0140089
603.035	0.0141254
603.113	0.0141251
603.192	0.0143491
603.270	0.0141456
603.348	0.0141850
603.426	0.0141418
603.504	0.0141359
603.582	0.0141375
603.660	0.0141003
603.738	0.0141385
603.817	0.0141325
603.895	0.0141132
603.973	0.0141537
604.051	0.0141416
604.129	0.0140116
604.207	0.0141412
604.285	0.0142229
604.363	0.0140195
604.442	0.0141159
604.520	0.0142600
604.598	0.0141277
604.676	0.0139462
604.754	0.0140749
604.832	0.0140986
604.910	0.0143191
604.988	0.0142547
605.067	0.0142966
605.145	0.0142063
605.223	0.0140497
605.301	0.0140365
605.379	0.0140710
605.457	0.0141977
605.535	0.0142592
605.613	0.0141643
605.692	0.0141629
605.770	0.0141763
605.848	0.0141215
605.926	0.0141129
606.004	0.0142462
606.082	0.0140791
606.160	0.0141460
606.238	0.0142088
606.317	0.0141538
606.395	0.0142269
606.473	0.0143443
606.551	0.0142524
606.629	0.0143060
606.707	0.0142054
606.785	0.0142515
606.863	0.0142844
606.942	0.0142371
607.020	0.0142816
607.098	0.0142320
607.176	0.0141370
607.254	0.0142655
607.332	0.0142558
607.410	0.0141244
607.488	0.0142169
607.567	0.0140920
607.645	0.0142416
607.723	0.0142776
607.801	0.0142948
607.879	0.0141199
607.957	0.0140601
608.035	0.0141984
608.113	0.0141846
608.192	0.0141944
608.270	0.0142109
608.348	0.0141620
608.426	0.0141516
608.504	0.0140589
608.582	0.0141994
608.660	0.0141785
608.738	0.0142093
608.817	0.0141439
608.895	0.0139899
608.973	0.0142276
609.051	0.0141482
609.129	0.0141592
609.207	0.0141409
609.285	0.0141871
609.363	0.0141909
609.442	0.0143265
609.520	0.0140601
609.598	0.0141249
609.676	0.0142290
609.754	0.0142001
609.832	0.0140634
609.910	0.0142737
609.988	0.0141785
610.067	0.0141885
610.145	0.0142838
610.223	0.0142294
610.301	0.0142415
610.379	0.0141505
610.457	0.0143776
610.535	0.0143047
610.613	0.0142583
610.692	0.0141216
610.770	0.0142304
610.848	0.0143398
610.926	0.0142519
611.004	0.0141721
611.082	0.0140688
611.160	0.0141440
611.238	0.0142467
611.317	0.0140747
611.395	0.0143391
611.473	0.0141982
611.551	0.0140797
611.629	0.0140245
611.707	0.0141856
611.785	0.0142096
611.863	0.0142089
611.942	0.0142836
612.020	0.0142751
612.098	0.0143326
612.176	0.0142377
612.254	0.0142622
612.332	0.0141261
612.410	0.0141675
612.488	0.0143180
612.567	0.0142323
612.645	0.0141662
612.723	0.0142961
612.801	0.0142973
612.879	0.0141998
612.957	0.0142265
613.035	0.0142332
613.113	0.0141557
613.192	0.0141296
613.270	0.0142815
613.348	0.0142007
613.426	0.0141913
613.504	0.0141926
613.582	0.0140601
613.660	0.0142094
613.738	0.0141352
613.817	0.0141367
613.895	0.0142723
613.973	0.0143050
614.051	0.0141833
614.129	0.0141853
614.207	0.0141319
614.285	0.0141940
614.363	0.0141701
614.442	0.0142412
614.520	0.0142035
614.598	0.0142500
614.676	0.0141009
614.754	0.0141774
614.832	0.0143106
614.910	0.0141850
614.988	0.0141827
615.067	0.0141548
615.145	0.0140432
615.223	0.0139563
615.301	0.0140295
615.379	0.0142419
615.457	0.0139806
615.535	0.0140682
615.613	0.0140433
615.692	0.0138654
615.770	0.0137866
615.848	0.0141058
615.926	0.0139288
616.004	0.0140488
616.082	0.0140004
616.160	0.0139898
616.238	0.0140070
616.317	0.0139244
616.395	0.0140147
616.473	0.0139590
616.551	0.0141038
616.629	0.0138419
616.707	0.0139605
616.785	0.0140878
616.863	0.0140179
616.942	0.0140596
617.020	0.0140490
617.098	0.0139797
617.176	0.0140311
617.254	0.0139436
617.332	0.0139695
617.410	0.0141051
617.488	0.0140491
617.567	0.0140698
617.645	0.0140549
617.723	0.0142821
617.801	0.0141540
617.879	0.0141341
617.957	0.0141870
618.035	0.0141274
618.113	0.0140894
618.192	0.0140768
618.270	0.0141073
618.348	0.0141319
618.426	0.0142504
618.504	0.0139999
618.582	0.0140562
618.660	0.0141601
618.738	0.0141524
618.817	0.0140771
618.895	0.0141689
618.973	0.0141667
619.051	0.0140480
619.129	0.0142757
619.207	0.0141962
619.285	0.0141724
619.363	0.0141637
619.442	0.0142306
619.520	0.0142420
619.598	0.0144003
619.676	0.0141406
619.754	0.0142876
619.832	0.0141029
619.910	0.0143040
619.988	0.0143162
620.067	0.0143950
620.145	0.0142750
620.223	0.0143598
620.301	0.0143135
620.379	0.0142007
620.457	0.0143932
620.535	0.0142716
620.613	0.0144022
620.692	0.0142762
620.770	0.0142759
620.848	0.0143674
620.926	0.0143657
621.004	0.0141353
621.082	0.0141747
621.160	0.0144256
621.238	0.0144035
621.317	0.0144026
621.395	0.0142921
621.473	0.0143057
621.551	0.0141923
621.629	0.0143081
621.707	0.0143531
621.785	0.0142937
621.863	0.0143098
621.942	0.0143460
622.020	0.0141179
622.098	0.0142239
622.176	0.0142472
622.254	0.0141846
622.332	0.0141737
622.410	0.0142065
622.488	0.0141586
622.567	0.0142401
622.645	0.0141117
622.723	0.0139919
622.801	0.0140948
622.879	0.0140813
622.957	0.0141164
623.035	0.0141302
623.113	0.0139925
623.192	0.0139226
623.270	0.0139310
623.348	0.0139304
623.426	0.0140334
623.504	0.0141086
623.582	0.0140171
623.660	0.0140825
623.738	0.0140833
623.817	0.0140472
623.895	0.0141687
623.973	0.0141340
624.051	0.0142398
624.129	0.0143189
624.207	0.0141328
624.285	0.0143148
624.363	0.0142504
624.442	0.0142923
624.520	0.0142645
624.598	0.0142606
624.676	0.0141696
624.754	0.0141296
624.832	0.0142245
624.910	0.0141602
624.988	0.0140370
625.067	0.0140327
625.145	0.0140607
625.223	0.0140826
625.301	0.0139815
625.379	0.0139872
625.457	0.0140322
625.535	0.0139519
625.613	0.0140685
625.692	0.0139462
625.770	0.0140268
625.848	0.0142538
625.926	0.0142026
626.004	0.0143233
626.082	0.0141582
626.160	0.0143210
626.238	0.0143435
626.317	0.0141787
626.395	0.0144116
626.473	0.0145660
626.551	0.0144914
626.629	0.0143223
626.707	0.0144769
626.785	0.0143230
626.863	0.0144032
626.942	0.0144237
627.020	0.0143626
627.098	0.0142633
627.176	0.0142584
627.254	0.0143848
627.332	0.0143680
627.410	0.0142830
627.488	0.0141753
627.567	0.0139983
627.645	0.0141765
627.723	0.0141976
627.801	0.0139990
627.879	0.0139797
627.957	0.0140277
628.035	0.0140765
628.113	0.0140004
628.192	0.0139028
628.270	0.0139310
628.348	0.0139169
628.426	0.0139801
628.504	0.0140620
628.582	0.0139615
628.660	0.0140053
628.738	0.0143459
628.817	0.0141803
628.895	0.0141810
628.973	0.0144288
629.051	0.0142076
629.129	0.0143693
629.207	0.0145314
629.285	0.0146516
629.363	0.0145402
629.442	0.0146420
629.520	0.0146848
629.598	0.0146273
629.676	0.0146567
629.754	0.0146824
629.832	0.0145866
629.910	0.0145231
629.988	0.0143541
630.067	0.0143859
630.145	0.0144083
630.223	0.0144598
630.301	0.0143365
630.379	0.0143331
630.457	0.0142446
630.535	0.0142982
630.613	0.0142835
630.692	0.0141639
630.770	0.0140292
630.848	0.0142433
630.926	0.0141792
631.004	0.0140297
631.082	0.0141853
631.160	0.0141844
631.238	0.0143240
631.317	0.0143650
631.395	0.0142154
631.473	0.0142006
631.551	0.0142854
631.629	0.0142302
631.707	0.0141718
631.785	0.0141773
631.863	0.0143024
631.942	0.0141994
632.020	0.0143105
632.098	0.0141545
632.176	0.0142004
632.254	0.0143120
632.332	0.0141918
632.410	0.0140461
632.488	0.0140575
632.567	0.0140982
632.645	0.0140659
632.723	0.0141453
632.801	0.0140113
632.879	0.0141158
632.957	0.0141680
633.035	0.0141342
633.113	0.0140575
633.192	0.0140213
633.270	0.0141457
633.348	0.0140431
633.426	0.0140337
633.504	0.0141198
633.582	0.0140818
633.660	0.0140998
633.738	0.0140823
633.817	0.0141507
633.895	0.0141661
633.973	0.0143000
634.051	0.0142915
634.129	0.0145354
634.207	0.0143645
634.285	0.0144154
634.363	0.0143787
634.442	0.0145524
634.520	0.0144389
634.598	0.0143427
634.676	0.0145095
634.754	0.0145042
634.832	0.0144266
634.910	0.0146031
634.988	0.0145347
635.067	0.0143723
635.145	0.0144530
635.223	0.0143147
635.301	0.0142182
635.379	0.0142976
635.457	0.0141924
635.535	0.0142552
635.613	0.0143071
635.692	0.0139746
635.770	0.0140753
635.848	0.0138748
635.926	0.0139262
636.004	0.0140051
636.082	0.0139854
636.160	0.0138586
636.238	0.0139535
636.317	0.0138528
636.395	0.0139001
636.473	0.0138335
636.551	0.0139149
636.629	0.0138315
636.707	0.0140033
636.785	0.0139674
636.863	0.0137315
636.942	0.0138654
637.020	0.0139573
637.098	0.0138184
637.176	0.0138578
637.254	0.0138332
637.332	0.0140274
637.410	0.0139937
637.488	0.0138874
637.567	0.0138295
637.645	0.0137688
637.723	0.0138316
637.801	0.0139840
637.879	0.0139100
637.957	0.0140374
638.035	0.0139241
638.113	0.0140762
638.192	0.0140089
638.270	0.0141473
638.348	0.0141241
638.426	0.0140636
638.504	0.0140777
638.582	0.0139732
638.660	0.0139946
638.738	0.0141092
638.817	0.0140249
638.895	0.0140117
638.973	0.0139854
639.051	0.0141393
639.129	0.0141972
639.207	0.0140742
639.285	0.0139866
639.363	0.0140609
639.442	0.0139218
639.520	0.0140720
639.598	0.0140504
639.676	0.0139374
639.754	0.0141141
639.832	0.0141574
639.910	0.0140504
639.988	0.0141528
640.067	0.0143080
640.145	0.0141712
640.223	0.0141473
640.301	0.0143076
640.379	0.0142873
640.457	0.0142151
640.535	0.0142284
640.613	0.0143217
640.692	0.0142060
640.770	0.0141840
640.848	0.0143341
640.926	0.0141927
641.004	0.0143148
641.082	0.0142094
641.160	0.0141335
641.238	0.0141521
641.317	0.0142587
641.395	0.0141663
641.473	0.0142438
641.551	0.0143705
641.629	0.0142824
641.707	0.0142641
641.785	0.0143125
641.863	0.0142603
641.942	0.0143418
642.020	0.0143328
642.098	0.0142162
642.176	0.0143134
642.254	0.0145019
642.332	0.0142973
642.410	0.0143899
642.488	0.0142686
642.567	0.0142696
642.645	0.0142577
642.723	0.0143665
642.801	0.0143859
642.879	0.0142983
642.957	0.0143732
643.035	0.0145164
643.113	0.0143565
643.192	0.0142651
643.270	0.0144315
643.348	0.0144344
643.426	0.0143281
643.504	0.0144282
643.582	0.0142787
643.660	0.0143606
643.738	0.0143089
643.817	0.0142174
643.895	0.0141857
643.973	0.0143095
644.051	0.0142676
644.129	0.0141393
644.207	0.0142003
644.285	0.0142406
644.363	0.0143636
644.442	0.0142927
644.520	0.0143264
644.598	0.0144585
644.676	0.0143262
644.754	0.0142725
644.832	0.0142322
644.910	0.0142351
644.988	0.0142355
645.067	0.0143523
645.145	0.0143283
645.223	0.0142325
645.301	0.0142153
645.379	0.0140556
645.457	0.0142043
645.535	0.0139796
645.613	0.0140272
645.692	0.0139915
645.770	0.0140168
645.848	0.0138639
645.926	0.0138486
646.004	0.0138113
646.082	0.0137778
646.160	0.0139445
646.238	0.0137936
646.317	0.0138717
646.395	0.0139581
646.473	0.0138729
646.551	0.0140723
646.629	0.0139722
646.707	0.0140839
646.785	0.0140233
646.863	0.0141899
646.942	0.0140819
647.020	0.0140401
647.098	0.0142629
647.176	0.0141986
647.254	0.0141244
647.332	0.0143428
647.410	0.0142354
647.488	0.0143127
647.567	0.0143176
647.645	0.0143779
647.723	0.0143435
647.801	0.0143990
647.879	0.0144444
647.957	0.0143095
648.035	0.0142444
648.113	0.0143290
648.192	0.0143308
648.270	0.0142259
648.348	0.0142734
648.426	0.0143321
648.504	0.0142464
648.582	0.0143534
648.660	0.0141197
648.738	0.0141676
648.817	0.0143189
648.895	0.0142664
648.973	0.0141566
649.051	0.0141353
649.129	0.0141235
649.207	0.0142073
649.285	0.0142586
649.363	0.0141485
649.442	0.0141246
649.520	0.0141900
649.598	0.0143250
649.676	0.0142641
649.754	0.0141692
649.832	0.0142065
649.910	0.0144109
649.988	0.0141750
650.067	0.0140823
650.145	0.0141993
650.223	0.0141692
650.301	0.0141949
650.379	0.0141943
650.457	0.0142332
650.535	0.0140881
650.613	0.0139283
650.692	0.0138071
650.770	0.0140348
650.848	0.0139238
650.926	0.0139667
651.004	0.0139644
651.082	0.0139500
651.160	0.0138852
651.238	0.0137864
651.317	0.0138592
651.395	0.0138491
651.473	0.0137656
651.551	0.0140261
651.629	0.0139848
651.707	0.0140280
651.785	0.0142026
651.863	0.0141862
651.942	0.0142436
652.020	0.0143302
652.098	0.0143182
652.176	0.0143742
652.254	0.0145147
652.332	0.0146928
652.410	0.0146195
652.488	0.0146352
652.567	0.0147674
652.645	0.0147438
652.723	0.0147056
652.801	0.0147173
652.879	0.0148108
652.957	0.0147448
653.035	0.0147023
653.113	0.0146962
653.192	0.0146172
653.270	0.0145796
653.348	0.0146162
653.426	0.0145299
653.504	0.0144942
653.582	0.0144498
653.660	0.0145025
653.738	0.0143723
653.817	0.0143021
653.895	0.0142938
653.973	0.0142614
654.051	0.0141113
654.129	0.0141360
654.207	0.0140710
654.285	0.0141462
654.363	0.0140336
654.442	0.0140292
654.520	0.0139026
654.598	0.0138930
654.676	0.0138997
654.754	0.0139260
654.832	0.0140099
654.910	0.0139575
654.988	0.0140369
655.067	0.0140950
655.145	0.0140295
655.223	0.0140933
655.301	0.0140585
655.379	0.0141270
655.457	0.0141605
655.535	0.0141843
655.613	0.0142728
655.692	0.0141541
655.770	0.0142722
655.848	0.0143760
655.926	0.0142121
656.004	0.0143274
656.082	0.0142982
656.160	0.0143196
656.238	0.0141866
656.317	0.0142461
656.395	0.0142407
656.473	0.0141300
656.551	0.0140130
656.629	0.0140137
656.707	0.0141875
656.785	0.0140147
656.863	0.0141344
656.942	0.0141640
657.020	0.0140328
657.098	0.0140603
657.176	0.0140508
657.254	0.0140619
657.332	0.0140723
657.410	0.0141856
657.488	0.0141265
657.567	0.0141287
657.645	0.0141074
657.723	0.0142177
657.801	0.0141539
657.879	0.0141056
657.957	0.0143074
658.035	0.0142960
658.113	0.0141957
658.192	0.0143150
658.270	0.0143465
658.348	0.0142741
658.426	0.0144057
658.504	0.0142937
658.582	0.0143637
658.660	0.0142887
658.738	0.0143266
658.817	0.0143391
658.895	0.0144256
658.973	0.0144014
659.051	0.0143677
659.129	0.0143441
659.207	0.0142645
659.285	0.0145029
659.363	0.0144866
659.442	0.0144233
659.520	0.0143832
659.598	0.0145351
659.676	0.0144162
659.754	0.0145592
659.832	0.0144578
659.910	0.0143682
659.988	0.0145369
660.067	0.0143967
660.145	0.0144511
660.223	0.0144343
660.301	0.0143539
660.379	0.0142297
660.457	0.0142635
660.535	0.0141307
660.613	0.0141561
660.692	0.0140292
660.770	0.0139511
660.848	0.0138903
660.926	0.0138131
661.004	0.0139521
661.082	0.0139857
661.160	0.0138850
661.238	0.0138631
661.317	0.0137301
661.395	0.0138332
661.473	0.0137611
661.551	0.0138844
661.629	0.0138036
661.707	0.0138715
661.785	0.0138072
661.863	0.0136903
661.942	0.0138255
662.020	0.0138033
662.098	0.0138201
662.176	0.0138783
662.254	0.0139745
662.332	0.0139084
662.410	0.0140076
662.488	0.0139560
662.567	0.0140382
662.645	0.0140005
662.723	0.0139882
662.801	0.0140849
662.879	0.0139551
662.957	0.0140343
663.035	0.0141087
663.113	0.0140356
663.192	0.0140582
663.270	0.0139612
663.348	0.0141251
663.426	0.0141225
663.504	0.0141333
663.582	0.0140468
663.660	0.0140434
663.738	0.0139703
663.817	0.0141348
663.895	0.0142168
663.973	0.0142293
664.051	0.0142863
664.129	0.0144076
664.207	0.0143212
664.285	0.0145638
664.363	0.0144630
664.442	0.0144016
664.520	0.0143974
664.598	0.0145415
664.676	0.0145512
664.754	0.0145319
664.832	0.0142904
664.910	0.0144144
664.988	0.0142960
665.067	0.0143614
665.145	0.0143539
665.223	0.0142506
665.301	0.0142290
665.379	0.0141518
665.457	0.0140764
665.535	0.0139795
665.613	0.0140556
665.692	0.0139190
665.770	0.0139630
665.848	0.0141336
665.926	0.0139973
666.004	0.0139697
666.082	0.0138700
666.160	0.0139703
666.238	0.0140133
666.317	0.0141444
666.395	0.0140468
666.473	0.0141338
666.551	0.0141833
666.629	0.0141737
666.707	0.0140977
666.785	0.0141982
666.863	0.0140334
666.942	0.0141828
667.020	0.0141470
667.098	0.0141334
667.176	0.0142365
667.254	0.0143092
667.332	0.0142251
667.410	0.0141002
667.488	0.0142291
667.567	0.0141277
667.645	0.0141896
667.723	0.0140853
667.801	0.0140303
667.879	0.0140939
667.957	0.0140371
668.035	0.0141226
668.113	0.0140908
668.192	0.0141348
668.270	0.0140903
668.348	0.0141522
668.426	0.0141087
668.504	0.0141880
668.582	0.0142101
668.660	0.0142704
668.738	0.0143400
668.817	0.0144299
668.895	0.0142352
668.973	0.0144362
669.051	0.0143807
669.129	0.0146579
669.207	0.0146487
669.285	0.0146467
669.363	0.0146695
669.442	0.0145971
669.520	0.0145698
669.598	0.0146835
669.676	0.0147155
669.754	0.0146580
669.832	0.0147986
669.910	0.0146914
669.988	0.0147118
670.067	0.0145490
670.145	0.0145213
670.223	0.0147020
670.301	0.0145634
670.379	0.0143390
670.457	0.0145059
670.535	0.0144327
670.613	0.0142162
670.692	0.0143945
670.770	0.0142193
670.848	0.0141620
670.926	0.0139857
671.004	0.0139449
671.082	0.0139094
671.160	0.0136726
671.238	0.0137013
671.317	0.0135254
671.395	0.0136978
671.473	0.0137859
671.551	0.0136389
671.629	0.0134051
671.707	0.0134793
671.785	0.0135479
671.863	0.0134701
671.942	0.0136784
672.020	0.0135879
672.098	0.0136155
672.176	0.0136828
672.254	0.0138972
672.332	0.0138995
672.410	0.0138605
672.488	0.0140849
672.567	0.0141657
672.645	0.0142281
672.723	0.0142870
672.801	0.0143836
672.879	0.0144105
672.957	0.0145322
673.035	0.0145326
673.113	0.0145722
673.192	0.0146609
673.270	0.0147130
673.348	0.0145103
673.426	0.0145990
673.504	0.0145761
673.582	0.0146145
673.660	0.0146144
673.738	0.0144804
673.817	0.0144539
673.895	0.0144447
673.973	0.0144655
674.051	0.0141988
674.129	0.0141524
674.207	0.0143420
674.285	0.0141560
674.363	0.0141220
674.442	0.0139780
674.520	0.0139854
674.598	0.0140726
674.676	0.0138845
674.754	0.0139002
674.832	0.0139796
674.910	0.0138493
674.988	0.0140066
675.067	0.0139796
675.145	0.0140830
675.223	0.0140653
675.301	0.0142112
675.379	0.0141669
675.457	0.0141626
675.535	0.0140607
675.613	0.0141910
675.692	0.0142688
675.770	0.0141083
675.848	0.0140974
675.926	0.0140591
676.004	0.0140034
676.082	0.0140559
676.160	0.0142117
676.238	0.0139701
676.317	0.0139767
676.395	0.0139893
676.473	0.0140321
676.551	0.0138124
676.629	0.0138561
676.707	0.0139212
676.785	0.0137968
676.863	0.0137904
676.942	0.0137273
677.020	0.0139187
677.098	0.0137329
677.176	0.0137830
677.254	0.0139490
677.332	0.0139069
677.410	0.0139005
677.488	0.0140072
677.567	0.0141360
677.645	0.0141096
677.723	0.0140962
677.801	0.0142479
677.879	0.0143278
677.957	0.0143991
678.035	0.0144373
678.113	0.0145107
678.192	0.0145551
678.270	0.0145296
678.348	0.0145328
678.426	0.0145643
678.504	0.0146333
678.582	0.0145739
678.660	0.0145502
678.738	0.0144505
678.817	0.0144751
678.895	0.0143596
678.973	0.0142455
679.051	0.0143287
679.129	0.0141605
679.207	0.0142795
679.285	0.0142701
679.363	0.0142879
679.442	0.0140372
679.520	0.0140768
679.598	0.0141441
679.676	0.0139941
679.754	0.0139754
679.832	0.0141388
679.910	0.0141212
679.988	0.0140662
680.067	0.0140371
680.145	0.0140839
680.223	0.0140512
680.301	0.0140878
680.379	0.0141988
680.457	0.0141904
680.535	0.0140786
680.613	0.0140550
680.692	0.0139858
680.770	0.0141296
680.848	0.0140635
680.926	0.0138871
681.004	0.0139185
681.082	0.0138808
681.160	0.0138778
681.238	0.0138811
681.317	0.0138963
681.395	0.0138538
681.473	0.0138735
681.551	0.0138084
681.629	0.0138837
681.707	0.0137730
681.785	0.0138753
681.863	0.0138689
681.942	0.0137862
682.020	0.0138577
682.098	0.0138767
682.176	0.0137244
682.254	0.0138808
682.332	0.0139803
682.410	0.0139546
682.488	0.0139732
682.567	0.0140493
682.645	0.0141147
682.723	0.0141926
682.801	0.0140816
682.879	0.0141653
682.957	0.0143182
683.035	0.0143118
683.113	0.0144337
683.192	0.0145016
683.270	0.0144000
683.348	0.0146867
683.426	0.0146626
683.504	0.0146941
683.582	0.0147479
683.660	0.0147475
683.738	0.0147166
683.817	0.0146593
683.895	0.0148003
683.973	0.0147397
684.051	0.0147477
684.129	0.0146889
684.207	0.0145979
684.285	0.0144791
684.363	0.0145857
684.442	0.0144460
684.520	0.0144597
684.598	0.0142666
684.676	0.0142591
684.754	0.0140540
684.832	0.0139998
684.910	0.0140877
684.988	0.0139394
685.067	0.0138197
685.145	0.0138028
685.223	0.0137254
685.301	0.0136279
685.379	0.0137027
685.457	0.0135147
685.535	0.0136066
685.613	0.0137207
685.692	0.0136308
