05/28/2022	14:34:07	Ver.	4.1	UNKNOWN
Optical Delay	599.988409	Delta X		0.078125	Sweeps	1	Scan Rate	0/0
Coordinates	Axis 1	NaN	Axis 2	NaN	Axis 3	NaN	Axis 4	NaN	Axis 5	NaN	Axis 6	0.000000
TX Power	0.000000	RX Power	0.000000

599.988	0.0142966
600.067	0.0141700
600.145	0.0144300
600.223	0.0143564
600.301	0.0141871
600.379	0.0144802
600.457	0.0142323
600.535	0.0141142
600.613	0.0142660
600.692	0.0143437
600.770	0.0142348
600.848	0.0142641
600.926	0.0143726
601.004	0.0144250
601.082	0.0142841
601.160	0.0142250
601.238	0.0142920
601.317	0.0143023
601.395	0.0142081
601.473	0.0143092
601.551	0.0142442
601.629	0.0143156
601.707	0.0143813
601.785	0.0143806
601.863	0.0143780
601.942	0.0143331
602.020	0.0142932
602.098	0.0143580
602.176	0.0142831
602.254	0.0143892
602.332	0.0143626
602.410	0.0142851
602.488	0.0143977
602.567	0.0144758
602.645	0.0143833
602.723	0.0142769
602.801	0.0142910
602.879	0.0143316
602.957	0.0144382
603.035	0.0144592
603.113	0.0143390
603.192	0.0144323
603.270	0.0144604
603.348	0.0143216
603.426	0.0142413
603.504	0.0143156
603.582	0.0143507
603.660	0.0143978
603.738	0.0143453
603.817	0.0143907
603.895	0.0144136
603.973	0.0143063
604.051	0.0143384
604.129	0.0144161
604.207	0.0143352
604.285	0.0143719
604.363	0.0143582
604.442	0.0143353
604.520	0.0144884
604.598	0.0145914
604.676	0.0145225
604.754	0.0144897
604.832	0.0143195
604.910	0.0143608
604.988	0.0145516
605.067	0.0144650
605.145	0.0144844
605.223	0.0145020
605.301	0.0145696
605.379	0.0145255
605.457	0.0143760
605.535	0.0145811
605.613	0.0145062
605.692	0.0144598
605.770	0.0143456
605.848	0.0144759
605.926	0.0144508
606.004	0.0144585
606.082	0.0145472
606.160	0.0145598
606.238	0.0145493
606.317	0.0145217
606.395	0.0144003
606.473	0.0144588
606.551	0.0144481
606.629	0.0143430
606.707	0.0143455
606.785	0.0145190
606.863	0.0144060
606.942	0.0143374
607.020	0.0142661
607.098	0.0143485
607.176	0.0143285
607.254	0.0143851
607.332	0.0142911
607.410	0.0143948
607.488	0.0142329
607.567	0.0143269
607.645	0.0144691
607.723	0.0143940
607.801	0.0142886
607.879	0.0142180
607.957	0.0142170
608.035	0.0144055
608.113	0.0142072
608.192	0.0141559
608.270	0.0141852
608.348	0.0142902
608.426	0.0142694
608.504	0.0141356
608.582	0.0142561
608.660	0.0141291
608.738	0.0141853
608.817	0.0141069
608.895	0.0141696
608.973	0.0140860
609.051	0.0142145
609.129	0.0141475
609.207	0.0141591
609.285	0.0141490
609.363	0.0141814
609.442	0.0141380
609.520	0.0141727
609.598	0.0141326
609.676	0.0140632
609.754	0.0140561
609.832	0.0142171
609.910	0.0142235
609.988	0.0141276
610.067	0.0140799
610.145	0.0141577
610.223	0.0141014
610.301	0.0141834
610.379	0.0141679
610.457	0.0141359
610.535	0.0142023
610.613	0.0141414
610.692	0.0141005
610.770	0.0140833
610.848	0.0140900
610.926	0.0143313
611.004	0.0142428
611.082	0.0142458
611.160	0.0141622
611.238	0.0141169
611.317	0.0140807
611.395	0.0141403
611.473	0.0141960
611.551	0.0141312
611.629	0.0143543
611.707	0.0141960
611.785	0.0140769
611.863	0.0142924
611.942	0.0142926
612.020	0.0142877
612.098	0.0142706
612.176	0.0142622
612.254	0.0142998
612.332	0.0143981
612.410	0.0143406
612.488	0.0144003
612.567	0.0143578
612.645	0.0142962
612.723	0.0142506
612.801	0.0143251
612.879	0.0144237
612.957	0.0143198
613.035	0.0143959
613.113	0.0144805
613.192	0.0144687
613.270	0.0144531
613.348	0.0144854
613.426	0.0144283
613.504	0.0143744
613.582	0.0144904
613.660	0.0145663
613.738	0.0144540
613.817	0.0144442
613.895	0.0144897
613.973	0.0143854
614.051	0.0144363
614.129	0.0144061
614.207	0.0146195
614.285	0.0144827
614.363	0.0144508
614.442	0.0145159
614.520	0.0144221
614.598	0.0144952
614.676	0.0143914
614.754	0.0143786
614.832	0.0144877
614.910	0.0143783
614.988	0.0144107
615.067	0.0144193
615.145	0.0145084
615.223	0.0144489
615.301	0.0145142
615.379	0.0145496
615.457	0.0144406
615.535	0.0142971
615.613	0.0144772
615.692	0.0144820
615.770	0.0144655
615.848	0.0144062
615.926	0.0143559
616.004	0.0143599
616.082	0.0144149
616.160	0.0143202
616.238	0.0143575
616.317	0.0143881
616.395	0.0143246
616.473	0.0143420
616.551	0.0143243
616.629	0.0142603
616.707	0.0142767
616.785	0.0144604
616.863	0.0144451
616.942	0.0144614
617.020	0.0143591
617.098	0.0144655
617.176	0.0143231
617.254	0.0142731
617.332	0.0142941
617.410	0.0143732
617.488	0.0143517
617.567	0.0143256
617.645	0.0142525
617.723	0.0142339
617.801	0.0142673
617.879	0.0142508
617.957	0.0142291
618.035	0.0142227
618.113	0.0141342
618.192	0.0141154
618.270	0.0142055
618.348	0.0142470
618.426	0.0143072
618.504	0.0143407
618.582	0.0141836
618.660	0.0140896
618.738	0.0141920
618.817	0.0144044
618.895	0.0142534
618.973	0.0140528
619.051	0.0143175
619.129	0.0142696
619.207	0.0142071
619.285	0.0141954
619.363	0.0143157
619.442	0.0143466
619.520	0.0141835
619.598	0.0140811
619.676	0.0143020
619.754	0.0142268
619.832	0.0141801
619.910	0.0143289
619.988	0.0144299
620.067	0.0143114
620.145	0.0141072
620.223	0.0143536
620.301	0.0143685
620.379	0.0142785
620.457	0.0142779
620.535	0.0142979
620.613	0.0143151
620.692	0.0142545
620.770	0.0143677
620.848	0.0143230
620.926	0.0143048
621.004	0.0142239
621.082	0.0143389
621.160	0.0143634
621.238	0.0143923
621.317	0.0143855
621.395	0.0143434
621.473	0.0143051
621.551	0.0142442
621.629	0.0143157
621.707	0.0142607
621.785	0.0143212
621.863	0.0143349
621.942	0.0142818
622.020	0.0141708
622.098	0.0141212
622.176	0.0143506
622.254	0.0144305
622.332	0.0143301
622.410	0.0143181
622.488	0.0144469
622.567	0.0142005
622.645	0.0142229
622.723	0.0144253
622.801	0.0142681
622.879	0.0141932
622.957	0.0143761
623.035	0.0143687
623.113	0.0145021
623.192	0.0145834
623.270	0.0144814
623.348	0.0146635
623.426	0.0144649
623.504	0.0144250
623.582	0.0146677
623.660	0.0145956
623.738	0.0145602
623.817	0.0146156
623.895	0.0146262
623.973	0.0145280
624.051	0.0145420
624.129	0.0146531
624.207	0.0143442
624.285	0.0144529
624.363	0.0145422
624.442	0.0144711
624.520	0.0144753
624.598	0.0141836
624.676	0.0142996
624.754	0.0143795
624.832	0.0142653
624.910	0.0143349
624.988	0.0142126
625.067	0.0143945
625.145	0.0145003
625.223	0.0143904
625.301	0.0145644
625.379	0.0144455
625.457	0.0144895
625.535	0.0146374
625.613	0.0146935
625.692	0.0145444
625.770	0.0147258
625.848	0.0147337
625.926	0.0147234
626.004	0.0147528
626.082	0.0146507
626.160	0.0146352
626.238	0.0145523
626.317	0.0145609
626.395	0.0146337
626.473	0.0146635
626.551	0.0144621
626.629	0.0144337
626.707	0.0145405
626.785	0.0144623
626.863	0.0143319
626.942	0.0144170
627.020	0.0143346
627.098	0.0142812
627.176	0.0143291
627.254	0.0143392
627.332	0.0140871
627.410	0.0143001
627.488	0.0142434
627.567	0.0140119
627.645	0.0141365
627.723	0.0142415
627.801	0.0141903
627.879	0.0143808
627.957	0.0142757
628.035	0.0143912
628.113	0.0144714
628.192	0.0143809
628.270	0.0144623
628.348	0.0145998
628.426	0.0147073
628.504	0.0147223
628.582	0.0146773
628.660	0.0145311
628.738	0.0147719
628.817	0.0146942
628.895	0.0146343
628.973	0.0146629
629.051	0.0146117
629.129	0.0147605
629.207	0.0147658
629.285	0.0145714
629.363	0.0145487
629.442	0.0146301
629.520	0.0144125
629.598	0.0143598
629.676	0.0142851
629.754	0.0143220
629.832	0.0141845
629.910	0.0142518
629.988	0.0142697
630.067	0.0142905
630.145	0.0140881
630.223	0.0142723
630.301	0.0141566
630.379	0.0141362
630.457	0.0141575
630.535	0.0142363
630.613	0.0142319
630.692	0.0142200
630.770	0.0141286
630.848	0.0141776
630.926	0.0142341
631.004	0.0142098
631.082	0.0141656
631.160	0.0142198
631.238	0.0141080
631.317	0.0141661
631.395	0.0141533
631.473	0.0141682
631.551	0.0141890
631.629	0.0142191
631.707	0.0140497
631.785	0.0140680
631.863	0.0141270
631.942	0.0141848
632.020	0.0140181
632.098	0.0139954
632.176	0.0140314
632.254	0.0141580
632.332	0.0141326
632.410	0.0141536
632.488	0.0140511
632.567	0.0140547
632.645	0.0140328
632.723	0.0141198
632.801	0.0141759
632.879	0.0140755
632.957	0.0142136
633.035	0.0142626
633.113	0.0141938
633.192	0.0141765
633.270	0.0141980
633.348	0.0144083
633.426	0.0143325
633.504	0.0143002
633.582	0.0143181
633.660	0.0144149
633.738	0.0144176
633.817	0.0146020
633.895	0.0144514
633.973	0.0145673
634.051	0.0144693
634.129	0.0145303
634.207	0.0144997
634.285	0.0145636
634.363	0.0145433
634.442	0.0144887
634.520	0.0144672
634.598	0.0144470
634.676	0.0143785
634.754	0.0143308
634.832	0.0142325
634.910	0.0142314
634.988	0.0143085
635.067	0.0143546
635.145	0.0143322
635.223	0.0142740
635.301	0.0142642
635.379	0.0141394
635.457	0.0143439
635.535	0.0143714
635.613	0.0141364
635.692	0.0142334
635.770	0.0142827
635.848	0.0143535
635.926	0.0143382
636.004	0.0142664
636.082	0.0142973
636.160	0.0143132
636.238	0.0143300
636.317	0.0143488
636.395	0.0143983
636.473	0.0142920
636.551	0.0144746
636.629	0.0144991
636.707	0.0143481
636.785	0.0144434
636.863	0.0144023
636.942	0.0143929
637.020	0.0144196
637.098	0.0143834
637.176	0.0144184
637.254	0.0144659
637.332	0.0143962
637.410	0.0144175
637.488	0.0145454
637.567	0.0145064
637.645	0.0145052
637.723	0.0144296
637.801	0.0144480
637.879	0.0145789
637.957	0.0145663
638.035	0.0145845
638.113	0.0145947
638.192	0.0145300
638.270	0.0144404
638.348	0.0144896
638.426	0.0146169
638.504	0.0145654
638.582	0.0144272
638.660	0.0145459
638.738	0.0144109
638.817	0.0143221
638.895	0.0144177
638.973	0.0143137
639.051	0.0143417
639.129	0.0144015
639.207	0.0144327
639.285	0.0144039
639.363	0.0143694
639.442	0.0144521
639.520	0.0143473
639.598	0.0144559
639.676	0.0143864
639.754	0.0143865
639.832	0.0142789
639.910	0.0143652
639.988	0.0142320
640.067	0.0143294
640.145	0.0143207
640.223	0.0142241
640.301	0.0141512
640.379	0.0141953
640.457	0.0142023
640.535	0.0141240
640.613	0.0140849
640.692	0.0141309
640.770	0.0141380
640.848	0.0140488
640.926	0.0139742
641.004	0.0141245
641.082	0.0140072
641.160	0.0140206
641.238	0.0141826
641.317	0.0141438
641.395	0.0141479
641.473	0.0141756
641.551	0.0141108
641.629	0.0141619
641.707	0.0141532
641.785	0.0141885
641.863	0.0141766
641.942	0.0141315
642.020	0.0142533
642.098	0.0143863
642.176	0.0142453
642.254	0.0142575
642.332	0.0142814
642.410	0.0143513
642.488	0.0142452
642.567	0.0143879
642.645	0.0140609
642.723	0.0141738
642.801	0.0143132
642.879	0.0142866
642.957	0.0142126
643.035	0.0141192
643.113	0.0143259
643.192	0.0143417
643.270	0.0143933
643.348	0.0143035
643.426	0.0144456
643.504	0.0143721
643.582	0.0144250
643.660	0.0143770
643.738	0.0143162
643.817	0.0143779
643.895	0.0144677
643.973	0.0143888
644.051	0.0144025
644.129	0.0143115
644.207	0.0143857
644.285	0.0143298
644.363	0.0143631
644.442	0.0143337
644.520	0.0143851
644.598	0.0144617
644.676	0.0145003
644.754	0.0144423
644.832	0.0145760
644.910	0.0144525
644.988	0.0145182
645.067	0.0144125
645.145	0.0144633
645.223	0.0144533
645.301	0.0144619
645.379	0.0145294
645.457	0.0143381
645.535	0.0142283
645.613	0.0143930
645.692	0.0143900
645.770	0.0143692
645.848	0.0143562
645.926	0.0142033
646.004	0.0142578
646.082	0.0142850
646.160	0.0143983
646.238	0.0144009
646.317	0.0145074
646.395	0.0144609
646.473	0.0144732
646.551	0.0144223
646.629	0.0143875
646.707	0.0144643
646.785	0.0144401
646.863	0.0145246
646.942	0.0145521
647.020	0.0144829
647.098	0.0146500
647.176	0.0145856
647.254	0.0146385
647.332	0.0146159
647.410	0.0144318
647.488	0.0144557
647.567	0.0145456
647.645	0.0146232
647.723	0.0145016
647.801	0.0144978
647.879	0.0143034
647.957	0.0144202
648.035	0.0145134
648.113	0.0144092
648.192	0.0143870
648.270	0.0144267
648.348	0.0144048
648.426	0.0143660
648.504	0.0143957
648.582	0.0142799
648.660	0.0142402
648.738	0.0143687
648.817	0.0144365
648.895	0.0143549
648.973	0.0143228
649.051	0.0143627
649.129	0.0144069
649.207	0.0144285
649.285	0.0144910
649.363	0.0144273
649.442	0.0143652
649.520	0.0143883
649.598	0.0143590
649.676	0.0144753
649.754	0.0143586
649.832	0.0143131
649.910	0.0141775
649.988	0.0141823
650.067	0.0141882
650.145	0.0141630
650.223	0.0142497
650.301	0.0141480
650.379	0.0140604
650.457	0.0138863
650.535	0.0140189
650.613	0.0139043
650.692	0.0139863
650.770	0.0139896
650.848	0.0140500
650.926	0.0140219
651.004	0.0142205
651.082	0.0142337
651.160	0.0142553
651.238	0.0143642
651.317	0.0142229
651.395	0.0143700
651.473	0.0144247
651.551	0.0144276
651.629	0.0143912
651.707	0.0145730
651.785	0.0145554
651.863	0.0145810
651.942	0.0146619
652.020	0.0146977
652.098	0.0146697
652.176	0.0145710
652.254	0.0146114
652.332	0.0147087
652.410	0.0146884
652.488	0.0146902
652.567	0.0147173
652.645	0.0147019
652.723	0.0146937
652.801	0.0146393
652.879	0.0147124
652.957	0.0146679
653.035	0.0145731
653.113	0.0146304
653.192	0.0146236
653.270	0.0144280
653.348	0.0144516
653.426	0.0144960
653.504	0.0143941
653.582	0.0143118
653.660	0.0143707
653.738	0.0141986
653.817	0.0142181
653.895	0.0142728
653.973	0.0142574
654.051	0.0141540
654.129	0.0142094
654.207	0.0141268
654.285	0.0141239
654.363	0.0141254
654.442	0.0141756
654.520	0.0141844
654.598	0.0142752
654.676	0.0141879
654.754	0.0142053
654.832	0.0142149
654.910	0.0143864
654.988	0.0141747
655.067	0.0144523
655.145	0.0143129
655.223	0.0143481
655.301	0.0143621
655.379	0.0144741
655.457	0.0145023
655.535	0.0142046
655.613	0.0144407
655.692	0.0144590
655.770	0.0144076
655.848	0.0143866
655.926	0.0144714
656.004	0.0145500
656.082	0.0143171
656.160	0.0144283
656.238	0.0143104
656.317	0.0143453
656.395	0.0142633
656.473	0.0142597
656.551	0.0143179
656.629	0.0143647
656.707	0.0143880
656.785	0.0141752
656.863	0.0142614
656.942	0.0143208
657.020	0.0143328
657.098	0.0143969
657.176	0.0143544
657.254	0.0142828
657.332	0.0143795
657.410	0.0143536
657.488	0.0143956
657.567	0.0144780
657.645	0.0143697
657.723	0.0141608
657.801	0.0143422
657.879	0.0142466
657.957	0.0143916
658.035	0.0143221
658.113	0.0142944
658.192	0.0141841
658.270	0.0142375
658.348	0.0144395
658.426	0.0143265
658.504	0.0142985
658.582	0.0143599
658.660	0.0143954
658.738	0.0144974
658.817	0.0142914
658.895	0.0143343
658.973	0.0143499
659.051	0.0142759
659.129	0.0143407
659.207	0.0143709
659.285	0.0145049
659.363	0.0142891
659.442	0.0143439
659.520	0.0144096
659.598	0.0144006
659.676	0.0142701
659.754	0.0142793
659.832	0.0143439
659.910	0.0143066
659.988	0.0144170
660.067	0.0144116
660.145	0.0143489
660.223	0.0144608
660.301	0.0143156
660.379	0.0142054
660.457	0.0141588
660.535	0.0141201
660.613	0.0140764
660.692	0.0139660
660.770	0.0140478
660.848	0.0141236
660.926	0.0140343
661.004	0.0139997
661.082	0.0142054
661.160	0.0141673
661.238	0.0141451
661.317	0.0141997
661.395	0.0143029
661.473	0.0141205
661.551	0.0142144
661.629	0.0141839
661.707	0.0144015
661.785	0.0142939
661.863	0.0142693
661.942	0.0141703
662.020	0.0142435
662.098	0.0143813
662.176	0.0142452
662.254	0.0143258
662.332	0.0145146
662.410	0.0144225
662.488	0.0145156
662.567	0.0144868
662.645	0.0145767
662.723	0.0145115
662.801	0.0145685
662.879	0.0146182
662.957	0.0145521
663.035	0.0146534
663.113	0.0143620
663.192	0.0144044
663.270	0.0146739
663.348	0.0146392
663.426	0.0146015
663.504	0.0144683
663.582	0.0146513
663.660	0.0148073
663.738	0.0145979
663.817	0.0145394
663.895	0.0146394
663.973	0.0147015
664.051	0.0148398
664.129	0.0146837
664.207	0.0147179
664.285	0.0144833
664.363	0.0146393
664.442	0.0145473
664.520	0.0146364
664.598	0.0144117
664.676	0.0145021
664.754	0.0144527
664.832	0.0144456
664.910	0.0142730
664.988	0.0144266
665.067	0.0144395
665.145	0.0143334
665.223	0.0143004
665.301	0.0142575
665.379	0.0143044
665.457	0.0142657
665.535	0.0142114
665.613	0.0143065
665.692	0.0142880
665.770	0.0142072
665.848	0.0142973
665.926	0.0143907
666.004	0.0143652
666.082	0.0143891
666.160	0.0143418
666.238	0.0143520
666.317	0.0144376
666.395	0.0144115
666.473	0.0143677
666.551	0.0144096
666.629	0.0142739
666.707	0.0141767
666.785	0.0142895
666.863	0.0142834
666.942	0.0142241
667.020	0.0142316
667.098	0.0142484
667.176	0.0142625
667.254	0.0142558
667.332	0.0141797
667.410	0.0141199
667.488	0.0142326
667.567	0.0142960
667.645	0.0143280
667.723	0.0142406
667.801	0.0142318
667.879	0.0144874
667.957	0.0143073
668.035	0.0141685
668.113	0.0142808
668.192	0.0142240
668.270	0.0143933
668.348	0.0144138
668.426	0.0143248
668.504	0.0143235
668.582	0.0142520
668.660	0.0144336
668.738	0.0143273
668.817	0.0143408
668.895	0.0144533
668.973	0.0144252
669.051	0.0145467
669.129	0.0144978
669.207	0.0145599
669.285	0.0145325
669.363	0.0145097
669.442	0.0147378
669.520	0.0146638
669.598	0.0147112
669.676	0.0147505
669.754	0.0146991
669.832	0.0147546
669.910	0.0148443
669.988	0.0146902
670.067	0.0145284
670.145	0.0145945
670.223	0.0146739
670.301	0.0145605
670.379	0.0144261
670.457	0.0144408
670.535	0.0145274
670.613	0.0144343
670.692	0.0143882
670.770	0.0142891
670.848	0.0141541
670.926	0.0141354
671.004	0.0138179
671.082	0.0138139
671.160	0.0137251
671.238	0.0138352
671.317	0.0136414
671.395	0.0135210
671.473	0.0134557
671.551	0.0134830
671.629	0.0134064
671.707	0.0134642
671.785	0.0135091
671.863	0.0134854
671.942	0.0135811
672.020	0.0136016
672.098	0.0137457
672.176	0.0138821
672.254	0.0139978
672.332	0.0140868
672.410	0.0142654
672.488	0.0143704
672.567	0.0144039
672.645	0.0144289
672.723	0.0146021
672.801	0.0146780
672.879	0.0147646
672.957	0.0147597
673.035	0.0147810
673.113	0.0149585
673.192	0.0149766
673.270	0.0149157
673.348	0.0149171
673.426	0.0148840
673.504	0.0149486
673.582	0.0149133
673.660	0.0148913
673.738	0.0147827
673.817	0.0148109
673.895	0.0145783
673.973	0.0145130
674.051	0.0143832
674.129	0.0142840
674.207	0.0141313
674.285	0.0140678
674.363	0.0141734
674.442	0.0139526
674.520	0.0138480
674.598	0.0140487
674.676	0.0137994
674.754	0.0138671
674.832	0.0139125
674.910	0.0139102
674.988	0.0138464
675.067	0.0139162
675.145	0.0139283
675.223	0.0141779
675.301	0.0142242
675.379	0.0142087
675.457	0.0140610
675.535	0.0143633
675.613	0.0144453
675.692	0.0142870
675.770	0.0142883
675.848	0.0144436
675.926	0.0144344
676.004	0.0143848
676.082	0.0142719
676.160	0.0143127
676.238	0.0143233
676.317	0.0141209
676.395	0.0141138
676.473	0.0141991
676.551	0.0141626
676.629	0.0141780
676.707	0.0141728
676.785	0.0140376
676.863	0.0139806
676.942	0.0140472
677.020	0.0140786
677.098	0.0140694
677.176	0.0140748
677.254	0.0141079
677.332	0.0141491
677.410	0.0141130
677.488	0.0141657
677.567	0.0143408
677.645	0.0142984
677.723	0.0143382
677.801	0.0143712
677.879	0.0144618
677.957	0.0145502
678.035	0.0145890
678.113	0.0146611
678.192	0.0147134
678.270	0.0147317
678.348	0.0146342
678.426	0.0146053
678.504	0.0146471
678.582	0.0146535
678.660	0.0145228
678.738	0.0146842
678.817	0.0145733
678.895	0.0143399
678.973	0.0144420
679.051	0.0144622
679.129	0.0143987
679.207	0.0143897
679.285	0.0143328
679.363	0.0142359
679.442	0.0142669
679.520	0.0141998
679.598	0.0143266
679.676	0.0141810
679.754	0.0141863
679.832	0.0144282
679.910	0.0142184
679.988	0.0142216
680.067	0.0142057
680.145	0.0142570
680.223	0.0142542
680.301	0.0143249
680.379	0.0143023
680.457	0.0141893
680.535	0.0142596
680.613	0.0142782
680.692	0.0142552
680.770	0.0142774
680.848	0.0142123
680.926	0.0141956
681.004	0.0142155
681.082	0.0140054
681.160	0.0142112
681.238	0.0141867
681.317	0.0141718
681.395	0.0142139
681.473	0.0141365
681.551	0.0143024
681.629	0.0141161
681.707	0.0143207
681.785	0.0140873
681.863	0.0141153
681.942	0.0141900
682.020	0.0141085
682.098	0.0141394
682.176	0.0141526
682.254	0.0142313
682.332	0.0141645
682.410	0.0141471
682.488	0.0139452
682.567	0.0141089
682.645	0.0141870
682.723	0.0142899
682.801	0.0142467
682.879	0.0143531
682.957	0.0143915
683.035	0.0144698
683.113	0.0145461
683.192	0.0146361
683.270	0.0145325
683.348	0.0146502
683.426	0.0146011
683.504	0.0146374
683.582	0.0146830
683.660	0.0148296
683.738	0.0147678
683.817	0.0147385
683.895	0.0147195
683.973	0.0147738
684.051	0.0148138
684.129	0.0147993
684.207	0.0146368
684.285	0.0147917
684.363	0.0146263
684.442	0.0146575
684.520	0.0144727
684.598	0.0145348
684.676	0.0143636
684.754	0.0142261
684.832	0.0140997
684.910	0.0141542
684.988	0.0140195
685.067	0.0141113
685.145	0.0140601
685.223	0.0140028
685.301	0.0139351
685.379	0.0139493
685.457	0.0139211
685.535	0.0139148
685.613	0.0139780
685.692	0.0137202
