05/28/2022	14:34:27	Ver.	4.1	UNKNOWN
Optical Delay	599.988409	Delta X		0.078125	Sweeps	1	Scan Rate	0/0
Coordinates	Axis 1	NaN	Axis 2	NaN	Axis 3	NaN	Axis 4	NaN	Axis 5	NaN	Axis 6	0.000000
TX Power	0.000000	RX Power	0.000000

599.988	0.0145514
600.067	0.0146197
600.145	0.0146047
600.223	0.0145831
600.301	0.0145950
600.379	0.0147648
600.457	0.0146861
600.535	0.0146320
600.613	0.0144895
600.692	0.0145657
600.770	0.0145824
600.848	0.0145032
600.926	0.0146284
601.004	0.0144982
601.082	0.0145033
601.160	0.0145953
601.238	0.0144879
601.317	0.0145625
601.395	0.0145166
601.473	0.0145465
601.551	0.0146685
601.629	0.0147006
601.707	0.0145159
601.785	0.0145639
601.863	0.0145570
601.942	0.0145244
602.020	0.0146037
602.098	0.0146310
602.176	0.0144115
602.254	0.0145557
602.332	0.0145934
602.410	0.0145744
602.488	0.0144130
602.567	0.0145293
602.645	0.0144322
602.723	0.0144498
602.801	0.0144930
602.879	0.0145809
602.957	0.0144616
603.035	0.0144839
603.113	0.0145567
603.192	0.0144736
603.270	0.0145499
603.348	0.0143327
603.426	0.0143397
603.504	0.0143595
603.582	0.0144280
603.660	0.0142886
603.738	0.0143337
603.817	0.0143227
603.895	0.0142754
603.973	0.0143356
604.051	0.0143188
604.129	0.0142950
604.207	0.0142299
604.285	0.0142845
604.363	0.0143069
604.442	0.0142654
604.520	0.0144414
604.598	0.0141465
604.676	0.0140672
604.754	0.0143041
604.832	0.0143774
604.910	0.0142110
604.988	0.0141292
605.067	0.0143213
605.145	0.0143164
605.223	0.0143039
605.301	0.0142543
605.379	0.0143037
605.457	0.0144509
605.535	0.0143047
605.613	0.0144352
605.692	0.0143533
605.770	0.0142847
605.848	0.0144218
605.926	0.0145895
606.004	0.0144427
606.082	0.0143269
606.160	0.0142484
606.238	0.0143341
606.317	0.0144447
606.395	0.0143526
606.473	0.0143715
606.551	0.0145050
606.629	0.0144724
606.707	0.0144308
606.785	0.0145167
606.863	0.0144712
606.942	0.0143732
607.020	0.0145717
607.098	0.0144994
607.176	0.0143501
607.254	0.0144666
607.332	0.0143426
607.410	0.0144685
607.488	0.0146429
607.567	0.0145081
607.645	0.0143913
607.723	0.0146012
607.801	0.0145892
607.879	0.0144973
607.957	0.0145075
608.035	0.0145020
608.113	0.0144482
608.192	0.0142977
608.270	0.0145332
608.348	0.0144849
608.426	0.0144955
608.504	0.0145396
608.582	0.0145061
608.660	0.0145550
608.738	0.0145168
608.817	0.0144118
608.895	0.0145523
608.973	0.0146185
609.051	0.0146125
609.129	0.0146087
609.207	0.0146176
609.285	0.0146613
609.363	0.0146693
609.442	0.0146535
609.520	0.0145947
609.598	0.0146985
609.676	0.0146722
609.754	0.0146058
609.832	0.0145961
609.910	0.0145674
609.988	0.0145960
610.067	0.0144588
610.145	0.0145518
610.223	0.0144411
610.301	0.0145259
610.379	0.0145138
610.457	0.0145083
610.535	0.0145534
610.613	0.0144728
610.692	0.0144105
610.770	0.0144847
610.848	0.0144231
610.926	0.0145029
611.004	0.0145228
611.082	0.0144282
611.160	0.0144124
611.238	0.0143838
611.317	0.0144990
611.395	0.0144797
611.473	0.0145949
611.551	0.0145935
611.629	0.0144527
611.707	0.0144587
611.785	0.0145123
611.863	0.0145523
611.942	0.0147088
612.020	0.0144956
612.098	0.0143678
612.176	0.0145114
612.254	0.0144331
612.332	0.0143898
612.410	0.0146343
612.488	0.0144744
612.567	0.0144473
612.645	0.0144096
612.723	0.0145766
612.801	0.0145565
612.879	0.0144420
612.957	0.0145969
613.035	0.0145129
613.113	0.0143997
613.192	0.0145024
613.270	0.0145035
613.348	0.0143562
613.426	0.0145557
613.504	0.0144658
613.582	0.0144107
613.660	0.0145190
613.738	0.0145049
613.817	0.0144220
613.895	0.0144827
613.973	0.0143816
614.051	0.0145151
614.129	0.0144955
614.207	0.0145007
614.285	0.0145519
614.363	0.0144700
614.442	0.0145071
614.520	0.0144935
614.598	0.0145813
614.676	0.0144918
614.754	0.0145367
614.832	0.0144455
614.910	0.0145418
614.988	0.0145582
615.067	0.0143742
615.145	0.0145158
615.223	0.0144611
615.301	0.0145004
615.379	0.0144520
615.457	0.0146065
615.535	0.0144243
615.613	0.0144336
615.692	0.0144742
615.770	0.0144173
615.848	0.0145638
615.926	0.0144997
616.004	0.0145680
616.082	0.0145610
616.160	0.0144925
616.238	0.0145036
616.317	0.0145486
616.395	0.0144823
616.473	0.0143637
616.551	0.0145067
616.629	0.0144271
616.707	0.0143949
616.785	0.0146959
616.863	0.0145364
616.942	0.0144234
617.020	0.0144761
617.098	0.0145502
617.176	0.0146209
617.254	0.0144717
617.332	0.0144587
617.410	0.0145228
617.488	0.0145943
617.567	0.0145081
617.645	0.0143961
617.723	0.0143973
617.801	0.0146348
617.879	0.0144631
617.957	0.0146618
618.035	0.0144773
618.113	0.0145300
618.192	0.0145699
618.270	0.0145680
618.348	0.0144664
618.426	0.0146443
618.504	0.0145539
618.582	0.0144611
618.660	0.0145484
618.738	0.0146014
618.817	0.0147054
618.895	0.0145367
618.973	0.0144269
619.051	0.0145973
619.129	0.0144644
619.207	0.0144892
619.285	0.0146114
619.363	0.0144401
619.442	0.0146788
619.520	0.0146030
619.598	0.0146244
619.676	0.0146928
619.754	0.0146680
619.832	0.0145870
619.910	0.0146099
619.988	0.0146171
620.067	0.0145946
620.145	0.0145853
620.223	0.0146074
620.301	0.0145053
620.379	0.0146143
620.457	0.0147322
620.535	0.0146321
620.613	0.0146301
620.692	0.0145838
620.770	0.0145623
620.848	0.0144715
620.926	0.0145529
621.004	0.0146476
621.082	0.0146746
621.160	0.0145778
621.238	0.0145096
621.317	0.0144999
621.395	0.0145744
621.473	0.0146039
621.551	0.0145411
621.629	0.0146968
621.707	0.0144832
621.785	0.0145753
621.863	0.0145163
621.942	0.0146001
622.020	0.0144632
622.098	0.0145383
622.176	0.0145052
622.254	0.0145892
622.332	0.0146751
622.410	0.0144941
622.488	0.0146537
622.567	0.0147544
622.645	0.0147076
622.723	0.0145951
622.801	0.0146190
622.879	0.0147604
622.957	0.0148152
623.035	0.0148973
623.113	0.0147389
623.192	0.0147865
623.270	0.0146478
623.348	0.0147301
623.426	0.0147430
623.504	0.0146035
623.582	0.0146166
623.660	0.0145808
623.738	0.0145164
623.817	0.0144909
623.895	0.0144154
623.973	0.0144344
624.051	0.0143589
624.129	0.0144426
624.207	0.0143517
624.285	0.0142896
624.363	0.0143373
624.442	0.0143626
624.520	0.0143128
624.598	0.0143822
624.676	0.0145018
624.754	0.0145540
624.832	0.0145309
624.910	0.0145267
624.988	0.0145982
625.067	0.0146022
625.145	0.0146602
625.223	0.0146362
625.301	0.0145535
625.379	0.0147266
625.457	0.0146182
625.535	0.0146084
625.613	0.0144462
625.692	0.0144889
625.770	0.0145072
625.848	0.0144210
625.926	0.0145135
626.004	0.0143108
626.082	0.0143435
626.160	0.0144164
626.238	0.0143294
626.317	0.0141541
626.395	0.0143673
626.473	0.0143139
626.551	0.0142302
626.629	0.0140788
626.707	0.0141109
626.785	0.0140649
626.863	0.0141541
626.942	0.0142017
627.020	0.0141259
627.098	0.0140472
627.176	0.0140444
627.254	0.0142031
627.332	0.0141670
627.410	0.0142946
627.488	0.0143307
627.567	0.0143857
627.645	0.0144280
627.723	0.0144950
627.801	0.0144582
627.879	0.0146312
627.957	0.0147499
628.035	0.0147342
628.113	0.0147224
628.192	0.0147421
628.270	0.0148547
628.348	0.0147795
628.426	0.0147876
628.504	0.0149187
628.582	0.0148102
628.660	0.0146617
628.738	0.0146481
628.817	0.0146471
628.895	0.0146787
628.973	0.0146582
629.051	0.0144531
629.129	0.0145135
629.207	0.0145930
629.285	0.0145223
629.363	0.0143589
629.442	0.0143676
629.520	0.0143821
629.598	0.0144740
629.676	0.0144364
629.754	0.0143498
629.832	0.0144377
629.910	0.0144043
629.988	0.0145644
630.067	0.0145798
630.145	0.0145298
630.223	0.0145447
630.301	0.0145174
630.379	0.0144180
630.457	0.0145353
630.535	0.0145036
630.613	0.0145612
630.692	0.0144901
630.770	0.0145140
630.848	0.0145221
630.926	0.0144717
631.004	0.0144166
631.082	0.0144563
631.160	0.0143737
631.238	0.0142846
631.317	0.0142873
631.395	0.0143861
631.473	0.0143340
631.551	0.0143096
631.629	0.0142666
631.707	0.0142747
631.785	0.0143328
631.863	0.0144734
631.942	0.0142361
632.020	0.0143077
632.098	0.0142397
632.176	0.0143032
632.254	0.0143670
632.332	0.0144005
632.410	0.0144626
632.488	0.0143546
632.567	0.0144510
632.645	0.0145800
632.723	0.0146668
632.801	0.0145599
632.879	0.0145972
632.957	0.0146941
633.035	0.0145547
633.113	0.0147991
633.192	0.0148120
633.270	0.0146803
633.348	0.0148022
633.426	0.0148924
633.504	0.0148134
633.582	0.0148536
633.660	0.0148189
633.738	0.0147829
633.817	0.0148489
633.895	0.0148666
633.973	0.0146677
634.051	0.0148016
634.129	0.0146349
634.207	0.0145712
634.285	0.0144134
634.363	0.0145133
634.442	0.0144885
634.520	0.0144770
634.598	0.0144948
634.676	0.0145812
634.754	0.0146459
634.832	0.0143747
634.910	0.0142744
634.988	0.0144901
635.067	0.0144084
635.145	0.0142504
635.223	0.0144077
635.301	0.0144326
635.379	0.0144099
635.457	0.0145334
635.535	0.0144092
635.613	0.0143829
635.692	0.0143118
635.770	0.0143690
635.848	0.0144157
635.926	0.0145237
636.004	0.0144220
636.082	0.0143332
636.160	0.0144482
636.238	0.0144069
636.317	0.0142120
636.395	0.0143687
636.473	0.0144464
636.551	0.0144841
636.629	0.0142784
636.707	0.0142881
636.785	0.0142901
636.863	0.0143201
636.942	0.0142689
637.020	0.0144262
637.098	0.0143276
637.176	0.0144012
637.254	0.0144057
637.332	0.0142934
637.410	0.0141660
637.488	0.0143906
637.567	0.0143098
637.645	0.0142973
637.723	0.0142848
637.801	0.0144983
637.879	0.0143477
637.957	0.0144312
638.035	0.0142168
638.113	0.0144563
638.192	0.0143719
638.270	0.0143972
638.348	0.0143034
638.426	0.0142979
638.504	0.0144093
638.582	0.0144684
638.660	0.0144811
638.738	0.0144481
638.817	0.0144350
638.895	0.0144303
638.973	0.0145398
639.051	0.0143571
639.129	0.0145989
639.207	0.0146120
639.285	0.0145964
639.363	0.0145993
639.442	0.0146338
639.520	0.0145860
639.598	0.0145071
639.676	0.0144721
639.754	0.0144940
639.832	0.0145345
639.910	0.0146038
639.988	0.0144335
640.067	0.0144151
640.145	0.0146323
640.223	0.0144749
640.301	0.0144884
640.379	0.0145827
640.457	0.0147185
640.535	0.0145664
640.613	0.0144926
640.692	0.0145459
640.770	0.0146288
640.848	0.0146611
640.926	0.0147411
641.004	0.0148474
641.082	0.0145686
641.160	0.0146115
641.238	0.0147598
641.317	0.0146539
641.395	0.0147195
641.473	0.0147333
641.551	0.0146497
641.629	0.0146568
641.707	0.0146455
641.785	0.0145782
641.863	0.0145909
641.942	0.0147337
642.020	0.0146430
642.098	0.0146071
642.176	0.0146802
642.254	0.0145235
642.332	0.0146677
642.410	0.0147358
642.488	0.0146697
642.567	0.0146385
642.645	0.0145650
642.723	0.0145448
642.801	0.0147007
642.879	0.0146619
642.957	0.0145232
643.035	0.0146600
643.113	0.0145118
643.192	0.0143998
643.270	0.0145864
643.348	0.0144849
643.426	0.0144566
643.504	0.0142997
643.582	0.0144549
643.660	0.0145256
643.738	0.0143455
643.817	0.0143203
643.895	0.0145035
643.973	0.0143117
644.051	0.0142506
644.129	0.0144030
644.207	0.0144802
644.285	0.0145597
644.363	0.0145491
644.442	0.0144332
644.520	0.0146029
644.598	0.0147437
644.676	0.0145934
644.754	0.0144899
644.832	0.0144716
644.910	0.0145045
644.988	0.0145110
645.067	0.0144365
645.145	0.0144413
645.223	0.0143507
645.301	0.0143646
645.379	0.0142640
645.457	0.0144473
645.535	0.0146143
645.613	0.0143528
645.692	0.0143430
645.770	0.0144083
645.848	0.0144016
645.926	0.0145354
646.004	0.0145349
646.082	0.0145307
646.160	0.0145383
646.238	0.0144530
646.317	0.0146232
646.395	0.0147562
646.473	0.0146833
646.551	0.0145181
646.629	0.0146276
646.707	0.0145416
646.785	0.0144995
646.863	0.0145315
646.942	0.0145512
647.020	0.0146216
647.098	0.0146134
647.176	0.0145686
647.254	0.0145687
647.332	0.0145484
647.410	0.0145083
647.488	0.0145562
647.567	0.0145215
647.645	0.0144573
647.723	0.0145518
647.801	0.0144525
647.879	0.0145727
647.957	0.0145790
648.035	0.0143832
648.113	0.0144167
648.192	0.0142968
648.270	0.0145027
648.348	0.0144698
648.426	0.0144143
648.504	0.0143820
648.582	0.0145088
648.660	0.0144542
648.738	0.0144735
648.817	0.0145094
648.895	0.0145606
648.973	0.0145476
649.051	0.0144846
649.129	0.0144637
649.207	0.0145577
649.285	0.0143843
649.363	0.0144859
649.442	0.0146212
649.520	0.0144207
649.598	0.0143774
649.676	0.0143919
649.754	0.0143161
649.832	0.0143176
649.910	0.0142634
649.988	0.0143391
650.067	0.0141324
650.145	0.0140910
650.223	0.0141071
650.301	0.0142406
650.379	0.0143842
650.457	0.0142621
650.535	0.0142804
650.613	0.0142595
650.692	0.0145454
650.770	0.0144852
650.848	0.0143562
650.926	0.0144910
651.004	0.0146178
651.082	0.0146011
651.160	0.0146598
651.238	0.0148440
651.317	0.0146426
651.395	0.0148427
651.473	0.0147752
651.551	0.0147001
651.629	0.0148460
651.707	0.0146977
651.785	0.0147509
651.863	0.0146879
651.942	0.0148178
652.020	0.0148359
652.098	0.0147888
652.176	0.0146336
652.254	0.0147346
652.332	0.0147641
652.410	0.0148354
652.488	0.0147226
652.567	0.0148241
652.645	0.0147485
652.723	0.0146849
652.801	0.0147146
652.879	0.0147147
652.957	0.0146201
653.035	0.0145967
653.113	0.0146099
653.192	0.0144380
653.270	0.0144120
653.348	0.0145568
653.426	0.0143721
653.504	0.0142099
653.582	0.0143850
653.660	0.0143938
653.738	0.0141462
653.817	0.0141763
653.895	0.0141575
653.973	0.0142318
654.051	0.0141290
654.129	0.0141048
654.207	0.0142317
654.285	0.0141710
654.363	0.0140379
654.442	0.0141874
654.520	0.0141875
654.598	0.0141640
654.676	0.0143041
654.754	0.0143309
654.832	0.0142449
654.910	0.0142506
654.988	0.0143439
655.067	0.0143990
655.145	0.0142178
655.223	0.0143340
655.301	0.0143748
655.379	0.0142391
655.457	0.0143859
655.535	0.0142973
655.613	0.0143268
655.692	0.0142982
655.770	0.0144168
655.848	0.0145470
655.926	0.0145261
656.004	0.0144081
656.082	0.0144493
656.160	0.0145159
656.238	0.0144965
656.317	0.0144752
656.395	0.0144450
656.473	0.0144152
656.551	0.0143497
656.629	0.0145905
656.707	0.0145054
656.785	0.0144978
656.863	0.0145470
656.942	0.0143700
657.020	0.0145033
657.098	0.0144060
657.176	0.0143535
657.254	0.0145081
657.332	0.0145551
657.410	0.0145925
657.488	0.0145248
657.567	0.0145710
657.645	0.0145473
657.723	0.0145264
657.801	0.0145139
657.879	0.0145986
657.957	0.0144936
658.035	0.0145641
658.113	0.0146522
658.192	0.0145985
658.270	0.0146371
658.348	0.0147068
658.426	0.0146371
658.504	0.0145162
658.582	0.0146213
658.660	0.0146200
658.738	0.0145244
658.817	0.0147723
658.895	0.0146616
658.973	0.0145656
659.051	0.0145346
659.129	0.0145222
659.207	0.0148127
659.285	0.0146443
659.363	0.0146445
659.442	0.0145490
659.520	0.0147514
659.598	0.0147187
659.676	0.0145489
659.754	0.0145303
659.832	0.0146302
659.910	0.0146455
659.988	0.0145722
660.067	0.0146170
660.145	0.0146339
660.223	0.0145551
660.301	0.0145093
660.379	0.0144813
660.457	0.0144523
660.535	0.0143466
660.613	0.0143125
660.692	0.0144167
660.770	0.0144451
660.848	0.0142770
660.926	0.0142265
661.004	0.0143298
661.082	0.0142193
661.160	0.0142503
661.238	0.0142223
661.317	0.0142289
661.395	0.0144062
661.473	0.0144022
661.551	0.0142879
661.629	0.0142999
661.707	0.0144368
661.785	0.0146310
661.863	0.0143669
661.942	0.0146043
662.020	0.0144891
662.098	0.0145328
662.176	0.0145270
662.254	0.0145325
662.332	0.0146689
662.410	0.0145387
662.488	0.0145875
662.567	0.0145554
662.645	0.0147222
662.723	0.0146238
662.801	0.0147169
662.879	0.0147428
662.957	0.0147509
663.035	0.0147640
663.113	0.0146389
663.192	0.0146861
663.270	0.0146281
663.348	0.0147018
663.426	0.0146648
663.504	0.0146727
663.582	0.0147466
663.660	0.0146038
663.738	0.0146442
663.817	0.0144962
663.895	0.0145211
663.973	0.0146442
664.051	0.0145810
664.129	0.0143282
664.207	0.0145135
664.285	0.0144398
664.363	0.0142330
664.442	0.0144014
664.520	0.0144933
664.598	0.0143302
664.676	0.0144334
664.754	0.0145590
664.832	0.0143698
664.910	0.0142397
664.988	0.0142912
665.067	0.0143044
665.145	0.0143338
665.223	0.0143819
665.301	0.0142028
665.379	0.0143990
665.457	0.0145017
665.535	0.0142786
665.613	0.0142952
665.692	0.0142487
665.770	0.0142118
665.848	0.0143067
665.926	0.0143472
666.004	0.0143347
666.082	0.0143070
666.160	0.0143636
666.238	0.0142822
666.317	0.0142397
666.395	0.0143498
666.473	0.0141714
666.551	0.0141689
666.629	0.0141859
666.707	0.0143038
666.785	0.0141645
666.863	0.0141687
666.942	0.0141530
667.020	0.0142379
667.098	0.0142199
667.176	0.0142572
667.254	0.0143454
667.332	0.0142676
667.410	0.0142426
667.488	0.0143056
667.567	0.0144520
667.645	0.0142737
667.723	0.0142774
667.801	0.0143785
667.879	0.0143928
667.957	0.0143804
668.035	0.0142781
668.113	0.0143058
668.192	0.0143516
668.270	0.0144535
668.348	0.0143343
668.426	0.0142357
668.504	0.0142576
668.582	0.0144688
668.660	0.0144274
668.738	0.0145263
668.817	0.0144396
668.895	0.0146055
668.973	0.0145848
669.051	0.0146339
669.129	0.0146763
669.207	0.0144648
669.285	0.0146944
669.363	0.0147987
669.442	0.0146259
669.520	0.0147896
669.598	0.0147531
669.676	0.0149438
669.754	0.0149122
669.832	0.0146981
669.910	0.0146671
669.988	0.0148574
670.067	0.0147131
670.145	0.0147204
670.223	0.0145597
670.301	0.0145090
670.379	0.0146584
670.457	0.0144194
670.535	0.0144118
670.613	0.0143430
670.692	0.0141052
670.770	0.0142664
670.848	0.0141987
670.926	0.0140125
671.004	0.0140310
671.082	0.0139107
671.160	0.0137075
671.238	0.0137476
671.317	0.0137654
671.395	0.0137533
671.473	0.0137183
671.551	0.0136222
671.629	0.0137893
671.707	0.0137703
671.785	0.0139543
671.863	0.0137903
671.942	0.0140388
672.020	0.0140925
672.098	0.0142239
672.176	0.0143941
672.254	0.0144382
672.332	0.0146393
672.410	0.0146812
672.488	0.0147680
672.567	0.0150053
672.645	0.0148468
672.723	0.0148646
672.801	0.0151279
672.879	0.0151078
672.957	0.0151424
673.035	0.0150431
673.113	0.0150886
673.192	0.0150979
673.270	0.0151509
673.348	0.0151503
673.426	0.0150405
673.504	0.0150858
673.582	0.0151884
673.660	0.0151047
673.738	0.0149917
673.817	0.0146485
673.895	0.0144376
673.973	0.0146083
674.051	0.0143586
674.129	0.0142191
674.207	0.0142120
674.285	0.0142185
674.363	0.0138996
674.442	0.0140342
674.520	0.0139134
674.598	0.0139195
674.676	0.0138896
674.754	0.0138392
674.832	0.0138392
674.910	0.0140323
674.988	0.0139732
675.067	0.0141486
675.145	0.0142453
675.223	0.0142529
675.301	0.0142030
675.379	0.0143783
675.457	0.0145144
675.535	0.0145193
675.613	0.0143426
675.692	0.0144250
675.770	0.0145812
675.848	0.0145593
675.926	0.0144422
676.004	0.0145109
676.082	0.0145501
676.160	0.0144241
676.238	0.0143402
676.317	0.0144217
676.395	0.0143571
676.473	0.0142785
676.551	0.0142227
676.629	0.0141053
676.707	0.0143492
676.785	0.0144258
676.863	0.0143546
676.942	0.0142780
677.020	0.0142982
677.098	0.0142201
677.176	0.0143858
677.254	0.0145325
677.332	0.0143420
677.410	0.0144973
677.488	0.0145077
677.567	0.0144650
677.645	0.0147198
677.723	0.0147842
677.801	0.0146141
677.879	0.0148418
677.957	0.0147636
678.035	0.0147965
678.113	0.0146624
678.192	0.0148179
678.270	0.0146788
678.348	0.0147066
678.426	0.0146994
678.504	0.0145184
678.582	0.0146129
678.660	0.0144765
678.738	0.0146692
678.817	0.0145267
678.895	0.0145544
678.973	0.0144619
679.051	0.0144425
679.129	0.0145766
679.207	0.0143758
679.285	0.0144054
679.363	0.0142068
679.442	0.0142741
679.520	0.0144789
679.598	0.0144603
679.676	0.0143540
679.754	0.0143645
679.832	0.0143841
679.910	0.0143077
679.988	0.0146172
680.067	0.0144462
680.145	0.0144075
680.223	0.0145969
680.301	0.0145365
680.379	0.0143581
680.457	0.0144192
680.535	0.0144357
680.613	0.0144088
680.692	0.0144234
680.770	0.0144343
680.848	0.0144141
680.926	0.0144610
681.004	0.0145116
681.082	0.0144930
681.160	0.0144643
681.238	0.0144451
681.317	0.0145757
681.395	0.0144861
681.473	0.0143571
681.551	0.0145413
681.629	0.0144941
681.707	0.0144440
681.785	0.0144728
681.863	0.0142587
681.942	0.0144234
682.020	0.0143263
682.098	0.0142242
682.176	0.0142790
682.254	0.0144092
682.332	0.0142173
682.410	0.0141942
682.488	0.0143301
682.567	0.0142888
682.645	0.0144097
682.723	0.0143327
682.801	0.0144586
682.879	0.0144820
682.957	0.0145715
683.035	0.0146171
683.113	0.0145137
683.192	0.0146743
683.270	0.0146048
683.348	0.0146243
683.426	0.0147305
683.504	0.0147891
683.582	0.0147269
683.660	0.0146672
683.738	0.0147559
683.817	0.0148460
683.895	0.0148978
683.973	0.0148591
684.051	0.0148704
684.129	0.0147861
684.207	0.0148567
684.285	0.0148245
684.363	0.0148382
684.442	0.0148060
684.520	0.0147361
684.598	0.0146011
684.676	0.0147197
684.754	0.0144320
684.832	0.0144745
684.910	0.0144314
684.988	0.0143763
685.067	0.0142283
685.145	0.0142499
685.223	0.0141433
685.301	0.0141548
685.379	0.0142297
685.457	0.0141309
685.535	0.0140092
685.613	0.0139587
685.692	0.0139612
