05/28/2022	14:34:42	Ver.	4.1	UNKNOWN
Optical Delay	599.988409	Delta X		0.078125	Sweeps	1	Scan Rate	0/0
Coordinates	Axis 1	NaN	Axis 2	NaN	Axis 3	NaN	Axis 4	NaN	Axis 5	NaN	Axis 6	0.000000
TX Power	0.000000	RX Power	0.000000

599.988	0.0144044
600.067	0.0141976
600.145	0.0143156
600.223	0.0141854
600.301	0.0142498
600.379	0.0143243
600.457	0.0142887
600.535	0.0142484
600.613	0.0142307
600.692	0.0142133
600.770	0.0141912
600.848	0.0143491
600.926	0.0142544
601.004	0.0143747
601.082	0.0143832
601.160	0.0142354
601.238	0.0142080
601.317	0.0141580
601.395	0.0142076
601.473	0.0141232
601.551	0.0141367
601.629	0.0142146
601.707	0.0143262
601.785	0.0141344
601.863	0.0141628
601.942	0.0142112
602.020	0.0141608
602.098	0.0142498
602.176	0.0142146
602.254	0.0143210
602.332	0.0143667
602.410	0.0142937
602.488	0.0142503
602.567	0.0142003
602.645	0.0142362
602.723	0.0142979
602.801	0.0143024
602.879	0.0142700
602.957	0.0142891
603.035	0.0143307
603.113	0.0141814
603.192	0.0141983
603.270	0.0143860
603.348	0.0142776
603.426	0.0143121
603.504	0.0142983
603.582	0.0143150
603.660	0.0144113
603.738	0.0142458
603.817	0.0144262
603.895	0.0142873
603.973	0.0143659
604.051	0.0142555
604.129	0.0142873
604.207	0.0143497
604.285	0.0142852
604.363	0.0143399
604.442	0.0143871
604.520	0.0144524
604.598	0.0143103
604.676	0.0142199
604.754	0.0143037
604.832	0.0143771
604.910	0.0143456
604.988	0.0144757
605.067	0.0143328
605.145	0.0143809
605.223	0.0143966
605.301	0.0143433
605.379	0.0142695
605.457	0.0144600
605.535	0.0143877
605.613	0.0145026
605.692	0.0144296
605.770	0.0144311
605.848	0.0144344
605.926	0.0143974
606.004	0.0145036
606.082	0.0143710
606.160	0.0145541
606.238	0.0146098
606.317	0.0144102
606.395	0.0144082
606.473	0.0144693
606.551	0.0144897
606.629	0.0145841
606.707	0.0144562
606.785	0.0144310
606.863	0.0144490
606.942	0.0145531
607.020	0.0144881
607.098	0.0143507
607.176	0.0144919
607.254	0.0143198
607.332	0.0144767
607.410	0.0144735
607.488	0.0142119
607.567	0.0145436
607.645	0.0145022
607.723	0.0144104
607.801	0.0145132
607.879	0.0143385
607.957	0.0142423
608.035	0.0144670
608.113	0.0142878
608.192	0.0144129
608.270	0.0145079
608.348	0.0144316
608.426	0.0144796
608.504	0.0144012
608.582	0.0143318
608.660	0.0145203
608.738	0.0144155
608.817	0.0143820
608.895	0.0145484
608.973	0.0145095
609.051	0.0145425
609.129	0.0144250
609.207	0.0144455
609.285	0.0144270
609.363	0.0144151
609.442	0.0144540
609.520	0.0144017
609.598	0.0144039
609.676	0.0144301
609.754	0.0145071
609.832	0.0143332
609.910	0.0144001
609.988	0.0144810
610.067	0.0143468
610.145	0.0144750
610.223	0.0143440
610.301	0.0142909
610.379	0.0145055
610.457	0.0144555
610.535	0.0145317
610.613	0.0144315
610.692	0.0144353
610.770	0.0144084
610.848	0.0142445
610.926	0.0143613
611.004	0.0144968
611.082	0.0145815
611.160	0.0146565
611.238	0.0144118
611.317	0.0143955
611.395	0.0143283
611.473	0.0144983
611.551	0.0144868
611.629	0.0144781
611.707	0.0144199
611.785	0.0143828
611.863	0.0143418
611.942	0.0145493
612.020	0.0146148
612.098	0.0145143
612.176	0.0144460
612.254	0.0143023
612.332	0.0145015
612.410	0.0145882
612.488	0.0145150
612.567	0.0144929
612.645	0.0143507
612.723	0.0145174
612.801	0.0145725
612.879	0.0145108
612.957	0.0144521
613.035	0.0145264
613.113	0.0143773
613.192	0.0144257
613.270	0.0143330
613.348	0.0144531
613.426	0.0143807
613.504	0.0144228
613.582	0.0143482
613.660	0.0144879
613.738	0.0144230
613.817	0.0143787
613.895	0.0143838
613.973	0.0143847
614.051	0.0144420
614.129	0.0143201
614.207	0.0143478
614.285	0.0143230
614.363	0.0141965
614.442	0.0144596
614.520	0.0142952
614.598	0.0143027
614.676	0.0144495
614.754	0.0143510
614.832	0.0144016
614.910	0.0143584
614.988	0.0144970
615.067	0.0144592
615.145	0.0142699
615.223	0.0144951
615.301	0.0144357
615.379	0.0144823
615.457	0.0144337
615.535	0.0144036
615.613	0.0142828
615.692	0.0143294
615.770	0.0144632
615.848	0.0144801
615.926	0.0144122
616.004	0.0143779
616.082	0.0143953
616.160	0.0145085
616.238	0.0143346
616.317	0.0144701
616.395	0.0144363
616.473	0.0144234
616.551	0.0145465
616.629	0.0145570
616.707	0.0145395
616.785	0.0145015
616.863	0.0144182
616.942	0.0143429
617.020	0.0146227
617.098	0.0144292
617.176	0.0143766
617.254	0.0144020
617.332	0.0144425
617.410	0.0143490
617.488	0.0143682
617.567	0.0145049
617.645	0.0145020
617.723	0.0144077
617.801	0.0143388
617.879	0.0143690
617.957	0.0143571
618.035	0.0145220
618.113	0.0144339
618.192	0.0144273
618.270	0.0145160
618.348	0.0144851
618.426	0.0145450
618.504	0.0144987
618.582	0.0144525
618.660	0.0145689
618.738	0.0145447
618.817	0.0145222
618.895	0.0147082
618.973	0.0144767
619.051	0.0145460
619.129	0.0146576
619.207	0.0145763
619.285	0.0145516
619.363	0.0144421
619.442	0.0145568
619.520	0.0144511
619.598	0.0143526
619.676	0.0144187
619.754	0.0144479
619.832	0.0143886
619.910	0.0144445
619.988	0.0143578
620.067	0.0144794
620.145	0.0143671
620.223	0.0144039
620.301	0.0143188
620.379	0.0142598
620.457	0.0142888
620.535	0.0144237
620.613	0.0143164
620.692	0.0143864
620.770	0.0144189
620.848	0.0142776
620.926	0.0142048
621.004	0.0143128
621.082	0.0142043
621.160	0.0143316
621.238	0.0142749
621.317	0.0142853
621.395	0.0142545
621.473	0.0142929
621.551	0.0143213
621.629	0.0142181
621.707	0.0143298
621.785	0.0142889
621.863	0.0143906
621.942	0.0142696
622.020	0.0143395
622.098	0.0143707
622.176	0.0142654
622.254	0.0144669
622.332	0.0144510
622.410	0.0143519
622.488	0.0146326
622.567	0.0145531
622.645	0.0144598
622.723	0.0144781
622.801	0.0145942
622.879	0.0146078
622.957	0.0145419
623.035	0.0143809
623.113	0.0145197
623.192	0.0144529
623.270	0.0144212
623.348	0.0143207
623.426	0.0142261
623.504	0.0142970
623.582	0.0142659
623.660	0.0142025
623.738	0.0142333
623.817	0.0142429
623.895	0.0141127
623.973	0.0141879
624.051	0.0143814
624.129	0.0143484
624.207	0.0143768
624.285	0.0145393
624.363	0.0144434
624.442	0.0143703
624.520	0.0144826
624.598	0.0145172
624.676	0.0147188
624.754	0.0146783
624.832	0.0144693
624.910	0.0147062
624.988	0.0146198
625.067	0.0146795
625.145	0.0144952
625.223	0.0145818
625.301	0.0144634
625.379	0.0144321
625.457	0.0144497
625.535	0.0145215
625.613	0.0142770
625.692	0.0142871
625.770	0.0144401
625.848	0.0142802
625.926	0.0142845
626.004	0.0143204
626.082	0.0143633
626.160	0.0142235
626.238	0.0142467
626.317	0.0141316
626.395	0.0141494
626.473	0.0141277
626.551	0.0141224
626.629	0.0141402
626.707	0.0141015
626.785	0.0141301
626.863	0.0141219
626.942	0.0141577
627.020	0.0141122
627.098	0.0141021
627.176	0.0143594
627.254	0.0142976
627.332	0.0143983
627.410	0.0144205
627.488	0.0145461
627.567	0.0146351
627.645	0.0146504
627.723	0.0147578
627.801	0.0147635
627.879	0.0146779
627.957	0.0146873
628.035	0.0146085
628.113	0.0145726
628.192	0.0147291
628.270	0.0145547
628.348	0.0145984
628.426	0.0144807
628.504	0.0144018
628.582	0.0143500
628.660	0.0143094
628.738	0.0143788
628.817	0.0141317
628.895	0.0142064
628.973	0.0141868
629.051	0.0140649
629.129	0.0141464
629.207	0.0142570
629.285	0.0140820
629.363	0.0141358
629.442	0.0142777
629.520	0.0141931
629.598	0.0141721
629.676	0.0141983
629.754	0.0143496
629.832	0.0143864
629.910	0.0143709
629.988	0.0143368
630.067	0.0143894
630.145	0.0143379
630.223	0.0143793
630.301	0.0144910
630.379	0.0143866
630.457	0.0145152
630.535	0.0145012
630.613	0.0145570
630.692	0.0143751
630.770	0.0142553
630.848	0.0144510
630.926	0.0144762
631.004	0.0141898
631.082	0.0141630
631.160	0.0143165
631.238	0.0142820
631.317	0.0143228
631.395	0.0143105
631.473	0.0142580
631.551	0.0142149
631.629	0.0141776
631.707	0.0142505
631.785	0.0143687
631.863	0.0143836
631.942	0.0143233
632.020	0.0143156
632.098	0.0144220
632.176	0.0143418
632.254	0.0143900
632.332	0.0144041
632.410	0.0144893
632.488	0.0146286
632.567	0.0145385
632.645	0.0144458
632.723	0.0146025
632.801	0.0147297
632.879	0.0145240
632.957	0.0146382
633.035	0.0148049
633.113	0.0146243
633.192	0.0145693
633.270	0.0145927
633.348	0.0145927
633.426	0.0145644
633.504	0.0145889
633.582	0.0146773
633.660	0.0145570
633.738	0.0144524
633.817	0.0143604
633.895	0.0143667
633.973	0.0143339
634.051	0.0144705
634.129	0.0141557
634.207	0.0141700
634.285	0.0142760
634.363	0.0141568
634.442	0.0140709
634.520	0.0141911
634.598	0.0140720
634.676	0.0140011
634.754	0.0140121
634.832	0.0140601
634.910	0.0141236
634.988	0.0140583
635.067	0.0140678
635.145	0.0142923
635.223	0.0140783
635.301	0.0140517
635.379	0.0142673
635.457	0.0141193
635.535	0.0142577
635.613	0.0142243
635.692	0.0143064
635.770	0.0141994
635.848	0.0142748
635.926	0.0142230
636.004	0.0143793
636.082	0.0143314
636.160	0.0142461
636.238	0.0143217
636.317	0.0144321
636.395	0.0143970
636.473	0.0144245
636.551	0.0145528
636.629	0.0144400
636.707	0.0143807
636.785	0.0143536
636.863	0.0144638
636.942	0.0144612
637.020	0.0145290
637.098	0.0145965
637.176	0.0147175
637.254	0.0144383
637.332	0.0145284
637.410	0.0145757
637.488	0.0145380
637.567	0.0145736
637.645	0.0146072
637.723	0.0145989
637.801	0.0144810
637.879	0.0143532
637.957	0.0146570
638.035	0.0144415
638.113	0.0144532
638.192	0.0146010
638.270	0.0144958
638.348	0.0145403
638.426	0.0146313
638.504	0.0145823
638.582	0.0145268
638.660	0.0146324
638.738	0.0144448
638.817	0.0145099
638.895	0.0146230
638.973	0.0144661
639.051	0.0146571
639.129	0.0145424
639.207	0.0144598
639.285	0.0143948
639.363	0.0144379
639.442	0.0143273
639.520	0.0143973
639.598	0.0143629
639.676	0.0144706
639.754	0.0143716
639.832	0.0143856
639.910	0.0143650
639.988	0.0143329
640.067	0.0144184
640.145	0.0143217
640.223	0.0144181
640.301	0.0143357
640.379	0.0143247
640.457	0.0142510
640.535	0.0142727
640.613	0.0144646
640.692	0.0143444
640.770	0.0143579
640.848	0.0144257
640.926	0.0144503
641.004	0.0144578
641.082	0.0144200
641.160	0.0143840
641.238	0.0145083
641.317	0.0144776
641.395	0.0144373
641.473	0.0144930
641.551	0.0145450
641.629	0.0144972
641.707	0.0144427
641.785	0.0144778
641.863	0.0144617
641.942	0.0144498
642.020	0.0146610
642.098	0.0146115
642.176	0.0145896
642.254	0.0147145
642.332	0.0144769
642.410	0.0145230
642.488	0.0145743
642.567	0.0146331
642.645	0.0144726
642.723	0.0145319
642.801	0.0145081
642.879	0.0145069
642.957	0.0144238
643.035	0.0142622
643.113	0.0142030
643.192	0.0143398
643.270	0.0143206
643.348	0.0142288
643.426	0.0141417
643.504	0.0142214
643.582	0.0143382
643.660	0.0142042
643.738	0.0142001
643.817	0.0142032
643.895	0.0140948
643.973	0.0142935
644.051	0.0142664
644.129	0.0143329
644.207	0.0144111
644.285	0.0145152
644.363	0.0144506
644.442	0.0142227
644.520	0.0144894
644.598	0.0144144
644.676	0.0142941
644.754	0.0143484
644.832	0.0142711
644.910	0.0140788
644.988	0.0143742
645.067	0.0142019
645.145	0.0143443
645.223	0.0142783
645.301	0.0142817
645.379	0.0143296
645.457	0.0141602
645.535	0.0142767
645.613	0.0142860
645.692	0.0142769
645.770	0.0143264
645.848	0.0143444
645.926	0.0143246
646.004	0.0144183
646.082	0.0145676
646.160	0.0145238
646.238	0.0145879
646.317	0.0145863
646.395	0.0145219
646.473	0.0145891
646.551	0.0145428
646.629	0.0146011
646.707	0.0144483
646.785	0.0143781
646.863	0.0144703
646.942	0.0145368
647.020	0.0144742
647.098	0.0143359
647.176	0.0144689
647.254	0.0143558
647.332	0.0143925
647.410	0.0145059
647.488	0.0144551
647.567	0.0144861
647.645	0.0144557
647.723	0.0143839
647.801	0.0144044
647.879	0.0143532
647.957	0.0143674
648.035	0.0144577
648.113	0.0143616
648.192	0.0143906
648.270	0.0144765
648.348	0.0145792
648.426	0.0144748
648.504	0.0145718
648.582	0.0144921
648.660	0.0146224
648.738	0.0144643
648.817	0.0146996
648.895	0.0145328
648.973	0.0145385
649.051	0.0146078
649.129	0.0145762
649.207	0.0144491
649.285	0.0144147
649.363	0.0143268
649.442	0.0143578
649.520	0.0143870
649.598	0.0141662
649.676	0.0142046
649.754	0.0142366
649.832	0.0142571
649.910	0.0142299
649.988	0.0141924
650.067	0.0142934
650.145	0.0142951
650.223	0.0142443
650.301	0.0141123
650.379	0.0141622
650.457	0.0144351
650.535	0.0143750
650.613	0.0143732
650.692	0.0144430
650.770	0.0144345
650.848	0.0145216
650.926	0.0144661
651.004	0.0145206
651.082	0.0145914
651.160	0.0147173
651.238	0.0146711
651.317	0.0146489
651.395	0.0146246
651.473	0.0145030
651.551	0.0145395
651.629	0.0146459
651.707	0.0144878
651.785	0.0146013
651.863	0.0145836
651.942	0.0146040
652.020	0.0145535
652.098	0.0145605
652.176	0.0145876
652.254	0.0146884
652.332	0.0145536
652.410	0.0145216
652.488	0.0146121
652.567	0.0146607
652.645	0.0144414
652.723	0.0142850
652.801	0.0143796
652.879	0.0143824
652.957	0.0143829
653.035	0.0142702
653.113	0.0142623
653.192	0.0142466
653.270	0.0141579
653.348	0.0141903
653.426	0.0142007
653.504	0.0139891
653.582	0.0140408
653.660	0.0139262
653.738	0.0139843
653.817	0.0139909
653.895	0.0139581
653.973	0.0140031
654.051	0.0139819
654.129	0.0139488
654.207	0.0142250
654.285	0.0141843
654.363	0.0140400
654.442	0.0142433
654.520	0.0142599
654.598	0.0143405
654.676	0.0141730
654.754	0.0143332
654.832	0.0144474
654.910	0.0144507
654.988	0.0144932
655.067	0.0144027
655.145	0.0143843
655.223	0.0144634
655.301	0.0144346
655.379	0.0145273
655.457	0.0144364
655.535	0.0144808
655.613	0.0145248
655.692	0.0144957
655.770	0.0145522
655.848	0.0144252
655.926	0.0144859
656.004	0.0145145
656.082	0.0144624
656.160	0.0144574
656.238	0.0145602
656.317	0.0144550
656.395	0.0144672
656.473	0.0143602
656.551	0.0145396
656.629	0.0144817
656.707	0.0144175
656.785	0.0144332
656.863	0.0144466
656.942	0.0143708
657.020	0.0144621
657.098	0.0145223
657.176	0.0143861
657.254	0.0143420
657.332	0.0144864
657.410	0.0144813
657.488	0.0143910
657.567	0.0143852
657.645	0.0144759
657.723	0.0145020
657.801	0.0145651
657.879	0.0145061
657.957	0.0144226
658.035	0.0146594
658.113	0.0145005
658.192	0.0145905
658.270	0.0144931
658.348	0.0145135
658.426	0.0144409
658.504	0.0144935
658.582	0.0144685
658.660	0.0143295
658.738	0.0143211
658.817	0.0143547
658.895	0.0144855
658.973	0.0145768
659.051	0.0143718
659.129	0.0144309
659.207	0.0143934
659.285	0.0144989
659.363	0.0145277
659.442	0.0144396
659.520	0.0146131
659.598	0.0143903
659.676	0.0144366
659.754	0.0144861
659.832	0.0144765
659.910	0.0144321
659.988	0.0143841
660.067	0.0144187
660.145	0.0144501
660.223	0.0142577
660.301	0.0142677
660.379	0.0143916
660.457	0.0140928
660.535	0.0141727
660.613	0.0141432
660.692	0.0142557
660.770	0.0141800
660.848	0.0141388
660.926	0.0140533
661.004	0.0141197
661.082	0.0141679
661.160	0.0141062
661.238	0.0140549
661.317	0.0140936
661.395	0.0140531
661.473	0.0140244
661.551	0.0141953
661.629	0.0141335
661.707	0.0141882
661.785	0.0142458
661.863	0.0141029
661.942	0.0140959
662.020	0.0143369
662.098	0.0144283
662.176	0.0143211
662.254	0.0144580
662.332	0.0143905
662.410	0.0144425
662.488	0.0144199
662.567	0.0143789
662.645	0.0145033
662.723	0.0143546
662.801	0.0145593
662.879	0.0145453
662.957	0.0144590
663.035	0.0145185
663.113	0.0145214
663.192	0.0144900
663.270	0.0145458
663.348	0.0144292
663.426	0.0143880
663.504	0.0145201
663.582	0.0144105
663.660	0.0143021
663.738	0.0143015
663.817	0.0143209
663.895	0.0144032
663.973	0.0143992
664.051	0.0143031
664.129	0.0142046
664.207	0.0141981
664.285	0.0142937
664.363	0.0143356
664.442	0.0142173
664.520	0.0143983
664.598	0.0140302
664.676	0.0142879
664.754	0.0142532
664.832	0.0141100
664.910	0.0141279
664.988	0.0143430
665.067	0.0144048
665.145	0.0141316
665.223	0.0142943
665.301	0.0141413
665.379	0.0141393
665.457	0.0142508
665.535	0.0142644
665.613	0.0142666
665.692	0.0142358
665.770	0.0141992
665.848	0.0141815
665.926	0.0143028
666.004	0.0144016
666.082	0.0142273
666.160	0.0142582
666.238	0.0143020
666.317	0.0142422
666.395	0.0143301
666.473	0.0142030
666.551	0.0142513
666.629	0.0142468
666.707	0.0143011
666.785	0.0141682
666.863	0.0142520
666.942	0.0142632
667.020	0.0142509
667.098	0.0140932
667.176	0.0142175
667.254	0.0142314
667.332	0.0142116
667.410	0.0143410
667.488	0.0143574
667.567	0.0143303
667.645	0.0142238
667.723	0.0142897
667.801	0.0144269
667.879	0.0144187
667.957	0.0142419
668.035	0.0143916
668.113	0.0145110
668.192	0.0145370
668.270	0.0145574
668.348	0.0144906
668.426	0.0145107
668.504	0.0145567
668.582	0.0144920
668.660	0.0145632
668.738	0.0146787
668.817	0.0145327
668.895	0.0146253
668.973	0.0146810
669.051	0.0147672
669.129	0.0147857
669.207	0.0146915
669.285	0.0148093
669.363	0.0148491
669.442	0.0148242
669.520	0.0148328
669.598	0.0148479
669.676	0.0148190
669.754	0.0147284
669.832	0.0147793
669.910	0.0146030
669.988	0.0147579
670.067	0.0146567
670.145	0.0146754
670.223	0.0144119
670.301	0.0144478
670.379	0.0144785
670.457	0.0143379
670.535	0.0142354
670.613	0.0141704
670.692	0.0142040
670.770	0.0140444
670.848	0.0141514
670.926	0.0139301
671.004	0.0139465
671.082	0.0139305
671.160	0.0137673
671.238	0.0137556
671.317	0.0137556
671.395	0.0137827
671.473	0.0137349
671.551	0.0136430
671.629	0.0138477
671.707	0.0138564
671.785	0.0137727
671.863	0.0138807
671.942	0.0138817
672.020	0.0140227
672.098	0.0142249
672.176	0.0141740
672.254	0.0144264
672.332	0.0144933
672.410	0.0146589
672.488	0.0146301
672.567	0.0147366
672.645	0.0148707
672.723	0.0149626
672.801	0.0149731
672.879	0.0150527
672.957	0.0150652
673.035	0.0152310
673.113	0.0152911
673.192	0.0152897
673.270	0.0152060
673.348	0.0152229
673.426	0.0150856
673.504	0.0150821
673.582	0.0150232
673.660	0.0149628
673.738	0.0148749
673.817	0.0148362
673.895	0.0146526
673.973	0.0145129
674.051	0.0143851
674.129	0.0143111
674.207	0.0143377
674.285	0.0142078
674.363	0.0142162
674.442	0.0140384
674.520	0.0140705
674.598	0.0138419
674.676	0.0138964
674.754	0.0139063
674.832	0.0139442
674.910	0.0139917
674.988	0.0138895
675.067	0.0139264
675.145	0.0141232
675.223	0.0141722
675.301	0.0140880
675.379	0.0141747
675.457	0.0142410
675.535	0.0142991
675.613	0.0143750
675.692	0.0144229
675.770	0.0143649
675.848	0.0143071
675.926	0.0143366
676.004	0.0144061
676.082	0.0143343
676.160	0.0143769
676.238	0.0144478
676.317	0.0143911
676.395	0.0143662
676.473	0.0142048
676.551	0.0143597
676.629	0.0143314
676.707	0.0144096
676.785	0.0144674
676.863	0.0144643
676.942	0.0144228
677.020	0.0142712
677.098	0.0144540
677.176	0.0145390
677.254	0.0145930
677.332	0.0146051
677.410	0.0145004
677.488	0.0145845
677.567	0.0147771
677.645	0.0146925
677.723	0.0146203
677.801	0.0146236
677.879	0.0146104
677.957	0.0146707
678.035	0.0147669
678.113	0.0145938
678.192	0.0146289
678.270	0.0145171
678.348	0.0146235
678.426	0.0145668
678.504	0.0144960
678.582	0.0145181
678.660	0.0144701
678.738	0.0144437
678.817	0.0144630
678.895	0.0145070
678.973	0.0143600
679.051	0.0143433
679.129	0.0143462
679.207	0.0144892
679.285	0.0145061
679.363	0.0143252
679.442	0.0144289
679.520	0.0143742
679.598	0.0143625
679.676	0.0143076
679.754	0.0142450
679.832	0.0144968
679.910	0.0144062
679.988	0.0143153
680.067	0.0143658
680.145	0.0143389
680.223	0.0143767
680.301	0.0143829
680.379	0.0142886
680.457	0.0143369
680.535	0.0142978
680.613	0.0142856
680.692	0.0143600
680.770	0.0143708
680.848	0.0144545
680.926	0.0143867
681.004	0.0144888
681.082	0.0144326
681.160	0.0143177
681.238	0.0143321
681.317	0.0145314
681.395	0.0143765
681.473	0.0145099
681.551	0.0145325
681.629	0.0144334
681.707	0.0142814
681.785	0.0143208
681.863	0.0142399
681.942	0.0140933
682.020	0.0142944
682.098	0.0142184
682.176	0.0141540
682.254	0.0140468
682.332	0.0141170
682.410	0.0140619
682.488	0.0141120
682.567	0.0141975
682.645	0.0141096
682.723	0.0141044
682.801	0.0143402
682.879	0.0142461
682.957	0.0142802
683.035	0.0144268
683.113	0.0143347
683.192	0.0143927
683.270	0.0144899
683.348	0.0145594
683.426	0.0144485
683.504	0.0144940
683.582	0.0146829
683.660	0.0146307
683.738	0.0146663
683.817	0.0145583
683.895	0.0147466
683.973	0.0146335
684.051	0.0148294
684.129	0.0147938
684.207	0.0146404
684.285	0.0146616
684.363	0.0146566
684.442	0.0147445
684.520	0.0146375
684.598	0.0144835
684.676	0.0146331
684.754	0.0146512
684.832	0.0144700
684.910	0.0144075
684.988	0.0143367
685.067	0.0142656
685.145	0.0142719
685.223	0.0140445
685.301	0.0140655
685.379	0.0141451
685.457	0.0141367
685.535	0.0140444
685.613	0.0139940
685.692	0.0140622
