05/28/2022	14:34:57	Ver.	4.1	UNKNOWN
Optical Delay	599.988409	Delta X		0.078125	Sweeps	1	Scan Rate	0/0
Coordinates	Axis 1	NaN	Axis 2	NaN	Axis 3	NaN	Axis 4	NaN	Axis 5	NaN	Axis 6	0.000000
TX Power	0.000000	RX Power	0.000000

599.988	0.0144607
600.067	0.0146283
600.145	0.0144122
600.223	0.0143635
600.301	0.0143774
600.379	0.0144788
600.457	0.0144851
600.535	0.0145477
600.613	0.0145206
600.692	0.0142922
600.770	0.0145386
600.848	0.0145703
600.926	0.0143475
601.004	0.0143931
601.082	0.0146005
601.160	0.0145918
601.238	0.0144703
601.317	0.0144506
601.395	0.0143884
601.473	0.0145705
601.551	0.0143752
601.629	0.0145332
601.707	0.0145267
601.785	0.0145152
601.863	0.0145369
601.942	0.0144573
602.020	0.0143916
602.098	0.0145168
602.176	0.0144181
602.254	0.0143800
602.332	0.0143981
602.410	0.0145393
602.488	0.0146090
602.567	0.0144164
602.645	0.0144146
602.723	0.0145139
602.801	0.0144196
602.879	0.0144535
602.957	0.0145026
603.035	0.0144487
603.113	0.0144528
603.192	0.0144378
603.270	0.0145280
603.348	0.0144527
603.426	0.0144843
603.504	0.0145335
603.582	0.0145758
603.660	0.0144748
603.738	0.0145269
603.817	0.0146219
603.895	0.0146301
603.973	0.0145288
604.051	0.0146066
604.129	0.0145413
604.207	0.0146347
604.285	0.0146748
604.363	0.0146080
604.442	0.0145153
604.520	0.0146165
604.598	0.0145014
604.676	0.0145200
604.754	0.0145146
604.832	0.0145184
604.910	0.0145665
604.988	0.0144328
605.067	0.0145696
605.145	0.0144173
605.223	0.0145724
605.301	0.0146166
605.379	0.0146794
605.457	0.0145731
605.535	0.0145517
605.613	0.0145108
605.692	0.0144682
605.770	0.0144895
605.848	0.0146207
605.926	0.0147058
606.004	0.0146396
606.082	0.0145862
606.160	0.0147482
606.238	0.0145820
606.317	0.0146037
606.395	0.0146013
606.473	0.0145769
606.551	0.0146394
606.629	0.0145368
606.707	0.0145810
606.785	0.0145989
606.863	0.0146040
606.942	0.0145974
607.020	0.0145786
607.098	0.0144992
607.176	0.0146029
607.254	0.0145657
607.332	0.0146983
607.410	0.0145709
607.488	0.0146509
607.567	0.0145480
607.645	0.0145788
607.723	0.0147587
607.801	0.0145864
607.879	0.0146297
607.957	0.0148606
608.035	0.0145412
608.113	0.0143736
608.192	0.0146611
608.270	0.0147471
608.348	0.0146763
608.426	0.0146550
608.504	0.0145779
608.582	0.0146207
608.660	0.0147454
608.738	0.0145408
608.817	0.0145466
608.895	0.0147906
608.973	0.0146046
609.051	0.0146532
609.129	0.0145937
609.207	0.0144775
609.285	0.0144787
609.363	0.0145275
609.442	0.0146199
609.520	0.0144909
609.598	0.0145721
609.676	0.0145436
609.754	0.0144357
609.832	0.0145831
609.910	0.0145969
609.988	0.0145583
610.067	0.0145207
610.145	0.0145709
610.223	0.0146018
610.301	0.0145538
610.379	0.0145638
610.457	0.0144792
610.535	0.0144269
610.613	0.0144641
610.692	0.0144960
610.770	0.0145137
610.848	0.0144530
610.926	0.0144476
611.004	0.0144955
611.082	0.0144065
611.160	0.0143420
611.238	0.0145844
611.317	0.0145107
611.395	0.0143777
611.473	0.0144340
611.551	0.0144328
611.629	0.0146813
611.707	0.0144906
611.785	0.0143076
611.863	0.0145410
611.942	0.0144907
612.020	0.0143880
612.098	0.0143830
612.176	0.0145869
612.254	0.0144852
612.332	0.0144865
612.410	0.0144681
612.488	0.0145873
612.567	0.0144910
612.645	0.0143991
612.723	0.0143459
612.801	0.0145451
612.879	0.0144376
612.957	0.0144727
613.035	0.0144351
613.113	0.0145126
613.192	0.0146526
613.270	0.0145042
613.348	0.0145035
613.426	0.0145638
613.504	0.0145946
613.582	0.0146463
613.660	0.0145369
613.738	0.0146067
613.817	0.0145991
613.895	0.0144810
613.973	0.0146143
614.051	0.0144993
614.129	0.0144580
614.207	0.0146996
614.285	0.0145996
614.363	0.0145690
614.442	0.0144969
614.520	0.0145190
614.598	0.0144975
614.676	0.0145562
614.754	0.0145281
614.832	0.0144119
614.910	0.0145408
614.988	0.0144587
615.067	0.0145531
615.145	0.0145629
615.223	0.0145226
615.301	0.0144225
615.379	0.0144930
615.457	0.0144186
615.535	0.0144319
615.613	0.0144112
615.692	0.0145994
615.770	0.0145990
615.848	0.0143832
615.926	0.0145216
616.004	0.0144227
616.082	0.0144476
616.160	0.0144576
616.238	0.0144997
616.317	0.0143455
616.395	0.0143384
616.473	0.0143252
616.551	0.0143164
616.629	0.0142944
616.707	0.0143038
616.785	0.0143360
616.863	0.0143401
616.942	0.0143858
617.020	0.0142317
617.098	0.0142024
617.176	0.0144371
617.254	0.0143703
617.332	0.0142479
617.410	0.0142716
617.488	0.0143011
617.567	0.0144713
617.645	0.0145598
617.723	0.0143153
617.801	0.0143093
617.879	0.0143929
617.957	0.0144210
618.035	0.0144280
618.113	0.0144509
618.192	0.0144022
618.270	0.0144464
618.348	0.0145106
618.426	0.0143893
618.504	0.0144448
618.582	0.0146323
618.660	0.0146328
618.738	0.0145970
618.817	0.0145187
618.895	0.0146339
618.973	0.0145787
619.051	0.0146607
619.129	0.0147012
619.207	0.0146420
619.285	0.0147664
619.363	0.0146918
619.442	0.0145309
619.520	0.0146771
619.598	0.0144514
619.676	0.0144595
619.754	0.0145622
619.832	0.0145818
619.910	0.0145144
619.988	0.0146639
620.067	0.0145454
620.145	0.0145901
620.223	0.0145634
620.301	0.0145240
620.379	0.0145973
620.457	0.0145145
620.535	0.0145300
620.613	0.0145505
620.692	0.0145982
620.770	0.0146493
620.848	0.0145512
620.926	0.0145679
621.004	0.0144873
621.082	0.0143842
621.160	0.0146030
621.238	0.0145353
621.317	0.0145999
621.395	0.0145011
621.473	0.0146999
621.551	0.0144739
621.629	0.0145591
621.707	0.0146444
621.785	0.0146579
621.863	0.0145079
621.942	0.0147118
622.020	0.0146928
622.098	0.0146088
622.176	0.0147362
622.254	0.0147257
622.332	0.0146848
622.410	0.0147054
622.488	0.0146832
622.567	0.0147809
622.645	0.0147437
622.723	0.0147585
622.801	0.0146943
622.879	0.0145607
622.957	0.0144801
623.035	0.0144956
623.113	0.0143691
623.192	0.0144567
623.270	0.0144077
623.348	0.0142804
623.426	0.0143266
623.504	0.0142816
623.582	0.0142048
623.660	0.0142929
623.738	0.0143346
623.817	0.0142977
623.895	0.0144364
623.973	0.0143821
624.051	0.0144540
624.129	0.0144322
624.207	0.0146245
624.285	0.0145205
624.363	0.0145766
624.442	0.0145091
624.520	0.0146242
624.598	0.0145661
624.676	0.0144965
624.754	0.0145394
624.832	0.0146080
624.910	0.0145573
624.988	0.0144582
625.067	0.0145673
625.145	0.0146121
625.223	0.0144669
625.301	0.0143647
625.379	0.0144550
625.457	0.0143766
625.535	0.0142484
625.613	0.0143276
625.692	0.0142323
625.770	0.0143082
625.848	0.0142886
625.926	0.0142091
626.004	0.0141769
626.082	0.0140598
626.160	0.0140596
626.238	0.0140321
626.317	0.0139716
626.395	0.0140368
626.473	0.0140272
626.551	0.0139724
626.629	0.0141536
626.707	0.0141453
626.785	0.0141445
626.863	0.0142130
626.942	0.0144803
627.020	0.0145333
627.098	0.0145470
627.176	0.0146082
627.254	0.0145918
627.332	0.0147770
627.410	0.0148260
627.488	0.0148665
627.567	0.0148402
627.645	0.0148197
627.723	0.0148043
627.801	0.0147975
627.879	0.0147338
627.957	0.0146909
628.035	0.0146763
628.113	0.0146665
628.192	0.0146793
628.270	0.0145266
628.348	0.0145842
628.426	0.0145327
628.504	0.0144759
628.582	0.0145763
628.660	0.0145126
628.738	0.0143706
628.817	0.0142573
628.895	0.0143795
628.973	0.0143464
629.051	0.0142580
629.129	0.0142315
629.207	0.0142722
629.285	0.0143069
629.363	0.0145496
629.442	0.0145195
629.520	0.0144638
629.598	0.0145374
629.676	0.0145433
629.754	0.0145425
629.832	0.0146173
629.910	0.0145893
629.988	0.0146021
630.067	0.0146705
630.145	0.0146438
630.223	0.0145337
630.301	0.0145425
630.379	0.0145771
630.457	0.0144324
630.535	0.0144796
630.613	0.0146033
630.692	0.0144627
630.770	0.0144817
630.848	0.0143633
630.926	0.0144620
631.004	0.0144902
631.082	0.0144537
631.160	0.0143707
631.238	0.0143570
631.317	0.0143053
631.395	0.0143916
631.473	0.0142760
631.551	0.0142734
631.629	0.0143392
631.707	0.0142761
631.785	0.0143147
631.863	0.0144049
631.942	0.0144241
632.020	0.0143634
632.098	0.0143482
632.176	0.0143723
632.254	0.0144408
632.332	0.0144148
632.410	0.0146833
632.488	0.0146731
632.567	0.0145535
632.645	0.0147339
632.723	0.0147692
632.801	0.0146640
632.879	0.0146342
632.957	0.0146710
633.035	0.0146947
633.113	0.0146648
633.192	0.0146921
633.270	0.0146684
633.348	0.0146441
633.426	0.0146535
633.504	0.0146061
633.582	0.0145404
633.660	0.0144355
633.738	0.0145618
633.817	0.0143202
633.895	0.0143574
633.973	0.0144298
634.051	0.0142695
634.129	0.0143291
634.207	0.0144143
634.285	0.0143047
634.363	0.0142764
634.442	0.0142646
634.520	0.0144917
634.598	0.0145309
634.676	0.0143159
634.754	0.0143174
634.832	0.0144977
634.910	0.0144955
634.988	0.0144402
635.067	0.0143846
635.145	0.0145703
635.223	0.0145856
635.301	0.0145017
635.379	0.0145498
635.457	0.0145697
635.535	0.0145695
635.613	0.0144772
635.692	0.0145086
635.770	0.0144406
635.848	0.0144804
635.926	0.0144740
636.004	0.0145609
636.082	0.0145178
636.160	0.0146016
636.238	0.0145548
636.317	0.0145298
636.395	0.0146784
636.473	0.0145184
636.551	0.0145335
636.629	0.0145895
636.707	0.0146407
636.785	0.0145530
636.863	0.0146149
636.942	0.0146091
637.020	0.0145522
637.098	0.0146134
637.176	0.0146520
637.254	0.0144346
637.332	0.0144503
637.410	0.0145689
637.488	0.0144000
637.567	0.0143841
637.645	0.0144367
637.723	0.0143777
637.801	0.0145571
637.879	0.0143991
637.957	0.0144101
638.035	0.0143554
638.113	0.0143748
638.192	0.0144994
638.270	0.0145628
638.348	0.0145348
638.426	0.0145205
638.504	0.0144832
638.582	0.0145078
638.660	0.0144859
638.738	0.0147272
638.817	0.0145116
638.895	0.0144556
638.973	0.0145187
639.051	0.0144138
639.129	0.0144070
639.207	0.0144043
639.285	0.0142711
639.363	0.0143478
639.442	0.0145016
639.520	0.0145222
639.598	0.0143903
639.676	0.0143358
639.754	0.0143695
639.832	0.0144460
639.910	0.0143105
639.988	0.0142522
640.067	0.0143587
640.145	0.0141977
640.223	0.0142741
640.301	0.0143990
640.379	0.0144471
640.457	0.0143330
640.535	0.0143578
640.613	0.0144212
640.692	0.0143938
640.770	0.0143884
640.848	0.0145666
640.926	0.0144058
641.004	0.0146389
641.082	0.0144662
641.160	0.0145392
641.238	0.0143201
641.317	0.0145181
641.395	0.0145427
641.473	0.0143586
641.551	0.0143965
641.629	0.0144189
641.707	0.0144991
641.785	0.0146406
641.863	0.0146049
641.942	0.0144939
642.020	0.0143501
642.098	0.0143280
642.176	0.0145424
642.254	0.0145707
642.332	0.0144794
642.410	0.0145811
642.488	0.0146391
642.567	0.0144292
642.645	0.0145256
642.723	0.0145467
642.801	0.0145281
642.879	0.0144313
642.957	0.0145098
643.035	0.0145065
643.113	0.0143948
643.192	0.0144041
643.270	0.0143827
643.348	0.0143702
643.426	0.0144521
643.504	0.0144576
643.582	0.0144257
643.660	0.0144357
643.738	0.0145377
643.817	0.0144872
643.895	0.0145383
643.973	0.0146825
644.051	0.0146184
644.129	0.0147542
644.207	0.0145579
644.285	0.0145718
644.363	0.0147169
644.442	0.0145916
644.520	0.0145427
644.598	0.0145845
644.676	0.0147600
644.754	0.0146929
644.832	0.0145879
644.910	0.0145695
644.988	0.0145415
645.067	0.0146038
645.145	0.0146132
645.223	0.0145550
645.301	0.0144898
645.379	0.0145664
645.457	0.0145410
645.535	0.0145688
645.613	0.0145507
645.692	0.0145935
645.770	0.0147405
645.848	0.0147108
645.926	0.0147358
646.004	0.0146205
646.082	0.0146693
646.160	0.0147876
646.238	0.0146904
646.317	0.0148299
646.395	0.0147395
646.473	0.0147411
646.551	0.0146471
646.629	0.0145864
646.707	0.0148307
646.785	0.0147558
646.863	0.0147024
646.942	0.0145679
647.020	0.0147180
647.098	0.0147110
647.176	0.0146590
647.254	0.0147223
647.332	0.0144631
647.410	0.0145654
647.488	0.0146054
647.567	0.0145189
647.645	0.0145058
647.723	0.0145657
647.801	0.0144765
647.879	0.0144442
647.957	0.0144826
648.035	0.0145725
648.113	0.0145540
648.192	0.0145495
648.270	0.0146220
648.348	0.0146049
648.426	0.0144402
648.504	0.0145862
648.582	0.0145797
648.660	0.0145655
648.738	0.0145140
648.817	0.0143974
648.895	0.0145679
648.973	0.0145264
649.051	0.0144079
649.129	0.0142952
649.207	0.0144177
649.285	0.0142871
649.363	0.0143839
649.442	0.0142651
649.520	0.0142513
649.598	0.0142400
649.676	0.0142250
649.754	0.0141336
649.832	0.0142384
649.910	0.0143171
649.988	0.0142102
650.067	0.0142243
650.145	0.0144690
650.223	0.0144367
650.301	0.0144343
650.379	0.0144362
650.457	0.0143939
650.535	0.0142944
650.613	0.0144405
650.692	0.0143511
650.770	0.0144681
650.848	0.0144399
650.926	0.0142586
651.004	0.0143879
651.082	0.0145099
651.160	0.0145155
651.238	0.0143436
651.317	0.0145469
651.395	0.0145605
651.473	0.0145325
651.551	0.0144199
651.629	0.0144273
651.707	0.0145498
651.785	0.0145963
651.863	0.0143740
651.942	0.0145850
652.020	0.0146577
652.098	0.0146349
652.176	0.0144665
652.254	0.0145167
652.332	0.0145376
652.410	0.0144445
652.488	0.0145662
652.567	0.0145092
652.645	0.0146214
652.723	0.0144698
652.801	0.0144292
652.879	0.0144530
652.957	0.0144642
653.035	0.0143152
653.113	0.0144337
653.192	0.0142365
653.270	0.0141787
653.348	0.0141213
653.426	0.0142215
653.504	0.0141820
653.582	0.0140631
653.660	0.0142443
653.738	0.0141885
653.817	0.0141013
653.895	0.0141871
653.973	0.0142712
654.051	0.0142584
654.129	0.0142131
654.207	0.0142553
654.285	0.0143481
654.363	0.0144700
654.442	0.0143932
654.520	0.0143932
654.598	0.0144630
654.676	0.0144440
654.754	0.0143815
654.832	0.0145120
654.910	0.0145187
654.988	0.0144860
655.067	0.0146767
655.145	0.0146935
655.223	0.0146988
655.301	0.0147485
655.379	0.0145808
655.457	0.0147584
655.535	0.0147619
655.613	0.0146302
655.692	0.0146198
655.770	0.0146162
655.848	0.0146538
655.926	0.0144715
656.004	0.0145969
656.082	0.0146519
656.160	0.0144874
656.238	0.0145347
656.317	0.0145370
656.395	0.0145306
656.473	0.0145322
656.551	0.0145871
656.629	0.0144688
656.707	0.0144970
656.785	0.0144270
656.863	0.0143867
656.942	0.0143777
657.020	0.0144582
657.098	0.0144324
657.176	0.0144738
657.254	0.0144421
657.332	0.0143356
657.410	0.0142885
657.488	0.0143896
657.567	0.0145300
657.645	0.0143113
657.723	0.0143542
657.801	0.0144809
657.879	0.0143049
657.957	0.0145083
658.035	0.0144208
658.113	0.0143471
658.192	0.0144759
658.270	0.0144036
658.348	0.0144027
658.426	0.0143961
658.504	0.0144052
658.582	0.0143587
658.660	0.0144846
658.738	0.0143825
658.817	0.0143081
658.895	0.0144868
658.973	0.0144365
659.051	0.0143681
659.129	0.0143682
659.207	0.0143799
659.285	0.0145326
659.363	0.0144436
659.442	0.0141716
659.520	0.0144335
659.598	0.0143924
659.676	0.0143716
659.754	0.0143437
659.832	0.0144112
659.910	0.0142123
659.988	0.0142362
660.067	0.0143333
660.145	0.0143921
660.223	0.0143623
660.301	0.0142245
660.379	0.0142342
660.457	0.0140988
660.535	0.0140336
660.613	0.0141455
660.692	0.0141328
660.770	0.0141843
660.848	0.0141913
660.926	0.0140539
661.004	0.0141246
661.082	0.0140336
661.160	0.0141417
661.238	0.0141533
661.317	0.0141938
661.395	0.0141502
661.473	0.0142441
661.551	0.0142128
661.629	0.0143771
661.707	0.0145324
661.785	0.0144312
661.863	0.0144173
661.942	0.0144469
662.020	0.0144479
662.098	0.0145380
662.176	0.0146063
662.254	0.0144872
662.332	0.0146037
662.410	0.0146465
662.488	0.0146555
662.567	0.0145379
662.645	0.0147247
662.723	0.0146791
662.801	0.0145882
662.879	0.0146001
662.957	0.0147256
663.035	0.0146780
663.113	0.0145937
663.192	0.0146812
663.270	0.0146781
663.348	0.0146937
663.426	0.0145770
663.504	0.0146595
663.582	0.0147467
663.660	0.0146258
663.738	0.0146347
663.817	0.0144421
663.895	0.0144379
663.973	0.0145120
664.051	0.0145589
664.129	0.0144687
664.207	0.0142496
664.285	0.0143986
664.363	0.0144397
664.442	0.0143182
664.520	0.0141801
664.598	0.0145125
664.676	0.0145136
664.754	0.0143624
664.832	0.0144045
664.910	0.0145107
664.988	0.0145066
665.067	0.0143227
665.145	0.0145749
665.223	0.0145901
665.301	0.0145432
665.379	0.0143612
665.457	0.0146313
665.535	0.0144767
665.613	0.0144521
665.692	0.0144466
665.770	0.0145308
665.848	0.0145685
665.926	0.0144187
666.004	0.0145381
666.082	0.0145209
666.160	0.0145084
666.238	0.0146207
666.317	0.0146214
666.395	0.0145505
666.473	0.0146417
666.551	0.0144876
666.629	0.0144794
666.707	0.0144127
666.785	0.0144871
666.863	0.0144912
666.942	0.0144561
667.020	0.0144785
667.098	0.0143249
667.176	0.0144406
667.254	0.0143550
667.332	0.0145826
667.410	0.0145339
667.488	0.0146185
667.567	0.0144852
667.645	0.0143311
667.723	0.0145517
667.801	0.0147256
667.879	0.0145583
667.957	0.0146981
668.035	0.0145829
668.113	0.0146628
668.192	0.0146400
668.270	0.0145792
668.348	0.0147678
668.426	0.0146931
668.504	0.0147648
668.582	0.0147108
668.660	0.0145761
668.738	0.0147775
668.817	0.0146091
668.895	0.0144672
668.973	0.0146752
669.051	0.0147301
669.129	0.0147197
669.207	0.0148089
669.285	0.0147849
669.363	0.0148194
669.442	0.0147933
669.520	0.0147453
669.598	0.0147501
669.676	0.0148936
669.754	0.0148576
669.832	0.0147848
669.910	0.0146970
669.988	0.0147285
670.067	0.0148669
670.145	0.0145643
670.223	0.0144798
670.301	0.0145512
670.379	0.0143949
670.457	0.0143632
670.535	0.0144493
670.613	0.0141846
670.692	0.0142516
670.770	0.0142783
670.848	0.0142387
670.926	0.0141788
671.004	0.0141991
671.082	0.0141605
671.160	0.0141930
671.238	0.0141040
671.317	0.0141709
671.395	0.0140855
671.473	0.0140577
671.551	0.0139688
671.629	0.0141208
671.707	0.0141724
671.785	0.0139972
671.863	0.0139820
671.942	0.0141631
672.020	0.0141466
672.098	0.0142035
672.176	0.0143259
672.254	0.0144206
672.332	0.0144402
672.410	0.0145092
672.488	0.0146988
672.567	0.0146578
672.645	0.0146782
672.723	0.0148562
672.801	0.0149504
672.879	0.0150429
672.957	0.0151586
673.035	0.0152139
673.113	0.0152232
673.192	0.0152348
673.270	0.0149583
673.348	0.0152187
673.426	0.0152264
673.504	0.0151018
673.582	0.0151072
673.660	0.0148666
673.738	0.0148468
673.817	0.0149760
673.895	0.0147739
673.973	0.0147717
674.051	0.0146558
674.129	0.0144622
674.207	0.0144781
674.285	0.0142451
674.363	0.0142415
674.442	0.0142110
674.520	0.0142076
674.598	0.0139739
674.676	0.0141338
674.754	0.0140268
674.832	0.0139524
674.910	0.0139526
674.988	0.0139898
675.067	0.0139026
675.145	0.0140113
675.223	0.0139142
675.301	0.0139801
675.379	0.0140916
675.457	0.0140993
675.535	0.0141462
675.613	0.0141272
675.692	0.0142165
675.770	0.0143945
675.848	0.0143359
675.926	0.0143391
676.004	0.0144094
676.082	0.0143878
676.160	0.0143087
676.238	0.0144028
676.317	0.0144561
676.395	0.0144947
676.473	0.0144942
676.551	0.0143916
676.629	0.0145333
676.707	0.0146304
676.785	0.0146401
676.863	0.0146765
676.942	0.0145749
677.020	0.0147942
677.098	0.0147697
677.176	0.0145973
677.254	0.0146402
677.332	0.0148470
677.410	0.0149178
677.488	0.0148330
677.567	0.0147805
677.645	0.0147351
677.723	0.0147313
677.801	0.0146569
677.879	0.0146027
677.957	0.0147449
678.035	0.0145699
678.113	0.0146033
678.192	0.0145366
678.270	0.0145380
678.348	0.0145071
678.426	0.0145818
678.504	0.0145692
678.582	0.0145082
678.660	0.0143655
678.738	0.0144618
678.817	0.0144275
678.895	0.0142948
678.973	0.0143077
679.051	0.0142272
679.129	0.0143407
679.207	0.0143188
679.285	0.0142760
679.363	0.0142742
679.442	0.0143228
679.520	0.0144577
679.598	0.0143943
679.676	0.0144140
679.754	0.0144753
679.832	0.0142818
679.910	0.0142720
679.988	0.0143550
680.067	0.0142075
680.145	0.0143574
680.223	0.0142532
680.301	0.0143623
680.379	0.0142430
680.457	0.0142355
680.535	0.0144160
680.613	0.0145083
680.692	0.0145640
680.770	0.0145047
680.848	0.0145010
680.926	0.0143183
681.004	0.0144893
681.082	0.0146320
681.160	0.0145668
681.238	0.0145625
681.317	0.0144118
681.395	0.0144824
681.473	0.0144604
681.551	0.0143500
681.629	0.0144470
681.707	0.0144861
681.785	0.0144516
681.863	0.0144489
681.942	0.0143990
682.020	0.0144122
682.098	0.0144839
682.176	0.0142532
682.254	0.0141556
682.332	0.0144224
682.410	0.0142956
682.488	0.0143292
682.567	0.0143382
682.645	0.0143443
682.723	0.0143232
682.801	0.0144673
682.879	0.0144889
682.957	0.0144728
683.035	0.0142692
683.113	0.0144938
683.192	0.0146216
683.270	0.0147164
683.348	0.0145351
683.426	0.0147222
683.504	0.0148489
683.582	0.0146722
683.660	0.0146379
683.738	0.0148217
683.817	0.0148277
683.895	0.0148656
683.973	0.0148666
684.051	0.0148609
684.129	0.0149056
684.207	0.0149753
684.285	0.0149325
684.363	0.0148915
684.442	0.0149141
684.520	0.0148965
684.598	0.0148384
684.676	0.0147778
684.754	0.0148990
684.832	0.0148692
684.910	0.0147710
684.988	0.0147533
685.067	0.0143925
685.145	0.0145712
685.223	0.0144222
685.301	0.0142146
685.379	0.0141203
685.457	0.0142712
685.535	0.0140553
685.613	0.0139815
685.692	0.0140909
