05/28/2022	13:53:30	Ver.	4.1	UNKNOWN
Optical Delay	599.988409	Delta X		0.078125	Sweeps	1	Scan Rate	0/0
Coordinates	Axis 1	NaN	Axis 2	NaN	Axis 3	NaN	Axis 4	NaN	Axis 5	NaN	Axis 6	0.000000
TX Power	0.000000	RX Power	0.000000

599.988	0.0145393
600.067	0.0145472
600.145	0.0143893
600.223	0.0145712
600.301	0.0145292
600.379	0.0144459
600.457	0.0146196
600.535	0.0143894
600.613	0.0145819
600.692	0.0144794
600.770	0.0145739
600.848	0.0144223
600.926	0.0145435
601.004	0.0145409
601.082	0.0145617
601.160	0.0144070
601.238	0.0145371
601.317	0.0146118
601.395	0.0144818
601.473	0.0145699
601.551	0.0144803
601.629	0.0145737
601.707	0.0145617
601.785	0.0144944
601.863	0.0145657
601.942	0.0144489
602.020	0.0145312
602.098	0.0144927
602.176	0.0146250
602.254	0.0145878
602.332	0.0145307
602.410	0.0145721
602.488	0.0146104
602.567	0.0145874
602.645	0.0145568
602.723	0.0144071
602.801	0.0145837
602.879	0.0144736
602.957	0.0145139
603.035	0.0145616
603.113	0.0145377
603.192	0.0145692
603.270	0.0145469
603.348	0.0145017
603.426	0.0144797
603.504	0.0144491
603.582	0.0145815
603.660	0.0145513
603.738	0.0143785
603.817	0.0144918
603.895	0.0142899
603.973	0.0144571
604.051	0.0145197
604.129	0.0145402
604.207	0.0143692
604.285	0.0144209
604.363	0.0144601
604.442	0.0145688
604.520	0.0145560
604.598	0.0144214
604.676	0.0145992
604.754	0.0145222
604.832	0.0144046
604.910	0.0144953
604.988	0.0144948
605.067	0.0145276
605.145	0.0146104
605.223	0.0144783
605.301	0.0144148
605.379	0.0145158
605.457	0.0145822
605.535	0.0146093
605.613	0.0144487
605.692	0.0145458
605.770	0.0147369
605.848	0.0144814
605.926	0.0143548
606.004	0.0145180
606.082	0.0145304
606.160	0.0145359
606.238	0.0145084
606.317	0.0145430
606.395	0.0145364
606.473	0.0145220
606.551	0.0143747
606.629	0.0143800
606.707	0.0144981
606.785	0.0145550
606.863	0.0145383
606.942	0.0144578
607.020	0.0144907
607.098	0.0144825
607.176	0.0144653
607.254	0.0144958
607.332	0.0145073
607.410	0.0144128
607.488	0.0144366
607.567	0.0144324
607.645	0.0144723
607.723	0.0145525
607.801	0.0145262
607.879	0.0144494
607.957	0.0144800
608.035	0.0145045
608.113	0.0144617
608.192	0.0144416
608.270	0.0145079
608.348	0.0143811
608.426	0.0143849
608.504	0.0144035
608.582	0.0144930
608.660	0.0145618
608.738	0.0144476
608.817	0.0144917
608.895	0.0146021
608.973	0.0144880
609.051	0.0144379
609.129	0.0143311
609.207	0.0145464
609.285	0.0144432
609.363	0.0144715
609.442	0.0144136
609.520	0.0145006
609.598	0.0144860
609.676	0.0144838
609.754	0.0145230
609.832	0.0145279
609.910	0.0143924
609.988	0.0145739
610.067	0.0146084
610.145	0.0144316
610.223	0.0146199
610.301	0.0146002
610.379	0.0144769
610.457	0.0146067
610.535	0.0145426
610.613	0.0146011
610.692	0.0144848
610.770	0.0146235
610.848	0.0145348
610.926	0.0146159
611.004	0.0144714
611.082	0.0145277
611.160	0.0146638
611.238	0.0145949
611.317	0.0145359
611.395	0.0145202
611.473	0.0145678
611.551	0.0145869
611.629	0.0145933
611.707	0.0144074
611.785	0.0144735
611.863	0.0144868
611.942	0.0144960
612.020	0.0145087
612.098	0.0145032
612.176	0.0145355
612.254	0.0145736
612.332	0.0147769
612.410	0.0145064
612.488	0.0144257
612.567	0.0146181
612.645	0.0144745
612.723	0.0146445
612.801	0.0145392
612.879	0.0144759
612.957	0.0143638
613.035	0.0144718
613.113	0.0146819
613.192	0.0145185
613.270	0.0144942
613.348	0.0145983
613.426	0.0145934
613.504	0.0144695
613.582	0.0144519
613.660	0.0145392
613.738	0.0145341
613.817	0.0143784
613.895	0.0144723
613.973	0.0145620
614.051	0.0145278
614.129	0.0147005
614.207	0.0145810
614.285	0.0144479
614.363	0.0146062
614.442	0.0146255
614.520	0.0144830
614.598	0.0144616
614.676	0.0145567
614.754	0.0144288
614.832	0.0146632
614.910	0.0144286
614.988	0.0144434
615.067	0.0145677
615.145	0.0145221
615.223	0.0144508
615.301	0.0144417
615.379	0.0144746
615.457	0.0144786
615.535	0.0145466
615.613	0.0147141
615.692	0.0144157
615.770	0.0145876
615.848	0.0143595
615.926	0.0144769
616.004	0.0145551
616.082	0.0145028
616.160	0.0144660
616.238	0.0144906
616.317	0.0145964
616.395	0.0145038
616.473	0.0143877
616.551	0.0145691
616.629	0.0145239
616.707	0.0144272
616.785	0.0145952
616.863	0.0147475
616.942	0.0145036
617.020	0.0145911
617.098	0.0144748
617.176	0.0143767
617.254	0.0144754
617.332	0.0144386
617.410	0.0145286
617.488	0.0146350
617.567	0.0146100
617.645	0.0144043
617.723	0.0144353
617.801	0.0144971
617.879	0.0145518
617.957	0.0145292
618.035	0.0145254
618.113	0.0145171
618.192	0.0145284
618.270	0.0145818
618.348	0.0144690
618.426	0.0147115
618.504	0.0145534
618.582	0.0144838
618.660	0.0145050
618.738	0.0144910
618.817	0.0145606
618.895	0.0145950
618.973	0.0144387
619.051	0.0145579
619.129	0.0145967
619.207	0.0144265
619.285	0.0144936
619.363	0.0146067
619.442	0.0145120
619.520	0.0143752
619.598	0.0144597
619.676	0.0145518
619.754	0.0145539
619.832	0.0144646
619.910	0.0145870
619.988	0.0144976
620.067	0.0144379
620.145	0.0145332
620.223	0.0145035
620.301	0.0146018
620.379	0.0144234
620.457	0.0144861
620.535	0.0145573
620.613	0.0145785
620.692	0.0146091
620.770	0.0145135
620.848	0.0145535
620.926	0.0144508
621.004	0.0145140
621.082	0.0145206
621.160	0.0145346
621.238	0.0146062
621.317	0.0146040
621.395	0.0145460
621.473	0.0144371
621.551	0.0145479
621.629	0.0145318
621.707	0.0146569
621.785	0.0144294
621.863	0.0145507
621.942	0.0145329
622.020	0.0145400
622.098	0.0144649
622.176	0.0146381
622.254	0.0146357
622.332	0.0144950
622.410	0.0145259
622.488	0.0146226
622.567	0.0146092
622.645	0.0145123
622.723	0.0144456
622.801	0.0144879
622.879	0.0144308
622.957	0.0145757
623.035	0.0145395
623.113	0.0144524
623.192	0.0145519
623.270	0.0143872
623.348	0.0144573
623.426	0.0145219
623.504	0.0145408
623.582	0.0145470
623.660	0.0146567
623.738	0.0145335
623.817	0.0146114
623.895	0.0145152
623.973	0.0144257
624.051	0.0145206
624.129	0.0145333
624.207	0.0145578
624.285	0.0143765
624.363	0.0144011
624.442	0.0144986
624.520	0.0146139
624.598	0.0144958
624.676	0.0145285
624.754	0.0144816
624.832	0.0145093
624.910	0.0144908
624.988	0.0144902
625.067	0.0145177
625.145	0.0146073
625.223	0.0144736
625.301	0.0144940
625.379	0.0145493
625.457	0.0145596
625.535	0.0144444
625.613	0.0145113
625.692	0.0143979
625.770	0.0146437
625.848	0.0146607
625.926	0.0144643
626.004	0.0144475
626.082	0.0144540
626.160	0.0146253
626.238	0.0146012
626.317	0.0144725
626.395	0.0146680
626.473	0.0144865
626.551	0.0145221
626.629	0.0144033
626.707	0.0144320
626.785	0.0144048
626.863	0.0144798
626.942	0.0145210
627.020	0.0145011
627.098	0.0144523
627.176	0.0145131
627.254	0.0144159
627.332	0.0145107
627.410	0.0145467
627.488	0.0145335
627.567	0.0145117
627.645	0.0145087
627.723	0.0143916
627.801	0.0145422
627.879	0.0144745
627.957	0.0144569
628.035	0.0145566
628.113	0.0144288
628.192	0.0146270
628.270	0.0145260
628.348	0.0144530
628.426	0.0146285
628.504	0.0144601
628.582	0.0145020
628.660	0.0145099
628.738	0.0144742
628.817	0.0145091
628.895	0.0144502
628.973	0.0143845
629.051	0.0146303
629.129	0.0145582
629.207	0.0144439
629.285	0.0144808
629.363	0.0144769
629.442	0.0145388
629.520	0.0145487
629.598	0.0144871
629.676	0.0144776
629.754	0.0145784
629.832	0.0145260
629.910	0.0145055
629.988	0.0144971
630.067	0.0144432
630.145	0.0145514
630.223	0.0144655
630.301	0.0145412
630.379	0.0144086
630.457	0.0144537
630.535	0.0145679
630.613	0.0146037
630.692	0.0144659
630.770	0.0144508
630.848	0.0144746
630.926	0.0144358
631.004	0.0143766
631.082	0.0143847
631.160	0.0145258
631.238	0.0146695
631.317	0.0145288
631.395	0.0145151
631.473	0.0145058
631.551	0.0145708
631.629	0.0145042
631.707	0.0144202
631.785	0.0145326
631.863	0.0144868
631.942	0.0144601
632.020	0.0144025
632.098	0.0144611
632.176	0.0145395
632.254	0.0144028
632.332	0.0144969
632.410	0.0145742
632.488	0.0145280
632.567	0.0144641
632.645	0.0145285
632.723	0.0144787
632.801	0.0144552
632.879	0.0144566
632.957	0.0145418
633.035	0.0145236
633.113	0.0143487
633.192	0.0143690
633.270	0.0144817
633.348	0.0145470
633.426	0.0145152
633.504	0.0144403
633.582	0.0145879
633.660	0.0144797
633.738	0.0145121
633.817	0.0145553
633.895	0.0143900
633.973	0.0144608
634.051	0.0144955
634.129	0.0144795
634.207	0.0146310
634.285	0.0144773
634.363	0.0143775
634.442	0.0145568
634.520	0.0146039
634.598	0.0145619
634.676	0.0146246
634.754	0.0145596
634.832	0.0145335
634.910	0.0146794
634.988	0.0145470
635.067	0.0145130
635.145	0.0144036
635.223	0.0143143
635.301	0.0143947
635.379	0.0145864
635.457	0.0144093
635.535	0.0144978
635.613	0.0146170
635.692	0.0144614
635.770	0.0145537
635.848	0.0145303
635.926	0.0144138
636.004	0.0145148
636.082	0.0146270
636.160	0.0145005
636.238	0.0145918
636.317	0.0146206
636.395	0.0146213
636.473	0.0145473
636.551	0.0145108
636.629	0.0143589
636.707	0.0144732
636.785	0.0145663
636.863	0.0145229
636.942	0.0144263
637.020	0.0145387
637.098	0.0145393
637.176	0.0145100
637.254	0.0145429
637.332	0.0144109
637.410	0.0145497
637.488	0.0145504
637.567	0.0144280
637.645	0.0145902
637.723	0.0145399
637.801	0.0144241
637.879	0.0144295
637.957	0.0145705
638.035	0.0144768
638.113	0.0145644
638.192	0.0145244
638.270	0.0146150
638.348	0.0144952
638.426	0.0144457
638.504	0.0144611
638.582	0.0145772
638.660	0.0145801
638.738	0.0144852
638.817	0.0143459
638.895	0.0144836
638.973	0.0145945
639.051	0.0145067
639.129	0.0145434
639.207	0.0145843
639.285	0.0144363
639.363	0.0143648
639.442	0.0145645
639.520	0.0144473
639.598	0.0145119
639.676	0.0145334
639.754	0.0144794
639.832	0.0145022
639.910	0.0144038
639.988	0.0145438
640.067	0.0144624
640.145	0.0144765
640.223	0.0144363
640.301	0.0144972
640.379	0.0144719
640.457	0.0144471
640.535	0.0145708
640.613	0.0146102
640.692	0.0145095
640.770	0.0145412
640.848	0.0145284
640.926	0.0145213
641.004	0.0144984
641.082	0.0145486
641.160	0.0144790
641.238	0.0145666
641.317	0.0144731
641.395	0.0145374
641.473	0.0145568
641.551	0.0146411
641.629	0.0143641
641.707	0.0144578
641.785	0.0145517
641.863	0.0145703
641.942	0.0144434
642.020	0.0144801
642.098	0.0145420
642.176	0.0145444
642.254	0.0145242
642.332	0.0145634
642.410	0.0143418
642.488	0.0146073
642.567	0.0145356
642.645	0.0144271
642.723	0.0145004
642.801	0.0145262
642.879	0.0145282
642.957	0.0146324
643.035	0.0145522
643.113	0.0144650
643.192	0.0144704
643.270	0.0144876
643.348	0.0145274
643.426	0.0144164
643.504	0.0145256
643.582	0.0144885
643.660	0.0145107
643.738	0.0145580
643.817	0.0144835
643.895	0.0146438
643.973	0.0145832
644.051	0.0144498
644.129	0.0145030
644.207	0.0145613
644.285	0.0145795
644.363	0.0143555
644.442	0.0144977
644.520	0.0145693
644.598	0.0144541
644.676	0.0145556
644.754	0.0145166
644.832	0.0144674
644.910	0.0145589
644.988	0.0145465
645.067	0.0146204
645.145	0.0145438
645.223	0.0144810
645.301	0.0143473
645.379	0.0143842
645.457	0.0145528
645.535	0.0146162
645.613	0.0144807
645.692	0.0143390
645.770	0.0145818
645.848	0.0145174
645.926	0.0144619
646.004	0.0144401
646.082	0.0145235
646.160	0.0145229
646.238	0.0145352
646.317	0.0145817
646.395	0.0144678
646.473	0.0144661
646.551	0.0145113
646.629	0.0144640
646.707	0.0144882
646.785	0.0145100
646.863	0.0144252
646.942	0.0145592
647.020	0.0145568
647.098	0.0144777
647.176	0.0144938
647.254	0.0145444
647.332	0.0145483
647.410	0.0144526
647.488	0.0145650
647.567	0.0143272
647.645	0.0144165
647.723	0.0144914
647.801	0.0145464
647.879	0.0145126
647.957	0.0143690
648.035	0.0145108
648.113	0.0145048
648.192	0.0144749
648.270	0.0144112
648.348	0.0144603
648.426	0.0145438
648.504	0.0143845
648.582	0.0143729
648.660	0.0144976
648.738	0.0143990
648.817	0.0145114
648.895	0.0144791
648.973	0.0143700
649.051	0.0145042
649.129	0.0146077
649.207	0.0144621
649.285	0.0143875
649.363	0.0144093
649.442	0.0144378
649.520	0.0145802
649.598	0.0145325
649.676	0.0144440
649.754	0.0145348
649.832	0.0145420
649.910	0.0144567
649.988	0.0145434
650.067	0.0145412
650.145	0.0144227
650.223	0.0144962
650.301	0.0145205
650.379	0.0144817
650.457	0.0145587
650.535	0.0144959
650.613	0.0144781
650.692	0.0145988
650.770	0.0145089
650.848	0.0144090
650.926	0.0144269
651.004	0.0145689
651.082	0.0145000
651.160	0.0145059
651.238	0.0144486
651.317	0.0144296
651.395	0.0144901
651.473	0.0145247
651.551	0.0145208
651.629	0.0145084
651.707	0.0144180
651.785	0.0144318
651.863	0.0144342
651.942	0.0145954
652.020	0.0146546
652.098	0.0144968
652.176	0.0145082
652.254	0.0145631
652.332	0.0145434
652.410	0.0144886
652.488	0.0144527
652.567	0.0145934
652.645	0.0145999
652.723	0.0145390
652.801	0.0145862
652.879	0.0144868
652.957	0.0144431
653.035	0.0146066
653.113	0.0145804
653.192	0.0145333
653.270	0.0144970
653.348	0.0145491
653.426	0.0144470
653.504	0.0144752
653.582	0.0145840
653.660	0.0145842
653.738	0.0144884
653.817	0.0144857
653.895	0.0144897
653.973	0.0144363
654.051	0.0145329
654.129	0.0146374
654.207	0.0145656
654.285	0.0144473
654.363	0.0145119
654.442	0.0145247
654.520	0.0145381
654.598	0.0145827
654.676	0.0145158
654.754	0.0144920
654.832	0.0145574
654.910	0.0145493
654.988	0.0145019
655.067	0.0145704
655.145	0.0145561
655.223	0.0144027
655.301	0.0142773
655.379	0.0145717
655.457	0.0146345
655.535	0.0144168
655.613	0.0144121
655.692	0.0143248
655.770	0.0144692
655.848	0.0144291
655.926	0.0144864
656.004	0.0143591
656.082	0.0145315
656.160	0.0144869
656.238	0.0144522
656.317	0.0144117
656.395	0.0145802
656.473	0.0143887
656.551	0.0145956
656.629	0.0145483
656.707	0.0144296
656.785	0.0145787
656.863	0.0144982
656.942	0.0145389
657.020	0.0145228
657.098	0.0144973
657.176	0.0145444
657.254	0.0143344
657.332	0.0145043
657.410	0.0145402
657.488	0.0145214
657.567	0.0144007
657.645	0.0144785
657.723	0.0145776
657.801	0.0143404
657.879	0.0145496
657.957	0.0145850
658.035	0.0144574
658.113	0.0144753
658.192	0.0143578
658.270	0.0142988
658.348	0.0144450
658.426	0.0144608
658.504	0.0144167
658.582	0.0144612
658.660	0.0144405
658.738	0.0144634
658.817	0.0144425
658.895	0.0144746
658.973	0.0144704
659.051	0.0144470
659.129	0.0144471
659.207	0.0144569
659.285	0.0144621
659.363	0.0145071
659.442	0.0144894
659.520	0.0144786
659.598	0.0144476
659.676	0.0144023
659.754	0.0145541
659.832	0.0144624
659.910	0.0145790
659.988	0.0143737
660.067	0.0143858
660.145	0.0146735
660.223	0.0145271
660.301	0.0146199
660.379	0.0146007
660.457	0.0145142
660.535	0.0145214
660.613	0.0146352
660.692	0.0145647
660.770	0.0146103
660.848	0.0145457
660.926	0.0146034
661.004	0.0146027
661.082	0.0145145
661.160	0.0145702
661.238	0.0145189
661.317	0.0145901
661.395	0.0145312
661.473	0.0144138
661.551	0.0144466
661.629	0.0145905
661.707	0.0146044
661.785	0.0144164
661.863	0.0145099
661.942	0.0145500
662.020	0.0144674
662.098	0.0144125
662.176	0.0145617
662.254	0.0144964
662.332	0.0144882
662.410	0.0144901
662.488	0.0144418
662.567	0.0145447
662.645	0.0144306
662.723	0.0144752
662.801	0.0144695
662.879	0.0144444
662.957	0.0146449
663.035	0.0145090
663.113	0.0144698
663.192	0.0146227
663.270	0.0144248
663.348	0.0144319
663.426	0.0145408
663.504	0.0145073
663.582	0.0145924
663.660	0.0145018
663.738	0.0144240
663.817	0.0144045
663.895	0.0145971
663.973	0.0146571
664.051	0.0145560
664.129	0.0143797
664.207	0.0144282
664.285	0.0145825
664.363	0.0145208
664.442	0.0146436
664.520	0.0145750
664.598	0.0144926
664.676	0.0143671
664.754	0.0145580
664.832	0.0145385
664.910	0.0145786
664.988	0.0144561
665.067	0.0144582
665.145	0.0144993
665.223	0.0145109
665.301	0.0146315
665.379	0.0143571
665.457	0.0145403
665.535	0.0145225
665.613	0.0145206
665.692	0.0146185
665.770	0.0145770
665.848	0.0146234
665.926	0.0145755
666.004	0.0145152
666.082	0.0144138
666.160	0.0144479
666.238	0.0145385
666.317	0.0143741
666.395	0.0146163
666.473	0.0145802
666.551	0.0144534
666.629	0.0143122
666.707	0.0144371
666.785	0.0145362
666.863	0.0143683
666.942	0.0144807
667.020	0.0146077
667.098	0.0144405
667.176	0.0144665
667.254	0.0144749
667.332	0.0144959
667.410	0.0146439
667.488	0.0146105
667.567	0.0144147
667.645	0.0144106
667.723	0.0146035
667.801	0.0145887
667.879	0.0144969
667.957	0.0147070
668.035	0.0145925
668.113	0.0146049
668.192	0.0146053
668.270	0.0146586
668.348	0.0145296
668.426	0.0146012
668.504	0.0145305
668.582	0.0146307
668.660	0.0144135
668.738	0.0144554
668.817	0.0144545
668.895	0.0145573
668.973	0.0144308
669.051	0.0144153
669.129	0.0145808
669.207	0.0145246
669.285	0.0145689
669.363	0.0145686
669.442	0.0145644
669.520	0.0144631
669.598	0.0145368
669.676	0.0145787
669.754	0.0145796
669.832	0.0144815
669.910	0.0145227
669.988	0.0145905
670.067	0.0145966
670.145	0.0144564
670.223	0.0144479
670.301	0.0146465
670.379	0.0145288
670.457	0.0145887
670.535	0.0144771
670.613	0.0146085
670.692	0.0144446
670.770	0.0144309
670.848	0.0145748
670.926	0.0145396
671.004	0.0144568
671.082	0.0146066
671.160	0.0145937
671.238	0.0145548
671.317	0.0145840
671.395	0.0144722
671.473	0.0144642
671.551	0.0144579
671.629	0.0144449
671.707	0.0145478
671.785	0.0143050
671.863	0.0144884
671.942	0.0143703
672.020	0.0144487
672.098	0.0147973
672.176	0.0144608
672.254	0.0143058
672.332	0.0145548
672.410	0.0145085
672.488	0.0145610
672.567	0.0145043
672.645	0.0145720
672.723	0.0144920
672.801	0.0145004
672.879	0.0145238
672.957	0.0145181
673.035	0.0146384
673.113	0.0144972
673.192	0.0144655
673.270	0.0144273
673.348	0.0144136
673.426	0.0143951
673.504	0.0145723
673.582	0.0145298
673.660	0.0144371
673.738	0.0142193
673.817	0.0143199
673.895	0.0143511
673.973	0.0145072
674.051	0.0145506
674.129	0.0144965
674.207	0.0144131
674.285	0.0143447
674.363	0.0144819
674.442	0.0145139
674.520	0.0144256
674.598	0.0144228
674.676	0.0142472
674.754	0.0145638
674.832	0.0144479
674.910	0.0143722
674.988	0.0144140
675.067	0.0143982
675.145	0.0144984
675.223	0.0145175
675.301	0.0145457
675.379	0.0144791
675.457	0.0144106
675.535	0.0145078
675.613	0.0144888
675.692	0.0143813
675.770	0.0144895
675.848	0.0144118
675.926	0.0145126
676.004	0.0145919
676.082	0.0145228
676.160	0.0145071
676.238	0.0144543
676.317	0.0144690
676.395	0.0144343
676.473	0.0145872
676.551	0.0145365
676.629	0.0144565
676.707	0.0144946
676.785	0.0145007
676.863	0.0145301
676.942	0.0144895
677.020	0.0144706
677.098	0.0145367
677.176	0.0145381
677.254	0.0145575
677.332	0.0145464
677.410	0.0146732
677.488	0.0146523
677.567	0.0146120
677.645	0.0145744
677.723	0.0144817
677.801	0.0145726
677.879	0.0146289
677.957	0.0145378
678.035	0.0145258
678.113	0.0145210
678.192	0.0147112
678.270	0.0147252
678.348	0.0145697
678.426	0.0145273
678.504	0.0145699
678.582	0.0146880
678.660	0.0147441
678.738	0.0146941
678.817	0.0145731
678.895	0.0146581
678.973	0.0146080
679.051	0.0146201
679.129	0.0146466
679.207	0.0146270
679.285	0.0146457
679.363	0.0147455
679.442	0.0146834
679.520	0.0147533
679.598	0.0145629
679.676	0.0147959
679.754	0.0147609
679.832	0.0146719
679.910	0.0147569
679.988	0.0147138
680.067	0.0147263
680.145	0.0147552
680.223	0.0146868
680.301	0.0147520
680.379	0.0146913
680.457	0.0147016
680.535	0.0147025
680.613	0.0147411
680.692	0.0145975
680.770	0.0146400
680.848	0.0148015
680.926	0.0146274
681.004	0.0146236
681.082	0.0146240
681.160	0.0145076
681.238	0.0147242
681.317	0.0145547
681.395	0.0145279
681.473	0.0147698
681.551	0.0146439
681.629	0.0145670
681.707	0.0146214
681.785	0.0144357
681.863	0.0147025
681.942	0.0147820
682.020	0.0146103
682.098	0.0145448
682.176	0.0146651
682.254	0.0146008
682.332	0.0145903
682.410	0.0144382
682.488	0.0145262
682.567	0.0145565
682.645	0.0145429
682.723	0.0145535
682.801	0.0145170
682.879	0.0145607
682.957	0.0145258
683.035	0.0146169
683.113	0.0145782
683.192	0.0145462
683.270	0.0145081
683.348	0.0144682
683.426	0.0144642
683.504	0.0146817
683.582	0.0144738
683.660	0.0143608
683.738	0.0143446
683.817	0.0145490
683.895	0.0145785
683.973	0.0144505
684.051	0.0144338
684.129	0.0145181
684.207	0.0145351
684.285	0.0143921
684.363	0.0143246
684.442	0.0145198
684.520	0.0144209
684.598	0.0144410
684.676	0.0144563
684.754	0.0143282
684.832	0.0144753
684.910	0.0143311
684.988	0.0144761
685.067	0.0145444
685.145	0.0144100
685.223	0.0143925
685.301	0.0145238
685.379	0.0143192
685.457	0.0144862
685.535	0.0142639
685.613	0.0144863
685.692	0.0143858
