05/28/2022	14:36:42	Ver.	4.1	UNKNOWN
Optical Delay	599.988409	Delta X		0.078125	Sweeps	1	Scan Rate	0/0
Coordinates	Axis 1	NaN	Axis 2	NaN	Axis 3	NaN	Axis 4	NaN	Axis 5	NaN	Axis 6	0.000000
TX Power	0.000000	RX Power	0.000000

599.988	0.0141364
600.067	0.0142180
600.145	0.0142344
600.223	0.0143000
600.301	0.0140601
600.379	0.0140347
600.457	0.0141412
600.535	0.0142008
600.613	0.0142780
600.692	0.0142638
600.770	0.0141973
600.848	0.0142202
600.926	0.0142825
601.004	0.0143452
601.082	0.0144268
601.160	0.0142922
601.238	0.0142405
601.317	0.0143111
601.395	0.0143351
601.473	0.0143854
601.551	0.0142121
601.629	0.0143274
601.707	0.0144631
601.785	0.0143114
601.863	0.0142049
601.942	0.0141550
602.020	0.0142702
602.098	0.0142876
602.176	0.0142445
602.254	0.0142181
602.332	0.0142568
602.410	0.0141810
602.488	0.0141969
602.567	0.0142630
602.645	0.0140800
602.723	0.0142590
602.801	0.0141350
602.879	0.0143578
602.957	0.0141685
603.035	0.0141330
603.113	0.0142995
603.192	0.0142898
603.270	0.0142168
603.348	0.0143153
603.426	0.0142617
603.504	0.0144247
603.582	0.0142798
603.660	0.0142986
603.738	0.0143502
603.817	0.0143311
603.895	0.0143305
603.973	0.0143160
604.051	0.0142072
604.129	0.0143316
604.207	0.0142650
604.285	0.0142589
604.363	0.0142725
604.442	0.0144184
604.520	0.0143720
604.598	0.0142599
604.676	0.0142451
604.754	0.0143964
604.832	0.0143580
604.910	0.0141444
604.988	0.0141290
605.067	0.0143098
605.145	0.0142196
605.223	0.0141544
605.301	0.0141460
605.379	0.0142676
605.457	0.0142789
605.535	0.0142591
605.613	0.0143806
605.692	0.0142565
605.770	0.0142896
605.848	0.0141534
605.926	0.0141853
606.004	0.0141891
606.082	0.0143522
606.160	0.0142713
606.238	0.0142918
606.317	0.0143774
606.395	0.0143398
606.473	0.0142472
606.551	0.0141969
606.629	0.0143311
606.707	0.0143948
606.785	0.0143962
606.863	0.0144150
606.942	0.0142636
607.020	0.0143237
607.098	0.0143546
607.176	0.0143471
607.254	0.0142563
607.332	0.0142973
607.410	0.0142687
607.488	0.0144477
607.567	0.0143113
607.645	0.0141721
607.723	0.0142283
607.801	0.0142300
607.879	0.0141503
607.957	0.0143696
608.035	0.0142984
608.113	0.0141998
608.192	0.0142764
608.270	0.0141092
608.348	0.0141795
608.426	0.0141111
608.504	0.0141218
608.582	0.0140811
608.660	0.0140215
608.738	0.0141319
608.817	0.0139685
608.895	0.0140897
608.973	0.0141425
609.051	0.0139013
609.129	0.0140480
609.207	0.0139594
609.285	0.0139611
609.363	0.0141167
609.442	0.0139922
609.520	0.0141156
609.598	0.0141222
609.676	0.0140497
609.754	0.0140644
609.832	0.0141293
609.910	0.0141315
609.988	0.0141711
610.067	0.0141333
610.145	0.0141543
610.223	0.0140671
610.301	0.0140877
610.379	0.0139471
610.457	0.0140625
610.535	0.0141248
610.613	0.0141452
610.692	0.0140374
610.770	0.0139695
610.848	0.0141039
610.926	0.0142081
611.004	0.0139328
611.082	0.0140321
611.160	0.0141051
611.238	0.0140681
611.317	0.0139658
611.395	0.0140652
611.473	0.0142017
611.551	0.0141278
611.629	0.0140192
611.707	0.0141485
611.785	0.0140699
611.863	0.0140950
611.942	0.0141171
612.020	0.0142327
612.098	0.0143011
612.176	0.0142252
612.254	0.0141717
612.332	0.0142232
612.410	0.0142043
612.488	0.0141739
612.567	0.0142404
612.645	0.0143077
612.723	0.0143202
612.801	0.0141613
612.879	0.0143526
612.957	0.0143309
613.035	0.0142812
613.113	0.0143832
613.192	0.0143532
613.270	0.0142928
613.348	0.0141591
613.426	0.0142267
613.504	0.0141889
613.582	0.0141088
613.660	0.0142436
613.738	0.0142468
613.817	0.0142759
613.895	0.0141537
613.973	0.0141348
614.051	0.0141290
614.129	0.0142901
614.207	0.0142053
614.285	0.0141088
614.363	0.0140817
614.442	0.0140952
614.520	0.0140224
614.598	0.0140167
614.676	0.0141271
614.754	0.0140265
614.832	0.0140446
614.910	0.0139606
614.988	0.0140273
615.067	0.0141028
615.145	0.0140336
615.223	0.0140111
615.301	0.0140559
615.379	0.0140784
615.457	0.0140837
615.535	0.0139230
615.613	0.0141477
615.692	0.0140276
615.770	0.0140591
615.848	0.0141552
615.926	0.0140719
616.004	0.0141019
616.082	0.0142207
616.160	0.0143345
616.238	0.0142738
616.317	0.0141121
616.395	0.0141753
616.473	0.0143620
616.551	0.0141254
616.629	0.0143582
616.707	0.0143029
616.785	0.0141914
616.863	0.0140969
616.942	0.0142805
617.020	0.0141286
617.098	0.0142922
617.176	0.0142313
617.254	0.0141854
617.332	0.0142513
617.410	0.0142245
617.488	0.0142426
617.567	0.0141344
617.645	0.0141679
617.723	0.0141623
617.801	0.0142413
617.879	0.0143119
617.957	0.0141628
618.035	0.0141988
618.113	0.0139912
618.192	0.0141109
618.270	0.0141637
618.348	0.0142648
618.426	0.0141088
618.504	0.0140746
618.582	0.0140907
618.660	0.0140861
618.738	0.0141537
618.817	0.0140948
618.895	0.0142310
618.973	0.0142377
619.051	0.0141613
619.129	0.0141264
619.207	0.0141262
619.285	0.0142586
619.363	0.0143158
619.442	0.0142871
619.520	0.0142410
619.598	0.0141892
619.676	0.0142080
619.754	0.0143378
619.832	0.0143623
619.910	0.0143599
619.988	0.0143587
620.067	0.0144209
620.145	0.0142461
620.223	0.0141920
620.301	0.0142920
620.379	0.0142467
620.457	0.0143746
620.535	0.0142417
620.613	0.0142230
620.692	0.0141683
620.770	0.0140271
620.848	0.0141332
620.926	0.0140892
621.004	0.0141212
621.082	0.0141396
621.160	0.0142016
621.238	0.0141706
621.317	0.0141750
621.395	0.0141859
621.473	0.0141920
621.551	0.0142809
621.629	0.0142371
621.707	0.0145345
621.785	0.0143218
621.863	0.0142982
621.942	0.0144352
622.020	0.0144608
622.098	0.0143170
622.176	0.0144032
622.254	0.0143191
622.332	0.0144759
622.410	0.0144748
622.488	0.0142334
622.567	0.0144169
622.645	0.0142107
622.723	0.0143317
622.801	0.0143269
622.879	0.0142621
622.957	0.0143545
623.035	0.0143301
623.113	0.0142617
623.192	0.0142086
623.270	0.0142062
623.348	0.0142719
623.426	0.0140729
623.504	0.0141154
623.582	0.0142236
623.660	0.0141078
623.738	0.0141306
623.817	0.0141047
623.895	0.0140505
623.973	0.0140847
624.051	0.0139983
624.129	0.0140229
624.207	0.0140355
624.285	0.0142605
624.363	0.0142811
624.442	0.0141781
624.520	0.0143356
624.598	0.0144144
624.676	0.0144411
624.754	0.0143465
624.832	0.0144283
624.910	0.0145810
624.988	0.0146785
625.067	0.0146502
625.145	0.0145941
625.223	0.0145916
625.301	0.0147508
625.379	0.0146459
625.457	0.0146881
625.535	0.0145963
625.613	0.0145956
625.692	0.0144738
625.770	0.0145623
625.848	0.0146581
625.926	0.0144140
626.004	0.0143071
626.082	0.0144273
626.160	0.0143927
626.238	0.0143619
626.317	0.0142326
626.395	0.0142921
626.473	0.0143083
626.551	0.0142867
626.629	0.0141177
626.707	0.0141075
626.785	0.0141220
626.863	0.0141447
626.942	0.0141200
627.020	0.0141405
627.098	0.0141751
627.176	0.0142673
627.254	0.0141705
627.332	0.0143360
627.410	0.0143026
627.488	0.0143263
627.567	0.0142889
627.645	0.0144166
627.723	0.0143420
627.801	0.0143719
627.879	0.0144341
627.957	0.0143768
628.035	0.0144622
628.113	0.0145040
628.192	0.0144832
628.270	0.0143586
628.348	0.0144253
628.426	0.0144003
628.504	0.0143143
628.582	0.0143443
628.660	0.0143003
628.738	0.0143600
628.817	0.0141332
628.895	0.0143781
628.973	0.0143120
629.051	0.0143012
629.129	0.0142549
629.207	0.0143850
629.285	0.0142467
629.363	0.0142979
629.442	0.0144101
629.520	0.0143056
629.598	0.0143578
629.676	0.0142562
629.754	0.0142712
629.832	0.0143628
629.910	0.0143911
629.988	0.0143414
630.067	0.0143326
630.145	0.0144947
630.223	0.0144721
630.301	0.0144349
630.379	0.0144145
630.457	0.0144687
630.535	0.0144648
630.613	0.0144451
630.692	0.0142935
630.770	0.0143461
630.848	0.0144365
630.926	0.0143516
631.004	0.0143382
631.082	0.0142789
631.160	0.0142790
631.238	0.0141185
631.317	0.0141095
631.395	0.0140484
631.473	0.0139335
631.551	0.0139095
631.629	0.0139034
631.707	0.0138056
631.785	0.0138813
631.863	0.0137614
631.942	0.0137946
632.020	0.0138660
632.098	0.0137991
632.176	0.0137838
632.254	0.0137298
632.332	0.0138918
632.410	0.0140296
632.488	0.0140148
632.567	0.0138547
632.645	0.0139927
632.723	0.0140275
632.801	0.0138542
632.879	0.0139347
632.957	0.0138869
633.035	0.0138619
633.113	0.0139569
633.192	0.0139629
633.270	0.0138726
633.348	0.0139824
633.426	0.0139320
633.504	0.0138621
633.582	0.0139588
633.660	0.0139286
633.738	0.0139547
633.817	0.0140254
633.895	0.0139986
633.973	0.0140858
634.051	0.0139439
634.129	0.0139771
634.207	0.0141255
634.285	0.0140762
634.363	0.0140615
634.442	0.0141329
634.520	0.0140630
634.598	0.0140999
634.676	0.0141725
634.754	0.0142249
634.832	0.0141391
634.910	0.0140756
634.988	0.0141381
635.067	0.0142601
635.145	0.0141412
635.223	0.0140588
635.301	0.0141184
635.379	0.0141055
635.457	0.0141612
635.535	0.0141826
635.613	0.0141359
635.692	0.0140027
635.770	0.0142094
635.848	0.0142288
635.926	0.0140211
636.004	0.0140048
636.082	0.0141514
636.160	0.0141462
636.238	0.0140678
636.317	0.0139629
636.395	0.0140820
636.473	0.0140461
636.551	0.0140344
636.629	0.0141311
636.707	0.0139980
636.785	0.0141747
636.863	0.0141276
636.942	0.0141856
637.020	0.0141213
637.098	0.0141904
637.176	0.0141757
637.254	0.0140417
637.332	0.0140523
637.410	0.0141129
637.488	0.0141239
637.567	0.0139898
637.645	0.0141171
637.723	0.0140718
637.801	0.0141116
637.879	0.0141042
637.957	0.0141139
638.035	0.0142001
638.113	0.0142007
638.192	0.0142430
638.270	0.0142793
638.348	0.0143208
638.426	0.0142283
638.504	0.0142043
638.582	0.0142779
638.660	0.0144139
638.738	0.0144633
638.817	0.0142820
638.895	0.0143319
638.973	0.0143382
639.051	0.0144338
639.129	0.0144796
639.207	0.0143906
639.285	0.0144381
639.363	0.0143998
639.442	0.0144124
639.520	0.0143266
639.598	0.0143218
639.676	0.0145276
639.754	0.0143984
639.832	0.0144138
639.910	0.0143364
639.988	0.0144593
640.067	0.0143029
640.145	0.0143948
640.223	0.0142666
640.301	0.0142479
640.379	0.0144038
640.457	0.0143703
640.535	0.0143160
640.613	0.0143049
640.692	0.0143054
640.770	0.0141576
640.848	0.0141558
640.926	0.0141660
641.004	0.0142171
641.082	0.0141759
641.160	0.0142505
641.238	0.0141756
641.317	0.0140127
641.395	0.0140720
641.473	0.0140285
641.551	0.0141219
641.629	0.0141183
641.707	0.0142279
641.785	0.0140335
641.863	0.0141270
641.942	0.0140788
642.020	0.0142035
642.098	0.0141524
642.176	0.0141467
642.254	0.0142303
642.332	0.0141825
642.410	0.0142377
642.488	0.0142551
642.567	0.0143777
642.645	0.0142789
642.723	0.0144278
642.801	0.0145380
642.879	0.0144905
642.957	0.0143853
643.035	0.0145180
643.113	0.0146413
643.192	0.0144529
643.270	0.0143479
643.348	0.0144003
643.426	0.0142120
643.504	0.0142640
643.582	0.0141936
643.660	0.0141648
643.738	0.0142085
643.817	0.0140569
643.895	0.0139605
643.973	0.0140240
644.051	0.0141068
644.129	0.0141261
644.207	0.0140489
644.285	0.0139899
644.363	0.0139108
644.442	0.0141577
644.520	0.0140874
644.598	0.0140459
644.676	0.0141259
644.754	0.0142711
644.832	0.0141138
644.910	0.0140576
644.988	0.0141843
645.067	0.0142708
645.145	0.0141365
645.223	0.0143313
645.301	0.0141544
645.379	0.0142862
645.457	0.0143375
645.535	0.0143240
645.613	0.0143420
645.692	0.0143098
645.770	0.0143559
645.848	0.0143555
645.926	0.0143970
646.004	0.0142097
646.082	0.0142308
646.160	0.0142902
646.238	0.0143618
646.317	0.0143096
646.395	0.0142972
646.473	0.0143407
646.551	0.0140104
646.629	0.0139911
646.707	0.0141801
646.785	0.0141272
646.863	0.0140309
646.942	0.0141290
647.020	0.0142493
647.098	0.0140751
647.176	0.0140375
647.254	0.0141973
647.332	0.0141581
647.410	0.0143163
647.488	0.0143837
647.567	0.0144701
647.645	0.0144124
647.723	0.0143839
647.801	0.0144627
647.879	0.0144521
647.957	0.0145860
648.035	0.0145094
648.113	0.0145957
648.192	0.0145844
648.270	0.0143809
648.348	0.0144753
648.426	0.0144912
648.504	0.0144027
648.582	0.0143161
648.660	0.0144038
648.738	0.0140365
648.817	0.0143801
648.895	0.0143694
648.973	0.0142523
649.051	0.0142614
649.129	0.0142188
649.207	0.0141460
649.285	0.0143018
649.363	0.0141889
649.442	0.0140886
649.520	0.0141267
649.598	0.0142251
649.676	0.0141039
649.754	0.0142052
649.832	0.0143062
649.910	0.0141964
649.988	0.0143961
650.067	0.0142614
650.145	0.0142252
650.223	0.0143063
650.301	0.0143320
650.379	0.0142326
650.457	0.0141286
650.535	0.0143409
650.613	0.0142793
650.692	0.0143462
650.770	0.0143469
650.848	0.0143106
650.926	0.0143088
651.004	0.0144797
651.082	0.0145226
651.160	0.0145509
651.238	0.0144125
651.317	0.0143231
651.395	0.0142970
651.473	0.0143444
651.551	0.0141659
651.629	0.0141720
651.707	0.0143150
651.785	0.0141286
651.863	0.0139870
651.942	0.0140973
652.020	0.0141702
652.098	0.0140843
652.176	0.0140731
652.254	0.0140457
652.332	0.0141122
652.410	0.0139516
652.488	0.0140325
652.567	0.0140708
652.645	0.0140797
652.723	0.0140271
652.801	0.0141908
652.879	0.0141861
652.957	0.0143054
653.035	0.0142943
653.113	0.0142449
653.192	0.0144028
653.270	0.0142996
653.348	0.0144147
653.426	0.0144700
653.504	0.0144394
653.582	0.0143543
653.660	0.0145383
653.738	0.0144364
653.817	0.0142780
653.895	0.0143185
653.973	0.0144037
654.051	0.0144714
654.129	0.0143938
654.207	0.0143426
654.285	0.0145023
654.363	0.0143449
654.442	0.0143280
654.520	0.0143256
654.598	0.0144922
654.676	0.0142492
654.754	0.0142600
654.832	0.0143760
654.910	0.0143051
654.988	0.0142790
655.067	0.0143047
655.145	0.0142276
655.223	0.0142178
655.301	0.0142064
655.379	0.0143335
655.457	0.0143562
655.535	0.0141780
655.613	0.0142014
655.692	0.0142005
655.770	0.0142259
655.848	0.0141547
655.926	0.0139834
656.004	0.0140018
656.082	0.0141631
656.160	0.0140057
656.238	0.0139951
656.317	0.0141246
656.395	0.0140064
656.473	0.0139370
656.551	0.0139779
656.629	0.0140611
656.707	0.0139325
656.785	0.0141103
656.863	0.0140192
656.942	0.0139671
657.020	0.0141757
657.098	0.0140611
657.176	0.0142112
657.254	0.0140244
657.332	0.0141494
657.410	0.0142693
657.488	0.0140396
657.567	0.0141599
657.645	0.0141161
657.723	0.0143627
657.801	0.0142973
657.879	0.0141720
657.957	0.0141822
658.035	0.0141515
658.113	0.0141971
658.192	0.0141068
658.270	0.0142640
658.348	0.0142941
658.426	0.0140827
658.504	0.0141943
658.582	0.0141817
658.660	0.0140833
658.738	0.0141297
658.817	0.0141666
658.895	0.0141497
658.973	0.0141462
659.051	0.0141071
659.129	0.0141666
659.207	0.0141263
659.285	0.0142986
659.363	0.0141074
659.442	0.0141995
659.520	0.0140814
659.598	0.0141178
659.676	0.0140905
659.754	0.0142683
659.832	0.0142522
659.910	0.0140804
659.988	0.0141251
660.067	0.0141136
660.145	0.0140617
660.223	0.0141748
660.301	0.0142764
660.379	0.0142267
660.457	0.0142281
660.535	0.0143089
660.613	0.0142798
660.692	0.0141479
660.770	0.0143690
660.848	0.0143111
660.926	0.0142216
661.004	0.0143465
661.082	0.0142924
661.160	0.0143716
661.238	0.0143639
661.317	0.0142680
661.395	0.0144622
661.473	0.0143752
661.551	0.0144383
661.629	0.0144484
661.707	0.0142542
661.785	0.0144044
661.863	0.0143470
661.942	0.0143125
662.020	0.0142957
662.098	0.0142776
662.176	0.0142585
662.254	0.0144296
662.332	0.0143487
662.410	0.0142718
662.488	0.0144344
662.567	0.0143833
662.645	0.0142809
662.723	0.0143848
662.801	0.0144386
662.879	0.0143690
662.957	0.0145514
663.035	0.0145222
663.113	0.0143874
663.192	0.0144617
663.270	0.0144865
663.348	0.0144531
663.426	0.0143802
663.504	0.0142616
663.582	0.0143079
663.660	0.0142637
663.738	0.0141184
663.817	0.0142088
663.895	0.0142471
663.973	0.0141608
664.051	0.0141208
664.129	0.0141975
664.207	0.0141652
664.285	0.0140668
664.363	0.0140491
664.442	0.0142275
664.520	0.0140771
664.598	0.0139861
664.676	0.0141200
664.754	0.0140813
664.832	0.0142543
664.910	0.0142142
664.988	0.0141733
665.067	0.0142020
665.145	0.0142967
665.223	0.0142491
665.301	0.0141118
665.379	0.0142290
665.457	0.0141472
665.535	0.0141930
665.613	0.0142083
665.692	0.0141718
665.770	0.0142132
665.848	0.0142431
665.926	0.0141355
666.004	0.0142083
666.082	0.0141487
666.160	0.0141897
666.238	0.0142589
666.317	0.0142806
666.395	0.0142197
666.473	0.0143559
666.551	0.0143346
666.629	0.0143900
666.707	0.0142970
666.785	0.0144101
666.863	0.0145280
666.942	0.0143680
667.020	0.0142607
667.098	0.0142232
667.176	0.0143318
667.254	0.0142548
667.332	0.0142113
667.410	0.0141705
667.488	0.0142754
667.567	0.0142532
667.645	0.0141839
667.723	0.0142583
667.801	0.0141267
667.879	0.0141613
667.957	0.0143623
668.035	0.0142101
668.113	0.0142242
668.192	0.0141730
668.270	0.0144243
668.348	0.0144301
668.426	0.0143178
668.504	0.0143632
668.582	0.0143726
668.660	0.0142828
668.738	0.0143768
668.817	0.0143649
668.895	0.0143213
668.973	0.0140635
669.051	0.0140910
669.129	0.0142460
669.207	0.0141874
669.285	0.0141219
669.363	0.0139861
669.442	0.0140837
669.520	0.0140260
669.598	0.0139404
669.676	0.0139507
669.754	0.0138647
669.832	0.0140099
669.910	0.0141077
669.988	0.0139949
670.067	0.0139987
670.145	0.0141073
670.223	0.0142161
670.301	0.0139970
670.379	0.0140439
670.457	0.0140894
670.535	0.0141982
670.613	0.0142303
670.692	0.0140670
670.770	0.0140148
670.848	0.0140517
670.926	0.0141733
671.004	0.0140022
671.082	0.0139886
671.160	0.0140479
671.238	0.0140954
671.317	0.0140511
671.395	0.0140659
671.473	0.0141597
671.551	0.0142975
671.629	0.0141402
671.707	0.0142015
671.785	0.0140777
671.863	0.0141816
671.942	0.0142732
672.020	0.0142374
672.098	0.0143183
672.176	0.0143174
672.254	0.0142941
672.332	0.0143124
672.410	0.0141496
672.488	0.0142572
672.567	0.0142297
672.645	0.0142996
672.723	0.0144380
672.801	0.0144210
672.879	0.0141765
672.957	0.0142535
673.035	0.0143050
673.113	0.0144059
673.192	0.0142928
673.270	0.0143503
673.348	0.0144270
673.426	0.0142974
673.504	0.0143239
673.582	0.0140765
673.660	0.0141014
673.738	0.0141645
673.817	0.0141223
673.895	0.0141042
673.973	0.0140520
674.051	0.0140412
674.129	0.0140168
674.207	0.0138802
674.285	0.0138348
674.363	0.0138358
674.442	0.0140355
674.520	0.0137769
674.598	0.0136222
674.676	0.0137516
674.754	0.0136860
674.832	0.0137627
674.910	0.0137710
674.988	0.0136890
675.067	0.0136404
675.145	0.0138173
675.223	0.0137919
675.301	0.0139324
675.379	0.0138745
675.457	0.0138020
675.535	0.0140234
675.613	0.0140318
675.692	0.0141222
675.770	0.0139204
675.848	0.0140508
675.926	0.0141975
676.004	0.0142724
676.082	0.0141190
676.160	0.0142935
676.238	0.0145047
676.317	0.0144480
676.395	0.0144654
676.473	0.0145718
676.551	0.0146253
676.629	0.0146890
676.707	0.0145380
676.785	0.0145953
676.863	0.0145191
676.942	0.0145860
677.020	0.0144836
677.098	0.0145558
677.176	0.0144334
677.254	0.0145073
677.332	0.0145196
677.410	0.0144332
677.488	0.0143325
677.567	0.0144456
677.645	0.0145006
677.723	0.0143845
677.801	0.0142387
677.879	0.0143498
677.957	0.0142745
678.035	0.0142022
678.113	0.0141904
678.192	0.0140598
678.270	0.0141050
678.348	0.0141770
678.426	0.0140343
678.504	0.0139925
678.582	0.0141818
678.660	0.0140379
678.738	0.0140971
678.817	0.0139130
678.895	0.0140389
678.973	0.0141615
679.051	0.0139407
679.129	0.0138881
679.207	0.0139396
679.285	0.0139963
679.363	0.0139654
679.442	0.0139307
679.520	0.0140688
679.598	0.0141171
679.676	0.0142014
679.754	0.0141222
679.832	0.0140364
679.910	0.0141444
679.988	0.0141599
680.067	0.0142905
680.145	0.0141628
680.223	0.0141462
680.301	0.0141417
680.379	0.0140625
680.457	0.0140413
680.535	0.0140036
680.613	0.0140430
680.692	0.0139339
680.770	0.0138919
680.848	0.0139450
680.926	0.0139684
681.004	0.0138825
681.082	0.0140491
681.160	0.0141080
681.238	0.0139367
681.317	0.0140823
681.395	0.0139960
681.473	0.0141558
681.551	0.0140790
681.629	0.0140776
681.707	0.0141901
681.785	0.0143444
681.863	0.0141136
681.942	0.0143008
682.020	0.0142986
682.098	0.0141596
682.176	0.0142973
682.254	0.0142682
682.332	0.0142984
682.410	0.0142648
682.488	0.0141602
682.567	0.0142609
682.645	0.0141681
682.723	0.0141673
682.801	0.0142322
682.879	0.0141067
682.957	0.0141003
683.035	0.0141406
683.113	0.0141055
683.192	0.0140894
683.270	0.0141660
683.348	0.0140563
683.426	0.0141451
683.504	0.0139908
683.582	0.0141074
683.660	0.0141264
683.738	0.0140554
683.817	0.0141260
683.895	0.0141535
683.973	0.0142159
684.051	0.0141067
684.129	0.0141406
684.207	0.0141115
684.285	0.0141610
684.363	0.0142511
684.442	0.0142625
684.520	0.0143066
684.598	0.0142315
684.676	0.0142393
684.754	0.0141480
684.832	0.0142350
684.910	0.0141712
684.988	0.0142068
685.067	0.0143579
685.145	0.0142068
685.223	0.0142258
685.301	0.0141902
685.379	0.0142385
685.457	0.0142473
685.535	0.0142165
685.613	0.0142863
685.692	0.0141679
