05/28/2022	14:38:42	Ver.	4.1	UNKNOWN
Optical Delay	599.988409	Delta X		0.078125	Sweeps	1	Scan Rate	0/0
Coordinates	Axis 1	NaN	Axis 2	NaN	Axis 3	NaN	Axis 4	NaN	Axis 5	NaN	Axis 6	0.000000
TX Power	0.000000	RX Power	0.000000

599.988	0.0145740
600.067	0.0146542
600.145	0.0144793
600.223	0.0144770
600.301	0.0144195
600.379	0.0144894
600.457	0.0145875
600.535	0.0144616
600.613	0.0145114
600.692	0.0145276
600.770	0.0144167
600.848	0.0144363
600.926	0.0143474
601.004	0.0144614
601.082	0.0145254
601.160	0.0143356
601.238	0.0144040
601.317	0.0144161
601.395	0.0143765
601.473	0.0144543
601.551	0.0144482
601.629	0.0144882
601.707	0.0145245
601.785	0.0144121
601.863	0.0144688
601.942	0.0143926
602.020	0.0144519
602.098	0.0144608
602.176	0.0144791
602.254	0.0144277
602.332	0.0144918
602.410	0.0143549
602.488	0.0145271
602.567	0.0145298
602.645	0.0142973
602.723	0.0145262
602.801	0.0144861
602.879	0.0144284
602.957	0.0144861
603.035	0.0146213
603.113	0.0144838
603.192	0.0143472
603.270	0.0144187
603.348	0.0143668
603.426	0.0143555
603.504	0.0144453
603.582	0.0144952
603.660	0.0144461
603.738	0.0144120
603.817	0.0144452
603.895	0.0145012
603.973	0.0143750
604.051	0.0143753
604.129	0.0144362
604.207	0.0143938
604.285	0.0143279
604.363	0.0142456
604.442	0.0142522
604.520	0.0142453
604.598	0.0143018
604.676	0.0143834
604.754	0.0142645
604.832	0.0142185
604.910	0.0142376
604.988	0.0142421
605.067	0.0142641
605.145	0.0142484
605.223	0.0141221
605.301	0.0142313
605.379	0.0143131
605.457	0.0140369
605.535	0.0142012
605.613	0.0142036
605.692	0.0142416
605.770	0.0143444
605.848	0.0142833
605.926	0.0143690
606.004	0.0143369
606.082	0.0142524
606.160	0.0142774
606.238	0.0141605
606.317	0.0143945
606.395	0.0141711
606.473	0.0143727
606.551	0.0142606
606.629	0.0143256
606.707	0.0144408
606.785	0.0143379
606.863	0.0143262
606.942	0.0144719
607.020	0.0143336
607.098	0.0143216
607.176	0.0143874
607.254	0.0144858
607.332	0.0143832
607.410	0.0143838
607.488	0.0143055
607.567	0.0144349
607.645	0.0145316
607.723	0.0144939
607.801	0.0144001
607.879	0.0144092
607.957	0.0144427
608.035	0.0144232
608.113	0.0144112
608.192	0.0144823
608.270	0.0145630
608.348	0.0145655
608.426	0.0144938
608.504	0.0143649
608.582	0.0145705
608.660	0.0146162
608.738	0.0145656
608.817	0.0145459
608.895	0.0144922
608.973	0.0145830
609.051	0.0146037
609.129	0.0144588
609.207	0.0146284
609.285	0.0145289
609.363	0.0145086
609.442	0.0145536
609.520	0.0145824
609.598	0.0144918
609.676	0.0143538
609.754	0.0145451
609.832	0.0146624
609.910	0.0145244
609.988	0.0146011
610.067	0.0145784
610.145	0.0145466
610.223	0.0145164
610.301	0.0144209
610.379	0.0144794
610.457	0.0144855
610.535	0.0143022
610.613	0.0144573
610.692	0.0145596
610.770	0.0144058
610.848	0.0144636
610.926	0.0144135
611.004	0.0145332
611.082	0.0144225
611.160	0.0144497
611.238	0.0144468
611.317	0.0144374
611.395	0.0144820
611.473	0.0144456
611.551	0.0144122
611.629	0.0144384
611.707	0.0145454
611.785	0.0145306
611.863	0.0144245
611.942	0.0144411
612.020	0.0143824
612.098	0.0143701
612.176	0.0144175
612.254	0.0144415
612.332	0.0144209
612.410	0.0143278
612.488	0.0143185
612.567	0.0142933
612.645	0.0141822
612.723	0.0143092
612.801	0.0143349
612.879	0.0142034
612.957	0.0143479
613.035	0.0142095
613.113	0.0141617
613.192	0.0143646
613.270	0.0142921
613.348	0.0142535
613.426	0.0141812
613.504	0.0143558
613.582	0.0143330
613.660	0.0143719
613.738	0.0143550
613.817	0.0143636
613.895	0.0142490
613.973	0.0143773
614.051	0.0143595
614.129	0.0145369
614.207	0.0145271
614.285	0.0144685
614.363	0.0143715
614.442	0.0145162
614.520	0.0144549
614.598	0.0144516
614.676	0.0143255
614.754	0.0144856
614.832	0.0144122
614.910	0.0143417
614.988	0.0145004
615.067	0.0144224
615.145	0.0144970
615.223	0.0144134
615.301	0.0144745
615.379	0.0144495
615.457	0.0143793
615.535	0.0145197
615.613	0.0146098
615.692	0.0145157
615.770	0.0144219
615.848	0.0146467
615.926	0.0143951
616.004	0.0144125
616.082	0.0144672
616.160	0.0144948
616.238	0.0144182
616.317	0.0144360
616.395	0.0145211
616.473	0.0143914
616.551	0.0143127
616.629	0.0143506
616.707	0.0144412
616.785	0.0143974
616.863	0.0144917
616.942	0.0143641
617.020	0.0143452
617.098	0.0144230
617.176	0.0142794
617.254	0.0142899
617.332	0.0143444
617.410	0.0144463
617.488	0.0142728
617.567	0.0143492
617.645	0.0145427
617.723	0.0144575
617.801	0.0144582
617.879	0.0143540
617.957	0.0143689
618.035	0.0143987
618.113	0.0143204
618.192	0.0145032
618.270	0.0143073
618.348	0.0143729
618.426	0.0145063
618.504	0.0144076
618.582	0.0144659
618.660	0.0144125
618.738	0.0144499
618.817	0.0145490
618.895	0.0143975
618.973	0.0146249
619.051	0.0144701
619.129	0.0146272
619.207	0.0145154
619.285	0.0145747
619.363	0.0147115
619.442	0.0145728
619.520	0.0145432
619.598	0.0146914
619.676	0.0147144
619.754	0.0148191
619.832	0.0147728
619.910	0.0146757
619.988	0.0145287
620.067	0.0146952
620.145	0.0146021
620.223	0.0145471
620.301	0.0144463
620.379	0.0145096
620.457	0.0144800
620.535	0.0145238
620.613	0.0143353
620.692	0.0143595
620.770	0.0144623
620.848	0.0143752
620.926	0.0146317
621.004	0.0145273
621.082	0.0144903
621.160	0.0144035
621.238	0.0144598
621.317	0.0143110
621.395	0.0143602
621.473	0.0142600
621.551	0.0143245
621.629	0.0142033
621.707	0.0141933
621.785	0.0143140
621.863	0.0140930
621.942	0.0142185
622.020	0.0143513
622.098	0.0141537
622.176	0.0144923
622.254	0.0143192
622.332	0.0144335
622.410	0.0145660
622.488	0.0144076
622.567	0.0145558
622.645	0.0148103
622.723	0.0147799
622.801	0.0146220
622.879	0.0147244
622.957	0.0146437
623.035	0.0146215
623.113	0.0145029
623.192	0.0146046
623.270	0.0146820
623.348	0.0145561
623.426	0.0144377
623.504	0.0145415
623.582	0.0145497
623.660	0.0144694
623.738	0.0144621
623.817	0.0144688
623.895	0.0145839
623.973	0.0143301
624.051	0.0144369
624.129	0.0143616
624.207	0.0144500
624.285	0.0144263
624.363	0.0142760
624.442	0.0144316
624.520	0.0144202
624.598	0.0144535
624.676	0.0143466
624.754	0.0142011
624.832	0.0144167
624.910	0.0143888
624.988	0.0143699
625.067	0.0144466
625.145	0.0144307
625.223	0.0144042
625.301	0.0145284
625.379	0.0145267
625.457	0.0145444
625.535	0.0146521
625.613	0.0145200
625.692	0.0145619
625.770	0.0146790
625.848	0.0145840
625.926	0.0146524
626.004	0.0146819
626.082	0.0146732
626.160	0.0146316
626.238	0.0144958
626.317	0.0146484
626.395	0.0146495
626.473	0.0145244
626.551	0.0145621
626.629	0.0145507
626.707	0.0145781
626.785	0.0144517
626.863	0.0145390
626.942	0.0145227
627.020	0.0146888
627.098	0.0145588
627.176	0.0145005
627.254	0.0145641
627.332	0.0144710
627.410	0.0145696
627.488	0.0144667
627.567	0.0146232
627.645	0.0146091
627.723	0.0147186
627.801	0.0146046
627.879	0.0145557
627.957	0.0147137
628.035	0.0146872
628.113	0.0148291
628.192	0.0147462
628.270	0.0147299
628.348	0.0147802
628.426	0.0147105
628.504	0.0148335
628.582	0.0147292
628.660	0.0145880
628.738	0.0146660
628.817	0.0146554
628.895	0.0146136
628.973	0.0146709
629.051	0.0146507
629.129	0.0145287
629.207	0.0144135
629.285	0.0145552
629.363	0.0145225
629.442	0.0143138
629.520	0.0143654
629.598	0.0141285
629.676	0.0142039
629.754	0.0142929
629.832	0.0142624
629.910	0.0142371
629.988	0.0142012
630.067	0.0141695
630.145	0.0144208
630.223	0.0143913
630.301	0.0144554
630.379	0.0142937
630.457	0.0143697
630.535	0.0144515
630.613	0.0145466
630.692	0.0144862
630.770	0.0146202
630.848	0.0146419
630.926	0.0144764
631.004	0.0146397
631.082	0.0146119
631.160	0.0145491
631.238	0.0145026
631.317	0.0145258
631.395	0.0144090
631.473	0.0146304
631.551	0.0144382
631.629	0.0144298
631.707	0.0145454
631.785	0.0144077
631.863	0.0144778
631.942	0.0143801
632.020	0.0143783
632.098	0.0143798
632.176	0.0143713
632.254	0.0143935
632.332	0.0143681
632.410	0.0143408
632.488	0.0145522
632.567	0.0145091
632.645	0.0145137
632.723	0.0145552
632.801	0.0144823
632.879	0.0146250
632.957	0.0144798
633.035	0.0147103
633.113	0.0145978
633.192	0.0146915
633.270	0.0144758
633.348	0.0146319
633.426	0.0147188
633.504	0.0146659
633.582	0.0146112
633.660	0.0145475
633.738	0.0145238
633.817	0.0144286
633.895	0.0145094
633.973	0.0146072
634.051	0.0143489
634.129	0.0145029
634.207	0.0143953
634.285	0.0145084
634.363	0.0143483
634.442	0.0144379
634.520	0.0144298
634.598	0.0143553
634.676	0.0142079
634.754	0.0142844
634.832	0.0143191
634.910	0.0142042
634.988	0.0142873
635.067	0.0142271
635.145	0.0142047
635.223	0.0143336
635.301	0.0142941
635.379	0.0142406
635.457	0.0143202
635.535	0.0143607
635.613	0.0142216
635.692	0.0143762
635.770	0.0145119
635.848	0.0143867
635.926	0.0146381
636.004	0.0144082
636.082	0.0144066
636.160	0.0145673
636.238	0.0143406
636.317	0.0143544
636.395	0.0144311
636.473	0.0145077
636.551	0.0145429
636.629	0.0144806
636.707	0.0144627
636.785	0.0145257
636.863	0.0144829
636.942	0.0144952
637.020	0.0145539
637.098	0.0145905
637.176	0.0146359
637.254	0.0146329
637.332	0.0145974
637.410	0.0146245
637.488	0.0147021
637.567	0.0146470
637.645	0.0145190
637.723	0.0144543
637.801	0.0146647
637.879	0.0145689
637.957	0.0143781
638.035	0.0143858
638.113	0.0143473
638.192	0.0143751
638.270	0.0143107
638.348	0.0142358
638.426	0.0143572
638.504	0.0143097
638.582	0.0142167
638.660	0.0142917
638.738	0.0142393
638.817	0.0142141
638.895	0.0142908
638.973	0.0143362
639.051	0.0142235
639.129	0.0142063
639.207	0.0143611
639.285	0.0143463
639.363	0.0142974
639.442	0.0143097
639.520	0.0142883
639.598	0.0142949
639.676	0.0143771
639.754	0.0142695
639.832	0.0143722
639.910	0.0143582
639.988	0.0143266
640.067	0.0144041
640.145	0.0142596
640.223	0.0142127
640.301	0.0142874
640.379	0.0144701
640.457	0.0142979
640.535	0.0143417
640.613	0.0143580
640.692	0.0145856
640.770	0.0143832
640.848	0.0143186
640.926	0.0144432
641.004	0.0144492
641.082	0.0144037
641.160	0.0143705
641.238	0.0143994
641.317	0.0143463
641.395	0.0144243
641.473	0.0143880
641.551	0.0144694
641.629	0.0143436
641.707	0.0144149
641.785	0.0144677
641.863	0.0143819
641.942	0.0145930
642.020	0.0144904
642.098	0.0143843
642.176	0.0144511
642.254	0.0144785
642.332	0.0144231
642.410	0.0143488
642.488	0.0143068
642.567	0.0143427
642.645	0.0142866
642.723	0.0143173
642.801	0.0143115
642.879	0.0142365
642.957	0.0141715
643.035	0.0141376
643.113	0.0141063
643.192	0.0141713
643.270	0.0140989
643.348	0.0142043
643.426	0.0139983
643.504	0.0141667
643.582	0.0140954
643.660	0.0143398
643.738	0.0143231
643.817	0.0142011
643.895	0.0142028
643.973	0.0144814
644.051	0.0143936
644.129	0.0143884
644.207	0.0143473
644.285	0.0142846
644.363	0.0141367
644.442	0.0143104
644.520	0.0144856
644.598	0.0145193
644.676	0.0145154
644.754	0.0145150
644.832	0.0144080
644.910	0.0143613
644.988	0.0143567
645.067	0.0144360
645.145	0.0144723
645.223	0.0145607
645.301	0.0145699
645.379	0.0146348
645.457	0.0144066
645.535	0.0146420
645.613	0.0146490
645.692	0.0147227
645.770	0.0145907
645.848	0.0146516
645.926	0.0148846
646.004	0.0147500
646.082	0.0146679
646.160	0.0147495
646.238	0.0147363
646.317	0.0147454
646.395	0.0148883
646.473	0.0148026
646.551	0.0147118
646.629	0.0148244
646.707	0.0145763
646.785	0.0148124
646.863	0.0148481
646.942	0.0148429
647.020	0.0147153
647.098	0.0148579
647.176	0.0146522
647.254	0.0146910
647.332	0.0148008
647.410	0.0148715
647.488	0.0147788
647.567	0.0146450
647.645	0.0147141
647.723	0.0146377
647.801	0.0145364
647.879	0.0145766
647.957	0.0146008
648.035	0.0146110
648.113	0.0146182
648.192	0.0146911
648.270	0.0146019
648.348	0.0145047
648.426	0.0146677
648.504	0.0145935
648.582	0.0145608
648.660	0.0144156
648.738	0.0144470
648.817	0.0146115
648.895	0.0145862
648.973	0.0146535
649.051	0.0146049
649.129	0.0146111
649.207	0.0144530
649.285	0.0145811
649.363	0.0145689
649.442	0.0144548
649.520	0.0145654
649.598	0.0145178
649.676	0.0145566
649.754	0.0145676
649.832	0.0145782
649.910	0.0144698
649.988	0.0143888
650.067	0.0144061
650.145	0.0144282
650.223	0.0144477
650.301	0.0142986
650.379	0.0144606
650.457	0.0142722
650.535	0.0142579
650.613	0.0142369
650.692	0.0141980
650.770	0.0141980
650.848	0.0141650
650.926	0.0140072
651.004	0.0141055
651.082	0.0141241
651.160	0.0141620
651.238	0.0139624
651.317	0.0138686
651.395	0.0139642
651.473	0.0141210
651.551	0.0141817
651.629	0.0140427
651.707	0.0141180
651.785	0.0141225
651.863	0.0142422
651.942	0.0143595
652.020	0.0143132
652.098	0.0143276
652.176	0.0144227
652.254	0.0144727
652.332	0.0144260
652.410	0.0145272
652.488	0.0144749
652.567	0.0144035
652.645	0.0144718
652.723	0.0143512
652.801	0.0144009
652.879	0.0144087
652.957	0.0142082
653.035	0.0142300
653.113	0.0143644
653.192	0.0143251
653.270	0.0142298
653.348	0.0142750
653.426	0.0143040
653.504	0.0143065
653.582	0.0143861
653.660	0.0142733
653.738	0.0142322
653.817	0.0145123
653.895	0.0144707
653.973	0.0144347
654.051	0.0145667
654.129	0.0145754
654.207	0.0145594
654.285	0.0146761
654.363	0.0146593
654.442	0.0146722
654.520	0.0145795
654.598	0.0146066
654.676	0.0146092
654.754	0.0146231
654.832	0.0145488
654.910	0.0146692
654.988	0.0145939
655.067	0.0143924
655.145	0.0145193
655.223	0.0144730
655.301	0.0144246
655.379	0.0143678
655.457	0.0144669
655.535	0.0143025
655.613	0.0142931
655.692	0.0141843
655.770	0.0143033
655.848	0.0142422
655.926	0.0141933
656.004	0.0142822
656.082	0.0143510
656.160	0.0142289
656.238	0.0142436
656.317	0.0143569
656.395	0.0142691
656.473	0.0143230
656.551	0.0143893
656.629	0.0144062
656.707	0.0143754
656.785	0.0143560
656.863	0.0144024
656.942	0.0142783
657.020	0.0143562
657.098	0.0144453
657.176	0.0144203
657.254	0.0144753
657.332	0.0144859
657.410	0.0143502
657.488	0.0144254
657.567	0.0144198
657.645	0.0144034
657.723	0.0144891
657.801	0.0143653
657.879	0.0144505
657.957	0.0143179
658.035	0.0145229
658.113	0.0144253
658.192	0.0144180
658.270	0.0143894
658.348	0.0145354
658.426	0.0146527
658.504	0.0145904
658.582	0.0144953
658.660	0.0144508
658.738	0.0145018
658.817	0.0145143
658.895	0.0145401
658.973	0.0143469
659.051	0.0144223
659.129	0.0146111
659.207	0.0144110
659.285	0.0144351
659.363	0.0144340
659.442	0.0144624
659.520	0.0143243
659.598	0.0145258
659.676	0.0144305
659.754	0.0142993
659.832	0.0144082
659.910	0.0142506
659.988	0.0143722
660.067	0.0143515
660.145	0.0142194
660.223	0.0141692
660.301	0.0142372
660.379	0.0142104
660.457	0.0140816
660.535	0.0141751
660.613	0.0141930
660.692	0.0141029
660.770	0.0142372
660.848	0.0141224
660.926	0.0141230
661.004	0.0141941
661.082	0.0142541
661.160	0.0140714
661.238	0.0143204
661.317	0.0142706
661.395	0.0143259
661.473	0.0141850
661.551	0.0142088
661.629	0.0141165
661.707	0.0140167
661.785	0.0141559
661.863	0.0141703
661.942	0.0142142
662.020	0.0141222
662.098	0.0142474
662.176	0.0141894
662.254	0.0143487
662.332	0.0143233
662.410	0.0143245
662.488	0.0142690
662.567	0.0143317
662.645	0.0145216
662.723	0.0144486
662.801	0.0144978
662.879	0.0145353
662.957	0.0145803
663.035	0.0144752
663.113	0.0145025
663.192	0.0144999
663.270	0.0143586
663.348	0.0143900
663.426	0.0142982
663.504	0.0144069
663.582	0.0143420
663.660	0.0142434
663.738	0.0142394
663.817	0.0142992
663.895	0.0141996
663.973	0.0143200
664.051	0.0143835
664.129	0.0141953
664.207	0.0143549
664.285	0.0144265
664.363	0.0142444
664.442	0.0142571
664.520	0.0142882
664.598	0.0143397
664.676	0.0142900
664.754	0.0143854
664.832	0.0144913
664.910	0.0142307
664.988	0.0143265
665.067	0.0143839
665.145	0.0143385
665.223	0.0144149
665.301	0.0142744
665.379	0.0142940
665.457	0.0142924
665.535	0.0142378
665.613	0.0142914
665.692	0.0142281
665.770	0.0141877
665.848	0.0143023
665.926	0.0143348
666.004	0.0142572
666.082	0.0142084
666.160	0.0142322
666.238	0.0142963
666.317	0.0143588
666.395	0.0143797
666.473	0.0143178
666.551	0.0143172
666.629	0.0143375
666.707	0.0143562
666.785	0.0144019
666.863	0.0142593
666.942	0.0144502
667.020	0.0143167
667.098	0.0142340
667.176	0.0144975
667.254	0.0143996
667.332	0.0144858
667.410	0.0145474
667.488	0.0145384
667.567	0.0143358
667.645	0.0145406
667.723	0.0145766
667.801	0.0145352
667.879	0.0144815
667.957	0.0145260
668.035	0.0145607
668.113	0.0145143
668.192	0.0145558
668.270	0.0145151
668.348	0.0143883
668.426	0.0144764
668.504	0.0143942
668.582	0.0144843
668.660	0.0144216
668.738	0.0145141
668.817	0.0144058
668.895	0.0144194
668.973	0.0145332
669.051	0.0144552
669.129	0.0143910
669.207	0.0143935
669.285	0.0144839
669.363	0.0145752
669.442	0.0145201
669.520	0.0143510
669.598	0.0144556
669.676	0.0145275
669.754	0.0146485
669.832	0.0145207
669.910	0.0144572
669.988	0.0146959
670.067	0.0145525
670.145	0.0145266
670.223	0.0145139
670.301	0.0146193
670.379	0.0146246
670.457	0.0145459
670.535	0.0146133
670.613	0.0145653
670.692	0.0144156
670.770	0.0143887
670.848	0.0145426
670.926	0.0145489
671.004	0.0142929
671.082	0.0144561
671.160	0.0143745
671.238	0.0142894
671.317	0.0143956
671.395	0.0144913
671.473	0.0143629
671.551	0.0143671
671.629	0.0145541
671.707	0.0143295
671.785	0.0144613
671.863	0.0144641
671.942	0.0143449
672.020	0.0144337
672.098	0.0143524
672.176	0.0143394
672.254	0.0142978
672.332	0.0143232
672.410	0.0144044
672.488	0.0142626
672.567	0.0143322
672.645	0.0143296
672.723	0.0142767
672.801	0.0141806
672.879	0.0143002
672.957	0.0143053
673.035	0.0143481
673.113	0.0143154
673.192	0.0141399
673.270	0.0142275
673.348	0.0142374
673.426	0.0140766
673.504	0.0142878
673.582	0.0141956
673.660	0.0142923
673.738	0.0142165
673.817	0.0142078
673.895	0.0142899
673.973	0.0142718
674.051	0.0143960
674.129	0.0144202
674.207	0.0144353
674.285	0.0144756
674.363	0.0145646
674.442	0.0144334
674.520	0.0144529
674.598	0.0144236
674.676	0.0144804
674.754	0.0145950
674.832	0.0144503
674.910	0.0143638
674.988	0.0144323
675.067	0.0143674
675.145	0.0143091
675.223	0.0143083
675.301	0.0143697
675.379	0.0142224
675.457	0.0144395
675.535	0.0143127
675.613	0.0143913
675.692	0.0142324
675.770	0.0141701
675.848	0.0143680
675.926	0.0142370
676.004	0.0141435
676.082	0.0142601
676.160	0.0142505
676.238	0.0141779
676.317	0.0143403
676.395	0.0142535
676.473	0.0142107
676.551	0.0142369
676.629	0.0144391
676.707	0.0143687
676.785	0.0145103
676.863	0.0144289
676.942	0.0144341
677.020	0.0144436
677.098	0.0143884
677.176	0.0146390
677.254	0.0147081
677.332	0.0147053
677.410	0.0145982
677.488	0.0147874
677.567	0.0149590
677.645	0.0149703
677.723	0.0147484
677.801	0.0148650
677.879	0.0149086
677.957	0.0149175
678.035	0.0150109
678.113	0.0149702
678.192	0.0148923
678.270	0.0148724
678.348	0.0147770
678.426	0.0146196
678.504	0.0147186
678.582	0.0146466
678.660	0.0145618
678.738	0.0145302
678.817	0.0145515
678.895	0.0144640
678.973	0.0144517
679.051	0.0144222
679.129	0.0144457
679.207	0.0143999
679.285	0.0141846
679.363	0.0141836
679.442	0.0142760
679.520	0.0142435
679.598	0.0141812
679.676	0.0140724
679.754	0.0141608
679.832	0.0141931
679.910	0.0142062
679.988	0.0141339
680.067	0.0141002
680.145	0.0141273
680.223	0.0142235
680.301	0.0142720
680.379	0.0141718
680.457	0.0142309
680.535	0.0143272
680.613	0.0142519
680.692	0.0142873
680.770	0.0143370
680.848	0.0143651
680.926	0.0144082
681.004	0.0144286
681.082	0.0143579
681.160	0.0144363
681.238	0.0147215
681.317	0.0144669
681.395	0.0144969
681.473	0.0146477
681.551	0.0145992
681.629	0.0144911
681.707	0.0146989
681.785	0.0146767
681.863	0.0146245
681.942	0.0146337
682.020	0.0146677
682.098	0.0148059
682.176	0.0147138
682.254	0.0147411
682.332	0.0147003
682.410	0.0147614
682.488	0.0147615
682.567	0.0147633
682.645	0.0147243
682.723	0.0145573
682.801	0.0145102
682.879	0.0145428
682.957	0.0145667
683.035	0.0145498
683.113	0.0147313
683.192	0.0145310
683.270	0.0143530
683.348	0.0144532
683.426	0.0144217
683.504	0.0143677
683.582	0.0142302
683.660	0.0142101
683.738	0.0141536
683.817	0.0141478
683.895	0.0140654
683.973	0.0140523
684.051	0.0141688
684.129	0.0141869
684.207	0.0139785
684.285	0.0138436
684.363	0.0140183
684.442	0.0139603
684.520	0.0138317
684.598	0.0139054
684.676	0.0138514
684.754	0.0138668
684.832	0.0139680
684.910	0.0140178
684.988	0.0140490
685.067	0.0141293
685.145	0.0141691
685.223	0.0139920
685.301	0.0141530
685.379	0.0141789
685.457	0.0142165
685.535	0.0143169
685.613	0.0144595
685.692	0.0143723
