05/28/2022	14:42:22	Ver.	4.1	UNKNOWN
Optical Delay	559.987403	Delta X		0.078125	Sweeps	1	Scan Rate	0/0
Coordinates	Axis 1	NaN	Axis 2	NaN	Axis 3	NaN	Axis 4	NaN	Axis 5	NaN	Axis 6	0.000000
TX Power	0.000000	RX Power	0.000000

559.987	0.0149044
560.066	0.0151067
560.144	0.0149499
560.222	0.0150416
560.300	0.0150358
560.378	0.0149804
560.456	0.0151260
560.534	0.0151331
560.612	0.0150042
560.691	0.0149772
560.769	0.0150364
560.847	0.0149225
560.925	0.0150354
561.003	0.0150074
561.081	0.0149394
561.159	0.0149880
561.237	0.0150277
561.316	0.0149475
561.394	0.0149981
561.472	0.0150400
561.550	0.0149864
561.628	0.0148287
561.706	0.0148809
561.784	0.0149284
561.862	0.0150146
561.941	0.0149315
562.019	0.0148712
562.097	0.0149864
562.175	0.0149506
562.253	0.0148625
562.331	0.0148852
562.409	0.0148860
562.487	0.0148166
562.566	0.0149698
562.644	0.0150024
562.722	0.0148552
562.800	0.0148237
562.878	0.0148651
562.956	0.0148145
563.034	0.0149428
563.112	0.0148241
563.191	0.0147868
563.269	0.0148840
563.347	0.0149068
563.425	0.0148535
563.503	0.0148008
563.581	0.0147574
563.659	0.0146893
563.737	0.0147557
563.816	0.0149016
563.894	0.0148682
563.972	0.0148067
564.050	0.0147848
564.128	0.0148217
564.206	0.0146791
564.284	0.0147456
564.362	0.0148772
564.441	0.0148313
564.519	0.0148150
564.597	0.0147245
564.675	0.0146185
564.753	0.0148772
564.831	0.0148044
564.909	0.0148203
564.987	0.0148169
565.066	0.0146989
565.144	0.0147523
565.222	0.0146426
565.300	0.0147376
565.378	0.0146218
565.456	0.0146486
565.534	0.0147607
565.612	0.0146138
565.691	0.0146667
565.769	0.0145803
565.847	0.0147115
565.925	0.0145589
566.003	0.0146139
566.081	0.0147191
566.159	0.0146853
566.237	0.0145644
566.316	0.0144832
566.394	0.0146343
566.472	0.0145750
566.550	0.0144766
566.628	0.0144145
566.706	0.0146537
566.784	0.0145385
566.862	0.0144417
566.941	0.0144911
567.019	0.0144682
567.097	0.0144986
567.175	0.0145696
567.253	0.0143867
567.331	0.0144283
567.409	0.0145946
567.487	0.0146857
567.566	0.0144621
567.644	0.0144686
567.722	0.0146705
567.800	0.0146656
567.878	0.0145766
567.956	0.0145099
568.034	0.0145154
568.112	0.0146662
568.191	0.0146093
568.269	0.0147192
568.347	0.0148034
568.425	0.0146827
568.503	0.0149837
568.581	0.0147795
568.659	0.0147520
568.737	0.0148010
568.816	0.0147590
568.894	0.0148508
568.972	0.0148795
569.050	0.0149034
569.128	0.0147065
569.206	0.0147459
569.284	0.0148288
569.362	0.0150974
569.441	0.0150282
569.519	0.0148391
569.597	0.0149532
569.675	0.0149776
569.753	0.0149355
569.831	0.0148735
569.909	0.0149505
569.987	0.0149937
570.066	0.0149470
570.144	0.0149363
570.222	0.0149625
570.300	0.0150600
570.378	0.0149756
570.456	0.0148986
570.534	0.0149186
570.612	0.0149475
570.691	0.0151345
570.769	0.0149919
570.847	0.0148714
570.925	0.0148923
571.003	0.0149455
571.081	0.0148866
571.159	0.0149601
571.237	0.0150251
571.316	0.0148615
571.394	0.0147018
571.472	0.0148502
571.550	0.0149332
571.628	0.0149229
571.706	0.0149328
571.784	0.0147367
571.862	0.0149030
571.941	0.0148656
572.019	0.0148027
572.097	0.0148785
572.175	0.0149065
572.253	0.0148914
572.331	0.0148730
572.409	0.0147994
572.487	0.0149442
572.566	0.0149207
572.644	0.0150157
572.722	0.0149084
572.800	0.0148714
572.878	0.0149728
572.956	0.0150652
573.034	0.0149760
573.112	0.0149314
573.191	0.0150129
573.269	0.0149762
573.347	0.0149870
573.425	0.0149277
573.503	0.0151154
573.581	0.0150896
573.659	0.0150314
573.737	0.0150855
573.816	0.0151412
573.894	0.0148460
573.972	0.0149549
574.050	0.0150874
574.128	0.0149588
574.206	0.0150677
574.284	0.0148767
574.362	0.0149397
574.441	0.0150873
574.519	0.0150555
574.597	0.0149171
574.675	0.0151179
574.753	0.0150304
574.831	0.0150109
574.909	0.0151301
574.987	0.0151081
575.066	0.0150131
575.144	0.0149976
575.222	0.0151058
575.300	0.0149826
575.378	0.0149264
575.456	0.0149026
575.534	0.0149221
575.612	0.0148963
575.691	0.0148704
575.769	0.0148762
575.847	0.0149295
575.925	0.0149014
576.003	0.0148653
576.081	0.0147795
576.159	0.0148931
576.237	0.0148788
576.316	0.0148916
576.394	0.0148486
576.472	0.0147720
576.550	0.0147332
576.628	0.0147299
576.706	0.0146726
576.784	0.0147555
576.862	0.0147242
576.941	0.0146365
577.019	0.0148075
577.097	0.0148022
577.175	0.0146686
577.253	0.0145943
577.331	0.0146219
577.409	0.0145537
577.487	0.0147023
577.566	0.0147409
577.644	0.0146581
577.722	0.0146113
577.800	0.0147128
577.878	0.0146129
577.956	0.0146299
578.034	0.0147556
578.112	0.0147908
578.191	0.0145912
578.269	0.0146302
578.347	0.0146191
578.425	0.0146857
578.503	0.0146909
578.581	0.0147256
578.659	0.0147205
578.737	0.0147395
578.816	0.0148804
578.894	0.0147874
578.972	0.0147481
579.050	0.0147984
579.128	0.0149362
579.206	0.0147454
579.284	0.0148229
579.362	0.0149358
579.441	0.0148681
579.519	0.0147409
579.597	0.0149568
579.675	0.0148254
579.753	0.0147473
579.831	0.0148339
579.909	0.0148316
579.987	0.0148035
580.066	0.0146522
580.144	0.0147436
580.222	0.0149417
580.300	0.0147968
580.378	0.0147738
580.456	0.0148494
580.534	0.0147154
580.612	0.0147822
580.691	0.0147936
580.769	0.0146700
580.847	0.0147668
580.925	0.0147505
581.003	0.0147575
581.081	0.0147084
581.159	0.0147498
581.237	0.0147771
581.316	0.0145197
581.394	0.0145137
581.472	0.0145309
581.550	0.0145723
581.628	0.0147023
581.706	0.0145937
581.784	0.0146635
581.862	0.0145075
581.941	0.0144475
582.019	0.0145200
582.097	0.0144831
582.175	0.0146237
582.253	0.0145098
582.331	0.0145078
582.409	0.0144242
582.487	0.0144159
582.566	0.0142891
582.644	0.0144126
582.722	0.0145631
582.800	0.0145100
582.878	0.0144814
582.956	0.0143490
583.034	0.0143909
583.112	0.0145615
583.191	0.0143739
583.269	0.0143526
583.347	0.0145022
583.425	0.0144730
583.503	0.0144217
583.581	0.0144965
583.659	0.0144917
583.737	0.0144402
583.816	0.0144414
583.894	0.0144757
583.972	0.0145961
584.050	0.0145227
584.128	0.0145636
584.206	0.0145145
584.284	0.0145550
584.362	0.0146234
584.441	0.0146627
584.519	0.0145701
584.597	0.0145844
584.675	0.0147512
584.753	0.0148595
584.831	0.0147820
584.909	0.0148212
584.987	0.0149660
585.066	0.0148727
585.144	0.0148549
585.222	0.0148791
585.300	0.0148589
585.378	0.0149355
585.456	0.0149138
585.534	0.0149940
585.612	0.0150584
585.691	0.0150202
585.769	0.0149611
585.847	0.0150906
585.925	0.0150153
586.003	0.0150186
586.081	0.0148734
586.159	0.0148718
586.237	0.0150356
586.316	0.0149642
586.394	0.0148839
586.472	0.0149899
586.550	0.0149779
586.628	0.0149615
586.706	0.0148644
586.784	0.0150020
586.862	0.0149681
586.941	0.0149393
587.019	0.0149084
587.097	0.0147937
587.175	0.0148737
587.253	0.0147913
587.331	0.0148490
587.409	0.0147605
587.487	0.0147299
587.566	0.0146964
587.644	0.0146748
587.722	0.0145592
587.800	0.0145428
587.878	0.0145636
587.956	0.0146479
588.034	0.0146195
588.112	0.0145017
588.191	0.0146432
588.269	0.0146323
588.347	0.0144930
588.425	0.0145958
588.503	0.0146468
588.581	0.0145712
588.659	0.0146881
588.737	0.0146922
588.816	0.0145824
588.894	0.0146727
588.972	0.0146421
589.050	0.0148206
589.128	0.0146223
589.206	0.0147394
589.284	0.0147703
589.362	0.0146994
589.441	0.0147944
589.519	0.0147496
589.597	0.0147320
589.675	0.0147059
589.753	0.0146011
589.831	0.0147527
589.909	0.0147668
589.987	0.0145850
590.066	0.0145950
590.144	0.0146392
590.222	0.0146843
590.300	0.0147507
590.378	0.0146268
590.456	0.0145762
590.534	0.0145016
590.612	0.0145490
590.691	0.0144120
590.769	0.0145565
590.847	0.0145580
590.925	0.0145215
591.003	0.0146507
591.081	0.0146696
591.159	0.0147611
591.237	0.0146480
591.316	0.0146712
591.394	0.0146385
591.472	0.0145985
591.550	0.0145665
591.628	0.0147334
591.706	0.0147758
591.784	0.0148321
591.862	0.0146661
591.941	0.0146440
592.019	0.0148396
592.097	0.0147560
592.175	0.0148083
592.253	0.0147432
592.331	0.0146828
592.409	0.0147457
592.487	0.0146743
592.566	0.0147604
592.644	0.0146589
592.722	0.0146304
592.800	0.0147997
592.878	0.0146924
592.956	0.0147083
593.034	0.0147340
593.112	0.0147916
593.191	0.0147778
593.269	0.0147175
593.347	0.0147875
593.425	0.0147714
593.503	0.0147475
593.581	0.0148093
593.659	0.0148224
593.737	0.0147710
593.816	0.0149014
593.894	0.0147840
593.972	0.0148193
594.050	0.0147951
594.128	0.0150449
594.206	0.0149020
594.284	0.0149723
594.362	0.0150672
594.441	0.0150392
594.519	0.0150294
594.597	0.0149516
594.675	0.0149419
594.753	0.0150748
594.831	0.0150471
594.909	0.0151139
594.987	0.0150316
595.066	0.0149463
595.144	0.0151781
595.222	0.0151646
595.300	0.0149041
595.378	0.0149847
595.456	0.0150174
595.534	0.0149181
595.612	0.0149458
595.691	0.0150350
595.769	0.0149283
595.847	0.0149316
595.925	0.0149529
596.003	0.0147586
596.081	0.0149430
596.159	0.0149432
596.237	0.0147926
596.316	0.0149976
596.394	0.0149960
596.472	0.0149678
596.550	0.0148219
596.628	0.0150496
596.706	0.0149589
596.784	0.0149378
596.862	0.0149658
596.941	0.0148570
597.019	0.0148028
597.097	0.0148952
597.175	0.0149450
597.253	0.0150070
597.331	0.0149231
597.409	0.0148779
597.487	0.0148308
597.566	0.0149503
597.644	0.0147993
597.722	0.0148587
597.800	0.0149306
597.878	0.0150259
597.956	0.0149191
598.034	0.0148192
598.112	0.0149285
598.191	0.0151831
598.269	0.0148072
598.347	0.0148470
598.425	0.0147734
598.503	0.0149567
598.581	0.0149078
598.659	0.0149559
598.737	0.0147276
598.816	0.0149650
598.894	0.0149540
598.972	0.0147992
599.050	0.0148370
599.128	0.0147720
599.206	0.0147826
599.284	0.0148031
599.362	0.0147582
599.441	0.0147659
599.519	0.0147642
599.597	0.0147552
599.675	0.0145961
599.753	0.0145950
599.831	0.0147582
599.909	0.0146010
599.987	0.0146512
600.066	0.0147765
600.144	0.0145481
600.222	0.0145352
600.300	0.0145415
600.378	0.0146341
600.456	0.0145751
600.534	0.0145507
600.612	0.0145141
600.691	0.0146166
600.769	0.0146749
600.847	0.0146382
600.925	0.0145190
601.003	0.0145232
601.081	0.0145988
601.159	0.0146399
601.237	0.0147423
601.316	0.0146059
601.394	0.0146490
601.472	0.0146439
601.550	0.0145522
601.628	0.0146527
601.706	0.0146418
601.784	0.0149084
601.862	0.0147324
601.941	0.0146648
602.019	0.0147287
602.097	0.0147237
602.175	0.0148247
602.253	0.0148093
602.331	0.0147847
602.409	0.0148744
602.487	0.0149151
602.566	0.0148924
602.644	0.0149217
602.722	0.0149079
602.800	0.0148087
602.878	0.0148624
602.956	0.0147972
603.034	0.0148509
603.112	0.0147676
603.191	0.0148177
603.269	0.0147142
603.347	0.0147826
603.425	0.0147767
603.503	0.0147816
603.581	0.0145862
603.659	0.0148383
603.737	0.0147487
603.816	0.0148173
603.894	0.0147791
603.972	0.0147839
604.050	0.0147344
604.128	0.0147207
604.206	0.0147389
604.284	0.0147033
604.362	0.0147954
604.441	0.0146863
604.519	0.0148164
604.597	0.0147931
604.675	0.0148196
604.753	0.0147616
604.831	0.0149215
604.909	0.0148053
604.987	0.0148792
605.066	0.0147887
605.144	0.0148425
605.222	0.0148135
605.300	0.0147299
605.378	0.0149207
605.456	0.0149368
605.534	0.0147663
605.612	0.0147095
605.691	0.0149384
605.769	0.0146432
605.847	0.0146770
605.925	0.0149464
606.003	0.0147308
606.081	0.0146758
606.159	0.0146970
606.237	0.0146104
606.316	0.0146499
606.394	0.0146566
606.472	0.0147370
606.550	0.0146292
606.628	0.0146931
606.706	0.0146597
606.784	0.0147794
606.862	0.0146097
606.941	0.0146405
607.019	0.0146733
607.097	0.0147964
607.175	0.0145984
607.253	0.0144329
607.331	0.0145437
607.409	0.0147044
607.487	0.0147589
607.566	0.0145785
607.644	0.0146560
607.722	0.0144834
607.800	0.0146926
607.878	0.0146397
607.956	0.0145918
608.034	0.0147502
608.112	0.0146869
608.191	0.0146366
608.269	0.0146783
608.347	0.0146893
608.425	0.0147171
608.503	0.0147895
608.581	0.0147952
608.659	0.0147540
608.737	0.0148576
608.816	0.0149805
608.894	0.0149159
608.972	0.0148959
609.050	0.0148392
609.128	0.0148788
609.206	0.0148270
609.284	0.0149604
609.362	0.0148806
609.441	0.0148229
609.519	0.0146500
609.597	0.0146803
609.675	0.0147984
609.753	0.0147333
609.831	0.0146929
609.909	0.0147804
609.987	0.0146534
610.066	0.0146982
610.144	0.0146696
610.222	0.0146171
610.300	0.0146048
610.378	0.0145951
610.456	0.0145015
610.534	0.0145603
610.612	0.0146047
610.691	0.0146915
610.769	0.0146276
610.847	0.0145776
610.925	0.0145650
611.003	0.0144683
611.081	0.0145777
611.159	0.0147043
611.237	0.0145942
611.316	0.0143581
611.394	0.0144770
611.472	0.0145803
611.550	0.0146137
611.628	0.0146500
611.706	0.0146160
611.784	0.0144674
611.862	0.0144940
611.941	0.0145806
612.019	0.0144752
612.097	0.0145779
612.175	0.0145341
612.253	0.0145515
612.331	0.0146433
612.409	0.0145071
612.487	0.0145758
612.566	0.0145734
612.644	0.0145077
612.722	0.0145088
612.800	0.0146158
612.878	0.0147601
612.956	0.0146199
613.034	0.0145745
613.112	0.0146156
613.191	0.0146901
613.269	0.0148416
613.347	0.0147791
613.425	0.0148235
613.503	0.0149435
613.581	0.0148634
613.659	0.0146704
613.737	0.0148353
613.816	0.0148219
613.894	0.0149210
613.972	0.0149290
614.050	0.0147680
614.128	0.0147326
614.206	0.0147080
614.284	0.0147253
614.362	0.0147777
614.441	0.0148035
614.519	0.0146938
614.597	0.0147999
614.675	0.0148436
614.753	0.0147479
614.831	0.0147994
614.909	0.0147453
614.987	0.0148561
615.066	0.0148853
615.144	0.0147880
615.222	0.0149458
615.300	0.0149657
615.378	0.0148689
615.456	0.0147025
615.534	0.0148214
615.612	0.0148048
615.691	0.0146768
615.769	0.0146401
615.847	0.0146814
615.925	0.0147361
616.003	0.0146822
616.081	0.0144786
616.159	0.0146146
616.237	0.0146336
616.316	0.0147333
616.394	0.0145538
616.472	0.0145909
616.550	0.0145715
616.628	0.0145000
616.706	0.0145316
616.784	0.0144962
616.862	0.0145534
616.941	0.0145087
617.019	0.0145518
617.097	0.0146026
617.175	0.0144747
617.253	0.0146119
617.331	0.0145558
617.409	0.0145776
617.487	0.0146754
617.566	0.0147607
617.644	0.0144738
617.722	0.0146004
617.800	0.0147363
617.878	0.0147351
617.956	0.0146147
618.034	0.0146252
618.112	0.0146484
618.191	0.0145796
618.269	0.0146362
618.347	0.0146094
618.425	0.0145944
618.503	0.0145543
618.581	0.0146019
618.659	0.0146621
618.737	0.0147308
618.816	0.0145596
618.894	0.0146613
618.972	0.0146033
619.050	0.0145750
619.128	0.0145939
619.206	0.0144797
619.284	0.0144501
619.362	0.0146145
619.441	0.0145922
619.519	0.0145464
619.597	0.0144224
619.675	0.0145219
619.753	0.0144576
619.831	0.0146037
619.909	0.0145555
619.987	0.0144545
620.066	0.0145716
620.144	0.0146613
620.222	0.0146404
620.300	0.0147088
620.378	0.0147446
620.456	0.0146027
620.534	0.0148389
620.612	0.0148029
620.691	0.0147955
620.769	0.0146667
620.847	0.0147152
620.925	0.0148824
621.003	0.0147387
621.081	0.0148369
621.159	0.0147689
621.237	0.0147568
621.316	0.0147382
621.394	0.0147817
621.472	0.0148483
621.550	0.0149007
621.628	0.0148959
621.706	0.0146866
621.784	0.0147188
621.862	0.0147304
621.941	0.0148927
622.019	0.0148605
622.097	0.0148112
622.175	0.0148608
622.253	0.0146806
622.331	0.0147094
622.409	0.0146956
622.487	0.0148371
622.566	0.0146906
622.644	0.0148257
622.722	0.0146437
622.800	0.0146953
622.878	0.0146537
622.956	0.0146944
623.034	0.0149139
623.112	0.0145726
623.191	0.0147347
623.269	0.0147320
623.347	0.0145610
623.425	0.0147112
623.503	0.0147017
623.581	0.0146461
623.659	0.0146277
623.737	0.0147178
623.816	0.0147263
623.894	0.0147880
623.972	0.0148263
624.050	0.0147902
624.128	0.0147229
624.206	0.0147077
624.284	0.0149156
624.362	0.0147850
624.441	0.0147113
624.519	0.0146713
624.597	0.0147778
624.675	0.0147778
624.753	0.0146877
624.831	0.0147600
624.909	0.0146927
624.987	0.0147369
625.066	0.0147039
625.144	0.0147161
625.222	0.0146496
625.300	0.0145949
625.378	0.0147614
625.456	0.0146759
625.534	0.0146056
625.612	0.0145890
625.691	0.0146729
625.769	0.0147028
625.847	0.0146364
625.925	0.0148015
626.003	0.0147502
626.081	0.0146033
626.159	0.0148221
626.237	0.0146542
626.316	0.0147971
626.394	0.0148087
626.472	0.0146557
626.550	0.0147281
626.628	0.0147026
626.706	0.0146902
626.784	0.0145451
626.862	0.0147991
626.941	0.0146426
627.019	0.0147232
627.097	0.0146007
627.175	0.0145808
627.253	0.0144555
627.331	0.0146771
627.409	0.0145507
627.487	0.0144664
627.566	0.0147599
627.644	0.0146279
627.722	0.0145250
627.800	0.0146136
627.878	0.0145361
627.956	0.0145004
628.034	0.0145918
628.112	0.0145789
628.191	0.0145856
628.269	0.0146690
628.347	0.0147166
628.425	0.0145249
628.503	0.0144875
628.581	0.0147316
628.659	0.0146502
628.737	0.0146557
628.816	0.0147594
628.894	0.0146973
628.972	0.0146352
629.050	0.0147366
629.128	0.0148177
629.206	0.0146979
629.284	0.0148108
629.362	0.0148354
629.441	0.0146693
629.519	0.0148235
629.597	0.0147314
629.675	0.0147639
629.753	0.0147714
629.831	0.0147019
629.909	0.0147729
629.987	0.0148489
630.066	0.0147577
630.144	0.0146090
630.222	0.0145842
630.300	0.0146037
630.378	0.0146072
630.456	0.0147249
630.534	0.0148013
630.612	0.0146455
630.691	0.0146588
630.769	0.0147153
630.847	0.0148027
630.925	0.0146210
631.003	0.0145316
631.081	0.0145895
631.159	0.0146588
631.237	0.0147548
631.316	0.0148495
631.394	0.0148244
631.472	0.0147112
631.550	0.0147318
631.628	0.0147282
631.706	0.0147354
631.784	0.0147578
631.862	0.0146741
631.941	0.0147611
632.019	0.0148723
632.097	0.0147433
632.175	0.0146484
632.253	0.0148644
632.331	0.0148221
632.409	0.0147523
632.487	0.0149232
632.566	0.0146752
632.644	0.0146634
632.722	0.0146509
632.800	0.0147689
632.878	0.0147760
632.956	0.0147957
633.034	0.0147372
633.112	0.0147426
633.191	0.0148634
633.269	0.0148518
633.347	0.0148322
633.425	0.0147672
633.503	0.0148238
633.581	0.0149897
633.659	0.0148055
633.737	0.0149158
633.816	0.0149277
633.894	0.0148085
633.972	0.0148528
634.050	0.0148044
634.128	0.0148990
634.206	0.0150427
634.284	0.0149702
634.362	0.0149178
634.441	0.0148757
634.519	0.0149088
634.597	0.0148717
634.675	0.0148742
634.753	0.0148322
634.831	0.0148335
634.909	0.0147823
634.987	0.0148544
635.066	0.0148302
635.144	0.0148214
635.222	0.0146719
635.300	0.0147446
635.378	0.0146829
635.456	0.0145915
635.534	0.0146703
635.612	0.0145739
635.691	0.0145798
635.769	0.0145901
635.847	0.0147530
635.925	0.0145478
636.003	0.0145844
636.081	0.0146322
636.159	0.0145930
636.237	0.0145571
636.316	0.0146998
636.394	0.0146954
636.472	0.0146152
636.550	0.0146824
636.628	0.0146165
636.706	0.0145594
636.784	0.0145550
636.862	0.0145597
636.941	0.0146452
637.019	0.0144675
637.097	0.0144614
637.175	0.0145685
637.253	0.0145012
637.331	0.0146191
637.409	0.0145422
637.487	0.0146413
637.566	0.0146716
637.644	0.0146525
637.722	0.0147253
637.800	0.0147640
637.878	0.0146253
637.956	0.0147066
638.034	0.0147370
638.112	0.0147399
638.191	0.0146224
638.269	0.0147117
638.347	0.0148138
638.425	0.0147663
638.503	0.0145720
638.581	0.0146309
638.659	0.0146144
638.737	0.0146519
638.816	0.0146153
638.894	0.0145248
638.972	0.0146189
639.050	0.0144691
639.128	0.0146322
639.206	0.0147259
639.284	0.0147481
639.362	0.0145486
639.441	0.0145945
639.519	0.0147287
639.597	0.0146199
639.675	0.0146262
639.753	0.0146183
639.831	0.0145505
639.909	0.0145793
639.987	0.0146185
640.066	0.0146458
640.144	0.0147549
640.222	0.0145779
640.300	0.0145254
640.378	0.0144590
640.456	0.0146031
640.534	0.0145396
640.612	0.0144867
640.691	0.0146072
640.769	0.0147684
640.847	0.0145811
640.925	0.0146433
641.003	0.0146917
641.081	0.0147385
641.159	0.0146412
641.237	0.0148211
641.316	0.0146735
641.394	0.0145693
641.472	0.0147123
641.550	0.0148041
641.628	0.0147063
641.706	0.0148140
641.784	0.0146770
641.862	0.0146609
641.941	0.0147734
642.019	0.0147373
642.097	0.0146905
642.175	0.0146648
642.253	0.0145379
642.331	0.0146398
642.409	0.0146683
642.487	0.0145545
642.566	0.0145306
642.644	0.0146523
642.722	0.0147655
642.800	0.0146364
642.878	0.0146658
642.956	0.0146400
643.034	0.0146885
643.112	0.0147157
643.191	0.0148199
643.269	0.0147862
643.347	0.0146967
643.425	0.0148285
643.503	0.0148662
643.581	0.0147800
643.659	0.0149323
643.737	0.0148803
643.816	0.0148829
643.894	0.0148543
643.972	0.0148057
644.050	0.0149249
644.128	0.0149259
644.206	0.0149749
644.284	0.0149209
644.362	0.0147205
644.441	0.0146851
644.519	0.0147988
644.597	0.0148759
644.675	0.0148684
644.753	0.0150030
644.831	0.0148318
644.909	0.0147655
644.987	0.0149191
645.066	0.0148489
645.144	0.0148210
645.222	0.0147385
645.300	0.0148830
645.378	0.0147130
645.456	0.0147305
645.534	0.0147636
645.612	0.0147859
645.691	0.0146187
