05/28/2022	14:42:52	Ver.	4.1	UNKNOWN
Optical Delay	559.987403	Delta X		0.078125	Sweeps	1	Scan Rate	0/0
Coordinates	Axis 1	NaN	Axis 2	NaN	Axis 3	NaN	Axis 4	NaN	Axis 5	NaN	Axis 6	0.000000
TX Power	0.000000	RX Power	0.000000

559.987	0.0147137
560.066	0.0147224
560.144	0.0148125
560.222	0.0148288
560.300	0.0148128
560.378	0.0147955
560.456	0.0147696
560.534	0.0148977
560.612	0.0148125
560.691	0.0148398
560.769	0.0149133
560.847	0.0149203
560.925	0.0148243
561.003	0.0149251
561.081	0.0147830
561.159	0.0146805
561.237	0.0148383
561.316	0.0147057
561.394	0.0147278
561.472	0.0147193
561.550	0.0146754
561.628	0.0147211
561.706	0.0145583
561.784	0.0146899
561.862	0.0148531
561.941	0.0147181
562.019	0.0147871
562.097	0.0146786
562.175	0.0146577
562.253	0.0146641
562.331	0.0147174
562.409	0.0146774
562.487	0.0147294
562.566	0.0146516
562.644	0.0146368
562.722	0.0147478
562.800	0.0146325
562.878	0.0145988
562.956	0.0146157
563.034	0.0147779
563.112	0.0147690
563.191	0.0147852
563.269	0.0147520
563.347	0.0148100
563.425	0.0147891
563.503	0.0147500
563.581	0.0147002
563.659	0.0147649
563.737	0.0148485
563.816	0.0147713
563.894	0.0147922
563.972	0.0147102
564.050	0.0148431
564.128	0.0148781
564.206	0.0147736
564.284	0.0148003
564.362	0.0147639
564.441	0.0147031
564.519	0.0145125
564.597	0.0146314
564.675	0.0147157
564.753	0.0147375
564.831	0.0147779
564.909	0.0146285
564.987	0.0147163
565.066	0.0147456
565.144	0.0147867
565.222	0.0146447
565.300	0.0146226
565.378	0.0147913
565.456	0.0147662
565.534	0.0146603
565.612	0.0148205
565.691	0.0147766
565.769	0.0148167
565.847	0.0147827
565.925	0.0148230
566.003	0.0146920
566.081	0.0148122
566.159	0.0149082
566.237	0.0149366
566.316	0.0148387
566.394	0.0149692
566.472	0.0149899
566.550	0.0150772
566.628	0.0149425
566.706	0.0149013
566.784	0.0150200
566.862	0.0148909
566.941	0.0149142
567.019	0.0150702
567.097	0.0151422
567.175	0.0149610
567.253	0.0146942
567.331	0.0150327
567.409	0.0150504
567.487	0.0149222
567.566	0.0148880
567.644	0.0149948
567.722	0.0149415
567.800	0.0147754
567.878	0.0148516
567.956	0.0148775
568.034	0.0149464
568.112	0.0148315
568.191	0.0148064
568.269	0.0148087
568.347	0.0148130
568.425	0.0146551
568.503	0.0148785
568.581	0.0149289
568.659	0.0148740
568.737	0.0147675
568.816	0.0147314
568.894	0.0149368
568.972	0.0148959
569.050	0.0147815
569.128	0.0146466
569.206	0.0147685
569.284	0.0147918
569.362	0.0148858
569.441	0.0147937
569.519	0.0147584
569.597	0.0147283
569.675	0.0146951
569.753	0.0148302
569.831	0.0147786
569.909	0.0148764
569.987	0.0147672
570.066	0.0147171
570.144	0.0148307
570.222	0.0147663
570.300	0.0148710
570.378	0.0147793
570.456	0.0147383
570.534	0.0148629
570.612	0.0149718
570.691	0.0147968
570.769	0.0147295
570.847	0.0149237
570.925	0.0146719
571.003	0.0148163
571.081	0.0148061
571.159	0.0148442
571.237	0.0147710
571.316	0.0148155
571.394	0.0148625
571.472	0.0150063
571.550	0.0149218
571.628	0.0148733
571.706	0.0149663
571.784	0.0148631
571.862	0.0149387
571.941	0.0149373
572.019	0.0148755
572.097	0.0148315
572.175	0.0149188
572.253	0.0149389
572.331	0.0149587
572.409	0.0149780
572.487	0.0148610
572.566	0.0149343
572.644	0.0149818
572.722	0.0148019
572.800	0.0148743
572.878	0.0150335
572.956	0.0149285
573.034	0.0148573
573.112	0.0148792
573.191	0.0147557
573.269	0.0147760
573.347	0.0148222
573.425	0.0148113
573.503	0.0146390
573.581	0.0146150
573.659	0.0147513
573.737	0.0147569
573.816	0.0146625
573.894	0.0146378
573.972	0.0147060
574.050	0.0144814
574.128	0.0145197
574.206	0.0145368
574.284	0.0146005
574.362	0.0146188
574.441	0.0145976
574.519	0.0144247
574.597	0.0144479
574.675	0.0143710
574.753	0.0144619
574.831	0.0142949
574.909	0.0144417
574.987	0.0144014
575.066	0.0143401
575.144	0.0143385
575.222	0.0144129
575.300	0.0143076
575.378	0.0144799
575.456	0.0143058
575.534	0.0144208
575.612	0.0143380
575.691	0.0144061
575.769	0.0144035
575.847	0.0142818
575.925	0.0145506
576.003	0.0143954
576.081	0.0144534
576.159	0.0144635
576.237	0.0144057
576.316	0.0145492
576.394	0.0145205
576.472	0.0143521
576.550	0.0146732
576.628	0.0145689
576.706	0.0144705
576.784	0.0146248
576.862	0.0145840
576.941	0.0146021
577.019	0.0147003
577.097	0.0147887
577.175	0.0147753
577.253	0.0146908
577.331	0.0148285
577.409	0.0145761
577.487	0.0147742
577.566	0.0147260
577.644	0.0146370
577.722	0.0147460
577.800	0.0147401
577.878	0.0148165
577.956	0.0148285
578.034	0.0147258
578.112	0.0147298
578.191	0.0147563
578.269	0.0148109
578.347	0.0147276
578.425	0.0146577
578.503	0.0147395
578.581	0.0146029
578.659	0.0145725
578.737	0.0146689
578.816	0.0145271
578.894	0.0146526
578.972	0.0145889
579.050	0.0146094
579.128	0.0146375
579.206	0.0146420
579.284	0.0145850
579.362	0.0145148
579.441	0.0145220
579.519	0.0145655
579.597	0.0145868
579.675	0.0144312
579.753	0.0144152
579.831	0.0145219
579.909	0.0145187
579.987	0.0144900
580.066	0.0143945
580.144	0.0143855
580.222	0.0143924
580.300	0.0143781
580.378	0.0144469
580.456	0.0143217
580.534	0.0143858
580.612	0.0143773
580.691	0.0144290
580.769	0.0146044
580.847	0.0143908
580.925	0.0144199
581.003	0.0145081
581.081	0.0145470
581.159	0.0144647
581.237	0.0144421
581.316	0.0144746
581.394	0.0145547
581.472	0.0146693
581.550	0.0146452
581.628	0.0145306
581.706	0.0145958
581.784	0.0144806
581.862	0.0145703
581.941	0.0146786
582.019	0.0146058
582.097	0.0145853
582.175	0.0147782
582.253	0.0145209
582.331	0.0146967
582.409	0.0146697
582.487	0.0145915
582.566	0.0147399
582.644	0.0147512
582.722	0.0147671
582.800	0.0147248
582.878	0.0147816
582.956	0.0148193
583.034	0.0148279
583.112	0.0147393
583.191	0.0148779
583.269	0.0147808
583.347	0.0147335
583.425	0.0148734
583.503	0.0148011
583.581	0.0147914
583.659	0.0146834
583.737	0.0146821
583.816	0.0148306
583.894	0.0147742
583.972	0.0147475
584.050	0.0147736
584.128	0.0147562
584.206	0.0146080
584.284	0.0146693
584.362	0.0146457
584.441	0.0147180
584.519	0.0146951
584.597	0.0146806
584.675	0.0147254
584.753	0.0146539
584.831	0.0147402
584.909	0.0148781
584.987	0.0147736
585.066	0.0147376
585.144	0.0147098
585.222	0.0148798
585.300	0.0147816
585.378	0.0148736
585.456	0.0147456
585.534	0.0147176
585.612	0.0146986
585.691	0.0146371
585.769	0.0146436
585.847	0.0146120
585.925	0.0146095
586.003	0.0145944
586.081	0.0145310
586.159	0.0145409
586.237	0.0145655
586.316	0.0144534
586.394	0.0145309
586.472	0.0145208
586.550	0.0144081
586.628	0.0143457
586.706	0.0144779
586.784	0.0145700
586.862	0.0144749
586.941	0.0145834
587.019	0.0144707
587.097	0.0144841
587.175	0.0145918
587.253	0.0146259
587.331	0.0146133
587.409	0.0145980
587.487	0.0146719
587.566	0.0146335
587.644	0.0146372
587.722	0.0146913
587.800	0.0147379
587.878	0.0145886
587.956	0.0147033
588.034	0.0145983
588.112	0.0148189
588.191	0.0146555
588.269	0.0145035
588.347	0.0146476
588.425	0.0145373
588.503	0.0146246
588.581	0.0144439
588.659	0.0144453
588.737	0.0144630
588.816	0.0145176
588.894	0.0142700
588.972	0.0144310
589.050	0.0145116
589.128	0.0143581
589.206	0.0144791
589.284	0.0143750
589.362	0.0143961
589.441	0.0144015
589.519	0.0143904
589.597	0.0144526
589.675	0.0145159
589.753	0.0144737
589.831	0.0144503
589.909	0.0145282
589.987	0.0144427
590.066	0.0146069
590.144	0.0146562
590.222	0.0146242
590.300	0.0145817
590.378	0.0146059
590.456	0.0146069
590.534	0.0146877
590.612	0.0147148
590.691	0.0147787
590.769	0.0146032
590.847	0.0145948
590.925	0.0147540
591.003	0.0147350
591.081	0.0145283
591.159	0.0145417
591.237	0.0146460
591.316	0.0147096
591.394	0.0145325
591.472	0.0146300
591.550	0.0146197
591.628	0.0145623
591.706	0.0146442
591.784	0.0145529
591.862	0.0146828
591.941	0.0147105
592.019	0.0147661
592.097	0.0146208
592.175	0.0146141
592.253	0.0146496
592.331	0.0146503
592.409	0.0147156
592.487	0.0146607
592.566	0.0146273
592.644	0.0145753
592.722	0.0147150
592.800	0.0146490
592.878	0.0146490
592.956	0.0149545
593.034	0.0148175
593.112	0.0148059
593.191	0.0146307
593.269	0.0149097
593.347	0.0148392
593.425	0.0147816
593.503	0.0149160
593.581	0.0147745
593.659	0.0147438
593.737	0.0149163
593.816	0.0148546
593.894	0.0149892
593.972	0.0147865
594.050	0.0147362
594.128	0.0149416
594.206	0.0149831
594.284	0.0149490
594.362	0.0148722
594.441	0.0148296
594.519	0.0149041
594.597	0.0149865
594.675	0.0149998
594.753	0.0149197
594.831	0.0148770
594.909	0.0149966
594.987	0.0149220
595.066	0.0151128
595.144	0.0150626
595.222	0.0150050
595.300	0.0150889
595.378	0.0150558
595.456	0.0149560
595.534	0.0150207
595.612	0.0151900
595.691	0.0151293
595.769	0.0150787
595.847	0.0150978
595.925	0.0150980
596.003	0.0151085
596.081	0.0150195
596.159	0.0150436
596.237	0.0150621
596.316	0.0150380
596.394	0.0149361
596.472	0.0148911
596.550	0.0149638
596.628	0.0148241
596.706	0.0147650
596.784	0.0147440
596.862	0.0149194
596.941	0.0147719
597.019	0.0147687
597.097	0.0145979
597.175	0.0145490
597.253	0.0146198
597.331	0.0145280
597.409	0.0146613
597.487	0.0145277
597.566	0.0143872
597.644	0.0144945
597.722	0.0145319
597.800	0.0144990
597.878	0.0144334
597.956	0.0144672
598.034	0.0143530
598.112	0.0143610
598.191	0.0143375
598.269	0.0142596
598.347	0.0142567
598.425	0.0143946
598.503	0.0143607
598.581	0.0142365
598.659	0.0143162
598.737	0.0143596
598.816	0.0142989
598.894	0.0143022
598.972	0.0142954
599.050	0.0144364
599.128	0.0144583
599.206	0.0144171
599.284	0.0144293
599.362	0.0145332
599.441	0.0144611
599.519	0.0144241
599.597	0.0146318
599.675	0.0146394
599.753	0.0145277
599.831	0.0144737
599.909	0.0145602
599.987	0.0147397
600.066	0.0146765
600.144	0.0146234
600.222	0.0146063
600.300	0.0147013
600.378	0.0146529
600.456	0.0145797
600.534	0.0145051
600.612	0.0146991
600.691	0.0146523
600.769	0.0145422
600.847	0.0146474
600.925	0.0146867
601.003	0.0146360
601.081	0.0146604
601.159	0.0146255
601.237	0.0145765
601.316	0.0145712
601.394	0.0146386
601.472	0.0146674
601.550	0.0146446
601.628	0.0146885
601.706	0.0146145
601.784	0.0145305
601.862	0.0145652
601.941	0.0146436
602.019	0.0146223
602.097	0.0144498
602.175	0.0145364
602.253	0.0146504
602.331	0.0144012
602.409	0.0145690
602.487	0.0145499
602.566	0.0145028
602.644	0.0145522
602.722	0.0145301
602.800	0.0144909
602.878	0.0143868
602.956	0.0145583
603.034	0.0146650
603.112	0.0145518
603.191	0.0145564
603.269	0.0146001
603.347	0.0145691
603.425	0.0145892
603.503	0.0145944
603.581	0.0146129
603.659	0.0145482
603.737	0.0146100
603.816	0.0146261
603.894	0.0146096
603.972	0.0146153
604.050	0.0145174
604.128	0.0146085
604.206	0.0146616
604.284	0.0146658
604.362	0.0145710
604.441	0.0146196
604.519	0.0144483
604.597	0.0145565
604.675	0.0146506
604.753	0.0145546
604.831	0.0146310
604.909	0.0146936
604.987	0.0146741
605.066	0.0148398
605.144	0.0147717
605.222	0.0147401
605.300	0.0145959
605.378	0.0147087
605.456	0.0147051
605.534	0.0146783
605.612	0.0146275
605.691	0.0147713
605.769	0.0147301
605.847	0.0145422
605.925	0.0146972
606.003	0.0147068
606.081	0.0146066
606.159	0.0147279
606.237	0.0145954
606.316	0.0146852
606.394	0.0145383
606.472	0.0146278
606.550	0.0145888
606.628	0.0145273
606.706	0.0147505
606.784	0.0145616
606.862	0.0146719
606.941	0.0146553
607.019	0.0147152
607.097	0.0146310
607.175	0.0145754
607.253	0.0147630
607.331	0.0147344
607.409	0.0147743
607.487	0.0147591
607.566	0.0146592
607.644	0.0146287
607.722	0.0148598
607.800	0.0148174
607.878	0.0147230
607.956	0.0147694
608.034	0.0147332
608.112	0.0148557
608.191	0.0146861
608.269	0.0147285
608.347	0.0147624
608.425	0.0144979
608.503	0.0147031
608.581	0.0146453
608.659	0.0145336
608.737	0.0146680
608.816	0.0144812
608.894	0.0145380
608.972	0.0145255
609.050	0.0144147
609.128	0.0145564
609.206	0.0146830
609.284	0.0145850
609.362	0.0145953
609.441	0.0145745
609.519	0.0145942
609.597	0.0145960
609.675	0.0146716
609.753	0.0145232
609.831	0.0146649
609.909	0.0145688
609.987	0.0145776
610.066	0.0147077
610.144	0.0147217
610.222	0.0145683
610.300	0.0145063
610.378	0.0145731
610.456	0.0144582
610.534	0.0143647
610.612	0.0144578
610.691	0.0144825
610.769	0.0145267
610.847	0.0144671
610.925	0.0145357
611.003	0.0145191
611.081	0.0145367
611.159	0.0146760
611.237	0.0145712
611.316	0.0147529
611.394	0.0145499
611.472	0.0147189
611.550	0.0146838
611.628	0.0147457
611.706	0.0146309
611.784	0.0146638
611.862	0.0147182
611.941	0.0146056
612.019	0.0145963
612.097	0.0146861
612.175	0.0146355
612.253	0.0146165
612.331	0.0147124
612.409	0.0145450
612.487	0.0144348
612.566	0.0145333
612.644	0.0145229
612.722	0.0145566
612.800	0.0145608
612.878	0.0145621
612.956	0.0145308
613.034	0.0145372
613.112	0.0144128
613.191	0.0143835
613.269	0.0146128
613.347	0.0144852
613.425	0.0144057
613.503	0.0143929
613.581	0.0143005
613.659	0.0142533
613.737	0.0144624
613.816	0.0143916
613.894	0.0144238
613.972	0.0142451
614.050	0.0142950
614.128	0.0143337
614.206	0.0142666
614.284	0.0143284
614.362	0.0142812
614.441	0.0143070
614.519	0.0142908
614.597	0.0142191
614.675	0.0143954
614.753	0.0143931
614.831	0.0142849
614.909	0.0143248
614.987	0.0143607
615.066	0.0142204
615.144	0.0144489
615.222	0.0145615
615.300	0.0144019
615.378	0.0142924
615.456	0.0144144
615.534	0.0144794
615.612	0.0145151
615.691	0.0144960
615.769	0.0145877
615.847	0.0145052
615.925	0.0144836
616.003	0.0145409
616.081	0.0145657
616.159	0.0144909
616.237	0.0145543
616.316	0.0144851
616.394	0.0146482
616.472	0.0146354
616.550	0.0147794
616.628	0.0146160
616.706	0.0146397
616.784	0.0147799
616.862	0.0146764
616.941	0.0147906
617.019	0.0146708
617.097	0.0147979
617.175	0.0146005
617.253	0.0148773
617.331	0.0147977
617.409	0.0149162
617.487	0.0149075
617.566	0.0148257
617.644	0.0148390
617.722	0.0148709
617.800	0.0148930
617.878	0.0147395
617.956	0.0149017
618.034	0.0148260
618.112	0.0147927
618.191	0.0147379
618.269	0.0149059
618.347	0.0148661
618.425	0.0150152
618.503	0.0148407
618.581	0.0149186
618.659	0.0147783
618.737	0.0149632
618.816	0.0149519
618.894	0.0148997
618.972	0.0149320
619.050	0.0148417
619.128	0.0148557
619.206	0.0147377
619.284	0.0148035
619.362	0.0148244
619.441	0.0147679
619.519	0.0147678
619.597	0.0149283
619.675	0.0147591
619.753	0.0147671
619.831	0.0147699
619.909	0.0148118
619.987	0.0147766
620.066	0.0147503
620.144	0.0148479
620.222	0.0147718
620.300	0.0147605
620.378	0.0148254
620.456	0.0147513
620.534	0.0146684
620.612	0.0146326
620.691	0.0147346
620.769	0.0146476
620.847	0.0146197
620.925	0.0146574
621.003	0.0145438
621.081	0.0145036
621.159	0.0145425
621.237	0.0143860
621.316	0.0144951
621.394	0.0143694
621.472	0.0142957
621.550	0.0142802
621.628	0.0141076
621.706	0.0141803
621.784	0.0143852
621.862	0.0141605
621.941	0.0142173
622.019	0.0142933
622.097	0.0141418
622.175	0.0141747
622.253	0.0143001
622.331	0.0143569
622.409	0.0143136
622.487	0.0143816
622.566	0.0144909
622.644	0.0144212
622.722	0.0142408
622.800	0.0142634
622.878	0.0144075
622.956	0.0144211
623.034	0.0144450
623.112	0.0143783
623.191	0.0144099
623.269	0.0144646
623.347	0.0144163
623.425	0.0144138
623.503	0.0145300
623.581	0.0144090
623.659	0.0143915
623.737	0.0145200
623.816	0.0143905
623.894	0.0145284
623.972	0.0145531
624.050	0.0145134
624.128	0.0144463
624.206	0.0145912
624.284	0.0143954
624.362	0.0145094
624.441	0.0146619
624.519	0.0144890
624.597	0.0145368
624.675	0.0146188
624.753	0.0145057
624.831	0.0144945
624.909	0.0144673
624.987	0.0146879
625.066	0.0145787
625.144	0.0146461
625.222	0.0146498
625.300	0.0147451
625.378	0.0147051
625.456	0.0147036
625.534	0.0146978
625.612	0.0146990
625.691	0.0146237
625.769	0.0146227
625.847	0.0147980
625.925	0.0147564
626.003	0.0146677
626.081	0.0146389
626.159	0.0146786
626.237	0.0147107
626.316	0.0146137
626.394	0.0147897
626.472	0.0145805
626.550	0.0145688
626.628	0.0146322
626.706	0.0147660
626.784	0.0146979
626.862	0.0145364
626.941	0.0146778
627.019	0.0146831
627.097	0.0146592
627.175	0.0145773
627.253	0.0146369
627.331	0.0146848
627.409	0.0145290
627.487	0.0146461
627.566	0.0146181
627.644	0.0146332
627.722	0.0147762
627.800	0.0147854
627.878	0.0146503
627.956	0.0146391
628.034	0.0146716
628.112	0.0147881
628.191	0.0146530
628.269	0.0147761
628.347	0.0148959
628.425	0.0148334
628.503	0.0148480
628.581	0.0147675
628.659	0.0148110
628.737	0.0148640
628.816	0.0148724
628.894	0.0148740
628.972	0.0147122
629.050	0.0148881
629.128	0.0148388
629.206	0.0148129
629.284	0.0149848
629.362	0.0150584
629.441	0.0148822
629.519	0.0148591
629.597	0.0148048
629.675	0.0149504
629.753	0.0148613
629.831	0.0146644
629.909	0.0147407
629.987	0.0149257
630.066	0.0149606
630.144	0.0148992
630.222	0.0148561
630.300	0.0147385
630.378	0.0147343
630.456	0.0149123
630.534	0.0148186
630.612	0.0148396
630.691	0.0148643
630.769	0.0148584
630.847	0.0150165
630.925	0.0149714
631.003	0.0150490
631.081	0.0150925
631.159	0.0148956
631.237	0.0151222
631.316	0.0149316
631.394	0.0148094
631.472	0.0148574
631.550	0.0148040
631.628	0.0147285
631.706	0.0147395
631.784	0.0146832
631.862	0.0146851
631.941	0.0146744
632.019	0.0146255
632.097	0.0147225
632.175	0.0147099
632.253	0.0144537
632.331	0.0144341
632.409	0.0145860
632.487	0.0145229
632.566	0.0145868
632.644	0.0144045
632.722	0.0145047
632.800	0.0144463
632.878	0.0143763
632.956	0.0144317
633.034	0.0143875
633.112	0.0143481
633.191	0.0144284
633.269	0.0143993
633.347	0.0144196
633.425	0.0144196
633.503	0.0144207
633.581	0.0143204
633.659	0.0143336
633.737	0.0144781
633.816	0.0144306
633.894	0.0145224
633.972	0.0144057
634.050	0.0143886
634.128	0.0145445
634.206	0.0145070
634.284	0.0143984
634.362	0.0144851
634.441	0.0144473
634.519	0.0145932
634.597	0.0146592
634.675	0.0145299
634.753	0.0147248
634.831	0.0147895
634.909	0.0147153
634.987	0.0145995
635.066	0.0146679
635.144	0.0147008
635.222	0.0147282
635.300	0.0148251
635.378	0.0147932
635.456	0.0147276
635.534	0.0148122
635.612	0.0149069
635.691	0.0145345
635.769	0.0147406
635.847	0.0147781
635.925	0.0148215
636.003	0.0147365
636.081	0.0147456
636.159	0.0148325
636.237	0.0146584
636.316	0.0146499
636.394	0.0146841
636.472	0.0146783
636.550	0.0145454
636.628	0.0146998
636.706	0.0146065
636.784	0.0146248
636.862	0.0145903
636.941	0.0145194
637.019	0.0145305
637.097	0.0144690
637.175	0.0144759
637.253	0.0144633
637.331	0.0145272
637.409	0.0144566
637.487	0.0144573
637.566	0.0145107
637.644	0.0145456
637.722	0.0144300
637.800	0.0144960
637.878	0.0143697
637.956	0.0144159
638.034	0.0144678
638.112	0.0145557
638.191	0.0144984
638.269	0.0145620
638.347	0.0145661
638.425	0.0145844
638.503	0.0145650
638.581	0.0145578
638.659	0.0146288
638.737	0.0146324
638.816	0.0146254
638.894	0.0147334
638.972	0.0145641
639.050	0.0145380
639.128	0.0147762
639.206	0.0146706
639.284	0.0146174
639.362	0.0145992
639.441	0.0146249
639.519	0.0147139
639.597	0.0147210
639.675	0.0146018
639.753	0.0147053
639.831	0.0145995
639.909	0.0145788
639.987	0.0146103
640.066	0.0146755
640.144	0.0145847
640.222	0.0145071
640.300	0.0145370
640.378	0.0145301
640.456	0.0144440
640.534	0.0145296
640.612	0.0144311
640.691	0.0146326
640.769	0.0145713
640.847	0.0144792
640.925	0.0146030
641.003	0.0145011
641.081	0.0144920
641.159	0.0145853
641.237	0.0145772
641.316	0.0145748
641.394	0.0145570
641.472	0.0145456
641.550	0.0145335
641.628	0.0146030
641.706	0.0146431
641.784	0.0145299
641.862	0.0144880
641.941	0.0144785
642.019	0.0145770
642.097	0.0145331
642.175	0.0146059
642.253	0.0144592
642.331	0.0145320
642.409	0.0146019
642.487	0.0145973
642.566	0.0144196
642.644	0.0145784
642.722	0.0146577
642.800	0.0145847
642.878	0.0146567
642.956	0.0146243
643.034	0.0145953
643.112	0.0147553
643.191	0.0146957
643.269	0.0146881
643.347	0.0147112
643.425	0.0147805
643.503	0.0148315
643.581	0.0148002
643.659	0.0147933
643.737	0.0147815
643.816	0.0147381
643.894	0.0146828
643.972	0.0146796
644.050	0.0147525
644.128	0.0148508
644.206	0.0147195
644.284	0.0147842
644.362	0.0148888
644.441	0.0147514
644.519	0.0148732
644.597	0.0147672
644.675	0.0148438
644.753	0.0146582
644.831	0.0148043
644.909	0.0148726
644.987	0.0148209
645.066	0.0148245
645.144	0.0147757
645.222	0.0146468
645.300	0.0147755
645.378	0.0147058
645.456	0.0147650
645.534	0.0146510
645.612	0.0147477
645.691	0.0145496
