05/28/2022	13:54:55	Ver.	4.1	UNKNOWN
Optical Delay	599.988409	Delta X		0.078125	Sweeps	1	Scan Rate	0/0
Coordinates	Axis 1	NaN	Axis 2	NaN	Axis 3	NaN	Axis 4	NaN	Axis 5	NaN	Axis 6	0.000000
TX Power	0.000000	RX Power	0.000000

599.988	0.0148915
600.067	0.0149117
600.145	0.0148697
600.223	0.0149876
600.301	0.0149963
600.379	0.0148655
600.457	0.0149416
600.535	0.0150109
600.613	0.0149616
600.692	0.0150280
600.770	0.0148087
600.848	0.0149486
600.926	0.0149469
601.004	0.0150294
601.082	0.0149626
601.160	0.0148974
601.238	0.0149865
601.317	0.0148598
601.395	0.0148298
601.473	0.0149416
601.551	0.0148228
601.629	0.0149470
601.707	0.0151040
601.785	0.0148839
601.863	0.0148884
601.942	0.0148257
602.020	0.0149434
602.098	0.0149284
602.176	0.0149975
602.254	0.0148562
602.332	0.0148849
602.410	0.0148695
602.488	0.0149458
602.567	0.0148244
602.645	0.0149456
602.723	0.0149496
602.801	0.0148750
602.879	0.0149611
602.957	0.0147364
603.035	0.0149030
603.113	0.0148734
603.192	0.0148553
603.270	0.0149155
603.348	0.0148768
603.426	0.0148753
603.504	0.0148834
603.582	0.0150022
603.660	0.0149751
603.738	0.0148395
603.817	0.0149412
603.895	0.0148890
603.973	0.0149533
604.051	0.0149472
604.129	0.0148792
604.207	0.0149171
604.285	0.0147793
604.363	0.0150026
604.442	0.0148928
604.520	0.0149111
604.598	0.0147747
604.676	0.0148534
604.754	0.0148669
604.832	0.0148821
604.910	0.0147372
604.988	0.0149406
605.067	0.0149884
605.145	0.0148134
605.223	0.0147371
605.301	0.0148287
605.379	0.0148951
605.457	0.0149292
605.535	0.0148396
605.613	0.0149572
605.692	0.0149464
605.770	0.0149326
605.848	0.0148550
605.926	0.0148106
606.004	0.0148347
606.082	0.0147552
606.160	0.0150301
606.238	0.0148927
606.317	0.0149689
606.395	0.0149659
606.473	0.0149299
606.551	0.0148920
606.629	0.0149895
606.707	0.0149214
606.785	0.0149020
606.863	0.0148747
606.942	0.0149287
607.020	0.0150150
607.098	0.0149212
607.176	0.0150233
607.254	0.0150042
607.332	0.0148979
607.410	0.0148319
607.488	0.0148683
607.567	0.0148569
607.645	0.0149676
607.723	0.0149841
607.801	0.0149546
607.879	0.0148358
607.957	0.0149864
608.035	0.0149702
608.113	0.0149321
608.192	0.0148815
608.270	0.0150030
608.348	0.0148987
608.426	0.0149229
608.504	0.0149348
608.582	0.0148888
608.660	0.0147673
608.738	0.0149556
608.817	0.0149578
608.895	0.0148833
608.973	0.0149086
609.051	0.0148841
609.129	0.0149532
609.207	0.0149890
609.285	0.0149206
609.363	0.0149104
609.442	0.0149084
609.520	0.0149566
609.598	0.0150274
609.676	0.0148296
609.754	0.0148729
609.832	0.0148515
609.910	0.0148231
609.988	0.0149017
610.067	0.0148543
610.145	0.0149000
610.223	0.0148250
610.301	0.0149600
610.379	0.0150005
610.457	0.0147482
610.535	0.0148624
610.613	0.0149789
610.692	0.0149980
610.770	0.0148354
610.848	0.0148294
610.926	0.0148151
611.004	0.0147147
611.082	0.0149562
611.160	0.0149628
611.238	0.0149257
611.317	0.0148991
611.395	0.0148939
611.473	0.0149647
611.551	0.0150720
611.629	0.0149031
611.707	0.0150002
611.785	0.0149088
611.863	0.0149405
611.942	0.0148944
612.020	0.0149902
612.098	0.0149975
612.176	0.0149152
612.254	0.0148428
612.332	0.0149154
612.410	0.0151165
612.488	0.0149963
612.567	0.0149229
612.645	0.0148149
612.723	0.0148708
612.801	0.0148496
612.879	0.0150009
612.957	0.0148709
613.035	0.0149618
613.113	0.0148354
613.192	0.0149316
613.270	0.0149464
613.348	0.0148110
613.426	0.0148026
613.504	0.0148560
613.582	0.0148819
613.660	0.0148208
613.738	0.0149005
613.817	0.0148981
613.895	0.0148023
613.973	0.0149339
614.051	0.0148071
614.129	0.0148860
614.207	0.0149159
614.285	0.0149147
614.363	0.0148755
614.442	0.0149851
614.520	0.0149088
614.598	0.0148596
614.676	0.0150245
614.754	0.0150871
614.832	0.0148092
614.910	0.0149683
614.988	0.0148994
615.067	0.0149268
615.145	0.0148770
615.223	0.0148854
615.301	0.0148204
615.379	0.0150198
615.457	0.0149934
615.535	0.0149232
615.613	0.0149395
615.692	0.0149209
615.770	0.0148931
615.848	0.0148823
615.926	0.0146896
616.004	0.0148807
616.082	0.0149409
616.160	0.0148460
616.238	0.0148935
616.317	0.0149020
616.395	0.0149111
616.473	0.0148984
616.551	0.0149162
616.629	0.0148359
616.707	0.0149448
616.785	0.0149487
616.863	0.0150035
616.942	0.0149798
617.020	0.0148532
617.098	0.0148409
617.176	0.0149929
617.254	0.0150064
617.332	0.0150257
617.410	0.0148227
617.488	0.0147095
617.567	0.0148549
617.645	0.0148209
617.723	0.0148624
617.801	0.0149646
617.879	0.0149079
617.957	0.0149431
618.035	0.0148532
618.113	0.0149786
618.192	0.0150220
618.270	0.0148901
618.348	0.0148073
618.426	0.0149851
618.504	0.0148932
618.582	0.0148834
618.660	0.0148269
618.738	0.0148161
618.817	0.0148424
618.895	0.0148003
618.973	0.0148850
619.051	0.0149373
619.129	0.0148867
619.207	0.0149489
619.285	0.0148707
619.363	0.0147452
619.442	0.0148782
619.520	0.0148112
619.598	0.0150556
619.676	0.0149779
619.754	0.0148770
619.832	0.0147657
619.910	0.0149136
619.988	0.0149407
620.067	0.0148857
620.145	0.0149388
620.223	0.0149471
620.301	0.0149384
620.379	0.0147896
620.457	0.0148303
620.535	0.0150037
620.613	0.0149496
620.692	0.0149405
620.770	0.0149863
620.848	0.0149812
620.926	0.0148853
621.004	0.0149908
621.082	0.0150034
621.160	0.0148456
621.238	0.0148674
621.317	0.0150187
621.395	0.0150377
621.473	0.0149286
621.551	0.0148369
621.629	0.0149334
621.707	0.0149612
621.785	0.0148572
621.863	0.0147303
621.942	0.0149220
622.020	0.0149316
622.098	0.0148929
622.176	0.0149649
622.254	0.0149696
622.332	0.0149326
622.410	0.0149055
622.488	0.0148615
622.567	0.0148767
622.645	0.0149377
622.723	0.0149374
622.801	0.0150014
622.879	0.0148591
622.957	0.0148717
623.035	0.0147526
623.113	0.0148336
623.192	0.0149332
623.270	0.0149323
623.348	0.0149327
623.426	0.0149205
623.504	0.0148797
623.582	0.0148363
623.660	0.0148921
623.738	0.0148524
623.817	0.0149190
623.895	0.0149777
623.973	0.0148354
624.051	0.0149068
624.129	0.0149144
624.207	0.0149243
624.285	0.0148262
624.363	0.0149446
624.442	0.0148936
624.520	0.0147997
624.598	0.0149705
624.676	0.0149023
624.754	0.0147937
624.832	0.0148350
624.910	0.0149541
624.988	0.0148577
625.067	0.0148888
625.145	0.0147914
625.223	0.0149109
625.301	0.0150569
625.379	0.0148243
625.457	0.0147817
625.535	0.0148630
625.613	0.0148829
625.692	0.0148132
625.770	0.0148659
625.848	0.0150395
625.926	0.0149739
626.004	0.0147388
626.082	0.0148346
626.160	0.0148217
626.238	0.0148674
626.317	0.0147849
626.395	0.0149371
626.473	0.0148405
626.551	0.0147952
626.629	0.0148603
626.707	0.0148537
626.785	0.0150332
626.863	0.0149129
626.942	0.0148977
627.020	0.0148206
627.098	0.0148505
627.176	0.0149444
627.254	0.0149183
627.332	0.0148475
627.410	0.0149051
627.488	0.0149036
627.567	0.0149483
627.645	0.0149364
627.723	0.0148723
627.801	0.0148895
627.879	0.0147423
627.957	0.0148975
628.035	0.0149975
628.113	0.0148493
628.192	0.0147496
628.270	0.0148746
628.348	0.0148878
628.426	0.0147920
628.504	0.0148530
628.582	0.0148867
628.660	0.0149400
628.738	0.0150343
628.817	0.0149553
628.895	0.0149547
628.973	0.0148643
629.051	0.0149269
629.129	0.0148161
629.207	0.0148717
629.285	0.0148714
629.363	0.0148475
629.442	0.0149599
629.520	0.0151243
629.598	0.0148652
629.676	0.0148707
629.754	0.0149209
629.832	0.0148470
629.910	0.0149149
629.988	0.0150676
630.067	0.0148894
630.145	0.0149081
630.223	0.0149148
630.301	0.0148608
630.379	0.0149585
630.457	0.0149394
630.535	0.0148508
630.613	0.0148858
630.692	0.0149442
630.770	0.0147572
630.848	0.0149191
630.926	0.0149864
631.004	0.0149054
631.082	0.0149515
631.160	0.0150462
631.238	0.0147506
631.317	0.0148198
631.395	0.0149284
631.473	0.0149648
631.551	0.0149264
631.629	0.0149827
631.707	0.0149626
631.785	0.0149181
631.863	0.0148853
631.942	0.0148508
632.020	0.0149074
632.098	0.0150235
632.176	0.0147981
632.254	0.0148840
632.332	0.0149258
632.410	0.0148811
632.488	0.0148850
632.567	0.0149329
632.645	0.0149561
632.723	0.0149963
632.801	0.0148809
632.879	0.0148013
632.957	0.0149953
633.035	0.0147771
633.113	0.0148285
633.192	0.0148656
633.270	0.0148283
633.348	0.0149502
633.426	0.0150201
633.504	0.0148522
633.582	0.0149279
633.660	0.0150224
633.738	0.0149144
633.817	0.0148454
633.895	0.0148528
633.973	0.0149940
634.051	0.0149294
634.129	0.0148141
634.207	0.0150491
634.285	0.0148457
634.363	0.0149423
634.442	0.0150332
634.520	0.0149348
634.598	0.0149774
634.676	0.0149309
634.754	0.0148403
634.832	0.0150736
634.910	0.0149363
634.988	0.0148715
635.067	0.0149986
635.145	0.0150524
635.223	0.0149368
635.301	0.0148758
635.379	0.0147905
635.457	0.0148490
635.535	0.0150000
635.613	0.0150335
635.692	0.0147753
635.770	0.0148135
635.848	0.0149512
635.926	0.0149117
636.004	0.0148865
636.082	0.0147881
636.160	0.0148993
636.238	0.0147340
636.317	0.0148484
636.395	0.0149426
636.473	0.0147877
636.551	0.0148703
636.629	0.0149553
636.707	0.0148504
636.785	0.0148721
636.863	0.0150298
636.942	0.0148353
637.020	0.0148909
637.098	0.0149197
637.176	0.0149940
637.254	0.0148885
637.332	0.0148631
637.410	0.0149921
637.488	0.0148371
637.567	0.0148441
637.645	0.0147974
637.723	0.0149348
637.801	0.0148196
637.879	0.0148452
637.957	0.0150522
638.035	0.0148428
638.113	0.0148757
638.192	0.0147324
638.270	0.0147692
638.348	0.0148425
638.426	0.0148788
638.504	0.0148397
638.582	0.0148389
638.660	0.0149632
638.738	0.0149359
638.817	0.0148779
638.895	0.0149088
638.973	0.0148482
639.051	0.0148691
639.129	0.0149553
639.207	0.0148582
639.285	0.0148751
639.363	0.0149473
639.442	0.0148652
639.520	0.0148598
639.598	0.0149307
639.676	0.0149022
639.754	0.0149181
639.832	0.0148333
639.910	0.0147899
639.988	0.0148119
640.067	0.0149598
640.145	0.0150177
640.223	0.0148746
640.301	0.0149526
640.379	0.0149135
640.457	0.0149437
640.535	0.0149041
640.613	0.0149412
640.692	0.0150822
640.770	0.0147897
640.848	0.0149381
640.926	0.0148858
641.004	0.0149597
641.082	0.0149379
641.160	0.0148548
641.238	0.0147662
641.317	0.0148716
641.395	0.0149327
641.473	0.0149664
641.551	0.0148947
641.629	0.0149406
641.707	0.0148228
641.785	0.0148375
641.863	0.0148743
641.942	0.0147392
642.020	0.0148660
642.098	0.0148418
642.176	0.0149708
642.254	0.0147984
642.332	0.0148512
642.410	0.0148878
642.488	0.0148889
642.567	0.0148023
642.645	0.0149014
642.723	0.0148703
642.801	0.0149288
642.879	0.0147385
642.957	0.0148403
643.035	0.0147970
643.113	0.0149252
643.192	0.0148983
643.270	0.0149261
643.348	0.0148781
643.426	0.0148676
643.504	0.0148163
643.582	0.0148681
643.660	0.0149239
643.738	0.0147738
643.817	0.0148265
643.895	0.0149829
643.973	0.0149253
644.051	0.0147737
644.129	0.0149387
644.207	0.0148654
644.285	0.0148823
644.363	0.0150092
644.442	0.0149018
644.520	0.0149467
644.598	0.0149110
644.676	0.0149626
644.754	0.0147762
644.832	0.0149297
644.910	0.0148855
644.988	0.0147919
645.067	0.0149778
645.145	0.0149682
645.223	0.0148780
645.301	0.0150351
645.379	0.0149953
645.457	0.0149435
645.535	0.0148326
645.613	0.0149376
645.692	0.0149378
645.770	0.0148563
645.848	0.0148137
645.926	0.0147911
646.004	0.0149254
646.082	0.0149218
646.160	0.0148174
646.238	0.0148856
646.317	0.0149236
646.395	0.0148495
646.473	0.0148969
646.551	0.0149355
646.629	0.0148788
646.707	0.0147881
646.785	0.0148273
646.863	0.0148978
646.942	0.0149586
647.020	0.0148132
647.098	0.0148280
647.176	0.0148782
647.254	0.0148421
647.332	0.0149204
647.410	0.0149061
647.488	0.0148886
647.567	0.0147565
647.645	0.0149204
647.723	0.0150412
647.801	0.0148508
647.879	0.0148282
647.957	0.0148635
648.035	0.0148490
648.113	0.0150018
648.192	0.0149245
648.270	0.0147736
648.348	0.0149068
648.426	0.0149033
648.504	0.0149217
648.582	0.0148573
648.660	0.0149352
648.738	0.0150526
648.817	0.0150227
648.895	0.0149518
648.973	0.0149234
649.051	0.0149077
649.129	0.0149196
649.207	0.0149958
649.285	0.0149541
649.363	0.0148816
649.442	0.0150052
649.520	0.0149437
649.598	0.0148979
649.676	0.0149693
649.754	0.0150342
649.832	0.0149207
649.910	0.0147839
649.988	0.0149215
650.067	0.0148669
650.145	0.0149522
650.223	0.0149174
650.301	0.0150140
650.379	0.0149445
650.457	0.0149640
650.535	0.0148780
650.613	0.0149923
650.692	0.0149574
650.770	0.0149366
650.848	0.0147111
650.926	0.0148058
651.004	0.0148444
651.082	0.0149096
651.160	0.0149865
651.238	0.0149527
651.317	0.0149000
651.395	0.0149618
651.473	0.0147905
651.551	0.0148765
651.629	0.0149338
651.707	0.0148550
651.785	0.0149249
651.863	0.0148637
651.942	0.0150198
652.020	0.0149427
652.098	0.0150077
652.176	0.0148827
652.254	0.0149320
652.332	0.0149419
652.410	0.0148161
652.488	0.0148425
652.567	0.0149087
652.645	0.0149124
652.723	0.0149091
652.801	0.0148259
652.879	0.0149207
652.957	0.0149065
653.035	0.0147759
653.113	0.0148263
653.192	0.0148457
653.270	0.0148470
653.348	0.0147951
653.426	0.0148888
653.504	0.0148694
653.582	0.0148641
653.660	0.0148228
653.738	0.0147435
653.817	0.0147544
653.895	0.0148440
653.973	0.0149351
654.051	0.0148644
654.129	0.0149414
654.207	0.0148521
654.285	0.0149190
654.363	0.0149476
654.442	0.0147577
654.520	0.0148907
654.598	0.0149361
654.676	0.0149265
654.754	0.0148846
654.832	0.0148409
654.910	0.0148723
654.988	0.0149861
655.067	0.0149694
655.145	0.0149103
655.223	0.0148567
655.301	0.0149564
655.379	0.0148431
655.457	0.0149477
655.535	0.0148997
655.613	0.0148656
655.692	0.0148648
655.770	0.0149350
655.848	0.0148754
655.926	0.0148820
656.004	0.0147211
656.082	0.0148019
656.160	0.0150121
656.238	0.0149229
656.317	0.0150477
656.395	0.0147332
656.473	0.0148911
656.551	0.0148674
656.629	0.0149905
656.707	0.0148221
656.785	0.0149171
656.863	0.0149529
656.942	0.0148882
657.020	0.0148701
657.098	0.0147697
657.176	0.0148240
657.254	0.0148637
657.332	0.0149419
657.410	0.0148975
657.488	0.0148389
657.567	0.0147823
657.645	0.0149400
657.723	0.0148116
657.801	0.0147991
657.879	0.0148790
657.957	0.0148731
658.035	0.0149007
658.113	0.0148733
658.192	0.0148558
658.270	0.0149097
658.348	0.0147990
658.426	0.0147887
658.504	0.0147739
658.582	0.0149039
658.660	0.0149886
658.738	0.0148930
658.817	0.0147272
658.895	0.0148032
658.973	0.0149649
659.051	0.0149344
659.129	0.0148009
659.207	0.0148319
659.285	0.0148283
659.363	0.0148203
659.442	0.0149866
659.520	0.0148557
659.598	0.0148988
659.676	0.0149722
659.754	0.0149490
659.832	0.0148112
659.910	0.0147542
659.988	0.0148022
660.067	0.0149426
660.145	0.0148251
660.223	0.0148729
660.301	0.0148768
660.379	0.0148580
660.457	0.0148790
660.535	0.0147900
660.613	0.0147687
660.692	0.0148505
660.770	0.0147971
660.848	0.0146848
660.926	0.0148656
661.004	0.0148849
661.082	0.0149715
661.160	0.0149387
661.238	0.0149203
661.317	0.0149625
661.395	0.0149258
661.473	0.0148031
661.551	0.0148723
661.629	0.0150323
661.707	0.0148353
661.785	0.0149347
661.863	0.0147694
661.942	0.0149205
662.020	0.0148808
662.098	0.0148218
662.176	0.0148902
662.254	0.0148926
662.332	0.0149191
662.410	0.0149644
662.488	0.0148653
662.567	0.0147495
662.645	0.0148660
662.723	0.0150198
662.801	0.0148383
662.879	0.0148250
662.957	0.0148191
663.035	0.0147301
663.113	0.0149465
663.192	0.0149540
663.270	0.0149606
663.348	0.0148971
663.426	0.0147943
663.504	0.0148697
663.582	0.0148619
663.660	0.0148283
663.738	0.0149076
663.817	0.0146990
663.895	0.0149024
663.973	0.0147686
664.051	0.0148124
664.129	0.0147964
664.207	0.0149519
664.285	0.0148680
664.363	0.0148280
664.442	0.0148389
664.520	0.0151289
664.598	0.0149197
664.676	0.0148883
664.754	0.0147573
664.832	0.0148413
664.910	0.0148565
664.988	0.0149136
665.067	0.0148906
665.145	0.0147653
665.223	0.0148637
665.301	0.0148542
665.379	0.0149323
665.457	0.0148498
665.535	0.0149238
665.613	0.0149393
665.692	0.0148837
665.770	0.0148230
665.848	0.0149243
665.926	0.0148241
666.004	0.0148209
666.082	0.0148895
666.160	0.0148621
666.238	0.0149026
666.317	0.0149097
666.395	0.0148932
666.473	0.0148811
666.551	0.0149828
666.629	0.0148882
666.707	0.0149280
666.785	0.0148515
666.863	0.0148891
666.942	0.0148621
667.020	0.0148893
667.098	0.0148094
667.176	0.0148864
667.254	0.0149828
667.332	0.0149507
667.410	0.0147506
667.488	0.0149110
667.567	0.0149593
667.645	0.0148433
667.723	0.0148139
667.801	0.0147144
667.879	0.0149113
667.957	0.0148236
668.035	0.0149020
668.113	0.0147960
668.192	0.0149269
668.270	0.0149874
668.348	0.0147398
668.426	0.0148860
668.504	0.0149243
668.582	0.0149059
668.660	0.0147982
668.738	0.0147872
668.817	0.0148247
668.895	0.0148282
668.973	0.0150157
669.051	0.0149529
669.129	0.0150509
669.207	0.0148256
669.285	0.0148557
669.363	0.0149131
669.442	0.0148933
669.520	0.0148555
669.598	0.0148167
669.676	0.0148495
669.754	0.0147528
669.832	0.0148838
669.910	0.0149100
669.988	0.0149530
670.067	0.0149535
670.145	0.0149133
670.223	0.0148270
670.301	0.0147984
670.379	0.0149926
670.457	0.0149078
670.535	0.0148329
670.613	0.0148887
670.692	0.0148206
670.770	0.0147842
670.848	0.0148332
670.926	0.0147773
671.004	0.0148584
671.082	0.0148210
671.160	0.0147405
671.238	0.0147688
671.317	0.0148444
671.395	0.0148821
671.473	0.0148711
671.551	0.0147504
671.629	0.0147827
671.707	0.0148180
671.785	0.0147549
671.863	0.0147157
671.942	0.0147446
672.020	0.0148170
672.098	0.0149152
672.176	0.0148736
672.254	0.0147011
672.332	0.0147082
672.410	0.0149618
672.488	0.0148432
672.567	0.0147834
672.645	0.0148301
672.723	0.0147453
672.801	0.0147467
672.879	0.0149687
672.957	0.0148488
673.035	0.0148205
673.113	0.0148466
673.192	0.0149355
673.270	0.0149332
673.348	0.0149597
673.426	0.0147931
673.504	0.0149227
673.582	0.0148319
673.660	0.0147638
673.738	0.0148446
673.817	0.0149582
673.895	0.0149174
673.973	0.0147581
674.051	0.0148535
674.129	0.0148944
674.207	0.0150208
674.285	0.0149854
674.363	0.0147670
674.442	0.0148605
674.520	0.0148198
674.598	0.0147972
674.676	0.0149574
674.754	0.0149220
674.832	0.0149582
674.910	0.0148608
674.988	0.0148579
675.067	0.0149784
675.145	0.0147934
675.223	0.0148687
675.301	0.0149197
675.379	0.0149565
675.457	0.0149141
675.535	0.0148816
675.613	0.0148512
675.692	0.0148367
675.770	0.0148666
675.848	0.0149583
675.926	0.0149512
676.004	0.0149647
676.082	0.0150837
676.160	0.0149818
676.238	0.0149546
676.317	0.0150681
676.395	0.0149321
676.473	0.0148879
676.551	0.0148844
676.629	0.0150948
676.707	0.0149567
676.785	0.0149282
676.863	0.0148775
676.942	0.0150718
677.020	0.0150813
677.098	0.0148966
677.176	0.0148782
677.254	0.0149325
677.332	0.0149993
677.410	0.0149877
677.488	0.0149420
677.567	0.0150449
677.645	0.0149887
677.723	0.0149908
677.801	0.0150206
677.879	0.0148773
677.957	0.0148475
678.035	0.0149779
678.113	0.0149427
678.192	0.0149321
678.270	0.0148767
678.348	0.0149355
678.426	0.0149186
678.504	0.0149239
678.582	0.0150002
678.660	0.0148515
678.738	0.0149007
678.817	0.0148939
678.895	0.0150423
678.973	0.0149509
679.051	0.0148635
679.129	0.0149944
679.207	0.0149283
679.285	0.0148507
679.363	0.0149763
679.442	0.0150971
679.520	0.0149681
679.598	0.0149049
679.676	0.0149326
679.754	0.0149052
679.832	0.0148798
679.910	0.0148461
679.988	0.0149200
680.067	0.0149183
680.145	0.0148302
680.223	0.0149783
680.301	0.0150373
680.379	0.0149915
680.457	0.0150360
680.535	0.0148660
680.613	0.0148005
680.692	0.0148630
680.770	0.0148646
680.848	0.0148702
680.926	0.0149143
681.004	0.0149677
681.082	0.0149467
681.160	0.0148994
681.238	0.0148672
681.317	0.0148534
681.395	0.0147050
681.473	0.0148434
681.551	0.0149911
681.629	0.0148975
681.707	0.0148425
681.785	0.0148357
681.863	0.0148924
681.942	0.0149451
682.020	0.0148347
682.098	0.0148183
682.176	0.0147367
682.254	0.0148308
682.332	0.0147349
682.410	0.0148227
682.488	0.0147938
682.567	0.0148175
682.645	0.0148885
682.723	0.0147849
682.801	0.0148367
682.879	0.0148603
682.957	0.0147865
683.035	0.0148917
683.113	0.0148575
683.192	0.0147765
683.270	0.0147894
683.348	0.0148632
683.426	0.0147805
683.504	0.0149658
683.582	0.0148415
683.660	0.0148579
683.738	0.0148145
683.817	0.0148004
683.895	0.0147926
683.973	0.0148473
684.051	0.0147998
684.129	0.0147965
684.207	0.0148482
684.285	0.0148162
684.363	0.0149006
684.442	0.0148994
684.520	0.0147929
684.598	0.0147269
684.676	0.0148278
684.754	0.0147809
684.832	0.0147730
684.910	0.0147845
684.988	0.0149744
685.067	0.0148537
685.145	0.0148108
685.223	0.0148462
685.301	0.0148896
685.379	0.0147781
685.457	0.0147142
685.535	0.0146990
685.613	0.0149208
685.692	0.0149158
