05/28/2022	13:56:10	Ver.	4.1	UNKNOWN
Optical Delay	599.988409	Delta X		0.078125	Sweeps	1	Scan Rate	0/0
Coordinates	Axis 1	NaN	Axis 2	NaN	Axis 3	NaN	Axis 4	NaN	Axis 5	NaN	Axis 6	0.000000
TX Power	0.000000	RX Power	0.000000

599.988	0.0146689
600.067	0.0145966
600.145	0.0146706
600.223	0.0146413
600.301	0.0145539
600.379	0.0146172
600.457	0.0146268
600.535	0.0146666
600.613	0.0145465
600.692	0.0145123
600.770	0.0146427
600.848	0.0146850
600.926	0.0145442
601.004	0.0146753
601.082	0.0146709
601.160	0.0144621
601.238	0.0145437
601.317	0.0145651
601.395	0.0146379
601.473	0.0147620
601.551	0.0146959
601.629	0.0147173
601.707	0.0145459
601.785	0.0145528
601.863	0.0146250
601.942	0.0146484
602.020	0.0145802
602.098	0.0145750
602.176	0.0146094
602.254	0.0147327
602.332	0.0148858
602.410	0.0145998
602.488	0.0146476
602.567	0.0146681
602.645	0.0147671
602.723	0.0146706
602.801	0.0144849
602.879	0.0146234
602.957	0.0146185
603.035	0.0145943
603.113	0.0145608
603.192	0.0147862
603.270	0.0145081
603.348	0.0146616
603.426	0.0145784
603.504	0.0146099
603.582	0.0145802
603.660	0.0146017
603.738	0.0146011
603.817	0.0146116
603.895	0.0145197
603.973	0.0145247
604.051	0.0146227
604.129	0.0147050
604.207	0.0146287
604.285	0.0145096
604.363	0.0146076
604.442	0.0146864
604.520	0.0146254
604.598	0.0146801
604.676	0.0145975
604.754	0.0146710
604.832	0.0147046
604.910	0.0146063
604.988	0.0145779
605.067	0.0146274
605.145	0.0146401
605.223	0.0146549
605.301	0.0145905
605.379	0.0145344
605.457	0.0144621
605.535	0.0146828
605.613	0.0146696
605.692	0.0145718
605.770	0.0146032
605.848	0.0147261
605.926	0.0145837
606.004	0.0145668
606.082	0.0145051
606.160	0.0146621
606.238	0.0145068
606.317	0.0145827
606.395	0.0145165
606.473	0.0145718
606.551	0.0146018
606.629	0.0145618
606.707	0.0145985
606.785	0.0146487
606.863	0.0146005
606.942	0.0146402
607.020	0.0147355
607.098	0.0146223
607.176	0.0146264
607.254	0.0146981
607.332	0.0146789
607.410	0.0146340
607.488	0.0146738
607.567	0.0145255
607.645	0.0146415
607.723	0.0146519
607.801	0.0145290
607.879	0.0144799
607.957	0.0145449
608.035	0.0146948
608.113	0.0145400
608.192	0.0146391
608.270	0.0145705
608.348	0.0145742
608.426	0.0146671
608.504	0.0146015
608.582	0.0146677
608.660	0.0145133
608.738	0.0146537
608.817	0.0145825
608.895	0.0146896
608.973	0.0146130
609.051	0.0146324
609.129	0.0145530
609.207	0.0144264
609.285	0.0146939
609.363	0.0144795
609.442	0.0146241
609.520	0.0145694
609.598	0.0144896
609.676	0.0145502
609.754	0.0145824
609.832	0.0145619
609.910	0.0146586
609.988	0.0146026
610.067	0.0146125
610.145	0.0146751
610.223	0.0146174
610.301	0.0146210
610.379	0.0145014
610.457	0.0146429
610.535	0.0145716
610.613	0.0146478
610.692	0.0145906
610.770	0.0146618
610.848	0.0146926
610.926	0.0145015
611.004	0.0146552
611.082	0.0145058
611.160	0.0145305
611.238	0.0145928
611.317	0.0145244
611.395	0.0144879
611.473	0.0145374
611.551	0.0145606
611.629	0.0144652
611.707	0.0145745
611.785	0.0146829
611.863	0.0145406
611.942	0.0145287
612.020	0.0146069
612.098	0.0144528
612.176	0.0145623
612.254	0.0146409
612.332	0.0145114
612.410	0.0145702
612.488	0.0146396
612.567	0.0146181
612.645	0.0146117
612.723	0.0147013
612.801	0.0144581
612.879	0.0145794
612.957	0.0148151
613.035	0.0146397
613.113	0.0145966
613.192	0.0146586
613.270	0.0147346
613.348	0.0145583
613.426	0.0144833
613.504	0.0146103
613.582	0.0145114
613.660	0.0145720
613.738	0.0144808
613.817	0.0145924
613.895	0.0146246
613.973	0.0146366
614.051	0.0146838
614.129	0.0147013
614.207	0.0147084
614.285	0.0145731
614.363	0.0145093
614.442	0.0144540
614.520	0.0146285
614.598	0.0146658
614.676	0.0146619
614.754	0.0145592
614.832	0.0145967
614.910	0.0145686
614.988	0.0145706
615.067	0.0145358
615.145	0.0146365
615.223	0.0146114
615.301	0.0146710
615.379	0.0147226
615.457	0.0146225
615.535	0.0145410
615.613	0.0144260
615.692	0.0144534
615.770	0.0145871
615.848	0.0145775
615.926	0.0146005
616.004	0.0146092
616.082	0.0145329
616.160	0.0145316
616.238	0.0146996
616.317	0.0146646
616.395	0.0145896
616.473	0.0147308
616.551	0.0146532
616.629	0.0145162
616.707	0.0145921
616.785	0.0146700
616.863	0.0145755
616.942	0.0146558
617.020	0.0145039
617.098	0.0146993
617.176	0.0145978
617.254	0.0146098
617.332	0.0146877
617.410	0.0145569
617.488	0.0147041
617.567	0.0145429
617.645	0.0144344
617.723	0.0146256
617.801	0.0145889
617.879	0.0146406
617.957	0.0145969
618.035	0.0146767
618.113	0.0145618
618.192	0.0145707
618.270	0.0144601
618.348	0.0146617
618.426	0.0144777
618.504	0.0144480
618.582	0.0146571
618.660	0.0146397
618.738	0.0146730
618.817	0.0147219
618.895	0.0146861
618.973	0.0146304
619.051	0.0145440
619.129	0.0146320
619.207	0.0146191
619.285	0.0145251
619.363	0.0145250
619.442	0.0147432
619.520	0.0147362
619.598	0.0146123
619.676	0.0146091
619.754	0.0147741
619.832	0.0145045
619.910	0.0145378
619.988	0.0146430
620.067	0.0146854
620.145	0.0146542
620.223	0.0145688
620.301	0.0145310
620.379	0.0145986
620.457	0.0146014
620.535	0.0145096
620.613	0.0145420
620.692	0.0145812
620.770	0.0145940
620.848	0.0146761
620.926	0.0145528
621.004	0.0145746
621.082	0.0146188
621.160	0.0145767
621.238	0.0146287
621.317	0.0145653
621.395	0.0145914
621.473	0.0147453
621.551	0.0145495
621.629	0.0146545
621.707	0.0145900
621.785	0.0145901
621.863	0.0146181
621.942	0.0146152
622.020	0.0147486
622.098	0.0146103
622.176	0.0144392
622.254	0.0146186
622.332	0.0145300
622.410	0.0145588
622.488	0.0144249
622.567	0.0146101
622.645	0.0145802
622.723	0.0145516
622.801	0.0144959
622.879	0.0145081
622.957	0.0145230
623.035	0.0146179
623.113	0.0146050
623.192	0.0146058
623.270	0.0146423
623.348	0.0146458
623.426	0.0147050
623.504	0.0145924
623.582	0.0146382
623.660	0.0143928
623.738	0.0145293
623.817	0.0146538
623.895	0.0146093
623.973	0.0146012
624.051	0.0146689
624.129	0.0146658
624.207	0.0145520
624.285	0.0146060
624.363	0.0146188
624.442	0.0147156
624.520	0.0146011
624.598	0.0145561
624.676	0.0147559
624.754	0.0146128
624.832	0.0145844
624.910	0.0146387
624.988	0.0146468
625.067	0.0145438
625.145	0.0146053
625.223	0.0146335
625.301	0.0146225
625.379	0.0146925
625.457	0.0146856
625.535	0.0146378
625.613	0.0146074
625.692	0.0146605
625.770	0.0145212
625.848	0.0146191
625.926	0.0146883
626.004	0.0146575
626.082	0.0146246
626.160	0.0147470
626.238	0.0146131
626.317	0.0146818
626.395	0.0146940
626.473	0.0146010
626.551	0.0146979
626.629	0.0146803
626.707	0.0145824
626.785	0.0146207
626.863	0.0145786
626.942	0.0146823
627.020	0.0146014
627.098	0.0145947
627.176	0.0144860
627.254	0.0145397
627.332	0.0146404
627.410	0.0145835
627.488	0.0146485
627.567	0.0145753
627.645	0.0145665
627.723	0.0145308
627.801	0.0144848
627.879	0.0145541
627.957	0.0145243
628.035	0.0145933
628.113	0.0145448
628.192	0.0145335
628.270	0.0147182
628.348	0.0146544
628.426	0.0144906
628.504	0.0145336
628.582	0.0146492
628.660	0.0146778
628.738	0.0146252
628.817	0.0144865
628.895	0.0146767
628.973	0.0145689
629.051	0.0144855
629.129	0.0147460
629.207	0.0146192
629.285	0.0146935
629.363	0.0146104
629.442	0.0145409
629.520	0.0146234
629.598	0.0146991
629.676	0.0146018
629.754	0.0145596
629.832	0.0145790
629.910	0.0146218
629.988	0.0146939
630.067	0.0146779
630.145	0.0146088
630.223	0.0145374
630.301	0.0146925
630.379	0.0145595
630.457	0.0145295
630.535	0.0145808
630.613	0.0145731
630.692	0.0145831
630.770	0.0146560
630.848	0.0146316
630.926	0.0146211
631.004	0.0145763
631.082	0.0146732
631.160	0.0146364
631.238	0.0146030
631.317	0.0144415
631.395	0.0145320
631.473	0.0145945
631.551	0.0146928
631.629	0.0145855
631.707	0.0144953
631.785	0.0145548
631.863	0.0145741
631.942	0.0146878
632.020	0.0146421
632.098	0.0145786
632.176	0.0145391
632.254	0.0146046
632.332	0.0145242
632.410	0.0146938
632.488	0.0146201
632.567	0.0145170
632.645	0.0147471
632.723	0.0145615
632.801	0.0144896
632.879	0.0145345
632.957	0.0145977
633.035	0.0146105
633.113	0.0146450
633.192	0.0146936
633.270	0.0145809
633.348	0.0146583
633.426	0.0145442
633.504	0.0145611
633.582	0.0145939
633.660	0.0147250
633.738	0.0147587
633.817	0.0146127
633.895	0.0145922
633.973	0.0146601
634.051	0.0147842
634.129	0.0147252
634.207	0.0146794
634.285	0.0147713
634.363	0.0146378
634.442	0.0145291
634.520	0.0145501
634.598	0.0145081
634.676	0.0145847
634.754	0.0146088
634.832	0.0145037
634.910	0.0146639
634.988	0.0146365
635.067	0.0144469
635.145	0.0146131
635.223	0.0146069
635.301	0.0147961
635.379	0.0146051
635.457	0.0146111
635.535	0.0145607
635.613	0.0145928
635.692	0.0147258
635.770	0.0146290
635.848	0.0145956
635.926	0.0144196
636.004	0.0146339
636.082	0.0147089
636.160	0.0145933
636.238	0.0144968
636.317	0.0146358
636.395	0.0146315
636.473	0.0145614
636.551	0.0145061
636.629	0.0147477
636.707	0.0146497
636.785	0.0145591
636.863	0.0147301
636.942	0.0145876
637.020	0.0145415
637.098	0.0146686
637.176	0.0145746
637.254	0.0144537
637.332	0.0145737
637.410	0.0146472
637.488	0.0146839
637.567	0.0145866
637.645	0.0146139
637.723	0.0146375
637.801	0.0145335
637.879	0.0145303
637.957	0.0146217
638.035	0.0145734
638.113	0.0145896
638.192	0.0145847
638.270	0.0145717
638.348	0.0148888
638.426	0.0146180
638.504	0.0146257
638.582	0.0147426
638.660	0.0146095
638.738	0.0146041
638.817	0.0145013
638.895	0.0145348
638.973	0.0145727
639.051	0.0146410
639.129	0.0147406
639.207	0.0145751
639.285	0.0146986
639.363	0.0146051
639.442	0.0145768
639.520	0.0147019
639.598	0.0146335
639.676	0.0146694
639.754	0.0146962
639.832	0.0147489
639.910	0.0146165
639.988	0.0145869
640.067	0.0146039
640.145	0.0145576
640.223	0.0146461
640.301	0.0147768
640.379	0.0146115
640.457	0.0146002
640.535	0.0147024
640.613	0.0146522
640.692	0.0145867
640.770	0.0146156
640.848	0.0146453
640.926	0.0145814
641.004	0.0146806
641.082	0.0145309
641.160	0.0146471
641.238	0.0147579
641.317	0.0146069
641.395	0.0145405
641.473	0.0145036
641.551	0.0147486
641.629	0.0147473
641.707	0.0144299
641.785	0.0146201
641.863	0.0146529
641.942	0.0147040
642.020	0.0146063
642.098	0.0146836
642.176	0.0145665
642.254	0.0145442
642.332	0.0144152
642.410	0.0146116
642.488	0.0146318
642.567	0.0146384
642.645	0.0145972
642.723	0.0145847
642.801	0.0146281
642.879	0.0145929
642.957	0.0146041
643.035	0.0145112
643.113	0.0146554
643.192	0.0146922
643.270	0.0146375
643.348	0.0146474
643.426	0.0145834
643.504	0.0145314
643.582	0.0146998
643.660	0.0146092
643.738	0.0146712
643.817	0.0146541
643.895	0.0147908
643.973	0.0147798
644.051	0.0146381
644.129	0.0144588
644.207	0.0146426
644.285	0.0145993
644.363	0.0146855
644.442	0.0148473
644.520	0.0146979
644.598	0.0146445
644.676	0.0146194
644.754	0.0146210
644.832	0.0145963
644.910	0.0145897
644.988	0.0146585
645.067	0.0146067
645.145	0.0146525
645.223	0.0145646
645.301	0.0147207
645.379	0.0145023
645.457	0.0146429
645.535	0.0145911
645.613	0.0146103
645.692	0.0145715
645.770	0.0146182
645.848	0.0146259
645.926	0.0146587
646.004	0.0146581
646.082	0.0145255
646.160	0.0145577
646.238	0.0147332
646.317	0.0145902
646.395	0.0145426
646.473	0.0147530
646.551	0.0146498
646.629	0.0144653
646.707	0.0145757
646.785	0.0145522
646.863	0.0146217
646.942	0.0145676
647.020	0.0146141
647.098	0.0145230
647.176	0.0146216
647.254	0.0147074
647.332	0.0146179
647.410	0.0145871
647.488	0.0147258
647.567	0.0145123
647.645	0.0146420
647.723	0.0145941
647.801	0.0146516
647.879	0.0145779
647.957	0.0145627
648.035	0.0146254
648.113	0.0146473
648.192	0.0145377
648.270	0.0146888
648.348	0.0145622
648.426	0.0146531
648.504	0.0146534
648.582	0.0146035
648.660	0.0145667
648.738	0.0145245
648.817	0.0146465
648.895	0.0146384
648.973	0.0145644
649.051	0.0145169
649.129	0.0145972
649.207	0.0146602
649.285	0.0145709
649.363	0.0146266
649.442	0.0145553
649.520	0.0146445
649.598	0.0145976
649.676	0.0146152
649.754	0.0146734
649.832	0.0146331
649.910	0.0146014
649.988	0.0147295
650.067	0.0145123
650.145	0.0145487
650.223	0.0145837
650.301	0.0145780
650.379	0.0144921
650.457	0.0146197
650.535	0.0146514
650.613	0.0146930
650.692	0.0145376
650.770	0.0145471
650.848	0.0145120
650.926	0.0145069
651.004	0.0145736
651.082	0.0146375
651.160	0.0146583
651.238	0.0147886
651.317	0.0147097
651.395	0.0145353
651.473	0.0146742
651.551	0.0146376
651.629	0.0145165
651.707	0.0145898
651.785	0.0146838
651.863	0.0146455
651.942	0.0146490
652.020	0.0147314
652.098	0.0146439
652.176	0.0145773
652.254	0.0146397
652.332	0.0145811
652.410	0.0145280
652.488	0.0147411
652.567	0.0146915
652.645	0.0145978
652.723	0.0145245
652.801	0.0145556
652.879	0.0146491
652.957	0.0148169
653.035	0.0146362
653.113	0.0145866
653.192	0.0145329
653.270	0.0148386
653.348	0.0147199
653.426	0.0146398
653.504	0.0146434
653.582	0.0147696
653.660	0.0145720
653.738	0.0145061
653.817	0.0145240
653.895	0.0147112
653.973	0.0145740
654.051	0.0148136
654.129	0.0148312
654.207	0.0145885
654.285	0.0146764
654.363	0.0146374
654.442	0.0147215
654.520	0.0146909
654.598	0.0145841
654.676	0.0147317
654.754	0.0146059
654.832	0.0147340
654.910	0.0147942
654.988	0.0146323
655.067	0.0147121
655.145	0.0146023
655.223	0.0147559
655.301	0.0147331
655.379	0.0145808
655.457	0.0147049
655.535	0.0146048
655.613	0.0146122
655.692	0.0146868
655.770	0.0145803
655.848	0.0145769
655.926	0.0146582
656.004	0.0146011
656.082	0.0145756
656.160	0.0146298
656.238	0.0146789
656.317	0.0146328
656.395	0.0145424
656.473	0.0145319
656.551	0.0146332
656.629	0.0146839
656.707	0.0146313
656.785	0.0146073
656.863	0.0146619
656.942	0.0146937
657.020	0.0146137
657.098	0.0145454
657.176	0.0146850
657.254	0.0146825
657.332	0.0146478
657.410	0.0145403
657.488	0.0146564
657.567	0.0146616
657.645	0.0147433
657.723	0.0145560
657.801	0.0145912
657.879	0.0147768
657.957	0.0145325
658.035	0.0146863
658.113	0.0146955
658.192	0.0146322
658.270	0.0146696
658.348	0.0145518
658.426	0.0145356
658.504	0.0146113
658.582	0.0144624
658.660	0.0145539
658.738	0.0145899
658.817	0.0145113
658.895	0.0146207
658.973	0.0146248
659.051	0.0147530
659.129	0.0146715
659.207	0.0147644
659.285	0.0146824
659.363	0.0145880
659.442	0.0147250
659.520	0.0145931
659.598	0.0145885
659.676	0.0146823
659.754	0.0146718
659.832	0.0146577
659.910	0.0146550
659.988	0.0145553
660.067	0.0146196
660.145	0.0146535
660.223	0.0146185
660.301	0.0146631
660.379	0.0145867
660.457	0.0146252
660.535	0.0145467
660.613	0.0144961
660.692	0.0145761
660.770	0.0145428
660.848	0.0146430
660.926	0.0146444
661.004	0.0146182
661.082	0.0145530
661.160	0.0146194
661.238	0.0145647
661.317	0.0146242
661.395	0.0146018
661.473	0.0145557
661.551	0.0144868
661.629	0.0145867
661.707	0.0146548
661.785	0.0145224
661.863	0.0144366
661.942	0.0146149
662.020	0.0146680
662.098	0.0145992
662.176	0.0146735
662.254	0.0145882
662.332	0.0145078
662.410	0.0146321
662.488	0.0145141
662.567	0.0147383
662.645	0.0146612
662.723	0.0145512
662.801	0.0146864
662.879	0.0147150
662.957	0.0145921
663.035	0.0147263
663.113	0.0146162
663.192	0.0145276
663.270	0.0145619
663.348	0.0145486
663.426	0.0146659
663.504	0.0147042
663.582	0.0146314
663.660	0.0146301
663.738	0.0146344
663.817	0.0145790
663.895	0.0146790
663.973	0.0146527
664.051	0.0147346
664.129	0.0147240
664.207	0.0145085
664.285	0.0146389
664.363	0.0146741
664.442	0.0146740
664.520	0.0145023
664.598	0.0145282
664.676	0.0146062
664.754	0.0145827
664.832	0.0147105
664.910	0.0146663
664.988	0.0145081
665.067	0.0146437
665.145	0.0146638
665.223	0.0145910
665.301	0.0146288
665.379	0.0146963
665.457	0.0145914
665.535	0.0145872
665.613	0.0146520
665.692	0.0146549
665.770	0.0146964
665.848	0.0145207
665.926	0.0146655
666.004	0.0145691
666.082	0.0146071
666.160	0.0145876
666.238	0.0145429
666.317	0.0146999
666.395	0.0147108
666.473	0.0145811
666.551	0.0146101
666.629	0.0145720
666.707	0.0145453
666.785	0.0146419
666.863	0.0146172
666.942	0.0147620
667.020	0.0147232
667.098	0.0146608
667.176	0.0146512
667.254	0.0146861
667.332	0.0145921
667.410	0.0145724
667.488	0.0147302
667.567	0.0146877
667.645	0.0144973
667.723	0.0146193
667.801	0.0146602
667.879	0.0146115
667.957	0.0146295
668.035	0.0145422
668.113	0.0147046
668.192	0.0145901
668.270	0.0146453
668.348	0.0145843
668.426	0.0144703
668.504	0.0145585
668.582	0.0146775
668.660	0.0145437
668.738	0.0145615
668.817	0.0147512
668.895	0.0144755
668.973	0.0145797
669.051	0.0145531
669.129	0.0145526
669.207	0.0146241
669.285	0.0145861
669.363	0.0146376
669.442	0.0144143
669.520	0.0145780
669.598	0.0147755
669.676	0.0147182
669.754	0.0145365
669.832	0.0145354
669.910	0.0144730
669.988	0.0144777
670.067	0.0146232
670.145	0.0145766
670.223	0.0145372
670.301	0.0144636
670.379	0.0147062
670.457	0.0146294
670.535	0.0146286
670.613	0.0145681
670.692	0.0146133
670.770	0.0146925
670.848	0.0146033
670.926	0.0146217
671.004	0.0145398
671.082	0.0146619
671.160	0.0146077
671.238	0.0145826
671.317	0.0146678
671.395	0.0145986
671.473	0.0145771
671.551	0.0146909
671.629	0.0146259
671.707	0.0147224
671.785	0.0147479
671.863	0.0144510
671.942	0.0145108
672.020	0.0146281
672.098	0.0145129
672.176	0.0145659
672.254	0.0146473
672.332	0.0146821
672.410	0.0146194
672.488	0.0145421
672.567	0.0145655
672.645	0.0146792
672.723	0.0145900
672.801	0.0147221
672.879	0.0146615
672.957	0.0146135
673.035	0.0146376
673.113	0.0145806
673.192	0.0145255
673.270	0.0146877
673.348	0.0145721
673.426	0.0144209
673.504	0.0146510
673.582	0.0146461
673.660	0.0146391
673.738	0.0146055
673.817	0.0146783
673.895	0.0146828
673.973	0.0146904
674.051	0.0146320
674.129	0.0145017
674.207	0.0146250
674.285	0.0146875
674.363	0.0145889
674.442	0.0146617
674.520	0.0145969
674.598	0.0147306
674.676	0.0148179
674.754	0.0146283
674.832	0.0146283
674.910	0.0146947
674.988	0.0147930
675.067	0.0147263
675.145	0.0147772
675.223	0.0146973
675.301	0.0146709
675.379	0.0146360
675.457	0.0148199
675.535	0.0148270
675.613	0.0145895
675.692	0.0147401
675.770	0.0147319
675.848	0.0147860
675.926	0.0148384
676.004	0.0146454
676.082	0.0148896
676.160	0.0147669
676.238	0.0147850
676.317	0.0145006
676.395	0.0146058
676.473	0.0147621
676.551	0.0148472
676.629	0.0148666
676.707	0.0148424
676.785	0.0147511
676.863	0.0147260
676.942	0.0147814
677.020	0.0148409
677.098	0.0147957
677.176	0.0147426
677.254	0.0147546
677.332	0.0146452
677.410	0.0146233
677.488	0.0146346
677.567	0.0146671
677.645	0.0147241
677.723	0.0148869
677.801	0.0147313
677.879	0.0145643
677.957	0.0146172
678.035	0.0147482
678.113	0.0147491
678.192	0.0147118
678.270	0.0146880
678.348	0.0147437
678.426	0.0145522
678.504	0.0146776
678.582	0.0146738
678.660	0.0145831
678.738	0.0146574
678.817	0.0145038
678.895	0.0145959
678.973	0.0145768
679.051	0.0146936
679.129	0.0146850
679.207	0.0146439
679.285	0.0146168
679.363	0.0146381
679.442	0.0146447
679.520	0.0145505
679.598	0.0145908
679.676	0.0145876
679.754	0.0144399
679.832	0.0144304
679.910	0.0146732
679.988	0.0145174
680.067	0.0144315
680.145	0.0145514
680.223	0.0145626
680.301	0.0146529
680.379	0.0145541
680.457	0.0146376
680.535	0.0145568
680.613	0.0146632
680.692	0.0146494
680.770	0.0145229
680.848	0.0145186
680.926	0.0145209
681.004	0.0145680
681.082	0.0144665
681.160	0.0146148
681.238	0.0144838
681.317	0.0144044
681.395	0.0144098
681.473	0.0144855
681.551	0.0145460
681.629	0.0146194
681.707	0.0147653
681.785	0.0144992
681.863	0.0145142
681.942	0.0145858
682.020	0.0146317
682.098	0.0143850
682.176	0.0144556
682.254	0.0144553
682.332	0.0145670
682.410	0.0144888
682.488	0.0146082
682.567	0.0145799
682.645	0.0146206
682.723	0.0145124
682.801	0.0145270
682.879	0.0145722
682.957	0.0145807
683.035	0.0145889
683.113	0.0146391
683.192	0.0146298
683.270	0.0146084
683.348	0.0145059
683.426	0.0146037
683.504	0.0145569
683.582	0.0145875
683.660	0.0145702
683.738	0.0146453
683.817	0.0147373
683.895	0.0145289
683.973	0.0146557
684.051	0.0147107
684.129	0.0145606
684.207	0.0145447
684.285	0.0145924
684.363	0.0146995
684.442	0.0145201
684.520	0.0146214
684.598	0.0145937
684.676	0.0145489
684.754	0.0147069
684.832	0.0146224
684.910	0.0145094
684.988	0.0144775
685.067	0.0145647
685.145	0.0147088
685.223	0.0146811
685.301	0.0146078
685.379	0.0145396
685.457	0.0147072
685.535	0.0146146
685.613	0.0147643
685.692	0.0146170
