05/28/2022	13:42:59	Ver.	4.1	UNKNOWN
Optical Delay	599.995081	Delta X		0.078125	Sweeps	1	Scan Rate	0/0
Coordinates	Axis 1	NaN	Axis 2	NaN	Axis 3	NaN	Axis 4	NaN	Axis 5	NaN	Axis 6	0.000000
TX Power	0.000000	RX Power	0.000000

599.995	0.0149004
600.073	0.0148653
600.151	0.0149000
600.229	0.0149007
600.308	0.0149567
600.386	0.0149279
600.464	0.0148260
600.542	0.0149261
600.620	0.0148302
600.698	0.0149950
600.776	0.0149688
600.854	0.0148907
600.933	0.0149147
601.011	0.0148240
601.089	0.0149646
601.167	0.0149088
601.245	0.0149770
601.323	0.0148635
601.401	0.0147820
601.479	0.0149521
601.558	0.0147473
601.636	0.0149736
601.714	0.0149678
601.792	0.0149158
601.870	0.0148572
601.948	0.0149552
602.026	0.0148391
602.104	0.0148000
602.183	0.0148383
602.261	0.0147038
602.339	0.0147190
602.417	0.0148734
602.495	0.0148009
602.573	0.0148605
602.651	0.0148768
602.729	0.0149932
602.808	0.0148698
602.886	0.0148264
602.964	0.0148565
603.042	0.0148875
603.120	0.0149683
603.198	0.0150002
603.276	0.0150021
603.354	0.0149053
603.433	0.0148917
603.511	0.0149940
603.589	0.0147549
603.667	0.0148592
603.745	0.0149500
603.823	0.0149675
603.901	0.0149320
603.979	0.0149100
604.058	0.0148205
604.136	0.0149383
604.214	0.0148363
604.292	0.0149513
604.370	0.0149419
604.448	0.0150175
604.526	0.0148368
604.604	0.0150008
604.683	0.0149242
604.761	0.0149778
604.839	0.0148956
604.917	0.0149330
604.995	0.0148618
605.073	0.0149405
605.151	0.0149378
605.229	0.0148574
605.308	0.0149231
605.386	0.0148811
605.464	0.0149134
605.542	0.0148743
605.620	0.0148687
605.698	0.0147541
605.776	0.0149872
605.854	0.0149895
605.933	0.0148515
606.011	0.0148736
606.089	0.0148784
606.167	0.0148336
606.245	0.0150265
606.323	0.0149307
606.401	0.0148863
606.479	0.0148743
606.558	0.0149771
606.636	0.0148753
606.714	0.0148966
606.792	0.0148886
606.870	0.0149341
606.948	0.0149158
607.026	0.0148094
607.104	0.0149052
607.183	0.0149125
607.261	0.0149356
607.339	0.0149873
607.417	0.0148204
607.495	0.0150343
607.573	0.0148628
607.651	0.0147792
607.729	0.0148889
607.808	0.0149641
607.886	0.0148580
607.964	0.0149556
608.042	0.0149340
608.120	0.0147755
608.198	0.0149598
608.276	0.0149265
608.354	0.0149372
608.433	0.0150113
608.511	0.0148768
608.589	0.0149344
608.667	0.0150185
608.745	0.0148775
608.823	0.0148775
608.901	0.0148418
608.979	0.0148498
609.058	0.0147408
609.136	0.0149318
609.214	0.0148656
609.292	0.0148228
609.370	0.0149335
609.448	0.0148691
609.526	0.0149367
609.604	0.0149224
609.683	0.0148705
609.761	0.0150348
609.839	0.0148880
609.917	0.0147820
609.995	0.0149470
610.073	0.0149268
610.151	0.0147695
610.229	0.0148222
610.308	0.0148296
610.386	0.0148748
610.464	0.0147086
610.542	0.0148645
610.620	0.0150473
610.698	0.0147848
610.776	0.0148217
610.854	0.0148656
610.933	0.0148800
611.011	0.0148339
611.089	0.0149113
611.167	0.0149379
611.245	0.0149389
611.323	0.0148340
611.401	0.0149056
611.479	0.0149273
611.558	0.0149026
611.636	0.0150017
611.714	0.0148609
611.792	0.0148688
611.870	0.0150401
611.948	0.0149994
612.026	0.0148961
612.104	0.0149091
612.183	0.0149332
612.261	0.0148998
612.339	0.0149158
612.417	0.0148566
612.495	0.0150346
612.573	0.0149028
612.651	0.0148634
612.729	0.0149311
612.808	0.0149834
612.886	0.0146460
612.964	0.0148639
613.042	0.0149611
613.120	0.0149264
613.198	0.0149690
613.276	0.0148922
613.354	0.0149066
613.433	0.0148254
613.511	0.0148753
613.589	0.0150142
613.667	0.0149029
613.745	0.0148562
613.823	0.0149083
613.901	0.0149141
613.979	0.0149288
614.058	0.0150591
614.136	0.0149187
614.214	0.0149823
614.292	0.0149178
614.370	0.0147612
614.448	0.0149873
614.526	0.0148875
614.604	0.0148154
614.683	0.0148271
614.761	0.0149361
614.839	0.0149754
614.917	0.0146466
614.995	0.0147520
615.073	0.0149615
615.151	0.0148508
615.229	0.0149593
615.308	0.0149656
615.386	0.0149957
615.464	0.0148734
615.542	0.0149236
615.620	0.0148741
615.698	0.0149934
615.776	0.0149007
615.854	0.0148878
615.933	0.0148645
616.011	0.0148615
616.089	0.0149009
616.167	0.0150072
616.245	0.0148573
616.323	0.0148707
616.401	0.0149458
616.479	0.0150373
616.558	0.0149944
616.636	0.0150037
616.714	0.0148359
616.792	0.0149256
616.870	0.0149184
616.948	0.0148024
617.026	0.0149696
617.104	0.0150598
617.183	0.0149133
617.261	0.0148846
617.339	0.0149243
617.417	0.0149240
617.495	0.0149370
617.573	0.0148962
617.651	0.0148887
617.729	0.0148366
617.808	0.0149107
617.886	0.0148990
617.964	0.0149589
618.042	0.0150562
618.120	0.0149224
618.198	0.0150013
618.276	0.0149033
618.354	0.0149670
618.433	0.0149518
618.511	0.0150087
618.589	0.0149804
618.667	0.0149399
618.745	0.0149651
618.823	0.0149966
618.901	0.0149903
618.979	0.0149348
619.058	0.0150468
619.136	0.0149577
619.214	0.0149880
619.292	0.0149217
619.370	0.0147663
619.448	0.0148757
619.526	0.0149943
619.604	0.0148830
619.683	0.0149110
619.761	0.0149419
619.839	0.0148844
619.917	0.0148898
619.995	0.0149519
620.073	0.0149333
620.151	0.0149914
620.229	0.0149443
620.308	0.0149922
620.386	0.0149395
620.464	0.0148968
620.542	0.0148665
620.620	0.0149356
620.698	0.0150317
620.776	0.0150277
620.854	0.0149027
620.933	0.0151099
621.011	0.0149661
621.089	0.0148753
621.167	0.0149261
621.245	0.0149299
621.323	0.0149874
621.401	0.0149313
621.479	0.0149834
621.558	0.0148945
621.636	0.0149125
621.714	0.0149564
621.792	0.0149760
621.870	0.0149887
621.948	0.0149487
622.026	0.0148763
622.104	0.0150163
622.183	0.0149441
622.261	0.0149066
622.339	0.0150164
622.417	0.0149440
622.495	0.0150320
622.573	0.0149747
622.651	0.0149492
622.729	0.0149191
622.808	0.0149733
622.886	0.0150305
622.964	0.0149385
623.042	0.0149484
623.120	0.0150368
623.198	0.0149016
623.276	0.0149191
623.354	0.0149988
623.433	0.0149214
623.511	0.0149235
623.589	0.0149441
623.667	0.0148878
623.745	0.0148488
623.823	0.0150642
623.901	0.0152038
623.979	0.0150034
624.058	0.0147758
624.136	0.0149677
624.214	0.0149166
624.292	0.0149798
624.370	0.0149267
624.448	0.0148128
624.526	0.0147953
624.604	0.0149786
624.683	0.0148126
624.761	0.0148805
624.839	0.0148764
624.917	0.0149681
624.995	0.0149283
625.073	0.0149625
625.151	0.0149683
625.229	0.0149629
625.308	0.0150033
625.386	0.0148583
625.464	0.0149313
625.542	0.0149928
625.620	0.0150198
625.698	0.0149223
625.776	0.0149983
625.854	0.0148350
625.933	0.0148450
626.011	0.0149864
626.089	0.0149958
626.167	0.0149510
626.245	0.0148901
626.323	0.0148951
626.401	0.0148803
626.479	0.0148775
626.558	0.0147822
626.636	0.0148468
626.714	0.0148611
626.792	0.0149745
626.870	0.0150365
626.948	0.0149332
627.026	0.0149415
627.104	0.0150119
627.183	0.0148440
627.261	0.0149131
627.339	0.0149748
627.417	0.0149709
627.495	0.0149417
627.573	0.0149195
627.651	0.0149598
627.729	0.0149236
627.808	0.0149673
627.886	0.0149663
627.964	0.0149852
628.042	0.0148502
628.120	0.0149678
628.198	0.0149024
628.276	0.0150142
628.354	0.0150262
628.433	0.0148767
628.511	0.0149695
628.589	0.0150693
628.667	0.0149440
628.745	0.0150134
628.823	0.0151022
628.901	0.0149850
628.979	0.0149531
629.058	0.0149899
629.136	0.0148557
629.214	0.0149496
629.292	0.0148827
629.370	0.0148874
629.448	0.0149704
629.526	0.0149654
629.604	0.0149554
629.683	0.0149852
629.761	0.0148634
629.839	0.0148884
629.917	0.0150378
629.995	0.0148779
630.073	0.0150047
630.151	0.0148116
630.229	0.0149608
630.308	0.0149562
630.386	0.0148922
630.464	0.0148627
630.542	0.0148758
630.620	0.0148682
630.698	0.0148663
630.776	0.0149300
630.854	0.0149628
630.933	0.0149441
631.011	0.0149487
631.089	0.0149916
631.167	0.0149535
631.245	0.0148664
631.323	0.0149376
631.401	0.0150195
631.479	0.0149445
631.558	0.0151494
631.636	0.0150292
631.714	0.0148013
631.792	0.0148398
631.870	0.0148810
631.948	0.0149522
632.026	0.0149540
632.104	0.0149161
632.183	0.0149668
632.261	0.0149103
632.339	0.0148494
632.417	0.0149119
632.495	0.0149691
632.573	0.0149280
632.651	0.0150710
632.729	0.0148502
632.808	0.0149791
632.886	0.0149533
632.964	0.0149832
633.042	0.0149365
633.120	0.0148673
633.198	0.0148639
633.276	0.0147878
633.354	0.0149084
633.433	0.0149828
633.511	0.0149463
633.589	0.0149079
633.667	0.0150246
633.745	0.0148567
633.823	0.0148511
633.901	0.0148620
633.979	0.0149731
634.058	0.0147746
634.136	0.0149504
634.214	0.0148607
634.292	0.0148048
634.370	0.0148595
634.448	0.0149756
634.526	0.0150006
634.604	0.0148566
634.683	0.0149857
634.761	0.0148953
634.839	0.0148311
634.917	0.0149831
634.995	0.0150469
635.073	0.0149411
635.151	0.0148780
635.229	0.0149894
635.308	0.0150154
635.386	0.0148833
635.464	0.0148358
635.542	0.0149342
635.620	0.0149047
635.698	0.0150426
635.776	0.0149687
635.854	0.0147752
635.933	0.0148870
636.011	0.0150355
636.089	0.0149168
636.167	0.0147488
636.245	0.0151078
636.323	0.0149475
636.401	0.0147940
636.479	0.0148763
636.558	0.0149808
636.636	0.0149761
636.714	0.0149078
636.792	0.0149216
636.870	0.0148158
636.948	0.0149239
637.026	0.0148744
637.104	0.0148996
637.183	0.0149516
637.261	0.0149717
637.339	0.0147704
637.417	0.0149384
637.495	0.0149147
637.573	0.0148070
637.651	0.0147281
637.729	0.0149606
637.808	0.0149733
637.886	0.0146453
637.964	0.0148706
638.042	0.0149541
638.120	0.0149054
638.198	0.0150896
638.276	0.0149723
638.354	0.0149148
638.433	0.0149470
638.511	0.0150060
638.589	0.0149624
638.667	0.0148048
638.745	0.0149156
638.823	0.0148537
638.901	0.0149001
638.979	0.0149586
639.058	0.0149653
639.136	0.0149105
639.214	0.0148734
639.292	0.0148268
639.370	0.0148889
639.448	0.0148515
639.526	0.0147665
639.604	0.0147090
639.683	0.0147903
639.761	0.0148517
639.839	0.0149317
639.917	0.0148830
639.995	0.0148499
640.073	0.0149525
640.151	0.0148074
640.229	0.0148935
640.308	0.0148574
640.386	0.0150383
640.464	0.0148731
640.542	0.0149364
640.620	0.0149324
640.698	0.0149615
640.776	0.0149257
640.854	0.0149443
640.933	0.0148867
641.011	0.0148490
641.089	0.0148663
641.167	0.0148682
641.245	0.0148862
641.323	0.0149924
641.401	0.0149469
641.479	0.0149728
641.558	0.0149029
641.636	0.0148614
641.714	0.0149764
641.792	0.0149011
641.870	0.0149711
641.948	0.0149662
642.026	0.0150387
642.104	0.0149931
642.183	0.0149084
642.261	0.0149718
642.339	0.0149725
642.417	0.0148677
642.495	0.0149245
642.573	0.0148838
642.651	0.0149895
642.729	0.0149103
642.808	0.0148400
642.886	0.0150090
642.964	0.0149436
643.042	0.0147498
643.120	0.0149583
643.198	0.0150771
643.276	0.0149286
643.354	0.0148740
643.433	0.0149330
643.511	0.0149493
643.589	0.0150856
643.667	0.0151180
643.745	0.0149426
643.823	0.0148330
643.901	0.0150153
643.979	0.0149055
644.058	0.0149007
644.136	0.0149545
644.214	0.0148557
644.292	0.0149416
644.370	0.0150055
644.448	0.0148463
644.526	0.0149081
644.604	0.0149654
644.683	0.0149943
644.761	0.0148936
644.839	0.0149176
644.917	0.0149715
644.995	0.0148598
645.073	0.0149516
645.151	0.0148994
645.229	0.0149326
645.308	0.0149118
645.386	0.0149194
645.464	0.0148389
645.542	0.0149228
645.620	0.0149274
645.698	0.0148885
645.776	0.0148547
645.854	0.0147693
645.933	0.0148249
646.011	0.0149451
646.089	0.0149786
646.167	0.0148962
646.245	0.0149076
646.323	0.0149737
646.401	0.0150003
646.479	0.0148158
646.558	0.0149261
646.636	0.0148320
646.714	0.0149545
646.792	0.0150391
646.870	0.0147762
646.948	0.0148194
647.026	0.0149889
647.104	0.0148386
647.183	0.0148384
647.261	0.0148435
647.339	0.0149018
647.417	0.0147877
647.495	0.0148992
647.573	0.0149486
647.651	0.0149256
647.729	0.0149154
647.808	0.0148985
647.886	0.0150061
647.964	0.0149755
648.042	0.0148595
648.120	0.0149015
648.198	0.0148450
648.276	0.0148310
648.354	0.0149972
648.433	0.0148832
648.511	0.0148954
648.589	0.0149856
648.667	0.0147464
648.745	0.0148389
648.823	0.0148367
648.901	0.0149465
648.979	0.0149365
649.058	0.0150540
649.136	0.0150246
649.214	0.0149217
649.292	0.0149061
649.370	0.0149070
649.448	0.0149333
649.526	0.0148264
649.604	0.0149580
649.683	0.0148510
649.761	0.0148405
649.839	0.0149400
649.917	0.0147672
649.995	0.0148886
650.073	0.0149638
650.151	0.0148949
650.229	0.0148252
650.308	0.0150006
650.386	0.0150489
650.464	0.0148106
650.542	0.0148556
650.620	0.0148756
650.698	0.0150933
650.776	0.0149800
650.854	0.0148685
650.933	0.0147590
651.011	0.0149174
651.089	0.0150806
651.167	0.0150234
651.245	0.0149952
651.323	0.0149627
651.401	0.0149129
651.479	0.0148100
651.558	0.0149088
651.636	0.0149906
651.714	0.0148916
651.792	0.0150198
651.870	0.0148752
651.948	0.0148974
652.026	0.0149426
652.104	0.0148477
652.183	0.0149124
652.261	0.0148331
652.339	0.0149628
652.417	0.0149772
652.495	0.0147605
652.573	0.0147701
652.651	0.0149352
652.729	0.0148261
652.808	0.0148037
652.886	0.0147955
652.964	0.0149860
653.042	0.0148386
653.120	0.0148591
653.198	0.0149123
653.276	0.0149271
653.354	0.0148518
653.433	0.0149063
653.511	0.0149197
653.589	0.0147186
653.667	0.0147639
653.745	0.0149474
653.823	0.0147156
653.901	0.0149156
653.979	0.0147726
654.058	0.0148618
654.136	0.0149382
654.214	0.0149758
654.292	0.0147354
654.370	0.0147801
654.448	0.0148347
654.526	0.0148181
654.604	0.0148841
654.683	0.0150092
654.761	0.0147929
654.839	0.0149984
654.917	0.0148756
654.995	0.0148466
655.073	0.0148576
655.151	0.0149979
655.229	0.0148885
655.308	0.0149527
655.386	0.0148933
655.464	0.0148880
655.542	0.0148454
655.620	0.0148092
655.698	0.0149623
655.776	0.0149019
655.854	0.0149604
655.933	0.0148898
656.011	0.0149375
656.089	0.0148446
656.167	0.0148445
656.245	0.0148560
656.323	0.0149121
656.401	0.0149535
656.479	0.0149799
656.558	0.0149107
656.636	0.0147900
656.714	0.0149721
656.792	0.0147763
656.870	0.0148206
656.948	0.0148730
657.026	0.0149068
657.104	0.0147787
657.183	0.0149513
657.261	0.0151268
657.339	0.0149838
657.417	0.0149464
657.495	0.0149044
657.573	0.0147696
657.651	0.0148209
657.729	0.0149883
657.808	0.0149210
657.886	0.0147706
657.964	0.0148681
658.042	0.0149023
658.120	0.0149226
658.198	0.0149195
658.276	0.0149291
658.354	0.0149197
658.433	0.0148081
658.511	0.0148666
658.589	0.0150374
658.667	0.0147905
658.745	0.0148840
658.823	0.0149796
658.901	0.0149770
658.979	0.0150745
659.058	0.0148528
659.136	0.0148409
659.214	0.0149359
659.292	0.0148841
659.370	0.0149281
659.448	0.0148569
659.526	0.0149300
659.604	0.0150002
659.683	0.0148096
659.761	0.0148946
659.839	0.0148972
659.917	0.0148625
659.995	0.0148061
660.073	0.0150294
660.151	0.0149611
660.229	0.0149158
660.308	0.0148907
660.386	0.0148889
660.464	0.0149094
660.542	0.0148159
660.620	0.0147811
660.698	0.0149975
660.776	0.0149555
660.854	0.0148563
660.933	0.0148862
661.011	0.0150867
661.089	0.0150026
661.167	0.0148021
661.245	0.0148742
661.323	0.0150249
661.401	0.0149587
661.479	0.0148444
661.558	0.0149194
661.636	0.0149129
661.714	0.0148914
661.792	0.0148179
661.870	0.0148002
661.948	0.0148243
662.026	0.0149806
662.104	0.0150002
662.183	0.0149456
662.261	0.0149589
662.339	0.0149743
662.417	0.0147742
662.495	0.0149329
662.573	0.0149688
662.651	0.0148189
662.729	0.0148717
662.808	0.0150183
662.886	0.0149256
662.964	0.0147649
663.042	0.0148160
663.120	0.0149148
663.198	0.0148598
663.276	0.0148710
663.354	0.0148531
663.433	0.0148601
663.511	0.0149209
663.589	0.0150070
663.667	0.0147809
663.745	0.0148322
663.823	0.0149353
663.901	0.0149162
663.979	0.0148184
664.058	0.0148896
664.136	0.0149476
664.214	0.0149036
664.292	0.0148592
664.370	0.0149205
664.448	0.0150053
664.526	0.0148440
664.604	0.0149175
664.683	0.0149282
664.761	0.0147941
664.839	0.0148359
664.917	0.0148930
664.995	0.0150163
665.073	0.0149453
665.151	0.0150060
665.229	0.0149936
665.308	0.0149913
665.386	0.0150668
665.464	0.0148483
665.542	0.0149166
665.620	0.0148708
665.698	0.0147657
665.776	0.0149344
665.854	0.0150000
665.933	0.0148902
666.011	0.0150185
666.089	0.0148650
666.167	0.0149145
666.245	0.0147807
666.323	0.0149731
666.401	0.0148997
666.479	0.0149739
666.558	0.0149088
666.636	0.0149250
666.714	0.0149526
666.792	0.0149215
666.870	0.0150051
666.948	0.0149601
667.026	0.0148481
667.104	0.0147954
667.183	0.0149185
667.261	0.0148820
667.339	0.0150156
667.417	0.0148843
667.495	0.0148282
667.573	0.0150950
667.651	0.0150079
667.729	0.0149699
667.808	0.0149123
667.886	0.0148838
667.964	0.0149464
668.042	0.0149992
668.120	0.0149848
668.198	0.0150085
668.276	0.0148224
668.354	0.0149118
668.433	0.0150699
668.511	0.0148901
668.589	0.0149528
668.667	0.0148022
668.745	0.0149487
668.823	0.0150109
668.901	0.0151520
668.979	0.0149535
669.058	0.0149298
669.136	0.0149402
669.214	0.0149318
669.292	0.0148866
669.370	0.0148533
669.448	0.0150961
669.526	0.0148416
669.604	0.0149697
669.683	0.0151080
669.761	0.0149940
669.839	0.0148859
669.917	0.0149882
669.995	0.0150107
670.073	0.0148549
670.151	0.0148347
670.229	0.0149322
670.308	0.0149372
670.386	0.0149320
670.464	0.0149131
670.542	0.0149344
670.620	0.0148652
670.698	0.0149729
670.776	0.0149491
670.854	0.0148161
670.933	0.0149132
671.011	0.0149745
671.089	0.0149633
671.167	0.0148748
671.245	0.0149052
671.323	0.0149967
671.401	0.0149890
671.479	0.0149685
671.558	0.0149212
671.636	0.0149024
671.714	0.0148663
671.792	0.0147610
671.870	0.0149371
671.948	0.0148906
672.026	0.0148448
672.104	0.0149617
672.183	0.0149622
672.261	0.0148122
672.339	0.0149365
672.417	0.0149625
672.495	0.0149229
672.573	0.0149357
672.651	0.0150743
672.729	0.0149374
672.808	0.0149800
672.886	0.0148805
672.964	0.0149259
673.042	0.0147852
673.120	0.0150697
673.198	0.0149800
673.276	0.0147823
673.354	0.0150259
673.433	0.0149773
673.511	0.0148312
673.589	0.0149110
673.667	0.0149789
673.745	0.0148747
673.823	0.0147923
673.901	0.0149648
673.979	0.0149753
674.058	0.0149168
674.136	0.0148478
674.214	0.0148260
674.292	0.0147509
674.370	0.0149162
674.448	0.0149649
674.526	0.0149136
674.604	0.0148133
674.683	0.0149457
674.761	0.0148990
674.839	0.0148478
674.917	0.0149128
674.995	0.0148637
675.073	0.0147688
675.151	0.0150150
675.229	0.0148367
675.308	0.0149734
675.386	0.0148265
675.464	0.0149033
675.542	0.0148679
675.620	0.0149757
675.698	0.0150275
675.776	0.0148264
675.854	0.0149744
675.933	0.0151055
676.011	0.0149724
676.089	0.0148412
676.167	0.0149340
676.245	0.0149721
676.323	0.0149777
676.401	0.0149497
676.479	0.0149613
676.558	0.0148615
676.636	0.0149496
676.714	0.0148725
676.792	0.0148158
676.870	0.0150404
676.948	0.0149755
677.026	0.0149319
677.104	0.0148188
677.183	0.0149348
677.261	0.0149274
677.339	0.0148234
677.417	0.0150246
677.495	0.0149866
677.573	0.0148989
677.651	0.0149478
677.729	0.0150098
677.808	0.0147691
677.886	0.0148579
677.964	0.0150320
678.042	0.0150220
678.120	0.0147700
678.198	0.0148450
678.276	0.0149659
678.354	0.0149081
678.433	0.0148415
678.511	0.0148370
678.589	0.0150391
678.667	0.0150352
678.745	0.0149084
678.823	0.0148540
678.901	0.0149521
678.979	0.0149924
679.058	0.0149788
679.136	0.0150787
679.214	0.0150422
679.292	0.0150027
679.370	0.0148067
679.448	0.0149873
679.526	0.0148319
679.604	0.0149091
679.683	0.0149296
679.761	0.0149438
679.839	0.0149738
679.917	0.0148942
679.995	0.0148849
680.073	0.0148767
680.151	0.0149983
680.229	0.0149294
680.308	0.0149023
680.386	0.0148101
680.464	0.0149290
680.542	0.0150796
680.620	0.0149708
680.698	0.0147971
680.776	0.0148451
680.854	0.0148763
680.933	0.0147818
681.011	0.0149975
681.089	0.0149678
681.167	0.0148596
681.245	0.0148403
681.323	0.0149569
681.401	0.0148165
681.479	0.0147439
681.558	0.0148660
681.636	0.0148248
681.714	0.0149686
681.792	0.0149054
681.870	0.0148106
681.948	0.0147798
682.026	0.0149212
682.104	0.0148750
682.183	0.0149304
682.261	0.0147594
682.339	0.0148283
682.417	0.0148257
682.495	0.0148222
682.573	0.0149036
682.651	0.0148196
682.729	0.0148158
682.808	0.0149146
682.886	0.0149792
682.964	0.0149766
683.042	0.0149267
683.120	0.0148930
683.198	0.0148520
683.276	0.0149844
683.354	0.0148468
683.433	0.0148355
683.511	0.0148368
683.589	0.0147862
683.667	0.0148565
683.745	0.0149335
683.823	0.0148837
683.901	0.0149291
683.979	0.0149374
684.058	0.0148730
684.136	0.0147857
684.214	0.0147438
684.292	0.0149525
684.370	0.0147667
684.448	0.0146629
684.526	0.0149568
684.604	0.0147911
684.683	0.0148726
684.761	0.0148480
684.839	0.0147948
684.917	0.0149431
684.995	0.0149598
685.073	0.0148435
685.151	0.0148362
685.229	0.0149006
685.308	0.0149303
685.386	0.0148781
685.464	0.0147726
685.542	0.0149081
685.620	0.0149732
685.698	0.0148304
