05/28/2022	13:57:35	Ver.	4.1	UNKNOWN
Optical Delay	599.988409	Delta X		0.078125	Sweeps	1	Scan Rate	0/0
Coordinates	Axis 1	NaN	Axis 2	NaN	Axis 3	NaN	Axis 4	NaN	Axis 5	NaN	Axis 6	0.000000
TX Power	0.000000	RX Power	0.000000

599.988	0.0148710
600.067	0.0148361
600.145	0.0147566
600.223	0.0147849
600.301	0.0150997
600.379	0.0148463
600.457	0.0148420
600.535	0.0147526
600.613	0.0147870
600.692	0.0147975
600.770	0.0147881
600.848	0.0150683
600.926	0.0148737
601.004	0.0148012
601.082	0.0147668
601.160	0.0148835
601.238	0.0148637
601.317	0.0147951
601.395	0.0148314
601.473	0.0148423
601.551	0.0147641
601.629	0.0147890
601.707	0.0148642
601.785	0.0148630
601.863	0.0148431
601.942	0.0149192
602.020	0.0149138
602.098	0.0148627
602.176	0.0147041
602.254	0.0148143
602.332	0.0149888
602.410	0.0149367
602.488	0.0148566
602.567	0.0148115
602.645	0.0147353
602.723	0.0148328
602.801	0.0148574
602.879	0.0149075
602.957	0.0149185
603.035	0.0148801
603.113	0.0149252
603.192	0.0149355
603.270	0.0150233
603.348	0.0148997
603.426	0.0148621
603.504	0.0148562
603.582	0.0148766
603.660	0.0147681
603.738	0.0149261
603.817	0.0148230
603.895	0.0147910
603.973	0.0148042
604.051	0.0148235
604.129	0.0147707
604.207	0.0149903
604.285	0.0147646
604.363	0.0149442
604.442	0.0148203
604.520	0.0147305
604.598	0.0148563
604.676	0.0149001
604.754	0.0147208
604.832	0.0147913
604.910	0.0148515
604.988	0.0148570
605.067	0.0149114
605.145	0.0148589
605.223	0.0149414
605.301	0.0148586
605.379	0.0148250
605.457	0.0149772
605.535	0.0148388
605.613	0.0148569
605.692	0.0147806
605.770	0.0147879
605.848	0.0146877
605.926	0.0147619
606.004	0.0148043
606.082	0.0146902
606.160	0.0148060
606.238	0.0148542
606.317	0.0148230
606.395	0.0148344
606.473	0.0147167
606.551	0.0148803
606.629	0.0148769
606.707	0.0146832
606.785	0.0148223
606.863	0.0147926
606.942	0.0147655
607.020	0.0148883
607.098	0.0148578
607.176	0.0147847
607.254	0.0148682
607.332	0.0148589
607.410	0.0148914
607.488	0.0148566
607.567	0.0147456
607.645	0.0146979
607.723	0.0148051
607.801	0.0147687
607.879	0.0147601
607.957	0.0148379
608.035	0.0148956
608.113	0.0148188
608.192	0.0147947
608.270	0.0148502
608.348	0.0148106
608.426	0.0147945
608.504	0.0147605
608.582	0.0148135
608.660	0.0147389
608.738	0.0147758
608.817	0.0149926
608.895	0.0148181
608.973	0.0149092
609.051	0.0147765
609.129	0.0149725
609.207	0.0147919
609.285	0.0148969
609.363	0.0148573
609.442	0.0149279
609.520	0.0148985
609.598	0.0149001
609.676	0.0148633
609.754	0.0147948
609.832	0.0148472
609.910	0.0147849
609.988	0.0148854
610.067	0.0148795
610.145	0.0149387
610.223	0.0147482
610.301	0.0148483
610.379	0.0147885
610.457	0.0147797
610.535	0.0148345
610.613	0.0149451
610.692	0.0148354
610.770	0.0148244
610.848	0.0148772
610.926	0.0148421
611.004	0.0149008
611.082	0.0148238
611.160	0.0148046
611.238	0.0148080
611.317	0.0148557
611.395	0.0147769
611.473	0.0148617
611.551	0.0148314
611.629	0.0148334
611.707	0.0148273
611.785	0.0147793
611.863	0.0147958
611.942	0.0149140
612.020	0.0150110
612.098	0.0149203
612.176	0.0148593
612.254	0.0147626
612.332	0.0148170
612.410	0.0147659
612.488	0.0148125
612.567	0.0147556
612.645	0.0148653
612.723	0.0148399
612.801	0.0148972
612.879	0.0147426
612.957	0.0148602
613.035	0.0147780
613.113	0.0147914
613.192	0.0149487
613.270	0.0147816
613.348	0.0148834
613.426	0.0146967
613.504	0.0147861
613.582	0.0147520
613.660	0.0148675
613.738	0.0146883
613.817	0.0148568
613.895	0.0149319
613.973	0.0147913
614.051	0.0148647
614.129	0.0148200
614.207	0.0147406
614.285	0.0150124
614.363	0.0150076
614.442	0.0148030
614.520	0.0148233
614.598	0.0148611
614.676	0.0148990
614.754	0.0148518
614.832	0.0148797
614.910	0.0147784
614.988	0.0148855
615.067	0.0148769
615.145	0.0147350
615.223	0.0149706
615.301	0.0147536
615.379	0.0147984
615.457	0.0148181
615.535	0.0148598
615.613	0.0149666
615.692	0.0148724
615.770	0.0147651
615.848	0.0147797
615.926	0.0148424
616.004	0.0148321
616.082	0.0147574
616.160	0.0147942
616.238	0.0149487
616.317	0.0148656
616.395	0.0149556
616.473	0.0149476
616.551	0.0148684
616.629	0.0148116
616.707	0.0148566
616.785	0.0148693
616.863	0.0148637
616.942	0.0149687
617.020	0.0147777
617.098	0.0148934
617.176	0.0148135
617.254	0.0148326
617.332	0.0148875
617.410	0.0149600
617.488	0.0148956
617.567	0.0150194
617.645	0.0149895
617.723	0.0148230
617.801	0.0148848
617.879	0.0148324
617.957	0.0149395
618.035	0.0148031
618.113	0.0148506
618.192	0.0148515
618.270	0.0147771
618.348	0.0149409
618.426	0.0147687
618.504	0.0147012
618.582	0.0148632
618.660	0.0148695
618.738	0.0147569
618.817	0.0148621
618.895	0.0148403
618.973	0.0147704
619.051	0.0148822
619.129	0.0149214
619.207	0.0147609
619.285	0.0148961
619.363	0.0149116
619.442	0.0148293
619.520	0.0147768
619.598	0.0149135
619.676	0.0149483
619.754	0.0147694
619.832	0.0147597
619.910	0.0149083
619.988	0.0148736
620.067	0.0147796
620.145	0.0148406
620.223	0.0147939
620.301	0.0149467
620.379	0.0148290
620.457	0.0150435
620.535	0.0149350
620.613	0.0146696
620.692	0.0148257
620.770	0.0148492
620.848	0.0150129
620.926	0.0149613
621.004	0.0148450
621.082	0.0147968
621.160	0.0148181
621.238	0.0147397
621.317	0.0149207
621.395	0.0146582
621.473	0.0148487
621.551	0.0148747
621.629	0.0148412
621.707	0.0148898
621.785	0.0147460
621.863	0.0148102
621.942	0.0148379
622.020	0.0147827
622.098	0.0148263
622.176	0.0148832
622.254	0.0148427
622.332	0.0147785
622.410	0.0148229
622.488	0.0148879
622.567	0.0148504
622.645	0.0147803
622.723	0.0149078
622.801	0.0148895
622.879	0.0148412
622.957	0.0147058
623.035	0.0149883
623.113	0.0149032
623.192	0.0148647
623.270	0.0148938
623.348	0.0148910
623.426	0.0148664
623.504	0.0149500
623.582	0.0148869
623.660	0.0148821
623.738	0.0148929
623.817	0.0148982
623.895	0.0148451
623.973	0.0148700
624.051	0.0147677
624.129	0.0147857
624.207	0.0147466
624.285	0.0147726
624.363	0.0147489
624.442	0.0148923
624.520	0.0149414
624.598	0.0147969
624.676	0.0149614
624.754	0.0147366
624.832	0.0148369
624.910	0.0147719
624.988	0.0148969
625.067	0.0149331
625.145	0.0149143
625.223	0.0149493
625.301	0.0148122
625.379	0.0148745
625.457	0.0150088
625.535	0.0148197
625.613	0.0147663
625.692	0.0147942
625.770	0.0148155
625.848	0.0149003
625.926	0.0148891
626.004	0.0148516
626.082	0.0146523
626.160	0.0148582
626.238	0.0148993
626.317	0.0147799
626.395	0.0148982
626.473	0.0149679
626.551	0.0147729
626.629	0.0148458
626.707	0.0148950
626.785	0.0149166
626.863	0.0148132
626.942	0.0148880
627.020	0.0149072
627.098	0.0148407
627.176	0.0147983
627.254	0.0147971
627.332	0.0148963
627.410	0.0150131
627.488	0.0148882
627.567	0.0148486
627.645	0.0149102
627.723	0.0149637
627.801	0.0148855
627.879	0.0148353
627.957	0.0147424
628.035	0.0148927
628.113	0.0148344
628.192	0.0148554
628.270	0.0148448
628.348	0.0149514
628.426	0.0149352
628.504	0.0147935
628.582	0.0147655
628.660	0.0147818
628.738	0.0148974
628.817	0.0147672
628.895	0.0148795
628.973	0.0149292
629.051	0.0148602
629.129	0.0148232
629.207	0.0149405
629.285	0.0148793
629.363	0.0148096
629.442	0.0149979
629.520	0.0148483
629.598	0.0149142
629.676	0.0147807
629.754	0.0149429
629.832	0.0148238
629.910	0.0147347
629.988	0.0148864
630.067	0.0149281
630.145	0.0148283
630.223	0.0148029
630.301	0.0148210
630.379	0.0149010
630.457	0.0148849
630.535	0.0149534
630.613	0.0147376
630.692	0.0149370
630.770	0.0148904
630.848	0.0148450
630.926	0.0148336
631.004	0.0148650
631.082	0.0148621
631.160	0.0148859
631.238	0.0149999
631.317	0.0149860
631.395	0.0147066
631.473	0.0148145
631.551	0.0147630
631.629	0.0148445
631.707	0.0147675
631.785	0.0148057
631.863	0.0148126
631.942	0.0150504
632.020	0.0147345
632.098	0.0148116
632.176	0.0148729
632.254	0.0148500
632.332	0.0148255
632.410	0.0148021
632.488	0.0148328
632.567	0.0147475
632.645	0.0146847
632.723	0.0150559
632.801	0.0148408
632.879	0.0147517
632.957	0.0148293
633.035	0.0148531
633.113	0.0147851
633.192	0.0147221
633.270	0.0146654
633.348	0.0148161
633.426	0.0147132
633.504	0.0148373
633.582	0.0148084
633.660	0.0147626
633.738	0.0149702
633.817	0.0149229
633.895	0.0148797
633.973	0.0148115
634.051	0.0147953
634.129	0.0148064
634.207	0.0148215
634.285	0.0147842
634.363	0.0147446
634.442	0.0149481
634.520	0.0148748
634.598	0.0148312
634.676	0.0149126
634.754	0.0147424
634.832	0.0148260
634.910	0.0149657
634.988	0.0149960
635.067	0.0149077
635.145	0.0148369
635.223	0.0148698
635.301	0.0148420
635.379	0.0148822
635.457	0.0148623
635.535	0.0147980
635.613	0.0148528
635.692	0.0148755
635.770	0.0148878
635.848	0.0148595
635.926	0.0148320
636.004	0.0148212
636.082	0.0147387
636.160	0.0149813
636.238	0.0148862
636.317	0.0148534
636.395	0.0149770
636.473	0.0148550
636.551	0.0147871
636.629	0.0148714
636.707	0.0148434
636.785	0.0148705
636.863	0.0148827
636.942	0.0147271
637.020	0.0148021
637.098	0.0148763
637.176	0.0148788
637.254	0.0147681
637.332	0.0148719
637.410	0.0148538
637.488	0.0148930
637.567	0.0148915
637.645	0.0148331
637.723	0.0148375
637.801	0.0149174
637.879	0.0148340
637.957	0.0150291
638.035	0.0148460
638.113	0.0149271
638.192	0.0147321
638.270	0.0146687
638.348	0.0148048
638.426	0.0148860
638.504	0.0149628
638.582	0.0147746
638.660	0.0147554
638.738	0.0148276
638.817	0.0147929
638.895	0.0148721
638.973	0.0148330
639.051	0.0149162
639.129	0.0147276
639.207	0.0147837
639.285	0.0147881
639.363	0.0147057
639.442	0.0147653
639.520	0.0148893
639.598	0.0148756
639.676	0.0148731
639.754	0.0150041
639.832	0.0148177
639.910	0.0147507
639.988	0.0147710
640.067	0.0148820
640.145	0.0148477
640.223	0.0148075
640.301	0.0148811
640.379	0.0148739
640.457	0.0149191
640.535	0.0148038
640.613	0.0147704
640.692	0.0147571
640.770	0.0147462
640.848	0.0148188
640.926	0.0147483
641.004	0.0147945
641.082	0.0148669
641.160	0.0148386
641.238	0.0149049
641.317	0.0147723
641.395	0.0148235
641.473	0.0147543
641.551	0.0148639
641.629	0.0148360
641.707	0.0148988
641.785	0.0147078
641.863	0.0149131
641.942	0.0148517
642.020	0.0148382
642.098	0.0149136
642.176	0.0149748
642.254	0.0148064
642.332	0.0148316
642.410	0.0148309
642.488	0.0148901
642.567	0.0149118
642.645	0.0149131
642.723	0.0148370
642.801	0.0148788
642.879	0.0150225
642.957	0.0149300
643.035	0.0148137
643.113	0.0148098
643.192	0.0148488
643.270	0.0148784
643.348	0.0148254
643.426	0.0148162
643.504	0.0150282
643.582	0.0149667
643.660	0.0150163
643.738	0.0149741
643.817	0.0148550
643.895	0.0148039
643.973	0.0148911
644.051	0.0148167
644.129	0.0148439
644.207	0.0149348
644.285	0.0148666
644.363	0.0148180
644.442	0.0148949
644.520	0.0148753
644.598	0.0148740
644.676	0.0148462
644.754	0.0148216
644.832	0.0147895
644.910	0.0150006
644.988	0.0149041
645.067	0.0148535
645.145	0.0148848
645.223	0.0149184
645.301	0.0149776
645.379	0.0148798
645.457	0.0148110
645.535	0.0148026
645.613	0.0148251
645.692	0.0147877
645.770	0.0148582
645.848	0.0148965
645.926	0.0148652
646.004	0.0150372
646.082	0.0149780
646.160	0.0148610
646.238	0.0147963
646.317	0.0147817
646.395	0.0149548
646.473	0.0147722
646.551	0.0149486
646.629	0.0149702
646.707	0.0148467
646.785	0.0148901
646.863	0.0149138
646.942	0.0147255
647.020	0.0147842
647.098	0.0148528
647.176	0.0148334
647.254	0.0147450
647.332	0.0149348
647.410	0.0148090
647.488	0.0147607
647.567	0.0149587
647.645	0.0148004
647.723	0.0148505
647.801	0.0148232
647.879	0.0148895
647.957	0.0147913
648.035	0.0146846
648.113	0.0148755
648.192	0.0147592
648.270	0.0147993
648.348	0.0149188
648.426	0.0147599
648.504	0.0148183
648.582	0.0147424
648.660	0.0146935
648.738	0.0147841
648.817	0.0148910
648.895	0.0149298
648.973	0.0147798
649.051	0.0147572
649.129	0.0148044
649.207	0.0148211
649.285	0.0147893
649.363	0.0148401
649.442	0.0148962
649.520	0.0147704
649.598	0.0148060
649.676	0.0149158
649.754	0.0149005
649.832	0.0148943
649.910	0.0148813
649.988	0.0147727
650.067	0.0147221
650.145	0.0147816
650.223	0.0147884
650.301	0.0147524
650.379	0.0148779
650.457	0.0147945
650.535	0.0147514
650.613	0.0147421
650.692	0.0148692
650.770	0.0148972
650.848	0.0148795
650.926	0.0148122
651.004	0.0147769
651.082	0.0147768
651.160	0.0148076
651.238	0.0147919
651.317	0.0149752
651.395	0.0148412
651.473	0.0148875
651.551	0.0147798
651.629	0.0148931
651.707	0.0148469
651.785	0.0148514
651.863	0.0149280
651.942	0.0148687
652.020	0.0147848
652.098	0.0148536
652.176	0.0149332
652.254	0.0149582
652.332	0.0148241
652.410	0.0148983
652.488	0.0147685
652.567	0.0149828
652.645	0.0149654
652.723	0.0147610
652.801	0.0149146
652.879	0.0148738
652.957	0.0150121
653.035	0.0147747
653.113	0.0147948
653.192	0.0148310
653.270	0.0148033
653.348	0.0148813
653.426	0.0149695
653.504	0.0149398
653.582	0.0148528
653.660	0.0147064
653.738	0.0149895
653.817	0.0147604
653.895	0.0148819
653.973	0.0149718
654.051	0.0147832
654.129	0.0148949
654.207	0.0147658
654.285	0.0148017
654.363	0.0148824
654.442	0.0148466
654.520	0.0150359
654.598	0.0149325
654.676	0.0148722
654.754	0.0148791
654.832	0.0148618
654.910	0.0148049
654.988	0.0148810
655.067	0.0149403
655.145	0.0150667
655.223	0.0148283
655.301	0.0148376
655.379	0.0148723
655.457	0.0149597
655.535	0.0149709
655.613	0.0149133
655.692	0.0148957
655.770	0.0148315
655.848	0.0148495
655.926	0.0149992
656.004	0.0149055
656.082	0.0148066
656.160	0.0148492
656.238	0.0148444
656.317	0.0149643
656.395	0.0148801
656.473	0.0147310
656.551	0.0149194
656.629	0.0149187
656.707	0.0149629
656.785	0.0149140
656.863	0.0148090
656.942	0.0148106
657.020	0.0150394
657.098	0.0148320
657.176	0.0148415
657.254	0.0149041
657.332	0.0148711
657.410	0.0147826
657.488	0.0148982
657.567	0.0148752
657.645	0.0147910
657.723	0.0148085
657.801	0.0149545
657.879	0.0149148
657.957	0.0149010
658.035	0.0148840
658.113	0.0147817
658.192	0.0149435
658.270	0.0149091
658.348	0.0148009
658.426	0.0148866
658.504	0.0149084
658.582	0.0149286
658.660	0.0147903
658.738	0.0149054
658.817	0.0149268
658.895	0.0148909
658.973	0.0147543
659.051	0.0150091
659.129	0.0148880
659.207	0.0148327
659.285	0.0149120
659.363	0.0148025
659.442	0.0148148
659.520	0.0147929
659.598	0.0148040
659.676	0.0149969
659.754	0.0148271
659.832	0.0149373
659.910	0.0148992
659.988	0.0148432
660.067	0.0148998
660.145	0.0148667
660.223	0.0147120
660.301	0.0148380
660.379	0.0147525
660.457	0.0148671
660.535	0.0149141
660.613	0.0149620
660.692	0.0148917
660.770	0.0147941
660.848	0.0148659
660.926	0.0147929
661.004	0.0148293
661.082	0.0148033
661.160	0.0148916
661.238	0.0148846
661.317	0.0149683
661.395	0.0148931
661.473	0.0147495
661.551	0.0149385
661.629	0.0148897
661.707	0.0148855
661.785	0.0147655
661.863	0.0147585
661.942	0.0148177
662.020	0.0149290
662.098	0.0148265
662.176	0.0150003
662.254	0.0150034
662.332	0.0147482
662.410	0.0148451
662.488	0.0148453
662.567	0.0147864
662.645	0.0148997
662.723	0.0147782
662.801	0.0148251
662.879	0.0148713
662.957	0.0147786
663.035	0.0147940
663.113	0.0148013
663.192	0.0148140
663.270	0.0149400
663.348	0.0147832
663.426	0.0147579
663.504	0.0148446
663.582	0.0148153
663.660	0.0148975
663.738	0.0149030
663.817	0.0146898
663.895	0.0148361
663.973	0.0147763
664.051	0.0149869
664.129	0.0148883
664.207	0.0148977
664.285	0.0146930
664.363	0.0147370
664.442	0.0149237
664.520	0.0147997
664.598	0.0147943
664.676	0.0148223
664.754	0.0148226
664.832	0.0149039
664.910	0.0149434
664.988	0.0148888
665.067	0.0148378
665.145	0.0148140
665.223	0.0149103
665.301	0.0147770
665.379	0.0149065
665.457	0.0147360
665.535	0.0148463
665.613	0.0148451
665.692	0.0148796
665.770	0.0147768
665.848	0.0148013
665.926	0.0147952
666.004	0.0148372
666.082	0.0147483
666.160	0.0148336
666.238	0.0149403
666.317	0.0147699
666.395	0.0147505
666.473	0.0147681
666.551	0.0147626
666.629	0.0148450
666.707	0.0147569
666.785	0.0148754
666.863	0.0148407
666.942	0.0148676
667.020	0.0147929
667.098	0.0146647
667.176	0.0148885
667.254	0.0147955
667.332	0.0147894
667.410	0.0148100
667.488	0.0146766
667.567	0.0148378
667.645	0.0148891
667.723	0.0147523
667.801	0.0146555
667.879	0.0148185
667.957	0.0148692
668.035	0.0149119
668.113	0.0148136
668.192	0.0147794
668.270	0.0147435
668.348	0.0148420
668.426	0.0148330
668.504	0.0148049
668.582	0.0148128
668.660	0.0148251
668.738	0.0148749
668.817	0.0148155
668.895	0.0148406
668.973	0.0148315
669.051	0.0148961
669.129	0.0149188
669.207	0.0148509
669.285	0.0148763
669.363	0.0148476
669.442	0.0147368
669.520	0.0148803
669.598	0.0148204
669.676	0.0148177
669.754	0.0148163
669.832	0.0149103
669.910	0.0148716
669.988	0.0147809
670.067	0.0147395
670.145	0.0148016
670.223	0.0149924
670.301	0.0148210
670.379	0.0149283
670.457	0.0149208
670.535	0.0148149
670.613	0.0150163
670.692	0.0149033
670.770	0.0148499
670.848	0.0150021
670.926	0.0147929
671.004	0.0149950
671.082	0.0149116
671.160	0.0150262
671.238	0.0149771
671.317	0.0148194
671.395	0.0148376
671.473	0.0149541
671.551	0.0149225
671.629	0.0149300
671.707	0.0149834
671.785	0.0150598
671.863	0.0149329
671.942	0.0148019
672.020	0.0148486
672.098	0.0148042
672.176	0.0149917
672.254	0.0149359
672.332	0.0147620
672.410	0.0148542
672.488	0.0149399
672.567	0.0148790
672.645	0.0149277
672.723	0.0148999
672.801	0.0148043
672.879	0.0149503
672.957	0.0149782
673.035	0.0148871
673.113	0.0148591
673.192	0.0147530
673.270	0.0148328
673.348	0.0148153
673.426	0.0149944
673.504	0.0148759
673.582	0.0148510
673.660	0.0149444
673.738	0.0149603
673.817	0.0148476
673.895	0.0148516
673.973	0.0148484
674.051	0.0147568
674.129	0.0148553
674.207	0.0148569
674.285	0.0147756
674.363	0.0149966
674.442	0.0148155
674.520	0.0149732
674.598	0.0149657
674.676	0.0148361
674.754	0.0147848
674.832	0.0149844
674.910	0.0148270
674.988	0.0148244
675.067	0.0148573
675.145	0.0148544
675.223	0.0148452
675.301	0.0148077
675.379	0.0146453
675.457	0.0147268
675.535	0.0147989
675.613	0.0147980
675.692	0.0148610
675.770	0.0147693
675.848	0.0148568
675.926	0.0148843
676.004	0.0149680
676.082	0.0146953
676.160	0.0148758
676.238	0.0149252
676.317	0.0148112
676.395	0.0147649
676.473	0.0148917
676.551	0.0148217
676.629	0.0147871
676.707	0.0147456
676.785	0.0147806
676.863	0.0148996
676.942	0.0149043
677.020	0.0148486
677.098	0.0147784
677.176	0.0148938
677.254	0.0148374
677.332	0.0148484
677.410	0.0147889
677.488	0.0148006
677.567	0.0148540
677.645	0.0147707
677.723	0.0147726
677.801	0.0148193
677.879	0.0148298
677.957	0.0149025
678.035	0.0148785
678.113	0.0149147
678.192	0.0148507
678.270	0.0147905
678.348	0.0148729
678.426	0.0149124
678.504	0.0148281
678.582	0.0148750
678.660	0.0148193
678.738	0.0146611
678.817	0.0147995
678.895	0.0147660
678.973	0.0147836
679.051	0.0148244
679.129	0.0147506
679.207	0.0147416
679.285	0.0148292
679.363	0.0148975
679.442	0.0147878
679.520	0.0148190
679.598	0.0148455
679.676	0.0149096
679.754	0.0147747
679.832	0.0147783
679.910	0.0147852
679.988	0.0147720
680.067	0.0147994
680.145	0.0147881
680.223	0.0148549
680.301	0.0147694
680.379	0.0147498
680.457	0.0147922
680.535	0.0147889
680.613	0.0147729
680.692	0.0148009
680.770	0.0148891
680.848	0.0147928
680.926	0.0148643
681.004	0.0148476
681.082	0.0147684
681.160	0.0148090
681.238	0.0147714
681.317	0.0149061
681.395	0.0149230
681.473	0.0149261
681.551	0.0148722
681.629	0.0147919
681.707	0.0148653
681.785	0.0148685
681.863	0.0149496
681.942	0.0147996
682.020	0.0148228
682.098	0.0148580
682.176	0.0148985
682.254	0.0148605
682.332	0.0148167
682.410	0.0148848
682.488	0.0148661
682.567	0.0149170
682.645	0.0148351
682.723	0.0148946
682.801	0.0149117
682.879	0.0149773
682.957	0.0148736
683.035	0.0148836
683.113	0.0148288
683.192	0.0149261
683.270	0.0149261
683.348	0.0147395
683.426	0.0149039
683.504	0.0148172
683.582	0.0149245
683.660	0.0149368
683.738	0.0148366
683.817	0.0147633
683.895	0.0148779
683.973	0.0149500
684.051	0.0148244
684.129	0.0148383
684.207	0.0148066
684.285	0.0147984
684.363	0.0148935
684.442	0.0147565
684.520	0.0148335
684.598	0.0149089
684.676	0.0149683
684.754	0.0148334
684.832	0.0148174
684.910	0.0148638
684.988	0.0149123
685.067	0.0148855
685.145	0.0149200
685.223	0.0149481
685.301	0.0147754
685.379	0.0148354
685.457	0.0148241
685.535	0.0147449
685.613	0.0147615
685.692	0.0148051
