05/28/2022	13:49:30	Ver.	4.1	UNKNOWN
Optical Delay	599.995081	Delta X		0.078125	Sweeps	1	Scan Rate	0/0
Coordinates	Axis 1	NaN	Axis 2	NaN	Axis 3	NaN	Axis 4	NaN	Axis 5	NaN	Axis 6	0.000000
TX Power	0.000000	RX Power	0.000000

599.995	0.0148386
600.073	0.0149274
600.151	0.0148333
600.229	0.0147103
600.308	0.0148456
600.386	0.0150369
600.464	0.0149499
600.542	0.0148027
600.620	0.0149030
600.698	0.0149381
600.776	0.0148787
600.854	0.0148101
600.933	0.0148379
601.011	0.0148021
601.089	0.0147849
601.167	0.0148037
601.245	0.0148692
601.323	0.0146883
601.401	0.0148325
601.479	0.0148441
601.558	0.0148742
601.636	0.0148395
601.714	0.0149451
601.792	0.0149974
601.870	0.0148199
601.948	0.0147404
602.026	0.0148479
602.104	0.0148657
602.183	0.0147775
602.261	0.0148154
602.339	0.0148407
602.417	0.0147778
602.495	0.0148923
602.573	0.0149244
602.651	0.0149707
602.729	0.0147723
602.808	0.0147607
602.886	0.0147723
602.964	0.0148756
603.042	0.0147963
603.120	0.0148606
603.198	0.0148931
603.276	0.0149222
603.354	0.0148604
603.433	0.0148080
603.511	0.0149342
603.589	0.0149055
603.667	0.0148724
603.745	0.0148046
603.823	0.0147478
603.901	0.0146777
603.979	0.0147755
604.058	0.0149529
604.136	0.0149306
604.214	0.0149257
604.292	0.0147681
604.370	0.0148651
604.448	0.0148110
604.526	0.0148500
604.604	0.0150098
604.683	0.0149196
604.761	0.0147564
604.839	0.0148620
604.917	0.0148611
604.995	0.0148188
605.073	0.0148413
605.151	0.0148887
605.229	0.0148816
605.308	0.0148326
605.386	0.0148709
605.464	0.0148014
605.542	0.0147858
605.620	0.0148620
605.698	0.0148735
605.776	0.0148215
605.854	0.0149210
605.933	0.0147816
606.011	0.0148865
606.089	0.0148206
606.167	0.0149776
606.245	0.0148943
606.323	0.0148492
606.401	0.0148759
606.479	0.0148502
606.558	0.0145729
606.636	0.0149619
606.714	0.0149422
606.792	0.0149098
606.870	0.0147554
606.948	0.0149953
607.026	0.0148219
607.104	0.0148246
607.183	0.0149462
607.261	0.0149071
607.339	0.0148679
607.417	0.0149244
607.495	0.0148733
607.573	0.0147791
607.651	0.0148952
607.729	0.0149415
607.808	0.0149068
607.886	0.0147265
607.964	0.0149278
608.042	0.0147626
608.120	0.0148199
608.198	0.0148771
608.276	0.0148421
608.354	0.0148969
608.433	0.0149213
608.511	0.0148520
608.589	0.0148756
608.667	0.0148134
608.745	0.0148955
608.823	0.0147830
608.901	0.0147912
608.979	0.0149641
609.058	0.0148392
609.136	0.0147965
609.214	0.0149371
609.292	0.0147757
609.370	0.0147941
609.448	0.0149067
609.526	0.0149200
609.604	0.0148243
609.683	0.0148219
609.761	0.0149259
609.839	0.0150497
609.917	0.0149554
609.995	0.0149036
610.073	0.0148031
610.151	0.0148888
610.229	0.0148144
610.308	0.0148796
610.386	0.0148576
610.464	0.0148167
610.542	0.0148689
610.620	0.0149817
610.698	0.0149592
610.776	0.0149965
610.854	0.0147115
610.933	0.0148213
611.011	0.0149210
611.089	0.0149349
611.167	0.0148956
611.245	0.0147926
611.323	0.0149431
611.401	0.0148429
611.479	0.0147933
611.558	0.0147872
611.636	0.0148740
611.714	0.0148709
611.792	0.0148307
611.870	0.0147871
611.948	0.0148452
612.026	0.0149228
612.104	0.0149114
612.183	0.0148548
612.261	0.0148353
612.339	0.0147910
612.417	0.0149081
612.495	0.0149065
612.573	0.0148896
612.651	0.0149177
612.729	0.0149515
612.808	0.0148674
612.886	0.0147928
612.964	0.0148250
613.042	0.0148424
613.120	0.0148717
613.198	0.0149593
613.276	0.0149096
613.354	0.0149706
613.433	0.0149228
613.511	0.0149335
613.589	0.0149270
613.667	0.0148468
613.745	0.0148966
613.823	0.0147886
613.901	0.0149424
613.979	0.0150219
614.058	0.0150813
614.136	0.0150111
614.214	0.0148946
614.292	0.0148598
614.370	0.0148367
614.448	0.0147276
614.526	0.0149077
614.604	0.0148882
614.683	0.0149108
614.761	0.0148855
614.839	0.0149598
614.917	0.0149186
614.995	0.0148966
615.073	0.0149526
615.151	0.0147745
615.229	0.0148306
615.308	0.0148188
615.386	0.0148428
615.464	0.0148232
615.542	0.0149307
615.620	0.0150509
615.698	0.0149879
615.776	0.0149831
615.854	0.0149195
615.933	0.0149158
616.011	0.0148348
616.089	0.0149930
616.167	0.0147617
616.245	0.0148874
616.323	0.0149247
616.401	0.0148357
616.479	0.0148648
616.558	0.0148347
616.636	0.0147552
616.714	0.0149048
616.792	0.0148036
616.870	0.0147048
616.948	0.0148900
617.026	0.0148491
617.104	0.0149870
617.183	0.0147663
617.261	0.0148049
617.339	0.0149530
617.417	0.0149229
617.495	0.0148045
617.573	0.0148481
617.651	0.0148383
617.729	0.0148697
617.808	0.0148686
617.886	0.0148896
617.964	0.0148475
618.042	0.0146885
618.120	0.0147101
618.198	0.0150106
618.276	0.0148655
618.354	0.0148500
618.433	0.0148614
618.511	0.0147720
618.589	0.0148438
618.667	0.0149265
618.745	0.0148698
618.823	0.0149249
618.901	0.0147881
618.979	0.0148934
619.058	0.0147655
619.136	0.0148334
619.214	0.0148860
619.292	0.0150201
619.370	0.0149506
619.448	0.0148958
619.526	0.0148707
619.604	0.0147456
619.683	0.0147297
619.761	0.0146869
619.839	0.0148638
619.917	0.0148443
619.995	0.0148038
620.073	0.0148494
620.151	0.0149613
620.229	0.0149880
620.308	0.0148800
620.386	0.0147968
620.464	0.0149979
620.542	0.0148209
620.620	0.0149343
620.698	0.0149996
620.776	0.0149465
620.854	0.0148940
620.933	0.0148968
621.011	0.0148258
621.089	0.0148051
621.167	0.0147861
621.245	0.0148474
621.323	0.0147934
621.401	0.0148045
621.479	0.0148913
621.558	0.0149474
621.636	0.0149246
621.714	0.0148256
621.792	0.0149075
621.870	0.0147202
621.948	0.0149190
622.026	0.0148140
622.104	0.0148763
622.183	0.0147728
622.261	0.0148174
622.339	0.0148831
622.417	0.0148331
622.495	0.0148559
622.573	0.0149705
622.651	0.0147701
622.729	0.0148229
622.808	0.0148972
622.886	0.0148410
622.964	0.0147414
623.042	0.0148817
623.120	0.0149109
623.198	0.0149653
623.276	0.0147733
623.354	0.0147649
623.433	0.0147854
623.511	0.0148343
623.589	0.0148453
623.667	0.0148007
623.745	0.0147969
623.823	0.0148885
623.901	0.0148102
623.979	0.0148405
624.058	0.0147998
624.136	0.0148964
624.214	0.0147421
624.292	0.0150159
624.370	0.0148798
624.448	0.0147790
624.526	0.0148055
624.604	0.0147322
624.683	0.0148634
624.761	0.0148366
624.839	0.0148586
624.917	0.0148293
624.995	0.0148633
625.073	0.0147925
625.151	0.0148000
625.229	0.0147880
625.308	0.0149225
625.386	0.0148939
625.464	0.0148861
625.542	0.0149409
625.620	0.0148862
625.698	0.0147900
625.776	0.0148420
625.854	0.0146898
625.933	0.0147704
626.011	0.0148532
626.089	0.0147829
626.167	0.0147644
626.245	0.0148621
626.323	0.0146985
626.401	0.0148173
626.479	0.0147300
626.558	0.0148082
626.636	0.0147121
626.714	0.0147620
626.792	0.0149026
626.870	0.0149352
626.948	0.0147987
627.026	0.0149352
627.104	0.0149707
627.183	0.0148192
627.261	0.0149207
627.339	0.0149030
627.417	0.0148545
627.495	0.0148384
627.573	0.0147980
627.651	0.0149236
627.729	0.0148965
627.808	0.0148303
627.886	0.0148251
627.964	0.0148396
628.042	0.0147763
628.120	0.0148994
628.198	0.0148118
628.276	0.0147836
628.354	0.0147047
628.433	0.0149700
628.511	0.0148315
628.589	0.0149057
628.667	0.0149231
628.745	0.0147957
628.823	0.0148878
628.901	0.0149017
628.979	0.0147593
629.058	0.0148295
629.136	0.0148466
629.214	0.0149083
629.292	0.0149187
629.370	0.0149351
629.448	0.0147722
629.526	0.0148627
629.604	0.0149023
629.683	0.0149310
629.761	0.0147696
629.839	0.0148933
629.917	0.0150557
629.995	0.0149625
630.073	0.0147574
630.151	0.0146341
630.229	0.0148400
630.308	0.0149020
630.386	0.0147972
630.464	0.0148003
630.542	0.0148021
630.620	0.0148463
630.698	0.0147818
630.776	0.0149614
630.854	0.0149286
630.933	0.0148815
631.011	0.0147853
631.089	0.0149899
631.167	0.0149689
631.245	0.0149271
631.323	0.0147763
631.401	0.0147897
631.479	0.0148009
631.558	0.0148815
631.636	0.0148568
631.714	0.0148186
631.792	0.0148071
631.870	0.0147845
631.948	0.0147364
632.026	0.0148246
632.104	0.0148856
632.183	0.0148325
632.261	0.0149474
632.339	0.0149197
632.417	0.0148114
632.495	0.0148660
632.573	0.0147986
632.651	0.0148756
632.729	0.0148197
632.808	0.0148853
632.886	0.0148900
632.964	0.0149117
633.042	0.0148270
633.120	0.0148014
633.198	0.0148257
633.276	0.0148238
633.354	0.0147169
633.433	0.0147931
633.511	0.0150000
633.589	0.0149300
633.667	0.0148991
633.745	0.0149182
633.823	0.0148668
633.901	0.0148950
633.979	0.0147993
634.058	0.0148765
634.136	0.0148439
634.214	0.0149236
634.292	0.0148178
634.370	0.0148030
634.448	0.0148671
634.526	0.0148593
634.604	0.0148525
634.683	0.0148583
634.761	0.0148531
634.839	0.0149634
634.917	0.0149094
634.995	0.0149496
635.073	0.0147890
635.151	0.0148765
635.229	0.0148669
635.308	0.0148658
635.386	0.0148720
635.464	0.0148496
635.542	0.0148275
635.620	0.0149670
635.698	0.0147807
635.776	0.0148325
635.854	0.0148484
635.933	0.0148463
636.011	0.0149277
636.089	0.0149063
636.167	0.0149459
636.245	0.0147759
636.323	0.0148153
636.401	0.0147573
636.479	0.0148284
636.558	0.0148675
636.636	0.0147750
636.714	0.0147804
636.792	0.0148480
636.870	0.0147610
636.948	0.0149022
637.026	0.0149714
637.104	0.0148379
637.183	0.0149100
637.261	0.0147981
637.339	0.0147173
637.417	0.0148803
637.495	0.0148853
637.573	0.0147993
637.651	0.0147535
637.729	0.0150305
637.808	0.0148577
637.886	0.0148155
637.964	0.0148256
638.042	0.0147806
638.120	0.0147894
638.198	0.0149582
638.276	0.0148665
638.354	0.0149519
638.433	0.0149516
638.511	0.0149704
638.589	0.0149344
638.667	0.0149775
638.745	0.0148364
638.823	0.0147947
638.901	0.0147446
638.979	0.0148642
639.058	0.0147270
639.136	0.0148862
639.214	0.0149184
639.292	0.0148805
639.370	0.0148202
639.448	0.0147032
639.526	0.0146738
639.604	0.0147428
639.683	0.0147818
639.761	0.0148463
639.839	0.0146712
639.917	0.0147173
639.995	0.0149433
640.073	0.0148243
640.151	0.0147460
640.229	0.0148045
640.308	0.0147560
640.386	0.0148473
640.464	0.0149973
640.542	0.0148602
640.620	0.0146122
640.698	0.0148043
640.776	0.0148392
640.854	0.0148241
640.933	0.0146970
641.011	0.0146735
641.089	0.0148914
641.167	0.0148860
641.245	0.0149392
641.323	0.0147413
641.401	0.0147975
641.479	0.0148605
641.558	0.0149060
641.636	0.0148283
641.714	0.0146882
641.792	0.0148086
641.870	0.0149001
641.948	0.0148740
642.026	0.0149050
642.104	0.0149668
642.183	0.0149232
642.261	0.0147803
642.339	0.0146944
642.417	0.0148282
642.495	0.0148078
642.573	0.0147064
642.651	0.0147631
642.729	0.0148624
642.808	0.0147565
642.886	0.0148550
642.964	0.0148710
643.042	0.0149129
643.120	0.0148329
643.198	0.0148440
643.276	0.0147897
643.354	0.0148310
643.433	0.0148473
643.511	0.0148170
643.589	0.0149059
643.667	0.0147548
643.745	0.0149356
643.823	0.0148576
643.901	0.0149137
643.979	0.0148038
644.058	0.0147964
644.136	0.0149098
644.214	0.0148001
644.292	0.0148934
644.370	0.0147432
644.448	0.0147869
644.526	0.0148534
644.604	0.0147533
644.683	0.0148463
644.761	0.0148365
644.839	0.0148229
644.917	0.0147543
644.995	0.0148925
645.073	0.0148054
645.151	0.0148370
645.229	0.0148763
645.308	0.0147906
645.386	0.0148075
645.464	0.0147948
645.542	0.0149027
645.620	0.0148539
645.698	0.0147504
645.776	0.0148813
645.854	0.0148430
645.933	0.0148501
646.011	0.0147811
646.089	0.0148880
646.167	0.0148869
646.245	0.0149079
646.323	0.0148421
646.401	0.0148409
646.479	0.0147932
646.558	0.0148569
646.636	0.0148663
646.714	0.0148148
646.792	0.0148637
646.870	0.0148322
646.948	0.0147750
647.026	0.0149146
647.104	0.0147646
647.183	0.0147301
647.261	0.0148166
647.339	0.0148116
647.417	0.0148994
647.495	0.0148813
647.573	0.0147401
647.651	0.0149194
647.729	0.0147758
647.808	0.0148799
647.886	0.0147761
647.964	0.0148489
648.042	0.0148761
648.120	0.0148251
648.198	0.0148603
648.276	0.0147582
648.354	0.0146987
648.433	0.0148815
648.511	0.0148779
648.589	0.0147483
648.667	0.0148869
648.745	0.0149029
648.823	0.0147827
648.901	0.0148584
648.979	0.0147340
649.058	0.0147263
649.136	0.0149482
649.214	0.0148917
649.292	0.0149543
649.370	0.0147347
649.448	0.0147323
649.526	0.0148746
649.604	0.0149078
649.683	0.0149226
649.761	0.0147765
649.839	0.0147423
649.917	0.0147887
649.995	0.0148483
650.073	0.0146645
650.151	0.0148770
650.229	0.0148251
650.308	0.0148060
650.386	0.0149432
650.464	0.0147170
650.542	0.0147829
650.620	0.0146575
650.698	0.0148726
650.776	0.0147549
650.854	0.0147772
650.933	0.0148134
651.011	0.0148448
651.089	0.0149544
651.167	0.0147352
651.245	0.0147131
651.323	0.0147539
651.401	0.0149284
651.479	0.0148494
651.558	0.0148550
651.636	0.0148176
651.714	0.0147750
651.792	0.0148252
651.870	0.0148235
651.948	0.0147341
652.026	0.0148149
652.104	0.0147397
652.183	0.0147510
652.261	0.0149535
652.339	0.0147007
652.417	0.0148885
652.495	0.0147633
652.573	0.0148351
652.651	0.0148091
652.729	0.0147359
652.808	0.0147926
652.886	0.0147702
652.964	0.0147746
653.042	0.0148130
653.120	0.0147330
653.198	0.0147390
653.276	0.0147897
653.354	0.0147219
653.433	0.0147899
653.511	0.0148222
653.589	0.0149428
653.667	0.0147590
653.745	0.0148143
653.823	0.0148148
653.901	0.0147799
653.979	0.0150941
654.058	0.0147672
654.136	0.0147121
654.214	0.0147704
654.292	0.0147800
654.370	0.0146098
654.448	0.0149134
654.526	0.0148404
654.604	0.0147678
654.683	0.0148250
654.761	0.0148601
654.839	0.0148142
654.917	0.0148472
654.995	0.0148078
655.073	0.0148602
655.151	0.0147990
655.229	0.0147530
655.308	0.0148589
655.386	0.0148310
655.464	0.0147207
655.542	0.0146767
655.620	0.0148107
655.698	0.0148635
655.776	0.0146178
655.854	0.0148045
655.933	0.0148570
656.011	0.0149516
656.089	0.0147000
656.167	0.0148093
656.245	0.0149121
656.323	0.0147581
656.401	0.0147236
656.479	0.0148370
656.558	0.0148291
656.636	0.0148771
656.714	0.0148146
656.792	0.0147849
656.870	0.0147166
656.948	0.0146941
657.026	0.0148432
657.104	0.0149200
657.183	0.0147854
657.261	0.0147844
657.339	0.0148851
657.417	0.0149904
657.495	0.0148045
657.573	0.0147706
657.651	0.0146909
657.729	0.0149368
657.808	0.0148067
657.886	0.0147817
657.964	0.0148845
658.042	0.0148128
658.120	0.0148366
658.198	0.0148689
658.276	0.0148415
658.354	0.0148014
658.433	0.0147870
658.511	0.0148485
658.589	0.0149632
658.667	0.0148595
658.745	0.0147979
658.823	0.0148446
658.901	0.0147637
658.979	0.0148431
659.058	0.0148269
659.136	0.0148202
659.214	0.0148016
659.292	0.0147706
659.370	0.0147256
659.448	0.0147711
659.526	0.0147007
659.604	0.0146962
659.683	0.0147777
659.761	0.0149031
659.839	0.0148950
659.917	0.0148532
659.995	0.0147795
660.073	0.0149045
660.151	0.0149126
660.229	0.0149633
660.308	0.0149174
660.386	0.0148012
660.464	0.0147982
660.542	0.0147890
660.620	0.0147926
660.698	0.0149522
660.776	0.0148067
660.854	0.0148851
660.933	0.0148352
661.011	0.0147683
661.089	0.0148780
661.167	0.0146986
661.245	0.0147292
661.323	0.0148734
661.401	0.0148756
661.479	0.0147780
661.558	0.0147988
661.636	0.0147865
661.714	0.0147833
661.792	0.0146962
661.870	0.0148275
661.948	0.0147792
662.026	0.0148530
662.104	0.0149538
662.183	0.0148337
662.261	0.0149153
662.339	0.0148269
662.417	0.0146710
662.495	0.0149654
662.573	0.0148486
662.651	0.0147243
662.729	0.0147334
662.808	0.0147810
662.886	0.0149332
662.964	0.0148349
663.042	0.0146792
663.120	0.0150242
663.198	0.0148327
663.276	0.0147665
663.354	0.0147299
663.433	0.0148505
663.511	0.0149316
663.589	0.0148736
663.667	0.0148850
663.745	0.0148644
663.823	0.0148696
663.901	0.0148576
663.979	0.0149097
664.058	0.0148606
664.136	0.0146468
664.214	0.0147084
664.292	0.0148355
664.370	0.0148350
664.448	0.0147913
664.526	0.0147439
664.604	0.0148353
664.683	0.0148067
664.761	0.0146342
664.839	0.0148203
664.917	0.0148260
664.995	0.0148102
665.073	0.0148647
665.151	0.0149152
665.229	0.0148266
665.308	0.0148505
665.386	0.0147462
665.464	0.0149162
665.542	0.0149738
665.620	0.0150180
665.698	0.0148134
665.776	0.0148318
665.854	0.0147618
665.933	0.0147752
666.011	0.0149148
666.089	0.0148704
666.167	0.0148547
666.245	0.0149262
666.323	0.0147878
666.401	0.0147958
666.479	0.0148643
666.558	0.0147425
666.636	0.0147854
666.714	0.0147849
666.792	0.0148110
666.870	0.0148077
666.948	0.0148345
667.026	0.0149088
667.104	0.0148180
667.183	0.0148494
667.261	0.0149868
667.339	0.0149243
667.417	0.0147279
667.495	0.0148701
667.573	0.0148448
667.651	0.0149138
667.729	0.0148765
667.808	0.0147559
667.886	0.0147980
667.964	0.0148591
668.042	0.0148557
668.120	0.0148427
668.198	0.0151167
668.276	0.0148759
668.354	0.0147223
668.433	0.0149788
668.511	0.0148329
668.589	0.0148524
668.667	0.0147588
668.745	0.0148191
668.823	0.0148125
668.901	0.0148978
668.979	0.0149065
669.058	0.0147530
669.136	0.0147698
669.214	0.0148238
669.292	0.0148076
669.370	0.0148863
669.448	0.0148449
669.526	0.0147971
669.604	0.0147655
669.683	0.0147916
669.761	0.0147856
669.839	0.0148823
669.917	0.0148227
669.995	0.0147235
670.073	0.0148369
670.151	0.0147871
670.229	0.0148521
670.308	0.0147843
670.386	0.0148556
670.464	0.0149310
670.542	0.0149244
670.620	0.0147736
670.698	0.0148405
670.776	0.0149158
670.854	0.0147889
670.933	0.0148693
671.011	0.0148855
671.089	0.0148296
671.167	0.0148284
671.245	0.0147873
671.323	0.0148575
671.401	0.0149050
671.479	0.0147538
671.558	0.0148076
671.636	0.0148392
671.714	0.0148171
671.792	0.0149261
671.870	0.0148576
671.948	0.0147542
672.026	0.0147681
672.104	0.0148233
672.183	0.0148733
672.261	0.0147942
672.339	0.0148296
672.417	0.0147551
672.495	0.0149773
672.573	0.0148611
672.651	0.0148468
672.729	0.0148175
672.808	0.0148966
672.886	0.0148196
672.964	0.0148160
673.042	0.0149107
673.120	0.0147955
673.198	0.0148619
673.276	0.0148818
673.354	0.0147953
673.433	0.0148303
673.511	0.0148286
673.589	0.0147401
673.667	0.0149046
673.745	0.0149416
673.823	0.0148076
673.901	0.0148875
673.979	0.0148217
674.058	0.0147004
674.136	0.0149377
674.214	0.0148267
674.292	0.0148157
674.370	0.0148892
674.448	0.0148202
674.526	0.0148316
674.604	0.0148100
674.683	0.0149391
674.761	0.0147899
674.839	0.0149020
674.917	0.0148289
674.995	0.0148150
675.073	0.0149376
675.151	0.0148707
675.229	0.0148956
675.308	0.0149210
675.386	0.0148315
675.464	0.0148529
675.542	0.0149310
675.620	0.0149131
675.698	0.0149084
675.776	0.0148650
675.854	0.0149774
675.933	0.0149342
676.011	0.0148077
676.089	0.0148939
676.167	0.0147729
676.245	0.0149657
676.323	0.0148243
676.401	0.0148864
676.479	0.0149055
676.558	0.0147751
676.636	0.0148276
676.714	0.0149522
676.792	0.0148837
676.870	0.0148380
676.948	0.0148309
677.026	0.0148714
677.104	0.0148166
677.183	0.0148490
677.261	0.0149504
677.339	0.0148367
677.417	0.0147905
677.495	0.0150021
677.573	0.0148003
677.651	0.0147711
677.729	0.0148707
677.808	0.0150356
677.886	0.0149252
677.964	0.0147968
678.042	0.0147710
678.120	0.0148226
678.198	0.0148611
678.276	0.0148959
678.354	0.0147713
678.433	0.0147192
678.511	0.0147588
678.589	0.0148798
678.667	0.0148421
678.745	0.0148758
678.823	0.0148441
678.901	0.0148543
678.979	0.0147742
679.058	0.0148479
679.136	0.0147907
679.214	0.0149091
679.292	0.0148115
679.370	0.0147291
679.448	0.0148763
679.526	0.0149702
679.604	0.0148051
679.683	0.0146611
679.761	0.0147362
679.839	0.0147804
679.917	0.0148302
679.995	0.0147556
680.073	0.0147057
680.151	0.0148797
680.229	0.0149468
680.308	0.0146974
680.386	0.0148247
680.464	0.0148473
680.542	0.0148096
680.620	0.0148602
680.698	0.0147183
680.776	0.0148660
680.854	0.0147007
680.933	0.0148108
681.011	0.0147496
681.089	0.0146581
681.167	0.0147208
681.245	0.0148241
681.323	0.0147960
681.401	0.0146861
681.479	0.0147195
681.558	0.0147413
681.636	0.0147171
681.714	0.0147821
681.792	0.0149200
681.870	0.0149058
681.948	0.0148199
682.026	0.0147333
682.104	0.0146812
682.183	0.0149236
682.261	0.0148531
682.339	0.0147330
682.417	0.0146920
682.495	0.0147581
682.573	0.0148392
682.651	0.0148108
682.729	0.0148867
682.808	0.0147960
682.886	0.0149308
682.964	0.0147430
683.042	0.0147470
683.120	0.0149409
683.198	0.0147304
683.276	0.0147705
683.354	0.0148338
683.433	0.0147296
683.511	0.0145900
683.589	0.0147158
683.667	0.0147206
683.745	0.0147061
683.823	0.0147256
683.901	0.0147384
683.979	0.0147887
684.058	0.0147728
684.136	0.0148714
684.214	0.0148613
684.292	0.0148225
684.370	0.0148198
684.448	0.0147329
684.526	0.0147505
684.604	0.0149501
684.683	0.0147717
684.761	0.0146998
684.839	0.0149477
684.917	0.0148090
684.995	0.0147575
685.073	0.0147081
685.151	0.0147797
685.229	0.0148957
685.308	0.0149601
685.386	0.0148808
685.464	0.0150035
685.542	0.0148497
685.620	0.0149080
685.698	0.0147598
