05/28/2022	14:02:50	Ver.	4.1	UNKNOWN
Optical Delay	599.988409	Delta X		0.078125	Sweeps	1	Scan Rate	0/0
Coordinates	Axis 1	NaN	Axis 2	NaN	Axis 3	NaN	Axis 4	NaN	Axis 5	NaN	Axis 6	0.000000
TX Power	0.000000	RX Power	0.000000

599.988	0.0145389
600.067	0.0144337
600.145	0.0147852
600.223	0.0145688
600.301	0.0145396
600.379	0.0146104
600.457	0.0145496
600.535	0.0146130
600.613	0.0145537
600.692	0.0145685
600.770	0.0145884
600.848	0.0145340
600.926	0.0146210
601.004	0.0148151
601.082	0.0144814
601.160	0.0145961
601.238	0.0145394
601.317	0.0143451
601.395	0.0144842
601.473	0.0144388
601.551	0.0144363
601.629	0.0145480
601.707	0.0145068
601.785	0.0145479
601.863	0.0143893
601.942	0.0146389
602.020	0.0145969
602.098	0.0144482
602.176	0.0144934
602.254	0.0146020
602.332	0.0145332
602.410	0.0145374
602.488	0.0145947
602.567	0.0144659
602.645	0.0145457
602.723	0.0144756
602.801	0.0144518
602.879	0.0145547
602.957	0.0144889
603.035	0.0144868
603.113	0.0145630
603.192	0.0145749
603.270	0.0145624
603.348	0.0146154
603.426	0.0145525
603.504	0.0145102
603.582	0.0145647
603.660	0.0144944
603.738	0.0146056
603.817	0.0146156
603.895	0.0146121
603.973	0.0145878
604.051	0.0144071
604.129	0.0144222
604.207	0.0146216
604.285	0.0146558
604.363	0.0145245
604.442	0.0146442
604.520	0.0146103
604.598	0.0144905
604.676	0.0145806
604.754	0.0146638
604.832	0.0146361
604.910	0.0144540
604.988	0.0145518
605.067	0.0144602
605.145	0.0145784
605.223	0.0145831
605.301	0.0146181
605.379	0.0147124
605.457	0.0146106
605.535	0.0146653
605.613	0.0146655
605.692	0.0146222
605.770	0.0145845
605.848	0.0143418
605.926	0.0145627
606.004	0.0146002
606.082	0.0145646
606.160	0.0145850
606.238	0.0144224
606.317	0.0146339
606.395	0.0145456
606.473	0.0146429
606.551	0.0146945
606.629	0.0145934
606.707	0.0144757
606.785	0.0146220
606.863	0.0146408
606.942	0.0145426
607.020	0.0145159
607.098	0.0145020
607.176	0.0146442
607.254	0.0146363
607.332	0.0145148
607.410	0.0145130
607.488	0.0144948
607.567	0.0145467
607.645	0.0144840
607.723	0.0145084
607.801	0.0145173
607.879	0.0146007
607.957	0.0145598
608.035	0.0145356
608.113	0.0146239
608.192	0.0145047
608.270	0.0145886
608.348	0.0146085
608.426	0.0145141
608.504	0.0144655
608.582	0.0145336
608.660	0.0145409
608.738	0.0145896
608.817	0.0145725
608.895	0.0145735
608.973	0.0146653
609.051	0.0146770
609.129	0.0145890
609.207	0.0145222
609.285	0.0146280
609.363	0.0144557
609.442	0.0145884
609.520	0.0146526
609.598	0.0144975
609.676	0.0145511
609.754	0.0146500
609.832	0.0145518
609.910	0.0145649
609.988	0.0144965
610.067	0.0145630
610.145	0.0145438
610.223	0.0145365
610.301	0.0145704
610.379	0.0145566
610.457	0.0144739
610.535	0.0144989
610.613	0.0144981
610.692	0.0145213
610.770	0.0146555
610.848	0.0144899
610.926	0.0146021
611.004	0.0144979
611.082	0.0144767
611.160	0.0144354
611.238	0.0146622
611.317	0.0146406
611.395	0.0145428
611.473	0.0145301
611.551	0.0144980
611.629	0.0145602
611.707	0.0145842
611.785	0.0145448
611.863	0.0145666
611.942	0.0145463
612.020	0.0147377
612.098	0.0145883
612.176	0.0144624
612.254	0.0145114
612.332	0.0145137
612.410	0.0145562
612.488	0.0145605
612.567	0.0145560
612.645	0.0144626
612.723	0.0146020
612.801	0.0146081
612.879	0.0144521
612.957	0.0145948
613.035	0.0146736
613.113	0.0145721
613.192	0.0147074
613.270	0.0146452
613.348	0.0145409
613.426	0.0143633
613.504	0.0145702
613.582	0.0146631
613.660	0.0145958
613.738	0.0144322
613.817	0.0144750
613.895	0.0145182
613.973	0.0145650
614.051	0.0145528
614.129	0.0146178
614.207	0.0145775
614.285	0.0145357
614.363	0.0145835
614.442	0.0145653
614.520	0.0146191
614.598	0.0147039
614.676	0.0144456
614.754	0.0146241
614.832	0.0145203
614.910	0.0145856
614.988	0.0144997
615.067	0.0147199
615.145	0.0145764
615.223	0.0145547
615.301	0.0145364
615.379	0.0144885
615.457	0.0144495
615.535	0.0146098
615.613	0.0145747
615.692	0.0144992
615.770	0.0145081
615.848	0.0146090
615.926	0.0145818
616.004	0.0145070
616.082	0.0144178
616.160	0.0145677
616.238	0.0146067
616.317	0.0145802
616.395	0.0146002
616.473	0.0145726
616.551	0.0146634
616.629	0.0144945
616.707	0.0146123
616.785	0.0146378
616.863	0.0145166
616.942	0.0144759
617.020	0.0145583
617.098	0.0144677
617.176	0.0145754
617.254	0.0145671
617.332	0.0144166
617.410	0.0145956
617.488	0.0145311
617.567	0.0146439
617.645	0.0146014
617.723	0.0145592
617.801	0.0145518
617.879	0.0147758
617.957	0.0146358
618.035	0.0144899
618.113	0.0145348
618.192	0.0146608
618.270	0.0146159
618.348	0.0146291
618.426	0.0146027
618.504	0.0145006
618.582	0.0144643
618.660	0.0145038
618.738	0.0145910
618.817	0.0146122
618.895	0.0144859
618.973	0.0144608
619.051	0.0146423
619.129	0.0145533
619.207	0.0146284
619.285	0.0145226
619.363	0.0144321
619.442	0.0144353
619.520	0.0146059
619.598	0.0146435
619.676	0.0145110
619.754	0.0144819
619.832	0.0144547
619.910	0.0145765
619.988	0.0145033
620.067	0.0146214
620.145	0.0146587
620.223	0.0145619
620.301	0.0145192
620.379	0.0145779
620.457	0.0147428
620.535	0.0144515
620.613	0.0144778
620.692	0.0146632
620.770	0.0145815
620.848	0.0144226
620.926	0.0146844
621.004	0.0146486
621.082	0.0145995
621.160	0.0146017
621.238	0.0145956
621.317	0.0145699
621.395	0.0145811
621.473	0.0147033
621.551	0.0146692
621.629	0.0145313
621.707	0.0146155
621.785	0.0145732
621.863	0.0144782
621.942	0.0146452
622.020	0.0146519
622.098	0.0146455
622.176	0.0145577
622.254	0.0146178
622.332	0.0145189
622.410	0.0145597
622.488	0.0146958
622.567	0.0146235
622.645	0.0146949
622.723	0.0145918
622.801	0.0145123
622.879	0.0146343
622.957	0.0147029
623.035	0.0145267
623.113	0.0145415
623.192	0.0145490
623.270	0.0145725
623.348	0.0146301
623.426	0.0145717
623.504	0.0146007
623.582	0.0146339
623.660	0.0145258
623.738	0.0145655
623.817	0.0146736
623.895	0.0145428
623.973	0.0145227
624.051	0.0145897
624.129	0.0144663
624.207	0.0144961
624.285	0.0144997
624.363	0.0145644
624.442	0.0144939
624.520	0.0145989
624.598	0.0145217
624.676	0.0145697
624.754	0.0145731
624.832	0.0145203
624.910	0.0145571
624.988	0.0146027
625.067	0.0145361
625.145	0.0145348
625.223	0.0145531
625.301	0.0146238
625.379	0.0145351
625.457	0.0145537
625.535	0.0146227
625.613	0.0145866
625.692	0.0146102
625.770	0.0146143
625.848	0.0145385
625.926	0.0146454
626.004	0.0146222
626.082	0.0145960
626.160	0.0146229
626.238	0.0146154
626.317	0.0146362
626.395	0.0146755
626.473	0.0144317
626.551	0.0147746
626.629	0.0146522
626.707	0.0145824
626.785	0.0146693
626.863	0.0146284
626.942	0.0145897
627.020	0.0146120
627.098	0.0146703
627.176	0.0145910
627.254	0.0146581
627.332	0.0146455
627.410	0.0145417
627.488	0.0145174
627.567	0.0146427
627.645	0.0146353
627.723	0.0146602
627.801	0.0145026
627.879	0.0145552
627.957	0.0145954
628.035	0.0147005
628.113	0.0146035
628.192	0.0146317
628.270	0.0144753
628.348	0.0146289
628.426	0.0146747
628.504	0.0145414
628.582	0.0144904
628.660	0.0145799
628.738	0.0145452
628.817	0.0144812
628.895	0.0146072
628.973	0.0145962
629.051	0.0144727
629.129	0.0145034
629.207	0.0145206
629.285	0.0145497
629.363	0.0145004
629.442	0.0146782
629.520	0.0146711
629.598	0.0145074
629.676	0.0144608
629.754	0.0146549
629.832	0.0145874
629.910	0.0145026
629.988	0.0146826
630.067	0.0146500
630.145	0.0146836
630.223	0.0146335
630.301	0.0145028
630.379	0.0146630
630.457	0.0144847
630.535	0.0148429
630.613	0.0145287
630.692	0.0146117
630.770	0.0144553
630.848	0.0145973
630.926	0.0146133
631.004	0.0145449
631.082	0.0145700
631.160	0.0145775
631.238	0.0145549
631.317	0.0145068
631.395	0.0146217
631.473	0.0146318
631.551	0.0147143
631.629	0.0145889
631.707	0.0145888
631.785	0.0146026
631.863	0.0146250
631.942	0.0147406
632.020	0.0145865
632.098	0.0145130
632.176	0.0145972
632.254	0.0146953
632.332	0.0145087
632.410	0.0145821
632.488	0.0146839
632.567	0.0145645
632.645	0.0146346
632.723	0.0144565
632.801	0.0145405
632.879	0.0146784
632.957	0.0145938
633.035	0.0147395
633.113	0.0145264
633.192	0.0144640
633.270	0.0146582
633.348	0.0143835
633.426	0.0145383
633.504	0.0146232
633.582	0.0145600
633.660	0.0147112
633.738	0.0146551
633.817	0.0145368
633.895	0.0143954
633.973	0.0144614
634.051	0.0145708
634.129	0.0147109
634.207	0.0145848
634.285	0.0146047
634.363	0.0144580
634.442	0.0145866
634.520	0.0145762
634.598	0.0146039
634.676	0.0145185
634.754	0.0146387
634.832	0.0146789
634.910	0.0146562
634.988	0.0146090
635.067	0.0146765
635.145	0.0146754
635.223	0.0145251
635.301	0.0146463
635.379	0.0146761
635.457	0.0146318
635.535	0.0145073
635.613	0.0145089
635.692	0.0146473
635.770	0.0147194
635.848	0.0145840
635.926	0.0145704
636.004	0.0145817
636.082	0.0145505
636.160	0.0145074
636.238	0.0145252
636.317	0.0146053
636.395	0.0147626
636.473	0.0146323
636.551	0.0146249
636.629	0.0145557
636.707	0.0146757
636.785	0.0146978
636.863	0.0146011
636.942	0.0144909
637.020	0.0145674
637.098	0.0145534
637.176	0.0144878
637.254	0.0145606
637.332	0.0146591
637.410	0.0146859
637.488	0.0146304
637.567	0.0146490
637.645	0.0146252
637.723	0.0144739
637.801	0.0145631
637.879	0.0145482
637.957	0.0146391
638.035	0.0146265
638.113	0.0146786
638.192	0.0145741
638.270	0.0145420
638.348	0.0146569
638.426	0.0144533
638.504	0.0145760
638.582	0.0145029
638.660	0.0145676
638.738	0.0146247
638.817	0.0145265
638.895	0.0145936
638.973	0.0145245
639.051	0.0145613
639.129	0.0145540
639.207	0.0146190
639.285	0.0145969
639.363	0.0146349
639.442	0.0146497
639.520	0.0144827
639.598	0.0145332
639.676	0.0145836
639.754	0.0145775
639.832	0.0145457
639.910	0.0145308
639.988	0.0146059
640.067	0.0146064
640.145	0.0145736
640.223	0.0145983
640.301	0.0145581
640.379	0.0145622
640.457	0.0146412
640.535	0.0146833
640.613	0.0145531
640.692	0.0145592
640.770	0.0145119
640.848	0.0145344
640.926	0.0145584
641.004	0.0145900
641.082	0.0146204
641.160	0.0145793
641.238	0.0146265
641.317	0.0146104
641.395	0.0145314
641.473	0.0146864
641.551	0.0144749
641.629	0.0145490
641.707	0.0145576
641.785	0.0145389
641.863	0.0146283
641.942	0.0145696
642.020	0.0145861
642.098	0.0145884
642.176	0.0146088
642.254	0.0145139
642.332	0.0145860
642.410	0.0146246
642.488	0.0145995
642.567	0.0145875
642.645	0.0145446
642.723	0.0147427
642.801	0.0146091
642.879	0.0145407
642.957	0.0146433
643.035	0.0144558
643.113	0.0146656
643.192	0.0146070
643.270	0.0145963
643.348	0.0144997
643.426	0.0144893
643.504	0.0145303
643.582	0.0145809
643.660	0.0144830
643.738	0.0144469
643.817	0.0144342
643.895	0.0145776
643.973	0.0146056
644.051	0.0145922
644.129	0.0146656
644.207	0.0145554
644.285	0.0143892
644.363	0.0145706
644.442	0.0144337
644.520	0.0145543
644.598	0.0146725
644.676	0.0145933
644.754	0.0144884
644.832	0.0146074
644.910	0.0144697
644.988	0.0144201
645.067	0.0145465
645.145	0.0146263
645.223	0.0145484
645.301	0.0146125
645.379	0.0146387
645.457	0.0144305
645.535	0.0144815
645.613	0.0144820
645.692	0.0145657
645.770	0.0146320
645.848	0.0146269
645.926	0.0145908
646.004	0.0146429
646.082	0.0145637
646.160	0.0144759
646.238	0.0145069
646.317	0.0146059
646.395	0.0146107
646.473	0.0146387
646.551	0.0145359
646.629	0.0145004
646.707	0.0145721
646.785	0.0145641
646.863	0.0144211
646.942	0.0145614
647.020	0.0146355
647.098	0.0144901
647.176	0.0145059
647.254	0.0147237
647.332	0.0146984
647.410	0.0146050
647.488	0.0144555
647.567	0.0144251
647.645	0.0146343
647.723	0.0145512
647.801	0.0144958
647.879	0.0145290
647.957	0.0145638
648.035	0.0145346
648.113	0.0145956
648.192	0.0146365
648.270	0.0145485
648.348	0.0144714
648.426	0.0145164
648.504	0.0145580
648.582	0.0146927
648.660	0.0144087
648.738	0.0145928
648.817	0.0144933
648.895	0.0145023
648.973	0.0145358
649.051	0.0146663
649.129	0.0146011
649.207	0.0144709
649.285	0.0144926
649.363	0.0145118
649.442	0.0147117
649.520	0.0145083
649.598	0.0145795
649.676	0.0146669
649.754	0.0145770
649.832	0.0144028
649.910	0.0145267
649.988	0.0144744
650.067	0.0145879
650.145	0.0145399
650.223	0.0143790
650.301	0.0145272
650.379	0.0145193
650.457	0.0144716
650.535	0.0144466
650.613	0.0145515
650.692	0.0146803
650.770	0.0145581
650.848	0.0145246
650.926	0.0144651
651.004	0.0146049
651.082	0.0145797
651.160	0.0144362
651.238	0.0144520
651.317	0.0145167
651.395	0.0146239
651.473	0.0146349
651.551	0.0146270
651.629	0.0144899
651.707	0.0145026
651.785	0.0145766
651.863	0.0146596
651.942	0.0145966
652.020	0.0145700
652.098	0.0144261
652.176	0.0145719
652.254	0.0146371
652.332	0.0144691
652.410	0.0146041
652.488	0.0144860
652.567	0.0145938
652.645	0.0146033
652.723	0.0145354
652.801	0.0145613
652.879	0.0145902
652.957	0.0145639
653.035	0.0146013
653.113	0.0145580
653.192	0.0145155
653.270	0.0145403
653.348	0.0145431
653.426	0.0145857
653.504	0.0145370
653.582	0.0146034
653.660	0.0145715
653.738	0.0144913
653.817	0.0144341
653.895	0.0145512
653.973	0.0144958
654.051	0.0143851
654.129	0.0145316
654.207	0.0147314
654.285	0.0147021
654.363	0.0146001
654.442	0.0145348
654.520	0.0145576
654.598	0.0145444
654.676	0.0146989
654.754	0.0145090
654.832	0.0146289
654.910	0.0145734
654.988	0.0146278
655.067	0.0146075
655.145	0.0145495
655.223	0.0144652
655.301	0.0145023
655.379	0.0145741
655.457	0.0145934
655.535	0.0146323
655.613	0.0145363
655.692	0.0146194
655.770	0.0145860
655.848	0.0144670
655.926	0.0146587
656.004	0.0145621
656.082	0.0144220
656.160	0.0144743
656.238	0.0145221
656.317	0.0145432
656.395	0.0146165
656.473	0.0146653
656.551	0.0146033
656.629	0.0145647
656.707	0.0146444
656.785	0.0146586
656.863	0.0146548
656.942	0.0145274
657.020	0.0145026
657.098	0.0147177
657.176	0.0144988
657.254	0.0146668
657.332	0.0145901
657.410	0.0145045
657.488	0.0145204
657.567	0.0146619
657.645	0.0145869
657.723	0.0145480
657.801	0.0147037
657.879	0.0145447
657.957	0.0146889
658.035	0.0146384
658.113	0.0147534
658.192	0.0144579
658.270	0.0146130
658.348	0.0146861
658.426	0.0146330
658.504	0.0146480
658.582	0.0146149
658.660	0.0146218
658.738	0.0144405
658.817	0.0146520
658.895	0.0145383
658.973	0.0145840
659.051	0.0145853
659.129	0.0145133
659.207	0.0147092
659.285	0.0146577
659.363	0.0147080
659.442	0.0145786
659.520	0.0144955
659.598	0.0145599
659.676	0.0144978
659.754	0.0146232
659.832	0.0146703
659.910	0.0145778
659.988	0.0144954
660.067	0.0146281
660.145	0.0146392
660.223	0.0144496
660.301	0.0144835
660.379	0.0146596
660.457	0.0145728
660.535	0.0145197
660.613	0.0145054
660.692	0.0145502
660.770	0.0145856
660.848	0.0145451
660.926	0.0146146
661.004	0.0145574
661.082	0.0146026
661.160	0.0146006
661.238	0.0146148
661.317	0.0144812
661.395	0.0144464
661.473	0.0145695
661.551	0.0145310
661.629	0.0143700
661.707	0.0146117
661.785	0.0146037
661.863	0.0145802
661.942	0.0146581
662.020	0.0145023
662.098	0.0145960
662.176	0.0145302
662.254	0.0143816
662.332	0.0144917
662.410	0.0146500
662.488	0.0144974
662.567	0.0143393
662.645	0.0145478
662.723	0.0146034
662.801	0.0145214
662.879	0.0144929
662.957	0.0143711
663.035	0.0147238
663.113	0.0146147
663.192	0.0144430
663.270	0.0144902
663.348	0.0144986
663.426	0.0143775
663.504	0.0145796
663.582	0.0143719
663.660	0.0145860
663.738	0.0145499
663.817	0.0145370
663.895	0.0144484
663.973	0.0144781
664.051	0.0144765
664.129	0.0148155
664.207	0.0146353
664.285	0.0144704
664.363	0.0143494
664.442	0.0144583
664.520	0.0145924
664.598	0.0144728
664.676	0.0145747
664.754	0.0144646
664.832	0.0145211
664.910	0.0144409
664.988	0.0145337
665.067	0.0143254
665.145	0.0145117
665.223	0.0144961
665.301	0.0144762
665.379	0.0145737
665.457	0.0145094
665.535	0.0146127
665.613	0.0143916
665.692	0.0145240
665.770	0.0145792
665.848	0.0145386
665.926	0.0145609
666.004	0.0145164
666.082	0.0144965
666.160	0.0144698
666.238	0.0145654
666.317	0.0145499
666.395	0.0144511
666.473	0.0144742
666.551	0.0143992
666.629	0.0143678
666.707	0.0145677
666.785	0.0145015
666.863	0.0144945
666.942	0.0144437
667.020	0.0143954
667.098	0.0144326
667.176	0.0146107
667.254	0.0146326
667.332	0.0144661
667.410	0.0145089
667.488	0.0144299
667.567	0.0146282
667.645	0.0144624
667.723	0.0145875
667.801	0.0145548
667.879	0.0146717
667.957	0.0145131
668.035	0.0146816
668.113	0.0145140
668.192	0.0144605
668.270	0.0146398
668.348	0.0146684
668.426	0.0145046
668.504	0.0146231
668.582	0.0146062
668.660	0.0145844
668.738	0.0145681
668.817	0.0145033
668.895	0.0146299
668.973	0.0146096
669.051	0.0144846
669.129	0.0146021
669.207	0.0146778
669.285	0.0146750
669.363	0.0147011
669.442	0.0145328
669.520	0.0146416
669.598	0.0146219
669.676	0.0145926
669.754	0.0145502
669.832	0.0145275
669.910	0.0145602
669.988	0.0145173
670.067	0.0145374
670.145	0.0146634
670.223	0.0146640
670.301	0.0145623
670.379	0.0146661
670.457	0.0145873
670.535	0.0144781
670.613	0.0145525
670.692	0.0146430
670.770	0.0146195
670.848	0.0145582
670.926	0.0145572
671.004	0.0145695
671.082	0.0145406
671.160	0.0144834
671.238	0.0144889
671.317	0.0145049
671.395	0.0146148
671.473	0.0144865
671.551	0.0144960
671.629	0.0146326
671.707	0.0145604
671.785	0.0147115
671.863	0.0145658
671.942	0.0146390
672.020	0.0145827
672.098	0.0146834
672.176	0.0145789
672.254	0.0144572
672.332	0.0144454
672.410	0.0145636
672.488	0.0145660
672.567	0.0144785
672.645	0.0145411
672.723	0.0145890
672.801	0.0145295
672.879	0.0144945
672.957	0.0145218
673.035	0.0145334
673.113	0.0145406
673.192	0.0144923
673.270	0.0144794
673.348	0.0145094
673.426	0.0145319
673.504	0.0145786
673.582	0.0145692
673.660	0.0145004
673.738	0.0144634
673.817	0.0146235
673.895	0.0146497
673.973	0.0145758
674.051	0.0145169
674.129	0.0145709
674.207	0.0145719
674.285	0.0146607
674.363	0.0147091
674.442	0.0146352
674.520	0.0147675
674.598	0.0147308
674.676	0.0147216
674.754	0.0147318
674.832	0.0146644
674.910	0.0146038
674.988	0.0146057
675.067	0.0147277
675.145	0.0145387
675.223	0.0144790
675.301	0.0144744
675.379	0.0144872
675.457	0.0144935
675.535	0.0143569
675.613	0.0144373
675.692	0.0143999
675.770	0.0142726
675.848	0.0143681
675.926	0.0144032
676.004	0.0143469
676.082	0.0143315
676.160	0.0145607
676.238	0.0144059
676.317	0.0143945
676.395	0.0143559
676.473	0.0145033
676.551	0.0145489
676.629	0.0148231
676.707	0.0149146
676.785	0.0149831
676.863	0.0153268
676.942	0.0155413
677.020	0.0153369
677.098	0.0154395
677.176	0.0155992
677.254	0.0154824
677.332	0.0156023
677.410	0.0153725
677.488	0.0154414
677.567	0.0153854
677.645	0.0149202
677.723	0.0147569
677.801	0.0143823
677.879	0.0140137
677.957	0.0136832
678.035	0.0133020
678.113	0.0130977
678.192	0.0129217
678.270	0.0128174
678.348	0.0127164
678.426	0.0127869
678.504	0.0128682
678.582	0.0131922
678.660	0.0134490
678.738	0.0135880
678.817	0.0139001
678.895	0.0142464
678.973	0.0145642
679.051	0.0146491
679.129	0.0149618
679.207	0.0149040
679.285	0.0151778
679.363	0.0152820
679.442	0.0154046
679.520	0.0155773
679.598	0.0156779
679.676	0.0157408
679.754	0.0157150
679.832	0.0156721
679.910	0.0157093
679.988	0.0157211
680.067	0.0155268
680.145	0.0154410
680.223	0.0154871
680.301	0.0152544
680.379	0.0153371
680.457	0.0152689
680.535	0.0152791
680.613	0.0153670
680.692	0.0151237
680.770	0.0152512
680.848	0.0149582
680.926	0.0148861
681.004	0.0147987
681.082	0.0147606
681.160	0.0143843
681.238	0.0141312
681.317	0.0139507
681.395	0.0137817
681.473	0.0136964
681.551	0.0132620
681.629	0.0131097
681.707	0.0129662
681.785	0.0126508
681.863	0.0126944
681.942	0.0127971
682.020	0.0125912
682.098	0.0126547
682.176	0.0127879
682.254	0.0127995
682.332	0.0132189
682.410	0.0134393
682.488	0.0136865
682.567	0.0138783
682.645	0.0140247
682.723	0.0144447
682.801	0.0146842
682.879	0.0149221
682.957	0.0149722
683.035	0.0152699
683.113	0.0153655
683.192	0.0153030
683.270	0.0154107
683.348	0.0155724
683.426	0.0155901
683.504	0.0157623
683.582	0.0158327
683.660	0.0159528
683.738	0.0160970
683.817	0.0160633
683.895	0.0158627
683.973	0.0159457
684.051	0.0159047
684.129	0.0158912
684.207	0.0156772
684.285	0.0157687
684.363	0.0156001
684.442	0.0158055
684.520	0.0157627
684.598	0.0157513
684.676	0.0159209
684.754	0.0157880
684.832	0.0157763
684.910	0.0155364
684.988	0.0154484
685.067	0.0152921
685.145	0.0150686
685.223	0.0146171
685.301	0.0144480
685.379	0.0139909
685.457	0.0136190
685.535	0.0133398
685.613	0.0130322
685.692	0.0129025
