05/28/2022	14:05:21	Ver.	4.1	UNKNOWN
Optical Delay	599.988409	Delta X		0.078125	Sweeps	1	Scan Rate	0/0
Coordinates	Axis 1	NaN	Axis 2	NaN	Axis 3	NaN	Axis 4	NaN	Axis 5	NaN	Axis 6	0.000000
TX Power	0.000000	RX Power	0.000000

599.988	0.0148809
600.067	0.0148030
600.145	0.0149747
600.223	0.0149656
600.301	0.0148358
600.379	0.0148924
600.457	0.0149992
600.535	0.0148255
600.613	0.0148131
600.692	0.0148523
600.770	0.0149002
600.848	0.0149314
600.926	0.0148477
601.004	0.0148605
601.082	0.0148755
601.160	0.0149564
601.238	0.0148186
601.317	0.0149040
601.395	0.0149232
601.473	0.0148541
601.551	0.0148050
601.629	0.0148956
601.707	0.0150521
601.785	0.0149587
601.863	0.0149011
601.942	0.0147990
602.020	0.0148283
602.098	0.0148878
602.176	0.0148675
602.254	0.0148796
602.332	0.0149111
602.410	0.0147994
602.488	0.0148861
602.567	0.0149702
602.645	0.0147453
602.723	0.0148563
602.801	0.0148679
602.879	0.0147468
602.957	0.0150024
603.035	0.0149680
603.113	0.0148595
603.192	0.0149276
603.270	0.0149600
603.348	0.0148299
603.426	0.0148309
603.504	0.0148998
603.582	0.0149887
603.660	0.0148938
603.738	0.0148827
603.817	0.0148074
603.895	0.0148470
603.973	0.0149029
604.051	0.0149098
604.129	0.0148463
604.207	0.0147231
604.285	0.0149139
604.363	0.0147598
604.442	0.0149657
604.520	0.0149584
604.598	0.0149898
604.676	0.0148373
604.754	0.0148358
604.832	0.0147662
604.910	0.0148823
604.988	0.0149357
605.067	0.0147584
605.145	0.0147767
605.223	0.0148352
605.301	0.0149705
605.379	0.0147398
605.457	0.0148047
605.535	0.0149429
605.613	0.0148737
605.692	0.0147062
605.770	0.0147594
605.848	0.0149441
605.926	0.0149013
606.004	0.0149361
606.082	0.0149983
606.160	0.0149534
606.238	0.0148392
606.317	0.0148183
606.395	0.0148017
606.473	0.0149062
606.551	0.0149115
606.629	0.0148302
606.707	0.0148976
606.785	0.0147891
606.863	0.0149042
606.942	0.0148266
607.020	0.0148827
607.098	0.0149255
607.176	0.0148786
607.254	0.0149332
607.332	0.0148753
607.410	0.0148137
607.488	0.0148730
607.567	0.0150130
607.645	0.0149137
607.723	0.0148666
607.801	0.0149101
607.879	0.0149212
607.957	0.0147683
608.035	0.0148193
608.113	0.0148367
608.192	0.0149689
608.270	0.0150008
608.348	0.0148468
608.426	0.0148940
608.504	0.0149205
608.582	0.0148384
608.660	0.0150313
608.738	0.0149802
608.817	0.0148777
608.895	0.0148199
608.973	0.0150018
609.051	0.0149225
609.129	0.0149887
609.207	0.0148184
609.285	0.0148704
609.363	0.0149609
609.442	0.0147665
609.520	0.0149821
609.598	0.0150276
609.676	0.0149973
609.754	0.0149776
609.832	0.0148746
609.910	0.0148319
609.988	0.0148592
610.067	0.0148152
610.145	0.0149171
610.223	0.0148585
610.301	0.0148220
610.379	0.0148767
610.457	0.0147879
610.535	0.0148430
610.613	0.0148415
610.692	0.0148534
610.770	0.0149036
610.848	0.0148524
610.926	0.0148050
611.004	0.0148029
611.082	0.0147890
611.160	0.0149915
611.238	0.0149895
611.317	0.0147324
611.395	0.0148625
611.473	0.0149767
611.551	0.0149284
611.629	0.0148254
611.707	0.0148543
611.785	0.0148923
611.863	0.0151180
611.942	0.0149032
612.020	0.0148200
612.098	0.0149010
612.176	0.0148760
612.254	0.0148816
612.332	0.0149219
612.410	0.0150187
612.488	0.0148819
612.567	0.0149052
612.645	0.0149030
612.723	0.0149217
612.801	0.0149102
612.879	0.0149575
612.957	0.0148428
613.035	0.0148869
613.113	0.0147944
613.192	0.0148607
613.270	0.0148861
613.348	0.0149382
613.426	0.0149336
613.504	0.0148853
613.582	0.0151026
613.660	0.0150393
613.738	0.0148635
613.817	0.0148663
613.895	0.0149342
613.973	0.0148885
614.051	0.0148807
614.129	0.0148970
614.207	0.0148892
614.285	0.0148864
614.363	0.0148579
614.442	0.0149828
614.520	0.0148714
614.598	0.0148429
614.676	0.0148306
614.754	0.0148689
614.832	0.0148744
614.910	0.0150297
614.988	0.0149544
615.067	0.0149863
615.145	0.0149743
615.223	0.0149152
615.301	0.0147492
615.379	0.0148460
615.457	0.0149691
615.535	0.0148193
615.613	0.0148766
615.692	0.0148336
615.770	0.0149379
615.848	0.0148302
615.926	0.0148884
616.004	0.0148674
616.082	0.0149228
616.160	0.0148981
616.238	0.0147621
616.317	0.0148182
616.395	0.0149628
616.473	0.0148882
616.551	0.0147935
616.629	0.0149893
616.707	0.0150143
616.785	0.0149859
616.863	0.0148296
616.942	0.0148672
617.020	0.0148246
617.098	0.0148330
617.176	0.0148348
617.254	0.0148574
617.332	0.0147980
617.410	0.0148501
617.488	0.0148895
617.567	0.0149128
617.645	0.0149338
617.723	0.0148735
617.801	0.0149427
617.879	0.0149335
617.957	0.0146981
618.035	0.0149028
618.113	0.0149877
618.192	0.0149358
618.270	0.0148766
618.348	0.0148656
618.426	0.0148579
618.504	0.0149593
618.582	0.0149291
618.660	0.0148855
618.738	0.0149057
618.817	0.0150136
618.895	0.0149931
618.973	0.0148503
619.051	0.0148704
619.129	0.0149295
619.207	0.0148933
619.285	0.0148144
619.363	0.0148928
619.442	0.0147884
619.520	0.0148992
619.598	0.0149625
619.676	0.0150246
619.754	0.0149670
619.832	0.0150314
619.910	0.0149232
619.988	0.0149310
620.067	0.0150640
620.145	0.0149281
620.223	0.0149354
620.301	0.0149662
620.379	0.0149600
620.457	0.0149460
620.535	0.0148506
620.613	0.0148811
620.692	0.0148089
620.770	0.0148843
620.848	0.0149355
620.926	0.0149253
621.004	0.0148480
621.082	0.0149158
621.160	0.0149837
621.238	0.0149420
621.317	0.0148062
621.395	0.0148022
621.473	0.0148346
621.551	0.0147786
621.629	0.0148129
621.707	0.0149493
621.785	0.0148540
621.863	0.0149332
621.942	0.0147861
622.020	0.0148976
622.098	0.0148486
622.176	0.0148747
622.254	0.0150155
622.332	0.0149434
622.410	0.0149007
622.488	0.0148734
622.567	0.0149847
622.645	0.0148342
622.723	0.0147755
622.801	0.0148742
622.879	0.0149032
622.957	0.0148151
623.035	0.0150108
623.113	0.0149262
623.192	0.0150230
623.270	0.0149391
623.348	0.0148832
623.426	0.0149548
623.504	0.0147868
623.582	0.0148137
623.660	0.0149020
623.738	0.0148227
623.817	0.0148943
623.895	0.0149656
623.973	0.0149243
624.051	0.0148309
624.129	0.0148506
624.207	0.0150478
624.285	0.0149220
624.363	0.0149635
624.442	0.0149322
624.520	0.0150018
624.598	0.0149283
624.676	0.0149197
624.754	0.0149931
624.832	0.0149998
624.910	0.0147902
624.988	0.0149899
625.067	0.0148035
625.145	0.0149644
625.223	0.0149308
625.301	0.0149227
625.379	0.0148431
625.457	0.0148664
625.535	0.0148608
625.613	0.0148402
625.692	0.0149757
625.770	0.0150569
625.848	0.0148904
625.926	0.0150473
626.004	0.0150329
626.082	0.0149157
626.160	0.0149388
626.238	0.0148850
626.317	0.0149782
626.395	0.0148927
626.473	0.0148266
626.551	0.0150780
626.629	0.0148180
626.707	0.0149233
626.785	0.0149166
626.863	0.0149718
626.942	0.0147997
627.020	0.0148778
627.098	0.0148693
627.176	0.0149076
627.254	0.0147910
627.332	0.0147867
627.410	0.0149204
627.488	0.0148705
627.567	0.0149876
627.645	0.0148482
627.723	0.0148083
627.801	0.0148540
627.879	0.0147210
627.957	0.0150636
628.035	0.0149636
628.113	0.0148879
628.192	0.0149059
628.270	0.0148872
628.348	0.0148613
628.426	0.0148481
628.504	0.0149303
628.582	0.0147810
628.660	0.0148859
628.738	0.0149297
628.817	0.0147688
628.895	0.0150437
628.973	0.0147336
629.051	0.0148450
629.129	0.0148083
629.207	0.0148877
629.285	0.0147859
629.363	0.0148983
629.442	0.0149148
629.520	0.0147458
629.598	0.0149334
629.676	0.0147289
629.754	0.0149286
629.832	0.0149196
629.910	0.0148031
629.988	0.0147771
630.067	0.0148895
630.145	0.0148473
630.223	0.0148418
630.301	0.0147408
630.379	0.0148989
630.457	0.0148671
630.535	0.0149714
630.613	0.0148722
630.692	0.0148313
630.770	0.0147521
630.848	0.0148906
630.926	0.0149497
631.004	0.0147967
631.082	0.0148569
631.160	0.0148734
631.238	0.0149288
631.317	0.0147899
631.395	0.0148969
631.473	0.0149179
631.551	0.0148083
631.629	0.0149270
631.707	0.0149713
631.785	0.0148621
631.863	0.0148267
631.942	0.0148898
632.020	0.0149671
632.098	0.0148375
632.176	0.0148723
632.254	0.0148651
632.332	0.0148338
632.410	0.0148175
632.488	0.0149074
632.567	0.0148631
632.645	0.0149483
632.723	0.0148816
632.801	0.0147799
632.879	0.0148932
632.957	0.0148646
633.035	0.0150001
633.113	0.0149886
633.192	0.0149527
633.270	0.0148919
633.348	0.0149709
633.426	0.0147934
633.504	0.0147773
633.582	0.0146991
633.660	0.0150079
633.738	0.0149620
633.817	0.0149316
633.895	0.0148264
633.973	0.0147919
634.051	0.0149711
634.129	0.0149659
634.207	0.0148846
634.285	0.0149529
634.363	0.0148205
634.442	0.0148488
634.520	0.0148102
634.598	0.0148399
634.676	0.0148699
634.754	0.0149334
634.832	0.0148154
634.910	0.0148553
634.988	0.0148836
635.067	0.0147470
635.145	0.0148302
635.223	0.0149121
635.301	0.0149044
635.379	0.0148653
635.457	0.0149049
635.535	0.0149867
635.613	0.0148587
635.692	0.0148779
635.770	0.0148447
635.848	0.0147832
635.926	0.0148934
636.004	0.0148112
636.082	0.0149553
636.160	0.0149232
636.238	0.0148673
636.317	0.0148482
636.395	0.0148956
636.473	0.0149528
636.551	0.0150019
636.629	0.0149249
636.707	0.0150945
636.785	0.0149155
636.863	0.0148051
636.942	0.0148617
637.020	0.0149798
637.098	0.0150359
637.176	0.0149484
637.254	0.0149854
637.332	0.0149947
637.410	0.0148470
637.488	0.0147266
637.567	0.0149242
637.645	0.0150526
637.723	0.0149760
637.801	0.0148837
637.879	0.0148512
637.957	0.0149658
638.035	0.0150198
638.113	0.0149111
638.192	0.0149156
638.270	0.0149167
638.348	0.0148409
638.426	0.0149992
638.504	0.0149783
638.582	0.0148370
638.660	0.0147824
638.738	0.0149303
638.817	0.0149403
638.895	0.0149690
638.973	0.0148804
639.051	0.0149599
639.129	0.0149535
639.207	0.0148692
639.285	0.0148601
639.363	0.0149134
639.442	0.0150075
639.520	0.0148766
639.598	0.0146860
639.676	0.0149847
639.754	0.0148979
639.832	0.0150922
639.910	0.0148830
639.988	0.0147959
640.067	0.0149406
640.145	0.0149126
640.223	0.0148830
640.301	0.0149024
640.379	0.0149094
640.457	0.0149609
640.535	0.0149608
640.613	0.0148746
640.692	0.0149683
640.770	0.0148225
640.848	0.0149339
640.926	0.0148860
641.004	0.0148138
641.082	0.0148621
641.160	0.0148019
641.238	0.0148649
641.317	0.0149558
641.395	0.0149566
641.473	0.0148281
641.551	0.0149657
641.629	0.0147625
641.707	0.0147926
641.785	0.0149468
641.863	0.0148321
641.942	0.0148437
642.020	0.0149407
642.098	0.0149049
642.176	0.0150226
642.254	0.0149126
642.332	0.0148224
642.410	0.0148730
642.488	0.0149686
642.567	0.0148383
642.645	0.0148640
642.723	0.0149446
642.801	0.0149416
642.879	0.0149039
642.957	0.0149490
643.035	0.0148831
643.113	0.0149709
643.192	0.0148676
643.270	0.0149502
643.348	0.0148715
643.426	0.0148775
643.504	0.0149931
643.582	0.0149447
643.660	0.0147854
643.738	0.0149467
643.817	0.0148784
643.895	0.0147482
643.973	0.0148676
644.051	0.0149816
644.129	0.0148051
644.207	0.0148303
644.285	0.0148537
644.363	0.0149049
644.442	0.0149458
644.520	0.0148629
644.598	0.0149570
644.676	0.0148687
644.754	0.0149308
644.832	0.0148666
644.910	0.0148173
644.988	0.0148795
645.067	0.0149668
645.145	0.0147913
645.223	0.0147799
645.301	0.0150336
645.379	0.0149595
645.457	0.0148529
645.535	0.0149567
645.613	0.0148783
645.692	0.0147863
645.770	0.0148534
645.848	0.0149453
645.926	0.0148981
646.004	0.0149373
646.082	0.0148936
646.160	0.0149161
646.238	0.0148672
646.317	0.0149298
646.395	0.0147966
646.473	0.0149166
646.551	0.0148840
646.629	0.0147897
646.707	0.0149118
646.785	0.0148935
646.863	0.0149032
646.942	0.0149150
647.020	0.0148966
647.098	0.0147993
647.176	0.0149963
647.254	0.0149674
647.332	0.0148900
647.410	0.0148804
647.488	0.0147784
647.567	0.0148764
647.645	0.0149547
647.723	0.0149562
647.801	0.0149086
647.879	0.0149301
647.957	0.0148734
648.035	0.0149229
648.113	0.0149747
648.192	0.0150298
648.270	0.0148053
648.348	0.0149041
648.426	0.0150513
648.504	0.0149960
648.582	0.0149417
648.660	0.0147861
648.738	0.0149166
648.817	0.0147911
648.895	0.0149546
648.973	0.0149330
649.051	0.0148109
649.129	0.0148428
649.207	0.0148534
649.285	0.0151051
649.363	0.0149202
649.442	0.0147372
649.520	0.0150132
649.598	0.0149110
649.676	0.0149329
649.754	0.0148406
649.832	0.0150224
649.910	0.0148648
649.988	0.0148626
650.067	0.0148951
650.145	0.0148170
650.223	0.0148290
650.301	0.0149201
650.379	0.0149494
650.457	0.0149424
650.535	0.0148367
650.613	0.0149892
650.692	0.0148750
650.770	0.0148190
650.848	0.0148447
650.926	0.0149011
651.004	0.0149134
651.082	0.0149239
651.160	0.0148390
651.238	0.0149113
651.317	0.0148534
651.395	0.0147067
651.473	0.0147579
651.551	0.0149928
651.629	0.0149223
651.707	0.0148096
651.785	0.0148487
651.863	0.0149462
651.942	0.0147843
652.020	0.0149556
652.098	0.0149273
652.176	0.0148132
652.254	0.0148679
652.332	0.0148804
652.410	0.0148339
652.488	0.0149123
652.567	0.0148488
652.645	0.0149335
652.723	0.0149203
652.801	0.0148370
652.879	0.0149583
652.957	0.0149104
653.035	0.0148602
653.113	0.0147634
653.192	0.0149252
653.270	0.0148792
653.348	0.0148286
653.426	0.0148767
653.504	0.0149445
653.582	0.0149110
653.660	0.0149297
653.738	0.0148865
653.817	0.0149959
653.895	0.0148666
653.973	0.0148051
654.051	0.0149181
654.129	0.0149441
654.207	0.0150180
654.285	0.0149078
654.363	0.0148934
654.442	0.0148874
654.520	0.0148592
654.598	0.0148855
654.676	0.0148609
654.754	0.0148926
654.832	0.0149007
654.910	0.0148238
654.988	0.0148589
655.067	0.0148055
655.145	0.0149831
655.223	0.0148323
655.301	0.0148599
655.379	0.0149924
655.457	0.0148936
655.535	0.0148037
655.613	0.0148109
655.692	0.0148341
655.770	0.0149288
655.848	0.0148672
655.926	0.0149267
656.004	0.0150138
656.082	0.0148260
656.160	0.0148316
656.238	0.0148717
656.317	0.0147353
656.395	0.0150092
656.473	0.0148714
656.551	0.0148586
656.629	0.0148185
656.707	0.0147597
656.785	0.0148757
656.863	0.0147877
656.942	0.0149335
657.020	0.0148333
657.098	0.0147431
657.176	0.0148252
657.254	0.0150114
657.332	0.0148517
657.410	0.0148920
657.488	0.0148280
657.567	0.0148105
657.645	0.0148604
657.723	0.0148515
657.801	0.0147777
657.879	0.0149358
657.957	0.0148393
658.035	0.0149580
658.113	0.0149380
658.192	0.0150782
658.270	0.0148739
658.348	0.0148502
658.426	0.0147634
658.504	0.0149516
658.582	0.0148201
658.660	0.0148737
658.738	0.0149386
658.817	0.0147929
658.895	0.0148399
658.973	0.0148190
659.051	0.0148904
659.129	0.0149837
659.207	0.0148743
659.285	0.0149226
659.363	0.0149277
659.442	0.0147656
659.520	0.0149382
659.598	0.0149608
659.676	0.0148741
659.754	0.0149224
659.832	0.0148058
659.910	0.0148547
659.988	0.0149401
660.067	0.0148097
660.145	0.0148982
660.223	0.0148204
660.301	0.0149263
660.379	0.0149869
660.457	0.0148134
660.535	0.0149471
660.613	0.0149026
660.692	0.0149412
660.770	0.0148769
660.848	0.0148583
660.926	0.0148985
661.004	0.0148628
661.082	0.0148501
661.160	0.0149278
661.238	0.0148607
661.317	0.0150071
661.395	0.0150035
661.473	0.0149744
661.551	0.0149866
661.629	0.0149359
661.707	0.0148579
661.785	0.0147839
661.863	0.0149651
661.942	0.0149850
662.020	0.0149488
662.098	0.0150135
662.176	0.0148044
662.254	0.0148662
662.332	0.0148581
662.410	0.0149864
662.488	0.0148566
662.567	0.0148485
662.645	0.0148772
662.723	0.0147905
662.801	0.0150306
662.879	0.0149000
662.957	0.0149302
663.035	0.0148903
663.113	0.0148151
663.192	0.0148353
663.270	0.0148001
663.348	0.0148551
663.426	0.0149725
663.504	0.0149223
663.582	0.0149034
663.660	0.0149164
663.738	0.0150028
663.817	0.0148311
663.895	0.0148781
663.973	0.0147617
664.051	0.0148438
664.129	0.0148553
664.207	0.0149015
664.285	0.0149320
664.363	0.0148472
664.442	0.0149290
664.520	0.0149929
664.598	0.0148061
664.676	0.0148358
664.754	0.0149555
664.832	0.0149435
664.910	0.0148620
664.988	0.0147737
665.067	0.0148706
665.145	0.0149674
665.223	0.0150007
665.301	0.0149275
665.379	0.0147621
665.457	0.0148151
665.535	0.0149193
665.613	0.0150201
665.692	0.0149725
665.770	0.0148769
665.848	0.0149255
665.926	0.0149554
666.004	0.0149702
666.082	0.0149373
666.160	0.0148724
666.238	0.0148578
666.317	0.0149639
666.395	0.0149089
666.473	0.0147813
666.551	0.0149752
666.629	0.0149331
666.707	0.0150121
666.785	0.0149759
666.863	0.0148860
666.942	0.0149968
667.020	0.0149973
667.098	0.0150755
667.176	0.0150813
667.254	0.0149024
667.332	0.0149213
667.410	0.0147718
667.488	0.0148064
667.567	0.0148196
667.645	0.0148398
667.723	0.0148576
667.801	0.0147687
667.879	0.0148693
667.957	0.0148830
668.035	0.0149772
668.113	0.0148496
668.192	0.0148625
668.270	0.0146450
668.348	0.0148182
668.426	0.0149047
668.504	0.0148566
668.582	0.0149229
668.660	0.0149333
668.738	0.0150268
668.817	0.0150361
668.895	0.0149714
668.973	0.0150984
669.051	0.0151358
669.129	0.0149275
669.207	0.0149756
669.285	0.0149308
669.363	0.0148740
669.442	0.0149415
669.520	0.0148181
669.598	0.0148766
669.676	0.0148988
669.754	0.0147549
669.832	0.0148133
669.910	0.0147938
669.988	0.0148469
670.067	0.0147620
670.145	0.0146203
670.223	0.0147620
670.301	0.0147711
670.379	0.0145607
670.457	0.0148217
670.535	0.0146835
670.613	0.0146970
670.692	0.0146537
670.770	0.0146065
670.848	0.0147982
670.926	0.0148650
671.004	0.0149562
671.082	0.0150491
671.160	0.0152171
671.238	0.0151942
671.317	0.0154173
671.395	0.0154919
671.473	0.0153259
671.551	0.0154984
671.629	0.0155471
671.707	0.0154314
671.785	0.0153824
671.863	0.0152594
671.942	0.0152491
672.020	0.0150652
672.098	0.0149130
672.176	0.0147501
672.254	0.0145043
672.332	0.0144601
672.410	0.0141411
672.488	0.0140237
672.567	0.0140437
672.645	0.0138090
672.723	0.0137087
672.801	0.0138808
672.879	0.0138741
672.957	0.0140287
673.035	0.0141986
673.113	0.0143456
673.192	0.0145257
673.270	0.0146202
673.348	0.0147652
673.426	0.0149450
673.504	0.0149663
673.582	0.0149435
673.660	0.0150079
673.738	0.0151588
673.817	0.0151671
673.895	0.0151885
673.973	0.0152711
674.051	0.0154735
674.129	0.0153794
674.207	0.0154019
674.285	0.0153909
674.363	0.0155000
674.442	0.0153263
674.520	0.0151363
674.598	0.0152271
674.676	0.0152737
674.754	0.0150552
674.832	0.0150543
674.910	0.0151101
674.988	0.0153099
675.067	0.0153349
675.145	0.0152290
675.223	0.0154291
675.301	0.0155054
675.379	0.0154935
675.457	0.0155710
675.535	0.0154763
675.613	0.0152727
675.692	0.0151302
675.770	0.0151317
675.848	0.0150758
675.926	0.0148642
676.004	0.0144872
676.082	0.0143968
676.160	0.0142948
676.238	0.0139747
676.317	0.0138508
676.395	0.0138435
676.473	0.0134929
676.551	0.0133909
676.629	0.0133494
676.707	0.0132640
676.785	0.0133103
676.863	0.0135662
676.942	0.0137897
677.020	0.0137456
677.098	0.0138838
677.176	0.0140310
677.254	0.0143250
677.332	0.0143343
677.410	0.0143987
677.488	0.0146197
677.567	0.0147927
677.645	0.0152040
677.723	0.0153111
677.801	0.0155470
677.879	0.0156789
677.957	0.0158053
678.035	0.0160113
678.113	0.0161230
678.192	0.0161775
678.270	0.0162238
678.348	0.0161449
678.426	0.0160838
678.504	0.0160046
678.582	0.0158615
678.660	0.0158639
678.738	0.0157337
678.817	0.0156272
678.895	0.0154629
678.973	0.0155442
679.051	0.0155901
679.129	0.0156256
679.207	0.0157648
679.285	0.0157347
679.363	0.0157214
679.442	0.0159048
679.520	0.0158334
679.598	0.0154932
679.676	0.0155441
679.754	0.0153238
679.832	0.0150656
679.910	0.0148609
679.988	0.0147506
680.067	0.0144516
680.145	0.0143911
680.223	0.0141931
680.301	0.0141060
680.379	0.0138603
680.457	0.0137823
680.535	0.0136241
680.613	0.0134714
680.692	0.0133376
680.770	0.0132638
680.848	0.0132160
680.926	0.0130246
681.004	0.0129021
681.082	0.0129008
681.160	0.0127625
681.238	0.0126683
681.317	0.0127486
681.395	0.0128929
681.473	0.0128494
681.551	0.0130848
681.629	0.0132395
681.707	0.0134223
681.785	0.0136857
681.863	0.0139388
681.942	0.0141841
682.020	0.0146973
682.098	0.0150185
682.176	0.0154047
682.254	0.0158319
682.332	0.0162945
682.410	0.0166199
682.488	0.0171050
682.567	0.0171793
682.645	0.0174078
682.723	0.0175702
682.801	0.0175432
682.879	0.0174907
682.957	0.0173254
683.035	0.0172118
683.113	0.0170128
683.192	0.0168423
683.270	0.0165341
683.348	0.0164666
683.426	0.0161946
683.504	0.0162797
683.582	0.0161083
683.660	0.0158923
683.738	0.0158856
683.817	0.0156757
683.895	0.0156830
683.973	0.0154801
684.051	0.0153441
684.129	0.0151958
684.207	0.0150220
684.285	0.0149409
684.363	0.0148123
684.442	0.0145874
684.520	0.0143891
684.598	0.0144104
684.676	0.0142380
684.754	0.0141965
684.832	0.0139311
684.910	0.0134846
684.988	0.0131767
685.067	0.0129896
685.145	0.0129272
685.223	0.0125060
685.301	0.0124364
685.379	0.0123940
685.457	0.0124984
685.535	0.0125568
685.613	0.0126801
685.692	0.0128617
