05/28/2022	14:06:41	Ver.	4.1	UNKNOWN
Optical Delay	599.988409	Delta X		0.078125	Sweeps	1	Scan Rate	0/0
Coordinates	Axis 1	NaN	Axis 2	NaN	Axis 3	NaN	Axis 4	NaN	Axis 5	NaN	Axis 6	0.000000
TX Power	0.000000	RX Power	0.000000

599.988	0.0140714
600.067	0.0140611
600.145	0.0141958
600.223	0.0141195
600.301	0.0140137
600.379	0.0140018
600.457	0.0140806
600.535	0.0141321
600.613	0.0140901
600.692	0.0140292
600.770	0.0142465
600.848	0.0141464
600.926	0.0140561
601.004	0.0141891
601.082	0.0142896
601.160	0.0140754
601.238	0.0140916
601.317	0.0140712
601.395	0.0140259
601.473	0.0141059
601.551	0.0140192
601.629	0.0140218
601.707	0.0141149
601.785	0.0142526
601.863	0.0140518
601.942	0.0140707
602.020	0.0140577
602.098	0.0140302
602.176	0.0141753
602.254	0.0140525
602.332	0.0141194
602.410	0.0141859
602.488	0.0140081
602.567	0.0141338
602.645	0.0140008
602.723	0.0140307
602.801	0.0140662
602.879	0.0140107
602.957	0.0138761
603.035	0.0140910
603.113	0.0141430
603.192	0.0139724
603.270	0.0140100
603.348	0.0140587
603.426	0.0139681
603.504	0.0140939
603.582	0.0139980
603.660	0.0139386
603.738	0.0141599
603.817	0.0140371
603.895	0.0141212
603.973	0.0140517
604.051	0.0139797
604.129	0.0141039
604.207	0.0141099
604.285	0.0139434
604.363	0.0140248
604.442	0.0140907
604.520	0.0139616
604.598	0.0139914
604.676	0.0139399
604.754	0.0139140
604.832	0.0139635
604.910	0.0140470
604.988	0.0140857
605.067	0.0141101
605.145	0.0140796
605.223	0.0139661
605.301	0.0141981
605.379	0.0141228
605.457	0.0141285
605.535	0.0140126
605.613	0.0142235
605.692	0.0140916
605.770	0.0140121
605.848	0.0141050
605.926	0.0140668
606.004	0.0140809
606.082	0.0141094
606.160	0.0139915
606.238	0.0139243
606.317	0.0141323
606.395	0.0140626
606.473	0.0141760
606.551	0.0140414
606.629	0.0139311
606.707	0.0140236
606.785	0.0139845
606.863	0.0140437
606.942	0.0140276
607.020	0.0139969
607.098	0.0141492
607.176	0.0142264
607.254	0.0141072
607.332	0.0140679
607.410	0.0140270
607.488	0.0140466
607.567	0.0140970
607.645	0.0140405
607.723	0.0139895
607.801	0.0139905
607.879	0.0141805
607.957	0.0139748
608.035	0.0140939
608.113	0.0140160
608.192	0.0141549
608.270	0.0140534
608.348	0.0138643
608.426	0.0139746
608.504	0.0140327
608.582	0.0140502
608.660	0.0140462
608.738	0.0140502
608.817	0.0140560
608.895	0.0139355
608.973	0.0140092
609.051	0.0140843
609.129	0.0140796
609.207	0.0139605
609.285	0.0141130
609.363	0.0140830
609.442	0.0141222
609.520	0.0139732
609.598	0.0139854
609.676	0.0140219
609.754	0.0141423
609.832	0.0140710
609.910	0.0140892
609.988	0.0141347
610.067	0.0140865
610.145	0.0139591
610.223	0.0141810
610.301	0.0140159
610.379	0.0140220
610.457	0.0141183
610.535	0.0139986
610.613	0.0139962
610.692	0.0141233
610.770	0.0140476
610.848	0.0140366
610.926	0.0142077
611.004	0.0140955
611.082	0.0140336
611.160	0.0141111
611.238	0.0141618
611.317	0.0141856
611.395	0.0142098
611.473	0.0140456
611.551	0.0140096
611.629	0.0141508
611.707	0.0140696
611.785	0.0142677
611.863	0.0142772
611.942	0.0141620
612.020	0.0140930
612.098	0.0140178
612.176	0.0140792
612.254	0.0139928
612.332	0.0139693
612.410	0.0141743
612.488	0.0140251
612.567	0.0141459
612.645	0.0142899
612.723	0.0141430
612.801	0.0140406
612.879	0.0140739
612.957	0.0140481
613.035	0.0141993
613.113	0.0140770
613.192	0.0140116
613.270	0.0139991
613.348	0.0141096
613.426	0.0141408
613.504	0.0140668
613.582	0.0140825
613.660	0.0140606
613.738	0.0140744
613.817	0.0140116
613.895	0.0142128
613.973	0.0141602
614.051	0.0141608
614.129	0.0140243
614.207	0.0140630
614.285	0.0140679
614.363	0.0141688
614.442	0.0139532
614.520	0.0141984
614.598	0.0139719
614.676	0.0140869
614.754	0.0140754
614.832	0.0142213
614.910	0.0139729
614.988	0.0141848
615.067	0.0142182
615.145	0.0141164
615.223	0.0140336
615.301	0.0141068
615.379	0.0140081
615.457	0.0140810
615.535	0.0140998
615.613	0.0140807
615.692	0.0141769
615.770	0.0141853
615.848	0.0142513
615.926	0.0140855
616.004	0.0141802
616.082	0.0141171
616.160	0.0140214
616.238	0.0142628
616.317	0.0141850
616.395	0.0142122
616.473	0.0142480
616.551	0.0141957
616.629	0.0141154
616.707	0.0139928
616.785	0.0141354
616.863	0.0141206
616.942	0.0141765
617.020	0.0140319
617.098	0.0140772
617.176	0.0140684
617.254	0.0141086
617.332	0.0142292
617.410	0.0140482
617.488	0.0139542
617.567	0.0140000
617.645	0.0140314
617.723	0.0140779
617.801	0.0140695
617.879	0.0140440
617.957	0.0141271
618.035	0.0140528
618.113	0.0139643
618.192	0.0140960
618.270	0.0141328
618.348	0.0140443
618.426	0.0140495
618.504	0.0141085
618.582	0.0140906
618.660	0.0140029
618.738	0.0141192
618.817	0.0141787
618.895	0.0140405
618.973	0.0139732
619.051	0.0140136
619.129	0.0141502
619.207	0.0141561
619.285	0.0141151
619.363	0.0141150
619.442	0.0141919
619.520	0.0141624
619.598	0.0141721
619.676	0.0140399
619.754	0.0141499
619.832	0.0141632
619.910	0.0140909
619.988	0.0140940
620.067	0.0140893
620.145	0.0140343
620.223	0.0140597
620.301	0.0141755
620.379	0.0141335
620.457	0.0141178
620.535	0.0140782
620.613	0.0141458
620.692	0.0140196
620.770	0.0139716
620.848	0.0139426
620.926	0.0140534
621.004	0.0142483
621.082	0.0142451
621.160	0.0141095
621.238	0.0141219
621.317	0.0141479
621.395	0.0141811
621.473	0.0141174
621.551	0.0141155
621.629	0.0141290
621.707	0.0140475
621.785	0.0140588
621.863	0.0141454
621.942	0.0141975
622.020	0.0142464
622.098	0.0140573
622.176	0.0141319
622.254	0.0141286
622.332	0.0139920
622.410	0.0140350
622.488	0.0140627
622.567	0.0141185
622.645	0.0140915
622.723	0.0141605
622.801	0.0140520
622.879	0.0141805
622.957	0.0140421
623.035	0.0141073
623.113	0.0140229
623.192	0.0141259
623.270	0.0141089
623.348	0.0140030
623.426	0.0140601
623.504	0.0140309
623.582	0.0139616
623.660	0.0140235
623.738	0.0140520
623.817	0.0140690
623.895	0.0141403
623.973	0.0141842
624.051	0.0141786
624.129	0.0139455
624.207	0.0140238
624.285	0.0140963
624.363	0.0139557
624.442	0.0141106
624.520	0.0141072
624.598	0.0139744
624.676	0.0140126
624.754	0.0141827
624.832	0.0138895
624.910	0.0140874
624.988	0.0141418
625.067	0.0140965
625.145	0.0140076
625.223	0.0141846
625.301	0.0141331
625.379	0.0141403
625.457	0.0140477
625.535	0.0140255
625.613	0.0140272
625.692	0.0141211
625.770	0.0138994
625.848	0.0140450
625.926	0.0142038
626.004	0.0141953
626.082	0.0139426
626.160	0.0140019
626.238	0.0139744
626.317	0.0140144
626.395	0.0139909
626.473	0.0139207
626.551	0.0141417
626.629	0.0141064
626.707	0.0140117
626.785	0.0141046
626.863	0.0141015
626.942	0.0139892
627.020	0.0140918
627.098	0.0139434
627.176	0.0140701
627.254	0.0141290
627.332	0.0142216
627.410	0.0140565
627.488	0.0141602
627.567	0.0140976
627.645	0.0140696
627.723	0.0140074
627.801	0.0139524
627.879	0.0141718
627.957	0.0139910
628.035	0.0141209
628.113	0.0142222
628.192	0.0140101
628.270	0.0140305
628.348	0.0140350
628.426	0.0139991
628.504	0.0141219
628.582	0.0140572
628.660	0.0139310
628.738	0.0139783
628.817	0.0140710
628.895	0.0140794
628.973	0.0139587
629.051	0.0140273
629.129	0.0140562
629.207	0.0140986
629.285	0.0139165
629.363	0.0140354
629.442	0.0141389
629.520	0.0140875
629.598	0.0141909
629.676	0.0141494
629.754	0.0138847
629.832	0.0141156
629.910	0.0140110
629.988	0.0140073
630.067	0.0140976
630.145	0.0139130
630.223	0.0140892
630.301	0.0140443
630.379	0.0140247
630.457	0.0139742
630.535	0.0139848
630.613	0.0139936
630.692	0.0141204
630.770	0.0140623
630.848	0.0141223
630.926	0.0140584
631.004	0.0140952
631.082	0.0140294
631.160	0.0138892
631.238	0.0140222
631.317	0.0140564
631.395	0.0140090
631.473	0.0139772
631.551	0.0139873
631.629	0.0140177
631.707	0.0141561
631.785	0.0140956
631.863	0.0141470
631.942	0.0140051
632.020	0.0140246
632.098	0.0140967
632.176	0.0140421
632.254	0.0141190
632.332	0.0140000
632.410	0.0140797
632.488	0.0140269
632.567	0.0140826
632.645	0.0140948
632.723	0.0141753
632.801	0.0140944
632.879	0.0141078
632.957	0.0141113
633.035	0.0141376
633.113	0.0140128
633.192	0.0140775
633.270	0.0139803
633.348	0.0140298
633.426	0.0141304
633.504	0.0140548
633.582	0.0141032
633.660	0.0141589
633.738	0.0141312
633.817	0.0141319
633.895	0.0141217
633.973	0.0140473
634.051	0.0140559
634.129	0.0140285
634.207	0.0140671
634.285	0.0140797
634.363	0.0141302
634.442	0.0140070
634.520	0.0141850
634.598	0.0142152
634.676	0.0141418
634.754	0.0140192
634.832	0.0140912
634.910	0.0140008
634.988	0.0141437
635.067	0.0140672
635.145	0.0140939
635.223	0.0140797
635.301	0.0139597
635.379	0.0140450
635.457	0.0141067
635.535	0.0140997
635.613	0.0140730
635.692	0.0141927
635.770	0.0140717
635.848	0.0140379
635.926	0.0139407
636.004	0.0140178
636.082	0.0141103
636.160	0.0140955
636.238	0.0139989
636.317	0.0141013
636.395	0.0140459
636.473	0.0141125
636.551	0.0140688
636.629	0.0139981
636.707	0.0140284
636.785	0.0140652
636.863	0.0140459
636.942	0.0142613
637.020	0.0141523
637.098	0.0142194
637.176	0.0141767
637.254	0.0140317
637.332	0.0140905
637.410	0.0140385
637.488	0.0141311
637.567	0.0141566
637.645	0.0140575
637.723	0.0138763
637.801	0.0141875
637.879	0.0142077
637.957	0.0138673
638.035	0.0140796
638.113	0.0140815
638.192	0.0141843
638.270	0.0140662
638.348	0.0140602
638.426	0.0140102
638.504	0.0140798
638.582	0.0140043
638.660	0.0141065
638.738	0.0141071
638.817	0.0140893
638.895	0.0140054
638.973	0.0140807
639.051	0.0140559
639.129	0.0140624
639.207	0.0140765
639.285	0.0141718
639.363	0.0141549
639.442	0.0140595
639.520	0.0139502
639.598	0.0140361
639.676	0.0140637
639.754	0.0140495
639.832	0.0140205
639.910	0.0139852
639.988	0.0141721
640.067	0.0140779
640.145	0.0141101
640.223	0.0141439
640.301	0.0141617
640.379	0.0140681
640.457	0.0140667
640.535	0.0140892
640.613	0.0141174
640.692	0.0140355
640.770	0.0141196
640.848	0.0141814
640.926	0.0141180
641.004	0.0140908
641.082	0.0141350
641.160	0.0141846
641.238	0.0140233
641.317	0.0141770
641.395	0.0140958
641.473	0.0140891
641.551	0.0141495
641.629	0.0140719
641.707	0.0141242
641.785	0.0142696
641.863	0.0141743
641.942	0.0142386
642.020	0.0140250
642.098	0.0139278
642.176	0.0140299
642.254	0.0141578
642.332	0.0141061
642.410	0.0140315
642.488	0.0140977
642.567	0.0140990
642.645	0.0140351
642.723	0.0140867
642.801	0.0140453
642.879	0.0141318
642.957	0.0140972
643.035	0.0140002
643.113	0.0141673
643.192	0.0141814
643.270	0.0140687
643.348	0.0140833
643.426	0.0138721
643.504	0.0140904
643.582	0.0142085
643.660	0.0140762
643.738	0.0141657
643.817	0.0141064
643.895	0.0140790
643.973	0.0141290
644.051	0.0141653
644.129	0.0140095
644.207	0.0140313
644.285	0.0140269
644.363	0.0140121
644.442	0.0139608
644.520	0.0141125
644.598	0.0140375
644.676	0.0142332
644.754	0.0140974
644.832	0.0140645
644.910	0.0141456
644.988	0.0140729
645.067	0.0140387
645.145	0.0139119
645.223	0.0140175
645.301	0.0141118
645.379	0.0140391
645.457	0.0140997
645.535	0.0140701
645.613	0.0141846
645.692	0.0142844
645.770	0.0140977
645.848	0.0142214
645.926	0.0142388
646.004	0.0141208
646.082	0.0141023
646.160	0.0141704
646.238	0.0140786
646.317	0.0140687
646.395	0.0140916
646.473	0.0141985
646.551	0.0142110
646.629	0.0140999
646.707	0.0141362
646.785	0.0140657
646.863	0.0141302
646.942	0.0140268
647.020	0.0141111
647.098	0.0142013
647.176	0.0142261
647.254	0.0141871
647.332	0.0140861
647.410	0.0140612
647.488	0.0140499
647.567	0.0140939
647.645	0.0141462
647.723	0.0141121
647.801	0.0139711
647.879	0.0141128
647.957	0.0141174
648.035	0.0140874
648.113	0.0141510
648.192	0.0142284
648.270	0.0142323
648.348	0.0140705
648.426	0.0140329
648.504	0.0140070
648.582	0.0141087
648.660	0.0141661
648.738	0.0141312
648.817	0.0140532
648.895	0.0139294
648.973	0.0140600
649.051	0.0141219
649.129	0.0139983
649.207	0.0140263
649.285	0.0141369
649.363	0.0140496
649.442	0.0140211
649.520	0.0140062
649.598	0.0140637
649.676	0.0140643
649.754	0.0139774
649.832	0.0140985
649.910	0.0141155
649.988	0.0142252
650.067	0.0139198
650.145	0.0140221
650.223	0.0141331
650.301	0.0140717
650.379	0.0140947
650.457	0.0140363
650.535	0.0140505
650.613	0.0141258
650.692	0.0139781
650.770	0.0139853
650.848	0.0141273
650.926	0.0140478
651.004	0.0140618
651.082	0.0141182
651.160	0.0139960
651.238	0.0138496
651.317	0.0139870
651.395	0.0140221
651.473	0.0139143
651.551	0.0141541
651.629	0.0140068
651.707	0.0139623
651.785	0.0139597
651.863	0.0139323
651.942	0.0139571
652.020	0.0139731
652.098	0.0140326
652.176	0.0139088
652.254	0.0141147
652.332	0.0141420
652.410	0.0140773
652.488	0.0139257
652.567	0.0138752
652.645	0.0139778
652.723	0.0140332
652.801	0.0139951
652.879	0.0140106
652.957	0.0139555
653.035	0.0142432
653.113	0.0140343
653.192	0.0138595
653.270	0.0140403
653.348	0.0139774
653.426	0.0140802
653.504	0.0140716
653.582	0.0142529
653.660	0.0140739
653.738	0.0139962
653.817	0.0141077
653.895	0.0140543
653.973	0.0142151
654.051	0.0140339
654.129	0.0141364
654.207	0.0140313
654.285	0.0140453
654.363	0.0140860
654.442	0.0141714
654.520	0.0141231
654.598	0.0140268
654.676	0.0140856
654.754	0.0141739
654.832	0.0141674
654.910	0.0141071
654.988	0.0140959
655.067	0.0140653
655.145	0.0141101
655.223	0.0140774
655.301	0.0141192
655.379	0.0142240
655.457	0.0139621
655.535	0.0140966
655.613	0.0141097
655.692	0.0140044
655.770	0.0140316
655.848	0.0140752
655.926	0.0141451
656.004	0.0140454
656.082	0.0141684
656.160	0.0142427
656.238	0.0141443
656.317	0.0141288
656.395	0.0141026
656.473	0.0140540
656.551	0.0140685
656.629	0.0140785
656.707	0.0140033
656.785	0.0140388
656.863	0.0140805
656.942	0.0141507
657.020	0.0140216
657.098	0.0140200
657.176	0.0141168
657.254	0.0140311
657.332	0.0141617
657.410	0.0141051
657.488	0.0141980
657.567	0.0141532
657.645	0.0141045
657.723	0.0141300
657.801	0.0140407
657.879	0.0140192
657.957	0.0140430
658.035	0.0140476
658.113	0.0140350
658.192	0.0141593
658.270	0.0140760
658.348	0.0140198
658.426	0.0140998
658.504	0.0141076
658.582	0.0141502
658.660	0.0140437
658.738	0.0142120
658.817	0.0141048
658.895	0.0140324
658.973	0.0140654
659.051	0.0141411
659.129	0.0140746
659.207	0.0140411
659.285	0.0140582
659.363	0.0139597
659.442	0.0141191
659.520	0.0141325
659.598	0.0139951
659.676	0.0140640
659.754	0.0141432
659.832	0.0138900
659.910	0.0140195
659.988	0.0140597
660.067	0.0139877
660.145	0.0140841
660.223	0.0139899
660.301	0.0141083
660.379	0.0140125
660.457	0.0139180
660.535	0.0140546
660.613	0.0140868
660.692	0.0140430
660.770	0.0140105
660.848	0.0140372
660.926	0.0139086
661.004	0.0139907
661.082	0.0140294
661.160	0.0139964
661.238	0.0138885
661.317	0.0141550
661.395	0.0142910
661.473	0.0140823
661.551	0.0141368
661.629	0.0140608
661.707	0.0140781
661.785	0.0141524
661.863	0.0140372
661.942	0.0139092
662.020	0.0141694
662.098	0.0140311
662.176	0.0140289
662.254	0.0141097
662.332	0.0141933
662.410	0.0140455
662.488	0.0139674
662.567	0.0140890
662.645	0.0140140
662.723	0.0141145
662.801	0.0141754
662.879	0.0139435
662.957	0.0141231
663.035	0.0141694
663.113	0.0140804
663.192	0.0139291
663.270	0.0140377
663.348	0.0141119
663.426	0.0140841
663.504	0.0140385
663.582	0.0140908
663.660	0.0141351
663.738	0.0141632
663.817	0.0141125
663.895	0.0140985
663.973	0.0141265
664.051	0.0139705
664.129	0.0139178
664.207	0.0141290
664.285	0.0141650
664.363	0.0140270
664.442	0.0140849
664.520	0.0141681
664.598	0.0141859
664.676	0.0140365
664.754	0.0140778
664.832	0.0142282
664.910	0.0140228
664.988	0.0142831
665.067	0.0142290
665.145	0.0142146
665.223	0.0141864
665.301	0.0142039
665.379	0.0142467
665.457	0.0142680
665.535	0.0141670
665.613	0.0141674
665.692	0.0142211
665.770	0.0141679
665.848	0.0141108
665.926	0.0142907
666.004	0.0141795
666.082	0.0141255
666.160	0.0140942
666.238	0.0141296
666.317	0.0140873
666.395	0.0142291
666.473	0.0140753
666.551	0.0142036
666.629	0.0140044
666.707	0.0140189
666.785	0.0140003
666.863	0.0139924
666.942	0.0139983
667.020	0.0140879
667.098	0.0139188
667.176	0.0138192
667.254	0.0139107
667.332	0.0141085
667.410	0.0142347
667.488	0.0141786
667.567	0.0142034
667.645	0.0144056
667.723	0.0144090
667.801	0.0144396
667.879	0.0146774
667.957	0.0144428
668.035	0.0145409
668.113	0.0144732
668.192	0.0145802
668.270	0.0145419
668.348	0.0145756
668.426	0.0144161
668.504	0.0143959
668.582	0.0143246
668.660	0.0141356
668.738	0.0139430
668.817	0.0137384
668.895	0.0135773
668.973	0.0135264
669.051	0.0133738
669.129	0.0132592
669.207	0.0131610
669.285	0.0131614
669.363	0.0132875
669.442	0.0134618
669.520	0.0135388
669.598	0.0137197
669.676	0.0137319
669.754	0.0138837
669.832	0.0139906
669.910	0.0140733
669.988	0.0141743
670.067	0.0142921
670.145	0.0142326
670.223	0.0143261
670.301	0.0143286
670.379	0.0144949
670.457	0.0144480
670.535	0.0144398
670.613	0.0145663
670.692	0.0145814
670.770	0.0145515
670.848	0.0145799
670.926	0.0145383
671.004	0.0143116
671.082	0.0143404
671.160	0.0142658
671.238	0.0142470
671.317	0.0142911
671.395	0.0143676
671.473	0.0143032
671.551	0.0143468
671.629	0.0144616
671.707	0.0145909
671.785	0.0146519
671.863	0.0146198
671.942	0.0147234
672.020	0.0147234
672.098	0.0147362
672.176	0.0146088
672.254	0.0145939
672.332	0.0143355
672.410	0.0143258
672.488	0.0141579
672.567	0.0139353
672.645	0.0138912
672.723	0.0137257
672.801	0.0134499
672.879	0.0133743
672.957	0.0131857
673.035	0.0131490
673.113	0.0129708
673.192	0.0127508
673.270	0.0127248
673.348	0.0129140
673.426	0.0128262
673.504	0.0128539
673.582	0.0129008
673.660	0.0131739
673.738	0.0131025
673.817	0.0132726
673.895	0.0133234
673.973	0.0134725
674.051	0.0135651
674.129	0.0137861
674.207	0.0140555
674.285	0.0142532
674.363	0.0144020
674.442	0.0148589
674.520	0.0150114
674.598	0.0151782
674.676	0.0152684
674.754	0.0152755
674.832	0.0154011
674.910	0.0152901
674.988	0.0150648
675.067	0.0150306
675.145	0.0150075
675.223	0.0149111
675.301	0.0146577
675.379	0.0144111
675.457	0.0145378
675.535	0.0144981
675.613	0.0145152
675.692	0.0144917
675.770	0.0145119
675.848	0.0146214
675.926	0.0147430
676.004	0.0145153
676.082	0.0145556
676.160	0.0145282
676.238	0.0144898
676.317	0.0143773
676.395	0.0144337
676.473	0.0143272
676.551	0.0142542
676.629	0.0142159
676.707	0.0141113
676.785	0.0139449
676.863	0.0138135
676.942	0.0138300
677.020	0.0136932
677.098	0.0134007
677.176	0.0133190
677.254	0.0129913
677.332	0.0127729
677.410	0.0125981
677.488	0.0124845
677.567	0.0124506
677.645	0.0123245
677.723	0.0122585
677.801	0.0120422
677.879	0.0120761
677.957	0.0121448
678.035	0.0121391
678.113	0.0121517
678.192	0.0121523
678.270	0.0123751
678.348	0.0125160
678.426	0.0127093
678.504	0.0130355
678.582	0.0132996
678.660	0.0136734
678.738	0.0140070
678.817	0.0144613
678.895	0.0149108
678.973	0.0152357
679.051	0.0155346
679.129	0.0160549
679.207	0.0160828
679.285	0.0163837
679.363	0.0164413
679.442	0.0166827
679.520	0.0165408
679.598	0.0163930
679.676	0.0164391
679.754	0.0163264
679.832	0.0160908
679.910	0.0160191
679.988	0.0159084
680.067	0.0156937
680.145	0.0154652
680.223	0.0151631
680.301	0.0150041
680.379	0.0146391
680.457	0.0144787
680.535	0.0142978
680.613	0.0140232
680.692	0.0138641
680.770	0.0137477
680.848	0.0136071
680.926	0.0134401
681.004	0.0133959
681.082	0.0133446
681.160	0.0132825
681.238	0.0131622
681.317	0.0132275
681.395	0.0132213
681.473	0.0130006
681.551	0.0130319
681.629	0.0130523
681.707	0.0129183
681.785	0.0128320
681.863	0.0128903
681.942	0.0128672
682.020	0.0129026
682.098	0.0129102
682.176	0.0130625
682.254	0.0130063
682.332	0.0130598
682.410	0.0130412
682.488	0.0132787
682.567	0.0131708
682.645	0.0131384
682.723	0.0130313
682.801	0.0132088
682.879	0.0132107
682.957	0.0132225
683.035	0.0131957
683.113	0.0131428
683.192	0.0130730
683.270	0.0132787
683.348	0.0133552
683.426	0.0134239
683.504	0.0134356
683.582	0.0136111
683.660	0.0138245
683.738	0.0139515
683.817	0.0141038
683.895	0.0142421
683.973	0.0145171
684.051	0.0147240
684.129	0.0149574
684.207	0.0152453
684.285	0.0155621
684.363	0.0158994
684.442	0.0160059
684.520	0.0161564
684.598	0.0163638
684.676	0.0166490
684.754	0.0167858
684.832	0.0167533
684.910	0.0168687
684.988	0.0167432
685.067	0.0167617
685.145	0.0167095
685.223	0.0164703
685.301	0.0161966
685.379	0.0159351
685.457	0.0158910
685.535	0.0154439
685.613	0.0150324
685.692	0.0147113
