05/28/2022	14:07:36	Ver.	4.1	UNKNOWN
Optical Delay	599.988409	Delta X		0.078125	Sweeps	1	Scan Rate	0/0
Coordinates	Axis 1	NaN	Axis 2	NaN	Axis 3	NaN	Axis 4	NaN	Axis 5	NaN	Axis 6	0.000000
TX Power	0.000000	RX Power	0.000000

599.988	0.0143618
600.067	0.0144264
600.145	0.0144199
600.223	0.0143465
600.301	0.0144612
600.379	0.0142592
600.457	0.0144472
600.535	0.0144093
600.613	0.0145437
600.692	0.0143934
600.770	0.0143529
600.848	0.0144481
600.926	0.0143784
601.004	0.0142825
601.082	0.0144144
601.160	0.0143151
601.238	0.0143459
601.317	0.0144412
601.395	0.0143526
601.473	0.0143454
601.551	0.0143533
601.629	0.0144804
601.707	0.0144309
601.785	0.0144497
601.863	0.0143987
601.942	0.0144128
602.020	0.0142961
602.098	0.0143334
602.176	0.0143172
602.254	0.0142770
602.332	0.0143456
602.410	0.0143996
602.488	0.0143729
602.567	0.0142818
602.645	0.0145231
602.723	0.0143717
602.801	0.0143739
602.879	0.0145427
602.957	0.0142899
603.035	0.0143478
603.113	0.0144817
603.192	0.0143021
603.270	0.0143458
603.348	0.0144721
603.426	0.0144819
603.504	0.0145206
603.582	0.0143835
603.660	0.0142889
603.738	0.0144622
603.817	0.0143771
603.895	0.0143363
603.973	0.0143487
604.051	0.0142252
604.129	0.0144072
604.207	0.0144514
604.285	0.0142960
604.363	0.0143445
604.442	0.0143629
604.520	0.0145012
604.598	0.0144059
604.676	0.0144862
604.754	0.0143820
604.832	0.0143754
604.910	0.0143502
604.988	0.0143424
605.067	0.0144930
605.145	0.0144987
605.223	0.0143871
605.301	0.0143715
605.379	0.0143030
605.457	0.0143340
605.535	0.0143549
605.613	0.0143231
605.692	0.0144126
605.770	0.0143769
605.848	0.0143332
605.926	0.0144939
606.004	0.0143728
606.082	0.0144203
606.160	0.0144032
606.238	0.0144566
606.317	0.0143465
606.395	0.0143586
606.473	0.0144010
606.551	0.0143960
606.629	0.0143152
606.707	0.0142319
606.785	0.0144352
606.863	0.0144279
606.942	0.0143760
607.020	0.0143667
607.098	0.0143531
607.176	0.0144761
607.254	0.0144335
607.332	0.0144938
607.410	0.0143135
607.488	0.0144922
607.567	0.0144150
607.645	0.0143728
607.723	0.0145055
607.801	0.0144341
607.879	0.0143604
607.957	0.0142892
608.035	0.0144703
608.113	0.0143769
608.192	0.0144217
608.270	0.0143909
608.348	0.0143997
608.426	0.0144570
608.504	0.0143098
608.582	0.0143743
608.660	0.0145223
608.738	0.0142596
608.817	0.0144254
608.895	0.0144543
608.973	0.0143910
609.051	0.0144447
609.129	0.0144086
609.207	0.0142823
609.285	0.0145193
609.363	0.0142138
609.442	0.0142773
609.520	0.0142133
609.598	0.0143539
609.676	0.0145146
609.754	0.0143720
609.832	0.0143655
609.910	0.0143525
609.988	0.0143290
610.067	0.0144121
610.145	0.0143037
610.223	0.0143932
610.301	0.0142834
610.379	0.0144208
610.457	0.0144411
610.535	0.0144951
610.613	0.0143912
610.692	0.0143906
610.770	0.0144527
610.848	0.0143714
610.926	0.0143311
611.004	0.0143242
611.082	0.0143746
611.160	0.0144115
611.238	0.0143869
611.317	0.0144864
611.395	0.0143394
611.473	0.0142987
611.551	0.0143423
611.629	0.0143699
611.707	0.0144144
611.785	0.0142944
611.863	0.0143884
611.942	0.0142765
612.020	0.0143012
612.098	0.0143976
612.176	0.0144257
612.254	0.0143454
612.332	0.0143047
612.410	0.0144364
612.488	0.0143616
612.567	0.0144185
612.645	0.0142297
612.723	0.0142455
612.801	0.0144051
612.879	0.0142953
612.957	0.0143908
613.035	0.0143784
613.113	0.0144781
613.192	0.0143636
613.270	0.0143766
613.348	0.0143395
613.426	0.0142556
613.504	0.0144424
613.582	0.0143138
613.660	0.0144028
613.738	0.0143460
613.817	0.0144778
613.895	0.0145566
613.973	0.0143535
614.051	0.0142570
614.129	0.0143684
614.207	0.0144516
614.285	0.0143491
614.363	0.0143758
614.442	0.0143732
614.520	0.0144249
614.598	0.0143251
614.676	0.0142732
614.754	0.0143797
614.832	0.0142873
614.910	0.0142890
614.988	0.0143382
615.067	0.0142832
615.145	0.0142439
615.223	0.0144046
615.301	0.0144383
615.379	0.0144939
615.457	0.0143327
615.535	0.0143908
615.613	0.0141686
615.692	0.0143499
615.770	0.0144981
615.848	0.0144637
615.926	0.0142539
616.004	0.0144605
616.082	0.0144267
616.160	0.0142453
616.238	0.0142596
616.317	0.0143346
616.395	0.0143295
616.473	0.0142995
616.551	0.0143125
616.629	0.0142809
616.707	0.0144458
616.785	0.0144124
616.863	0.0143407
616.942	0.0143877
617.020	0.0143681
617.098	0.0144665
617.176	0.0144762
617.254	0.0143092
617.332	0.0144418
617.410	0.0144131
617.488	0.0143413
617.567	0.0142318
617.645	0.0142602
617.723	0.0145383
617.801	0.0143707
617.879	0.0144263
617.957	0.0144532
618.035	0.0144513
618.113	0.0144267
618.192	0.0141151
618.270	0.0143263
618.348	0.0144019
618.426	0.0144530
618.504	0.0143481
618.582	0.0144542
618.660	0.0143964
618.738	0.0144387
618.817	0.0144916
618.895	0.0143801
618.973	0.0143297
619.051	0.0144070
619.129	0.0143049
619.207	0.0144506
619.285	0.0144032
619.363	0.0143036
619.442	0.0144369
619.520	0.0143641
619.598	0.0142745
619.676	0.0143302
619.754	0.0143185
619.832	0.0144871
619.910	0.0143459
619.988	0.0142715
620.067	0.0144951
620.145	0.0144228
620.223	0.0142748
620.301	0.0144357
620.379	0.0144407
620.457	0.0143174
620.535	0.0142957
620.613	0.0144654
620.692	0.0143377
620.770	0.0143053
620.848	0.0143430
620.926	0.0143491
621.004	0.0143073
621.082	0.0142836
621.160	0.0141367
621.238	0.0143232
621.317	0.0144215
621.395	0.0142042
621.473	0.0142081
621.551	0.0142608
621.629	0.0143833
621.707	0.0143014
621.785	0.0142382
621.863	0.0142835
621.942	0.0143107
622.020	0.0143697
622.098	0.0143098
622.176	0.0142894
622.254	0.0143285
622.332	0.0141851
622.410	0.0142863
622.488	0.0143786
622.567	0.0143929
622.645	0.0144116
622.723	0.0143903
622.801	0.0144620
622.879	0.0143073
622.957	0.0144790
623.035	0.0145256
623.113	0.0143490
623.192	0.0143819
623.270	0.0143437
623.348	0.0143520
623.426	0.0142757
623.504	0.0142812
623.582	0.0144309
623.660	0.0143324
623.738	0.0142405
623.817	0.0143174
623.895	0.0142915
623.973	0.0144158
624.051	0.0143949
624.129	0.0143846
624.207	0.0143243
624.285	0.0142130
624.363	0.0143311
624.442	0.0143855
624.520	0.0142192
624.598	0.0142078
624.676	0.0144381
624.754	0.0144917
624.832	0.0141721
624.910	0.0144704
624.988	0.0144093
625.067	0.0143257
625.145	0.0143790
625.223	0.0141792
625.301	0.0144666
625.379	0.0143900
625.457	0.0142176
625.535	0.0144149
625.613	0.0143697
625.692	0.0141932
625.770	0.0141574
625.848	0.0143589
625.926	0.0142870
626.004	0.0143302
626.082	0.0143709
626.160	0.0143612
626.238	0.0143089
626.317	0.0144396
626.395	0.0143261
626.473	0.0143188
626.551	0.0145325
626.629	0.0143692
626.707	0.0142908
626.785	0.0143600
626.863	0.0143388
626.942	0.0143080
627.020	0.0145034
627.098	0.0142863
627.176	0.0143322
627.254	0.0143215
627.332	0.0143756
627.410	0.0144538
627.488	0.0144096
627.567	0.0142549
627.645	0.0143216
627.723	0.0144250
627.801	0.0144210
627.879	0.0143400
627.957	0.0143364
628.035	0.0144087
628.113	0.0145109
628.192	0.0142728
628.270	0.0142989
628.348	0.0143396
628.426	0.0143462
628.504	0.0143673
628.582	0.0144060
628.660	0.0142653
628.738	0.0143323
628.817	0.0144757
628.895	0.0143478
628.973	0.0143787
629.051	0.0144298
629.129	0.0144112
629.207	0.0143657
629.285	0.0144324
629.363	0.0143674
629.442	0.0144090
629.520	0.0143407
629.598	0.0143517
629.676	0.0144363
629.754	0.0144022
629.832	0.0143104
629.910	0.0143792
629.988	0.0143558
630.067	0.0145602
630.145	0.0144377
630.223	0.0143795
630.301	0.0144277
630.379	0.0142378
630.457	0.0144864
630.535	0.0143996
630.613	0.0143648
630.692	0.0144986
630.770	0.0143414
630.848	0.0144157
630.926	0.0143401
631.004	0.0143038
631.082	0.0143715
631.160	0.0144874
631.238	0.0142598
631.317	0.0143646
631.395	0.0144777
631.473	0.0144126
631.551	0.0143323
631.629	0.0144387
631.707	0.0143684
631.785	0.0143169
631.863	0.0144311
631.942	0.0144221
632.020	0.0144061
632.098	0.0144754
632.176	0.0145586
632.254	0.0144234
632.332	0.0143701
632.410	0.0143850
632.488	0.0143826
632.567	0.0144058
632.645	0.0143682
632.723	0.0144183
632.801	0.0144138
632.879	0.0143861
632.957	0.0144427
633.035	0.0144214
633.113	0.0145268
633.192	0.0143555
633.270	0.0143747
633.348	0.0144624
633.426	0.0143369
633.504	0.0143965
633.582	0.0144765
633.660	0.0144124
633.738	0.0143977
633.817	0.0144276
633.895	0.0143943
633.973	0.0144376
634.051	0.0143987
634.129	0.0142872
634.207	0.0144138
634.285	0.0144034
634.363	0.0144254
634.442	0.0144038
634.520	0.0144596
634.598	0.0144352
634.676	0.0144269
634.754	0.0143340
634.832	0.0143606
634.910	0.0143978
634.988	0.0143861
635.067	0.0143199
635.145	0.0142451
635.223	0.0144640
635.301	0.0144536
635.379	0.0143750
635.457	0.0144292
635.535	0.0143613
635.613	0.0143811
635.692	0.0143277
635.770	0.0143269
635.848	0.0144370
635.926	0.0143961
636.004	0.0143201
636.082	0.0142424
636.160	0.0143059
636.238	0.0144348
636.317	0.0143444
636.395	0.0142313
636.473	0.0144393
636.551	0.0143488
636.629	0.0142934
636.707	0.0143195
636.785	0.0141898
636.863	0.0142738
636.942	0.0142519
637.020	0.0142459
637.098	0.0142961
637.176	0.0143691
637.254	0.0144045
637.332	0.0142617
637.410	0.0143663
637.488	0.0144047
637.567	0.0143861
637.645	0.0143075
637.723	0.0143546
637.801	0.0143462
637.879	0.0143877
637.957	0.0143640
638.035	0.0142645
638.113	0.0143675
638.192	0.0143835
638.270	0.0143045
638.348	0.0143097
638.426	0.0143269
638.504	0.0143758
638.582	0.0142624
638.660	0.0143813
638.738	0.0144095
638.817	0.0144375
638.895	0.0143103
638.973	0.0144637
639.051	0.0143609
639.129	0.0142011
639.207	0.0143004
639.285	0.0144168
639.363	0.0143284
639.442	0.0143675
639.520	0.0143121
639.598	0.0142490
639.676	0.0143758
639.754	0.0143699
639.832	0.0143590
639.910	0.0144559
639.988	0.0142756
640.067	0.0142976
640.145	0.0143541
640.223	0.0143174
640.301	0.0144392
640.379	0.0143507
640.457	0.0143507
640.535	0.0142635
640.613	0.0143508
640.692	0.0143568
640.770	0.0143631
640.848	0.0142580
640.926	0.0143726
641.004	0.0142052
641.082	0.0141971
641.160	0.0143422
641.238	0.0142010
641.317	0.0143586
641.395	0.0142746
641.473	0.0144455
641.551	0.0142809
641.629	0.0142351
641.707	0.0142461
641.785	0.0144274
641.863	0.0142693
641.942	0.0142773
642.020	0.0143153
642.098	0.0144050
642.176	0.0144074
642.254	0.0143629
642.332	0.0142410
642.410	0.0144206
642.488	0.0142979
642.567	0.0142826
642.645	0.0142635
642.723	0.0143558
642.801	0.0142200
642.879	0.0143798
642.957	0.0143420
643.035	0.0144428
643.113	0.0143675
643.192	0.0142551
643.270	0.0143155
643.348	0.0143867
643.426	0.0143658
643.504	0.0143684
643.582	0.0143111
643.660	0.0143608
643.738	0.0144089
643.817	0.0142175
643.895	0.0144459
643.973	0.0143286
644.051	0.0143711
644.129	0.0144312
644.207	0.0142834
644.285	0.0142428
644.363	0.0143375
644.442	0.0143504
644.520	0.0143905
644.598	0.0143668
644.676	0.0142596
644.754	0.0144651
644.832	0.0142422
644.910	0.0144311
644.988	0.0142531
645.067	0.0143486
645.145	0.0143587
645.223	0.0143555
645.301	0.0143462
645.379	0.0143172
645.457	0.0143671
645.535	0.0143678
645.613	0.0142892
645.692	0.0143063
645.770	0.0144658
645.848	0.0142748
645.926	0.0143716
646.004	0.0144244
646.082	0.0143967
646.160	0.0144859
646.238	0.0146364
646.317	0.0144640
646.395	0.0143326
646.473	0.0143579
646.551	0.0143404
646.629	0.0143085
646.707	0.0143340
646.785	0.0143778
646.863	0.0143300
646.942	0.0144461
647.020	0.0144347
647.098	0.0143331
647.176	0.0144340
647.254	0.0144237
647.332	0.0144766
647.410	0.0143356
647.488	0.0143490
647.567	0.0143189
647.645	0.0142268
647.723	0.0143348
647.801	0.0143324
647.879	0.0144578
647.957	0.0143800
648.035	0.0143533
648.113	0.0142928
648.192	0.0144173
648.270	0.0143633
648.348	0.0143999
648.426	0.0144057
648.504	0.0142139
648.582	0.0143478
648.660	0.0143552
648.738	0.0143961
648.817	0.0142876
648.895	0.0142957
648.973	0.0143676
649.051	0.0144484
649.129	0.0144400
649.207	0.0144096
649.285	0.0143609
649.363	0.0144850
649.442	0.0142626
649.520	0.0143004
649.598	0.0143465
649.676	0.0143189
649.754	0.0144630
649.832	0.0144561
649.910	0.0143237
649.988	0.0142406
650.067	0.0143835
650.145	0.0143459
650.223	0.0145450
650.301	0.0144560
650.379	0.0144382
650.457	0.0144305
650.535	0.0144388
650.613	0.0143918
650.692	0.0142986
650.770	0.0143077
650.848	0.0142697
650.926	0.0142339
651.004	0.0144753
651.082	0.0143702
651.160	0.0143318
651.238	0.0144256
651.317	0.0144345
651.395	0.0144296
651.473	0.0144167
651.551	0.0143699
651.629	0.0144396
651.707	0.0144402
651.785	0.0142935
651.863	0.0144827
651.942	0.0145357
652.020	0.0143962
652.098	0.0143793
652.176	0.0145086
652.254	0.0144595
652.332	0.0144247
652.410	0.0144359
652.488	0.0145284
652.567	0.0144277
652.645	0.0143126
652.723	0.0144406
652.801	0.0144083
652.879	0.0143952
652.957	0.0144168
653.035	0.0143844
653.113	0.0143951
653.192	0.0143829
653.270	0.0145017
653.348	0.0144242
653.426	0.0142899
653.504	0.0143586
653.582	0.0143130
653.660	0.0143856
653.738	0.0144402
653.817	0.0144215
653.895	0.0143094
653.973	0.0143534
654.051	0.0143639
654.129	0.0143214
654.207	0.0143642
654.285	0.0143711
654.363	0.0144758
654.442	0.0144833
654.520	0.0143940
654.598	0.0143362
654.676	0.0144049
654.754	0.0144235
654.832	0.0142961
654.910	0.0144044
654.988	0.0144837
655.067	0.0143919
655.145	0.0143164
655.223	0.0143801
655.301	0.0145630
655.379	0.0144296
655.457	0.0141865
655.535	0.0144108
655.613	0.0142838
655.692	0.0143182
655.770	0.0144788
655.848	0.0144225
655.926	0.0144182
656.004	0.0144913
656.082	0.0143826
656.160	0.0143865
656.238	0.0143806
656.317	0.0143876
656.395	0.0143895
656.473	0.0143674
656.551	0.0143543
656.629	0.0143358
656.707	0.0144044
656.785	0.0143516
656.863	0.0142750
656.942	0.0143383
657.020	0.0144072
657.098	0.0144109
657.176	0.0142748
657.254	0.0145173
657.332	0.0144551
657.410	0.0142442
657.488	0.0144161
657.567	0.0144043
657.645	0.0143197
657.723	0.0143907
657.801	0.0145313
657.879	0.0143452
657.957	0.0143817
658.035	0.0143528
658.113	0.0143513
658.192	0.0142413
658.270	0.0142886
658.348	0.0144202
658.426	0.0144433
658.504	0.0142841
658.582	0.0143744
658.660	0.0144241
658.738	0.0144919
658.817	0.0143391
658.895	0.0143792
658.973	0.0143685
659.051	0.0142036
659.129	0.0142334
659.207	0.0144623
659.285	0.0143949
659.363	0.0144339
659.442	0.0144007
659.520	0.0142559
659.598	0.0143756
659.676	0.0143483
659.754	0.0143299
659.832	0.0143892
659.910	0.0143037
659.988	0.0142153
660.067	0.0144066
660.145	0.0144333
660.223	0.0143044
660.301	0.0143328
660.379	0.0142565
660.457	0.0143217
660.535	0.0142699
660.613	0.0142755
660.692	0.0143051
660.770	0.0142554
660.848	0.0143567
660.926	0.0144174
661.004	0.0143649
661.082	0.0144044
661.160	0.0143341
661.238	0.0143754
661.317	0.0143369
661.395	0.0142625
661.473	0.0143806
661.551	0.0144065
661.629	0.0142532
661.707	0.0143633
661.785	0.0141714
661.863	0.0142425
661.942	0.0143771
662.020	0.0143215
662.098	0.0143916
662.176	0.0143064
662.254	0.0142480
662.332	0.0144800
662.410	0.0143400
662.488	0.0143037
662.567	0.0144123
662.645	0.0144246
662.723	0.0144023
662.801	0.0144187
662.879	0.0145519
662.957	0.0144287
663.035	0.0143520
663.113	0.0144891
663.192	0.0143913
663.270	0.0143450
663.348	0.0142897
663.426	0.0142794
663.504	0.0143581
663.582	0.0144681
663.660	0.0144327
663.738	0.0142092
663.817	0.0142358
663.895	0.0143228
663.973	0.0143146
664.051	0.0142219
664.129	0.0143047
664.207	0.0142514
664.285	0.0143100
664.363	0.0142270
664.442	0.0141432
664.520	0.0141675
664.598	0.0143521
664.676	0.0142423
664.754	0.0142461
664.832	0.0142960
664.910	0.0143758
664.988	0.0144826
665.067	0.0145163
665.145	0.0144899
665.223	0.0146307
665.301	0.0146192
665.379	0.0147596
665.457	0.0146915
665.535	0.0147980
665.613	0.0147437
665.692	0.0146773
665.770	0.0146739
665.848	0.0144882
665.926	0.0144667
666.004	0.0145740
666.082	0.0143722
666.160	0.0141998
666.238	0.0140781
666.317	0.0139128
666.395	0.0137974
666.473	0.0139165
666.551	0.0137119
666.629	0.0135956
666.707	0.0135117
666.785	0.0136444
666.863	0.0137227
666.942	0.0139063
667.020	0.0138497
667.098	0.0141181
667.176	0.0142138
667.254	0.0141963
667.332	0.0144372
667.410	0.0143743
667.488	0.0145309
667.567	0.0145216
667.645	0.0144309
667.723	0.0144753
667.801	0.0145952
667.879	0.0146375
667.957	0.0147026
668.035	0.0146423
668.113	0.0148574
668.192	0.0147111
668.270	0.0146600
668.348	0.0146558
668.426	0.0144868
668.504	0.0145123
668.582	0.0143922
668.660	0.0144613
668.738	0.0145247
668.817	0.0142642
668.895	0.0144055
668.973	0.0145363
669.051	0.0148193
669.129	0.0146235
669.207	0.0146783
669.285	0.0148728
669.363	0.0149300
669.442	0.0148630
669.520	0.0150162
669.598	0.0147722
669.676	0.0146993
669.754	0.0145995
669.832	0.0144792
669.910	0.0145399
669.988	0.0145177
670.067	0.0141978
670.145	0.0140601
670.223	0.0139764
670.301	0.0137509
670.379	0.0136485
670.457	0.0137368
670.535	0.0136185
670.613	0.0134620
670.692	0.0132777
670.770	0.0132241
670.848	0.0134156
670.926	0.0131350
671.004	0.0132599
671.082	0.0132861
671.160	0.0133244
671.238	0.0132668
671.317	0.0133806
671.395	0.0134087
671.473	0.0139749
671.551	0.0139512
671.629	0.0141906
671.707	0.0143220
671.785	0.0144363
671.863	0.0148269
671.942	0.0151723
672.020	0.0150883
672.098	0.0152944
672.176	0.0154168
672.254	0.0154152
672.332	0.0155289
672.410	0.0154974
672.488	0.0153353
672.567	0.0151982
672.645	0.0150508
672.723	0.0148587
672.801	0.0148801
672.879	0.0148577
672.957	0.0148158
673.035	0.0149049
673.113	0.0150378
673.192	0.0147305
673.270	0.0148657
673.348	0.0148219
673.426	0.0147824
673.504	0.0148521
673.582	0.0147199
673.660	0.0145004
673.738	0.0145843
673.817	0.0145369
673.895	0.0144022
673.973	0.0143603
674.051	0.0143276
674.129	0.0144814
674.207	0.0144597
674.285	0.0142342
674.363	0.0143463
674.442	0.0142249
674.520	0.0140967
674.598	0.0138431
674.676	0.0137689
674.754	0.0136139
674.832	0.0134624
674.910	0.0133837
674.988	0.0132806
675.067	0.0132085
675.145	0.0128880
675.223	0.0128477
675.301	0.0128408
675.379	0.0127219
675.457	0.0126337
675.535	0.0126325
675.613	0.0126957
675.692	0.0127650
675.770	0.0127688
675.848	0.0131281
675.926	0.0133537
676.004	0.0135964
676.082	0.0139492
676.160	0.0142689
676.238	0.0144689
676.317	0.0147054
676.395	0.0152057
676.473	0.0154028
676.551	0.0155502
676.629	0.0158004
676.707	0.0158618
676.785	0.0159238
676.863	0.0159886
676.942	0.0158629
677.020	0.0159192
677.098	0.0158498
677.176	0.0157894
677.254	0.0155704
677.332	0.0154144
677.410	0.0155241
677.488	0.0155758
677.567	0.0155109
677.645	0.0156007
677.723	0.0155733
677.801	0.0154986
677.879	0.0152337
677.957	0.0153899
678.035	0.0152820
678.113	0.0152650
678.192	0.0149586
678.270	0.0149985
678.348	0.0148515
678.426	0.0148855
678.504	0.0146371
678.582	0.0146068
678.660	0.0143958
678.738	0.0142186
678.817	0.0141360
678.895	0.0139864
678.973	0.0139043
679.051	0.0136025
679.129	0.0134495
679.207	0.0131646
679.285	0.0129419
679.363	0.0128947
679.442	0.0125898
679.520	0.0125044
679.598	0.0125928
679.676	0.0125461
679.754	0.0126510
679.832	0.0124414
679.910	0.0124335
679.988	0.0125581
680.067	0.0126974
680.145	0.0127090
680.223	0.0128247
680.301	0.0130998
680.379	0.0132603
680.457	0.0133010
680.535	0.0137006
680.613	0.0139808
680.692	0.0141695
680.770	0.0144408
680.848	0.0147515
680.926	0.0151542
681.004	0.0150791
681.082	0.0153187
681.160	0.0156540
681.238	0.0156187
681.317	0.0155855
681.395	0.0156442
681.473	0.0156564
681.551	0.0155554
681.629	0.0154564
681.707	0.0154170
681.785	0.0153262
681.863	0.0151501
681.942	0.0151747
682.020	0.0149995
682.098	0.0150864
682.176	0.0149416
682.254	0.0148254
682.332	0.0149235
682.410	0.0150644
682.488	0.0152396
682.567	0.0153271
682.645	0.0155923
682.723	0.0154935
682.801	0.0158450
682.879	0.0160103
682.957	0.0160601
683.035	0.0160685
683.113	0.0161112
683.192	0.0160870
683.270	0.0159361
683.348	0.0158077
683.426	0.0153713
683.504	0.0153320
683.582	0.0151325
683.660	0.0146036
683.738	0.0145255
683.817	0.0140601
683.895	0.0137049
683.973	0.0133462
684.051	0.0132101
684.129	0.0128161
684.207	0.0126315
684.285	0.0125043
684.363	0.0123226
684.442	0.0121360
684.520	0.0120375
684.598	0.0119597
684.676	0.0121339
684.754	0.0121502
684.832	0.0123397
684.910	0.0121770
684.988	0.0125941
685.067	0.0126299
685.145	0.0126118
685.223	0.0128091
685.301	0.0126846
685.379	0.0128371
685.457	0.0131374
685.535	0.0130228
685.613	0.0131926
685.692	0.0132081
