05/28/2022	14:08:41	Ver.	4.1	UNKNOWN
Optical Delay	599.988409	Delta X		0.078125	Sweeps	1	Scan Rate	0/0
Coordinates	Axis 1	NaN	Axis 2	NaN	Axis 3	NaN	Axis 4	NaN	Axis 5	NaN	Axis 6	0.000000
TX Power	0.000000	RX Power	0.000000

599.988	0.0141510
600.067	0.0142132
600.145	0.0141311
600.223	0.0140897
600.301	0.0140839
600.379	0.0142404
600.457	0.0141879
600.535	0.0140567
600.613	0.0141932
600.692	0.0142616
600.770	0.0141728
600.848	0.0140758
600.926	0.0141392
601.004	0.0141984
601.082	0.0141160
601.160	0.0141659
601.238	0.0142093
601.317	0.0141326
601.395	0.0141716
601.473	0.0141451
601.551	0.0142301
601.629	0.0140807
601.707	0.0141579
601.785	0.0141640
601.863	0.0140451
601.942	0.0140553
602.020	0.0140214
602.098	0.0140725
602.176	0.0141270
602.254	0.0142019
602.332	0.0142050
602.410	0.0141486
602.488	0.0141695
602.567	0.0141908
602.645	0.0140776
602.723	0.0140965
602.801	0.0141313
602.879	0.0142431
602.957	0.0141890
603.035	0.0140884
603.113	0.0141193
603.192	0.0141244
603.270	0.0141143
603.348	0.0141256
603.426	0.0140958
603.504	0.0141846
603.582	0.0141518
603.660	0.0141971
603.738	0.0141993
603.817	0.0140704
603.895	0.0140776
603.973	0.0142126
604.051	0.0142239
604.129	0.0141223
604.207	0.0141721
604.285	0.0141521
604.363	0.0141471
604.442	0.0140002
604.520	0.0139790
604.598	0.0143141
604.676	0.0141812
604.754	0.0142203
604.832	0.0140936
604.910	0.0139524
604.988	0.0141726
605.067	0.0141855
605.145	0.0141348
605.223	0.0142178
605.301	0.0142519
605.379	0.0140747
605.457	0.0139679
605.535	0.0140447
605.613	0.0141625
605.692	0.0141483
605.770	0.0142356
605.848	0.0140820
605.926	0.0140839
606.004	0.0141898
606.082	0.0141530
606.160	0.0141490
606.238	0.0140398
606.317	0.0140894
606.395	0.0141332
606.473	0.0141243
606.551	0.0141008
606.629	0.0140830
606.707	0.0141026
606.785	0.0140150
606.863	0.0142006
606.942	0.0142052
607.020	0.0141968
607.098	0.0141941
607.176	0.0141402
607.254	0.0141673
607.332	0.0141267
607.410	0.0141950
607.488	0.0140829
607.567	0.0141980
607.645	0.0140371
607.723	0.0141148
607.801	0.0141682
607.879	0.0141097
607.957	0.0141143
608.035	0.0141068
608.113	0.0141661
608.192	0.0141587
608.270	0.0141711
608.348	0.0142421
608.426	0.0139592
608.504	0.0141482
608.582	0.0142100
608.660	0.0141871
608.738	0.0140866
608.817	0.0141080
608.895	0.0139930
608.973	0.0141856
609.051	0.0141261
609.129	0.0140885
609.207	0.0140913
609.285	0.0141982
609.363	0.0142489
609.442	0.0141119
609.520	0.0141732
609.598	0.0141398
609.676	0.0140494
609.754	0.0140273
609.832	0.0142615
609.910	0.0142980
609.988	0.0141133
610.067	0.0140919
610.145	0.0141039
610.223	0.0141655
610.301	0.0140966
610.379	0.0141605
610.457	0.0141648
610.535	0.0141612
610.613	0.0142895
610.692	0.0142718
610.770	0.0142103
610.848	0.0141795
610.926	0.0141309
611.004	0.0140453
611.082	0.0140943
611.160	0.0141924
611.238	0.0142232
611.317	0.0141866
611.395	0.0139964
611.473	0.0142155
611.551	0.0140679
611.629	0.0140906
611.707	0.0142145
611.785	0.0140646
611.863	0.0142097
611.942	0.0141004
612.020	0.0141485
612.098	0.0142365
612.176	0.0140535
612.254	0.0141974
612.332	0.0141685
612.410	0.0141396
612.488	0.0142082
612.567	0.0140900
612.645	0.0141138
612.723	0.0140926
612.801	0.0141523
612.879	0.0140767
612.957	0.0142335
613.035	0.0140901
613.113	0.0139998
613.192	0.0140310
613.270	0.0142258
613.348	0.0141953
613.426	0.0142242
613.504	0.0140933
613.582	0.0141355
613.660	0.0141730
613.738	0.0141013
613.817	0.0141689
613.895	0.0141289
613.973	0.0140578
614.051	0.0142751
614.129	0.0141398
614.207	0.0141315
614.285	0.0141960
614.363	0.0143505
614.442	0.0141777
614.520	0.0142481
614.598	0.0141204
614.676	0.0141621
614.754	0.0141187
614.832	0.0141814
614.910	0.0140894
614.988	0.0142809
615.067	0.0141262
615.145	0.0142303
615.223	0.0141380
615.301	0.0141458
615.379	0.0141853
615.457	0.0141969
615.535	0.0140517
615.613	0.0142999
615.692	0.0140590
615.770	0.0141856
615.848	0.0141522
615.926	0.0141824
616.004	0.0141418
616.082	0.0142102
616.160	0.0141811
616.238	0.0142788
616.317	0.0141785
616.395	0.0142682
616.473	0.0140539
616.551	0.0142561
616.629	0.0142507
616.707	0.0140703
616.785	0.0142406
616.863	0.0143354
616.942	0.0142039
617.020	0.0140194
617.098	0.0140230
617.176	0.0141179
617.254	0.0140871
617.332	0.0141241
617.410	0.0142908
617.488	0.0141773
617.567	0.0141560
617.645	0.0140969
617.723	0.0142050
617.801	0.0141847
617.879	0.0143458
617.957	0.0142560
618.035	0.0141868
618.113	0.0141493
618.192	0.0141599
618.270	0.0141699
618.348	0.0141082
618.426	0.0141196
618.504	0.0141422
618.582	0.0141635
618.660	0.0141960
618.738	0.0141291
618.817	0.0141517
618.895	0.0140998
618.973	0.0141402
619.051	0.0140626
619.129	0.0141479
619.207	0.0141992
619.285	0.0142846
619.363	0.0141669
619.442	0.0142587
619.520	0.0142152
619.598	0.0141196
619.676	0.0141550
619.754	0.0142091
619.832	0.0142264
619.910	0.0140884
619.988	0.0141869
620.067	0.0140726
620.145	0.0140765
620.223	0.0141743
620.301	0.0140385
620.379	0.0142097
620.457	0.0142066
620.535	0.0139893
620.613	0.0141871
620.692	0.0141426
620.770	0.0141248
620.848	0.0141212
620.926	0.0142469
621.004	0.0141049
621.082	0.0141452
621.160	0.0141516
621.238	0.0140597
621.317	0.0140613
621.395	0.0141283
621.473	0.0140742
621.551	0.0140171
621.629	0.0141068
621.707	0.0141625
621.785	0.0141686
621.863	0.0141351
621.942	0.0140689
622.020	0.0140962
622.098	0.0141097
622.176	0.0140993
622.254	0.0140975
622.332	0.0141177
622.410	0.0141755
622.488	0.0141222
622.567	0.0139682
622.645	0.0140588
622.723	0.0141896
622.801	0.0140812
622.879	0.0141304
622.957	0.0139736
623.035	0.0142619
623.113	0.0141915
623.192	0.0141064
623.270	0.0141344
623.348	0.0141093
623.426	0.0141628
623.504	0.0141929
623.582	0.0141331
623.660	0.0140087
623.738	0.0142720
623.817	0.0142169
623.895	0.0141917
623.973	0.0140632
624.051	0.0140240
624.129	0.0142178
624.207	0.0142177
624.285	0.0140224
624.363	0.0141528
624.442	0.0141123
624.520	0.0141380
624.598	0.0140826
624.676	0.0140801
624.754	0.0140148
624.832	0.0140256
624.910	0.0141283
624.988	0.0140385
625.067	0.0141892
625.145	0.0142892
625.223	0.0139651
625.301	0.0140865
625.379	0.0142753
625.457	0.0141238
625.535	0.0142323
625.613	0.0140672
625.692	0.0140047
625.770	0.0140957
625.848	0.0140734
625.926	0.0140588
626.004	0.0140456
626.082	0.0140540
626.160	0.0139271
626.238	0.0140343
626.317	0.0141251
626.395	0.0140565
626.473	0.0142012
626.551	0.0139878
626.629	0.0140638
626.707	0.0141076
626.785	0.0139965
626.863	0.0141325
626.942	0.0141472
627.020	0.0141150
627.098	0.0139727
627.176	0.0140626
627.254	0.0140582
627.332	0.0141402
627.410	0.0141343
627.488	0.0140413
627.567	0.0141299
627.645	0.0141290
627.723	0.0140101
627.801	0.0141223
627.879	0.0141153
627.957	0.0140740
628.035	0.0141531
628.113	0.0141906
628.192	0.0140828
628.270	0.0139499
628.348	0.0140079
628.426	0.0141405
628.504	0.0140809
628.582	0.0141179
628.660	0.0139188
628.738	0.0140970
628.817	0.0142300
628.895	0.0141207
628.973	0.0143027
629.051	0.0141851
629.129	0.0141223
629.207	0.0140845
629.285	0.0141183
629.363	0.0141298
629.442	0.0142426
629.520	0.0141454
629.598	0.0141050
629.676	0.0140807
629.754	0.0141806
629.832	0.0141499
629.910	0.0141223
629.988	0.0141723
630.067	0.0142720
630.145	0.0141673
630.223	0.0140630
630.301	0.0142160
630.379	0.0141504
630.457	0.0142018
630.535	0.0141565
630.613	0.0142005
630.692	0.0141128
630.770	0.0141475
630.848	0.0141518
630.926	0.0141262
631.004	0.0142511
631.082	0.0141145
631.160	0.0141998
631.238	0.0141892
631.317	0.0142777
631.395	0.0141985
631.473	0.0140777
631.551	0.0140031
631.629	0.0140369
631.707	0.0141961
631.785	0.0140978
631.863	0.0141142
631.942	0.0142381
632.020	0.0141434
632.098	0.0141662
632.176	0.0141932
632.254	0.0141106
632.332	0.0141734
632.410	0.0141329
632.488	0.0143334
632.567	0.0142733
632.645	0.0141531
632.723	0.0141911
632.801	0.0141843
632.879	0.0142359
632.957	0.0142209
633.035	0.0141338
633.113	0.0142859
633.192	0.0141637
633.270	0.0141915
633.348	0.0141799
633.426	0.0141300
633.504	0.0142803
633.582	0.0141548
633.660	0.0141985
633.738	0.0140899
633.817	0.0141094
633.895	0.0142371
633.973	0.0142102
634.051	0.0141736
634.129	0.0141753
634.207	0.0142818
634.285	0.0142150
634.363	0.0141173
634.442	0.0142845
634.520	0.0141438
634.598	0.0141631
634.676	0.0140793
634.754	0.0141724
634.832	0.0141358
634.910	0.0142731
634.988	0.0141380
635.067	0.0141486
635.145	0.0142870
635.223	0.0143112
635.301	0.0141673
635.379	0.0141558
635.457	0.0141630
635.535	0.0140626
635.613	0.0141416
635.692	0.0141114
635.770	0.0141973
635.848	0.0142370
635.926	0.0142075
636.004	0.0142577
636.082	0.0141299
636.160	0.0142501
636.238	0.0140970
636.317	0.0142079
636.395	0.0143143
636.473	0.0141505
636.551	0.0141340
636.629	0.0141483
636.707	0.0141489
636.785	0.0142011
636.863	0.0141557
636.942	0.0141597
637.020	0.0141637
637.098	0.0141108
637.176	0.0141965
637.254	0.0141974
637.332	0.0141909
637.410	0.0141402
637.488	0.0142286
637.567	0.0141254
637.645	0.0141857
637.723	0.0140924
637.801	0.0140863
637.879	0.0141310
637.957	0.0140924
638.035	0.0141704
638.113	0.0141964
638.192	0.0142158
638.270	0.0142734
638.348	0.0140774
638.426	0.0140739
638.504	0.0141923
638.582	0.0141177
638.660	0.0142074
638.738	0.0141505
638.817	0.0142485
638.895	0.0141434
638.973	0.0141885
639.051	0.0142444
639.129	0.0141077
639.207	0.0141671
639.285	0.0141460
639.363	0.0141479
639.442	0.0141107
639.520	0.0140495
639.598	0.0141160
639.676	0.0143621
639.754	0.0142072
639.832	0.0142010
639.910	0.0141222
639.988	0.0140905
640.067	0.0141149
640.145	0.0143121
640.223	0.0143251
640.301	0.0141264
640.379	0.0143071
640.457	0.0141498
640.535	0.0141657
640.613	0.0141601
640.692	0.0141198
640.770	0.0142385
640.848	0.0142075
640.926	0.0142067
641.004	0.0142188
641.082	0.0141816
641.160	0.0141531
641.238	0.0142274
641.317	0.0142290
641.395	0.0141754
641.473	0.0143110
641.551	0.0142227
641.629	0.0143071
641.707	0.0141402
641.785	0.0141713
641.863	0.0140266
641.942	0.0140450
642.020	0.0141282
642.098	0.0140897
642.176	0.0140318
642.254	0.0143173
642.332	0.0141738
642.410	0.0139491
642.488	0.0141586
642.567	0.0142596
642.645	0.0142921
642.723	0.0140814
642.801	0.0141022
642.879	0.0141995
642.957	0.0142388
643.035	0.0141351
643.113	0.0141779
643.192	0.0142098
643.270	0.0141827
643.348	0.0141499
643.426	0.0141711
643.504	0.0141364
643.582	0.0141773
643.660	0.0141624
643.738	0.0141454
643.817	0.0141189
643.895	0.0140688
643.973	0.0142265
644.051	0.0141721
644.129	0.0140575
644.207	0.0141099
644.285	0.0141357
644.363	0.0141160
644.442	0.0143283
644.520	0.0140243
644.598	0.0141012
644.676	0.0141191
644.754	0.0142111
644.832	0.0139919
644.910	0.0141265
644.988	0.0141130
645.067	0.0140742
645.145	0.0141541
645.223	0.0141489
645.301	0.0142275
645.379	0.0141271
645.457	0.0140611
645.535	0.0141831
645.613	0.0141662
645.692	0.0142293
645.770	0.0140894
645.848	0.0141090
645.926	0.0140884
646.004	0.0141804
646.082	0.0141871
646.160	0.0141115
646.238	0.0140755
646.317	0.0142358
646.395	0.0140295
646.473	0.0141043
646.551	0.0142159
646.629	0.0142597
646.707	0.0142558
646.785	0.0141183
646.863	0.0141541
646.942	0.0140747
647.020	0.0141712
647.098	0.0141629
647.176	0.0143073
647.254	0.0141656
647.332	0.0140553
647.410	0.0140750
647.488	0.0141434
647.567	0.0141399
647.645	0.0141769
647.723	0.0142271
647.801	0.0141340
647.879	0.0141783
647.957	0.0140910
648.035	0.0141091
648.113	0.0140970
648.192	0.0141496
648.270	0.0142191
648.348	0.0140398
648.426	0.0141319
648.504	0.0141400
648.582	0.0142335
648.660	0.0141174
648.738	0.0141043
648.817	0.0142921
648.895	0.0140279
648.973	0.0141871
649.051	0.0142035
649.129	0.0141729
649.207	0.0142375
649.285	0.0142110
649.363	0.0142210
649.442	0.0141122
649.520	0.0142390
649.598	0.0144057
649.676	0.0141301
649.754	0.0140198
649.832	0.0140742
649.910	0.0141068
649.988	0.0142123
650.067	0.0140791
650.145	0.0141302
650.223	0.0141183
650.301	0.0141431
650.379	0.0141573
650.457	0.0141095
650.535	0.0141856
650.613	0.0141179
650.692	0.0141714
650.770	0.0141231
650.848	0.0142531
650.926	0.0140472
651.004	0.0140738
651.082	0.0142032
651.160	0.0139857
651.238	0.0141476
651.317	0.0141904
651.395	0.0142303
651.473	0.0141792
651.551	0.0140524
651.629	0.0141471
651.707	0.0141254
651.785	0.0141223
651.863	0.0141332
651.942	0.0142068
652.020	0.0141995
652.098	0.0142281
652.176	0.0141960
652.254	0.0140630
652.332	0.0142069
652.410	0.0140577
652.488	0.0140399
652.567	0.0141864
652.645	0.0141743
652.723	0.0140336
652.801	0.0141650
652.879	0.0142045
652.957	0.0141121
653.035	0.0139691
653.113	0.0141154
653.192	0.0141961
653.270	0.0141434
653.348	0.0140432
653.426	0.0141898
653.504	0.0142165
653.582	0.0140959
653.660	0.0141109
653.738	0.0139978
653.817	0.0141310
653.895	0.0140980
653.973	0.0141828
654.051	0.0141091
654.129	0.0141220
654.207	0.0141724
654.285	0.0141689
654.363	0.0141069
654.442	0.0141401
654.520	0.0141531
654.598	0.0141674
654.676	0.0141235
654.754	0.0141268
654.832	0.0141396
654.910	0.0141666
654.988	0.0142551
655.067	0.0142256
655.145	0.0142337
655.223	0.0141635
655.301	0.0139706
655.379	0.0140919
655.457	0.0141176
655.535	0.0141718
655.613	0.0141344
655.692	0.0141264
655.770	0.0141735
655.848	0.0140466
655.926	0.0142245
656.004	0.0142889
656.082	0.0142626
656.160	0.0142113
656.238	0.0142263
656.317	0.0141036
656.395	0.0141839
656.473	0.0142148
656.551	0.0143970
656.629	0.0143479
656.707	0.0140939
656.785	0.0141033
656.863	0.0140775
656.942	0.0141040
657.020	0.0140143
657.098	0.0142115
657.176	0.0141083
657.254	0.0140932
657.332	0.0141120
657.410	0.0143271
657.488	0.0141552
657.567	0.0141541
657.645	0.0141231
657.723	0.0142070
657.801	0.0141592
657.879	0.0140271
657.957	0.0143200
658.035	0.0142729
658.113	0.0142042
658.192	0.0142516
658.270	0.0140411
658.348	0.0142569
658.426	0.0141728
658.504	0.0141991
658.582	0.0140189
658.660	0.0140887
658.738	0.0142334
658.817	0.0141753
658.895	0.0141073
658.973	0.0141515
659.051	0.0141071
659.129	0.0142158
659.207	0.0141211
659.285	0.0141415
659.363	0.0140037
659.442	0.0140772
659.520	0.0140823
659.598	0.0141541
659.676	0.0141959
659.754	0.0141466
659.832	0.0141013
659.910	0.0141512
659.988	0.0140684
660.067	0.0141287
660.145	0.0143103
660.223	0.0141783
660.301	0.0142342
660.379	0.0140677
660.457	0.0141988
660.535	0.0141316
660.613	0.0142031
660.692	0.0141502
660.770	0.0141541
660.848	0.0141867
660.926	0.0141800
661.004	0.0141193
661.082	0.0141693
661.160	0.0140662
661.238	0.0141830
661.317	0.0141738
661.395	0.0140605
661.473	0.0141936
661.551	0.0140898
661.629	0.0141418
661.707	0.0139452
661.785	0.0140520
661.863	0.0142113
661.942	0.0139880
662.020	0.0139246
662.098	0.0140701
662.176	0.0140261
662.254	0.0142858
662.332	0.0142359
662.410	0.0142953
662.488	0.0143364
662.567	0.0142596
662.645	0.0143410
662.723	0.0143140
662.801	0.0145264
662.879	0.0144607
662.957	0.0144726
663.035	0.0145105
663.113	0.0145050
663.192	0.0143250
663.270	0.0143998
663.348	0.0142091
663.426	0.0141899
663.504	0.0140336
663.582	0.0139678
663.660	0.0137847
663.738	0.0138430
663.817	0.0136848
663.895	0.0135018
663.973	0.0134882
664.051	0.0135832
664.129	0.0135790
664.207	0.0136185
664.285	0.0138057
664.363	0.0137475
664.442	0.0137936
664.520	0.0139957
664.598	0.0141197
664.676	0.0141257
664.754	0.0143061
664.832	0.0141005
664.910	0.0143379
664.988	0.0144435
665.067	0.0143439
665.145	0.0142587
665.223	0.0143703
665.301	0.0142462
665.379	0.0144704
665.457	0.0144238
665.535	0.0144810
665.613	0.0145228
665.692	0.0143679
665.770	0.0144103
665.848	0.0141669
665.926	0.0142734
666.004	0.0142300
666.082	0.0142300
666.160	0.0142491
666.238	0.0142959
666.317	0.0141839
666.395	0.0143001
666.473	0.0144783
666.551	0.0144270
666.629	0.0146037
666.707	0.0146394
666.785	0.0146239
666.863	0.0146589
666.942	0.0144470
667.020	0.0144653
667.098	0.0145176
667.176	0.0144802
667.254	0.0143703
667.332	0.0143163
667.410	0.0141135
667.488	0.0142397
667.567	0.0138885
667.645	0.0139532
667.723	0.0138966
667.801	0.0137811
667.879	0.0137766
667.957	0.0135072
668.035	0.0134584
668.113	0.0134437
668.192	0.0133120
668.270	0.0133521
668.348	0.0134028
668.426	0.0132804
668.504	0.0133024
668.582	0.0132829
668.660	0.0134177
668.738	0.0133155
668.817	0.0135130
668.895	0.0136385
668.973	0.0138699
669.051	0.0138694
669.129	0.0142510
669.207	0.0143866
669.285	0.0147350
669.363	0.0148132
669.442	0.0150417
669.520	0.0151871
669.598	0.0150939
669.676	0.0152290
669.754	0.0150275
669.832	0.0149848
669.910	0.0150084
669.988	0.0147830
670.067	0.0147585
670.145	0.0147423
670.223	0.0145329
670.301	0.0145723
670.379	0.0144257
670.457	0.0144959
670.535	0.0146529
670.613	0.0145667
670.692	0.0144750
670.770	0.0144595
670.848	0.0144712
670.926	0.0144302
671.004	0.0144094
671.082	0.0145283
671.160	0.0143069
671.238	0.0142342
671.317	0.0142662
671.395	0.0143712
671.473	0.0141529
671.551	0.0139986
671.629	0.0142271
671.707	0.0141397
671.785	0.0140482
671.863	0.0140586
671.942	0.0137649
672.020	0.0137142
672.098	0.0135043
672.176	0.0134237
672.254	0.0132822
672.332	0.0129199
672.410	0.0130443
672.488	0.0129056
672.567	0.0128413
672.645	0.0127296
672.723	0.0126844
672.801	0.0126632
672.879	0.0127567
672.957	0.0127781
673.035	0.0129388
673.113	0.0130261
673.192	0.0133095
673.270	0.0134647
673.348	0.0137007
673.426	0.0139120
673.504	0.0140966
673.582	0.0144013
673.660	0.0145356
673.738	0.0148302
673.817	0.0148128
673.895	0.0150158
673.973	0.0151358
674.051	0.0149860
674.129	0.0150324
674.207	0.0149313
674.285	0.0149141
674.363	0.0149805
674.442	0.0148093
674.520	0.0147421
674.598	0.0146783
674.676	0.0147357
674.754	0.0145969
674.832	0.0147249
674.910	0.0147922
674.988	0.0148893
675.067	0.0149107
675.145	0.0149423
675.223	0.0151128
675.301	0.0149789
675.379	0.0150454
675.457	0.0149837
675.535	0.0149461
675.613	0.0149727
675.692	0.0148721
675.770	0.0147488
675.848	0.0147695
675.926	0.0146608
676.004	0.0147060
676.082	0.0144531
676.160	0.0145234
676.238	0.0143516
676.317	0.0139674
676.395	0.0139393
676.473	0.0137714
676.551	0.0136231
676.629	0.0134558
676.707	0.0131800
676.785	0.0131725
676.863	0.0130253
676.942	0.0128756
677.020	0.0128267
677.098	0.0128299
677.176	0.0128606
677.254	0.0128160
677.332	0.0127171
677.410	0.0128988
677.488	0.0128509
677.567	0.0128487
677.645	0.0130183
677.723	0.0129713
677.801	0.0129875
677.879	0.0130376
677.957	0.0131586
678.035	0.0131989
678.113	0.0133711
678.192	0.0134162
678.270	0.0135936
678.348	0.0136611
678.426	0.0135144
678.504	0.0138175
678.582	0.0138295
678.660	0.0140339
678.738	0.0141147
678.817	0.0142643
678.895	0.0143884
678.973	0.0145787
679.051	0.0146994
679.129	0.0150063
679.207	0.0153257
679.285	0.0153126
679.363	0.0154456
679.442	0.0157500
679.520	0.0158687
679.598	0.0159301
679.676	0.0161125
679.754	0.0162032
679.832	0.0163663
679.910	0.0164605
679.988	0.0163074
680.067	0.0164777
680.145	0.0163305
680.223	0.0161549
680.301	0.0159912
680.379	0.0159576
680.457	0.0155243
680.535	0.0154063
680.613	0.0151238
680.692	0.0147572
680.770	0.0144263
680.848	0.0139854
680.926	0.0136845
681.004	0.0135639
681.082	0.0131756
681.160	0.0127921
681.238	0.0127207
681.317	0.0126216
681.395	0.0123555
681.473	0.0124442
681.551	0.0122086
681.629	0.0123320
681.707	0.0124364
681.785	0.0126440
681.863	0.0126218
681.942	0.0127494
682.020	0.0128745
682.098	0.0131035
682.176	0.0132892
682.254	0.0133527
682.332	0.0134319
682.410	0.0135228
682.488	0.0136730
682.567	0.0134574
682.645	0.0136577
682.723	0.0137579
682.801	0.0135934
682.879	0.0136118
682.957	0.0135297
683.035	0.0135718
683.113	0.0134656
683.192	0.0134352
683.270	0.0134757
683.348	0.0135198
683.426	0.0136170
683.504	0.0135430
683.582	0.0136996
683.660	0.0135706
683.738	0.0139944
683.817	0.0139738
683.895	0.0140568
683.973	0.0142431
684.051	0.0145427
684.129	0.0146093
684.207	0.0148687
684.285	0.0150842
684.363	0.0153470
684.442	0.0155014
684.520	0.0156457
684.598	0.0156908
684.676	0.0159193
684.754	0.0159514
684.832	0.0160467
684.910	0.0160818
684.988	0.0162968
685.067	0.0161924
685.145	0.0162041
685.223	0.0161430
685.301	0.0163248
685.379	0.0161536
685.457	0.0159534
685.535	0.0159087
685.613	0.0157696
685.692	0.0154092
