05/28/2022	14:10:21	Ver.	4.1	UNKNOWN
Optical Delay	599.988409	Delta X		0.078125	Sweeps	1	Scan Rate	0/0
Coordinates	Axis 1	NaN	Axis 2	NaN	Axis 3	NaN	Axis 4	NaN	Axis 5	NaN	Axis 6	0.000000
TX Power	0.000000	RX Power	0.000000

599.988	0.0144780
600.067	0.0145628
600.145	0.0144922
600.223	0.0143306
600.301	0.0145474
600.379	0.0144807
600.457	0.0143981
600.535	0.0145034
600.613	0.0145496
600.692	0.0145747
600.770	0.0145123
600.848	0.0143568
600.926	0.0145528
601.004	0.0144849
601.082	0.0145238
601.160	0.0144443
601.238	0.0143765
601.317	0.0144390
601.395	0.0145415
601.473	0.0144173
601.551	0.0144209
601.629	0.0145430
601.707	0.0144958
601.785	0.0144643
601.863	0.0144115
601.942	0.0145613
602.020	0.0144323
602.098	0.0145454
602.176	0.0144456
602.254	0.0143414
602.332	0.0144978
602.410	0.0144765
602.488	0.0143946
602.567	0.0144627
602.645	0.0145379
602.723	0.0144836
602.801	0.0143352
602.879	0.0144204
602.957	0.0145890
603.035	0.0144332
603.113	0.0141331
603.192	0.0143255
603.270	0.0144143
603.348	0.0144131
603.426	0.0145000
603.504	0.0145851
603.582	0.0145284
603.660	0.0144390
603.738	0.0145157
603.817	0.0144128
603.895	0.0143784
603.973	0.0146090
604.051	0.0145324
604.129	0.0144141
604.207	0.0144489
604.285	0.0144178
604.363	0.0144579
604.442	0.0143558
604.520	0.0144846
604.598	0.0144524
604.676	0.0144510
604.754	0.0146340
604.832	0.0144939
604.910	0.0145489
604.988	0.0144919
605.067	0.0144846
605.145	0.0146597
605.223	0.0143516
605.301	0.0145864
605.379	0.0145174
605.457	0.0145496
605.535	0.0145064
605.613	0.0146526
605.692	0.0145195
605.770	0.0144890
605.848	0.0144528
605.926	0.0145650
606.004	0.0144710
606.082	0.0145402
606.160	0.0145135
606.238	0.0145100
606.317	0.0145885
606.395	0.0145190
606.473	0.0144684
606.551	0.0144919
606.629	0.0146326
606.707	0.0145691
606.785	0.0145422
606.863	0.0145966
606.942	0.0146046
607.020	0.0146309
607.098	0.0144799
607.176	0.0145041
607.254	0.0144764
607.332	0.0144906
607.410	0.0145788
607.488	0.0143922
607.567	0.0144417
607.645	0.0145847
607.723	0.0145533
607.801	0.0145078
607.879	0.0145933
607.957	0.0146136
608.035	0.0145222
608.113	0.0145351
608.192	0.0146164
608.270	0.0145840
608.348	0.0145865
608.426	0.0145071
608.504	0.0145629
608.582	0.0146372
608.660	0.0145947
608.738	0.0146024
608.817	0.0144876
608.895	0.0143690
608.973	0.0146075
609.051	0.0146694
609.129	0.0144698
609.207	0.0144077
609.285	0.0145624
609.363	0.0145636
609.442	0.0143043
609.520	0.0145352
609.598	0.0146938
609.676	0.0146274
609.754	0.0145449
609.832	0.0144508
609.910	0.0145773
609.988	0.0144939
610.067	0.0145349
610.145	0.0147305
610.223	0.0145069
610.301	0.0146011
610.379	0.0145415
610.457	0.0146261
610.535	0.0145195
610.613	0.0143585
610.692	0.0145164
610.770	0.0146410
610.848	0.0145586
610.926	0.0145979
611.004	0.0145781
611.082	0.0145250
611.160	0.0146716
611.238	0.0145111
611.317	0.0146191
611.395	0.0145203
611.473	0.0144942
611.551	0.0145174
611.629	0.0145621
611.707	0.0146046
611.785	0.0145486
611.863	0.0145737
611.942	0.0144936
612.020	0.0144340
612.098	0.0146409
612.176	0.0145612
612.254	0.0145744
612.332	0.0144346
612.410	0.0145593
612.488	0.0146394
612.567	0.0145618
612.645	0.0145782
612.723	0.0146606
612.801	0.0145917
612.879	0.0145271
612.957	0.0145693
613.035	0.0145726
613.113	0.0143938
613.192	0.0145589
613.270	0.0144868
613.348	0.0144959
613.426	0.0145945
613.504	0.0145093
613.582	0.0147881
613.660	0.0145339
613.738	0.0144775
613.817	0.0145519
613.895	0.0144177
613.973	0.0144131
614.051	0.0145406
614.129	0.0145572
614.207	0.0145277
614.285	0.0144773
614.363	0.0145041
614.442	0.0146806
614.520	0.0145379
614.598	0.0146233
614.676	0.0144158
614.754	0.0145973
614.832	0.0146355
614.910	0.0145734
614.988	0.0146683
615.067	0.0146067
615.145	0.0145842
615.223	0.0146863
615.301	0.0144746
615.379	0.0144518
615.457	0.0147074
615.535	0.0145570
615.613	0.0145051
615.692	0.0145537
615.770	0.0145979
615.848	0.0144842
615.926	0.0145157
616.004	0.0145821
616.082	0.0145564
616.160	0.0145461
616.238	0.0144634
616.317	0.0145688
616.395	0.0147285
616.473	0.0144682
616.551	0.0144544
616.629	0.0144678
616.707	0.0147201
616.785	0.0145797
616.863	0.0146128
616.942	0.0146378
617.020	0.0144504
617.098	0.0145161
617.176	0.0145800
617.254	0.0145289
617.332	0.0144846
617.410	0.0145381
617.488	0.0144170
617.567	0.0145413
617.645	0.0145676
617.723	0.0145303
617.801	0.0145260
617.879	0.0144321
617.957	0.0145872
618.035	0.0145099
618.113	0.0144578
618.192	0.0145011
618.270	0.0145638
618.348	0.0145284
618.426	0.0145395
618.504	0.0145155
618.582	0.0145197
618.660	0.0145153
618.738	0.0146419
618.817	0.0144977
618.895	0.0146306
618.973	0.0144947
619.051	0.0143516
619.129	0.0144301
619.207	0.0145580
619.285	0.0145935
619.363	0.0145204
619.442	0.0145287
619.520	0.0146001
619.598	0.0144818
619.676	0.0145633
619.754	0.0145020
619.832	0.0145275
619.910	0.0145344
619.988	0.0144773
620.067	0.0143041
620.145	0.0144844
620.223	0.0145708
620.301	0.0145969
620.379	0.0145023
620.457	0.0144221
620.535	0.0145550
620.613	0.0144445
620.692	0.0146404
620.770	0.0145140
620.848	0.0144726
620.926	0.0146395
621.004	0.0144256
621.082	0.0143971
621.160	0.0145283
621.238	0.0145010
621.317	0.0144891
621.395	0.0145798
621.473	0.0143174
621.551	0.0144612
621.629	0.0144820
621.707	0.0144569
621.785	0.0145018
621.863	0.0145744
621.942	0.0144837
622.020	0.0144531
622.098	0.0145046
622.176	0.0144614
622.254	0.0144585
622.332	0.0144654
622.410	0.0145170
622.488	0.0146050
622.567	0.0144207
622.645	0.0144411
622.723	0.0144434
622.801	0.0145589
622.879	0.0146219
622.957	0.0144173
623.035	0.0143919
623.113	0.0143517
623.192	0.0145690
623.270	0.0144551
623.348	0.0144975
623.426	0.0144477
623.504	0.0145115
623.582	0.0144987
623.660	0.0145093
623.738	0.0144546
623.817	0.0144660
623.895	0.0144836
623.973	0.0144540
624.051	0.0144884
624.129	0.0144565
624.207	0.0144543
624.285	0.0144818
624.363	0.0143979
624.442	0.0143887
624.520	0.0144852
624.598	0.0144137
624.676	0.0144350
624.754	0.0144593
624.832	0.0145834
624.910	0.0144945
624.988	0.0144308
625.067	0.0145414
625.145	0.0143707
625.223	0.0144711
625.301	0.0144209
625.379	0.0144616
625.457	0.0144780
625.535	0.0144566
625.613	0.0145727
625.692	0.0144897
625.770	0.0144613
625.848	0.0144407
625.926	0.0144548
626.004	0.0144830
626.082	0.0143894
626.160	0.0145132
626.238	0.0145816
626.317	0.0144250
626.395	0.0144061
626.473	0.0145427
626.551	0.0143626
626.629	0.0146001
626.707	0.0144156
626.785	0.0143721
626.863	0.0144269
626.942	0.0144270
627.020	0.0142725
627.098	0.0146032
627.176	0.0144749
627.254	0.0144496
627.332	0.0144532
627.410	0.0144563
627.488	0.0145706
627.567	0.0145315
627.645	0.0144949
627.723	0.0144730
627.801	0.0145690
627.879	0.0145306
627.957	0.0144896
628.035	0.0145158
628.113	0.0145119
628.192	0.0143957
628.270	0.0144069
628.348	0.0144949
628.426	0.0144086
628.504	0.0145492
628.582	0.0146530
628.660	0.0145237
628.738	0.0145250
628.817	0.0145389
628.895	0.0144402
628.973	0.0144622
629.051	0.0143248
629.129	0.0144527
629.207	0.0144984
629.285	0.0144341
629.363	0.0144876
629.442	0.0144818
629.520	0.0145527
629.598	0.0144841
629.676	0.0145336
629.754	0.0145553
629.832	0.0144435
629.910	0.0144449
629.988	0.0147005
630.067	0.0145292
630.145	0.0145626
630.223	0.0144697
630.301	0.0144480
630.379	0.0145031
630.457	0.0144803
630.535	0.0144710
630.613	0.0145358
630.692	0.0145251
630.770	0.0143864
630.848	0.0145869
630.926	0.0143450
631.004	0.0144991
631.082	0.0146612
631.160	0.0145631
631.238	0.0145678
631.317	0.0145370
631.395	0.0145519
631.473	0.0145227
631.551	0.0145280
631.629	0.0145344
631.707	0.0145121
631.785	0.0144788
631.863	0.0145931
631.942	0.0144778
632.020	0.0144148
632.098	0.0146194
632.176	0.0146049
632.254	0.0144955
632.332	0.0144782
632.410	0.0145076
632.488	0.0145866
632.567	0.0144140
632.645	0.0144485
632.723	0.0145583
632.801	0.0145268
632.879	0.0145777
632.957	0.0145061
633.035	0.0145039
633.113	0.0146209
633.192	0.0145149
633.270	0.0144444
633.348	0.0145227
633.426	0.0145177
633.504	0.0144054
633.582	0.0145535
633.660	0.0145818
633.738	0.0143981
633.817	0.0145197
633.895	0.0145517
633.973	0.0146136
634.051	0.0144118
634.129	0.0145007
634.207	0.0144790
634.285	0.0145676
634.363	0.0145351
634.442	0.0144677
634.520	0.0145076
634.598	0.0144650
634.676	0.0146326
634.754	0.0145087
634.832	0.0144750
634.910	0.0145705
634.988	0.0145612
635.067	0.0144094
635.145	0.0144495
635.223	0.0144495
635.301	0.0144095
635.379	0.0145433
635.457	0.0145444
635.535	0.0145039
635.613	0.0145351
635.692	0.0146506
635.770	0.0145667
635.848	0.0144774
635.926	0.0146088
636.004	0.0144727
636.082	0.0145531
636.160	0.0145223
636.238	0.0144156
636.317	0.0144649
636.395	0.0144891
636.473	0.0144598
636.551	0.0143845
636.629	0.0144678
636.707	0.0146246
636.785	0.0147033
636.863	0.0145290
636.942	0.0144346
637.020	0.0144741
637.098	0.0145797
637.176	0.0144769
637.254	0.0144523
637.332	0.0144621
637.410	0.0144799
637.488	0.0146031
637.567	0.0146399
637.645	0.0145115
637.723	0.0144607
637.801	0.0143404
637.879	0.0145235
637.957	0.0146429
638.035	0.0146654
638.113	0.0145016
638.192	0.0144653
638.270	0.0144698
638.348	0.0146271
638.426	0.0146471
638.504	0.0146028
638.582	0.0145663
638.660	0.0145962
638.738	0.0143584
638.817	0.0145281
638.895	0.0144170
638.973	0.0144747
639.051	0.0144152
639.129	0.0145186
639.207	0.0145535
639.285	0.0144991
639.363	0.0146513
639.442	0.0144863
639.520	0.0144260
639.598	0.0146750
639.676	0.0145705
639.754	0.0146268
639.832	0.0143652
639.910	0.0145280
639.988	0.0144872
640.067	0.0144548
640.145	0.0143551
640.223	0.0145322
640.301	0.0144946
640.379	0.0144020
640.457	0.0144962
640.535	0.0145035
640.613	0.0146619
640.692	0.0145779
640.770	0.0145010
640.848	0.0143692
640.926	0.0146263
641.004	0.0145422
641.082	0.0144576
641.160	0.0145529
641.238	0.0143960
641.317	0.0144545
641.395	0.0144695
641.473	0.0144108
641.551	0.0144682
641.629	0.0143812
641.707	0.0144295
641.785	0.0144816
641.863	0.0142683
641.942	0.0144380
642.020	0.0144707
642.098	0.0144930
642.176	0.0145377
642.254	0.0145152
642.332	0.0145090
642.410	0.0145187
642.488	0.0146146
642.567	0.0144703
642.645	0.0145043
642.723	0.0144034
642.801	0.0142987
642.879	0.0144934
642.957	0.0145367
643.035	0.0144595
643.113	0.0144533
643.192	0.0143236
643.270	0.0144051
643.348	0.0146038
643.426	0.0144860
643.504	0.0145599
643.582	0.0145594
643.660	0.0145998
643.738	0.0144045
643.817	0.0144567
643.895	0.0144035
643.973	0.0144460
644.051	0.0145435
644.129	0.0144575
644.207	0.0143688
644.285	0.0144522
644.363	0.0145851
644.442	0.0145710
644.520	0.0144156
644.598	0.0144154
644.676	0.0145380
644.754	0.0145358
644.832	0.0144131
644.910	0.0143896
644.988	0.0143452
645.067	0.0145948
645.145	0.0144906
645.223	0.0145013
645.301	0.0146006
645.379	0.0144802
645.457	0.0143807
645.535	0.0145249
645.613	0.0143300
645.692	0.0143733
645.770	0.0145710
645.848	0.0144503
645.926	0.0145188
646.004	0.0145177
646.082	0.0145424
646.160	0.0144825
646.238	0.0144614
646.317	0.0144305
646.395	0.0143642
646.473	0.0144771
646.551	0.0145655
646.629	0.0143761
646.707	0.0144495
646.785	0.0145132
646.863	0.0145051
646.942	0.0144779
647.020	0.0145733
647.098	0.0145023
647.176	0.0146405
647.254	0.0146059
647.332	0.0144981
647.410	0.0144258
647.488	0.0145602
647.567	0.0144914
647.645	0.0146301
647.723	0.0144762
647.801	0.0144863
647.879	0.0144382
647.957	0.0145821
648.035	0.0145289
648.113	0.0145090
648.192	0.0145791
648.270	0.0145576
648.348	0.0145067
648.426	0.0144209
648.504	0.0143893
648.582	0.0145660
648.660	0.0145675
648.738	0.0144537
648.817	0.0145309
648.895	0.0145138
648.973	0.0144874
649.051	0.0143985
649.129	0.0144192
649.207	0.0144135
649.285	0.0145588
649.363	0.0145715
649.442	0.0144952
649.520	0.0143795
649.598	0.0144465
649.676	0.0145284
649.754	0.0145272
649.832	0.0144636
649.910	0.0146159
649.988	0.0144639
650.067	0.0144292
650.145	0.0145077
650.223	0.0145627
650.301	0.0144909
650.379	0.0143629
650.457	0.0145438
650.535	0.0144335
650.613	0.0144778
650.692	0.0145847
650.770	0.0146033
650.848	0.0145750
650.926	0.0145274
651.004	0.0144897
651.082	0.0144463
651.160	0.0145414
651.238	0.0144656
651.317	0.0144544
651.395	0.0145479
651.473	0.0144879
651.551	0.0144201
651.629	0.0145365
651.707	0.0145975
651.785	0.0146466
651.863	0.0143955
651.942	0.0144427
652.020	0.0145843
652.098	0.0145415
652.176	0.0144095
652.254	0.0144690
652.332	0.0144560
652.410	0.0143691
652.488	0.0145958
652.567	0.0145045
652.645	0.0144617
652.723	0.0144153
652.801	0.0144390
652.879	0.0144015
652.957	0.0146873
653.035	0.0144843
653.113	0.0144269
653.192	0.0144202
653.270	0.0145171
653.348	0.0143545
653.426	0.0144820
653.504	0.0145446
653.582	0.0143523
653.660	0.0144524
653.738	0.0144494
653.817	0.0143423
653.895	0.0144536
653.973	0.0144283
654.051	0.0145599
654.129	0.0143324
654.207	0.0144353
654.285	0.0143650
654.363	0.0144294
654.442	0.0144905
654.520	0.0143921
654.598	0.0144519
654.676	0.0145438
654.754	0.0143599
654.832	0.0144981
654.910	0.0144843
654.988	0.0143929
655.067	0.0144733
655.145	0.0146321
655.223	0.0144494
655.301	0.0145014
655.379	0.0144549
655.457	0.0144466
655.535	0.0145778
655.613	0.0147302
655.692	0.0145109
655.770	0.0144853
655.848	0.0145067
655.926	0.0146397
656.004	0.0145992
656.082	0.0143905
656.160	0.0144678
656.238	0.0145263
656.317	0.0143906
656.395	0.0145517
656.473	0.0145435
656.551	0.0144612
656.629	0.0144971
656.707	0.0145191
656.785	0.0145618
656.863	0.0143987
656.942	0.0144764
657.020	0.0143764
657.098	0.0144058
657.176	0.0145486
657.254	0.0143883
657.332	0.0145227
657.410	0.0144363
657.488	0.0143798
657.567	0.0145587
657.645	0.0144838
657.723	0.0145269
657.801	0.0144993
657.879	0.0146883
657.957	0.0146321
658.035	0.0145709
658.113	0.0145750
658.192	0.0146840
658.270	0.0147985
658.348	0.0147797
658.426	0.0146622
658.504	0.0147836
658.582	0.0148387
658.660	0.0146484
658.738	0.0145724
658.817	0.0144664
658.895	0.0145354
658.973	0.0144672
659.051	0.0143032
659.129	0.0143010
659.207	0.0141273
659.285	0.0140849
659.363	0.0140060
659.442	0.0140255
659.520	0.0140424
659.598	0.0141401
659.676	0.0139554
659.754	0.0139569
659.832	0.0142220
659.910	0.0143093
659.988	0.0143578
660.067	0.0143507
660.145	0.0144529
660.223	0.0145322
660.301	0.0145663
660.379	0.0147031
660.457	0.0146745
660.535	0.0145917
660.613	0.0148434
660.692	0.0147931
660.770	0.0148044
660.848	0.0147234
660.926	0.0148715
661.004	0.0146907
661.082	0.0147029
661.160	0.0146191
661.238	0.0146376
661.317	0.0144762
661.395	0.0144920
661.473	0.0144576
661.551	0.0146020
661.629	0.0147563
661.707	0.0146439
661.785	0.0147514
661.863	0.0148801
661.942	0.0147348
662.020	0.0147610
662.098	0.0147686
662.176	0.0149818
662.254	0.0148621
662.332	0.0150494
662.410	0.0148460
662.488	0.0148437
662.567	0.0147131
662.645	0.0147114
662.723	0.0147238
662.801	0.0145135
662.879	0.0144042
662.957	0.0144762
663.035	0.0143231
663.113	0.0142849
663.192	0.0142750
663.270	0.0143012
663.348	0.0141286
663.426	0.0140560
663.504	0.0141973
663.582	0.0141001
663.660	0.0139060
663.738	0.0140094
663.817	0.0139577
663.895	0.0138254
663.973	0.0137950
664.051	0.0136702
664.129	0.0136842
664.207	0.0136294
664.285	0.0137292
664.363	0.0138701
664.442	0.0138654
664.520	0.0140682
664.598	0.0143479
664.676	0.0145308
664.754	0.0148029
664.832	0.0150539
664.910	0.0150804
664.988	0.0151228
665.067	0.0153527
665.145	0.0152561
665.223	0.0153191
665.301	0.0152261
665.379	0.0152642
665.457	0.0151350
665.535	0.0150613
665.613	0.0151493
665.692	0.0151660
665.770	0.0149928
665.848	0.0150492
665.926	0.0150632
666.004	0.0148133
666.082	0.0149104
666.160	0.0149333
666.238	0.0148121
666.317	0.0147682
666.395	0.0146788
666.473	0.0145575
666.551	0.0146777
666.629	0.0145174
666.707	0.0144722
666.785	0.0145304
666.863	0.0144484
666.942	0.0145708
667.020	0.0146259
667.098	0.0145145
667.176	0.0144226
667.254	0.0145444
667.332	0.0144086
667.410	0.0142468
667.488	0.0140929
667.567	0.0141682
667.645	0.0139969
667.723	0.0137310
667.801	0.0136564
667.879	0.0135577
667.957	0.0134219
668.035	0.0132487
668.113	0.0133469
668.192	0.0132366
668.270	0.0133364
668.348	0.0132253
668.426	0.0133160
668.504	0.0133215
668.582	0.0134262
668.660	0.0134522
668.738	0.0138861
668.817	0.0141104
668.895	0.0142627
668.973	0.0145562
669.051	0.0148620
669.129	0.0150049
669.207	0.0152463
669.285	0.0154611
669.363	0.0156868
669.442	0.0157018
669.520	0.0157496
669.598	0.0156759
669.676	0.0156697
669.754	0.0153396
669.832	0.0152533
669.910	0.0151567
669.988	0.0151962
670.067	0.0152006
670.145	0.0151190
670.223	0.0151293
670.301	0.0149853
670.379	0.0149081
670.457	0.0150302
670.535	0.0149379
670.613	0.0149571
670.692	0.0149885
670.770	0.0149074
670.848	0.0146737
670.926	0.0148222
671.004	0.0147346
671.082	0.0148039
671.160	0.0147498
671.238	0.0147300
671.317	0.0148096
671.395	0.0148193
671.473	0.0147473
671.551	0.0148083
671.629	0.0147779
671.707	0.0146120
671.785	0.0145846
671.863	0.0144386
671.942	0.0143492
672.020	0.0141954
672.098	0.0141083
672.176	0.0138253
672.254	0.0138905
672.332	0.0137202
672.410	0.0137283
672.488	0.0139417
672.567	0.0138282
672.645	0.0137240
672.723	0.0138138
672.801	0.0137629
672.879	0.0138504
672.957	0.0138314
673.035	0.0137642
673.113	0.0138170
673.192	0.0139481
673.270	0.0138732
673.348	0.0140288
673.426	0.0139642
673.504	0.0140778
673.582	0.0139937
673.660	0.0140317
673.738	0.0141055
673.817	0.0139180
673.895	0.0142546
673.973	0.0141463
674.051	0.0141124
674.129	0.0141071
674.207	0.0142212
674.285	0.0142125
674.363	0.0143438
674.442	0.0144233
674.520	0.0145256
674.598	0.0147273
674.676	0.0149154
674.754	0.0152047
674.832	0.0151561
674.910	0.0152934
674.988	0.0156411
675.067	0.0158409
675.145	0.0157844
675.223	0.0157521
675.301	0.0160362
675.379	0.0159693
675.457	0.0160416
675.535	0.0159351
675.613	0.0160276
675.692	0.0160299
675.770	0.0159878
675.848	0.0158624
675.926	0.0157992
676.004	0.0155820
676.082	0.0154771
676.160	0.0154434
676.238	0.0153023
676.317	0.0149866
676.395	0.0150173
676.473	0.0147980
676.551	0.0147363
676.629	0.0146195
676.707	0.0142764
676.785	0.0143111
676.863	0.0141756
676.942	0.0139322
677.020	0.0138035
677.098	0.0136118
677.176	0.0134742
677.254	0.0133852
677.332	0.0134434
677.410	0.0135191
677.488	0.0133268
677.567	0.0134666
677.645	0.0134910
677.723	0.0134810
677.801	0.0136521
677.879	0.0137596
677.957	0.0136357
678.035	0.0138193
678.113	0.0137923
678.192	0.0138811
678.270	0.0139705
678.348	0.0139549
678.426	0.0139519
678.504	0.0137546
678.582	0.0137579
678.660	0.0139157
678.738	0.0137339
678.817	0.0137276
678.895	0.0137180
678.973	0.0135850
679.051	0.0135233
679.129	0.0134288
679.207	0.0134586
679.285	0.0133309
679.363	0.0134676
679.442	0.0135308
679.520	0.0136520
679.598	0.0139193
679.676	0.0142136
679.754	0.0143385
679.832	0.0147256
679.910	0.0149977
679.988	0.0153531
680.067	0.0156624
680.145	0.0159077
680.223	0.0163667
680.301	0.0165348
680.379	0.0167735
680.457	0.0170601
680.535	0.0172253
680.613	0.0172550
680.692	0.0174510
680.770	0.0174190
680.848	0.0172630
680.926	0.0170995
681.004	0.0169812
681.082	0.0167479
681.160	0.0164706
681.238	0.0162189
681.317	0.0158926
681.395	0.0154318
681.473	0.0150202
681.551	0.0146898
681.629	0.0142223
681.707	0.0138055
681.785	0.0134528
681.863	0.0131570
681.942	0.0129438
682.020	0.0128280
682.098	0.0124995
682.176	0.0125745
682.254	0.0125966
682.332	0.0124492
682.410	0.0125196
682.488	0.0127297
682.567	0.0127200
682.645	0.0127988
682.723	0.0130851
682.801	0.0131783
682.879	0.0130098
682.957	0.0134722
683.035	0.0136217
683.113	0.0137096
683.192	0.0138177
683.270	0.0140820
683.348	0.0140417
683.426	0.0140842
683.504	0.0142114
683.582	0.0142201
683.660	0.0143406
683.738	0.0144387
683.817	0.0145441
683.895	0.0144899
683.973	0.0145809
684.051	0.0146511
684.129	0.0146628
684.207	0.0146181
684.285	0.0146267
684.363	0.0147198
684.442	0.0146089
684.520	0.0146087
684.598	0.0143795
684.676	0.0143612
684.754	0.0143114
684.832	0.0141656
684.910	0.0144796
684.988	0.0143859
685.067	0.0145093
685.145	0.0145484
685.223	0.0146216
685.301	0.0148026
685.379	0.0149850
685.457	0.0151725
685.535	0.0151395
685.613	0.0153511
685.692	0.0154301
