05/28/2022	14:12:06	Ver.	4.1	UNKNOWN
Optical Delay	599.988409	Delta X		0.078125	Sweeps	1	Scan Rate	0/0
Coordinates	Axis 1	NaN	Axis 2	NaN	Axis 3	NaN	Axis 4	NaN	Axis 5	NaN	Axis 6	0.000000
TX Power	0.000000	RX Power	0.000000

599.988	0.0144833
600.067	0.0144255
600.145	0.0144658
600.223	0.0145476
600.301	0.0146171
600.379	0.0144368
600.457	0.0145756
600.535	0.0145052
600.613	0.0144695
600.692	0.0143940
600.770	0.0145621
600.848	0.0144788
600.926	0.0143922
601.004	0.0145476
601.082	0.0144493
601.160	0.0145348
601.238	0.0144662
601.317	0.0144041
601.395	0.0144920
601.473	0.0144363
601.551	0.0143846
601.629	0.0145424
601.707	0.0144801
601.785	0.0143935
601.863	0.0144276
601.942	0.0145010
602.020	0.0144959
602.098	0.0144115
602.176	0.0145432
602.254	0.0144757
602.332	0.0144402
602.410	0.0145117
602.488	0.0144714
602.567	0.0145575
602.645	0.0144761
602.723	0.0145116
602.801	0.0146222
602.879	0.0145763
602.957	0.0145820
603.035	0.0143613
603.113	0.0144775
603.192	0.0147501
603.270	0.0145197
603.348	0.0144626
603.426	0.0145588
603.504	0.0145311
603.582	0.0144780
603.660	0.0145765
603.738	0.0145486
603.817	0.0145235
603.895	0.0145690
603.973	0.0145908
604.051	0.0146915
604.129	0.0144565
604.207	0.0143948
604.285	0.0145305
604.363	0.0146127
604.442	0.0145343
604.520	0.0144890
604.598	0.0145297
604.676	0.0145408
604.754	0.0144662
604.832	0.0145992
604.910	0.0144740
604.988	0.0145220
605.067	0.0145382
605.145	0.0145284
605.223	0.0144794
605.301	0.0146227
605.379	0.0144567
605.457	0.0144729
605.535	0.0145208
605.613	0.0145762
605.692	0.0144772
605.770	0.0144318
605.848	0.0145365
605.926	0.0145411
606.004	0.0144953
606.082	0.0144515
606.160	0.0145405
606.238	0.0144199
606.317	0.0143884
606.395	0.0145435
606.473	0.0145106
606.551	0.0145042
606.629	0.0145991
606.707	0.0144710
606.785	0.0145419
606.863	0.0144950
606.942	0.0143519
607.020	0.0145374
607.098	0.0146675
607.176	0.0143650
607.254	0.0147113
607.332	0.0144900
607.410	0.0145850
607.488	0.0144291
607.567	0.0144781
607.645	0.0144103
607.723	0.0145610
607.801	0.0144389
607.879	0.0143634
607.957	0.0144664
608.035	0.0144566
608.113	0.0145198
608.192	0.0144436
608.270	0.0144836
608.348	0.0145199
608.426	0.0145478
608.504	0.0143833
608.582	0.0144564
608.660	0.0144276
608.738	0.0144927
608.817	0.0143598
608.895	0.0145406
608.973	0.0144689
609.051	0.0145705
609.129	0.0145162
609.207	0.0145515
609.285	0.0144725
609.363	0.0144997
609.442	0.0142854
609.520	0.0144089
609.598	0.0145306
609.676	0.0144189
609.754	0.0143830
609.832	0.0145985
609.910	0.0144994
609.988	0.0143803
610.067	0.0143559
610.145	0.0145098
610.223	0.0145103
610.301	0.0144671
610.379	0.0143418
610.457	0.0144720
610.535	0.0145506
610.613	0.0145174
610.692	0.0145494
610.770	0.0144540
610.848	0.0144513
610.926	0.0145376
611.004	0.0144499
611.082	0.0143918
611.160	0.0144713
611.238	0.0144945
611.317	0.0144809
611.395	0.0146036
611.473	0.0145252
611.551	0.0145350
611.629	0.0143814
611.707	0.0144326
611.785	0.0143613
611.863	0.0145592
611.942	0.0144135
612.020	0.0144881
612.098	0.0145000
612.176	0.0142957
612.254	0.0143394
612.332	0.0144318
612.410	0.0145114
612.488	0.0144215
612.567	0.0143827
612.645	0.0143414
612.723	0.0144761
612.801	0.0145053
612.879	0.0144134
612.957	0.0144608
613.035	0.0145237
613.113	0.0144596
613.192	0.0144892
613.270	0.0144096
613.348	0.0143962
613.426	0.0144515
613.504	0.0144114
613.582	0.0143633
613.660	0.0143027
613.738	0.0144658
613.817	0.0145535
613.895	0.0145387
613.973	0.0143118
614.051	0.0143591
614.129	0.0145966
614.207	0.0143951
614.285	0.0144756
614.363	0.0142962
614.442	0.0144371
614.520	0.0144302
614.598	0.0145003
614.676	0.0144851
614.754	0.0144617
614.832	0.0144950
614.910	0.0143961
614.988	0.0145018
615.067	0.0144742
615.145	0.0143873
615.223	0.0144247
615.301	0.0144473
615.379	0.0143170
615.457	0.0144513
615.535	0.0144717
615.613	0.0144291
615.692	0.0144877
615.770	0.0144250
615.848	0.0143915
615.926	0.0143712
616.004	0.0144226
616.082	0.0144192
616.160	0.0143800
616.238	0.0144542
616.317	0.0145150
616.395	0.0144807
616.473	0.0143316
616.551	0.0143884
616.629	0.0145016
616.707	0.0143826
616.785	0.0145060
616.863	0.0145325
616.942	0.0145170
617.020	0.0143430
617.098	0.0144288
617.176	0.0145246
617.254	0.0143027
617.332	0.0143060
617.410	0.0144604
617.488	0.0145300
617.567	0.0144423
617.645	0.0144835
617.723	0.0143549
617.801	0.0144958
617.879	0.0144709
617.957	0.0143430
618.035	0.0144902
618.113	0.0143530
618.192	0.0145238
618.270	0.0144753
618.348	0.0142997
618.426	0.0143664
618.504	0.0144968
618.582	0.0143953
618.660	0.0144474
618.738	0.0144469
618.817	0.0143945
618.895	0.0144422
618.973	0.0145485
619.051	0.0145190
619.129	0.0145686
619.207	0.0145580
619.285	0.0144997
619.363	0.0144762
619.442	0.0145778
619.520	0.0145154
619.598	0.0144350
619.676	0.0144666
619.754	0.0145672
619.832	0.0145388
619.910	0.0146103
619.988	0.0144366
620.067	0.0144421
620.145	0.0143521
620.223	0.0144350
620.301	0.0144501
620.379	0.0145103
620.457	0.0144144
620.535	0.0145145
620.613	0.0144937
620.692	0.0143318
620.770	0.0144733
620.848	0.0144575
620.926	0.0144445
621.004	0.0144368
621.082	0.0144871
621.160	0.0144441
621.238	0.0143615
621.317	0.0143647
621.395	0.0145044
621.473	0.0144465
621.551	0.0144845
621.629	0.0144234
621.707	0.0145345
621.785	0.0144254
621.863	0.0144413
621.942	0.0143824
622.020	0.0144176
622.098	0.0144353
622.176	0.0143448
622.254	0.0144541
622.332	0.0144440
622.410	0.0143863
622.488	0.0145302
622.567	0.0144426
622.645	0.0143303
622.723	0.0144253
622.801	0.0143920
622.879	0.0144827
622.957	0.0144408
623.035	0.0143259
623.113	0.0144067
623.192	0.0144717
623.270	0.0144958
623.348	0.0144080
623.426	0.0145100
623.504	0.0145229
623.582	0.0146111
623.660	0.0145222
623.738	0.0144042
623.817	0.0145454
623.895	0.0144568
623.973	0.0145052
624.051	0.0144547
624.129	0.0144699
624.207	0.0146130
624.285	0.0146147
624.363	0.0144552
624.442	0.0145517
624.520	0.0146006
624.598	0.0146027
624.676	0.0144970
624.754	0.0144263
624.832	0.0143255
624.910	0.0144486
624.988	0.0145779
625.067	0.0145099
625.145	0.0145316
625.223	0.0145798
625.301	0.0144775
625.379	0.0144357
625.457	0.0144685
625.535	0.0144985
625.613	0.0145929
625.692	0.0144611
625.770	0.0143695
625.848	0.0145223
625.926	0.0145163
626.004	0.0145908
626.082	0.0144042
626.160	0.0144848
626.238	0.0144366
626.317	0.0144599
626.395	0.0145100
626.473	0.0144817
626.551	0.0145490
626.629	0.0143388
626.707	0.0143414
626.785	0.0145006
626.863	0.0143861
626.942	0.0144369
627.020	0.0144836
627.098	0.0144316
627.176	0.0144135
627.254	0.0143827
627.332	0.0144386
627.410	0.0145258
627.488	0.0144685
627.567	0.0144640
627.645	0.0144037
627.723	0.0145099
627.801	0.0144601
627.879	0.0144584
627.957	0.0144844
628.035	0.0144363
628.113	0.0144809
628.192	0.0144741
628.270	0.0144641
628.348	0.0144024
628.426	0.0144724
628.504	0.0144370
628.582	0.0145245
628.660	0.0143359
628.738	0.0145801
628.817	0.0145099
628.895	0.0143971
628.973	0.0144681
629.051	0.0145133
629.129	0.0144241
629.207	0.0145775
629.285	0.0145477
629.363	0.0145515
629.442	0.0144833
629.520	0.0144289
629.598	0.0144296
629.676	0.0144555
629.754	0.0144952
629.832	0.0144233
629.910	0.0145831
629.988	0.0145169
630.067	0.0145358
630.145	0.0145083
630.223	0.0146159
630.301	0.0144360
630.379	0.0144756
630.457	0.0144539
630.535	0.0143976
630.613	0.0144427
630.692	0.0145299
630.770	0.0145219
630.848	0.0145692
630.926	0.0145184
631.004	0.0145214
631.082	0.0143667
631.160	0.0143954
631.238	0.0144259
631.317	0.0145377
631.395	0.0145030
631.473	0.0144000
631.551	0.0143722
631.629	0.0145445
631.707	0.0146500
631.785	0.0144806
631.863	0.0145179
631.942	0.0144741
632.020	0.0143983
632.098	0.0143262
632.176	0.0145199
632.254	0.0146156
632.332	0.0145480
632.410	0.0144726
632.488	0.0144845
632.567	0.0144035
632.645	0.0143723
632.723	0.0144863
632.801	0.0144094
632.879	0.0144818
632.957	0.0145173
633.035	0.0144994
633.113	0.0145387
633.192	0.0143662
633.270	0.0143774
633.348	0.0144983
633.426	0.0145670
633.504	0.0144026
633.582	0.0145469
633.660	0.0144520
633.738	0.0143170
633.817	0.0144308
633.895	0.0144155
633.973	0.0145425
634.051	0.0143093
634.129	0.0144096
634.207	0.0144027
634.285	0.0143998
634.363	0.0144265
634.442	0.0144329
634.520	0.0143637
634.598	0.0143916
634.676	0.0145341
634.754	0.0144353
634.832	0.0145373
634.910	0.0144582
634.988	0.0142696
635.067	0.0143400
635.145	0.0143999
635.223	0.0143740
635.301	0.0143853
635.379	0.0144921
635.457	0.0144901
635.535	0.0144401
635.613	0.0143909
635.692	0.0143795
635.770	0.0144485
635.848	0.0143317
635.926	0.0144546
636.004	0.0145743
636.082	0.0145585
636.160	0.0145764
636.238	0.0144272
636.317	0.0144287
636.395	0.0143402
636.473	0.0144007
636.551	0.0146210
636.629	0.0144306
636.707	0.0144652
636.785	0.0145010
636.863	0.0144759
636.942	0.0144779
637.020	0.0145110
637.098	0.0145459
637.176	0.0145733
637.254	0.0144734
637.332	0.0146503
637.410	0.0145350
637.488	0.0144807
637.567	0.0145200
637.645	0.0144955
637.723	0.0143379
637.801	0.0145614
637.879	0.0145978
637.957	0.0143622
638.035	0.0144350
638.113	0.0145266
638.192	0.0144952
638.270	0.0144833
638.348	0.0144453
638.426	0.0145508
638.504	0.0145361
638.582	0.0145411
638.660	0.0145702
638.738	0.0144785
638.817	0.0144300
638.895	0.0144569
638.973	0.0145225
639.051	0.0144530
639.129	0.0145019
639.207	0.0144432
639.285	0.0144371
639.363	0.0146177
639.442	0.0145952
639.520	0.0144821
639.598	0.0144586
639.676	0.0145607
639.754	0.0143969
639.832	0.0146001
639.910	0.0145419
639.988	0.0145317
640.067	0.0144692
640.145	0.0144237
640.223	0.0145907
640.301	0.0146011
640.379	0.0145589
640.457	0.0145271
640.535	0.0145477
640.613	0.0144871
640.692	0.0145053
640.770	0.0144686
640.848	0.0145159
640.926	0.0145443
641.004	0.0146018
641.082	0.0145390
641.160	0.0144563
641.238	0.0146638
641.317	0.0145526
641.395	0.0145410
641.473	0.0144769
641.551	0.0144604
641.629	0.0145759
641.707	0.0144811
641.785	0.0145359
641.863	0.0145798
641.942	0.0145100
642.020	0.0145828
642.098	0.0146693
642.176	0.0144659
642.254	0.0145146
642.332	0.0144239
642.410	0.0144653
642.488	0.0145165
642.567	0.0144916
642.645	0.0144543
642.723	0.0144482
642.801	0.0145730
642.879	0.0145240
642.957	0.0145010
643.035	0.0144152
643.113	0.0145101
643.192	0.0145733
643.270	0.0145396
643.348	0.0144503
643.426	0.0145435
643.504	0.0143974
643.582	0.0145275
643.660	0.0145923
643.738	0.0144961
643.817	0.0144691
643.895	0.0145397
643.973	0.0145336
644.051	0.0144841
644.129	0.0146694
644.207	0.0144923
644.285	0.0145219
644.363	0.0145389
644.442	0.0145293
644.520	0.0144724
644.598	0.0145960
644.676	0.0144888
644.754	0.0143852
644.832	0.0144796
644.910	0.0144157
644.988	0.0145671
645.067	0.0145539
645.145	0.0144132
645.223	0.0144170
645.301	0.0145457
645.379	0.0143686
645.457	0.0143803
645.535	0.0143906
645.613	0.0144409
645.692	0.0144440
645.770	0.0145240
645.848	0.0145261
645.926	0.0144733
646.004	0.0144998
646.082	0.0144584
646.160	0.0145670
646.238	0.0144384
646.317	0.0144502
646.395	0.0144456
646.473	0.0143893
646.551	0.0144440
646.629	0.0143845
646.707	0.0143991
646.785	0.0144530
646.863	0.0145770
646.942	0.0145588
647.020	0.0144576
647.098	0.0143314
647.176	0.0144943
647.254	0.0144621
647.332	0.0145156
647.410	0.0144576
647.488	0.0143204
647.567	0.0144499
647.645	0.0143599
647.723	0.0144898
647.801	0.0145402
647.879	0.0144740
647.957	0.0144034
648.035	0.0144001
648.113	0.0145956
648.192	0.0144580
648.270	0.0145490
648.348	0.0144288
648.426	0.0144295
648.504	0.0145656
648.582	0.0145169
648.660	0.0146048
648.738	0.0145042
648.817	0.0145668
648.895	0.0144356
648.973	0.0145094
649.051	0.0145042
649.129	0.0144572
649.207	0.0145943
649.285	0.0146080
649.363	0.0144426
649.442	0.0145461
649.520	0.0145313
649.598	0.0146261
649.676	0.0144762
649.754	0.0144934
649.832	0.0145498
649.910	0.0145457
649.988	0.0145613
650.067	0.0144465
650.145	0.0145616
650.223	0.0145422
650.301	0.0145267
650.379	0.0147065
650.457	0.0145169
650.535	0.0144891
650.613	0.0145713
650.692	0.0143871
650.770	0.0145233
650.848	0.0143978
650.926	0.0144774
651.004	0.0144343
651.082	0.0143532
651.160	0.0143390
651.238	0.0145775
651.317	0.0145065
651.395	0.0144344
651.473	0.0145200
651.551	0.0144054
651.629	0.0143693
651.707	0.0145012
651.785	0.0145168
651.863	0.0144589
651.942	0.0144541
652.020	0.0144299
652.098	0.0145266
652.176	0.0145837
652.254	0.0144601
652.332	0.0143489
652.410	0.0145728
652.488	0.0144275
652.567	0.0146384
652.645	0.0147292
652.723	0.0145724
652.801	0.0147047
652.879	0.0147482
652.957	0.0147900
653.035	0.0146750
653.113	0.0146692
653.192	0.0145830
653.270	0.0145624
653.348	0.0145698
653.426	0.0145207
653.504	0.0144830
653.582	0.0144459
653.660	0.0143150
653.738	0.0143087
653.817	0.0141085
653.895	0.0140421
653.973	0.0141183
654.051	0.0141267
654.129	0.0142181
654.207	0.0142961
654.285	0.0141888
654.363	0.0141044
654.442	0.0143710
654.520	0.0143507
654.598	0.0143932
654.676	0.0145319
654.754	0.0144778
654.832	0.0144667
654.910	0.0146495
654.988	0.0145560
655.067	0.0145509
655.145	0.0145151
655.223	0.0146690
655.301	0.0145882
655.379	0.0147283
655.457	0.0146626
655.535	0.0145975
655.613	0.0147059
655.692	0.0148129
655.770	0.0147299
655.848	0.0145785
655.926	0.0146218
656.004	0.0146969
656.082	0.0146493
656.160	0.0146712
656.238	0.0146682
656.317	0.0145866
656.395	0.0145722
656.473	0.0147431
656.551	0.0147256
656.629	0.0147567
656.707	0.0147743
656.785	0.0147236
656.863	0.0148374
656.942	0.0148046
657.020	0.0145937
657.098	0.0145380
657.176	0.0145652
657.254	0.0144106
657.332	0.0145636
657.410	0.0143496
657.488	0.0142523
657.567	0.0144012
657.645	0.0144730
657.723	0.0142677
657.801	0.0143572
657.879	0.0144530
657.957	0.0142641
658.035	0.0144952
658.113	0.0143958
658.192	0.0143709
658.270	0.0143107
658.348	0.0143090
658.426	0.0140919
658.504	0.0140076
658.582	0.0138844
658.660	0.0138979
658.738	0.0138212
658.817	0.0138412
658.895	0.0139558
658.973	0.0138613
659.051	0.0139021
659.129	0.0142369
659.207	0.0142256
659.285	0.0142651
659.363	0.0146416
659.442	0.0146594
659.520	0.0147396
659.598	0.0148089
659.676	0.0150317
659.754	0.0150412
659.832	0.0147521
659.910	0.0150676
659.988	0.0150291
660.067	0.0149165
660.145	0.0148872
660.223	0.0148867
660.301	0.0149531
660.379	0.0150983
660.457	0.0150001
660.535	0.0149831
660.613	0.0150925
660.692	0.0149804
660.770	0.0150373
660.848	0.0149564
660.926	0.0148921
661.004	0.0149091
661.082	0.0146684
661.160	0.0146355
661.238	0.0146247
661.317	0.0146220
661.395	0.0145862
661.473	0.0146211
661.551	0.0145678
661.629	0.0146650
661.707	0.0146645
661.785	0.0146716
661.863	0.0145213
661.942	0.0145457
662.020	0.0143968
662.098	0.0141679
662.176	0.0141461
662.254	0.0139750
662.332	0.0140440
662.410	0.0139054
662.488	0.0136591
662.567	0.0135027
662.645	0.0134187
662.723	0.0134933
662.801	0.0133939
662.879	0.0133640
662.957	0.0134525
663.035	0.0134509
663.113	0.0134899
663.192	0.0135847
663.270	0.0136697
663.348	0.0138802
663.426	0.0141185
663.504	0.0141122
663.582	0.0144258
663.660	0.0145821
663.738	0.0147598
663.817	0.0149690
663.895	0.0152377
663.973	0.0152750
664.051	0.0153059
664.129	0.0152654
664.207	0.0152933
664.285	0.0153654
664.363	0.0152198
664.442	0.0151417
664.520	0.0151562
664.598	0.0149928
664.676	0.0149566
664.754	0.0149901
664.832	0.0148555
664.910	0.0148073
664.988	0.0149914
665.067	0.0148134
665.145	0.0147493
665.223	0.0148159
665.301	0.0147732
665.379	0.0148206
665.457	0.0147150
665.535	0.0148653
665.613	0.0148042
665.692	0.0147349
665.770	0.0147552
665.848	0.0148114
665.926	0.0148207
666.004	0.0149207
666.082	0.0147938
666.160	0.0148239
666.238	0.0147793
666.317	0.0147830
666.395	0.0146832
666.473	0.0143211
666.551	0.0142243
666.629	0.0141666
666.707	0.0140733
666.785	0.0140496
666.863	0.0139852
666.942	0.0138625
667.020	0.0137860
667.098	0.0138306
667.176	0.0136533
667.254	0.0138209
667.332	0.0137922
667.410	0.0136580
667.488	0.0138335
667.567	0.0138406
667.645	0.0138451
667.723	0.0137938
667.801	0.0139782
667.879	0.0138599
667.957	0.0139091
668.035	0.0140388
668.113	0.0140311
668.192	0.0142119
668.270	0.0141129
668.348	0.0141655
668.426	0.0143602
668.504	0.0143184
668.582	0.0143526
668.660	0.0144123
668.738	0.0143588
668.817	0.0144713
668.895	0.0144166
668.973	0.0145811
669.051	0.0147344
669.129	0.0146709
669.207	0.0150304
669.285	0.0149820
669.363	0.0151305
669.442	0.0152477
669.520	0.0151608
669.598	0.0153602
669.676	0.0153974
669.754	0.0153561
669.832	0.0153996
669.910	0.0153960
669.988	0.0153320
670.067	0.0152547
670.145	0.0151641
670.223	0.0150532
670.301	0.0151578
670.379	0.0150386
670.457	0.0149233
670.535	0.0148646
670.613	0.0149284
670.692	0.0149339
670.770	0.0147737
670.848	0.0147528
670.926	0.0147296
671.004	0.0146549
671.082	0.0145900
671.160	0.0146729
671.238	0.0145033
671.317	0.0147229
671.395	0.0144463
671.473	0.0144402
671.551	0.0143061
671.629	0.0142944
671.707	0.0141162
671.785	0.0141139
671.863	0.0142162
671.942	0.0140992
672.020	0.0139980
672.098	0.0138264
672.176	0.0138671
672.254	0.0137108
672.332	0.0138160
672.410	0.0135902
672.488	0.0135339
672.567	0.0135925
672.645	0.0135809
672.723	0.0137006
672.801	0.0136145
672.879	0.0137486
672.957	0.0139499
673.035	0.0139353
673.113	0.0140357
673.192	0.0141723
673.270	0.0141980
673.348	0.0144103
673.426	0.0143993
673.504	0.0144662
673.582	0.0144279
673.660	0.0145446
673.738	0.0146429
673.817	0.0146132
673.895	0.0145635
673.973	0.0146844
674.051	0.0147787
674.129	0.0148323
674.207	0.0147757
674.285	0.0147256
674.363	0.0146056
674.442	0.0145985
674.520	0.0143881
674.598	0.0144456
674.676	0.0144836
674.754	0.0144675
674.832	0.0144411
674.910	0.0143999
674.988	0.0144726
675.067	0.0145271
675.145	0.0146144
675.223	0.0146907
675.301	0.0147848
675.379	0.0149169
675.457	0.0151566
675.535	0.0151266
675.613	0.0154396
675.692	0.0154222
675.770	0.0154540
675.848	0.0155021
675.926	0.0155635
676.004	0.0152923
676.082	0.0155335
676.160	0.0155324
676.238	0.0154063
676.317	0.0153605
676.395	0.0153516
676.473	0.0152087
676.551	0.0150447
676.629	0.0149505
676.707	0.0147449
676.785	0.0145767
676.863	0.0144952
676.942	0.0142663
677.020	0.0140980
677.098	0.0139945
677.176	0.0137331
677.254	0.0136080
677.332	0.0134875
677.410	0.0134180
677.488	0.0133286
677.567	0.0132667
677.645	0.0132910
677.723	0.0132610
677.801	0.0131866
677.879	0.0132654
677.957	0.0134340
678.035	0.0134877
678.113	0.0137321
678.192	0.0138469
678.270	0.0139175
678.348	0.0140551
678.426	0.0142040
678.504	0.0142745
678.582	0.0143288
678.660	0.0146746
678.738	0.0147364
678.817	0.0147575
678.895	0.0147762
678.973	0.0148746
679.051	0.0150521
679.129	0.0148870
679.207	0.0148554
679.285	0.0148910
679.363	0.0148668
679.442	0.0149029
679.520	0.0147028
679.598	0.0147430
679.676	0.0145900
679.754	0.0143531
679.832	0.0143508
679.910	0.0143538
679.988	0.0140867
680.067	0.0140241
680.145	0.0140035
680.223	0.0139328
680.301	0.0138527
680.379	0.0137295
680.457	0.0139134
680.535	0.0139431
680.613	0.0141200
680.692	0.0141046
680.770	0.0143938
680.848	0.0144376
680.926	0.0146107
681.004	0.0148196
681.082	0.0151110
681.160	0.0152851
681.238	0.0154956
681.317	0.0156051
681.395	0.0158575
681.473	0.0159854
681.551	0.0159320
681.629	0.0161768
681.707	0.0159895
681.785	0.0159237
681.863	0.0159621
681.942	0.0158877
682.020	0.0158128
682.098	0.0156301
682.176	0.0155766
682.254	0.0152818
682.332	0.0152637
682.410	0.0152774
682.488	0.0150802
682.567	0.0149285
682.645	0.0148019
682.723	0.0146297
682.801	0.0142627
682.879	0.0141608
682.957	0.0140621
683.035	0.0137585
683.113	0.0135704
683.192	0.0133442
683.270	0.0133533
683.348	0.0131179
683.426	0.0129036
683.504	0.0128690
683.582	0.0129305
683.660	0.0128821
683.738	0.0128748
683.817	0.0128445
683.895	0.0127949
683.973	0.0129863
684.051	0.0132980
684.129	0.0133131
684.207	0.0135278
684.285	0.0135278
684.363	0.0136575
684.442	0.0138573
684.520	0.0140157
684.598	0.0141788
684.676	0.0140604
684.754	0.0142639
684.832	0.0143903
684.910	0.0145036
684.988	0.0147334
685.067	0.0147549
685.145	0.0148154
685.223	0.0149715
685.301	0.0149137
685.379	0.0149017
685.457	0.0149314
685.535	0.0149924
685.613	0.0150266
685.692	0.0147983
