05/28/2022	13:51:35	Ver.	4.1	UNKNOWN
Optical Delay	599.988409	Delta X		0.078125	Sweeps	1	Scan Rate	0/0
Coordinates	Axis 1	NaN	Axis 2	NaN	Axis 3	NaN	Axis 4	NaN	Axis 5	NaN	Axis 6	0.000000
TX Power	0.000000	RX Power	0.000000

599.988	0.0145139
600.067	0.0145763
600.145	0.0144923
600.223	0.0146085
600.301	0.0144570
600.379	0.0145282
600.457	0.0144627
600.535	0.0145511
600.613	0.0145856
600.692	0.0143937
600.770	0.0145081
600.848	0.0144303
600.926	0.0144878
601.004	0.0145924
601.082	0.0144859
601.160	0.0144633
601.238	0.0144888
601.317	0.0144892
601.395	0.0145461
601.473	0.0144543
601.551	0.0145394
601.629	0.0144664
601.707	0.0144920
601.785	0.0145015
601.863	0.0145005
601.942	0.0145547
602.020	0.0145433
602.098	0.0147334
602.176	0.0144737
602.254	0.0145990
602.332	0.0142764
602.410	0.0144882
602.488	0.0145904
602.567	0.0145464
602.645	0.0145255
602.723	0.0144250
602.801	0.0144644
602.879	0.0145497
602.957	0.0145258
603.035	0.0145344
603.113	0.0145230
603.192	0.0144900
603.270	0.0145768
603.348	0.0144294
603.426	0.0144881
603.504	0.0144862
603.582	0.0143382
603.660	0.0145829
603.738	0.0145184
603.817	0.0145927
603.895	0.0144264
603.973	0.0145358
604.051	0.0145492
604.129	0.0145202
604.207	0.0145838
604.285	0.0144803
604.363	0.0144465
604.442	0.0144352
604.520	0.0145834
604.598	0.0145326
604.676	0.0144579
604.754	0.0143994
604.832	0.0144200
604.910	0.0144908
604.988	0.0144776
605.067	0.0146360
605.145	0.0146107
605.223	0.0143971
605.301	0.0144539
605.379	0.0145477
605.457	0.0145817
605.535	0.0144248
605.613	0.0146091
605.692	0.0143975
605.770	0.0144191
605.848	0.0145742
605.926	0.0144234
606.004	0.0144702
606.082	0.0145268
606.160	0.0147024
606.238	0.0143578
606.317	0.0145201
606.395	0.0145473
606.473	0.0144582
606.551	0.0144483
606.629	0.0145238
606.707	0.0145651
606.785	0.0145805
606.863	0.0145977
606.942	0.0144194
607.020	0.0145105
607.098	0.0144682
607.176	0.0143309
607.254	0.0144952
607.332	0.0144754
607.410	0.0145680
607.488	0.0145685
607.567	0.0145746
607.645	0.0145142
607.723	0.0146914
607.801	0.0144933
607.879	0.0143710
607.957	0.0143713
608.035	0.0145950
608.113	0.0145670
608.192	0.0144259
608.270	0.0143847
608.348	0.0145429
608.426	0.0144921
608.504	0.0144943
608.582	0.0144746
608.660	0.0143530
608.738	0.0144891
608.817	0.0145959
608.895	0.0145443
608.973	0.0146100
609.051	0.0144560
609.129	0.0143442
609.207	0.0145863
609.285	0.0145229
609.363	0.0146410
609.442	0.0145001
609.520	0.0145811
609.598	0.0144778
609.676	0.0145424
609.754	0.0144993
609.832	0.0143866
609.910	0.0145372
609.988	0.0145192
610.067	0.0144496
610.145	0.0145576
610.223	0.0144913
610.301	0.0144348
610.379	0.0144031
610.457	0.0144810
610.535	0.0145061
610.613	0.0145810
610.692	0.0145143
610.770	0.0143388
610.848	0.0145260
610.926	0.0144551
611.004	0.0145177
611.082	0.0146539
611.160	0.0145001
611.238	0.0144550
611.317	0.0144904
611.395	0.0145289
611.473	0.0144518
611.551	0.0144505
611.629	0.0144244
611.707	0.0146014
611.785	0.0145743
611.863	0.0144750
611.942	0.0145695
612.020	0.0144487
612.098	0.0143876
612.176	0.0144360
612.254	0.0145654
612.332	0.0146665
612.410	0.0145182
612.488	0.0145003
612.567	0.0145358
612.645	0.0145265
612.723	0.0144583
612.801	0.0145732
612.879	0.0144324
612.957	0.0143947
613.035	0.0145939
613.113	0.0144956
613.192	0.0146033
613.270	0.0145905
613.348	0.0143302
613.426	0.0144921
613.504	0.0145224
613.582	0.0143675
613.660	0.0145493
613.738	0.0144786
613.817	0.0144675
613.895	0.0145602
613.973	0.0144946
614.051	0.0144411
614.129	0.0144908
614.207	0.0144701
614.285	0.0144318
614.363	0.0144907
614.442	0.0145284
614.520	0.0143926
614.598	0.0144630
614.676	0.0144817
614.754	0.0145196
614.832	0.0144357
614.910	0.0144862
614.988	0.0143871
615.067	0.0144997
615.145	0.0145242
615.223	0.0145800
615.301	0.0145354
615.379	0.0144431
615.457	0.0144761
615.535	0.0145993
615.613	0.0146370
615.692	0.0143807
615.770	0.0144292
615.848	0.0145129
615.926	0.0145591
616.004	0.0146227
616.082	0.0145457
616.160	0.0145169
616.238	0.0144843
616.317	0.0144691
616.395	0.0144674
616.473	0.0144772
616.551	0.0145634
616.629	0.0145725
616.707	0.0144691
616.785	0.0146252
616.863	0.0144825
616.942	0.0145700
617.020	0.0147035
617.098	0.0144364
617.176	0.0144712
617.254	0.0144627
617.332	0.0145597
617.410	0.0144255
617.488	0.0143615
617.567	0.0144353
617.645	0.0143753
617.723	0.0145965
617.801	0.0144300
617.879	0.0143718
617.957	0.0145261
618.035	0.0145438
618.113	0.0145349
618.192	0.0144187
618.270	0.0145731
618.348	0.0145206
618.426	0.0144173
618.504	0.0145554
618.582	0.0146087
618.660	0.0144895
618.738	0.0145182
618.817	0.0145332
618.895	0.0144193
618.973	0.0143629
619.051	0.0145525
619.129	0.0145277
619.207	0.0146133
619.285	0.0144982
619.363	0.0143118
619.442	0.0146258
619.520	0.0144891
619.598	0.0144700
619.676	0.0143931
619.754	0.0143968
619.832	0.0145351
619.910	0.0145605
619.988	0.0143969
620.067	0.0144456
620.145	0.0145524
620.223	0.0145516
620.301	0.0144353
620.379	0.0143976
620.457	0.0144498
620.535	0.0144623
620.613	0.0145681
620.692	0.0145013
620.770	0.0145323
620.848	0.0144263
620.926	0.0143987
621.004	0.0144907
621.082	0.0145536
621.160	0.0144698
621.238	0.0143179
621.317	0.0145450
621.395	0.0144971
621.473	0.0145544
621.551	0.0145025
621.629	0.0145080
621.707	0.0144766
621.785	0.0145434
621.863	0.0144106
621.942	0.0145200
622.020	0.0144995
622.098	0.0145889
622.176	0.0144046
622.254	0.0143967
622.332	0.0144692
622.410	0.0144395
622.488	0.0143796
622.567	0.0144622
622.645	0.0144763
622.723	0.0144774
622.801	0.0144511
622.879	0.0143945
622.957	0.0145644
623.035	0.0144947
623.113	0.0144675
623.192	0.0145760
623.270	0.0144112
623.348	0.0145206
623.426	0.0144563
623.504	0.0146100
623.582	0.0145052
623.660	0.0144972
623.738	0.0145217
623.817	0.0144849
623.895	0.0144939
623.973	0.0143805
624.051	0.0145586
624.129	0.0144552
624.207	0.0145123
624.285	0.0145061
624.363	0.0145633
624.442	0.0145599
624.520	0.0144237
624.598	0.0146176
624.676	0.0146238
624.754	0.0144678
624.832	0.0144891
624.910	0.0145578
624.988	0.0146815
625.067	0.0143548
625.145	0.0146001
625.223	0.0144601
625.301	0.0146185
625.379	0.0145376
625.457	0.0144954
625.535	0.0144275
625.613	0.0144716
625.692	0.0144183
625.770	0.0144731
625.848	0.0144595
625.926	0.0144212
626.004	0.0144353
626.082	0.0144499
626.160	0.0144948
626.238	0.0145158
626.317	0.0144182
626.395	0.0145493
626.473	0.0144576
626.551	0.0144549
626.629	0.0143909
626.707	0.0145412
626.785	0.0143627
626.863	0.0145556
626.942	0.0144558
627.020	0.0146194
627.098	0.0145583
627.176	0.0144310
627.254	0.0144300
627.332	0.0144968
627.410	0.0145215
627.488	0.0145464
627.567	0.0145396
627.645	0.0144906
627.723	0.0145116
627.801	0.0145261
627.879	0.0144981
627.957	0.0144770
628.035	0.0145906
628.113	0.0144300
628.192	0.0144627
628.270	0.0143843
628.348	0.0145134
628.426	0.0143904
628.504	0.0144400
628.582	0.0143546
628.660	0.0143777
628.738	0.0145521
628.817	0.0145629
628.895	0.0145068
628.973	0.0144669
629.051	0.0145415
629.129	0.0144945
629.207	0.0145132
629.285	0.0144603
629.363	0.0145881
629.442	0.0145469
629.520	0.0144642
629.598	0.0144073
629.676	0.0144782
629.754	0.0146250
629.832	0.0145090
629.910	0.0145343
629.988	0.0144976
630.067	0.0144911
630.145	0.0144703
630.223	0.0143593
630.301	0.0144028
630.379	0.0144971
630.457	0.0144935
630.535	0.0145494
630.613	0.0143699
630.692	0.0145281
630.770	0.0145830
630.848	0.0144420
630.926	0.0144473
631.004	0.0144774
631.082	0.0145181
631.160	0.0145483
631.238	0.0144814
631.317	0.0144242
631.395	0.0145116
631.473	0.0144846
631.551	0.0145814
631.629	0.0145155
631.707	0.0145471
631.785	0.0143930
631.863	0.0145777
631.942	0.0146140
632.020	0.0144033
632.098	0.0144965
632.176	0.0145269
632.254	0.0146284
632.332	0.0145206
632.410	0.0145260
632.488	0.0144656
632.567	0.0145514
632.645	0.0145469
632.723	0.0144699
632.801	0.0144196
632.879	0.0143697
632.957	0.0144061
633.035	0.0145635
633.113	0.0145318
633.192	0.0146082
633.270	0.0144064
633.348	0.0145932
633.426	0.0144601
633.504	0.0144592
633.582	0.0145393
633.660	0.0146263
633.738	0.0145011
633.817	0.0144702
633.895	0.0146249
633.973	0.0145602
634.051	0.0145238
634.129	0.0145686
634.207	0.0145911
634.285	0.0144521
634.363	0.0145553
634.442	0.0144815
634.520	0.0146156
634.598	0.0146368
634.676	0.0145512
634.754	0.0144910
634.832	0.0145511
634.910	0.0144821
634.988	0.0146226
635.067	0.0146376
635.145	0.0144698
635.223	0.0144632
635.301	0.0144759
635.379	0.0145503
635.457	0.0143530
635.535	0.0144343
635.613	0.0145521
635.692	0.0145284
635.770	0.0145041
635.848	0.0145064
635.926	0.0144730
636.004	0.0145271
636.082	0.0146072
636.160	0.0144865
636.238	0.0146980
636.317	0.0145309
636.395	0.0145969
636.473	0.0145412
636.551	0.0144602
636.629	0.0144518
636.707	0.0145371
636.785	0.0143505
636.863	0.0144872
636.942	0.0144515
637.020	0.0143588
637.098	0.0146106
637.176	0.0145402
637.254	0.0144395
637.332	0.0144891
637.410	0.0144101
637.488	0.0143822
637.567	0.0145209
637.645	0.0145470
637.723	0.0145736
637.801	0.0143761
637.879	0.0145451
637.957	0.0145548
638.035	0.0145322
638.113	0.0144058
638.192	0.0144842
638.270	0.0144142
638.348	0.0145934
638.426	0.0144014
638.504	0.0143757
638.582	0.0144630
638.660	0.0144978
638.738	0.0145284
638.817	0.0145088
638.895	0.0145568
638.973	0.0145163
639.051	0.0144931
639.129	0.0146282
639.207	0.0145351
639.285	0.0144252
639.363	0.0144240
639.442	0.0144543
639.520	0.0144697
639.598	0.0145186
639.676	0.0145382
639.754	0.0143820
639.832	0.0144706
639.910	0.0144969
639.988	0.0145482
640.067	0.0145020
640.145	0.0145426
640.223	0.0144800
640.301	0.0144403
640.379	0.0144653
640.457	0.0145325
640.535	0.0144662
640.613	0.0145097
640.692	0.0145870
640.770	0.0144547
640.848	0.0145461
640.926	0.0146020
641.004	0.0144807
641.082	0.0145791
641.160	0.0145293
641.238	0.0144396
641.317	0.0146070
641.395	0.0144794
641.473	0.0144004
641.551	0.0144739
641.629	0.0144349
641.707	0.0145650
641.785	0.0145739
641.863	0.0144705
641.942	0.0146302
642.020	0.0144785
642.098	0.0143996
642.176	0.0145264
642.254	0.0146095
642.332	0.0143713
642.410	0.0143766
642.488	0.0146629
642.567	0.0144255
642.645	0.0145300
642.723	0.0144646
642.801	0.0144756
642.879	0.0144508
642.957	0.0145650
643.035	0.0143362
643.113	0.0144501
643.192	0.0146300
643.270	0.0144991
643.348	0.0144472
643.426	0.0145572
643.504	0.0145768
643.582	0.0145078
643.660	0.0144164
643.738	0.0144869
643.817	0.0145429
643.895	0.0145407
643.973	0.0144614
644.051	0.0145904
644.129	0.0144581
644.207	0.0145101
644.285	0.0145083
644.363	0.0144849
644.442	0.0145584
644.520	0.0145255
644.598	0.0144545
644.676	0.0144783
644.754	0.0144731
644.832	0.0146212
644.910	0.0145373
644.988	0.0144147
645.067	0.0145448
645.145	0.0144212
645.223	0.0144345
645.301	0.0145104
645.379	0.0145042
645.457	0.0143509
645.535	0.0144320
645.613	0.0145047
645.692	0.0145108
645.770	0.0145745
645.848	0.0144865
645.926	0.0144059
646.004	0.0145369
646.082	0.0145520
646.160	0.0145763
646.238	0.0145042
646.317	0.0143773
646.395	0.0145881
646.473	0.0144865
646.551	0.0144825
646.629	0.0146011
646.707	0.0144464
646.785	0.0145260
646.863	0.0145109
646.942	0.0144080
647.020	0.0144392
647.098	0.0145191
647.176	0.0142617
647.254	0.0146311
647.332	0.0145653
647.410	0.0145048
647.488	0.0145260
647.567	0.0146201
647.645	0.0146121
647.723	0.0145837
647.801	0.0145860
647.879	0.0144736
647.957	0.0143925
648.035	0.0145811
648.113	0.0147236
648.192	0.0146142
648.270	0.0145197
648.348	0.0144888
648.426	0.0144586
648.504	0.0145794
648.582	0.0145464
648.660	0.0144832
648.738	0.0145208
648.817	0.0145583
648.895	0.0144411
648.973	0.0145663
649.051	0.0144942
649.129	0.0144300
649.207	0.0145466
649.285	0.0145860
649.363	0.0145629
649.442	0.0145274
649.520	0.0144991
649.598	0.0145779
649.676	0.0145373
649.754	0.0145177
649.832	0.0146201
649.910	0.0145649
649.988	0.0145628
650.067	0.0144140
650.145	0.0144760
650.223	0.0145692
650.301	0.0143736
650.379	0.0144418
650.457	0.0145156
650.535	0.0145689
650.613	0.0144415
650.692	0.0145763
650.770	0.0144324
650.848	0.0145329
650.926	0.0145912
651.004	0.0145957
651.082	0.0147034
651.160	0.0145152
651.238	0.0145393
651.317	0.0143969
651.395	0.0146340
651.473	0.0146198
651.551	0.0144168
651.629	0.0145486
651.707	0.0145572
651.785	0.0145473
651.863	0.0145760
651.942	0.0145524
652.020	0.0144025
652.098	0.0144791
652.176	0.0145927
652.254	0.0144358
652.332	0.0145048
652.410	0.0146545
652.488	0.0146136
652.567	0.0145295
652.645	0.0144163
652.723	0.0144081
652.801	0.0145500
652.879	0.0144837
652.957	0.0146485
653.035	0.0146807
653.113	0.0144873
653.192	0.0145523
653.270	0.0145759
653.348	0.0146021
653.426	0.0145628
653.504	0.0143377
653.582	0.0144427
653.660	0.0144897
653.738	0.0145512
653.817	0.0143871
653.895	0.0145425
653.973	0.0145446
654.051	0.0145447
654.129	0.0144838
654.207	0.0147024
654.285	0.0144025
654.363	0.0145014
654.442	0.0146139
654.520	0.0145441
654.598	0.0144491
654.676	0.0146146
654.754	0.0144841
654.832	0.0145151
654.910	0.0145896
654.988	0.0145930
655.067	0.0144839
655.145	0.0145622
655.223	0.0144819
655.301	0.0145454
655.379	0.0146097
655.457	0.0144062
655.535	0.0143832
655.613	0.0143386
655.692	0.0146001
655.770	0.0145542
655.848	0.0144782
655.926	0.0144566
656.004	0.0145071
656.082	0.0145104
656.160	0.0144030
656.238	0.0144640
656.317	0.0145918
656.395	0.0145774
656.473	0.0145901
656.551	0.0144593
656.629	0.0145340
656.707	0.0144496
656.785	0.0144123
656.863	0.0146303
656.942	0.0146206
657.020	0.0145460
657.098	0.0145460
657.176	0.0146274
657.254	0.0146369
657.332	0.0145406
657.410	0.0145665
657.488	0.0145488
657.567	0.0144036
657.645	0.0143800
657.723	0.0145737
657.801	0.0144701
657.879	0.0145476
657.957	0.0143987
658.035	0.0144913
658.113	0.0143436
658.192	0.0144189
658.270	0.0143605
658.348	0.0145347
658.426	0.0145860
658.504	0.0144746
658.582	0.0144582
658.660	0.0144286
658.738	0.0145766
658.817	0.0145930
658.895	0.0145729
658.973	0.0145318
659.051	0.0144476
659.129	0.0145895
659.207	0.0145950
659.285	0.0145374
659.363	0.0144804
659.442	0.0146635
659.520	0.0144819
659.598	0.0143697
659.676	0.0144620
659.754	0.0146309
659.832	0.0144778
659.910	0.0144289
659.988	0.0144845
660.067	0.0145676
660.145	0.0144692
660.223	0.0142772
660.301	0.0145368
660.379	0.0145045
660.457	0.0145611
660.535	0.0143787
660.613	0.0145905
660.692	0.0145229
660.770	0.0143826
660.848	0.0144536
660.926	0.0144528
661.004	0.0143948
661.082	0.0144179
661.160	0.0144759
661.238	0.0144639
661.317	0.0144679
661.395	0.0144594
661.473	0.0144947
661.551	0.0146459
661.629	0.0145644
661.707	0.0144632
661.785	0.0144112
661.863	0.0143755
661.942	0.0145235
662.020	0.0145875
662.098	0.0145557
662.176	0.0144210
662.254	0.0143662
662.332	0.0143980
662.410	0.0144675
662.488	0.0145704
662.567	0.0144257
662.645	0.0144536
662.723	0.0145523
662.801	0.0144971
662.879	0.0144234
662.957	0.0145127
663.035	0.0144388
663.113	0.0143227
663.192	0.0145596
663.270	0.0145035
663.348	0.0144701
663.426	0.0143423
663.504	0.0144644
663.582	0.0144777
663.660	0.0146032
663.738	0.0146142
663.817	0.0144032
663.895	0.0144730
663.973	0.0145849
664.051	0.0144485
664.129	0.0144644
664.207	0.0144809
664.285	0.0145294
664.363	0.0145044
664.442	0.0145333
664.520	0.0145750
664.598	0.0145081
664.676	0.0145813
664.754	0.0144867
664.832	0.0143909
664.910	0.0143274
664.988	0.0146881
665.067	0.0145708
665.145	0.0144513
665.223	0.0146198
665.301	0.0145258
665.379	0.0144634
665.457	0.0144717
665.535	0.0144784
665.613	0.0144447
665.692	0.0145573
665.770	0.0145545
665.848	0.0144653
665.926	0.0144948
666.004	0.0146317
666.082	0.0144915
666.160	0.0143764
666.238	0.0144486
666.317	0.0144343
666.395	0.0144405
666.473	0.0146037
666.551	0.0144516
666.629	0.0144968
666.707	0.0146037
666.785	0.0143692
666.863	0.0143661
666.942	0.0144855
667.020	0.0144544
667.098	0.0144598
667.176	0.0143909
667.254	0.0144630
667.332	0.0145661
667.410	0.0145475
667.488	0.0144506
667.567	0.0146339
667.645	0.0145893
667.723	0.0145605
667.801	0.0144969
667.879	0.0144337
667.957	0.0144298
668.035	0.0144331
668.113	0.0144772
668.192	0.0145199
668.270	0.0145839
668.348	0.0143635
668.426	0.0144334
668.504	0.0145123
668.582	0.0144317
668.660	0.0144347
668.738	0.0145073
668.817	0.0144286
668.895	0.0144215
668.973	0.0144852
669.051	0.0144572
669.129	0.0144810
669.207	0.0144144
669.285	0.0144807
669.363	0.0144572
669.442	0.0144046
669.520	0.0144704
669.598	0.0143774
669.676	0.0144845
669.754	0.0144690
669.832	0.0145474
669.910	0.0143727
669.988	0.0144612
670.067	0.0144584
670.145	0.0145254
670.223	0.0146458
670.301	0.0144986
670.379	0.0144234
670.457	0.0145186
670.535	0.0146307
670.613	0.0145139
670.692	0.0144268
670.770	0.0144363
670.848	0.0145940
670.926	0.0144083
671.004	0.0144423
671.082	0.0144476
671.160	0.0144383
671.238	0.0144802
671.317	0.0145844
671.395	0.0145694
671.473	0.0144935
671.551	0.0144269
671.629	0.0143943
671.707	0.0146465
671.785	0.0144459
671.863	0.0145032
671.942	0.0145084
672.020	0.0145695
672.098	0.0144418
672.176	0.0145306
672.254	0.0145023
672.332	0.0145413
672.410	0.0144588
672.488	0.0144919
672.567	0.0144566
672.645	0.0145894
672.723	0.0145816
672.801	0.0146562
672.879	0.0145771
672.957	0.0145358
673.035	0.0144125
673.113	0.0144843
673.192	0.0144545
673.270	0.0145678
673.348	0.0146554
673.426	0.0145478
673.504	0.0147150
673.582	0.0145901
673.660	0.0144449
673.738	0.0146135
673.817	0.0144631
673.895	0.0145168
673.973	0.0144185
674.051	0.0144968
674.129	0.0144713
674.207	0.0145633
674.285	0.0145613
674.363	0.0145290
674.442	0.0145028
674.520	0.0144304
674.598	0.0146149
674.676	0.0145723
674.754	0.0145980
674.832	0.0145210
674.910	0.0144245
674.988	0.0143526
675.067	0.0145110
675.145	0.0144440
675.223	0.0145012
675.301	0.0144620
675.379	0.0146692
675.457	0.0145448
675.535	0.0145585
675.613	0.0144068
675.692	0.0145042
675.770	0.0145956
675.848	0.0144498
675.926	0.0145651
676.004	0.0144875
676.082	0.0144803
676.160	0.0145868
676.238	0.0144529
676.317	0.0145480
676.395	0.0145039
676.473	0.0144013
676.551	0.0145355
676.629	0.0144523
676.707	0.0144273
676.785	0.0144733
676.863	0.0144936
676.942	0.0143396
677.020	0.0144363
677.098	0.0144241
677.176	0.0146004
677.254	0.0145029
677.332	0.0144225
677.410	0.0143407
677.488	0.0145025
677.567	0.0142612
677.645	0.0145536
677.723	0.0145377
677.801	0.0144720
677.879	0.0144613
677.957	0.0144587
678.035	0.0144857
678.113	0.0142882
678.192	0.0144103
678.270	0.0144510
678.348	0.0145436
678.426	0.0144263
678.504	0.0143063
678.582	0.0143861
678.660	0.0144471
678.738	0.0143732
678.817	0.0144315
678.895	0.0144212
678.973	0.0145290
679.051	0.0144716
679.129	0.0143948
679.207	0.0144167
679.285	0.0145046
679.363	0.0145095
679.442	0.0144165
679.520	0.0144646
679.598	0.0144991
679.676	0.0144550
679.754	0.0144403
679.832	0.0144591
679.910	0.0144963
679.988	0.0144690
680.067	0.0144551
680.145	0.0143836
680.223	0.0145287
680.301	0.0144878
680.379	0.0143222
680.457	0.0144601
680.535	0.0143639
680.613	0.0144163
680.692	0.0144578
680.770	0.0145007
680.848	0.0143140
680.926	0.0144135
681.004	0.0144274
681.082	0.0142741
681.160	0.0144353
681.238	0.0145361
681.317	0.0145758
681.395	0.0145123
681.473	0.0144763
681.551	0.0145310
681.629	0.0142750
681.707	0.0145033
681.785	0.0144322
681.863	0.0144733
681.942	0.0144832
682.020	0.0145486
682.098	0.0144226
682.176	0.0145194
682.254	0.0145689
682.332	0.0146304
682.410	0.0145074
682.488	0.0145361
682.567	0.0145500
682.645	0.0145423
682.723	0.0145384
682.801	0.0146107
682.879	0.0146776
682.957	0.0147496
683.035	0.0145223
683.113	0.0144807
683.192	0.0145642
683.270	0.0144730
683.348	0.0145877
683.426	0.0146764
683.504	0.0145665
683.582	0.0146686
683.660	0.0145765
683.738	0.0145935
683.817	0.0146910
683.895	0.0145667
683.973	0.0146295
684.051	0.0146501
684.129	0.0145876
684.207	0.0146405
684.285	0.0148036
684.363	0.0145241
684.442	0.0145684
684.520	0.0146472
684.598	0.0144618
684.676	0.0146466
684.754	0.0146038
684.832	0.0145687
684.910	0.0146094
684.988	0.0144527
685.067	0.0144841
685.145	0.0147446
685.223	0.0146064
685.301	0.0144714
685.379	0.0144485
685.457	0.0145071
685.535	0.0146240
685.613	0.0146215
685.692	0.0145325
