05/28/2022	14:12:36	Ver.	4.1	UNKNOWN
Optical Delay	599.988409	Delta X		0.078125	Sweeps	1	Scan Rate	0/0
Coordinates	Axis 1	NaN	Axis 2	NaN	Axis 3	NaN	Axis 4	NaN	Axis 5	NaN	Axis 6	0.000000
TX Power	0.000000	RX Power	0.000000

599.988	0.0140086
600.067	0.0140636
600.145	0.0140460
600.223	0.0140791
600.301	0.0140143
600.379	0.0140627
600.457	0.0141637
600.535	0.0141523
600.613	0.0139029
600.692	0.0139822
600.770	0.0139097
600.848	0.0139342
600.926	0.0141296
601.004	0.0140219
601.082	0.0139938
601.160	0.0139517
601.238	0.0141445
601.317	0.0141438
601.395	0.0139914
601.473	0.0139920
601.551	0.0139085
601.629	0.0139326
601.707	0.0141206
601.785	0.0139200
601.863	0.0140008
601.942	0.0140548
602.020	0.0139356
602.098	0.0141973
602.176	0.0139106
602.254	0.0139888
602.332	0.0139861
602.410	0.0140141
602.488	0.0140562
602.567	0.0140678
602.645	0.0139928
602.723	0.0140154
602.801	0.0140137
602.879	0.0139865
602.957	0.0139497
603.035	0.0139692
603.113	0.0139324
603.192	0.0140739
603.270	0.0141071
603.348	0.0140801
603.426	0.0139594
603.504	0.0141438
603.582	0.0140049
603.660	0.0139212
603.738	0.0141212
603.817	0.0140659
603.895	0.0140408
603.973	0.0139641
604.051	0.0138754
604.129	0.0139825
604.207	0.0140599
604.285	0.0139733
604.363	0.0139262
604.442	0.0141090
604.520	0.0140474
604.598	0.0140208
604.676	0.0140005
604.754	0.0140017
604.832	0.0141035
604.910	0.0139546
604.988	0.0138963
605.067	0.0139496
605.145	0.0139863
605.223	0.0139818
605.301	0.0139708
605.379	0.0139648
605.457	0.0140440
605.535	0.0138588
605.613	0.0140517
605.692	0.0141270
605.770	0.0139197
605.848	0.0139238
605.926	0.0140191
606.004	0.0139609
606.082	0.0139655
606.160	0.0140013
606.238	0.0138926
606.317	0.0138476
606.395	0.0141376
606.473	0.0139537
606.551	0.0139021
606.629	0.0138097
606.707	0.0139658
606.785	0.0140683
606.863	0.0139034
606.942	0.0140343
607.020	0.0139893
607.098	0.0138429
607.176	0.0140805
607.254	0.0139697
607.332	0.0139085
607.410	0.0140029
607.488	0.0140051
607.567	0.0140039
607.645	0.0138493
607.723	0.0139489
607.801	0.0140459
607.879	0.0139908
607.957	0.0139464
608.035	0.0139074
608.113	0.0141082
608.192	0.0140239
608.270	0.0139693
608.348	0.0139539
608.426	0.0139629
608.504	0.0140214
608.582	0.0139658
608.660	0.0138651
608.738	0.0141069
608.817	0.0140392
608.895	0.0139644
608.973	0.0140350
609.051	0.0140428
609.129	0.0139780
609.207	0.0140725
609.285	0.0139427
609.363	0.0139575
609.442	0.0141187
609.520	0.0140327
609.598	0.0140128
609.676	0.0139230
609.754	0.0139485
609.832	0.0139820
609.910	0.0140356
609.988	0.0139725
610.067	0.0139588
610.145	0.0140060
610.223	0.0140715
610.301	0.0140783
610.379	0.0140815
610.457	0.0139491
610.535	0.0140855
610.613	0.0140459
610.692	0.0140596
610.770	0.0139441
610.848	0.0138229
610.926	0.0139266
611.004	0.0140056
611.082	0.0138956
611.160	0.0140670
611.238	0.0139047
611.317	0.0140546
611.395	0.0140482
611.473	0.0140172
611.551	0.0137929
611.629	0.0139524
611.707	0.0140420
611.785	0.0140060
611.863	0.0140282
611.942	0.0138770
612.020	0.0140525
612.098	0.0140430
612.176	0.0138958
612.254	0.0141349
612.332	0.0140407
612.410	0.0139259
612.488	0.0139970
612.567	0.0140025
612.645	0.0140289
612.723	0.0140295
612.801	0.0141724
612.879	0.0140390
612.957	0.0138937
613.035	0.0139265
613.113	0.0139833
613.192	0.0140217
613.270	0.0140910
613.348	0.0140312
613.426	0.0139458
613.504	0.0139265
613.582	0.0141462
613.660	0.0140388
613.738	0.0139963
613.817	0.0140453
613.895	0.0140948
613.973	0.0139261
614.051	0.0140485
614.129	0.0140026
614.207	0.0140665
614.285	0.0140392
614.363	0.0139555
614.442	0.0140067
614.520	0.0140462
614.598	0.0139851
614.676	0.0140885
614.754	0.0139875
614.832	0.0140853
614.910	0.0140353
614.988	0.0139236
615.067	0.0140125
615.145	0.0140368
615.223	0.0140354
615.301	0.0140430
615.379	0.0139573
615.457	0.0139628
615.535	0.0140638
615.613	0.0139070
615.692	0.0139227
615.770	0.0140220
615.848	0.0140277
615.926	0.0139968
616.004	0.0139460
616.082	0.0139523
616.160	0.0140556
616.238	0.0139847
616.317	0.0140160
616.395	0.0139295
616.473	0.0140926
616.551	0.0140530
616.629	0.0141016
616.707	0.0140257
616.785	0.0139492
616.863	0.0138831
616.942	0.0139516
617.020	0.0138947
617.098	0.0139284
617.176	0.0139303
617.254	0.0140331
617.332	0.0139695
617.410	0.0140306
617.488	0.0140583
617.567	0.0141389
617.645	0.0138428
617.723	0.0139000
617.801	0.0138743
617.879	0.0139744
617.957	0.0140459
618.035	0.0140291
618.113	0.0139447
618.192	0.0139953
618.270	0.0138836
618.348	0.0139212
618.426	0.0140231
618.504	0.0139122
618.582	0.0140294
618.660	0.0140450
618.738	0.0139899
618.817	0.0140700
618.895	0.0140358
618.973	0.0140285
619.051	0.0141386
619.129	0.0139853
619.207	0.0140147
619.285	0.0141883
619.363	0.0141020
619.442	0.0139483
619.520	0.0139814
619.598	0.0140800
619.676	0.0139884
619.754	0.0139643
619.832	0.0140450
619.910	0.0141032
619.988	0.0139217
620.067	0.0140012
620.145	0.0141084
620.223	0.0139732
620.301	0.0138807
620.379	0.0140138
620.457	0.0139442
620.535	0.0141832
620.613	0.0141550
620.692	0.0139489
620.770	0.0139896
620.848	0.0140845
620.926	0.0139005
621.004	0.0139173
621.082	0.0140388
621.160	0.0138628
621.238	0.0139113
621.317	0.0141662
621.395	0.0141105
621.473	0.0139600
621.551	0.0140193
621.629	0.0138792
621.707	0.0141072
621.785	0.0140282
621.863	0.0138925
621.942	0.0139279
622.020	0.0139182
622.098	0.0139186
622.176	0.0141062
622.254	0.0140401
622.332	0.0140897
622.410	0.0138735
622.488	0.0140049
622.567	0.0139997
622.645	0.0139980
622.723	0.0139231
622.801	0.0141316
622.879	0.0139750
622.957	0.0138809
623.035	0.0138831
623.113	0.0141205
623.192	0.0141499
623.270	0.0140614
623.348	0.0140177
623.426	0.0140435
623.504	0.0140265
623.582	0.0140483
623.660	0.0140396
623.738	0.0140278
623.817	0.0141007
623.895	0.0140331
623.973	0.0139594
624.051	0.0140277
624.129	0.0140437
624.207	0.0141047
624.285	0.0140333
624.363	0.0141456
624.442	0.0140359
624.520	0.0140617
624.598	0.0140581
624.676	0.0141982
624.754	0.0140386
624.832	0.0140464
624.910	0.0138982
624.988	0.0140882
625.067	0.0140305
625.145	0.0140185
625.223	0.0139601
625.301	0.0140129
625.379	0.0139939
625.457	0.0139785
625.535	0.0140930
625.613	0.0140601
625.692	0.0140363
625.770	0.0138467
625.848	0.0140298
625.926	0.0140130
626.004	0.0138750
626.082	0.0139571
626.160	0.0140897
626.238	0.0139630
626.317	0.0139993
626.395	0.0139671
626.473	0.0139880
626.551	0.0140565
626.629	0.0140511
626.707	0.0139383
626.785	0.0141127
626.863	0.0138737
626.942	0.0138727
627.020	0.0139500
627.098	0.0140286
627.176	0.0140360
627.254	0.0140338
627.332	0.0140260
627.410	0.0140839
627.488	0.0140414
627.567	0.0140086
627.645	0.0139892
627.723	0.0140388
627.801	0.0140244
627.879	0.0140591
627.957	0.0139684
628.035	0.0140541
628.113	0.0141399
628.192	0.0139153
628.270	0.0139719
628.348	0.0139402
628.426	0.0140926
628.504	0.0141431
628.582	0.0140190
628.660	0.0140916
628.738	0.0140222
628.817	0.0140504
628.895	0.0139427
628.973	0.0137838
629.051	0.0140603
629.129	0.0141392
629.207	0.0139869
629.285	0.0141037
629.363	0.0140845
629.442	0.0139497
629.520	0.0139718
629.598	0.0140200
629.676	0.0140650
629.754	0.0141378
629.832	0.0140471
629.910	0.0139314
629.988	0.0140408
630.067	0.0142020
630.145	0.0142553
630.223	0.0140228
630.301	0.0139935
630.379	0.0141422
630.457	0.0141410
630.535	0.0140469
630.613	0.0140713
630.692	0.0140118
630.770	0.0140432
630.848	0.0139935
630.926	0.0139867
631.004	0.0140128
631.082	0.0141689
631.160	0.0140045
631.238	0.0140024
631.317	0.0140395
631.395	0.0140435
631.473	0.0140797
631.551	0.0140839
631.629	0.0140647
631.707	0.0139471
631.785	0.0140333
631.863	0.0140260
631.942	0.0139035
632.020	0.0139117
632.098	0.0140024
632.176	0.0141841
632.254	0.0140170
632.332	0.0140129
632.410	0.0141314
632.488	0.0139490
632.567	0.0140527
632.645	0.0140398
632.723	0.0139558
632.801	0.0141621
632.879	0.0141497
632.957	0.0139977
633.035	0.0140354
633.113	0.0139544
633.192	0.0140664
633.270	0.0140261
633.348	0.0140310
633.426	0.0141988
633.504	0.0140416
633.582	0.0141264
633.660	0.0141039
633.738	0.0140221
633.817	0.0140808
633.895	0.0140945
633.973	0.0140929
634.051	0.0140469
634.129	0.0140236
634.207	0.0139397
634.285	0.0141016
634.363	0.0140588
634.442	0.0140060
634.520	0.0140194
634.598	0.0140589
634.676	0.0141157
634.754	0.0140894
634.832	0.0139931
634.910	0.0140474
634.988	0.0140373
635.067	0.0139951
635.145	0.0141326
635.223	0.0141172
635.301	0.0139880
635.379	0.0140174
635.457	0.0142045
635.535	0.0141058
635.613	0.0139791
635.692	0.0140225
635.770	0.0139960
635.848	0.0141531
635.926	0.0140422
636.004	0.0141080
636.082	0.0140855
636.160	0.0141341
636.238	0.0140807
636.317	0.0140067
636.395	0.0140266
636.473	0.0140067
636.551	0.0139648
636.629	0.0140339
636.707	0.0140762
636.785	0.0140670
636.863	0.0139825
636.942	0.0141008
637.020	0.0140934
637.098	0.0141516
637.176	0.0142277
637.254	0.0140922
637.332	0.0139570
637.410	0.0141245
637.488	0.0139452
637.567	0.0139995
637.645	0.0139457
637.723	0.0140613
637.801	0.0139668
637.879	0.0141553
637.957	0.0139946
638.035	0.0140297
638.113	0.0140488
638.192	0.0140202
638.270	0.0140892
638.348	0.0140708
638.426	0.0140196
638.504	0.0140435
638.582	0.0139716
638.660	0.0139026
638.738	0.0139505
638.817	0.0140016
638.895	0.0140577
638.973	0.0140182
639.051	0.0139874
639.129	0.0139939
639.207	0.0140884
639.285	0.0142460
639.363	0.0140456
639.442	0.0139604
639.520	0.0140076
639.598	0.0141782
639.676	0.0141502
639.754	0.0140670
639.832	0.0142138
639.910	0.0141034
639.988	0.0139624
640.067	0.0141914
640.145	0.0140491
640.223	0.0140997
640.301	0.0139462
640.379	0.0141854
640.457	0.0141920
640.535	0.0140843
640.613	0.0140975
640.692	0.0139554
640.770	0.0141553
640.848	0.0142464
640.926	0.0140978
641.004	0.0141021
641.082	0.0139946
641.160	0.0139440
641.238	0.0140345
641.317	0.0141567
641.395	0.0140505
641.473	0.0141953
641.551	0.0140951
641.629	0.0139067
641.707	0.0139488
641.785	0.0140028
641.863	0.0140305
641.942	0.0140401
642.020	0.0138345
642.098	0.0139690
642.176	0.0138661
642.254	0.0139054
642.332	0.0141335
642.410	0.0140406
642.488	0.0140678
642.567	0.0140423
642.645	0.0139184
642.723	0.0139862
642.801	0.0140350
642.879	0.0139119
642.957	0.0139130
643.035	0.0140629
643.113	0.0139530
643.192	0.0139511
643.270	0.0139877
643.348	0.0140774
643.426	0.0139369
643.504	0.0139148
643.582	0.0139726
643.660	0.0139625
643.738	0.0140471
643.817	0.0139571
643.895	0.0139096
643.973	0.0140004
644.051	0.0140283
644.129	0.0139101
644.207	0.0141190
644.285	0.0138953
644.363	0.0139873
644.442	0.0139400
644.520	0.0139760
644.598	0.0139729
644.676	0.0140292
644.754	0.0139681
644.832	0.0141510
644.910	0.0140221
644.988	0.0139420
645.067	0.0139863
645.145	0.0140903
645.223	0.0139613
645.301	0.0139512
645.379	0.0140501
645.457	0.0140184
645.535	0.0139920
645.613	0.0140319
645.692	0.0139653
645.770	0.0139818
645.848	0.0139059
645.926	0.0139923
646.004	0.0140836
646.082	0.0141260
646.160	0.0140788
646.238	0.0138981
646.317	0.0139211
646.395	0.0140467
646.473	0.0140259
646.551	0.0138978
646.629	0.0140777
646.707	0.0140550
646.785	0.0140252
646.863	0.0139309
646.942	0.0140136
647.020	0.0139388
647.098	0.0140065
647.176	0.0139742
647.254	0.0141468
647.332	0.0138857
647.410	0.0139203
647.488	0.0139959
647.567	0.0140485
647.645	0.0141421
647.723	0.0141599
647.801	0.0140469
647.879	0.0140031
647.957	0.0140324
648.035	0.0140208
648.113	0.0140847
648.192	0.0140292
648.270	0.0140087
648.348	0.0140811
648.426	0.0140544
648.504	0.0140840
648.582	0.0139892
648.660	0.0139547
648.738	0.0140698
648.817	0.0140268
648.895	0.0140939
648.973	0.0139880
649.051	0.0141630
649.129	0.0141578
649.207	0.0140604
649.285	0.0140371
649.363	0.0139500
649.442	0.0140187
649.520	0.0141148
649.598	0.0140413
649.676	0.0139921
649.754	0.0139099
649.832	0.0139261
649.910	0.0139948
649.988	0.0139612
650.067	0.0140762
650.145	0.0140832
650.223	0.0140456
650.301	0.0142278
650.379	0.0140971
650.457	0.0140645
650.535	0.0141759
650.613	0.0140468
650.692	0.0140914
650.770	0.0142558
650.848	0.0142001
650.926	0.0140177
651.004	0.0141763
651.082	0.0143108
651.160	0.0141652
651.238	0.0141314
651.317	0.0140767
651.395	0.0143556
651.473	0.0143441
651.551	0.0143198
651.629	0.0141774
651.707	0.0140546
651.785	0.0141861
651.863	0.0140013
651.942	0.0140009
652.020	0.0139529
652.098	0.0138263
652.176	0.0138126
652.254	0.0137847
652.332	0.0138612
652.410	0.0137626
652.488	0.0136540
652.567	0.0138025
652.645	0.0137727
652.723	0.0138769
652.801	0.0138867
652.879	0.0139500
652.957	0.0141325
653.035	0.0140491
653.113	0.0140566
653.192	0.0141060
653.270	0.0140147
653.348	0.0140381
653.426	0.0140179
653.504	0.0141508
653.582	0.0143058
653.660	0.0143189
653.738	0.0143127
653.817	0.0143912
653.895	0.0142866
653.973	0.0141044
654.051	0.0140746
654.129	0.0141779
654.207	0.0141895
654.285	0.0141491
654.363	0.0140869
654.442	0.0142927
654.520	0.0141393
654.598	0.0143159
654.676	0.0141799
654.754	0.0143086
654.832	0.0141767
654.910	0.0142103
654.988	0.0142616
655.067	0.0143947
655.145	0.0141801
655.223	0.0140626
655.301	0.0141344
655.379	0.0141056
655.457	0.0139872
655.535	0.0139698
655.613	0.0138530
655.692	0.0138633
655.770	0.0137495
655.848	0.0137922
655.926	0.0137885
656.004	0.0138786
656.082	0.0138801
656.160	0.0138453
656.238	0.0139471
656.317	0.0139172
656.395	0.0139496
656.473	0.0138245
656.551	0.0137254
656.629	0.0138075
656.707	0.0137354
656.785	0.0135985
656.863	0.0134456
656.942	0.0136378
657.020	0.0135894
657.098	0.0134830
657.176	0.0134435
657.254	0.0134565
657.332	0.0134810
657.410	0.0135683
657.488	0.0137145
657.567	0.0137821
657.645	0.0139274
657.723	0.0140874
657.801	0.0141874
657.879	0.0142595
657.957	0.0144183
658.035	0.0144796
658.113	0.0144621
658.192	0.0145374
658.270	0.0144656
658.348	0.0143732
658.426	0.0144144
658.504	0.0145506
658.582	0.0143342
658.660	0.0144223
658.738	0.0144540
658.817	0.0144890
658.895	0.0145206
658.973	0.0145059
659.051	0.0145219
659.129	0.0143800
659.207	0.0143089
659.285	0.0143971
659.363	0.0142051
659.442	0.0142281
659.520	0.0142317
659.598	0.0141179
659.676	0.0140205
659.754	0.0143106
659.832	0.0141688
659.910	0.0141989
659.988	0.0141304
660.067	0.0141666
660.145	0.0140417
660.223	0.0140367
660.301	0.0139803
660.379	0.0139706
660.457	0.0137669
660.535	0.0136732
660.613	0.0135364
660.692	0.0134113
660.770	0.0134222
660.848	0.0131594
660.926	0.0129492
661.004	0.0130358
661.082	0.0129053
661.160	0.0128446
661.238	0.0129457
661.317	0.0129652
661.395	0.0131438
661.473	0.0131255
661.551	0.0132957
661.629	0.0135215
661.707	0.0135666
661.785	0.0137706
661.863	0.0140271
661.942	0.0143359
662.020	0.0144503
662.098	0.0144746
662.176	0.0147519
662.254	0.0146804
662.332	0.0146275
662.410	0.0147342
662.488	0.0148817
662.567	0.0146910
662.645	0.0147128
662.723	0.0146017
662.801	0.0147055
662.879	0.0147245
662.957	0.0144817
663.035	0.0145571
663.113	0.0144238
663.192	0.0144283
663.270	0.0145729
663.348	0.0143808
663.426	0.0143996
663.504	0.0143186
663.582	0.0142580
663.660	0.0140848
663.738	0.0141819
663.817	0.0141393
663.895	0.0142197
663.973	0.0141259
664.051	0.0140374
664.129	0.0142097
664.207	0.0143884
664.285	0.0143006
664.363	0.0143025
664.442	0.0142371
664.520	0.0142078
664.598	0.0142133
664.676	0.0142075
664.754	0.0141113
664.832	0.0139152
664.910	0.0138328
664.988	0.0137498
665.067	0.0136488
665.145	0.0135477
665.223	0.0135367
665.301	0.0135086
665.379	0.0134142
665.457	0.0135244
665.535	0.0135224
665.613	0.0133283
665.692	0.0134327
665.770	0.0133648
665.848	0.0133062
665.926	0.0131873
666.004	0.0132786
666.082	0.0133482
666.160	0.0133216
666.238	0.0135441
666.317	0.0135461
666.395	0.0134533
666.473	0.0135385
666.551	0.0136211
666.629	0.0136240
666.707	0.0137661
666.785	0.0138612
666.863	0.0139977
666.942	0.0139143
667.020	0.0140243
667.098	0.0140853
667.176	0.0141485
667.254	0.0141328
667.332	0.0143585
667.410	0.0143570
667.488	0.0143796
667.567	0.0146172
667.645	0.0147320
667.723	0.0147098
667.801	0.0147539
667.879	0.0148370
667.957	0.0149670
668.035	0.0150005
668.113	0.0148864
668.192	0.0149081
668.270	0.0147256
668.348	0.0146320
668.426	0.0146649
668.504	0.0144808
668.582	0.0144789
668.660	0.0144646
668.738	0.0143813
668.817	0.0144070
668.895	0.0142915
668.973	0.0141640
669.051	0.0142632
669.129	0.0141753
669.207	0.0143338
669.285	0.0142313
669.363	0.0142105
669.442	0.0142902
669.520	0.0141119
669.598	0.0140851
669.676	0.0139609
669.754	0.0139384
669.832	0.0138429
669.910	0.0138037
669.988	0.0138984
670.067	0.0136716
670.145	0.0134750
670.223	0.0135184
670.301	0.0134801
670.379	0.0134238
670.457	0.0134285
670.535	0.0134706
670.613	0.0132205
670.692	0.0133883
670.770	0.0133026
670.848	0.0132274
670.926	0.0133530
671.004	0.0135280
671.082	0.0135660
671.160	0.0134211
671.238	0.0135548
671.317	0.0136436
671.395	0.0136880
671.473	0.0136357
671.551	0.0136700
671.629	0.0138179
671.707	0.0137512
671.785	0.0137979
671.863	0.0138475
671.942	0.0138051
672.020	0.0137392
672.098	0.0140217
672.176	0.0139049
672.254	0.0140025
672.332	0.0141544
672.410	0.0141737
672.488	0.0141628
672.567	0.0143587
672.645	0.0143259
672.723	0.0144498
672.801	0.0145850
672.879	0.0143803
672.957	0.0145081
673.035	0.0144075
673.113	0.0146318
673.192	0.0146241
673.270	0.0146201
673.348	0.0146912
673.426	0.0146375
673.504	0.0147905
673.582	0.0148043
673.660	0.0148309
673.738	0.0147643
673.817	0.0148260
673.895	0.0146797
673.973	0.0146907
674.051	0.0143937
674.129	0.0143742
674.207	0.0142739
674.285	0.0141317
674.363	0.0140021
674.442	0.0138653
674.520	0.0136393
674.598	0.0135748
674.676	0.0134787
674.754	0.0133616
674.832	0.0132410
674.910	0.0133334
674.988	0.0135140
675.067	0.0133765
675.145	0.0136002
675.223	0.0136809
675.301	0.0138426
675.379	0.0139137
675.457	0.0139906
675.535	0.0142224
675.613	0.0143233
675.692	0.0144191
675.770	0.0145810
675.848	0.0145204
675.926	0.0145278
676.004	0.0145092
676.082	0.0143878
676.160	0.0143565
676.238	0.0142275
676.317	0.0140337
676.395	0.0139486
676.473	0.0136713
676.551	0.0132755
676.629	0.0131890
676.707	0.0130497
676.785	0.0130025
676.863	0.0128627
676.942	0.0127561
677.020	0.0127885
677.098	0.0129084
677.176	0.0129639
677.254	0.0130106
677.332	0.0131651
677.410	0.0134483
677.488	0.0135171
677.567	0.0135526
677.645	0.0137415
677.723	0.0138880
677.801	0.0140355
677.879	0.0141747
677.957	0.0143726
678.035	0.0144115
678.113	0.0145674
678.192	0.0145229
678.270	0.0145954
678.348	0.0145893
678.426	0.0146499
678.504	0.0145802
678.582	0.0145730
678.660	0.0146319
678.738	0.0146391
678.817	0.0145155
678.895	0.0144346
678.973	0.0144785
679.051	0.0144929
679.129	0.0144519
679.207	0.0143768
679.285	0.0143053
679.363	0.0143298
679.442	0.0141779
679.520	0.0139884
679.598	0.0140396
679.676	0.0138867
679.754	0.0139144
679.832	0.0138823
679.910	0.0137926
679.988	0.0136849
680.067	0.0136185
680.145	0.0138022
680.223	0.0138443
680.301	0.0140305
680.379	0.0139897
680.457	0.0141677
680.535	0.0141961
680.613	0.0143936
680.692	0.0144877
680.770	0.0145587
680.848	0.0146700
680.926	0.0147034
681.004	0.0147918
681.082	0.0148005
681.160	0.0148822
681.238	0.0148505
681.317	0.0145863
681.395	0.0146191
681.473	0.0145065
681.551	0.0144869
681.629	0.0141816
681.707	0.0141135
681.785	0.0140628
681.863	0.0138882
681.942	0.0136578
682.020	0.0133923
682.098	0.0132090
682.176	0.0130956
682.254	0.0129971
682.332	0.0126626
682.410	0.0126818
682.488	0.0124638
682.567	0.0123476
682.645	0.0124845
682.723	0.0123184
682.801	0.0124660
682.879	0.0125419
682.957	0.0127187
683.035	0.0128075
683.113	0.0130019
683.192	0.0132854
683.270	0.0132412
683.348	0.0137587
683.426	0.0140006
683.504	0.0139930
683.582	0.0141023
683.660	0.0142610
683.738	0.0143758
683.817	0.0144373
683.895	0.0146304
683.973	0.0146037
684.051	0.0147369
684.129	0.0146859
684.207	0.0146141
684.285	0.0145453
684.363	0.0145947
684.442	0.0145821
684.520	0.0145019
684.598	0.0145240
684.676	0.0144691
684.754	0.0144720
684.832	0.0144965
684.910	0.0144983
684.988	0.0144199
685.067	0.0144665
685.145	0.0145518
685.223	0.0146027
685.301	0.0145742
685.379	0.0146061
685.457	0.0146510
685.535	0.0146111
685.613	0.0147577
685.692	0.0147787
