05/28/2022	14:12:56	Ver.	4.1	UNKNOWN
Optical Delay	599.988409	Delta X		0.078125	Sweeps	1	Scan Rate	0/0
Coordinates	Axis 1	NaN	Axis 2	NaN	Axis 3	NaN	Axis 4	NaN	Axis 5	NaN	Axis 6	0.000000
TX Power	0.000000	RX Power	0.000000

599.988	0.0143218
600.067	0.0143290
600.145	0.0144424
600.223	0.0143186
600.301	0.0141817
600.379	0.0143607
600.457	0.0142284
600.535	0.0143840
600.613	0.0142822
600.692	0.0142224
600.770	0.0140939
600.848	0.0143675
600.926	0.0143378
601.004	0.0142971
601.082	0.0143604
601.160	0.0143333
601.238	0.0142860
601.317	0.0142233
601.395	0.0142524
601.473	0.0143629
601.551	0.0142952
601.629	0.0143901
601.707	0.0143520
601.785	0.0142740
601.863	0.0143509
601.942	0.0142650
602.020	0.0143955
602.098	0.0143575
602.176	0.0143443
602.254	0.0144365
602.332	0.0144273
602.410	0.0142209
602.488	0.0144107
602.567	0.0143271
602.645	0.0142764
602.723	0.0143826
602.801	0.0144177
602.879	0.0145155
602.957	0.0144604
603.035	0.0142165
603.113	0.0143121
603.192	0.0142638
603.270	0.0143524
603.348	0.0143767
603.426	0.0143669
603.504	0.0142506
603.582	0.0144331
603.660	0.0143871
603.738	0.0141988
603.817	0.0143125
603.895	0.0143324
603.973	0.0143228
604.051	0.0141741
604.129	0.0143993
604.207	0.0144643
604.285	0.0143365
604.363	0.0142209
604.442	0.0143377
604.520	0.0144437
604.598	0.0143036
604.676	0.0143726
604.754	0.0144271
604.832	0.0143654
604.910	0.0143301
604.988	0.0143195
605.067	0.0142707
605.145	0.0142769
605.223	0.0143891
605.301	0.0143044
605.379	0.0143251
605.457	0.0141991
605.535	0.0143481
605.613	0.0142671
605.692	0.0144337
605.770	0.0143764
605.848	0.0142548
605.926	0.0143544
606.004	0.0142994
606.082	0.0143005
606.160	0.0144581
606.238	0.0143420
606.317	0.0142598
606.395	0.0142875
606.473	0.0142941
606.551	0.0144753
606.629	0.0143174
606.707	0.0142312
606.785	0.0143697
606.863	0.0145321
606.942	0.0142892
607.020	0.0143423
607.098	0.0143349
607.176	0.0142903
607.254	0.0144404
607.332	0.0143262
607.410	0.0142739
607.488	0.0144517
607.567	0.0144022
607.645	0.0144205
607.723	0.0144386
607.801	0.0143944
607.879	0.0143155
607.957	0.0143838
608.035	0.0143761
608.113	0.0143680
608.192	0.0144186
608.270	0.0144367
608.348	0.0143748
608.426	0.0145085
608.504	0.0144137
608.582	0.0143444
608.660	0.0145464
608.738	0.0144402
608.817	0.0144981
608.895	0.0144505
608.973	0.0143053
609.051	0.0143926
609.129	0.0143289
609.207	0.0142740
609.285	0.0142648
609.363	0.0143867
609.442	0.0144138
609.520	0.0143920
609.598	0.0143665
609.676	0.0144488
609.754	0.0144772
609.832	0.0143388
609.910	0.0144491
609.988	0.0143602
610.067	0.0143631
610.145	0.0144774
610.223	0.0143956
610.301	0.0144324
610.379	0.0143960
610.457	0.0142916
610.535	0.0141991
610.613	0.0143811
610.692	0.0144571
610.770	0.0142867
610.848	0.0144698
610.926	0.0144213
611.004	0.0144239
611.082	0.0143429
611.160	0.0144759
611.238	0.0143754
611.317	0.0144260
611.395	0.0142881
611.473	0.0143204
611.551	0.0142746
611.629	0.0142874
611.707	0.0142657
611.785	0.0144732
611.863	0.0143802
611.942	0.0143450
612.020	0.0143540
612.098	0.0142259
612.176	0.0144396
612.254	0.0144104
612.332	0.0143644
612.410	0.0143692
612.488	0.0142855
612.567	0.0143888
612.645	0.0144271
612.723	0.0143279
612.801	0.0143646
612.879	0.0143389
612.957	0.0143388
613.035	0.0144299
613.113	0.0143424
613.192	0.0143050
613.270	0.0142759
613.348	0.0144344
613.426	0.0143577
613.504	0.0144739
613.582	0.0144572
613.660	0.0144490
613.738	0.0144862
613.817	0.0144371
613.895	0.0144165
613.973	0.0143267
614.051	0.0144736
614.129	0.0144381
614.207	0.0144294
614.285	0.0143187
614.363	0.0143820
614.442	0.0143679
614.520	0.0143382
614.598	0.0144089
614.676	0.0144131
614.754	0.0144355
614.832	0.0144424
614.910	0.0144132
614.988	0.0144492
615.067	0.0144030
615.145	0.0143901
615.223	0.0144945
615.301	0.0143010
615.379	0.0142713
615.457	0.0143350
615.535	0.0142651
615.613	0.0144082
615.692	0.0144444
615.770	0.0143591
615.848	0.0142764
615.926	0.0145435
616.004	0.0143266
616.082	0.0143816
616.160	0.0143982
616.238	0.0144550
616.317	0.0143938
616.395	0.0143112
616.473	0.0144370
616.551	0.0143610
616.629	0.0143987
616.707	0.0143737
616.785	0.0143172
616.863	0.0142730
616.942	0.0144165
617.020	0.0143531
617.098	0.0142841
617.176	0.0142644
617.254	0.0143677
617.332	0.0143953
617.410	0.0143869
617.488	0.0143900
617.567	0.0143405
617.645	0.0143449
617.723	0.0143642
617.801	0.0143185
617.879	0.0143407
617.957	0.0144154
618.035	0.0144283
618.113	0.0142657
618.192	0.0144018
618.270	0.0143588
618.348	0.0144176
618.426	0.0143469
618.504	0.0143046
618.582	0.0144270
618.660	0.0143554
618.738	0.0143010
618.817	0.0144416
618.895	0.0144701
618.973	0.0144497
619.051	0.0143639
619.129	0.0143400
619.207	0.0144014
619.285	0.0144547
619.363	0.0144586
619.442	0.0142725
619.520	0.0143279
619.598	0.0143162
619.676	0.0144048
619.754	0.0144115
619.832	0.0142681
619.910	0.0142830
619.988	0.0143547
620.067	0.0144106
620.145	0.0143320
620.223	0.0143077
620.301	0.0143646
620.379	0.0143752
620.457	0.0143786
620.535	0.0142613
620.613	0.0145378
620.692	0.0142756
620.770	0.0142913
620.848	0.0144783
620.926	0.0143907
621.004	0.0143877
621.082	0.0143494
621.160	0.0143696
621.238	0.0142792
621.317	0.0143900
621.395	0.0143681
621.473	0.0143118
621.551	0.0143290
621.629	0.0144114
621.707	0.0142661
621.785	0.0142661
621.863	0.0144287
621.942	0.0142487
622.020	0.0143530
622.098	0.0144902
622.176	0.0142561
622.254	0.0143579
622.332	0.0144083
622.410	0.0144151
622.488	0.0143308
622.567	0.0142971
622.645	0.0144051
622.723	0.0143701
622.801	0.0143906
622.879	0.0142966
622.957	0.0143236
623.035	0.0145169
623.113	0.0142773
623.192	0.0143619
623.270	0.0144279
623.348	0.0142586
623.426	0.0141723
623.504	0.0143630
623.582	0.0143445
623.660	0.0144339
623.738	0.0142945
623.817	0.0143626
623.895	0.0143734
623.973	0.0144187
624.051	0.0143886
624.129	0.0142419
624.207	0.0144221
624.285	0.0143754
624.363	0.0143330
624.442	0.0143768
624.520	0.0143629
624.598	0.0143021
624.676	0.0143198
624.754	0.0143022
624.832	0.0144782
624.910	0.0144028
624.988	0.0143830
625.067	0.0143959
625.145	0.0144502
625.223	0.0144769
625.301	0.0143316
625.379	0.0143082
625.457	0.0142677
625.535	0.0143021
625.613	0.0143572
625.692	0.0144428
625.770	0.0143987
625.848	0.0144444
625.926	0.0143466
626.004	0.0143774
626.082	0.0143431
626.160	0.0142576
626.238	0.0143554
626.317	0.0143651
626.395	0.0144422
626.473	0.0142725
626.551	0.0143066
626.629	0.0144096
626.707	0.0143103
626.785	0.0143958
626.863	0.0144088
626.942	0.0144521
627.020	0.0144423
627.098	0.0143665
627.176	0.0143713
627.254	0.0143033
627.332	0.0142242
627.410	0.0143234
627.488	0.0143354
627.567	0.0143262
627.645	0.0143310
627.723	0.0143385
627.801	0.0144646
627.879	0.0143406
627.957	0.0144325
628.035	0.0143629
628.113	0.0144669
628.192	0.0144093
628.270	0.0144273
628.348	0.0144874
628.426	0.0144714
628.504	0.0143675
628.582	0.0143907
628.660	0.0143176
628.738	0.0143081
628.817	0.0144866
628.895	0.0144334
628.973	0.0144303
629.051	0.0143951
629.129	0.0143499
629.207	0.0143565
629.285	0.0144208
629.363	0.0143702
629.442	0.0143212
629.520	0.0143525
629.598	0.0143846
629.676	0.0143658
629.754	0.0141706
629.832	0.0142403
629.910	0.0144138
629.988	0.0143674
630.067	0.0143583
630.145	0.0143597
630.223	0.0143493
630.301	0.0143675
630.379	0.0145243
630.457	0.0142897
630.535	0.0142621
630.613	0.0144337
630.692	0.0143000
630.770	0.0142585
630.848	0.0143758
630.926	0.0142844
631.004	0.0142576
631.082	0.0143935
631.160	0.0143742
631.238	0.0143705
631.317	0.0143110
631.395	0.0143188
631.473	0.0142937
631.551	0.0143638
631.629	0.0144389
631.707	0.0143922
631.785	0.0142907
631.863	0.0142297
631.942	0.0143232
632.020	0.0142484
632.098	0.0142587
632.176	0.0142840
632.254	0.0143378
632.332	0.0143309
632.410	0.0143194
632.488	0.0144038
632.567	0.0143993
632.645	0.0143868
632.723	0.0143832
632.801	0.0143030
632.879	0.0143369
632.957	0.0144866
633.035	0.0143866
633.113	0.0143370
633.192	0.0143955
633.270	0.0142976
633.348	0.0144891
633.426	0.0144874
633.504	0.0143093
633.582	0.0144646
633.660	0.0143165
633.738	0.0143912
633.817	0.0145158
633.895	0.0143745
633.973	0.0144435
634.051	0.0144114
634.129	0.0143717
634.207	0.0144498
634.285	0.0144020
634.363	0.0141280
634.442	0.0143420
634.520	0.0144858
634.598	0.0144778
634.676	0.0143957
634.754	0.0144072
634.832	0.0143182
634.910	0.0143816
634.988	0.0143732
635.067	0.0143546
635.145	0.0143715
635.223	0.0143014
635.301	0.0144102
635.379	0.0143356
635.457	0.0144588
635.535	0.0142725
635.613	0.0143817
635.692	0.0143726
635.770	0.0144181
635.848	0.0143127
635.926	0.0143968
636.004	0.0143805
636.082	0.0144084
636.160	0.0143082
636.238	0.0143701
636.317	0.0143697
636.395	0.0143478
636.473	0.0142487
636.551	0.0143333
636.629	0.0142802
636.707	0.0143182
636.785	0.0143668
636.863	0.0145031
636.942	0.0143484
637.020	0.0143906
637.098	0.0143304
637.176	0.0143296
637.254	0.0143475
637.332	0.0143863
637.410	0.0142850
637.488	0.0143905
637.567	0.0143855
637.645	0.0143709
637.723	0.0142364
637.801	0.0143644
637.879	0.0142996
637.957	0.0143151
638.035	0.0143659
638.113	0.0143380
638.192	0.0143983
638.270	0.0144676
638.348	0.0144324
638.426	0.0144325
638.504	0.0142659
638.582	0.0142697
638.660	0.0142601
638.738	0.0143193
638.817	0.0142717
638.895	0.0143333
638.973	0.0143353
639.051	0.0143600
639.129	0.0143772
639.207	0.0143459
639.285	0.0144247
639.363	0.0144432
639.442	0.0144231
639.520	0.0141641
639.598	0.0144430
639.676	0.0143233
639.754	0.0143182
639.832	0.0143858
639.910	0.0144811
639.988	0.0143060
640.067	0.0142575
640.145	0.0142729
640.223	0.0142734
640.301	0.0143501
640.379	0.0142457
640.457	0.0143166
640.535	0.0143795
640.613	0.0143044
640.692	0.0142992
640.770	0.0143763
640.848	0.0143261
640.926	0.0143023
641.004	0.0143396
641.082	0.0142532
641.160	0.0142711
641.238	0.0143419
641.317	0.0142862
641.395	0.0142583
641.473	0.0144956
641.551	0.0143297
641.629	0.0143930
641.707	0.0143124
641.785	0.0142496
641.863	0.0142779
641.942	0.0142757
642.020	0.0143527
642.098	0.0143606
642.176	0.0143668
642.254	0.0142909
642.332	0.0144528
642.410	0.0142952
642.488	0.0142129
642.567	0.0142944
642.645	0.0143690
642.723	0.0141984
642.801	0.0142958
642.879	0.0143354
642.957	0.0142611
643.035	0.0143652
643.113	0.0143227
643.192	0.0143024
643.270	0.0142442
643.348	0.0142430
643.426	0.0142140
643.504	0.0144738
643.582	0.0144079
643.660	0.0144483
643.738	0.0143660
643.817	0.0143412
643.895	0.0142442
643.973	0.0144258
644.051	0.0143498
644.129	0.0144883
644.207	0.0143547
644.285	0.0143075
644.363	0.0144614
644.442	0.0143646
644.520	0.0143800
644.598	0.0144715
644.676	0.0144330
644.754	0.0144273
644.832	0.0143983
644.910	0.0144520
644.988	0.0144534
645.067	0.0144640
645.145	0.0144895
645.223	0.0143086
645.301	0.0144934
645.379	0.0144653
645.457	0.0143218
645.535	0.0143194
645.613	0.0143303
645.692	0.0144278
645.770	0.0144658
645.848	0.0143755
645.926	0.0144108
646.004	0.0144146
646.082	0.0144882
646.160	0.0144638
646.238	0.0144886
646.317	0.0144617
646.395	0.0143546
646.473	0.0141756
646.551	0.0144664
646.629	0.0142865
646.707	0.0143425
646.785	0.0144602
646.863	0.0142747
646.942	0.0143252
647.020	0.0144254
647.098	0.0144592
647.176	0.0143855
647.254	0.0144210
647.332	0.0143642
647.410	0.0143687
647.488	0.0143838
647.567	0.0144479
647.645	0.0144157
647.723	0.0144790
647.801	0.0145327
647.879	0.0144431
647.957	0.0144418
648.035	0.0144417
648.113	0.0143972
648.192	0.0144095
648.270	0.0143684
648.348	0.0143672
648.426	0.0144584
648.504	0.0144724
648.582	0.0143932
648.660	0.0144325
648.738	0.0142731
648.817	0.0144212
648.895	0.0145155
648.973	0.0143747
649.051	0.0143163
649.129	0.0143324
649.207	0.0144089
649.285	0.0143927
649.363	0.0143417
649.442	0.0144313
649.520	0.0143538
649.598	0.0145088
649.676	0.0142899
649.754	0.0144386
649.832	0.0144976
649.910	0.0145389
649.988	0.0145276
650.067	0.0144367
650.145	0.0145180
650.223	0.0146992
650.301	0.0145126
650.379	0.0144410
650.457	0.0144524
650.535	0.0145921
650.613	0.0146746
650.692	0.0146191
650.770	0.0146313
650.848	0.0144820
650.926	0.0144095
651.004	0.0143346
651.082	0.0142601
651.160	0.0140846
651.238	0.0140827
651.317	0.0140780
651.395	0.0140120
651.473	0.0140463
651.551	0.0141731
651.629	0.0140870
651.707	0.0141737
651.785	0.0141281
651.863	0.0141276
651.942	0.0141522
652.020	0.0142536
652.098	0.0143038
652.176	0.0142762
652.254	0.0143604
652.332	0.0145196
652.410	0.0143745
652.488	0.0144600
652.567	0.0144196
652.645	0.0144119
652.723	0.0144730
652.801	0.0145871
652.879	0.0145192
652.957	0.0145182
653.035	0.0144180
653.113	0.0144286
653.192	0.0145518
653.270	0.0144658
653.348	0.0145298
653.426	0.0143864
653.504	0.0143793
653.582	0.0144130
653.660	0.0144080
653.738	0.0145284
653.817	0.0146153
653.895	0.0146786
653.973	0.0146030
654.051	0.0146140
654.129	0.0146957
654.207	0.0145162
654.285	0.0145606
654.363	0.0145060
654.442	0.0144218
654.520	0.0144116
654.598	0.0143546
654.676	0.0141483
654.754	0.0142446
654.832	0.0141370
654.910	0.0140921
654.988	0.0141384
655.067	0.0141339
655.145	0.0141214
655.223	0.0141949
655.301	0.0141521
655.379	0.0141048
655.457	0.0141176
655.535	0.0141194
655.613	0.0141919
655.692	0.0141897
655.770	0.0140593
655.848	0.0140681
655.926	0.0141074
656.004	0.0139625
656.082	0.0139481
656.160	0.0138875
656.238	0.0138300
656.317	0.0138138
656.395	0.0139643
656.473	0.0138319
656.551	0.0139414
656.629	0.0140548
656.707	0.0142991
656.785	0.0142844
656.863	0.0144306
656.942	0.0143006
657.020	0.0144987
657.098	0.0146696
657.176	0.0145496
657.254	0.0147694
657.332	0.0146970
657.410	0.0146149
657.488	0.0146154
657.567	0.0147179
657.645	0.0147503
657.723	0.0147626
657.801	0.0148875
657.879	0.0149257
657.957	0.0147778
658.035	0.0146404
658.113	0.0146342
658.192	0.0148452
658.270	0.0147602
658.348	0.0145199
658.426	0.0145551
658.504	0.0147212
658.582	0.0145317
658.660	0.0145318
658.738	0.0144599
658.817	0.0145500
658.895	0.0145628
658.973	0.0144843
659.051	0.0146103
659.129	0.0145531
659.207	0.0145704
659.285	0.0144856
659.363	0.0143268
659.442	0.0143745
659.520	0.0143089
659.598	0.0140376
659.676	0.0141629
659.754	0.0140935
659.832	0.0139460
659.910	0.0137352
659.988	0.0136212
660.067	0.0134857
660.145	0.0133398
660.223	0.0132500
660.301	0.0130950
660.379	0.0130708
660.457	0.0132253
660.535	0.0132413
660.613	0.0133327
660.692	0.0134345
660.770	0.0136490
660.848	0.0139173
660.926	0.0140052
661.004	0.0143177
661.082	0.0143999
661.160	0.0145338
661.238	0.0147015
661.317	0.0150333
661.395	0.0150140
661.473	0.0149780
661.551	0.0150236
661.629	0.0151163
661.707	0.0150018
661.785	0.0150179
661.863	0.0149284
661.942	0.0149766
662.020	0.0148897
662.098	0.0148689
662.176	0.0148942
662.254	0.0148243
662.332	0.0148553
662.410	0.0149157
662.488	0.0148621
662.567	0.0147691
662.645	0.0147340
662.723	0.0148086
662.801	0.0147767
662.879	0.0146735
662.957	0.0144065
663.035	0.0145121
663.113	0.0146355
663.192	0.0145457
663.270	0.0145236
663.348	0.0145485
663.426	0.0145935
663.504	0.0146053
663.582	0.0145397
663.660	0.0143592
663.738	0.0142483
663.817	0.0144077
663.895	0.0142378
663.973	0.0141088
664.051	0.0141846
664.129	0.0141892
664.207	0.0142266
664.285	0.0139494
664.363	0.0140601
664.442	0.0139750
664.520	0.0140520
664.598	0.0140723
664.676	0.0139241
664.754	0.0137941
664.832	0.0137344
664.910	0.0138277
664.988	0.0137160
665.067	0.0137285
665.145	0.0137955
665.223	0.0138000
665.301	0.0137387
665.379	0.0139122
665.457	0.0138248
665.535	0.0138721
665.613	0.0139044
665.692	0.0138800
665.770	0.0138802
665.848	0.0138706
665.926	0.0140424
666.004	0.0140373
666.082	0.0139213
666.160	0.0143118
666.238	0.0142552
666.317	0.0143169
666.395	0.0145427
666.473	0.0145056
666.551	0.0147470
666.629	0.0148875
666.707	0.0147615
666.785	0.0150880
666.863	0.0151102
666.942	0.0152616
667.020	0.0152374
667.098	0.0152580
667.176	0.0151924
667.254	0.0152850
667.332	0.0151714
667.410	0.0151821
667.488	0.0151031
667.567	0.0149760
667.645	0.0149443
667.723	0.0149185
667.801	0.0146467
667.879	0.0145799
667.957	0.0146571
668.035	0.0145268
668.113	0.0143829
668.192	0.0145237
668.270	0.0144478
668.348	0.0144453
668.426	0.0143918
668.504	0.0143506
668.582	0.0143896
668.660	0.0144084
668.738	0.0144027
668.817	0.0143944
668.895	0.0143385
668.973	0.0143755
669.051	0.0142886
669.129	0.0142570
669.207	0.0140033
669.285	0.0139761
669.363	0.0139415
669.442	0.0138335
669.520	0.0138646
669.598	0.0136985
669.676	0.0137262
669.754	0.0137115
669.832	0.0135996
669.910	0.0136942
669.988	0.0136813
670.067	0.0137329
670.145	0.0136731
670.223	0.0137463
670.301	0.0136736
670.379	0.0137680
670.457	0.0138016
670.535	0.0139358
670.613	0.0138743
670.692	0.0140754
670.770	0.0140984
670.848	0.0140763
670.926	0.0143014
671.004	0.0142061
671.082	0.0144530
671.160	0.0144169
671.238	0.0143308
671.317	0.0145276
671.395	0.0145109
671.473	0.0145300
671.551	0.0143404
671.629	0.0143018
671.707	0.0144927
671.785	0.0143798
671.863	0.0143779
671.942	0.0144703
672.020	0.0144802
672.098	0.0144650
672.176	0.0144930
672.254	0.0145487
672.332	0.0147485
672.410	0.0148100
672.488	0.0148700
672.567	0.0149260
672.645	0.0150204
672.723	0.0151311
672.801	0.0151929
672.879	0.0152477
672.957	0.0152763
673.035	0.0151652
673.113	0.0152779
673.192	0.0151815
673.270	0.0149966
673.348	0.0149640
673.426	0.0149036
673.504	0.0147133
673.582	0.0145382
673.660	0.0143029
673.738	0.0141333
673.817	0.0138860
673.895	0.0136834
673.973	0.0135292
674.051	0.0135941
674.129	0.0133439
674.207	0.0134097
674.285	0.0133928
674.363	0.0134971
674.442	0.0135336
674.520	0.0134256
674.598	0.0135495
674.676	0.0136961
674.754	0.0138694
674.832	0.0139534
674.910	0.0140353
674.988	0.0142615
675.067	0.0143363
675.145	0.0144344
675.223	0.0146434
675.301	0.0145855
675.379	0.0146169
675.457	0.0147411
675.535	0.0148991
675.613	0.0149454
675.692	0.0147821
675.770	0.0149356
675.848	0.0147258
675.926	0.0146945
676.004	0.0146132
676.082	0.0145522
676.160	0.0142945
676.238	0.0141800
676.317	0.0139324
676.395	0.0137782
676.473	0.0137357
676.551	0.0135050
676.629	0.0133497
676.707	0.0133511
676.785	0.0133418
676.863	0.0133028
676.942	0.0133052
677.020	0.0133740
677.098	0.0135052
677.176	0.0138185
677.254	0.0137028
677.332	0.0140483
677.410	0.0140582
677.488	0.0142502
677.567	0.0142563
677.645	0.0144987
677.723	0.0146441
677.801	0.0148042
677.879	0.0147182
677.957	0.0147097
678.035	0.0148097
678.113	0.0150049
678.192	0.0149643
678.270	0.0149993
678.348	0.0151448
678.426	0.0152468
678.504	0.0151847
678.582	0.0152161
678.660	0.0150844
678.738	0.0151851
678.817	0.0150354
678.895	0.0151126
678.973	0.0149823
679.051	0.0148610
679.129	0.0149247
679.207	0.0148264
679.285	0.0146992
679.363	0.0144669
679.442	0.0143433
679.520	0.0142049
679.598	0.0141268
679.676	0.0141029
679.754	0.0140007
679.832	0.0139510
679.910	0.0139523
679.988	0.0139516
680.067	0.0138596
680.145	0.0139204
680.223	0.0141102
680.301	0.0140627
680.379	0.0140477
680.457	0.0142978
680.535	0.0143329
680.613	0.0142867
680.692	0.0143728
680.770	0.0143401
680.848	0.0144479
680.926	0.0143536
681.004	0.0144193
681.082	0.0145451
681.160	0.0144466
681.238	0.0143660
681.317	0.0143520
681.395	0.0142451
681.473	0.0142046
681.551	0.0142593
681.629	0.0142274
681.707	0.0139962
681.785	0.0140723
681.863	0.0141811
681.942	0.0141064
682.020	0.0138639
682.098	0.0138397
682.176	0.0137126
682.254	0.0136119
682.332	0.0137232
682.410	0.0134035
682.488	0.0135933
682.567	0.0136407
682.645	0.0138102
682.723	0.0137487
682.801	0.0138125
682.879	0.0138905
682.957	0.0138070
683.035	0.0140594
683.113	0.0140079
683.192	0.0140299
683.270	0.0142738
683.348	0.0141645
683.426	0.0141564
683.504	0.0143319
683.582	0.0143874
683.660	0.0144473
683.738	0.0144041
683.817	0.0146082
683.895	0.0148505
683.973	0.0149174
684.051	0.0149800
684.129	0.0150967
684.207	0.0152567
684.285	0.0152225
684.363	0.0153095
684.442	0.0154202
684.520	0.0154329
684.598	0.0152937
684.676	0.0153224
684.754	0.0152328
684.832	0.0153397
684.910	0.0151982
684.988	0.0150256
685.067	0.0151580
685.145	0.0149864
685.223	0.0148841
685.301	0.0148625
685.379	0.0147735
685.457	0.0147178
685.535	0.0144987
685.613	0.0143804
685.692	0.0144415
