05/28/2022	14:13:11	Ver.	4.1	UNKNOWN
Optical Delay	599.988409	Delta X		0.078125	Sweeps	1	Scan Rate	0/0
Coordinates	Axis 1	NaN	Axis 2	NaN	Axis 3	NaN	Axis 4	NaN	Axis 5	NaN	Axis 6	0.000000
TX Power	0.000000	RX Power	0.000000

599.988	0.0146046
600.067	0.0146587
600.145	0.0146471
600.223	0.0146053
600.301	0.0144946
600.379	0.0145403
600.457	0.0145137
600.535	0.0145408
600.613	0.0146152
600.692	0.0145432
600.770	0.0146566
600.848	0.0145192
600.926	0.0145075
601.004	0.0146243
601.082	0.0146098
601.160	0.0145328
601.238	0.0146529
601.317	0.0147022
601.395	0.0145461
601.473	0.0146063
601.551	0.0145212
601.629	0.0145538
601.707	0.0146046
601.785	0.0145313
601.863	0.0147093
601.942	0.0146343
602.020	0.0146258
602.098	0.0144801
602.176	0.0145851
602.254	0.0145377
602.332	0.0145940
602.410	0.0147263
602.488	0.0146387
602.567	0.0146217
602.645	0.0146457
602.723	0.0145918
602.801	0.0147163
602.879	0.0145541
602.957	0.0144904
603.035	0.0146095
603.113	0.0145181
603.192	0.0145156
603.270	0.0146469
603.348	0.0147361
603.426	0.0145057
603.504	0.0145155
603.582	0.0145322
603.660	0.0144521
603.738	0.0146983
603.817	0.0146132
603.895	0.0146463
603.973	0.0147177
604.051	0.0145705
604.129	0.0147135
604.207	0.0146706
604.285	0.0146132
604.363	0.0145208
604.442	0.0145731
604.520	0.0147064
604.598	0.0146278
604.676	0.0145866
604.754	0.0145651
604.832	0.0145945
604.910	0.0145206
604.988	0.0146891
605.067	0.0146378
605.145	0.0147509
605.223	0.0146247
605.301	0.0146678
605.379	0.0146702
605.457	0.0145110
605.535	0.0145972
605.613	0.0146892
605.692	0.0145875
605.770	0.0145413
605.848	0.0146310
605.926	0.0145179
606.004	0.0146494
606.082	0.0146719
606.160	0.0147364
606.238	0.0146574
606.317	0.0145519
606.395	0.0146407
606.473	0.0146499
606.551	0.0145003
606.629	0.0145519
606.707	0.0147337
606.785	0.0146086
606.863	0.0145628
606.942	0.0146913
607.020	0.0145900
607.098	0.0144903
607.176	0.0146528
607.254	0.0146286
607.332	0.0144730
607.410	0.0146512
607.488	0.0146077
607.567	0.0146069
607.645	0.0145490
607.723	0.0146522
607.801	0.0146005
607.879	0.0145831
607.957	0.0144845
608.035	0.0145576
608.113	0.0146033
608.192	0.0145843
608.270	0.0145793
608.348	0.0145490
608.426	0.0147506
608.504	0.0146616
608.582	0.0144675
608.660	0.0145955
608.738	0.0146360
608.817	0.0145507
608.895	0.0145124
608.973	0.0145681
609.051	0.0146343
609.129	0.0146928
609.207	0.0145411
609.285	0.0146923
609.363	0.0145679
609.442	0.0146574
609.520	0.0146137
609.598	0.0145784
609.676	0.0147312
609.754	0.0146805
609.832	0.0145924
609.910	0.0144337
609.988	0.0145392
610.067	0.0146770
610.145	0.0146309
610.223	0.0146868
610.301	0.0145480
610.379	0.0144646
610.457	0.0145613
610.535	0.0145360
610.613	0.0146845
610.692	0.0146194
610.770	0.0144904
610.848	0.0144681
610.926	0.0145001
611.004	0.0146218
611.082	0.0146509
611.160	0.0145048
611.238	0.0146500
611.317	0.0145551
611.395	0.0145468
611.473	0.0146298
611.551	0.0144779
611.629	0.0145690
611.707	0.0145939
611.785	0.0146457
611.863	0.0146973
611.942	0.0145522
612.020	0.0145533
612.098	0.0145664
612.176	0.0146072
612.254	0.0145543
612.332	0.0145274
612.410	0.0147057
612.488	0.0144793
612.567	0.0144656
612.645	0.0145653
612.723	0.0145872
612.801	0.0145666
612.879	0.0145367
612.957	0.0145910
613.035	0.0145730
613.113	0.0145009
613.192	0.0145918
613.270	0.0145871
613.348	0.0145762
613.426	0.0145583
613.504	0.0145118
613.582	0.0145648
613.660	0.0145480
613.738	0.0146178
613.817	0.0146085
613.895	0.0145587
613.973	0.0147367
614.051	0.0146010
614.129	0.0146386
614.207	0.0146233
614.285	0.0146252
614.363	0.0147456
614.442	0.0145853
614.520	0.0146439
614.598	0.0145831
614.676	0.0146601
614.754	0.0146861
614.832	0.0146059
614.910	0.0145761
614.988	0.0146812
615.067	0.0147295
615.145	0.0146971
615.223	0.0145359
615.301	0.0146055
615.379	0.0146690
615.457	0.0145456
615.535	0.0145234
615.613	0.0144925
615.692	0.0146767
615.770	0.0146550
615.848	0.0145022
615.926	0.0144405
616.004	0.0146703
616.082	0.0146629
616.160	0.0145065
616.238	0.0146503
616.317	0.0145325
616.395	0.0145307
616.473	0.0145372
616.551	0.0146591
616.629	0.0146558
616.707	0.0145963
616.785	0.0146554
616.863	0.0144860
616.942	0.0146501
617.020	0.0147826
617.098	0.0147045
617.176	0.0145972
617.254	0.0146433
617.332	0.0145120
617.410	0.0145580
617.488	0.0145639
617.567	0.0146233
617.645	0.0147257
617.723	0.0146375
617.801	0.0146536
617.879	0.0145369
617.957	0.0146466
618.035	0.0144759
618.113	0.0145551
618.192	0.0146651
618.270	0.0147131
618.348	0.0147897
618.426	0.0146404
618.504	0.0146739
618.582	0.0146872
618.660	0.0146095
618.738	0.0145385
618.817	0.0146176
618.895	0.0146739
618.973	0.0146016
619.051	0.0145356
619.129	0.0146772
619.207	0.0147641
619.285	0.0146349
619.363	0.0146184
619.442	0.0145853
619.520	0.0147473
619.598	0.0146445
619.676	0.0146974
619.754	0.0146235
619.832	0.0145435
619.910	0.0145238
619.988	0.0146121
620.067	0.0146593
620.145	0.0145957
620.223	0.0145650
620.301	0.0145106
620.379	0.0145972
620.457	0.0145972
620.535	0.0145691
620.613	0.0146947
620.692	0.0144921
620.770	0.0145153
620.848	0.0145764
620.926	0.0147061
621.004	0.0146756
621.082	0.0146352
621.160	0.0145523
621.238	0.0146478
621.317	0.0147359
621.395	0.0146100
621.473	0.0146465
621.551	0.0145972
621.629	0.0146801
621.707	0.0145496
621.785	0.0146225
621.863	0.0146124
621.942	0.0146303
622.020	0.0146055
622.098	0.0144816
622.176	0.0145031
622.254	0.0146786
622.332	0.0146585
622.410	0.0146943
622.488	0.0145114
622.567	0.0146585
622.645	0.0146209
622.723	0.0145922
622.801	0.0146021
622.879	0.0146101
622.957	0.0146510
623.035	0.0145306
623.113	0.0145111
623.192	0.0146625
623.270	0.0145823
623.348	0.0148067
623.426	0.0146974
623.504	0.0147108
623.582	0.0145676
623.660	0.0145835
623.738	0.0146004
623.817	0.0146864
623.895	0.0146824
623.973	0.0145558
624.051	0.0145744
624.129	0.0146821
624.207	0.0146937
624.285	0.0145419
624.363	0.0146380
624.442	0.0147649
624.520	0.0146172
624.598	0.0145638
624.676	0.0146664
624.754	0.0147332
624.832	0.0145406
624.910	0.0146096
624.988	0.0145582
625.067	0.0145413
625.145	0.0146573
625.223	0.0146062
625.301	0.0145692
625.379	0.0145216
625.457	0.0145580
625.535	0.0146310
625.613	0.0146818
625.692	0.0145500
625.770	0.0146565
625.848	0.0146907
625.926	0.0146996
626.004	0.0146101
626.082	0.0146917
626.160	0.0147409
626.238	0.0145412
626.317	0.0146653
626.395	0.0146719
626.473	0.0147052
626.551	0.0146936
626.629	0.0145636
626.707	0.0147448
626.785	0.0146754
626.863	0.0146414
626.942	0.0147159
627.020	0.0146416
627.098	0.0144997
627.176	0.0146417
627.254	0.0146185
627.332	0.0147163
627.410	0.0146548
627.488	0.0146403
627.567	0.0145161
627.645	0.0145715
627.723	0.0146730
627.801	0.0145702
627.879	0.0147222
627.957	0.0147057
628.035	0.0146794
628.113	0.0146245
628.192	0.0145077
628.270	0.0146124
628.348	0.0147179
628.426	0.0145534
628.504	0.0144479
628.582	0.0145555
628.660	0.0147252
628.738	0.0146083
628.817	0.0146009
628.895	0.0145689
628.973	0.0144916
629.051	0.0145512
629.129	0.0145925
629.207	0.0145559
629.285	0.0145139
629.363	0.0147052
629.442	0.0146349
629.520	0.0146830
629.598	0.0145531
629.676	0.0143902
629.754	0.0146796
629.832	0.0145964
629.910	0.0146056
629.988	0.0147238
630.067	0.0145885
630.145	0.0146668
630.223	0.0146595
630.301	0.0146537
630.379	0.0146167
630.457	0.0146357
630.535	0.0147116
630.613	0.0146829
630.692	0.0145280
630.770	0.0145702
630.848	0.0147404
630.926	0.0144832
631.004	0.0145934
631.082	0.0145888
631.160	0.0146967
631.238	0.0146487
631.317	0.0144936
631.395	0.0145828
631.473	0.0146745
631.551	0.0146601
631.629	0.0146196
631.707	0.0144955
631.785	0.0145361
631.863	0.0146571
631.942	0.0145947
632.020	0.0146249
632.098	0.0146430
632.176	0.0145815
632.254	0.0144854
632.332	0.0145738
632.410	0.0144969
632.488	0.0146411
632.567	0.0146786
632.645	0.0145844
632.723	0.0146255
632.801	0.0146191
632.879	0.0147209
632.957	0.0146407
633.035	0.0146611
633.113	0.0146056
633.192	0.0146156
633.270	0.0146516
633.348	0.0146854
633.426	0.0145512
633.504	0.0145155
633.582	0.0145375
633.660	0.0147063
633.738	0.0145878
633.817	0.0145721
633.895	0.0146204
633.973	0.0145586
634.051	0.0146812
634.129	0.0145676
634.207	0.0145252
634.285	0.0145634
634.363	0.0145361
634.442	0.0145370
634.520	0.0145359
634.598	0.0145987
634.676	0.0145454
634.754	0.0146179
634.832	0.0145979
634.910	0.0145514
634.988	0.0146474
635.067	0.0146821
635.145	0.0146761
635.223	0.0145737
635.301	0.0145828
635.379	0.0145337
635.457	0.0146265
635.535	0.0146816
635.613	0.0144713
635.692	0.0144827
635.770	0.0145676
635.848	0.0145506
635.926	0.0145994
636.004	0.0146264
636.082	0.0145990
636.160	0.0145033
636.238	0.0145437
636.317	0.0145823
636.395	0.0145707
636.473	0.0144264
636.551	0.0145602
636.629	0.0144569
636.707	0.0145163
636.785	0.0146398
636.863	0.0145083
636.942	0.0146175
637.020	0.0147359
637.098	0.0145980
637.176	0.0147150
637.254	0.0147369
637.332	0.0147058
637.410	0.0147810
637.488	0.0146406
637.567	0.0146366
637.645	0.0146413
637.723	0.0147247
637.801	0.0145553
637.879	0.0145063
637.957	0.0147321
638.035	0.0146204
638.113	0.0145727
638.192	0.0145941
638.270	0.0146622
638.348	0.0146480
638.426	0.0145661
638.504	0.0145656
638.582	0.0146867
638.660	0.0145100
638.738	0.0146357
638.817	0.0146288
638.895	0.0146685
638.973	0.0146866
639.051	0.0145995
639.129	0.0145113
639.207	0.0146767
639.285	0.0145732
639.363	0.0146719
639.442	0.0146902
639.520	0.0145454
639.598	0.0144807
639.676	0.0147565
639.754	0.0146445
639.832	0.0147027
639.910	0.0145634
639.988	0.0148547
640.067	0.0147613
640.145	0.0146518
640.223	0.0146999
640.301	0.0146567
640.379	0.0145718
640.457	0.0145482
640.535	0.0147477
640.613	0.0146614
640.692	0.0145218
640.770	0.0147343
640.848	0.0146391
640.926	0.0145800
641.004	0.0146518
641.082	0.0145596
641.160	0.0146718
641.238	0.0145004
641.317	0.0144924
641.395	0.0145441
641.473	0.0144758
641.551	0.0145725
641.629	0.0145025
641.707	0.0145459
641.785	0.0147472
641.863	0.0146987
641.942	0.0147222
642.020	0.0145995
642.098	0.0146821
642.176	0.0147379
642.254	0.0145535
642.332	0.0146323
642.410	0.0145744
642.488	0.0147147
642.567	0.0147041
642.645	0.0146609
642.723	0.0146143
642.801	0.0147298
642.879	0.0147011
642.957	0.0145284
643.035	0.0145319
643.113	0.0146829
643.192	0.0146262
643.270	0.0146980
643.348	0.0146541
643.426	0.0146668
643.504	0.0145983
643.582	0.0145962
643.660	0.0146293
643.738	0.0146976
643.817	0.0147274
643.895	0.0145958
643.973	0.0146639
644.051	0.0148087
644.129	0.0146625
644.207	0.0146832
644.285	0.0146180
644.363	0.0147047
644.442	0.0146294
644.520	0.0147214
644.598	0.0146829
644.676	0.0146442
644.754	0.0146844
644.832	0.0145272
644.910	0.0146972
644.988	0.0145819
645.067	0.0147520
645.145	0.0146686
645.223	0.0146030
645.301	0.0147571
645.379	0.0146012
645.457	0.0146409
645.535	0.0145074
645.613	0.0145325
645.692	0.0144893
645.770	0.0145132
645.848	0.0145869
645.926	0.0146337
646.004	0.0145921
646.082	0.0145294
646.160	0.0145411
646.238	0.0146082
646.317	0.0147643
646.395	0.0146323
646.473	0.0145520
646.551	0.0145726
646.629	0.0147117
646.707	0.0146734
646.785	0.0144110
646.863	0.0145496
646.942	0.0144618
647.020	0.0145708
647.098	0.0145774
647.176	0.0145868
647.254	0.0144593
647.332	0.0146151
647.410	0.0147070
647.488	0.0146646
647.567	0.0145941
647.645	0.0147147
647.723	0.0147283
647.801	0.0144835
647.879	0.0145741
647.957	0.0144332
648.035	0.0145464
648.113	0.0145271
648.192	0.0144773
648.270	0.0145879
648.348	0.0145383
648.426	0.0144989
648.504	0.0144758
648.582	0.0145419
648.660	0.0146708
648.738	0.0144855
648.817	0.0146210
648.895	0.0146869
648.973	0.0144302
649.051	0.0146046
649.129	0.0146872
649.207	0.0147793
649.285	0.0147285
649.363	0.0145923
649.442	0.0147535
649.520	0.0146452
649.598	0.0147263
649.676	0.0147439
649.754	0.0147486
649.832	0.0146310
649.910	0.0146555
649.988	0.0148233
650.067	0.0147219
650.145	0.0147588
650.223	0.0146305
650.301	0.0145647
650.379	0.0144222
650.457	0.0143540
650.535	0.0145074
650.613	0.0143826
650.692	0.0144878
650.770	0.0142773
650.848	0.0143336
650.926	0.0142722
651.004	0.0144133
651.082	0.0144367
651.160	0.0144308
651.238	0.0145000
651.317	0.0144799
651.395	0.0145451
651.473	0.0145592
651.551	0.0145541
651.629	0.0145659
651.707	0.0145385
651.785	0.0145803
651.863	0.0146660
651.942	0.0146286
652.020	0.0147461
652.098	0.0147919
652.176	0.0148630
652.254	0.0147340
652.332	0.0146345
652.410	0.0147089
652.488	0.0147750
652.567	0.0146502
652.645	0.0147209
652.723	0.0147102
652.801	0.0146442
652.879	0.0146619
652.957	0.0148666
653.035	0.0147185
653.113	0.0148127
653.192	0.0148849
653.270	0.0148804
653.348	0.0147194
653.426	0.0149341
653.504	0.0147863
653.582	0.0147472
653.660	0.0148028
653.738	0.0146932
653.817	0.0146114
653.895	0.0145512
653.973	0.0145545
654.051	0.0144796
654.129	0.0144498
654.207	0.0144560
654.285	0.0142395
654.363	0.0144134
654.442	0.0143416
654.520	0.0143414
654.598	0.0143576
654.676	0.0142480
654.754	0.0144851
654.832	0.0143855
654.910	0.0144545
654.988	0.0143637
655.067	0.0142769
655.145	0.0142397
655.223	0.0142956
655.301	0.0142648
655.379	0.0143126
655.457	0.0141213
655.535	0.0140539
655.613	0.0140753
655.692	0.0142326
655.770	0.0141520
655.848	0.0141781
655.926	0.0143446
656.004	0.0144890
656.082	0.0146436
656.160	0.0146854
656.238	0.0147544
656.317	0.0148838
656.395	0.0148872
656.473	0.0149811
656.551	0.0149390
656.629	0.0149783
656.707	0.0150446
656.785	0.0149696
656.863	0.0149284
656.942	0.0150781
657.020	0.0150016
657.098	0.0150828
657.176	0.0150236
657.254	0.0150188
657.332	0.0149912
657.410	0.0149117
657.488	0.0149157
657.567	0.0150885
657.645	0.0148364
657.723	0.0148648
657.801	0.0146873
657.879	0.0147247
657.957	0.0148103
658.035	0.0147585
658.113	0.0147369
658.192	0.0147909
658.270	0.0147398
658.348	0.0146845
658.426	0.0147796
658.504	0.0148391
658.582	0.0147644
658.660	0.0147271
658.738	0.0146084
658.817	0.0147504
658.895	0.0145854
658.973	0.0143124
659.051	0.0141034
659.129	0.0142101
659.207	0.0140182
659.285	0.0139043
659.363	0.0137000
659.442	0.0136628
659.520	0.0136335
659.598	0.0135170
659.676	0.0135298
659.754	0.0136057
659.832	0.0136410
659.910	0.0136490
659.988	0.0137418
660.067	0.0139958
660.145	0.0141420
660.223	0.0142331
660.301	0.0145217
660.379	0.0147854
660.457	0.0147153
660.535	0.0150248
660.613	0.0152030
660.692	0.0151928
660.770	0.0152116
660.848	0.0151467
660.926	0.0152998
661.004	0.0151466
661.082	0.0152659
661.160	0.0150832
661.238	0.0151475
661.317	0.0150935
661.395	0.0151160
661.473	0.0151716
661.551	0.0152097
661.629	0.0151509
661.707	0.0151146
661.785	0.0151774
661.863	0.0148672
661.942	0.0150172
662.020	0.0149905
662.098	0.0149623
662.176	0.0147566
662.254	0.0149316
662.332	0.0147765
662.410	0.0148476
662.488	0.0148356
662.567	0.0149299
662.645	0.0148702
662.723	0.0149268
662.801	0.0146846
662.879	0.0147002
662.957	0.0147295
663.035	0.0147371
663.113	0.0146725
663.192	0.0144789
663.270	0.0143854
663.348	0.0143875
663.426	0.0144418
663.504	0.0141340
663.582	0.0142719
663.660	0.0142691
663.738	0.0141172
663.817	0.0141059
663.895	0.0142399
663.973	0.0140194
664.051	0.0140523
664.129	0.0141935
664.207	0.0141562
664.285	0.0141752
664.363	0.0140553
664.442	0.0141098
664.520	0.0141278
664.598	0.0140817
664.676	0.0140682
664.754	0.0140462
664.832	0.0141805
664.910	0.0140067
664.988	0.0141137
665.067	0.0141101
665.145	0.0141540
665.223	0.0140622
665.301	0.0141629
665.379	0.0141648
665.457	0.0143281
665.535	0.0144312
665.613	0.0145453
665.692	0.0145440
665.770	0.0147274
665.848	0.0147755
665.926	0.0149652
666.004	0.0151932
666.082	0.0152673
666.160	0.0152374
666.238	0.0153401
666.317	0.0153656
666.395	0.0156217
666.473	0.0155119
666.551	0.0154620
666.629	0.0154647
666.707	0.0153667
666.785	0.0152969
666.863	0.0153510
666.942	0.0151216
667.020	0.0150154
667.098	0.0150738
667.176	0.0150480
667.254	0.0149290
667.332	0.0149657
667.410	0.0150348
667.488	0.0147299
667.567	0.0144981
667.645	0.0146706
667.723	0.0146797
667.801	0.0146659
667.879	0.0145984
667.957	0.0145309
668.035	0.0145636
668.113	0.0144608
668.192	0.0145300
668.270	0.0145746
668.348	0.0144917
668.426	0.0143778
668.504	0.0142845
668.582	0.0142624
668.660	0.0142086
668.738	0.0141114
668.817	0.0142021
668.895	0.0140685
668.973	0.0140444
669.051	0.0140215
669.129	0.0141427
669.207	0.0139894
669.285	0.0141251
669.363	0.0140162
669.442	0.0138844
669.520	0.0139094
669.598	0.0140455
669.676	0.0141842
669.754	0.0140336
669.832	0.0140907
669.910	0.0140992
669.988	0.0143459
670.067	0.0143158
670.145	0.0143771
670.223	0.0143938
670.301	0.0144934
670.379	0.0145365
670.457	0.0145996
670.535	0.0145967
670.613	0.0145548
670.692	0.0146221
670.770	0.0146198
670.848	0.0147513
670.926	0.0147192
671.004	0.0147205
671.082	0.0147509
671.160	0.0146765
671.238	0.0147088
671.317	0.0146727
671.395	0.0146113
671.473	0.0147645
671.551	0.0147804
671.629	0.0146674
671.707	0.0147099
671.785	0.0149416
671.863	0.0148551
671.942	0.0151809
672.020	0.0151102
672.098	0.0152145
672.176	0.0152203
672.254	0.0153969
672.332	0.0154504
672.410	0.0155214
672.488	0.0153919
672.567	0.0153819
672.645	0.0153036
672.723	0.0153722
672.801	0.0151738
672.879	0.0149700
672.957	0.0147589
673.035	0.0146795
673.113	0.0144506
673.192	0.0143407
673.270	0.0142622
673.348	0.0141323
673.426	0.0141662
673.504	0.0139510
673.582	0.0137679
673.660	0.0137875
673.738	0.0137698
673.817	0.0138042
673.895	0.0137596
673.973	0.0138092
674.051	0.0137849
674.129	0.0137909
674.207	0.0138374
674.285	0.0140279
674.363	0.0141600
674.442	0.0142515
674.520	0.0142854
674.598	0.0143672
674.676	0.0143925
674.754	0.0144388
674.832	0.0147562
674.910	0.0147005
674.988	0.0147206
675.067	0.0148971
675.145	0.0148889
675.223	0.0150047
675.301	0.0149902
675.379	0.0150192
675.457	0.0150919
675.535	0.0152312
675.613	0.0150541
675.692	0.0149010
675.770	0.0147992
675.848	0.0148022
675.926	0.0148280
676.004	0.0146369
676.082	0.0143865
676.160	0.0143615
676.238	0.0140137
676.317	0.0138264
676.395	0.0138490
676.473	0.0137149
676.551	0.0137125
676.629	0.0137602
676.707	0.0137650
676.785	0.0136529
676.863	0.0136809
676.942	0.0138068
677.020	0.0139774
677.098	0.0139043
677.176	0.0142368
677.254	0.0144776
677.332	0.0145966
677.410	0.0146082
677.488	0.0148064
677.567	0.0150410
677.645	0.0151850
677.723	0.0151901
677.801	0.0153561
677.879	0.0154433
677.957	0.0154025
678.035	0.0154377
678.113	0.0154890
678.192	0.0155184
678.270	0.0154415
678.348	0.0154571
678.426	0.0152721
678.504	0.0153111
678.582	0.0153181
678.660	0.0151089
678.738	0.0151728
678.817	0.0150355
678.895	0.0151448
678.973	0.0151086
679.051	0.0149143
679.129	0.0148692
679.207	0.0147758
679.285	0.0146404
679.363	0.0144648
679.442	0.0142909
679.520	0.0141656
679.598	0.0141113
679.676	0.0140809
679.754	0.0140108
679.832	0.0136920
679.910	0.0137988
679.988	0.0137930
680.067	0.0137694
680.145	0.0137899
680.223	0.0138110
680.301	0.0139656
680.379	0.0140451
680.457	0.0141337
680.535	0.0141734
680.613	0.0143056
680.692	0.0142538
680.770	0.0144386
680.848	0.0145924
680.926	0.0145659
681.004	0.0146076
681.082	0.0146425
681.160	0.0146574
681.238	0.0147310
681.317	0.0147623
681.395	0.0148644
681.473	0.0148516
681.551	0.0148312
681.629	0.0147249
681.707	0.0147985
681.785	0.0148223
681.863	0.0145507
681.942	0.0145535
682.020	0.0145324
682.098	0.0145022
682.176	0.0143759
682.254	0.0141606
682.332	0.0140921
682.410	0.0140541
682.488	0.0139616
682.567	0.0139944
682.645	0.0140556
682.723	0.0139657
682.801	0.0141151
682.879	0.0140781
682.957	0.0141396
683.035	0.0142336
683.113	0.0143562
683.192	0.0144599
683.270	0.0145953
683.348	0.0145972
683.426	0.0147636
683.504	0.0149594
683.582	0.0151668
683.660	0.0150842
683.738	0.0152366
683.817	0.0154066
683.895	0.0154977
683.973	0.0155112
684.051	0.0156758
684.129	0.0155468
684.207	0.0156326
684.285	0.0156765
684.363	0.0154823
684.442	0.0154721
684.520	0.0154221
684.598	0.0153353
684.676	0.0152527
684.754	0.0151604
684.832	0.0150627
684.910	0.0149439
684.988	0.0147852
685.067	0.0146773
685.145	0.0145699
685.223	0.0144625
685.301	0.0143269
685.379	0.0143962
685.457	0.0145053
685.535	0.0144925
685.613	0.0143934
685.692	0.0143609
