05/28/2022	14:13:51	Ver.	4.1	UNKNOWN
Optical Delay	599.988409	Delta X		0.078125	Sweeps	1	Scan Rate	0/0
Coordinates	Axis 1	NaN	Axis 2	NaN	Axis 3	NaN	Axis 4	NaN	Axis 5	NaN	Axis 6	0.000000
TX Power	0.000000	RX Power	0.000000

599.988	0.0143307
600.067	0.0140962
600.145	0.0142767
600.223	0.0142818
600.301	0.0142597
600.379	0.0143440
600.457	0.0142979
600.535	0.0141915
600.613	0.0143456
600.692	0.0143405
600.770	0.0143937
600.848	0.0142121
600.926	0.0143269
601.004	0.0141962
601.082	0.0144115
601.160	0.0143131
601.238	0.0141665
601.317	0.0143577
601.395	0.0143069
601.473	0.0142129
601.551	0.0143155
601.629	0.0142807
601.707	0.0142344
601.785	0.0143306
601.863	0.0143224
601.942	0.0142898
602.020	0.0144939
602.098	0.0141733
602.176	0.0143471
602.254	0.0144159
602.332	0.0143375
602.410	0.0143225
602.488	0.0144321
602.567	0.0141766
602.645	0.0141912
602.723	0.0142981
602.801	0.0142690
602.879	0.0143793
602.957	0.0144341
603.035	0.0143108
603.113	0.0142046
603.192	0.0141550
603.270	0.0142370
603.348	0.0143925
603.426	0.0143913
603.504	0.0142888
603.582	0.0143304
603.660	0.0143585
603.738	0.0144091
603.817	0.0142888
603.895	0.0142941
603.973	0.0143907
604.051	0.0142915
604.129	0.0144533
604.207	0.0141570
604.285	0.0142909
604.363	0.0142909
604.442	0.0142266
604.520	0.0142843
604.598	0.0143440
604.676	0.0142976
604.754	0.0142418
604.832	0.0143642
604.910	0.0142139
604.988	0.0142525
605.067	0.0143612
605.145	0.0143578
605.223	0.0142442
605.301	0.0142296
605.379	0.0142540
605.457	0.0144263
605.535	0.0142177
605.613	0.0142072
605.692	0.0141424
605.770	0.0143242
605.848	0.0142368
605.926	0.0143038
606.004	0.0142956
606.082	0.0144439
606.160	0.0144323
606.238	0.0142474
606.317	0.0144644
606.395	0.0142698
606.473	0.0141799
606.551	0.0143658
606.629	0.0143552
606.707	0.0141735
606.785	0.0142846
606.863	0.0143719
606.942	0.0143864
607.020	0.0143358
607.098	0.0144347
607.176	0.0143804
607.254	0.0143665
607.332	0.0142701
607.410	0.0143131
607.488	0.0144469
607.567	0.0143784
607.645	0.0142876
607.723	0.0143527
607.801	0.0143115
607.879	0.0143449
607.957	0.0143168
608.035	0.0143405
608.113	0.0141570
608.192	0.0143668
608.270	0.0142857
608.348	0.0141608
608.426	0.0142635
608.504	0.0141919
608.582	0.0144120
608.660	0.0144781
608.738	0.0143047
608.817	0.0143546
608.895	0.0141296
608.973	0.0142738
609.051	0.0142915
609.129	0.0142730
609.207	0.0143717
609.285	0.0143410
609.363	0.0143256
609.442	0.0141771
609.520	0.0141602
609.598	0.0144273
609.676	0.0143970
609.754	0.0143910
609.832	0.0142620
609.910	0.0143173
609.988	0.0142236
610.067	0.0142842
610.145	0.0142040
610.223	0.0142971
610.301	0.0142812
610.379	0.0141997
610.457	0.0143130
610.535	0.0142503
610.613	0.0142387
610.692	0.0143578
610.770	0.0141671
610.848	0.0142513
610.926	0.0141856
611.004	0.0142127
611.082	0.0143600
611.160	0.0143562
611.238	0.0142709
611.317	0.0142141
611.395	0.0143266
611.473	0.0143960
611.551	0.0142690
611.629	0.0143039
611.707	0.0143931
611.785	0.0142891
611.863	0.0143314
611.942	0.0143108
612.020	0.0141933
612.098	0.0142774
612.176	0.0142929
612.254	0.0142020
612.332	0.0143281
612.410	0.0144245
612.488	0.0143841
612.567	0.0143166
612.645	0.0144217
612.723	0.0143766
612.801	0.0143372
612.879	0.0142469
612.957	0.0143434
613.035	0.0144992
613.113	0.0144454
613.192	0.0143107
613.270	0.0143666
613.348	0.0142882
613.426	0.0142638
613.504	0.0142214
613.582	0.0143476
613.660	0.0144141
613.738	0.0144171
613.817	0.0142787
613.895	0.0143686
613.973	0.0144103
614.051	0.0142255
614.129	0.0143963
614.207	0.0143230
614.285	0.0142412
614.363	0.0143126
614.442	0.0143014
614.520	0.0143028
614.598	0.0142416
614.676	0.0143069
614.754	0.0143441
614.832	0.0143241
614.910	0.0142564
614.988	0.0141693
615.067	0.0143417
615.145	0.0142761
615.223	0.0143797
615.301	0.0143252
615.379	0.0143117
615.457	0.0144112
615.535	0.0143853
615.613	0.0143510
615.692	0.0144847
615.770	0.0143493
615.848	0.0143455
615.926	0.0142060
616.004	0.0142554
616.082	0.0142918
616.160	0.0143235
616.238	0.0143527
616.317	0.0143180
616.395	0.0143311
616.473	0.0142337
616.551	0.0143098
616.629	0.0143430
616.707	0.0142512
616.785	0.0143731
616.863	0.0143386
616.942	0.0142815
617.020	0.0143330
617.098	0.0142247
617.176	0.0142081
617.254	0.0142000
617.332	0.0143349
617.410	0.0141507
617.488	0.0141984
617.567	0.0142287
617.645	0.0141790
617.723	0.0142835
617.801	0.0142632
617.879	0.0143449
617.957	0.0143431
618.035	0.0143285
618.113	0.0143311
618.192	0.0143089
618.270	0.0144369
618.348	0.0143731
618.426	0.0141744
618.504	0.0142217
618.582	0.0142456
618.660	0.0143108
618.738	0.0142353
618.817	0.0144414
618.895	0.0142619
618.973	0.0143594
619.051	0.0143331
619.129	0.0143213
619.207	0.0143691
619.285	0.0143124
619.363	0.0143158
619.442	0.0143364
619.520	0.0143172
619.598	0.0143353
619.676	0.0143404
619.754	0.0144530
619.832	0.0143443
619.910	0.0143677
619.988	0.0142521
620.067	0.0141673
620.145	0.0144374
620.223	0.0143354
620.301	0.0141801
620.379	0.0142427
620.457	0.0142226
620.535	0.0142650
620.613	0.0142416
620.692	0.0140683
620.770	0.0142407
620.848	0.0143987
620.926	0.0142519
621.004	0.0142168
621.082	0.0142740
621.160	0.0141951
621.238	0.0141814
621.317	0.0143031
621.395	0.0143137
621.473	0.0142371
621.551	0.0143044
621.629	0.0143234
621.707	0.0143105
621.785	0.0143627
621.863	0.0142026
621.942	0.0143256
622.020	0.0143002
622.098	0.0142417
622.176	0.0143239
622.254	0.0142816
622.332	0.0142637
622.410	0.0143330
622.488	0.0144363
622.567	0.0143641
622.645	0.0142250
622.723	0.0142835
622.801	0.0143024
622.879	0.0144073
622.957	0.0142535
623.035	0.0141116
623.113	0.0142522
623.192	0.0143648
623.270	0.0142614
623.348	0.0142784
623.426	0.0143265
623.504	0.0143158
623.582	0.0142316
623.660	0.0143214
623.738	0.0143977
623.817	0.0143516
623.895	0.0144140
623.973	0.0142340
624.051	0.0142437
624.129	0.0142323
624.207	0.0142813
624.285	0.0142480
624.363	0.0143443
624.442	0.0143383
624.520	0.0141529
624.598	0.0142302
624.676	0.0143262
624.754	0.0141962
624.832	0.0143388
624.910	0.0141852
624.988	0.0142936
625.067	0.0143069
625.145	0.0142575
625.223	0.0142166
625.301	0.0142033
625.379	0.0142467
625.457	0.0143509
625.535	0.0142616
625.613	0.0141620
625.692	0.0143051
625.770	0.0142804
625.848	0.0144341
625.926	0.0142790
626.004	0.0142627
626.082	0.0144112
626.160	0.0143401
626.238	0.0141186
626.317	0.0141513
626.395	0.0142973
626.473	0.0143113
626.551	0.0143258
626.629	0.0141269
626.707	0.0143121
626.785	0.0142306
626.863	0.0144511
626.942	0.0143587
627.020	0.0143883
627.098	0.0142912
627.176	0.0141534
627.254	0.0143893
627.332	0.0144251
627.410	0.0143095
627.488	0.0143512
627.567	0.0142680
627.645	0.0142759
627.723	0.0142873
627.801	0.0143880
627.879	0.0143134
627.957	0.0142793
628.035	0.0143978
628.113	0.0142352
628.192	0.0143227
628.270	0.0143635
628.348	0.0144690
628.426	0.0143093
628.504	0.0142447
628.582	0.0141539
628.660	0.0143417
628.738	0.0144447
628.817	0.0143490
628.895	0.0142458
628.973	0.0143079
629.051	0.0144427
629.129	0.0143805
629.207	0.0143636
629.285	0.0142206
629.363	0.0144218
629.442	0.0145324
629.520	0.0143943
629.598	0.0143130
629.676	0.0144074
629.754	0.0143815
629.832	0.0143103
629.910	0.0143648
629.988	0.0143236
630.067	0.0142663
630.145	0.0143902
630.223	0.0144024
630.301	0.0145576
630.379	0.0143065
630.457	0.0143159
630.535	0.0142786
630.613	0.0142730
630.692	0.0143923
630.770	0.0144082
630.848	0.0143867
630.926	0.0145185
631.004	0.0142569
631.082	0.0142748
631.160	0.0143079
631.238	0.0143436
631.317	0.0142667
631.395	0.0143497
631.473	0.0145430
631.551	0.0143668
631.629	0.0143657
631.707	0.0143578
631.785	0.0144338
631.863	0.0143999
631.942	0.0142531
632.020	0.0142770
632.098	0.0143007
632.176	0.0144222
632.254	0.0143355
632.332	0.0142489
632.410	0.0142583
632.488	0.0143520
632.567	0.0143227
632.645	0.0143547
632.723	0.0144608
632.801	0.0143031
632.879	0.0143787
632.957	0.0143703
633.035	0.0143493
633.113	0.0143276
633.192	0.0144316
633.270	0.0142802
633.348	0.0143001
633.426	0.0142615
633.504	0.0143028
633.582	0.0143032
633.660	0.0144032
633.738	0.0145424
633.817	0.0143644
633.895	0.0144030
633.973	0.0144669
634.051	0.0144962
634.129	0.0143536
634.207	0.0144133
634.285	0.0143440
634.363	0.0143317
634.442	0.0144450
634.520	0.0143168
634.598	0.0142715
634.676	0.0142853
634.754	0.0144813
634.832	0.0144102
634.910	0.0143777
634.988	0.0142938
635.067	0.0142365
635.145	0.0141320
635.223	0.0142733
635.301	0.0143222
635.379	0.0142501
635.457	0.0144003
635.535	0.0144363
635.613	0.0142043
635.692	0.0142959
635.770	0.0142590
635.848	0.0141834
635.926	0.0142580
636.004	0.0143282
636.082	0.0142480
636.160	0.0141972
636.238	0.0143433
636.317	0.0141851
636.395	0.0143143
636.473	0.0142746
636.551	0.0142228
636.629	0.0143204
636.707	0.0142047
636.785	0.0144009
636.863	0.0143890
636.942	0.0140812
637.020	0.0143494
637.098	0.0144131
637.176	0.0142831
637.254	0.0142489
637.332	0.0142732
637.410	0.0143442
637.488	0.0143011
637.567	0.0143062
637.645	0.0142429
637.723	0.0142699
637.801	0.0142451
637.879	0.0143298
637.957	0.0143832
638.035	0.0142113
638.113	0.0143606
638.192	0.0143684
638.270	0.0143433
638.348	0.0143108
638.426	0.0143642
638.504	0.0144031
638.582	0.0143522
638.660	0.0144118
638.738	0.0141473
638.817	0.0142882
638.895	0.0144318
638.973	0.0144368
639.051	0.0143117
639.129	0.0143907
639.207	0.0145205
639.285	0.0143514
639.363	0.0142899
639.442	0.0143102
639.520	0.0143778
639.598	0.0143067
639.676	0.0141645
639.754	0.0143424
639.832	0.0144727
639.910	0.0143365
639.988	0.0142677
640.067	0.0143381
640.145	0.0143527
640.223	0.0143026
640.301	0.0143514
640.379	0.0144330
640.457	0.0144208
640.535	0.0145255
640.613	0.0143282
640.692	0.0144975
640.770	0.0143576
640.848	0.0143297
640.926	0.0143481
641.004	0.0142371
641.082	0.0142972
641.160	0.0144191
641.238	0.0143677
641.317	0.0144267
641.395	0.0142268
641.473	0.0142537
641.551	0.0142970
641.629	0.0143571
641.707	0.0142872
641.785	0.0143517
641.863	0.0143157
641.942	0.0143975
642.020	0.0143710
642.098	0.0142859
642.176	0.0144319
642.254	0.0141885
642.332	0.0143481
642.410	0.0143241
642.488	0.0142959
642.567	0.0141499
642.645	0.0143840
642.723	0.0143133
642.801	0.0144505
642.879	0.0141850
642.957	0.0143175
643.035	0.0144210
643.113	0.0144396
643.192	0.0143341
643.270	0.0142118
643.348	0.0143983
643.426	0.0143897
643.504	0.0142672
643.582	0.0141824
643.660	0.0143291
643.738	0.0143727
643.817	0.0142208
643.895	0.0143034
643.973	0.0143001
644.051	0.0141012
644.129	0.0143470
644.207	0.0143898
644.285	0.0143972
644.363	0.0144102
644.442	0.0143366
644.520	0.0142544
644.598	0.0143401
644.676	0.0144036
644.754	0.0143803
644.832	0.0142728
644.910	0.0142667
644.988	0.0143532
645.067	0.0142811
645.145	0.0143012
645.223	0.0144170
645.301	0.0143385
645.379	0.0142147
645.457	0.0143338
645.535	0.0142744
645.613	0.0143015
645.692	0.0144908
645.770	0.0144351
645.848	0.0143047
645.926	0.0143024
646.004	0.0143240
646.082	0.0143462
646.160	0.0143830
646.238	0.0144481
646.317	0.0143238
646.395	0.0142010
646.473	0.0142076
646.551	0.0142960
646.629	0.0142107
646.707	0.0143031
646.785	0.0142834
646.863	0.0143475
646.942	0.0143390
647.020	0.0143593
647.098	0.0142868
647.176	0.0143362
647.254	0.0144168
647.332	0.0144803
647.410	0.0144980
647.488	0.0144172
647.567	0.0143977
647.645	0.0143036
647.723	0.0144767
647.801	0.0145384
647.879	0.0144442
647.957	0.0143661
648.035	0.0143657
648.113	0.0144942
648.192	0.0144381
648.270	0.0143110
648.348	0.0144335
648.426	0.0142860
648.504	0.0143383
648.582	0.0142543
648.660	0.0142454
648.738	0.0141873
648.817	0.0140906
648.895	0.0141437
648.973	0.0141052
649.051	0.0140822
649.129	0.0140831
649.207	0.0141397
649.285	0.0141979
649.363	0.0141898
649.442	0.0141795
649.520	0.0142013
649.598	0.0142351
649.676	0.0142080
649.754	0.0143313
649.832	0.0142011
649.910	0.0142879
649.988	0.0143149
650.067	0.0142698
650.145	0.0141489
650.223	0.0143208
650.301	0.0145280
650.379	0.0144978
650.457	0.0142981
650.535	0.0144559
650.613	0.0143749
650.692	0.0144238
650.770	0.0145441
650.848	0.0145222
650.926	0.0144425
651.004	0.0144861
651.082	0.0143589
651.160	0.0144052
651.238	0.0143787
651.317	0.0144995
651.395	0.0144513
651.473	0.0145525
651.551	0.0143977
651.629	0.0144723
651.707	0.0144347
651.785	0.0145137
651.863	0.0145636
651.942	0.0143748
652.020	0.0144159
652.098	0.0142815
652.176	0.0141891
652.254	0.0140491
652.332	0.0142869
652.410	0.0142271
652.488	0.0140023
652.567	0.0141478
652.645	0.0141158
652.723	0.0141797
652.801	0.0142447
652.879	0.0139748
652.957	0.0139327
653.035	0.0141529
653.113	0.0141736
653.192	0.0140157
653.270	0.0140030
653.348	0.0138357
653.426	0.0140064
653.504	0.0137720
653.582	0.0137862
653.660	0.0139441
653.738	0.0137946
653.817	0.0139559
653.895	0.0139564
653.973	0.0141487
654.051	0.0140135
654.129	0.0142388
654.207	0.0143025
654.285	0.0145226
654.363	0.0145091
654.442	0.0145982
654.520	0.0147460
654.598	0.0146221
654.676	0.0146510
654.754	0.0146730
654.832	0.0144343
654.910	0.0145860
654.988	0.0147000
655.067	0.0147022
655.145	0.0147970
655.223	0.0147813
655.301	0.0146975
655.379	0.0147301
655.457	0.0147867
655.535	0.0148636
655.613	0.0146614
655.692	0.0146052
655.770	0.0145361
655.848	0.0144541
655.926	0.0144562
656.004	0.0145487
656.082	0.0143470
656.160	0.0142728
656.238	0.0143986
656.317	0.0143575
656.395	0.0143810
656.473	0.0144114
656.551	0.0144177
656.629	0.0145689
656.707	0.0144957
656.785	0.0145504
656.863	0.0143465
656.942	0.0143208
657.020	0.0142358
657.098	0.0141626
657.176	0.0140623
657.254	0.0141037
657.332	0.0138235
657.410	0.0136629
657.488	0.0136208
657.567	0.0134980
657.645	0.0133598
657.723	0.0132371
657.801	0.0132716
657.879	0.0133508
657.957	0.0131483
658.035	0.0133479
658.113	0.0133590
658.192	0.0134728
658.270	0.0137052
658.348	0.0138099
658.426	0.0140907
658.504	0.0142582
658.582	0.0143694
658.660	0.0144847
658.738	0.0147719
658.817	0.0148629
658.895	0.0148068
658.973	0.0146845
659.051	0.0147673
659.129	0.0148844
659.207	0.0148099
659.285	0.0147915
659.363	0.0148108
659.442	0.0147707
659.520	0.0147968
659.598	0.0147615
659.676	0.0148404
659.754	0.0148281
659.832	0.0147753
659.910	0.0147730
659.988	0.0148032
660.067	0.0145963
660.145	0.0146310
660.223	0.0146258
660.301	0.0145476
660.379	0.0145547
660.457	0.0145513
660.535	0.0146086
660.613	0.0144877
660.692	0.0144627
660.770	0.0144662
660.848	0.0143630
660.926	0.0145155
661.004	0.0144280
661.082	0.0144353
661.160	0.0144090
661.238	0.0143343
661.317	0.0141879
661.395	0.0140154
661.473	0.0140620
661.551	0.0139463
661.629	0.0138885
661.707	0.0137428
661.785	0.0136413
661.863	0.0138268
661.942	0.0138689
662.020	0.0138296
662.098	0.0139259
662.176	0.0137277
662.254	0.0138125
662.332	0.0138254
662.410	0.0138636
662.488	0.0138135
662.567	0.0138885
662.645	0.0137744
662.723	0.0138907
662.801	0.0139096
662.879	0.0140144
662.957	0.0140569
663.035	0.0141094
663.113	0.0139294
663.192	0.0139484
663.270	0.0140310
663.348	0.0139730
663.426	0.0140236
663.504	0.0139597
663.582	0.0140012
663.660	0.0139772
663.738	0.0140300
663.817	0.0142528
663.895	0.0143900
663.973	0.0144528
664.051	0.0145313
664.129	0.0146037
664.207	0.0147223
664.285	0.0147162
664.363	0.0148302
664.442	0.0150102
664.520	0.0150041
664.598	0.0150709
664.676	0.0151231
664.754	0.0152074
664.832	0.0151147
664.910	0.0148671
664.988	0.0150391
665.067	0.0148985
665.145	0.0148247
665.223	0.0147874
665.301	0.0146588
665.379	0.0146015
665.457	0.0145916
665.535	0.0145927
665.613	0.0144345
665.692	0.0145869
665.770	0.0145741
665.848	0.0145238
665.926	0.0143832
666.004	0.0144460
666.082	0.0143698
666.160	0.0142928
666.238	0.0143208
666.317	0.0141777
666.395	0.0140238
666.473	0.0140119
666.551	0.0139587
666.629	0.0138332
666.707	0.0138971
666.785	0.0137270
666.863	0.0136984
666.942	0.0138634
667.020	0.0136978
667.098	0.0138450
667.176	0.0137396
667.254	0.0137405
667.332	0.0138555
667.410	0.0137063
667.488	0.0139935
667.567	0.0139443
667.645	0.0139118
667.723	0.0139803
667.801	0.0140032
667.879	0.0139459
667.957	0.0141542
668.035	0.0141702
668.113	0.0141301
668.192	0.0141249
668.270	0.0143276
668.348	0.0142223
668.426	0.0141741
668.504	0.0142159
668.582	0.0142677
668.660	0.0142608
668.738	0.0143094
668.817	0.0143301
668.895	0.0144321
668.973	0.0142730
669.051	0.0143000
669.129	0.0141561
669.207	0.0143414
669.285	0.0144354
669.363	0.0144273
669.442	0.0143919
669.520	0.0145023
669.598	0.0144946
669.676	0.0145415
669.754	0.0144598
669.832	0.0146741
669.910	0.0147452
669.988	0.0148904
670.067	0.0148808
670.145	0.0150479
670.223	0.0151512
670.301	0.0151229
670.379	0.0151048
670.457	0.0151247
670.535	0.0152280
670.613	0.0151159
670.692	0.0150924
670.770	0.0149818
670.848	0.0147423
670.926	0.0146543
671.004	0.0144328
671.082	0.0142189
671.160	0.0141288
671.238	0.0141208
671.317	0.0140123
671.395	0.0140083
671.473	0.0137525
671.551	0.0137921
671.629	0.0139310
671.707	0.0137845
671.785	0.0138052
671.863	0.0139211
671.942	0.0138820
672.020	0.0138386
672.098	0.0139671
672.176	0.0138536
672.254	0.0138723
672.332	0.0139729
672.410	0.0140558
672.488	0.0141455
672.567	0.0141718
672.645	0.0140938
672.723	0.0141146
672.801	0.0140731
672.879	0.0142601
672.957	0.0140723
673.035	0.0139455
673.113	0.0140562
673.192	0.0140672
673.270	0.0140388
673.348	0.0138623
673.426	0.0140616
673.504	0.0140011
673.582	0.0141390
673.660	0.0140513
673.738	0.0141918
673.817	0.0142033
673.895	0.0140803
673.973	0.0142393
674.051	0.0141298
674.129	0.0143126
674.207	0.0142727
674.285	0.0144684
674.363	0.0147000
674.442	0.0146432
674.520	0.0147470
674.598	0.0148524
674.676	0.0148229
674.754	0.0150685
674.832	0.0150394
674.910	0.0150418
674.988	0.0150012
675.067	0.0149406
675.145	0.0147269
675.223	0.0146508
675.301	0.0146362
675.379	0.0144362
675.457	0.0141809
675.535	0.0142307
675.613	0.0141066
675.692	0.0139860
675.770	0.0139422
675.848	0.0137627
675.926	0.0137019
676.004	0.0137345
676.082	0.0137931
676.160	0.0137864
676.238	0.0137444
676.317	0.0137904
676.395	0.0138786
676.473	0.0139420
676.551	0.0140710
676.629	0.0140593
676.707	0.0141891
676.785	0.0143687
676.863	0.0143336
676.942	0.0145251
677.020	0.0145666
677.098	0.0147603
677.176	0.0148379
677.254	0.0149744
677.332	0.0148926
677.410	0.0150695
677.488	0.0151031
677.567	0.0151240
677.645	0.0150900
677.723	0.0151819
677.801	0.0151777
677.879	0.0151021
677.957	0.0150878
678.035	0.0150612
678.113	0.0147435
678.192	0.0146802
678.270	0.0147771
678.348	0.0145741
678.426	0.0144384
678.504	0.0141971
678.582	0.0141671
678.660	0.0139178
678.738	0.0137307
678.817	0.0136216
678.895	0.0133124
678.973	0.0133160
679.051	0.0131035
679.129	0.0129424
679.207	0.0130370
679.285	0.0131439
679.363	0.0129581
679.442	0.0131380
679.520	0.0131838
679.598	0.0134044
679.676	0.0135709
679.754	0.0136605
679.832	0.0137462
679.910	0.0139155
679.988	0.0141191
680.067	0.0144363
680.145	0.0145763
680.223	0.0145422
680.301	0.0146657
680.379	0.0148440
680.457	0.0148521
680.535	0.0148192
680.613	0.0149052
680.692	0.0148454
680.770	0.0150164
680.848	0.0148209
680.926	0.0149545
681.004	0.0149049
681.082	0.0148273
681.160	0.0147701
681.238	0.0147204
681.317	0.0145049
681.395	0.0144998
681.473	0.0146553
681.551	0.0146457
681.629	0.0145942
681.707	0.0144555
681.785	0.0143981
681.863	0.0143018
681.942	0.0143592
682.020	0.0141605
682.098	0.0142833
682.176	0.0142678
682.254	0.0142817
682.332	0.0142624
682.410	0.0140800
682.488	0.0141878
682.567	0.0141380
682.645	0.0141165
682.723	0.0140936
682.801	0.0143376
682.879	0.0142326
682.957	0.0143558
683.035	0.0144557
683.113	0.0144814
683.192	0.0145667
683.270	0.0145480
683.348	0.0144720
683.426	0.0145344
683.504	0.0145950
683.582	0.0145824
683.660	0.0147079
683.738	0.0146590
683.817	0.0145606
683.895	0.0145642
683.973	0.0144924
684.051	0.0145493
684.129	0.0143793
684.207	0.0142986
684.285	0.0144119
684.363	0.0142591
684.442	0.0142593
684.520	0.0141960
684.598	0.0140493
684.676	0.0138847
684.754	0.0140852
684.832	0.0141466
684.910	0.0140967
684.988	0.0141022
685.067	0.0140879
685.145	0.0141331
685.223	0.0140793
685.301	0.0140445
685.379	0.0142038
685.457	0.0142039
685.535	0.0142878
685.613	0.0142624
685.692	0.0140662
