05/28/2022	14:14:31	Ver.	4.1	UNKNOWN
Optical Delay	599.988409	Delta X		0.078125	Sweeps	1	Scan Rate	0/0
Coordinates	Axis 1	NaN	Axis 2	NaN	Axis 3	NaN	Axis 4	NaN	Axis 5	NaN	Axis 6	0.000000
TX Power	0.000000	RX Power	0.000000

599.988	0.0144811
600.067	0.0144695
600.145	0.0143830
600.223	0.0143975
600.301	0.0145219
600.379	0.0144713
600.457	0.0144244
600.535	0.0145626
600.613	0.0144774
600.692	0.0143774
600.770	0.0146981
600.848	0.0144547
600.926	0.0144820
601.004	0.0144838
601.082	0.0145661
601.160	0.0144299
601.238	0.0143749
601.317	0.0143983
601.395	0.0144948
601.473	0.0146161
601.551	0.0145356
601.629	0.0144901
601.707	0.0144631
601.785	0.0145773
601.863	0.0144590
601.942	0.0144335
602.020	0.0145620
602.098	0.0145255
602.176	0.0145108
602.254	0.0144651
602.332	0.0145600
602.410	0.0145083
602.488	0.0145412
602.567	0.0144488
602.645	0.0144274
602.723	0.0144312
602.801	0.0143950
602.879	0.0145283
602.957	0.0144993
603.035	0.0143793
603.113	0.0144604
603.192	0.0145705
603.270	0.0144706
603.348	0.0144137
603.426	0.0144744
603.504	0.0145394
603.582	0.0144294
603.660	0.0145671
603.738	0.0144981
603.817	0.0143748
603.895	0.0143726
603.973	0.0144546
604.051	0.0145977
604.129	0.0145390
604.207	0.0143692
604.285	0.0144730
604.363	0.0145151
604.442	0.0144199
604.520	0.0144325
604.598	0.0145188
604.676	0.0142319
604.754	0.0144611
604.832	0.0145552
604.910	0.0143775
604.988	0.0144424
605.067	0.0143827
605.145	0.0143871
605.223	0.0145457
605.301	0.0144779
605.379	0.0144535
605.457	0.0144189
605.535	0.0144897
605.613	0.0144067
605.692	0.0143726
605.770	0.0145005
605.848	0.0144887
605.926	0.0144341
606.004	0.0145556
606.082	0.0144188
606.160	0.0144707
606.238	0.0145243
606.317	0.0144029
606.395	0.0145207
606.473	0.0144847
606.551	0.0143772
606.629	0.0144139
606.707	0.0144360
606.785	0.0145838
606.863	0.0144798
606.942	0.0144663
607.020	0.0145130
607.098	0.0145769
607.176	0.0144060
607.254	0.0144195
607.332	0.0143581
607.410	0.0144415
607.488	0.0144926
607.567	0.0144515
607.645	0.0145246
607.723	0.0144910
607.801	0.0144454
607.879	0.0144998
607.957	0.0143752
608.035	0.0144001
608.113	0.0145172
608.192	0.0145345
608.270	0.0144928
608.348	0.0145453
608.426	0.0143687
608.504	0.0144757
608.582	0.0143887
608.660	0.0142964
608.738	0.0143879
608.817	0.0143529
608.895	0.0144975
608.973	0.0144770
609.051	0.0145351
609.129	0.0145605
609.207	0.0145157
609.285	0.0145476
609.363	0.0143991
609.442	0.0144780
609.520	0.0145107
609.598	0.0145081
609.676	0.0145631
609.754	0.0144805
609.832	0.0144558
609.910	0.0144785
609.988	0.0144321
610.067	0.0144686
610.145	0.0143623
610.223	0.0144081
610.301	0.0144659
610.379	0.0145284
610.457	0.0144350
610.535	0.0144334
610.613	0.0144373
610.692	0.0144362
610.770	0.0145613
610.848	0.0144786
610.926	0.0145573
611.004	0.0144451
611.082	0.0144049
611.160	0.0143884
611.238	0.0144035
611.317	0.0142862
611.395	0.0144621
611.473	0.0145420
611.551	0.0145547
611.629	0.0144138
611.707	0.0145065
611.785	0.0144320
611.863	0.0144259
611.942	0.0144295
612.020	0.0145461
612.098	0.0146082
612.176	0.0144630
612.254	0.0144814
612.332	0.0144872
612.410	0.0146265
612.488	0.0143758
612.567	0.0144822
612.645	0.0145694
612.723	0.0144137
612.801	0.0144516
612.879	0.0143661
612.957	0.0145926
613.035	0.0144907
613.113	0.0144920
613.192	0.0145631
613.270	0.0143597
613.348	0.0143896
613.426	0.0143842
613.504	0.0143682
613.582	0.0145768
613.660	0.0144836
613.738	0.0145569
613.817	0.0145359
613.895	0.0144294
613.973	0.0145087
614.051	0.0145260
614.129	0.0144948
614.207	0.0144115
614.285	0.0144530
614.363	0.0144955
614.442	0.0145084
614.520	0.0144566
614.598	0.0144143
614.676	0.0144200
614.754	0.0144615
614.832	0.0143946
614.910	0.0144431
614.988	0.0144466
615.067	0.0145330
615.145	0.0145709
615.223	0.0144391
615.301	0.0145341
615.379	0.0145011
615.457	0.0144382
615.535	0.0145335
615.613	0.0145303
615.692	0.0146082
615.770	0.0144696
615.848	0.0145992
615.926	0.0144450
616.004	0.0144747
616.082	0.0145314
616.160	0.0143290
616.238	0.0144115
616.317	0.0144347
616.395	0.0144431
616.473	0.0145755
616.551	0.0145411
616.629	0.0144895
616.707	0.0144951
616.785	0.0144370
616.863	0.0143837
616.942	0.0145632
617.020	0.0145933
617.098	0.0144205
617.176	0.0144896
617.254	0.0144666
617.332	0.0145338
617.410	0.0144806
617.488	0.0144633
617.567	0.0144170
617.645	0.0144451
617.723	0.0145444
617.801	0.0144537
617.879	0.0144696
617.957	0.0145222
618.035	0.0146014
618.113	0.0143974
618.192	0.0144367
618.270	0.0144228
618.348	0.0145883
618.426	0.0143786
618.504	0.0145639
618.582	0.0145038
618.660	0.0145441
618.738	0.0144843
618.817	0.0144118
618.895	0.0144944
618.973	0.0144993
619.051	0.0146440
619.129	0.0143918
619.207	0.0143353
619.285	0.0145824
619.363	0.0145507
619.442	0.0145137
619.520	0.0144554
619.598	0.0144842
619.676	0.0143816
619.754	0.0144485
619.832	0.0145738
619.910	0.0145734
619.988	0.0145427
620.067	0.0144769
620.145	0.0143690
620.223	0.0144908
620.301	0.0145663
620.379	0.0143661
620.457	0.0145407
620.535	0.0145663
620.613	0.0144161
620.692	0.0144666
620.770	0.0145351
620.848	0.0144884
620.926	0.0144785
621.004	0.0145533
621.082	0.0146255
621.160	0.0145029
621.238	0.0143243
621.317	0.0146021
621.395	0.0145609
621.473	0.0143610
621.551	0.0144342
621.629	0.0144221
621.707	0.0145515
621.785	0.0144508
621.863	0.0145505
621.942	0.0144802
622.020	0.0146928
622.098	0.0145578
622.176	0.0144810
622.254	0.0145564
622.332	0.0144913
622.410	0.0145377
622.488	0.0144301
622.567	0.0145232
622.645	0.0144884
622.723	0.0144775
622.801	0.0144625
622.879	0.0145640
622.957	0.0144878
623.035	0.0144171
623.113	0.0144298
623.192	0.0145185
623.270	0.0143910
623.348	0.0144625
623.426	0.0145860
623.504	0.0144583
623.582	0.0145687
623.660	0.0144435
623.738	0.0145310
623.817	0.0144143
623.895	0.0144522
623.973	0.0144510
624.051	0.0144537
624.129	0.0145409
624.207	0.0144009
624.285	0.0144367
624.363	0.0145688
624.442	0.0144404
624.520	0.0143875
624.598	0.0144279
624.676	0.0144099
624.754	0.0144549
624.832	0.0145703
624.910	0.0143874
624.988	0.0143699
625.067	0.0144612
625.145	0.0144650
625.223	0.0143594
625.301	0.0145811
625.379	0.0144611
625.457	0.0143817
625.535	0.0144447
625.613	0.0144450
625.692	0.0146130
625.770	0.0144913
625.848	0.0144145
625.926	0.0144675
626.004	0.0144689
626.082	0.0144674
626.160	0.0145026
626.238	0.0145275
626.317	0.0143511
626.395	0.0144350
626.473	0.0143015
626.551	0.0144614
626.629	0.0144522
626.707	0.0143542
626.785	0.0144829
626.863	0.0144560
626.942	0.0144648
627.020	0.0144999
627.098	0.0144814
627.176	0.0143816
627.254	0.0143549
627.332	0.0145313
627.410	0.0147371
627.488	0.0145228
627.567	0.0143944
627.645	0.0144157
627.723	0.0143704
627.801	0.0144735
627.879	0.0143710
627.957	0.0145017
628.035	0.0144120
628.113	0.0143964
628.192	0.0144121
628.270	0.0143364
628.348	0.0144319
628.426	0.0143207
628.504	0.0144629
628.582	0.0143854
628.660	0.0145042
628.738	0.0144872
628.817	0.0144420
628.895	0.0143696
628.973	0.0145830
629.051	0.0145990
629.129	0.0143330
629.207	0.0144382
629.285	0.0143737
629.363	0.0144951
629.442	0.0145183
629.520	0.0144352
629.598	0.0144073
629.676	0.0146181
629.754	0.0145474
629.832	0.0144618
629.910	0.0145988
629.988	0.0145039
630.067	0.0145003
630.145	0.0145226
630.223	0.0145379
630.301	0.0145608
630.379	0.0144445
630.457	0.0143282
630.535	0.0145432
630.613	0.0144186
630.692	0.0145473
630.770	0.0144926
630.848	0.0145464
630.926	0.0144994
631.004	0.0145018
631.082	0.0144631
631.160	0.0144730
631.238	0.0144565
631.317	0.0145029
631.395	0.0145482
631.473	0.0145211
631.551	0.0145204
631.629	0.0144595
631.707	0.0146169
631.785	0.0144611
631.863	0.0145004
631.942	0.0144884
632.020	0.0145603
632.098	0.0145724
632.176	0.0145393
632.254	0.0144773
632.332	0.0144144
632.410	0.0145309
632.488	0.0145727
632.567	0.0144122
632.645	0.0145262
632.723	0.0144977
632.801	0.0146465
632.879	0.0144553
632.957	0.0145703
633.035	0.0144581
633.113	0.0143094
633.192	0.0144820
633.270	0.0144750
633.348	0.0145264
633.426	0.0143874
633.504	0.0144671
633.582	0.0144417
633.660	0.0143923
633.738	0.0145031
633.817	0.0144206
633.895	0.0144480
633.973	0.0144695
634.051	0.0143476
634.129	0.0144582
634.207	0.0146587
634.285	0.0145065
634.363	0.0145284
634.442	0.0143156
634.520	0.0144085
634.598	0.0144914
634.676	0.0144016
634.754	0.0143712
634.832	0.0145100
634.910	0.0144352
634.988	0.0145104
635.067	0.0144759
635.145	0.0144112
635.223	0.0144699
635.301	0.0144723
635.379	0.0144095
635.457	0.0144645
635.535	0.0145235
635.613	0.0143786
635.692	0.0143841
635.770	0.0143964
635.848	0.0144107
635.926	0.0144452
636.004	0.0144164
636.082	0.0145429
636.160	0.0143935
636.238	0.0144545
636.317	0.0144437
636.395	0.0145337
636.473	0.0143841
636.551	0.0145414
636.629	0.0146110
636.707	0.0143911
636.785	0.0145802
636.863	0.0145795
636.942	0.0144705
637.020	0.0144731
637.098	0.0144140
637.176	0.0145482
637.254	0.0145631
637.332	0.0145095
637.410	0.0146151
637.488	0.0144691
637.567	0.0145802
637.645	0.0145363
637.723	0.0145100
637.801	0.0145023
637.879	0.0145041
637.957	0.0145805
638.035	0.0144917
638.113	0.0145060
638.192	0.0146406
638.270	0.0146485
638.348	0.0144819
638.426	0.0144982
638.504	0.0145029
638.582	0.0145913
638.660	0.0145055
638.738	0.0144574
638.817	0.0145934
638.895	0.0144283
638.973	0.0144618
639.051	0.0144918
639.129	0.0144471
639.207	0.0144852
639.285	0.0144453
639.363	0.0145898
639.442	0.0144877
639.520	0.0144541
639.598	0.0144790
639.676	0.0144112
639.754	0.0143970
639.832	0.0145486
639.910	0.0144904
639.988	0.0144145
640.067	0.0145376
640.145	0.0145255
640.223	0.0144244
640.301	0.0145181
640.379	0.0145627
640.457	0.0144536
640.535	0.0145866
640.613	0.0145149
640.692	0.0145467
640.770	0.0145043
640.848	0.0144599
640.926	0.0144759
641.004	0.0144529
641.082	0.0144611
641.160	0.0146249
641.238	0.0144731
641.317	0.0144298
641.395	0.0144325
641.473	0.0144617
641.551	0.0144550
641.629	0.0144446
641.707	0.0145205
641.785	0.0143831
641.863	0.0146372
641.942	0.0145397
642.020	0.0144221
642.098	0.0143159
642.176	0.0143271
642.254	0.0144558
642.332	0.0144109
642.410	0.0145251
642.488	0.0146279
642.567	0.0144611
642.645	0.0143526
642.723	0.0144209
642.801	0.0145046
642.879	0.0146166
642.957	0.0144419
643.035	0.0144714
643.113	0.0143761
643.192	0.0145190
643.270	0.0144888
643.348	0.0143908
643.426	0.0144616
643.504	0.0145013
643.582	0.0144838
643.660	0.0144305
643.738	0.0144615
643.817	0.0144886
643.895	0.0144862
643.973	0.0145240
644.051	0.0144496
644.129	0.0143803
644.207	0.0143698
644.285	0.0144697
644.363	0.0144695
644.442	0.0144352
644.520	0.0145774
644.598	0.0143866
644.676	0.0143984
644.754	0.0144142
644.832	0.0143872
644.910	0.0144189
644.988	0.0144382
645.067	0.0144362
645.145	0.0143997
645.223	0.0145268
645.301	0.0144876
645.379	0.0146031
645.457	0.0144986
645.535	0.0145048
645.613	0.0144316
645.692	0.0145842
645.770	0.0145873
645.848	0.0145288
645.926	0.0144917
646.004	0.0146927
646.082	0.0145879
646.160	0.0144897
646.238	0.0145566
646.317	0.0146217
646.395	0.0145948
646.473	0.0146008
646.551	0.0144348
646.629	0.0145370
646.707	0.0145316
646.785	0.0144337
646.863	0.0143795
646.942	0.0143732
647.020	0.0143793
647.098	0.0143314
647.176	0.0142696
647.254	0.0142304
647.332	0.0142651
647.410	0.0140040
647.488	0.0142230
647.567	0.0142599
647.645	0.0143500
647.723	0.0142719
647.801	0.0142007
647.879	0.0142899
647.957	0.0144252
648.035	0.0144164
648.113	0.0145246
648.192	0.0145352
648.270	0.0146160
648.348	0.0144336
648.426	0.0144123
648.504	0.0143855
648.582	0.0143893
648.660	0.0145734
648.738	0.0143959
648.817	0.0145538
648.895	0.0145273
648.973	0.0143694
649.051	0.0144640
649.129	0.0146207
649.207	0.0145070
649.285	0.0145646
649.363	0.0145659
649.442	0.0144156
649.520	0.0146191
649.598	0.0146205
649.676	0.0146205
649.754	0.0147047
649.832	0.0146577
649.910	0.0146107
649.988	0.0146890
650.067	0.0145372
650.145	0.0145541
650.223	0.0146201
650.301	0.0145477
650.379	0.0144833
650.457	0.0143738
650.535	0.0144325
650.613	0.0143925
650.692	0.0143426
650.770	0.0142858
650.848	0.0143628
650.926	0.0142483
651.004	0.0142638
651.082	0.0143478
651.160	0.0142456
651.238	0.0143242
651.317	0.0142632
651.395	0.0143104
651.473	0.0143501
651.551	0.0143401
651.629	0.0143272
651.707	0.0142509
651.785	0.0141690
651.863	0.0141794
651.942	0.0141572
652.020	0.0140825
652.098	0.0140829
652.176	0.0142271
652.254	0.0141965
652.332	0.0143262
652.410	0.0143230
652.488	0.0143998
652.567	0.0144332
652.645	0.0146152
652.723	0.0146187
652.801	0.0147684
652.879	0.0148248
652.957	0.0148918
653.035	0.0148750
653.113	0.0146406
653.192	0.0147713
653.270	0.0148377
653.348	0.0148946
653.426	0.0148700
653.504	0.0146832
653.582	0.0146820
653.660	0.0147701
653.738	0.0146960
653.817	0.0148624
653.895	0.0148976
653.973	0.0147954
654.051	0.0147693
654.129	0.0146217
654.207	0.0145891
654.285	0.0145654
654.363	0.0144298
654.442	0.0145992
654.520	0.0143922
654.598	0.0144000
654.676	0.0145847
654.754	0.0145490
654.832	0.0145300
654.910	0.0144799
654.988	0.0145674
655.067	0.0145498
655.145	0.0146165
655.223	0.0146161
655.301	0.0145238
655.379	0.0145657
655.457	0.0143541
655.535	0.0144453
655.613	0.0142773
655.692	0.0140623
655.770	0.0139845
655.848	0.0139235
655.926	0.0139666
656.004	0.0136688
656.082	0.0137069
656.160	0.0137096
656.238	0.0136246
656.317	0.0136105
656.395	0.0136667
656.473	0.0137303
656.551	0.0138792
656.629	0.0139127
656.707	0.0140867
656.785	0.0142524
656.863	0.0144197
656.942	0.0143879
657.020	0.0146510
657.098	0.0148018
657.176	0.0148619
657.254	0.0148708
657.332	0.0149306
657.410	0.0149470
657.488	0.0148701
657.567	0.0149358
657.645	0.0148878
657.723	0.0148179
657.801	0.0149278
657.879	0.0149232
657.957	0.0150292
658.035	0.0150524
658.113	0.0148893
658.192	0.0148908
658.270	0.0148307
658.348	0.0149080
658.426	0.0149126
658.504	0.0149714
658.582	0.0148328
658.660	0.0149709
658.738	0.0148302
658.817	0.0149663
658.895	0.0149241
658.973	0.0149156
659.051	0.0147715
659.129	0.0147942
659.207	0.0147890
659.285	0.0146572
659.363	0.0146680
659.442	0.0145729
659.520	0.0144549
659.598	0.0143782
659.676	0.0142064
659.754	0.0142115
659.832	0.0142362
659.910	0.0140447
659.988	0.0140740
660.067	0.0142086
660.145	0.0140151
660.223	0.0139553
660.301	0.0139561
660.379	0.0139335
660.457	0.0139817
660.535	0.0139127
660.613	0.0138989
660.692	0.0139684
660.770	0.0140005
660.848	0.0137513
660.926	0.0138027
661.004	0.0138721
661.082	0.0139913
661.160	0.0139431
661.238	0.0138541
661.317	0.0140244
661.395	0.0140877
661.473	0.0140232
661.551	0.0141174
661.629	0.0142055
661.707	0.0142207
661.785	0.0143474
661.863	0.0144097
661.942	0.0143610
662.020	0.0143826
662.098	0.0143675
662.176	0.0144691
662.254	0.0147099
662.332	0.0146398
662.410	0.0147330
662.488	0.0148641
662.567	0.0148770
662.645	0.0151173
662.723	0.0150853
662.801	0.0151836
662.879	0.0152681
662.957	0.0153769
663.035	0.0154462
663.113	0.0152281
663.192	0.0151573
663.270	0.0150145
663.348	0.0151296
663.426	0.0150152
663.504	0.0149242
663.582	0.0148386
663.660	0.0149686
663.738	0.0146693
663.817	0.0146001
663.895	0.0146718
663.973	0.0148475
664.051	0.0147247
664.129	0.0145489
664.207	0.0147205
664.285	0.0145791
664.363	0.0146471
664.442	0.0144413
664.520	0.0145656
664.598	0.0145451
664.676	0.0143304
664.754	0.0143420
664.832	0.0141102
664.910	0.0141624
664.988	0.0141728
665.067	0.0140338
665.145	0.0138673
665.223	0.0139813
665.301	0.0137495
665.379	0.0135883
665.457	0.0136415
665.535	0.0136554
665.613	0.0136241
665.692	0.0136719
665.770	0.0136367
665.848	0.0136641
665.926	0.0138672
666.004	0.0139366
666.082	0.0138821
666.160	0.0141416
666.238	0.0142079
666.317	0.0143375
666.395	0.0143136
666.473	0.0143712
666.551	0.0145444
666.629	0.0146289
666.707	0.0146713
666.785	0.0145811
666.863	0.0146189
666.942	0.0145219
667.020	0.0145612
667.098	0.0145958
667.176	0.0147231
667.254	0.0145460
667.332	0.0145061
667.410	0.0145692
667.488	0.0145398
667.567	0.0145136
667.645	0.0144935
667.723	0.0145184
667.801	0.0145330
667.879	0.0145760
667.957	0.0144976
668.035	0.0145205
668.113	0.0145307
668.192	0.0145863
668.270	0.0146790
668.348	0.0147771
668.426	0.0147383
668.504	0.0147407
668.582	0.0147928
668.660	0.0149562
668.738	0.0149442
668.817	0.0150194
668.895	0.0151511
668.973	0.0149615
669.051	0.0148697
669.129	0.0149448
669.207	0.0150165
669.285	0.0147071
669.363	0.0147610
669.442	0.0145471
669.520	0.0147613
669.598	0.0146691
669.676	0.0144456
669.754	0.0144344
669.832	0.0144041
669.910	0.0142569
669.988	0.0143493
670.067	0.0140952
670.145	0.0141015
670.223	0.0139247
670.301	0.0139788
670.379	0.0139552
670.457	0.0139254
670.535	0.0139658
670.613	0.0138409
670.692	0.0138765
670.770	0.0141573
670.848	0.0139873
670.926	0.0138864
671.004	0.0140518
671.082	0.0139308
671.160	0.0141001
671.238	0.0141041
671.317	0.0141262
671.395	0.0144057
671.473	0.0143793
671.551	0.0143304
671.629	0.0144153
671.707	0.0142905
671.785	0.0144374
671.863	0.0146920
671.942	0.0146073
672.020	0.0146057
672.098	0.0145013
672.176	0.0146770
672.254	0.0145605
672.332	0.0145173
672.410	0.0144405
672.488	0.0144085
672.567	0.0143027
672.645	0.0142497
672.723	0.0142599
672.801	0.0142903
672.879	0.0144002
672.957	0.0144263
673.035	0.0143086
673.113	0.0142954
673.192	0.0142657
673.270	0.0142525
673.348	0.0143819
673.426	0.0144698
673.504	0.0143802
673.582	0.0144168
673.660	0.0145914
673.738	0.0146543
673.817	0.0147013
673.895	0.0148178
673.973	0.0149027
674.051	0.0150306
674.129	0.0151079
674.207	0.0152126
674.285	0.0152219
674.363	0.0151523
674.442	0.0153421
674.520	0.0152477
674.598	0.0151089
674.676	0.0149693
674.754	0.0150439
674.832	0.0150037
674.910	0.0146868
674.988	0.0145771
675.067	0.0145302
675.145	0.0143268
675.223	0.0141698
675.301	0.0140687
675.379	0.0140682
675.457	0.0138913
675.535	0.0136530
675.613	0.0137761
675.692	0.0139239
675.770	0.0137243
675.848	0.0138020
675.926	0.0140588
676.004	0.0140454
676.082	0.0141217
676.160	0.0142501
676.238	0.0142912
676.317	0.0144191
676.395	0.0145967
676.473	0.0145047
676.551	0.0146658
676.629	0.0147593
676.707	0.0148344
676.785	0.0149618
676.863	0.0150703
676.942	0.0150498
677.020	0.0150113
677.098	0.0150809
677.176	0.0148943
677.254	0.0148546
677.332	0.0149093
677.410	0.0149190
677.488	0.0148740
677.567	0.0148676
677.645	0.0148719
677.723	0.0146815
677.801	0.0147664
677.879	0.0146550
677.957	0.0146274
678.035	0.0144946
678.113	0.0143508
678.192	0.0144189
678.270	0.0142612
678.348	0.0140721
678.426	0.0140151
678.504	0.0140099
678.582	0.0137957
678.660	0.0136118
678.738	0.0135831
678.817	0.0135924
678.895	0.0136066
678.973	0.0135946
679.051	0.0137593
679.129	0.0137449
679.207	0.0136903
679.285	0.0137256
679.363	0.0139094
679.442	0.0141103
679.520	0.0141184
679.598	0.0143237
679.676	0.0144968
679.754	0.0146022
679.832	0.0149058
679.910	0.0150380
679.988	0.0151288
680.067	0.0151147
680.145	0.0153347
680.223	0.0154750
680.301	0.0155129
680.379	0.0155703
680.457	0.0156086
680.535	0.0156610
680.613	0.0155061
680.692	0.0155360
680.770	0.0154498
680.848	0.0153233
680.926	0.0153770
681.004	0.0152966
681.082	0.0151199
681.160	0.0149113
681.238	0.0149064
681.317	0.0148279
681.395	0.0145220
681.473	0.0143934
681.551	0.0143109
681.629	0.0141602
681.707	0.0141298
681.785	0.0141099
681.863	0.0139355
681.942	0.0138841
682.020	0.0137986
682.098	0.0137582
682.176	0.0138593
682.254	0.0137908
682.332	0.0138279
682.410	0.0138255
682.488	0.0139333
682.567	0.0139425
682.645	0.0138951
682.723	0.0141801
682.801	0.0141866
682.879	0.0141763
682.957	0.0145408
683.035	0.0146173
683.113	0.0146680
683.192	0.0146918
683.270	0.0149191
683.348	0.0148631
683.426	0.0146642
683.504	0.0147000
683.582	0.0146276
683.660	0.0146455
683.738	0.0145768
683.817	0.0145345
683.895	0.0144370
683.973	0.0144093
684.051	0.0142858
684.129	0.0143428
684.207	0.0143867
684.285	0.0142212
684.363	0.0144080
684.442	0.0143436
684.520	0.0145262
684.598	0.0145291
684.676	0.0145253
684.754	0.0143248
684.832	0.0145613
684.910	0.0145773
684.988	0.0146641
685.067	0.0146555
685.145	0.0145948
685.223	0.0144647
685.301	0.0145196
685.379	0.0145751
685.457	0.0143519
685.535	0.0144658
685.613	0.0142058
685.692	0.0141574
