05/28/2022	14:15:46	Ver.	4.1	UNKNOWN
Optical Delay	599.988409	Delta X		0.078125	Sweeps	1	Scan Rate	0/0
Coordinates	Axis 1	NaN	Axis 2	NaN	Axis 3	NaN	Axis 4	NaN	Axis 5	NaN	Axis 6	0.000000
TX Power	0.000000	RX Power	0.000000

599.988	0.0145644
600.067	0.0146474
600.145	0.0144762
600.223	0.0145864
600.301	0.0145934
600.379	0.0145940
600.457	0.0145733
600.535	0.0146240
600.613	0.0145912
600.692	0.0144856
600.770	0.0147237
600.848	0.0146992
600.926	0.0145296
601.004	0.0146672
601.082	0.0146784
601.160	0.0145850
601.238	0.0146629
601.317	0.0147837
601.395	0.0146918
601.473	0.0147554
601.551	0.0146530
601.629	0.0146066
601.707	0.0145895
601.785	0.0146262
601.863	0.0147618
601.942	0.0147217
602.020	0.0146217
602.098	0.0146394
602.176	0.0146481
602.254	0.0144932
602.332	0.0146429
602.410	0.0146285
602.488	0.0146773
602.567	0.0147009
602.645	0.0145506
602.723	0.0146420
602.801	0.0145419
602.879	0.0146096
602.957	0.0147790
603.035	0.0147615
603.113	0.0145003
603.192	0.0146062
603.270	0.0146305
603.348	0.0145827
603.426	0.0147139
603.504	0.0146085
603.582	0.0145909
603.660	0.0146642
603.738	0.0145622
603.817	0.0145759
603.895	0.0146970
603.973	0.0145556
604.051	0.0145729
604.129	0.0147109
604.207	0.0146250
604.285	0.0146318
604.363	0.0146851
604.442	0.0146492
604.520	0.0146713
604.598	0.0146777
604.676	0.0147799
604.754	0.0146096
604.832	0.0146984
604.910	0.0146642
604.988	0.0146943
605.067	0.0146611
605.145	0.0146796
605.223	0.0146851
605.301	0.0146952
605.379	0.0146709
605.457	0.0147185
605.535	0.0148041
605.613	0.0145786
605.692	0.0145529
605.770	0.0146356
605.848	0.0147339
605.926	0.0146442
606.004	0.0147054
606.082	0.0146567
606.160	0.0145609
606.238	0.0146041
606.317	0.0147305
606.395	0.0146584
606.473	0.0146339
606.551	0.0145879
606.629	0.0145485
606.707	0.0146059
606.785	0.0146225
606.863	0.0145314
606.942	0.0147392
607.020	0.0145657
607.098	0.0146107
607.176	0.0146284
607.254	0.0147298
607.332	0.0146368
607.410	0.0146027
607.488	0.0146959
607.567	0.0145022
607.645	0.0145980
607.723	0.0145385
607.801	0.0145763
607.879	0.0147306
607.957	0.0146595
608.035	0.0146084
608.113	0.0145442
608.192	0.0146221
608.270	0.0146171
608.348	0.0146973
608.426	0.0146120
608.504	0.0146472
608.582	0.0145959
608.660	0.0146048
608.738	0.0145629
608.817	0.0145898
608.895	0.0145555
608.973	0.0145998
609.051	0.0145098
609.129	0.0145535
609.207	0.0146292
609.285	0.0145168
609.363	0.0146370
609.442	0.0146051
609.520	0.0144515
609.598	0.0146115
609.676	0.0145755
609.754	0.0145146
609.832	0.0144912
609.910	0.0145024
609.988	0.0144434
610.067	0.0144718
610.145	0.0144756
610.223	0.0146111
610.301	0.0146685
610.379	0.0146289
610.457	0.0145460
610.535	0.0143820
610.613	0.0145747
610.692	0.0145842
610.770	0.0145909
610.848	0.0145564
610.926	0.0145744
611.004	0.0145643
611.082	0.0145020
611.160	0.0146315
611.238	0.0144442
611.317	0.0146255
611.395	0.0145950
611.473	0.0144340
611.551	0.0143415
611.629	0.0145520
611.707	0.0146455
611.785	0.0144272
611.863	0.0145083
611.942	0.0146424
612.020	0.0145757
612.098	0.0145670
612.176	0.0145014
612.254	0.0146612
612.332	0.0146471
612.410	0.0145981
612.488	0.0144552
612.567	0.0146230
612.645	0.0147121
612.723	0.0145750
612.801	0.0144978
612.879	0.0146036
612.957	0.0145264
613.035	0.0146452
613.113	0.0145749
613.192	0.0143846
613.270	0.0147966
613.348	0.0146292
613.426	0.0146412
613.504	0.0145587
613.582	0.0145401
613.660	0.0145456
613.738	0.0145770
613.817	0.0146184
613.895	0.0145856
613.973	0.0147361
614.051	0.0146194
614.129	0.0144768
614.207	0.0147147
614.285	0.0145680
614.363	0.0145644
614.442	0.0146581
614.520	0.0144128
614.598	0.0146133
614.676	0.0145517
614.754	0.0145554
614.832	0.0145394
614.910	0.0146104
614.988	0.0147299
615.067	0.0147389
615.145	0.0147167
615.223	0.0146748
615.301	0.0145409
615.379	0.0145412
615.457	0.0146133
615.535	0.0146769
615.613	0.0146731
615.692	0.0145380
615.770	0.0145780
615.848	0.0146510
615.926	0.0146519
616.004	0.0146468
616.082	0.0145335
616.160	0.0145749
616.238	0.0146665
616.317	0.0146628
616.395	0.0146952
616.473	0.0147147
616.551	0.0146106
616.629	0.0145383
616.707	0.0145402
616.785	0.0144408
616.863	0.0146671
616.942	0.0146722
617.020	0.0146793
617.098	0.0146189
617.176	0.0146332
617.254	0.0146397
617.332	0.0146310
617.410	0.0145609
617.488	0.0147084
617.567	0.0145500
617.645	0.0146546
617.723	0.0146986
617.801	0.0145551
617.879	0.0147033
617.957	0.0146016
618.035	0.0146340
618.113	0.0146346
618.192	0.0146429
618.270	0.0145848
618.348	0.0146361
618.426	0.0145847
618.504	0.0146526
618.582	0.0146030
618.660	0.0145326
618.738	0.0147540
618.817	0.0146162
618.895	0.0147137
618.973	0.0144765
619.051	0.0145081
619.129	0.0145127
619.207	0.0145131
619.285	0.0147276
619.363	0.0144799
619.442	0.0144958
619.520	0.0144718
619.598	0.0145059
619.676	0.0145589
619.754	0.0145425
619.832	0.0145889
619.910	0.0145639
619.988	0.0145618
620.067	0.0146037
620.145	0.0146487
620.223	0.0146432
620.301	0.0145975
620.379	0.0145086
620.457	0.0144719
620.535	0.0145348
620.613	0.0145987
620.692	0.0144838
620.770	0.0145398
620.848	0.0145077
620.926	0.0145396
621.004	0.0146313
621.082	0.0145441
621.160	0.0145749
621.238	0.0146535
621.317	0.0145502
621.395	0.0146449
621.473	0.0146088
621.551	0.0146989
621.629	0.0146075
621.707	0.0146191
621.785	0.0145963
621.863	0.0147044
621.942	0.0146054
622.020	0.0145978
622.098	0.0146326
622.176	0.0144698
622.254	0.0145671
622.332	0.0146344
622.410	0.0146971
622.488	0.0146157
622.567	0.0146432
622.645	0.0146658
622.723	0.0145590
622.801	0.0147527
622.879	0.0147324
622.957	0.0146876
623.035	0.0145686
623.113	0.0145234
623.192	0.0146905
623.270	0.0146300
623.348	0.0145345
623.426	0.0146755
623.504	0.0144949
623.582	0.0145600
623.660	0.0147326
623.738	0.0146708
623.817	0.0146063
623.895	0.0145349
623.973	0.0146582
624.051	0.0146246
624.129	0.0146593
624.207	0.0145520
624.285	0.0146350
624.363	0.0144988
624.442	0.0145276
624.520	0.0145663
624.598	0.0146779
624.676	0.0145244
624.754	0.0146249
624.832	0.0146478
624.910	0.0144957
624.988	0.0145757
625.067	0.0146947
625.145	0.0146840
625.223	0.0146822
625.301	0.0145377
625.379	0.0146392
625.457	0.0145919
625.535	0.0144857
625.613	0.0145652
625.692	0.0145936
625.770	0.0145712
625.848	0.0145184
625.926	0.0145990
626.004	0.0145286
626.082	0.0144035
626.160	0.0145550
626.238	0.0145278
626.317	0.0145961
626.395	0.0145913
626.473	0.0145965
626.551	0.0145094
626.629	0.0145564
626.707	0.0146029
626.785	0.0145020
626.863	0.0146217
626.942	0.0144958
627.020	0.0146340
627.098	0.0146049
627.176	0.0146281
627.254	0.0146622
627.332	0.0144083
627.410	0.0144884
627.488	0.0146866
627.567	0.0144856
627.645	0.0144668
627.723	0.0145413
627.801	0.0145195
627.879	0.0145714
627.957	0.0145574
628.035	0.0146147
628.113	0.0145430
628.192	0.0145609
628.270	0.0145825
628.348	0.0145867
628.426	0.0147086
628.504	0.0144838
628.582	0.0145593
628.660	0.0145317
628.738	0.0145940
628.817	0.0145638
628.895	0.0146081
628.973	0.0145416
629.051	0.0145159
629.129	0.0147744
629.207	0.0146339
629.285	0.0146085
629.363	0.0145927
629.442	0.0146314
629.520	0.0146289
629.598	0.0146484
629.676	0.0145154
629.754	0.0145358
629.832	0.0146049
629.910	0.0146165
629.988	0.0145558
630.067	0.0144736
630.145	0.0145954
630.223	0.0145890
630.301	0.0145036
630.379	0.0145432
630.457	0.0145235
630.535	0.0145483
630.613	0.0145331
630.692	0.0145674
630.770	0.0145404
630.848	0.0145592
630.926	0.0145284
631.004	0.0145214
631.082	0.0145095
631.160	0.0145013
631.238	0.0144290
631.317	0.0146621
631.395	0.0144803
631.473	0.0146510
631.551	0.0144259
631.629	0.0145667
631.707	0.0144402
631.785	0.0144698
631.863	0.0145612
631.942	0.0144883
632.020	0.0144627
632.098	0.0146677
632.176	0.0145368
632.254	0.0144299
632.332	0.0145949
632.410	0.0144693
632.488	0.0144174
632.567	0.0144797
632.645	0.0144895
632.723	0.0145036
632.801	0.0145947
632.879	0.0145123
632.957	0.0145541
633.035	0.0145473
633.113	0.0146250
633.192	0.0144882
633.270	0.0145492
633.348	0.0145384
633.426	0.0145947
633.504	0.0145577
633.582	0.0147105
633.660	0.0145538
633.738	0.0146519
633.817	0.0145454
633.895	0.0144108
633.973	0.0144376
634.051	0.0146598
634.129	0.0145515
634.207	0.0145027
634.285	0.0144549
634.363	0.0145026
634.442	0.0146932
634.520	0.0145490
634.598	0.0145155
634.676	0.0146228
634.754	0.0145718
634.832	0.0145444
634.910	0.0145686
634.988	0.0146095
635.067	0.0146297
635.145	0.0145328
635.223	0.0145866
635.301	0.0144871
635.379	0.0145671
635.457	0.0146339
635.535	0.0145808
635.613	0.0145265
635.692	0.0147030
635.770	0.0145843
635.848	0.0146090
635.926	0.0144535
636.004	0.0147293
636.082	0.0146911
636.160	0.0146808
636.238	0.0145278
636.317	0.0146174
636.395	0.0145866
636.473	0.0145657
636.551	0.0146046
636.629	0.0147289
636.707	0.0146033
636.785	0.0144743
636.863	0.0146585
636.942	0.0147203
637.020	0.0146468
637.098	0.0145357
637.176	0.0144815
637.254	0.0146550
637.332	0.0145624
637.410	0.0145262
637.488	0.0145752
637.567	0.0146597
637.645	0.0145107
637.723	0.0144417
637.801	0.0145168
637.879	0.0144997
637.957	0.0145728
638.035	0.0145946
638.113	0.0144450
638.192	0.0145393
638.270	0.0145461
638.348	0.0144363
638.426	0.0145528
638.504	0.0145781
638.582	0.0144878
638.660	0.0145423
638.738	0.0143919
638.817	0.0144343
638.895	0.0145210
638.973	0.0145107
639.051	0.0145566
639.129	0.0146461
639.207	0.0145544
639.285	0.0145857
639.363	0.0146606
639.442	0.0146640
639.520	0.0144577
639.598	0.0146642
639.676	0.0146513
639.754	0.0146071
639.832	0.0146069
639.910	0.0145876
639.988	0.0145857
640.067	0.0145950
640.145	0.0146626
640.223	0.0146046
640.301	0.0147014
640.379	0.0147890
640.457	0.0147076
640.535	0.0145692
640.613	0.0145995
640.692	0.0147472
640.770	0.0147298
640.848	0.0145424
640.926	0.0146342
641.004	0.0148059
641.082	0.0145677
641.160	0.0145699
641.238	0.0146584
641.317	0.0146490
641.395	0.0146827
641.473	0.0146278
641.551	0.0144538
641.629	0.0143797
641.707	0.0145288
641.785	0.0145362
641.863	0.0143981
641.942	0.0143982
642.020	0.0145490
642.098	0.0144619
642.176	0.0144057
642.254	0.0146111
642.332	0.0145988
642.410	0.0145879
642.488	0.0145197
642.567	0.0145662
642.645	0.0146881
642.723	0.0146246
642.801	0.0145934
642.879	0.0146465
642.957	0.0145558
643.035	0.0146778
643.113	0.0148186
643.192	0.0148387
643.270	0.0147747
643.348	0.0147787
643.426	0.0147366
643.504	0.0148163
643.582	0.0147185
643.660	0.0146855
643.738	0.0147903
643.817	0.0146799
643.895	0.0145436
643.973	0.0146371
644.051	0.0145228
644.129	0.0145087
644.207	0.0145618
644.285	0.0145172
644.363	0.0144597
644.442	0.0143964
644.520	0.0145934
644.598	0.0145177
644.676	0.0145822
644.754	0.0145572
644.832	0.0145672
644.910	0.0147141
644.988	0.0145541
645.067	0.0146705
645.145	0.0145537
645.223	0.0145858
645.301	0.0144928
645.379	0.0145162
645.457	0.0145274
645.535	0.0145561
645.613	0.0145764
645.692	0.0144940
645.770	0.0147627
645.848	0.0146581
645.926	0.0145412
646.004	0.0147199
646.082	0.0147903
646.160	0.0147027
646.238	0.0147414
646.317	0.0146832
646.395	0.0146503
646.473	0.0146443
646.551	0.0147690
646.629	0.0146858
646.707	0.0147362
646.785	0.0146152
646.863	0.0148264
646.942	0.0148700
647.020	0.0148844
647.098	0.0148000
647.176	0.0147520
647.254	0.0148358
647.332	0.0148063
647.410	0.0146310
647.488	0.0146409
647.567	0.0146602
647.645	0.0146119
647.723	0.0144765
647.801	0.0144098
647.879	0.0145647
647.957	0.0144590
648.035	0.0145073
648.113	0.0144925
648.192	0.0144766
648.270	0.0144362
648.348	0.0145969
648.426	0.0145895
648.504	0.0144139
648.582	0.0143982
648.660	0.0144748
648.738	0.0142818
648.817	0.0142747
648.895	0.0142216
648.973	0.0142554
649.051	0.0141399
649.129	0.0141601
649.207	0.0141284
649.285	0.0140714
649.363	0.0141383
649.442	0.0140839
649.520	0.0142255
649.598	0.0143169
649.676	0.0144106
649.754	0.0145427
649.832	0.0145772
649.910	0.0146684
649.988	0.0148431
650.067	0.0149140
650.145	0.0148735
650.223	0.0149300
650.301	0.0148949
650.379	0.0149085
650.457	0.0149182
650.535	0.0149990
650.613	0.0147903
650.692	0.0149545
650.770	0.0149567
650.848	0.0148640
650.926	0.0148043
651.004	0.0149675
651.082	0.0149998
651.160	0.0148636
651.238	0.0147046
651.317	0.0147743
651.395	0.0147690
651.473	0.0148084
651.551	0.0146587
651.629	0.0145708
651.707	0.0145618
651.785	0.0145013
651.863	0.0145211
651.942	0.0145780
652.020	0.0145321
652.098	0.0144449
652.176	0.0144566
652.254	0.0145364
652.332	0.0145160
652.410	0.0146333
652.488	0.0144732
652.567	0.0143937
652.645	0.0145338
652.723	0.0143978
652.801	0.0143970
652.879	0.0141910
652.957	0.0141731
653.035	0.0142856
653.113	0.0140479
653.192	0.0140225
653.270	0.0138857
653.348	0.0138356
653.426	0.0140599
653.504	0.0139750
653.582	0.0137601
653.660	0.0139386
653.738	0.0142272
653.817	0.0141727
653.895	0.0142069
653.973	0.0142445
654.051	0.0144896
654.129	0.0146047
654.207	0.0146925
654.285	0.0146396
654.363	0.0147014
654.442	0.0147655
654.520	0.0148470
654.598	0.0149551
654.676	0.0148606
654.754	0.0148234
654.832	0.0147242
654.910	0.0148239
654.988	0.0150069
655.067	0.0150011
655.145	0.0149726
655.223	0.0149751
655.301	0.0150016
655.379	0.0150171
655.457	0.0149908
655.535	0.0149390
655.613	0.0149748
655.692	0.0149159
655.770	0.0148639
655.848	0.0150154
655.926	0.0150009
656.004	0.0148676
656.082	0.0148780
656.160	0.0149383
656.238	0.0149957
656.317	0.0149343
656.395	0.0149869
656.473	0.0149342
656.551	0.0148037
656.629	0.0147900
656.707	0.0147292
656.785	0.0145743
656.863	0.0145473
656.942	0.0144542
657.020	0.0143405
657.098	0.0144323
657.176	0.0142369
657.254	0.0142663
657.332	0.0142030
657.410	0.0141747
657.488	0.0141228
657.567	0.0140615
657.645	0.0141228
657.723	0.0140220
657.801	0.0140051
657.879	0.0141682
657.957	0.0140676
658.035	0.0141080
658.113	0.0143121
658.192	0.0141511
658.270	0.0142583
658.348	0.0144099
658.426	0.0141472
658.504	0.0142438
658.582	0.0142767
658.660	0.0142979
658.738	0.0143492
658.817	0.0140854
658.895	0.0143459
658.973	0.0142582
659.051	0.0142651
659.129	0.0143906
659.207	0.0144477
659.285	0.0145365
659.363	0.0145821
659.442	0.0146031
659.520	0.0148487
659.598	0.0149365
659.676	0.0150430
659.754	0.0152261
659.832	0.0152632
659.910	0.0152760
659.988	0.0154185
660.067	0.0155638
660.145	0.0154754
660.223	0.0155566
660.301	0.0154759
660.379	0.0154317
660.457	0.0154668
660.535	0.0155008
660.613	0.0154007
660.692	0.0153851
660.770	0.0151149
660.848	0.0152100
660.926	0.0149163
661.004	0.0147530
661.082	0.0149776
661.160	0.0148458
661.238	0.0148095
661.317	0.0147614
661.395	0.0147894
661.473	0.0147931
661.551	0.0145516
661.629	0.0145399
661.707	0.0146343
661.785	0.0146225
661.863	0.0145955
661.942	0.0144619
662.020	0.0144714
662.098	0.0143592
662.176	0.0142986
662.254	0.0142626
662.332	0.0142075
662.410	0.0143759
662.488	0.0141481
662.567	0.0140985
662.645	0.0140130
662.723	0.0141221
662.801	0.0141763
662.879	0.0141286
662.957	0.0139875
663.035	0.0141651
663.113	0.0141553
663.192	0.0142090
663.270	0.0141145
663.348	0.0141612
663.426	0.0141770
663.504	0.0142488
663.582	0.0144218
663.660	0.0143606
663.738	0.0143461
663.817	0.0143845
663.895	0.0144862
663.973	0.0143081
664.051	0.0144110
664.129	0.0145326
664.207	0.0146139
664.285	0.0146615
664.363	0.0147676
664.442	0.0148048
664.520	0.0148319
664.598	0.0147792
664.676	0.0149379
664.754	0.0151043
664.832	0.0150719
664.910	0.0149653
664.988	0.0149453
665.067	0.0151192
665.145	0.0152817
665.223	0.0151469
665.301	0.0151534
665.379	0.0150686
665.457	0.0151662
665.535	0.0149696
665.613	0.0150869
665.692	0.0151827
665.770	0.0152055
665.848	0.0150694
665.926	0.0151153
666.004	0.0150626
666.082	0.0152171
666.160	0.0150387
666.238	0.0149487
666.317	0.0149484
666.395	0.0147082
666.473	0.0147686
666.551	0.0145092
666.629	0.0145528
666.707	0.0146167
666.785	0.0142721
666.863	0.0142568
666.942	0.0142017
667.020	0.0140103
667.098	0.0141660
667.176	0.0141185
667.254	0.0140646
667.332	0.0142174
667.410	0.0142360
667.488	0.0143781
667.567	0.0144442
667.645	0.0143873
667.723	0.0143500
667.801	0.0145484
667.879	0.0145647
667.957	0.0146267
668.035	0.0145895
668.113	0.0145448
668.192	0.0145648
668.270	0.0146572
668.348	0.0145269
668.426	0.0144125
668.504	0.0145303
668.582	0.0146043
668.660	0.0145320
668.738	0.0143509
668.817	0.0145189
668.895	0.0144226
668.973	0.0144706
669.051	0.0143242
669.129	0.0142313
669.207	0.0141988
669.285	0.0142125
669.363	0.0141898
669.442	0.0142475
669.520	0.0143903
669.598	0.0141785
669.676	0.0142168
669.754	0.0143864
669.832	0.0141723
669.910	0.0143414
669.988	0.0143404
670.067	0.0145454
670.145	0.0146515
670.223	0.0146949
670.301	0.0146989
670.379	0.0150721
670.457	0.0150279
670.535	0.0149531
670.613	0.0150494
670.692	0.0150242
670.770	0.0151395
670.848	0.0150546
670.926	0.0150557
671.004	0.0149382
671.082	0.0149407
671.160	0.0149422
671.238	0.0148177
671.317	0.0147829
671.395	0.0147057
671.473	0.0146742
671.551	0.0146864
671.629	0.0145185
671.707	0.0145071
671.785	0.0146043
671.863	0.0144894
671.942	0.0145332
672.020	0.0144553
672.098	0.0143769
672.176	0.0144724
672.254	0.0145367
672.332	0.0145860
672.410	0.0145396
672.488	0.0144958
672.567	0.0145856
672.645	0.0146261
672.723	0.0145390
672.801	0.0147750
672.879	0.0149199
672.957	0.0149867
673.035	0.0149052
673.113	0.0149690
673.192	0.0150504
673.270	0.0150445
673.348	0.0151440
673.426	0.0150657
673.504	0.0150858
673.582	0.0150090
673.660	0.0148853
673.738	0.0147800
673.817	0.0145267
673.895	0.0142095
673.973	0.0141216
674.051	0.0138799
674.129	0.0139758
674.207	0.0138097
674.285	0.0136156
674.363	0.0135701
674.442	0.0134893
674.520	0.0134462
674.598	0.0133702
674.676	0.0135612
674.754	0.0137081
674.832	0.0136110
674.910	0.0137531
674.988	0.0139428
675.067	0.0141956
675.145	0.0143578
675.223	0.0145395
675.301	0.0146849
675.379	0.0149243
675.457	0.0151791
675.535	0.0151456
675.613	0.0153217
675.692	0.0154854
675.770	0.0154839
675.848	0.0156444
675.926	0.0156470
676.004	0.0156080
676.082	0.0155283
676.160	0.0153819
676.238	0.0154128
676.317	0.0153221
676.395	0.0152024
676.473	0.0150352
676.551	0.0149728
676.629	0.0148228
676.707	0.0148258
676.785	0.0147504
676.863	0.0145672
676.942	0.0146326
677.020	0.0143911
677.098	0.0143062
677.176	0.0142722
677.254	0.0143220
677.332	0.0142135
677.410	0.0142186
677.488	0.0140749
677.567	0.0140622
677.645	0.0140180
677.723	0.0140049
677.801	0.0139616
677.879	0.0140565
677.957	0.0139772
678.035	0.0139481
678.113	0.0140739
678.192	0.0141288
678.270	0.0141733
678.348	0.0143626
678.426	0.0143510
678.504	0.0145305
678.582	0.0147380
678.660	0.0147704
678.738	0.0147967
678.817	0.0149280
678.895	0.0149787
678.973	0.0150465
679.051	0.0151996
679.129	0.0154124
679.207	0.0153371
679.285	0.0154622
679.363	0.0155787
679.442	0.0154252
679.520	0.0155898
679.598	0.0155720
679.676	0.0155231
679.754	0.0153732
679.832	0.0151846
679.910	0.0151608
679.988	0.0150035
680.067	0.0148454
680.145	0.0147690
680.223	0.0148064
680.301	0.0146458
680.379	0.0145131
680.457	0.0143398
680.535	0.0143785
680.613	0.0141611
680.692	0.0140908
680.770	0.0141165
680.848	0.0141461
680.926	0.0139951
681.004	0.0139850
681.082	0.0139365
681.160	0.0138528
681.238	0.0139054
681.317	0.0137551
681.395	0.0136802
681.473	0.0139877
681.551	0.0138232
681.629	0.0140001
681.707	0.0140530
681.785	0.0140273
681.863	0.0141633
681.942	0.0143069
682.020	0.0145859
682.098	0.0146822
682.176	0.0146459
682.254	0.0148663
682.332	0.0151406
682.410	0.0152424
682.488	0.0150111
682.567	0.0149605
682.645	0.0150883
682.723	0.0150269
682.801	0.0149599
682.879	0.0149853
682.957	0.0149500
683.035	0.0148619
683.113	0.0148533
683.192	0.0148172
683.270	0.0147255
683.348	0.0146929
683.426	0.0146848
683.504	0.0147172
683.582	0.0147163
683.660	0.0146756
683.738	0.0148040
683.817	0.0147078
683.895	0.0146298
683.973	0.0146179
684.051	0.0147186
684.129	0.0147313
684.207	0.0145905
684.285	0.0146217
684.363	0.0147457
684.442	0.0147134
684.520	0.0147977
684.598	0.0146867
684.676	0.0147433
684.754	0.0146707
684.832	0.0146780
684.910	0.0146377
684.988	0.0145115
685.067	0.0145454
685.145	0.0145510
685.223	0.0144500
685.301	0.0142898
685.379	0.0143204
685.457	0.0143274
685.535	0.0142842
685.613	0.0142307
685.692	0.0142644
