05/28/2022	14:16:01	Ver.	4.1	UNKNOWN
Optical Delay	599.988409	Delta X		0.078125	Sweeps	1	Scan Rate	0/0
Coordinates	Axis 1	NaN	Axis 2	NaN	Axis 3	NaN	Axis 4	NaN	Axis 5	NaN	Axis 6	0.000000
TX Power	0.000000	RX Power	0.000000

599.988	0.0142610
600.067	0.0143170
600.145	0.0143491
600.223	0.0142401
600.301	0.0142924
600.379	0.0143456
600.457	0.0142264
600.535	0.0142971
600.613	0.0142864
600.692	0.0142548
600.770	0.0144023
600.848	0.0142524
600.926	0.0142379
601.004	0.0142945
601.082	0.0142181
601.160	0.0142883
601.238	0.0143563
601.317	0.0141950
601.395	0.0142088
601.473	0.0142442
601.551	0.0142115
601.629	0.0140743
601.707	0.0142445
601.785	0.0143724
601.863	0.0142002
601.942	0.0143975
602.020	0.0143140
602.098	0.0142593
602.176	0.0143878
602.254	0.0141613
602.332	0.0142931
602.410	0.0143131
602.488	0.0142192
602.567	0.0143082
602.645	0.0143147
602.723	0.0142768
602.801	0.0143015
602.879	0.0140955
602.957	0.0143030
603.035	0.0142097
603.113	0.0142760
603.192	0.0142975
603.270	0.0142451
603.348	0.0141553
603.426	0.0141779
603.504	0.0142480
603.582	0.0143382
603.660	0.0142644
603.738	0.0142150
603.817	0.0142030
603.895	0.0141685
603.973	0.0142413
604.051	0.0143218
604.129	0.0142085
604.207	0.0141467
604.285	0.0141814
604.363	0.0143024
604.442	0.0141576
604.520	0.0142400
604.598	0.0142094
604.676	0.0142860
604.754	0.0143169
604.832	0.0142361
604.910	0.0141702
604.988	0.0143179
605.067	0.0141562
605.145	0.0141894
605.223	0.0143741
605.301	0.0142555
605.379	0.0142918
605.457	0.0144209
605.535	0.0142355
605.613	0.0142706
605.692	0.0142680
605.770	0.0142348
605.848	0.0143008
605.926	0.0142643
606.004	0.0142302
606.082	0.0141678
606.160	0.0142776
606.238	0.0142865
606.317	0.0142480
606.395	0.0141411
606.473	0.0142701
606.551	0.0142252
606.629	0.0143233
606.707	0.0140495
606.785	0.0142647
606.863	0.0143125
606.942	0.0141535
607.020	0.0140840
607.098	0.0142934
607.176	0.0142386
607.254	0.0142227
607.332	0.0141670
607.410	0.0141237
607.488	0.0142069
607.567	0.0143548
607.645	0.0140961
607.723	0.0140773
607.801	0.0141633
607.879	0.0143221
607.957	0.0141940
608.035	0.0140495
608.113	0.0141696
608.192	0.0142183
608.270	0.0141557
608.348	0.0142918
608.426	0.0142558
608.504	0.0141151
608.582	0.0142307
608.660	0.0141896
608.738	0.0141618
608.817	0.0142528
608.895	0.0142754
608.973	0.0142249
609.051	0.0142616
609.129	0.0142032
609.207	0.0140702
609.285	0.0141530
609.363	0.0141696
609.442	0.0142150
609.520	0.0142780
609.598	0.0140952
609.676	0.0141174
609.754	0.0142314
609.832	0.0140635
609.910	0.0143130
609.988	0.0142916
610.067	0.0141943
610.145	0.0142471
610.223	0.0142476
610.301	0.0142561
610.379	0.0141682
610.457	0.0141011
610.535	0.0142644
610.613	0.0141425
610.692	0.0141950
610.770	0.0142256
610.848	0.0143156
610.926	0.0142936
611.004	0.0141949
611.082	0.0142094
611.160	0.0142968
611.238	0.0140524
611.317	0.0142499
611.395	0.0142324
611.473	0.0141599
611.551	0.0142293
611.629	0.0142451
611.707	0.0142393
611.785	0.0141438
611.863	0.0141774
611.942	0.0142205
612.020	0.0142220
612.098	0.0141148
612.176	0.0142759
612.254	0.0141145
612.332	0.0141218
612.410	0.0142149
612.488	0.0141706
612.567	0.0142918
612.645	0.0143611
612.723	0.0141084
612.801	0.0140199
612.879	0.0142631
612.957	0.0142526
613.035	0.0142824
613.113	0.0143185
613.192	0.0143525
613.270	0.0142226
613.348	0.0142224
613.426	0.0142250
613.504	0.0141618
613.582	0.0144198
613.660	0.0143620
613.738	0.0142400
613.817	0.0141576
613.895	0.0142458
613.973	0.0143118
614.051	0.0141808
614.129	0.0141366
614.207	0.0140916
614.285	0.0141998
614.363	0.0142665
614.442	0.0143287
614.520	0.0141904
614.598	0.0141526
614.676	0.0143107
614.754	0.0141924
614.832	0.0141148
614.910	0.0140793
614.988	0.0141357
615.067	0.0142059
615.145	0.0140673
615.223	0.0141216
615.301	0.0141665
615.379	0.0143002
615.457	0.0142076
615.535	0.0142747
615.613	0.0142350
615.692	0.0142025
615.770	0.0141039
615.848	0.0141434
615.926	0.0142868
616.004	0.0143249
616.082	0.0142136
616.160	0.0142318
616.238	0.0143281
616.317	0.0142783
616.395	0.0143027
616.473	0.0142948
616.551	0.0142936
616.629	0.0142821
616.707	0.0142879
616.785	0.0142857
616.863	0.0141960
616.942	0.0142605
617.020	0.0141713
617.098	0.0142213
617.176	0.0144394
617.254	0.0142882
617.332	0.0141696
617.410	0.0141956
617.488	0.0141799
617.567	0.0141719
617.645	0.0142796
617.723	0.0141382
617.801	0.0141927
617.879	0.0141540
617.957	0.0142399
618.035	0.0141969
618.113	0.0141216
618.192	0.0141517
618.270	0.0142637
618.348	0.0141573
618.426	0.0141841
618.504	0.0141272
618.582	0.0143488
618.660	0.0143790
618.738	0.0142591
618.817	0.0142094
618.895	0.0141377
618.973	0.0142100
619.051	0.0143396
619.129	0.0142133
619.207	0.0141425
619.285	0.0140780
619.363	0.0141853
619.442	0.0143007
619.520	0.0142764
619.598	0.0141678
619.676	0.0143383
619.754	0.0141795
619.832	0.0142673
619.910	0.0142038
619.988	0.0142077
620.067	0.0141325
620.145	0.0142503
620.223	0.0144044
620.301	0.0142403
620.379	0.0141833
620.457	0.0143213
620.535	0.0141917
620.613	0.0142648
620.692	0.0142092
620.770	0.0142988
620.848	0.0140952
620.926	0.0143419
621.004	0.0142744
621.082	0.0141451
621.160	0.0140740
621.238	0.0142553
621.317	0.0142086
621.395	0.0142082
621.473	0.0142509
621.551	0.0143795
621.629	0.0141340
621.707	0.0142809
621.785	0.0142879
621.863	0.0142248
621.942	0.0141901
622.020	0.0141807
622.098	0.0141901
622.176	0.0142434
622.254	0.0142815
622.332	0.0142345
622.410	0.0141917
622.488	0.0142080
622.567	0.0142527
622.645	0.0141938
622.723	0.0142557
622.801	0.0142303
622.879	0.0141541
622.957	0.0142486
623.035	0.0142537
623.113	0.0143243
623.192	0.0141000
623.270	0.0141747
623.348	0.0142832
623.426	0.0142022
623.504	0.0142289
623.582	0.0142319
623.660	0.0142117
623.738	0.0142095
623.817	0.0144141
623.895	0.0142587
623.973	0.0141129
624.051	0.0142812
624.129	0.0142465
624.207	0.0143063
624.285	0.0141701
624.363	0.0141700
624.442	0.0142713
624.520	0.0142266
624.598	0.0143279
624.676	0.0143620
624.754	0.0142951
624.832	0.0143469
624.910	0.0141916
624.988	0.0142496
625.067	0.0143019
625.145	0.0143008
625.223	0.0142700
625.301	0.0144019
625.379	0.0142403
625.457	0.0141792
625.535	0.0142518
625.613	0.0142226
625.692	0.0142654
625.770	0.0142661
625.848	0.0143680
625.926	0.0141041
626.004	0.0142242
626.082	0.0143046
626.160	0.0141034
626.238	0.0141910
626.317	0.0143605
626.395	0.0142664
626.473	0.0141218
626.551	0.0140854
626.629	0.0143035
626.707	0.0142959
626.785	0.0141766
626.863	0.0142429
626.942	0.0143040
627.020	0.0141359
627.098	0.0141679
627.176	0.0142148
627.254	0.0142270
627.332	0.0141585
627.410	0.0142119
627.488	0.0143817
627.567	0.0141421
627.645	0.0142544
627.723	0.0142247
627.801	0.0141721
627.879	0.0142396
627.957	0.0142278
628.035	0.0142133
628.113	0.0142530
628.192	0.0142440
628.270	0.0141311
628.348	0.0143235
628.426	0.0141222
628.504	0.0142361
628.582	0.0143031
628.660	0.0141501
628.738	0.0141283
628.817	0.0141374
628.895	0.0141262
628.973	0.0142213
629.051	0.0142923
629.129	0.0141241
629.207	0.0141084
629.285	0.0143481
629.363	0.0141660
629.442	0.0141178
629.520	0.0141405
629.598	0.0142551
629.676	0.0142407
629.754	0.0140886
629.832	0.0142977
629.910	0.0142767
629.988	0.0143760
630.067	0.0141345
630.145	0.0141250
630.223	0.0142983
630.301	0.0143642
630.379	0.0141228
630.457	0.0141159
630.535	0.0141486
630.613	0.0141655
630.692	0.0142538
630.770	0.0143912
630.848	0.0141795
630.926	0.0142509
631.004	0.0143062
631.082	0.0141316
631.160	0.0143412
631.238	0.0143177
631.317	0.0142786
631.395	0.0142080
631.473	0.0143288
631.551	0.0143437
631.629	0.0142574
631.707	0.0142451
631.785	0.0143435
631.863	0.0143195
631.942	0.0141790
632.020	0.0143569
632.098	0.0143364
632.176	0.0142542
632.254	0.0141498
632.332	0.0141520
632.410	0.0141792
632.488	0.0141446
632.567	0.0142784
632.645	0.0143620
632.723	0.0142298
632.801	0.0142080
632.879	0.0142673
632.957	0.0141626
633.035	0.0143110
633.113	0.0141108
633.192	0.0141635
633.270	0.0142249
633.348	0.0143066
633.426	0.0141371
633.504	0.0142744
633.582	0.0142556
633.660	0.0142313
633.738	0.0141383
633.817	0.0142670
633.895	0.0143259
633.973	0.0143478
634.051	0.0143217
634.129	0.0142479
634.207	0.0142471
634.285	0.0142419
634.363	0.0143477
634.442	0.0142397
634.520	0.0142973
634.598	0.0144102
634.676	0.0142312
634.754	0.0142466
634.832	0.0143851
634.910	0.0142114
634.988	0.0142000
635.067	0.0142548
635.145	0.0141168
635.223	0.0142416
635.301	0.0143898
635.379	0.0143953
635.457	0.0143280
635.535	0.0142804
635.613	0.0141407
635.692	0.0141833
635.770	0.0142030
635.848	0.0142134
635.926	0.0141715
636.004	0.0143194
636.082	0.0142654
636.160	0.0142735
636.238	0.0141414
636.317	0.0141098
636.395	0.0141946
636.473	0.0142780
636.551	0.0142165
636.629	0.0140922
636.707	0.0142782
636.785	0.0142718
636.863	0.0141949
636.942	0.0140845
637.020	0.0142632
637.098	0.0143433
637.176	0.0142893
637.254	0.0142218
637.332	0.0141303
637.410	0.0143760
637.488	0.0142961
637.567	0.0143228
637.645	0.0141824
637.723	0.0141508
637.801	0.0141368
637.879	0.0141236
637.957	0.0142476
638.035	0.0142197
638.113	0.0143276
638.192	0.0143120
638.270	0.0143411
638.348	0.0144273
638.426	0.0143870
638.504	0.0142609
638.582	0.0142517
638.660	0.0142424
638.738	0.0141701
638.817	0.0142921
638.895	0.0143741
638.973	0.0141722
639.051	0.0142277
639.129	0.0142927
639.207	0.0142931
639.285	0.0141972
639.363	0.0144382
639.442	0.0143344
639.520	0.0141817
639.598	0.0142879
639.676	0.0142561
639.754	0.0142680
639.832	0.0143499
639.910	0.0142455
639.988	0.0143210
640.067	0.0142735
640.145	0.0142088
640.223	0.0142317
640.301	0.0142508
640.379	0.0142545
640.457	0.0141872
640.535	0.0141790
640.613	0.0141444
640.692	0.0141393
640.770	0.0143243
640.848	0.0141945
640.926	0.0142524
641.004	0.0141714
641.082	0.0142336
641.160	0.0140912
641.238	0.0142059
641.317	0.0141091
641.395	0.0140586
641.473	0.0142691
641.551	0.0142322
641.629	0.0142675
641.707	0.0142354
641.785	0.0142204
641.863	0.0143124
641.942	0.0143764
642.020	0.0142879
642.098	0.0143712
642.176	0.0145074
642.254	0.0143617
642.332	0.0144443
642.410	0.0143549
642.488	0.0142357
642.567	0.0142407
642.645	0.0143256
642.723	0.0142715
642.801	0.0143388
642.879	0.0143987
642.957	0.0141574
643.035	0.0141999
643.113	0.0140824
643.192	0.0141566
643.270	0.0140299
643.348	0.0140968
643.426	0.0140488
643.504	0.0140790
643.582	0.0141191
643.660	0.0141292
643.738	0.0141543
643.817	0.0141000
643.895	0.0140140
643.973	0.0140063
644.051	0.0141226
644.129	0.0141397
644.207	0.0140979
644.285	0.0139987
644.363	0.0140935
644.442	0.0141738
644.520	0.0141820
644.598	0.0142457
644.676	0.0142657
644.754	0.0141807
644.832	0.0141347
644.910	0.0143449
644.988	0.0142578
645.067	0.0142703
645.145	0.0143233
645.223	0.0141428
645.301	0.0141792
645.379	0.0142509
645.457	0.0140730
645.535	0.0142725
645.613	0.0142774
645.692	0.0142969
645.770	0.0142873
645.848	0.0143624
645.926	0.0144599
646.004	0.0144164
646.082	0.0144714
646.160	0.0143459
646.238	0.0142039
646.317	0.0143956
646.395	0.0143556
646.473	0.0142365
646.551	0.0142392
646.629	0.0141254
646.707	0.0141830
646.785	0.0141798
646.863	0.0142717
646.942	0.0139516
647.020	0.0140347
647.098	0.0142086
647.176	0.0140953
647.254	0.0142037
647.332	0.0140693
647.410	0.0140761
647.488	0.0142059
647.567	0.0140943
647.645	0.0139894
647.723	0.0139398
647.801	0.0140981
647.879	0.0141421
647.957	0.0140302
648.035	0.0139497
648.113	0.0138052
648.192	0.0137401
648.270	0.0138562
648.348	0.0138172
648.426	0.0137669
648.504	0.0137548
648.582	0.0139723
648.660	0.0140261
648.738	0.0140132
648.817	0.0141950
648.895	0.0143220
648.973	0.0142590
649.051	0.0143635
649.129	0.0144407
649.207	0.0145731
649.285	0.0144213
649.363	0.0145025
649.442	0.0145829
649.520	0.0144286
649.598	0.0146071
649.676	0.0147019
649.754	0.0145860
649.832	0.0146159
649.910	0.0145303
649.988	0.0145142
650.067	0.0145245
650.145	0.0145052
650.223	0.0145563
650.301	0.0144615
650.379	0.0143478
650.457	0.0144177
650.535	0.0143372
650.613	0.0143009
650.692	0.0143146
650.770	0.0142733
650.848	0.0142847
650.926	0.0142545
651.004	0.0142457
651.082	0.0141594
651.160	0.0142988
651.238	0.0141684
651.317	0.0142568
651.395	0.0141952
651.473	0.0141277
651.551	0.0141273
651.629	0.0141059
651.707	0.0140109
651.785	0.0139742
651.863	0.0140034
651.942	0.0138538
652.020	0.0139132
652.098	0.0139041
652.176	0.0139506
652.254	0.0137194
652.332	0.0138879
652.410	0.0135917
652.488	0.0136921
652.567	0.0137313
652.645	0.0136656
652.723	0.0136243
652.801	0.0138509
652.879	0.0138583
652.957	0.0139967
653.035	0.0139394
653.113	0.0138217
653.192	0.0140776
653.270	0.0144221
653.348	0.0143674
653.426	0.0142744
653.504	0.0143719
653.582	0.0143745
653.660	0.0144904
653.738	0.0145945
653.817	0.0145741
653.895	0.0144392
653.973	0.0145384
654.051	0.0146540
654.129	0.0146804
654.207	0.0146064
654.285	0.0145461
654.363	0.0147363
654.442	0.0147399
654.520	0.0147187
654.598	0.0147086
654.676	0.0145494
654.754	0.0145733
654.832	0.0147325
654.910	0.0147558
654.988	0.0146393
655.067	0.0147034
655.145	0.0147163
655.223	0.0147500
655.301	0.0145733
655.379	0.0146738
655.457	0.0146284
655.535	0.0145946
655.613	0.0144551
655.692	0.0145319
655.770	0.0145203
655.848	0.0143877
655.926	0.0142960
656.004	0.0141602
656.082	0.0140512
656.160	0.0139198
656.238	0.0139427
656.317	0.0139309
656.395	0.0139621
656.473	0.0139526
656.551	0.0137399
656.629	0.0137461
656.707	0.0137766
656.785	0.0138112
656.863	0.0138384
656.942	0.0138805
657.020	0.0138875
657.098	0.0137225
657.176	0.0139007
657.254	0.0139072
657.332	0.0138187
657.410	0.0137978
657.488	0.0138595
657.567	0.0138161
657.645	0.0137244
657.723	0.0136581
657.801	0.0138230
657.879	0.0139539
657.957	0.0137823
658.035	0.0139643
658.113	0.0139097
658.192	0.0140591
658.270	0.0139341
658.348	0.0139767
658.426	0.0140865
658.504	0.0141743
658.582	0.0141976
658.660	0.0142213
658.738	0.0144443
658.817	0.0146635
658.895	0.0145764
658.973	0.0147494
659.051	0.0148319
659.129	0.0149095
659.207	0.0149293
659.285	0.0149954
659.363	0.0149071
659.442	0.0148269
659.520	0.0149568
659.598	0.0150353
659.676	0.0148676
659.754	0.0147597
659.832	0.0148373
659.910	0.0147881
659.988	0.0145885
660.067	0.0145444
660.145	0.0145492
660.223	0.0145776
660.301	0.0145018
660.379	0.0145546
660.457	0.0143573
660.535	0.0144283
660.613	0.0143259
660.692	0.0141736
660.770	0.0142865
660.848	0.0141615
660.926	0.0141361
661.004	0.0140550
661.082	0.0139988
661.160	0.0138815
661.238	0.0139529
661.317	0.0139478
661.395	0.0138071
661.473	0.0138446
661.551	0.0138290
661.629	0.0136501
661.707	0.0136837
661.785	0.0136432
661.863	0.0136663
661.942	0.0135275
662.020	0.0135879
662.098	0.0136499
662.176	0.0137212
662.254	0.0137225
662.332	0.0136951
662.410	0.0137527
662.488	0.0137445
662.567	0.0139314
662.645	0.0137665
662.723	0.0138605
662.801	0.0139552
662.879	0.0140450
662.957	0.0140385
663.035	0.0141148
663.113	0.0139842
663.192	0.0141173
663.270	0.0140865
663.348	0.0141296
663.426	0.0142189
663.504	0.0141890
663.582	0.0142974
663.660	0.0143143
663.738	0.0143245
663.817	0.0143484
663.895	0.0144392
663.973	0.0143197
664.051	0.0144120
664.129	0.0144569
664.207	0.0145428
664.285	0.0144767
664.363	0.0145369
664.442	0.0147169
664.520	0.0147980
664.598	0.0147278
664.676	0.0148055
664.754	0.0147704
664.832	0.0149413
664.910	0.0147578
664.988	0.0148672
665.067	0.0147876
665.145	0.0148893
665.223	0.0147781
665.301	0.0146490
665.379	0.0146353
665.457	0.0145319
665.535	0.0144456
665.613	0.0143084
665.692	0.0141566
665.770	0.0141386
665.848	0.0139086
665.926	0.0138816
666.004	0.0137409
666.082	0.0137474
666.160	0.0137990
666.238	0.0136423
666.317	0.0134061
666.395	0.0135073
666.473	0.0135957
666.551	0.0136175
666.629	0.0136697
666.707	0.0138545
666.785	0.0138313
666.863	0.0139181
666.942	0.0139333
667.020	0.0140392
667.098	0.0140287
667.176	0.0141561
667.254	0.0140968
667.332	0.0143153
667.410	0.0143381
667.488	0.0143696
667.567	0.0142717
667.645	0.0143402
667.723	0.0143565
667.801	0.0143254
667.879	0.0142987
667.957	0.0141729
668.035	0.0142870
668.113	0.0142331
668.192	0.0143487
668.270	0.0141743
668.348	0.0140549
668.426	0.0140719
668.504	0.0139632
668.582	0.0140931
668.660	0.0139695
668.738	0.0140405
668.817	0.0140932
668.895	0.0139530
668.973	0.0139293
669.051	0.0138551
669.129	0.0140340
669.207	0.0141183
669.285	0.0140083
669.363	0.0140565
669.442	0.0139085
669.520	0.0142256
669.598	0.0141056
669.676	0.0141938
669.754	0.0142835
669.832	0.0144218
669.910	0.0144720
669.988	0.0145285
670.067	0.0145968
670.145	0.0146626
670.223	0.0146324
670.301	0.0146736
670.379	0.0148580
670.457	0.0147358
670.535	0.0146349
670.613	0.0146938
670.692	0.0147303
670.770	0.0146938
670.848	0.0146161
670.926	0.0146809
671.004	0.0145759
671.082	0.0144574
671.160	0.0144748
671.238	0.0142943
671.317	0.0142242
671.395	0.0143273
671.473	0.0142058
671.551	0.0142020
671.629	0.0142324
671.707	0.0142492
671.785	0.0140725
671.863	0.0141954
671.942	0.0142049
672.020	0.0140430
672.098	0.0141434
672.176	0.0141458
672.254	0.0141879
672.332	0.0141454
672.410	0.0141911
672.488	0.0142971
672.567	0.0144389
672.645	0.0144111
672.723	0.0145799
672.801	0.0145312
672.879	0.0145650
672.957	0.0146683
673.035	0.0147235
673.113	0.0146635
673.192	0.0146310
673.270	0.0144951
673.348	0.0144117
673.426	0.0143369
673.504	0.0143743
673.582	0.0142110
673.660	0.0139909
673.738	0.0138621
673.817	0.0138279
673.895	0.0136662
673.973	0.0136420
674.051	0.0134563
674.129	0.0134581
674.207	0.0134718
674.285	0.0134373
674.363	0.0134200
674.442	0.0135328
674.520	0.0136822
674.598	0.0136797
674.676	0.0138556
674.754	0.0140761
674.832	0.0143056
674.910	0.0143153
674.988	0.0145197
675.067	0.0146932
675.145	0.0147748
675.223	0.0147579
675.301	0.0150253
675.379	0.0149120
675.457	0.0149497
675.535	0.0150470
675.613	0.0150783
675.692	0.0150405
675.770	0.0150790
675.848	0.0150387
675.926	0.0149155
676.004	0.0148602
676.082	0.0147869
676.160	0.0147349
676.238	0.0148064
676.317	0.0144698
676.395	0.0145751
676.473	0.0144102
676.551	0.0142598
676.629	0.0142216
676.707	0.0143430
676.785	0.0141182
676.863	0.0140666
676.942	0.0139201
677.020	0.0138125
677.098	0.0138119
677.176	0.0137786
677.254	0.0136851
677.332	0.0136600
677.410	0.0135527
677.488	0.0135244
677.567	0.0136818
677.645	0.0135416
677.723	0.0134449
677.801	0.0136034
677.879	0.0136700
677.957	0.0136609
678.035	0.0137074
678.113	0.0138074
678.192	0.0139557
678.270	0.0139986
678.348	0.0142132
678.426	0.0143869
678.504	0.0143950
678.582	0.0145327
678.660	0.0146627
678.738	0.0147523
678.817	0.0147501
678.895	0.0148553
678.973	0.0148790
679.051	0.0148244
679.129	0.0147830
679.207	0.0149155
679.285	0.0147870
679.363	0.0148929
679.442	0.0147622
679.520	0.0147536
679.598	0.0146206
679.676	0.0145663
679.754	0.0145050
679.832	0.0144028
679.910	0.0142208
679.988	0.0143071
680.067	0.0143179
680.145	0.0142295
680.223	0.0141103
680.301	0.0140902
680.379	0.0139429
680.457	0.0140098
680.535	0.0138952
680.613	0.0137670
680.692	0.0138824
680.770	0.0136182
680.848	0.0135895
680.926	0.0136897
681.004	0.0135638
681.082	0.0134513
681.160	0.0134946
681.238	0.0134266
681.317	0.0135010
681.395	0.0135453
681.473	0.0135029
681.551	0.0136191
681.629	0.0136337
681.707	0.0138428
681.785	0.0139233
681.863	0.0140636
681.942	0.0141126
682.020	0.0143357
682.098	0.0144070
682.176	0.0144553
682.254	0.0144889
682.332	0.0145238
682.410	0.0146818
682.488	0.0146244
682.567	0.0146212
682.645	0.0146282
682.723	0.0146083
682.801	0.0146029
682.879	0.0146116
682.957	0.0144395
683.035	0.0145074
683.113	0.0145706
683.192	0.0144234
683.270	0.0145677
683.348	0.0145702
683.426	0.0146211
683.504	0.0143562
683.582	0.0145253
683.660	0.0144721
683.738	0.0146179
683.817	0.0144849
683.895	0.0143605
683.973	0.0142084
684.051	0.0143003
684.129	0.0143738
684.207	0.0143032
684.285	0.0141068
684.363	0.0141399
684.442	0.0140405
684.520	0.0140954
684.598	0.0140351
684.676	0.0138035
684.754	0.0138927
684.832	0.0139068
684.910	0.0137025
684.988	0.0136584
685.067	0.0135859
685.145	0.0136861
685.223	0.0135950
685.301	0.0135018
685.379	0.0135202
685.457	0.0135448
685.535	0.0135134
685.613	0.0136021
685.692	0.0136434
