05/28/2022	14:16:21	Ver.	4.1	UNKNOWN
Optical Delay	599.988409	Delta X		0.078125	Sweeps	1	Scan Rate	0/0
Coordinates	Axis 1	NaN	Axis 2	NaN	Axis 3	NaN	Axis 4	NaN	Axis 5	NaN	Axis 6	0.000000
TX Power	0.000000	RX Power	0.000000

599.988	0.0146191
600.067	0.0147098
600.145	0.0146365
600.223	0.0145967
600.301	0.0146924
600.379	0.0146805
600.457	0.0144879
600.535	0.0146394
600.613	0.0146751
600.692	0.0146527
600.770	0.0147569
600.848	0.0145876
600.926	0.0146292
601.004	0.0147798
601.082	0.0147002
601.160	0.0145563
601.238	0.0147717
601.317	0.0146770
601.395	0.0146445
601.473	0.0146678
601.551	0.0146378
601.629	0.0146072
601.707	0.0146834
601.785	0.0145225
601.863	0.0147301
601.942	0.0146086
602.020	0.0146149
602.098	0.0146458
602.176	0.0145747
602.254	0.0146706
602.332	0.0147044
602.410	0.0146342
602.488	0.0145712
602.567	0.0147292
602.645	0.0146294
602.723	0.0145512
602.801	0.0147688
602.879	0.0147047
602.957	0.0146638
603.035	0.0146632
603.113	0.0146037
603.192	0.0147494
603.270	0.0146636
603.348	0.0146349
603.426	0.0145892
603.504	0.0146147
603.582	0.0146731
603.660	0.0146378
603.738	0.0147195
603.817	0.0145735
603.895	0.0146215
603.973	0.0146748
604.051	0.0147895
604.129	0.0146760
604.207	0.0146829
604.285	0.0146999
604.363	0.0146733
604.442	0.0146739
604.520	0.0145631
604.598	0.0146134
604.676	0.0148415
604.754	0.0145531
604.832	0.0144862
604.910	0.0146687
604.988	0.0145966
605.067	0.0145590
605.145	0.0146803
605.223	0.0144643
605.301	0.0145313
605.379	0.0145188
605.457	0.0146342
605.535	0.0146935
605.613	0.0146088
605.692	0.0146394
605.770	0.0146622
605.848	0.0147087
605.926	0.0145536
606.004	0.0146156
606.082	0.0147655
606.160	0.0146184
606.238	0.0145650
606.317	0.0146146
606.395	0.0147413
606.473	0.0146696
606.551	0.0147170
606.629	0.0146069
606.707	0.0145141
606.785	0.0146571
606.863	0.0146191
606.942	0.0146489
607.020	0.0147803
607.098	0.0147137
607.176	0.0146957
607.254	0.0145197
607.332	0.0146001
607.410	0.0146898
607.488	0.0146127
607.567	0.0145786
607.645	0.0146350
607.723	0.0146245
607.801	0.0145928
607.879	0.0146378
607.957	0.0147215
608.035	0.0146599
608.113	0.0147166
608.192	0.0146730
608.270	0.0145148
608.348	0.0145937
608.426	0.0147044
608.504	0.0145966
608.582	0.0146198
608.660	0.0145384
608.738	0.0147291
608.817	0.0147247
608.895	0.0146294
608.973	0.0146054
609.051	0.0145211
609.129	0.0146288
609.207	0.0146259
609.285	0.0146113
609.363	0.0146455
609.442	0.0147431
609.520	0.0146786
609.598	0.0147551
609.676	0.0145032
609.754	0.0146347
609.832	0.0145107
609.910	0.0146791
609.988	0.0146774
610.067	0.0147046
610.145	0.0144952
610.223	0.0145485
610.301	0.0146214
610.379	0.0146577
610.457	0.0148122
610.535	0.0147472
610.613	0.0146632
610.692	0.0146398
610.770	0.0144964
610.848	0.0147617
610.926	0.0146931
611.004	0.0146715
611.082	0.0146535
611.160	0.0144509
611.238	0.0147105
611.317	0.0145599
611.395	0.0145647
611.473	0.0147366
611.551	0.0146404
611.629	0.0146222
611.707	0.0146892
611.785	0.0147187
611.863	0.0146848
611.942	0.0146111
612.020	0.0146698
612.098	0.0147668
612.176	0.0146281
612.254	0.0146722
612.332	0.0147588
612.410	0.0146257
612.488	0.0147300
612.567	0.0147264
612.645	0.0147235
612.723	0.0146822
612.801	0.0147554
612.879	0.0146050
612.957	0.0147263
613.035	0.0148575
613.113	0.0146434
613.192	0.0146945
613.270	0.0146781
613.348	0.0146435
613.426	0.0146005
613.504	0.0147562
613.582	0.0148649
613.660	0.0147617
613.738	0.0147337
613.817	0.0147172
613.895	0.0147217
613.973	0.0146414
614.051	0.0146872
614.129	0.0148274
614.207	0.0146116
614.285	0.0146711
614.363	0.0146535
614.442	0.0146102
614.520	0.0146980
614.598	0.0147482
614.676	0.0146241
614.754	0.0146301
614.832	0.0146157
614.910	0.0146327
614.988	0.0146481
615.067	0.0145470
615.145	0.0146418
615.223	0.0145296
615.301	0.0146703
615.379	0.0146789
615.457	0.0144778
615.535	0.0145910
615.613	0.0145768
615.692	0.0145944
615.770	0.0146674
615.848	0.0145459
615.926	0.0145576
616.004	0.0145356
616.082	0.0146009
616.160	0.0145621
616.238	0.0145161
616.317	0.0147106
616.395	0.0144756
616.473	0.0144962
616.551	0.0145898
616.629	0.0147302
616.707	0.0145602
616.785	0.0145679
616.863	0.0146582
616.942	0.0145695
617.020	0.0145979
617.098	0.0146580
617.176	0.0146149
617.254	0.0146253
617.332	0.0146207
617.410	0.0146046
617.488	0.0147589
617.567	0.0145938
617.645	0.0147392
617.723	0.0145847
617.801	0.0144775
617.879	0.0145468
617.957	0.0145057
618.035	0.0145259
618.113	0.0146939
618.192	0.0146241
618.270	0.0145463
618.348	0.0146844
618.426	0.0147271
618.504	0.0146153
618.582	0.0146015
618.660	0.0146181
618.738	0.0146272
618.817	0.0146577
618.895	0.0145807
618.973	0.0145793
619.051	0.0146293
619.129	0.0146915
619.207	0.0146681
619.285	0.0146405
619.363	0.0146119
619.442	0.0146371
619.520	0.0146867
619.598	0.0146851
619.676	0.0146381
619.754	0.0147444
619.832	0.0145602
619.910	0.0145445
619.988	0.0147384
620.067	0.0147021
620.145	0.0145222
620.223	0.0144740
620.301	0.0145486
620.379	0.0147296
620.457	0.0146013
620.535	0.0145668
620.613	0.0145789
620.692	0.0146087
620.770	0.0146015
620.848	0.0145521
620.926	0.0146281
621.004	0.0145363
621.082	0.0146461
621.160	0.0147478
621.238	0.0145254
621.317	0.0146411
621.395	0.0147387
621.473	0.0146635
621.551	0.0145853
621.629	0.0146293
621.707	0.0145608
621.785	0.0145573
621.863	0.0145667
621.942	0.0146479
622.020	0.0146225
622.098	0.0145574
622.176	0.0145983
622.254	0.0145436
622.332	0.0145564
622.410	0.0145488
622.488	0.0146595
622.567	0.0145531
622.645	0.0146440
622.723	0.0146897
622.801	0.0146919
622.879	0.0146181
622.957	0.0146908
623.035	0.0146150
623.113	0.0145615
623.192	0.0145744
623.270	0.0147213
623.348	0.0147845
623.426	0.0147237
623.504	0.0145506
623.582	0.0145911
623.660	0.0146032
623.738	0.0145635
623.817	0.0146748
623.895	0.0147009
623.973	0.0146545
624.051	0.0146436
624.129	0.0146551
624.207	0.0146336
624.285	0.0148409
624.363	0.0147870
624.442	0.0146146
624.520	0.0146805
624.598	0.0147556
624.676	0.0146441
624.754	0.0146411
624.832	0.0146370
624.910	0.0147450
624.988	0.0146088
625.067	0.0147507
625.145	0.0147329
625.223	0.0146999
625.301	0.0146903
625.379	0.0147594
625.457	0.0146934
625.535	0.0146611
625.613	0.0146617
625.692	0.0146853
625.770	0.0146636
625.848	0.0146536
625.926	0.0148793
626.004	0.0146166
626.082	0.0147215
626.160	0.0147137
626.238	0.0146203
626.317	0.0145428
626.395	0.0146340
626.473	0.0147843
626.551	0.0148370
626.629	0.0146067
626.707	0.0146975
626.785	0.0146785
626.863	0.0146781
626.942	0.0145675
627.020	0.0146232
627.098	0.0146989
627.176	0.0145726
627.254	0.0146233
627.332	0.0146165
627.410	0.0146590
627.488	0.0145943
627.567	0.0145413
627.645	0.0146230
627.723	0.0146386
627.801	0.0145025
627.879	0.0147245
627.957	0.0145479
628.035	0.0147278
628.113	0.0146301
628.192	0.0145742
628.270	0.0146069
628.348	0.0146272
628.426	0.0146138
628.504	0.0147348
628.582	0.0147433
628.660	0.0146151
628.738	0.0146617
628.817	0.0145819
628.895	0.0146026
628.973	0.0146664
629.051	0.0146535
629.129	0.0146502
629.207	0.0146232
629.285	0.0145775
629.363	0.0145553
629.442	0.0146302
629.520	0.0147927
629.598	0.0145811
629.676	0.0147471
629.754	0.0145829
629.832	0.0144826
629.910	0.0146591
629.988	0.0146642
630.067	0.0146481
630.145	0.0147002
630.223	0.0146223
630.301	0.0147594
630.379	0.0145000
630.457	0.0145312
630.535	0.0146535
630.613	0.0146381
630.692	0.0146452
630.770	0.0144918
630.848	0.0146616
630.926	0.0147235
631.004	0.0145985
631.082	0.0146104
631.160	0.0145949
631.238	0.0145412
631.317	0.0147299
631.395	0.0146583
631.473	0.0147726
631.551	0.0147086
631.629	0.0146792
631.707	0.0147344
631.785	0.0147040
631.863	0.0146011
631.942	0.0146750
632.020	0.0145837
632.098	0.0147746
632.176	0.0146676
632.254	0.0147025
632.332	0.0146766
632.410	0.0147301
632.488	0.0147664
632.567	0.0147591
632.645	0.0148768
632.723	0.0147227
632.801	0.0147988
632.879	0.0146576
632.957	0.0147243
633.035	0.0148036
633.113	0.0146965
633.192	0.0147164
633.270	0.0147791
633.348	0.0146862
633.426	0.0147268
633.504	0.0145850
633.582	0.0147353
633.660	0.0145728
633.738	0.0145961
633.817	0.0148004
633.895	0.0147469
633.973	0.0147044
634.051	0.0145999
634.129	0.0145674
634.207	0.0147569
634.285	0.0145445
634.363	0.0147049
634.442	0.0147501
634.520	0.0144731
634.598	0.0145317
634.676	0.0146136
634.754	0.0146647
634.832	0.0145785
634.910	0.0147108
634.988	0.0145541
635.067	0.0146336
635.145	0.0146080
635.223	0.0147431
635.301	0.0146235
635.379	0.0146385
635.457	0.0145531
635.535	0.0147128
635.613	0.0147034
635.692	0.0145406
635.770	0.0146669
635.848	0.0147569
635.926	0.0146191
636.004	0.0147582
636.082	0.0146212
636.160	0.0147045
636.238	0.0146019
636.317	0.0146272
636.395	0.0146883
636.473	0.0146398
636.551	0.0147420
636.629	0.0145691
636.707	0.0146835
636.785	0.0146570
636.863	0.0145535
636.942	0.0146436
637.020	0.0146242
637.098	0.0145700
637.176	0.0144316
637.254	0.0146223
637.332	0.0147130
637.410	0.0146426
637.488	0.0146687
637.567	0.0146684
637.645	0.0144569
637.723	0.0145021
637.801	0.0144717
637.879	0.0144835
637.957	0.0147206
638.035	0.0145329
638.113	0.0146019
638.192	0.0146212
638.270	0.0145385
638.348	0.0146557
638.426	0.0147776
638.504	0.0146365
638.582	0.0146695
638.660	0.0147359
638.738	0.0146290
638.817	0.0147690
638.895	0.0147396
638.973	0.0146754
639.051	0.0147090
639.129	0.0147230
639.207	0.0145982
639.285	0.0145950
639.363	0.0146847
639.442	0.0145780
639.520	0.0145980
639.598	0.0144227
639.676	0.0146085
639.754	0.0145420
639.832	0.0146462
639.910	0.0145508
639.988	0.0145042
640.067	0.0145483
640.145	0.0146367
640.223	0.0146193
640.301	0.0146119
640.379	0.0145719
640.457	0.0144909
640.535	0.0144793
640.613	0.0145210
640.692	0.0147141
640.770	0.0145625
640.848	0.0144876
640.926	0.0145850
641.004	0.0146085
641.082	0.0146014
641.160	0.0145853
641.238	0.0144426
641.317	0.0145792
641.395	0.0147515
641.473	0.0146304
641.551	0.0146519
641.629	0.0147701
641.707	0.0146696
641.785	0.0146431
641.863	0.0147116
641.942	0.0147204
642.020	0.0147028
642.098	0.0144796
642.176	0.0146645
642.254	0.0145527
642.332	0.0146001
642.410	0.0144181
642.488	0.0145531
642.567	0.0144971
642.645	0.0144391
642.723	0.0145171
642.801	0.0146397
642.879	0.0145438
642.957	0.0146877
643.035	0.0145201
643.113	0.0144642
643.192	0.0145966
643.270	0.0146554
643.348	0.0145757
643.426	0.0146325
643.504	0.0145043
643.582	0.0145756
643.660	0.0146755
643.738	0.0145781
643.817	0.0146008
643.895	0.0145907
643.973	0.0146803
644.051	0.0147643
644.129	0.0147974
644.207	0.0145189
644.285	0.0146111
644.363	0.0147035
644.442	0.0145892
644.520	0.0146075
644.598	0.0147002
644.676	0.0146407
644.754	0.0146301
644.832	0.0146981
644.910	0.0147047
644.988	0.0147510
645.067	0.0146973
645.145	0.0148097
645.223	0.0147385
645.301	0.0148296
645.379	0.0147260
645.457	0.0148706
645.535	0.0147630
645.613	0.0146708
645.692	0.0146527
645.770	0.0147528
645.848	0.0146665
645.926	0.0144212
646.004	0.0145604
646.082	0.0144690
646.160	0.0144590
646.238	0.0144357
646.317	0.0145453
646.395	0.0145241
646.473	0.0148028
646.551	0.0144610
646.629	0.0145158
646.707	0.0145734
646.785	0.0146495
646.863	0.0146010
646.942	0.0146631
647.020	0.0145064
647.098	0.0144881
647.176	0.0143721
647.254	0.0143354
647.332	0.0142965
647.410	0.0142715
647.488	0.0141658
647.567	0.0142891
647.645	0.0143127
647.723	0.0142056
647.801	0.0142508
647.879	0.0143390
647.957	0.0145727
648.035	0.0146564
648.113	0.0145963
648.192	0.0148492
648.270	0.0149481
648.348	0.0149625
648.426	0.0150249
648.504	0.0150835
648.582	0.0151669
648.660	0.0149789
648.738	0.0150080
648.817	0.0149776
648.895	0.0151759
648.973	0.0151405
649.051	0.0150607
649.129	0.0151404
649.207	0.0149554
649.285	0.0149981
649.363	0.0151193
649.442	0.0149998
649.520	0.0149552
649.598	0.0149840
649.676	0.0149925
649.754	0.0148862
649.832	0.0149020
649.910	0.0147571
649.988	0.0149682
650.067	0.0147864
650.145	0.0147388
650.223	0.0147021
650.301	0.0148055
650.379	0.0147352
650.457	0.0145100
650.535	0.0145882
650.613	0.0145853
650.692	0.0146107
650.770	0.0146217
650.848	0.0146094
650.926	0.0145115
651.004	0.0145999
651.082	0.0143905
651.160	0.0142764
651.238	0.0143099
651.317	0.0142524
651.395	0.0141871
651.473	0.0143349
651.551	0.0143057
651.629	0.0142139
651.707	0.0140098
651.785	0.0141073
651.863	0.0141691
651.942	0.0141228
652.020	0.0140913
652.098	0.0142609
652.176	0.0143921
652.254	0.0144215
652.332	0.0145073
652.410	0.0144830
652.488	0.0145036
652.567	0.0147504
652.645	0.0146859
652.723	0.0148272
652.801	0.0147943
652.879	0.0148794
652.957	0.0147937
653.035	0.0149033
653.113	0.0149263
653.192	0.0149383
653.270	0.0149720
653.348	0.0151248
653.426	0.0149379
653.504	0.0148450
653.582	0.0149338
653.660	0.0150274
653.738	0.0150732
653.817	0.0149005
653.895	0.0150873
653.973	0.0150146
654.051	0.0150191
654.129	0.0150213
654.207	0.0149585
654.285	0.0151288
654.363	0.0150100
654.442	0.0150708
654.520	0.0149632
654.598	0.0149845
654.676	0.0148584
654.754	0.0149119
654.832	0.0148624
654.910	0.0148746
654.988	0.0147514
655.067	0.0148303
655.145	0.0145067
655.223	0.0146687
655.301	0.0146384
655.379	0.0144221
655.457	0.0143803
655.535	0.0144007
655.613	0.0143350
655.692	0.0144759
655.770	0.0143803
655.848	0.0143890
655.926	0.0142695
656.004	0.0141177
656.082	0.0142148
656.160	0.0140920
656.238	0.0141186
656.317	0.0140864
656.395	0.0142093
656.473	0.0141148
656.551	0.0142441
656.629	0.0141120
656.707	0.0141524
656.785	0.0144097
656.863	0.0140724
656.942	0.0142971
657.020	0.0142132
657.098	0.0142425
657.176	0.0142142
657.254	0.0142040
657.332	0.0143927
657.410	0.0143077
657.488	0.0144149
657.567	0.0144615
657.645	0.0144377
657.723	0.0145231
657.801	0.0145879
657.879	0.0145684
657.957	0.0147483
658.035	0.0148795
658.113	0.0149113
658.192	0.0151476
658.270	0.0150510
658.348	0.0150404
658.426	0.0151996
658.504	0.0152075
658.582	0.0152022
658.660	0.0152650
658.738	0.0151842
658.817	0.0151414
658.895	0.0150785
658.973	0.0151121
659.051	0.0151826
659.129	0.0153294
659.207	0.0152115
659.285	0.0148930
659.363	0.0148154
659.442	0.0150009
659.520	0.0150114
659.598	0.0149064
659.676	0.0148883
659.754	0.0146764
659.832	0.0147732
659.910	0.0147189
659.988	0.0146469
660.067	0.0145971
660.145	0.0146105
660.223	0.0143253
660.301	0.0142724
660.379	0.0143903
660.457	0.0143098
660.535	0.0142315
660.613	0.0142457
660.692	0.0140343
660.770	0.0141266
660.848	0.0140204
660.926	0.0140295
661.004	0.0139301
661.082	0.0139742
661.160	0.0139181
661.238	0.0139113
661.317	0.0140142
661.395	0.0141163
661.473	0.0141759
661.551	0.0141850
661.629	0.0142756
661.707	0.0143174
661.785	0.0143406
661.863	0.0143458
661.942	0.0145007
662.020	0.0146373
662.098	0.0145459
662.176	0.0146155
662.254	0.0145458
662.332	0.0147607
662.410	0.0146743
662.488	0.0147186
662.567	0.0147871
662.645	0.0145647
662.723	0.0147037
662.801	0.0148035
662.879	0.0148409
662.957	0.0145985
663.035	0.0146644
663.113	0.0148425
663.192	0.0148136
663.270	0.0147811
663.348	0.0147669
663.426	0.0149254
663.504	0.0149099
663.582	0.0148644
663.660	0.0149793
663.738	0.0150810
663.817	0.0150678
663.895	0.0150384
663.973	0.0150078
664.051	0.0152200
664.129	0.0152649
664.207	0.0151356
664.285	0.0151641
664.363	0.0153689
664.442	0.0153005
664.520	0.0152604
664.598	0.0152055
664.676	0.0151960
664.754	0.0150599
664.832	0.0149828
664.910	0.0149509
664.988	0.0146686
665.067	0.0145866
665.145	0.0145279
665.223	0.0145225
665.301	0.0142444
665.379	0.0141140
665.457	0.0140662
665.535	0.0140199
665.613	0.0140981
665.692	0.0141051
665.770	0.0141564
665.848	0.0140870
665.926	0.0140791
666.004	0.0142708
666.082	0.0144006
666.160	0.0142097
666.238	0.0143140
666.317	0.0143723
666.395	0.0145544
666.473	0.0144486
666.551	0.0145576
666.629	0.0145966
666.707	0.0146433
666.785	0.0147080
666.863	0.0148123
666.942	0.0148849
667.020	0.0150076
667.098	0.0149305
667.176	0.0149771
667.254	0.0149545
667.332	0.0149460
667.410	0.0149966
667.488	0.0150372
667.567	0.0150230
667.645	0.0149477
667.723	0.0149887
667.801	0.0148100
667.879	0.0147946
667.957	0.0146851
668.035	0.0147259
668.113	0.0147475
668.192	0.0145860
668.270	0.0147974
668.348	0.0146407
668.426	0.0146241
668.504	0.0145527
668.582	0.0145484
668.660	0.0145686
668.738	0.0144640
668.817	0.0144373
668.895	0.0144701
668.973	0.0144600
669.051	0.0145428
669.129	0.0144210
669.207	0.0145593
669.285	0.0146786
669.363	0.0146826
669.442	0.0147568
669.520	0.0146651
669.598	0.0147303
669.676	0.0148899
669.754	0.0149281
669.832	0.0148711
669.910	0.0149788
669.988	0.0151166
670.067	0.0151511
670.145	0.0150758
670.223	0.0150433
670.301	0.0150120
670.379	0.0149362
670.457	0.0150737
670.535	0.0150745
670.613	0.0148077
670.692	0.0151012
670.770	0.0149111
670.848	0.0149696
670.926	0.0149104
671.004	0.0145928
671.082	0.0147355
671.160	0.0147314
671.238	0.0146474
671.317	0.0145351
671.395	0.0146447
671.473	0.0145879
671.551	0.0144543
671.629	0.0144251
671.707	0.0144913
671.785	0.0142274
671.863	0.0143272
671.942	0.0143850
672.020	0.0142320
672.098	0.0143290
672.176	0.0145238
672.254	0.0144044
672.332	0.0144812
672.410	0.0145521
672.488	0.0144581
672.567	0.0145033
672.645	0.0147833
672.723	0.0146982
672.801	0.0147356
672.879	0.0149124
672.957	0.0149195
673.035	0.0149654
673.113	0.0149921
673.192	0.0149883
673.270	0.0147990
673.348	0.0146643
673.426	0.0147110
673.504	0.0145752
673.582	0.0143851
673.660	0.0143599
673.738	0.0142139
673.817	0.0141430
673.895	0.0140042
673.973	0.0140672
674.051	0.0139523
674.129	0.0139737
674.207	0.0139924
674.285	0.0140304
674.363	0.0141195
674.442	0.0142509
674.520	0.0141981
674.598	0.0143296
674.676	0.0144012
674.754	0.0146314
674.832	0.0148499
674.910	0.0150525
674.988	0.0152702
675.067	0.0151753
675.145	0.0152061
675.223	0.0153703
675.301	0.0153626
675.379	0.0154578
675.457	0.0156005
675.535	0.0156521
675.613	0.0155730
675.692	0.0154482
675.770	0.0154768
675.848	0.0153618
675.926	0.0153460
676.004	0.0153040
676.082	0.0151521
676.160	0.0149982
676.238	0.0148774
676.317	0.0149575
676.395	0.0147859
676.473	0.0146638
676.551	0.0145328
676.629	0.0143764
676.707	0.0142197
676.785	0.0142319
676.863	0.0142214
676.942	0.0140176
677.020	0.0139784
677.098	0.0138881
677.176	0.0139117
677.254	0.0139177
677.332	0.0138618
677.410	0.0137933
677.488	0.0139350
677.567	0.0138965
677.645	0.0138264
677.723	0.0139886
677.801	0.0142815
677.879	0.0140785
677.957	0.0142039
678.035	0.0145580
678.113	0.0144294
678.192	0.0144095
678.270	0.0146102
678.348	0.0146775
678.426	0.0146670
678.504	0.0148414
678.582	0.0148842
678.660	0.0148175
678.738	0.0149195
678.817	0.0149167
678.895	0.0149373
678.973	0.0150868
679.051	0.0150133
679.129	0.0150858
679.207	0.0151223
679.285	0.0149768
679.363	0.0150621
679.442	0.0150993
679.520	0.0151058
679.598	0.0149764
679.676	0.0149905
679.754	0.0148752
679.832	0.0148380
679.910	0.0147499
679.988	0.0145821
680.067	0.0146088
680.145	0.0144785
680.223	0.0145953
680.301	0.0144117
680.379	0.0143509
680.457	0.0143791
680.535	0.0142613
680.613	0.0142292
680.692	0.0141466
680.770	0.0140664
680.848	0.0139278
680.926	0.0139745
681.004	0.0137337
681.082	0.0138369
681.160	0.0137278
681.238	0.0137548
681.317	0.0138755
681.395	0.0139056
681.473	0.0141325
681.551	0.0140170
681.629	0.0142094
681.707	0.0142856
681.785	0.0144545
681.863	0.0147156
681.942	0.0147924
682.020	0.0148720
682.098	0.0148822
682.176	0.0151502
682.254	0.0153476
682.332	0.0152048
682.410	0.0153400
682.488	0.0152586
682.567	0.0151183
682.645	0.0152965
682.723	0.0151792
682.801	0.0150678
682.879	0.0150804
682.957	0.0152317
683.035	0.0151309
683.113	0.0150852
683.192	0.0150974
683.270	0.0150197
683.348	0.0149937
683.426	0.0150092
683.504	0.0150717
683.582	0.0150929
683.660	0.0148833
683.738	0.0148003
683.817	0.0148177
683.895	0.0148080
683.973	0.0146040
684.051	0.0144121
684.129	0.0145874
684.207	0.0144192
684.285	0.0142960
684.363	0.0142868
684.442	0.0141959
684.520	0.0142728
684.598	0.0141926
684.676	0.0141027
684.754	0.0141596
684.832	0.0142181
684.910	0.0141911
684.988	0.0142260
685.067	0.0142198
685.145	0.0142658
685.223	0.0143458
685.301	0.0143735
685.379	0.0144126
685.457	0.0144556
685.535	0.0144135
685.613	0.0145071
685.692	0.0144350
