05/28/2022	14:17:26	Ver.	4.1	UNKNOWN
Optical Delay	599.988409	Delta X		0.078125	Sweeps	1	Scan Rate	0/0
Coordinates	Axis 1	NaN	Axis 2	NaN	Axis 3	NaN	Axis 4	NaN	Axis 5	NaN	Axis 6	0.000000
TX Power	0.000000	RX Power	0.000000

599.988	0.0141034
600.067	0.0141250
600.145	0.0140189
600.223	0.0141286
600.301	0.0141146
600.379	0.0140442
600.457	0.0141951
600.535	0.0139457
600.613	0.0140961
600.692	0.0141525
600.770	0.0142323
600.848	0.0141586
600.926	0.0141321
601.004	0.0141777
601.082	0.0141546
601.160	0.0141566
601.238	0.0140901
601.317	0.0141131
601.395	0.0141154
601.473	0.0141550
601.551	0.0141243
601.629	0.0140884
601.707	0.0140283
601.785	0.0141005
601.863	0.0141138
601.942	0.0141515
602.020	0.0141384
602.098	0.0141290
602.176	0.0140691
602.254	0.0140981
602.332	0.0141047
602.410	0.0141750
602.488	0.0140960
602.567	0.0140522
602.645	0.0141513
602.723	0.0141203
602.801	0.0141282
602.879	0.0141538
602.957	0.0141744
603.035	0.0141284
603.113	0.0141170
603.192	0.0140484
603.270	0.0141409
603.348	0.0141452
603.426	0.0142191
603.504	0.0141019
603.582	0.0141298
603.660	0.0141953
603.738	0.0140491
603.817	0.0140538
603.895	0.0141309
603.973	0.0141898
604.051	0.0140605
604.129	0.0139984
604.207	0.0141627
604.285	0.0141954
604.363	0.0141598
604.442	0.0141443
604.520	0.0141275
604.598	0.0142027
604.676	0.0141915
604.754	0.0141418
604.832	0.0140668
604.910	0.0141395
604.988	0.0141544
605.067	0.0139915
605.145	0.0141008
605.223	0.0141752
605.301	0.0141225
605.379	0.0140646
605.457	0.0140751
605.535	0.0142142
605.613	0.0141314
605.692	0.0142529
605.770	0.0142509
605.848	0.0141972
605.926	0.0141762
606.004	0.0140762
606.082	0.0139879
606.160	0.0140799
606.238	0.0140439
606.317	0.0141281
606.395	0.0140322
606.473	0.0140720
606.551	0.0143314
606.629	0.0141405
606.707	0.0140223
606.785	0.0140610
606.863	0.0141983
606.942	0.0141440
607.020	0.0141231
607.098	0.0141302
607.176	0.0141266
607.254	0.0140804
607.332	0.0141789
607.410	0.0141045
607.488	0.0142023
607.567	0.0140868
607.645	0.0141436
607.723	0.0140912
607.801	0.0141598
607.879	0.0141145
607.957	0.0140945
608.035	0.0142431
608.113	0.0142050
608.192	0.0139745
608.270	0.0141579
608.348	0.0142241
608.426	0.0141999
608.504	0.0140646
608.582	0.0142429
608.660	0.0142332
608.738	0.0141601
608.817	0.0140549
608.895	0.0140855
608.973	0.0142242
609.051	0.0142287
609.129	0.0141262
609.207	0.0140469
609.285	0.0141598
609.363	0.0142870
609.442	0.0140593
609.520	0.0140836
609.598	0.0142137
609.676	0.0142544
609.754	0.0141048
609.832	0.0141884
609.910	0.0142017
609.988	0.0142189
610.067	0.0141375
610.145	0.0140386
610.223	0.0141556
610.301	0.0141444
610.379	0.0141237
610.457	0.0142097
610.535	0.0142111
610.613	0.0140969
610.692	0.0141258
610.770	0.0142928
610.848	0.0142213
610.926	0.0142295
611.004	0.0141486
611.082	0.0141407
611.160	0.0142046
611.238	0.0143156
611.317	0.0141236
611.395	0.0141297
611.473	0.0141298
611.551	0.0141542
611.629	0.0141003
611.707	0.0141528
611.785	0.0141882
611.863	0.0141952
611.942	0.0141828
612.020	0.0141938
612.098	0.0141698
612.176	0.0141597
612.254	0.0141862
612.332	0.0140106
612.410	0.0140471
612.488	0.0142453
612.567	0.0140808
612.645	0.0140536
612.723	0.0142046
612.801	0.0141044
612.879	0.0140414
612.957	0.0141928
613.035	0.0141111
613.113	0.0143048
613.192	0.0139647
613.270	0.0140053
613.348	0.0140366
613.426	0.0140710
613.504	0.0141094
613.582	0.0141014
613.660	0.0140902
613.738	0.0141540
613.817	0.0142268
613.895	0.0142251
613.973	0.0140842
614.051	0.0140461
614.129	0.0143327
614.207	0.0142640
614.285	0.0142742
614.363	0.0141930
614.442	0.0141856
614.520	0.0140706
614.598	0.0141647
614.676	0.0141324
614.754	0.0141464
614.832	0.0142677
614.910	0.0141510
614.988	0.0142056
615.067	0.0142123
615.145	0.0144172
615.223	0.0142072
615.301	0.0143481
615.379	0.0141952
615.457	0.0142831
615.535	0.0141718
615.613	0.0141527
615.692	0.0141905
615.770	0.0140850
615.848	0.0141158
615.926	0.0141371
616.004	0.0141625
616.082	0.0142254
616.160	0.0141676
616.238	0.0141692
616.317	0.0141138
616.395	0.0142355
616.473	0.0140912
616.551	0.0141835
616.629	0.0141456
616.707	0.0142271
616.785	0.0140169
616.863	0.0141135
616.942	0.0141257
617.020	0.0140432
617.098	0.0141528
617.176	0.0141441
617.254	0.0139890
617.332	0.0140762
617.410	0.0140964
617.488	0.0141027
617.567	0.0140990
617.645	0.0141135
617.723	0.0141622
617.801	0.0141157
617.879	0.0141692
617.957	0.0139854
618.035	0.0140978
618.113	0.0141410
618.192	0.0141264
618.270	0.0142268
618.348	0.0140226
618.426	0.0140952
618.504	0.0141197
618.582	0.0141110
618.660	0.0142127
618.738	0.0141021
618.817	0.0140145
618.895	0.0140610
618.973	0.0141861
619.051	0.0141280
619.129	0.0141542
619.207	0.0140867
619.285	0.0140231
619.363	0.0141024
619.442	0.0142282
619.520	0.0141422
619.598	0.0140742
619.676	0.0141907
619.754	0.0139972
619.832	0.0142049
619.910	0.0141840
619.988	0.0140007
620.067	0.0141469
620.145	0.0140752
620.223	0.0142510
620.301	0.0141145
620.379	0.0140721
620.457	0.0140292
620.535	0.0141030
620.613	0.0140657
620.692	0.0142572
620.770	0.0141059
620.848	0.0140650
620.926	0.0140085
621.004	0.0140132
621.082	0.0141115
621.160	0.0141274
621.238	0.0140521
621.317	0.0141380
621.395	0.0140716
621.473	0.0139813
621.551	0.0141757
621.629	0.0139901
621.707	0.0140759
621.785	0.0140985
621.863	0.0140599
621.942	0.0140903
622.020	0.0141385
622.098	0.0141961
622.176	0.0140540
622.254	0.0141330
622.332	0.0140737
622.410	0.0141003
622.488	0.0141490
622.567	0.0140308
622.645	0.0140951
622.723	0.0140442
622.801	0.0140051
622.879	0.0140442
622.957	0.0140659
623.035	0.0139865
623.113	0.0140118
623.192	0.0138779
623.270	0.0141546
623.348	0.0140688
623.426	0.0140127
623.504	0.0141434
623.582	0.0141217
623.660	0.0139422
623.738	0.0139114
623.817	0.0140867
623.895	0.0140937
623.973	0.0141092
624.051	0.0141483
624.129	0.0140910
624.207	0.0141093
624.285	0.0139874
624.363	0.0140474
624.442	0.0140494
624.520	0.0140645
624.598	0.0140824
624.676	0.0141299
624.754	0.0140165
624.832	0.0140874
624.910	0.0141679
624.988	0.0141080
625.067	0.0142525
625.145	0.0140666
625.223	0.0139493
625.301	0.0140265
625.379	0.0140524
625.457	0.0141692
625.535	0.0140321
625.613	0.0140665
625.692	0.0142097
625.770	0.0141933
625.848	0.0141498
625.926	0.0141232
626.004	0.0141511
626.082	0.0141669
626.160	0.0141556
626.238	0.0143137
626.317	0.0141746
626.395	0.0142119
626.473	0.0142002
626.551	0.0140617
626.629	0.0141615
626.707	0.0140855
626.785	0.0141560
626.863	0.0141790
626.942	0.0141060
627.020	0.0140322
627.098	0.0142463
627.176	0.0140716
627.254	0.0142017
627.332	0.0142611
627.410	0.0142175
627.488	0.0141343
627.567	0.0143188
627.645	0.0141912
627.723	0.0141274
627.801	0.0141669
627.879	0.0141367
627.957	0.0141339
628.035	0.0141525
628.113	0.0142352
628.192	0.0141766
628.270	0.0141569
628.348	0.0141870
628.426	0.0142032
628.504	0.0141846
628.582	0.0142661
628.660	0.0143558
628.738	0.0142496
628.817	0.0141813
628.895	0.0142891
628.973	0.0140444
629.051	0.0142540
629.129	0.0142957
629.207	0.0142091
629.285	0.0141579
629.363	0.0142630
629.442	0.0142239
629.520	0.0142769
629.598	0.0140133
629.676	0.0141562
629.754	0.0142520
629.832	0.0140735
629.910	0.0140422
629.988	0.0141993
630.067	0.0141356
630.145	0.0142298
630.223	0.0143102
630.301	0.0142282
630.379	0.0141587
630.457	0.0142441
630.535	0.0142175
630.613	0.0144455
630.692	0.0142909
630.770	0.0142517
630.848	0.0141440
630.926	0.0142686
631.004	0.0142313
631.082	0.0142145
631.160	0.0142236
631.238	0.0144212
631.317	0.0142528
631.395	0.0142411
631.473	0.0141698
631.551	0.0143363
631.629	0.0143135
631.707	0.0142264
631.785	0.0141004
631.863	0.0142757
631.942	0.0142898
632.020	0.0142342
632.098	0.0141627
632.176	0.0142867
632.254	0.0142166
632.332	0.0141610
632.410	0.0142805
632.488	0.0142514
632.567	0.0142230
632.645	0.0142812
632.723	0.0142706
632.801	0.0142014
632.879	0.0142000
632.957	0.0141789
633.035	0.0142036
633.113	0.0143264
633.192	0.0141423
633.270	0.0141927
633.348	0.0140024
633.426	0.0141522
633.504	0.0142210
633.582	0.0141599
633.660	0.0140839
633.738	0.0141516
633.817	0.0142007
633.895	0.0139776
633.973	0.0141200
634.051	0.0141224
634.129	0.0141354
634.207	0.0140858
634.285	0.0141450
634.363	0.0141406
634.442	0.0141470
634.520	0.0140834
634.598	0.0141965
634.676	0.0141329
634.754	0.0141528
634.832	0.0140845
634.910	0.0141173
634.988	0.0142144
635.067	0.0141955
635.145	0.0140608
635.223	0.0140938
635.301	0.0142239
635.379	0.0142005
635.457	0.0140637
635.535	0.0141434
635.613	0.0142035
635.692	0.0141180
635.770	0.0142143
635.848	0.0143085
635.926	0.0143259
636.004	0.0141969
636.082	0.0143469
636.160	0.0141894
636.238	0.0142759
636.317	0.0143924
636.395	0.0143578
636.473	0.0143356
636.551	0.0141695
636.629	0.0143444
636.707	0.0142256
636.785	0.0141568
636.863	0.0141475
636.942	0.0142754
637.020	0.0143022
637.098	0.0143024
637.176	0.0142348
637.254	0.0142104
637.332	0.0141490
637.410	0.0141989
637.488	0.0141833
637.567	0.0141785
637.645	0.0141376
637.723	0.0142404
637.801	0.0141888
637.879	0.0141016
637.957	0.0142651
638.035	0.0143353
638.113	0.0143401
638.192	0.0140862
638.270	0.0142316
638.348	0.0141210
638.426	0.0142535
638.504	0.0141854
638.582	0.0143357
638.660	0.0141608
638.738	0.0141429
638.817	0.0142247
638.895	0.0140421
638.973	0.0142056
639.051	0.0142284
639.129	0.0141923
639.207	0.0141460
639.285	0.0140696
639.363	0.0140951
639.442	0.0142367
639.520	0.0140403
639.598	0.0139526
639.676	0.0140443
639.754	0.0140332
639.832	0.0140586
639.910	0.0140444
639.988	0.0139408
640.067	0.0139439
640.145	0.0138853
640.223	0.0137891
640.301	0.0139479
640.379	0.0138190
640.457	0.0138972
640.535	0.0138926
640.613	0.0140729
640.692	0.0139008
640.770	0.0139040
640.848	0.0139216
640.926	0.0140252
641.004	0.0139722
641.082	0.0139591
641.160	0.0141379
641.238	0.0140780
641.317	0.0141554
641.395	0.0141727
641.473	0.0139968
641.551	0.0142480
641.629	0.0139940
641.707	0.0139745
641.785	0.0141442
641.863	0.0141675
641.942	0.0141554
642.020	0.0140931
642.098	0.0142366
642.176	0.0141334
642.254	0.0142442
642.332	0.0142078
642.410	0.0140736
642.488	0.0141780
642.567	0.0142960
642.645	0.0143372
642.723	0.0144634
642.801	0.0142384
642.879	0.0143236
642.957	0.0143119
643.035	0.0143073
643.113	0.0141212
643.192	0.0141082
643.270	0.0142055
643.348	0.0140983
643.426	0.0140860
643.504	0.0141161
643.582	0.0142692
643.660	0.0141795
643.738	0.0139095
643.817	0.0140083
643.895	0.0140321
643.973	0.0141222
644.051	0.0139194
644.129	0.0141947
644.207	0.0140626
644.285	0.0139231
644.363	0.0140485
644.442	0.0141287
644.520	0.0140143
644.598	0.0138812
644.676	0.0139182
644.754	0.0138897
644.832	0.0138319
644.910	0.0138928
644.988	0.0138381
645.067	0.0139054
645.145	0.0138871
645.223	0.0139519
645.301	0.0139450
645.379	0.0140758
645.457	0.0140623
645.535	0.0139191
645.613	0.0142817
645.692	0.0142036
645.770	0.0142706
645.848	0.0143352
645.926	0.0145257
646.004	0.0144431
646.082	0.0144240
646.160	0.0146085
646.238	0.0145491
646.317	0.0145329
646.395	0.0147249
646.473	0.0145330
646.551	0.0146564
646.629	0.0147003
646.707	0.0146080
646.785	0.0146004
646.863	0.0145705
646.942	0.0143240
647.020	0.0145229
647.098	0.0142597
647.176	0.0142089
647.254	0.0141360
647.332	0.0142975
647.410	0.0142470
647.488	0.0142803
647.567	0.0142806
647.645	0.0142545
647.723	0.0142679
647.801	0.0143022
647.879	0.0141200
647.957	0.0142055
648.035	0.0140651
648.113	0.0141791
648.192	0.0140423
648.270	0.0140530
648.348	0.0139629
648.426	0.0139235
648.504	0.0139786
648.582	0.0139053
648.660	0.0138239
648.738	0.0138395
648.817	0.0137681
648.895	0.0135545
648.973	0.0138001
649.051	0.0138602
649.129	0.0138857
649.207	0.0137999
649.285	0.0138897
649.363	0.0139474
649.442	0.0139473
649.520	0.0140189
649.598	0.0141706
649.676	0.0143423
649.754	0.0141846
649.832	0.0142273
649.910	0.0143789
649.988	0.0142986
650.067	0.0142345
650.145	0.0144353
650.223	0.0143230
650.301	0.0144327
650.379	0.0143469
650.457	0.0144337
650.535	0.0143994
650.613	0.0144099
650.692	0.0144765
650.770	0.0145875
650.848	0.0144811
650.926	0.0146684
651.004	0.0145882
651.082	0.0145136
651.160	0.0146443
651.238	0.0146774
651.317	0.0145684
651.395	0.0145036
651.473	0.0145098
651.551	0.0144262
651.629	0.0143594
651.707	0.0144116
651.785	0.0144765
651.863	0.0144208
651.942	0.0144318
652.020	0.0143046
652.098	0.0144289
652.176	0.0143392
652.254	0.0143775
652.332	0.0142488
652.410	0.0141894
652.488	0.0142798
652.567	0.0142776
652.645	0.0142747
652.723	0.0140667
652.801	0.0141216
652.879	0.0140639
652.957	0.0140280
653.035	0.0138596
653.113	0.0138613
653.192	0.0139040
653.270	0.0137492
653.348	0.0139494
653.426	0.0137869
653.504	0.0138512
653.582	0.0139763
653.660	0.0138965
653.738	0.0137292
653.817	0.0136420
653.895	0.0137769
653.973	0.0138300
654.051	0.0139011
654.129	0.0139119
654.207	0.0137087
654.285	0.0137806
654.363	0.0138172
654.442	0.0138487
654.520	0.0137685
654.598	0.0138358
654.676	0.0138403
654.754	0.0137318
654.832	0.0138792
654.910	0.0138807
654.988	0.0140775
655.067	0.0139562
655.145	0.0140848
655.223	0.0141975
655.301	0.0143114
655.379	0.0143875
655.457	0.0143473
655.535	0.0146308
655.613	0.0145266
655.692	0.0146462
655.770	0.0147691
655.848	0.0147332
655.926	0.0147540
656.004	0.0147589
656.082	0.0147177
656.160	0.0145880
656.238	0.0146955
656.317	0.0147880
656.395	0.0146806
656.473	0.0147375
656.551	0.0147313
656.629	0.0146015
656.707	0.0143985
656.785	0.0146169
656.863	0.0144681
656.942	0.0144763
657.020	0.0143255
657.098	0.0144722
657.176	0.0143365
657.254	0.0142170
657.332	0.0141721
657.410	0.0142431
657.488	0.0141527
657.567	0.0140772
657.645	0.0140282
657.723	0.0140232
657.801	0.0139848
657.879	0.0138486
657.957	0.0138755
658.035	0.0139861
658.113	0.0138358
658.192	0.0137556
658.270	0.0137945
658.348	0.0137701
658.426	0.0136331
658.504	0.0136774
658.582	0.0136547
658.660	0.0135459
658.738	0.0136505
658.817	0.0137148
658.895	0.0134238
658.973	0.0135163
659.051	0.0137729
659.129	0.0135479
659.207	0.0135150
659.285	0.0135996
659.363	0.0136908
659.442	0.0136823
659.520	0.0136676
659.598	0.0139042
659.676	0.0139902
659.754	0.0140408
659.832	0.0141084
659.910	0.0142023
659.988	0.0142993
660.067	0.0143775
660.145	0.0143931
660.223	0.0143793
660.301	0.0143694
660.379	0.0144848
660.457	0.0145164
660.535	0.0144888
660.613	0.0143986
660.692	0.0143650
660.770	0.0143641
660.848	0.0144734
660.926	0.0143187
661.004	0.0145201
661.082	0.0144065
661.160	0.0143698
661.238	0.0144527
661.317	0.0143462
661.395	0.0145469
661.473	0.0144137
661.551	0.0144223
661.629	0.0144618
661.707	0.0144650
661.785	0.0144276
661.863	0.0143174
661.942	0.0144112
662.020	0.0143997
662.098	0.0141624
662.176	0.0141142
662.254	0.0140591
662.332	0.0140046
662.410	0.0139888
662.488	0.0139900
662.567	0.0139438
662.645	0.0137447
662.723	0.0138294
662.801	0.0137531
662.879	0.0139011
662.957	0.0139333
663.035	0.0138355
663.113	0.0137718
663.192	0.0139277
663.270	0.0139389
663.348	0.0139505
663.426	0.0139854
663.504	0.0139111
663.582	0.0139616
663.660	0.0139484
663.738	0.0139050
663.817	0.0138103
663.895	0.0138254
663.973	0.0139820
664.051	0.0139282
664.129	0.0137918
664.207	0.0139124
664.285	0.0139159
664.363	0.0141194
664.442	0.0139794
664.520	0.0139314
664.598	0.0138378
664.676	0.0139469
664.754	0.0139371
664.832	0.0139641
664.910	0.0140527
664.988	0.0141636
665.067	0.0141459
665.145	0.0142156
665.223	0.0142411
665.301	0.0142040
665.379	0.0141959
665.457	0.0143099
665.535	0.0144379
665.613	0.0144209
665.692	0.0146451
665.770	0.0143968
665.848	0.0146735
665.926	0.0146367
666.004	0.0145843
666.082	0.0145921
666.160	0.0147203
666.238	0.0145863
666.317	0.0145451
666.395	0.0144570
666.473	0.0145291
666.551	0.0144625
666.629	0.0142981
666.707	0.0142767
666.785	0.0143035
666.863	0.0141977
666.942	0.0141112
667.020	0.0140206
667.098	0.0140798
667.176	0.0141339
667.254	0.0139018
667.332	0.0140554
667.410	0.0141521
667.488	0.0140191
667.567	0.0141168
667.645	0.0139578
667.723	0.0139465
667.801	0.0141807
667.879	0.0141355
667.957	0.0140843
668.035	0.0141290
668.113	0.0142486
668.192	0.0142133
668.270	0.0143268
668.348	0.0142422
668.426	0.0142229
668.504	0.0142001
668.582	0.0143861
668.660	0.0144366
668.738	0.0145592
668.817	0.0143481
668.895	0.0142742
668.973	0.0142758
669.051	0.0143260
669.129	0.0141516
669.207	0.0141790
669.285	0.0141148
669.363	0.0142435
669.442	0.0141424
669.520	0.0140486
669.598	0.0140845
669.676	0.0140936
669.754	0.0139632
669.832	0.0141281
669.910	0.0140275
669.988	0.0140820
670.067	0.0140942
670.145	0.0139778
670.223	0.0139677
670.301	0.0140771
670.379	0.0140209
670.457	0.0140328
670.535	0.0140285
670.613	0.0140683
670.692	0.0139330
670.770	0.0139188
670.848	0.0138679
670.926	0.0138451
671.004	0.0140572
671.082	0.0139326
671.160	0.0140172
671.238	0.0140051
671.317	0.0142277
671.395	0.0141155
671.473	0.0139820
671.551	0.0140436
671.629	0.0141373
671.707	0.0143278
671.785	0.0143285
671.863	0.0142010
671.942	0.0142524
672.020	0.0144135
672.098	0.0145325
672.176	0.0146032
672.254	0.0145194
672.332	0.0146178
672.410	0.0144868
672.488	0.0144205
672.567	0.0144299
672.645	0.0145020
672.723	0.0144623
672.801	0.0142767
672.879	0.0142271
672.957	0.0140941
673.035	0.0140814
673.113	0.0140337
673.192	0.0139680
673.270	0.0139954
673.348	0.0137384
673.426	0.0137686
673.504	0.0137634
673.582	0.0137655
673.660	0.0137694
673.738	0.0137847
673.817	0.0139369
673.895	0.0139376
673.973	0.0142875
674.051	0.0143562
674.129	0.0144121
674.207	0.0144936
674.285	0.0146023
674.363	0.0147916
674.442	0.0147259
674.520	0.0148744
674.598	0.0148071
674.676	0.0148913
674.754	0.0149869
674.832	0.0147260
674.910	0.0146917
674.988	0.0147282
675.067	0.0145451
675.145	0.0143262
675.223	0.0142508
675.301	0.0142015
675.379	0.0140806
675.457	0.0139233
675.535	0.0138041
675.613	0.0136008
675.692	0.0134946
675.770	0.0134724
675.848	0.0133437
675.926	0.0133450
676.004	0.0133535
676.082	0.0134141
676.160	0.0132413
676.238	0.0133826
676.317	0.0132852
676.395	0.0133791
676.473	0.0134069
676.551	0.0135033
676.629	0.0133540
676.707	0.0135723
676.785	0.0138015
676.863	0.0137800
676.942	0.0137437
677.020	0.0138062
677.098	0.0139823
677.176	0.0142883
677.254	0.0143280
677.332	0.0144052
677.410	0.0144746
677.488	0.0144385
677.567	0.0145718
677.645	0.0144762
677.723	0.0145043
677.801	0.0145022
677.879	0.0146881
677.957	0.0146391
678.035	0.0147159
678.113	0.0146183
678.192	0.0145634
678.270	0.0146072
678.348	0.0147683
678.426	0.0147311
678.504	0.0146941
678.582	0.0146436
678.660	0.0146009
678.738	0.0145526
678.817	0.0146109
678.895	0.0146323
678.973	0.0146014
679.051	0.0146203
679.129	0.0145836
679.207	0.0144170
679.285	0.0143407
679.363	0.0143491
679.442	0.0143282
679.520	0.0141642
679.598	0.0140930
679.676	0.0141109
679.754	0.0141557
679.832	0.0138011
679.910	0.0139246
679.988	0.0139041
680.067	0.0137003
680.145	0.0137541
680.223	0.0136643
680.301	0.0135597
680.379	0.0136285
680.457	0.0134599
680.535	0.0135448
680.613	0.0136549
680.692	0.0134589
680.770	0.0136639
680.848	0.0135274
680.926	0.0137360
681.004	0.0137409
681.082	0.0137667
681.160	0.0138799
681.238	0.0139317
681.317	0.0140459
681.395	0.0142419
681.473	0.0143011
681.551	0.0142269
681.629	0.0143159
681.707	0.0144375
681.785	0.0144575
681.863	0.0144691
681.942	0.0144018
682.020	0.0143669
682.098	0.0146189
682.176	0.0144199
682.254	0.0145116
682.332	0.0144888
682.410	0.0146101
682.488	0.0144314
682.567	0.0145041
682.645	0.0146748
682.723	0.0146397
682.801	0.0145374
682.879	0.0146799
682.957	0.0146712
683.035	0.0146336
683.113	0.0146381
683.192	0.0144775
683.270	0.0144570
683.348	0.0143141
683.426	0.0143581
683.504	0.0142022
683.582	0.0142278
683.660	0.0140323
683.738	0.0140211
683.817	0.0137852
683.895	0.0136663
683.973	0.0135696
684.051	0.0135207
684.129	0.0135133
684.207	0.0135594
684.285	0.0135320
684.363	0.0133099
684.442	0.0134724
684.520	0.0136208
684.598	0.0135376
684.676	0.0136042
684.754	0.0136588
684.832	0.0137059
684.910	0.0136358
684.988	0.0136396
685.067	0.0136797
685.145	0.0135023
685.223	0.0135317
685.301	0.0137450
685.379	0.0138182
685.457	0.0138867
685.535	0.0139755
685.613	0.0138816
685.692	0.0140198
