05/28/2022	14:17:41	Ver.	4.1	UNKNOWN
Optical Delay	599.988409	Delta X		0.078125	Sweeps	1	Scan Rate	0/0
Coordinates	Axis 1	NaN	Axis 2	NaN	Axis 3	NaN	Axis 4	NaN	Axis 5	NaN	Axis 6	0.000000
TX Power	0.000000	RX Power	0.000000

599.988	0.0145986
600.067	0.0145759
600.145	0.0145251
600.223	0.0144591
600.301	0.0145794
600.379	0.0146589
600.457	0.0146489
600.535	0.0146294
600.613	0.0146552
600.692	0.0146761
600.770	0.0147208
600.848	0.0146024
600.926	0.0144786
601.004	0.0147083
601.082	0.0146391
601.160	0.0147784
601.238	0.0146529
601.317	0.0146728
601.395	0.0145966
601.473	0.0145865
601.551	0.0145991
601.629	0.0146058
601.707	0.0146191
601.785	0.0145896
601.863	0.0146479
601.942	0.0146165
602.020	0.0147419
602.098	0.0146236
602.176	0.0145738
602.254	0.0145238
602.332	0.0144778
602.410	0.0145924
602.488	0.0145848
602.567	0.0146658
602.645	0.0146364
602.723	0.0147156
602.801	0.0146698
602.879	0.0146426
602.957	0.0146839
603.035	0.0146551
603.113	0.0145649
603.192	0.0146615
603.270	0.0146415
603.348	0.0146547
603.426	0.0146351
603.504	0.0146082
603.582	0.0146213
603.660	0.0148284
603.738	0.0147665
603.817	0.0146860
603.895	0.0147721
603.973	0.0145425
604.051	0.0146853
604.129	0.0145334
604.207	0.0145847
604.285	0.0147323
604.363	0.0146137
604.442	0.0145725
604.520	0.0145193
604.598	0.0147314
604.676	0.0146729
604.754	0.0146044
604.832	0.0146243
604.910	0.0146127
604.988	0.0146935
605.067	0.0145754
605.145	0.0146198
605.223	0.0144684
605.301	0.0145061
605.379	0.0145451
605.457	0.0146009
605.535	0.0146786
605.613	0.0145804
605.692	0.0146088
605.770	0.0147119
605.848	0.0146876
605.926	0.0146133
606.004	0.0145018
606.082	0.0147241
606.160	0.0147221
606.238	0.0148294
606.317	0.0146719
606.395	0.0145963
606.473	0.0145948
606.551	0.0146813
606.629	0.0147633
606.707	0.0147347
606.785	0.0146174
606.863	0.0145333
606.942	0.0146377
607.020	0.0146979
607.098	0.0146135
607.176	0.0147096
607.254	0.0147036
607.332	0.0147371
607.410	0.0146191
607.488	0.0146982
607.567	0.0146803
607.645	0.0146200
607.723	0.0145284
607.801	0.0146348
607.879	0.0145985
607.957	0.0146211
608.035	0.0144932
608.113	0.0145692
608.192	0.0146034
608.270	0.0146629
608.348	0.0146960
608.426	0.0145411
608.504	0.0145748
608.582	0.0147768
608.660	0.0146575
608.738	0.0147538
608.817	0.0147770
608.895	0.0147563
608.973	0.0147120
609.051	0.0147810
609.129	0.0145870
609.207	0.0145671
609.285	0.0148254
609.363	0.0147952
609.442	0.0147198
609.520	0.0146301
609.598	0.0145309
609.676	0.0146898
609.754	0.0148013
609.832	0.0147154
609.910	0.0145467
609.988	0.0146666
610.067	0.0146394
610.145	0.0146359
610.223	0.0146973
610.301	0.0147093
610.379	0.0145642
610.457	0.0145688
610.535	0.0146101
610.613	0.0146905
610.692	0.0145863
610.770	0.0146685
610.848	0.0147069
610.926	0.0146601
611.004	0.0147243
611.082	0.0145760
611.160	0.0146582
611.238	0.0145421
611.317	0.0146240
611.395	0.0146993
611.473	0.0146030
611.551	0.0145907
611.629	0.0146497
611.707	0.0145961
611.785	0.0146080
611.863	0.0147279
611.942	0.0145572
612.020	0.0147106
612.098	0.0145751
612.176	0.0143939
612.254	0.0146247
612.332	0.0146265
612.410	0.0145296
612.488	0.0146544
612.567	0.0145869
612.645	0.0145773
612.723	0.0146477
612.801	0.0146632
612.879	0.0144304
612.957	0.0145428
613.035	0.0145774
613.113	0.0146030
613.192	0.0146710
613.270	0.0143832
613.348	0.0145471
613.426	0.0146637
613.504	0.0144103
613.582	0.0144621
613.660	0.0146623
613.738	0.0146987
613.817	0.0145950
613.895	0.0144621
613.973	0.0144649
614.051	0.0146124
614.129	0.0146387
614.207	0.0146242
614.285	0.0145432
614.363	0.0144234
614.442	0.0145242
614.520	0.0145975
614.598	0.0145187
614.676	0.0145655
614.754	0.0144991
614.832	0.0146336
614.910	0.0147668
614.988	0.0146016
615.067	0.0145097
615.145	0.0146451
615.223	0.0145634
615.301	0.0146629
615.379	0.0147074
615.457	0.0147205
615.535	0.0145936
615.613	0.0144585
615.692	0.0146310
615.770	0.0147198
615.848	0.0144618
615.926	0.0145314
616.004	0.0147287
616.082	0.0146353
616.160	0.0145055
616.238	0.0145640
616.317	0.0146256
616.395	0.0146708
616.473	0.0145808
616.551	0.0145874
616.629	0.0145827
616.707	0.0146381
616.785	0.0146690
616.863	0.0146947
616.942	0.0146297
617.020	0.0146018
617.098	0.0146255
617.176	0.0145826
617.254	0.0145929
617.332	0.0146146
617.410	0.0146464
617.488	0.0146027
617.567	0.0146143
617.645	0.0147478
617.723	0.0145052
617.801	0.0146693
617.879	0.0146428
617.957	0.0146132
618.035	0.0145916
618.113	0.0146600
618.192	0.0147430
618.270	0.0146518
618.348	0.0145032
618.426	0.0145327
618.504	0.0146284
618.582	0.0145530
618.660	0.0144907
618.738	0.0145751
618.817	0.0147105
618.895	0.0146162
618.973	0.0145512
619.051	0.0146471
619.129	0.0147231
619.207	0.0145364
619.285	0.0146665
619.363	0.0145182
619.442	0.0146234
619.520	0.0145644
619.598	0.0146852
619.676	0.0145388
619.754	0.0145294
619.832	0.0145363
619.910	0.0145625
619.988	0.0146340
620.067	0.0147310
620.145	0.0146004
620.223	0.0145845
620.301	0.0146770
620.379	0.0145412
620.457	0.0145044
620.535	0.0146139
620.613	0.0145649
620.692	0.0147402
620.770	0.0145312
620.848	0.0146004
620.926	0.0146313
621.004	0.0147032
621.082	0.0145839
621.160	0.0146225
621.238	0.0145826
621.317	0.0146692
621.395	0.0147620
621.473	0.0146306
621.551	0.0145329
621.629	0.0145805
621.707	0.0145241
621.785	0.0146294
621.863	0.0145641
621.942	0.0145639
622.020	0.0145184
622.098	0.0147800
622.176	0.0147080
622.254	0.0144532
622.332	0.0146489
622.410	0.0146899
622.488	0.0146545
622.567	0.0145692
622.645	0.0145885
622.723	0.0145603
622.801	0.0144820
622.879	0.0145641
622.957	0.0147446
623.035	0.0146568
623.113	0.0146065
623.192	0.0145975
623.270	0.0145992
623.348	0.0146162
623.426	0.0146977
623.504	0.0146706
623.582	0.0147968
623.660	0.0147167
623.738	0.0147298
623.817	0.0148228
623.895	0.0146505
623.973	0.0147912
624.051	0.0146389
624.129	0.0147295
624.207	0.0147266
624.285	0.0147571
624.363	0.0148360
624.442	0.0146687
624.520	0.0147823
624.598	0.0147593
624.676	0.0147685
624.754	0.0146986
624.832	0.0147041
624.910	0.0148425
624.988	0.0147962
625.067	0.0146946
625.145	0.0146482
625.223	0.0146684
625.301	0.0147181
625.379	0.0147806
625.457	0.0147002
625.535	0.0146493
625.613	0.0148163
625.692	0.0147080
625.770	0.0147247
625.848	0.0148566
625.926	0.0147341
626.004	0.0148321
626.082	0.0147193
626.160	0.0147523
626.238	0.0146579
626.317	0.0148340
626.395	0.0147641
626.473	0.0148447
626.551	0.0147347
626.629	0.0146981
626.707	0.0146658
626.785	0.0147263
626.863	0.0147034
626.942	0.0147393
627.020	0.0148284
627.098	0.0147743
627.176	0.0147479
627.254	0.0147851
627.332	0.0146517
627.410	0.0146469
627.488	0.0145924
627.567	0.0148406
627.645	0.0146563
627.723	0.0146891
627.801	0.0146850
627.879	0.0146149
627.957	0.0147562
628.035	0.0146452
628.113	0.0145623
628.192	0.0147375
628.270	0.0146891
628.348	0.0146716
628.426	0.0147179
628.504	0.0145771
628.582	0.0145656
628.660	0.0146961
628.738	0.0146482
628.817	0.0145898
628.895	0.0147160
628.973	0.0146619
629.051	0.0146133
629.129	0.0145827
629.207	0.0146004
629.285	0.0147356
629.363	0.0146522
629.442	0.0147082
629.520	0.0147955
629.598	0.0147210
629.676	0.0146272
629.754	0.0145634
629.832	0.0146560
629.910	0.0145923
629.988	0.0146628
630.067	0.0146471
630.145	0.0147903
630.223	0.0146339
630.301	0.0146529
630.379	0.0147105
630.457	0.0146715
630.535	0.0147744
630.613	0.0146012
630.692	0.0145976
630.770	0.0146676
630.848	0.0147044
630.926	0.0148019
631.004	0.0146191
631.082	0.0147318
631.160	0.0146525
631.238	0.0146390
631.317	0.0147224
631.395	0.0147006
631.473	0.0146369
631.551	0.0146719
631.629	0.0146916
631.707	0.0146076
631.785	0.0146628
631.863	0.0146747
631.942	0.0145348
632.020	0.0146626
632.098	0.0146809
632.176	0.0146149
632.254	0.0146127
632.332	0.0146793
632.410	0.0144610
632.488	0.0145602
632.567	0.0145490
632.645	0.0145270
632.723	0.0147014
632.801	0.0146513
632.879	0.0146270
632.957	0.0146207
633.035	0.0147274
633.113	0.0145359
633.192	0.0145969
633.270	0.0146790
633.348	0.0145041
633.426	0.0144311
633.504	0.0144355
633.582	0.0145646
633.660	0.0145135
633.738	0.0145455
633.817	0.0144345
633.895	0.0146299
633.973	0.0145480
634.051	0.0146014
634.129	0.0144345
634.207	0.0145657
634.285	0.0143700
634.363	0.0144410
634.442	0.0146317
634.520	0.0146152
634.598	0.0144408
634.676	0.0145575
634.754	0.0146140
634.832	0.0145366
634.910	0.0144939
634.988	0.0144978
635.067	0.0146143
635.145	0.0145816
635.223	0.0145543
635.301	0.0145541
635.379	0.0146958
635.457	0.0145406
635.535	0.0145622
635.613	0.0147470
635.692	0.0146345
635.770	0.0144313
635.848	0.0146436
635.926	0.0146381
636.004	0.0145189
636.082	0.0145587
636.160	0.0148005
636.238	0.0147044
636.317	0.0145225
636.395	0.0147093
636.473	0.0146740
636.551	0.0145905
636.629	0.0146607
636.707	0.0146649
636.785	0.0146336
636.863	0.0146131
636.942	0.0145480
637.020	0.0145801
637.098	0.0147116
637.176	0.0147645
637.254	0.0146140
637.332	0.0146320
637.410	0.0147567
637.488	0.0146468
637.567	0.0146689
637.645	0.0147260
637.723	0.0147680
637.801	0.0147266
637.879	0.0147053
637.957	0.0146918
638.035	0.0147021
638.113	0.0147830
638.192	0.0147223
638.270	0.0147279
638.348	0.0146348
638.426	0.0147445
638.504	0.0147663
638.582	0.0147852
638.660	0.0146929
638.738	0.0145597
638.817	0.0145922
638.895	0.0146429
638.973	0.0144649
639.051	0.0144924
639.129	0.0143923
639.207	0.0145795
639.285	0.0145653
639.363	0.0144107
639.442	0.0144469
639.520	0.0144997
639.598	0.0144623
639.676	0.0144116
639.754	0.0144872
639.832	0.0145473
639.910	0.0144646
639.988	0.0145538
640.067	0.0145870
640.145	0.0145567
640.223	0.0145735
640.301	0.0148167
640.379	0.0147467
640.457	0.0147950
640.535	0.0147902
640.613	0.0147158
640.692	0.0146708
640.770	0.0148481
640.848	0.0149635
640.926	0.0147514
641.004	0.0147816
641.082	0.0148487
641.160	0.0146419
641.238	0.0147966
641.317	0.0147593
641.395	0.0146890
641.473	0.0146891
641.551	0.0147799
641.629	0.0147110
641.707	0.0148125
641.785	0.0148237
641.863	0.0146529
641.942	0.0147849
642.020	0.0148860
642.098	0.0149294
642.176	0.0148335
642.254	0.0147514
642.332	0.0147955
642.410	0.0148576
642.488	0.0149583
642.567	0.0148019
642.645	0.0147486
642.723	0.0149171
642.801	0.0148366
642.879	0.0147387
642.957	0.0147137
643.035	0.0146877
643.113	0.0145818
643.192	0.0147076
643.270	0.0146462
643.348	0.0144975
643.426	0.0147015
643.504	0.0148518
643.582	0.0146712
643.660	0.0146271
643.738	0.0146616
643.817	0.0145377
643.895	0.0145810
643.973	0.0145629
644.051	0.0145271
644.129	0.0144237
644.207	0.0145206
644.285	0.0145182
644.363	0.0145850
644.442	0.0147161
644.520	0.0146484
644.598	0.0145262
644.676	0.0144411
644.754	0.0148132
644.832	0.0147392
644.910	0.0147417
644.988	0.0148184
645.067	0.0147342
645.145	0.0149268
645.223	0.0150391
645.301	0.0150378
645.379	0.0151366
645.457	0.0150174
645.535	0.0151109
645.613	0.0152215
645.692	0.0151332
645.770	0.0152218
645.848	0.0149937
645.926	0.0150985
646.004	0.0150169
646.082	0.0148953
646.160	0.0150270
646.238	0.0147707
646.317	0.0147448
646.395	0.0147393
646.473	0.0148781
646.551	0.0146798
646.629	0.0146510
646.707	0.0146558
646.785	0.0147580
646.863	0.0146258
646.942	0.0147334
647.020	0.0147461
647.098	0.0148150
647.176	0.0147094
647.254	0.0146440
647.332	0.0145399
647.410	0.0146645
647.488	0.0143585
647.567	0.0145332
647.645	0.0144554
647.723	0.0143707
647.801	0.0142232
647.879	0.0142431
647.957	0.0141078
648.035	0.0140927
648.113	0.0141782
648.192	0.0141565
648.270	0.0142570
648.348	0.0141734
648.426	0.0141707
648.504	0.0143247
648.582	0.0144595
648.660	0.0143972
648.738	0.0144935
648.817	0.0144518
648.895	0.0146716
648.973	0.0146518
649.051	0.0146841
649.129	0.0148499
649.207	0.0148110
649.285	0.0147427
649.363	0.0148048
649.442	0.0149024
649.520	0.0148204
649.598	0.0148988
649.676	0.0149174
649.754	0.0147785
649.832	0.0149377
649.910	0.0149600
649.988	0.0149632
650.067	0.0149163
650.145	0.0149238
650.223	0.0149973
650.301	0.0149303
650.379	0.0149221
650.457	0.0149950
650.535	0.0148085
650.613	0.0151040
650.692	0.0149831
650.770	0.0149557
650.848	0.0149873
650.926	0.0150714
651.004	0.0149912
651.082	0.0147471
651.160	0.0148894
651.238	0.0148236
651.317	0.0149440
651.395	0.0147471
651.473	0.0147474
651.551	0.0147110
651.629	0.0147038
651.707	0.0147122
651.785	0.0146902
651.863	0.0146671
651.942	0.0146964
652.020	0.0146228
652.098	0.0146500
652.176	0.0146275
652.254	0.0146187
652.332	0.0146206
652.410	0.0144195
652.488	0.0143671
652.567	0.0144102
652.645	0.0142351
652.723	0.0144072
652.801	0.0144107
652.879	0.0143635
652.957	0.0143623
653.035	0.0142764
653.113	0.0143243
653.192	0.0142519
653.270	0.0143737
653.348	0.0142934
653.426	0.0142989
653.504	0.0143166
653.582	0.0145110
653.660	0.0142178
653.738	0.0142293
653.817	0.0142843
653.895	0.0142908
653.973	0.0142499
654.051	0.0142506
654.129	0.0143302
654.207	0.0144614
654.285	0.0144765
654.363	0.0145500
654.442	0.0144813
654.520	0.0146433
654.598	0.0147952
654.676	0.0146676
654.754	0.0147910
654.832	0.0147868
654.910	0.0148956
654.988	0.0150488
655.067	0.0150674
655.145	0.0150983
655.223	0.0150939
655.301	0.0151620
655.379	0.0152132
655.457	0.0151537
655.535	0.0151150
655.613	0.0151144
655.692	0.0150997
655.770	0.0150993
655.848	0.0150473
655.926	0.0148767
656.004	0.0150575
656.082	0.0149684
656.160	0.0147281
656.238	0.0147734
656.317	0.0147816
656.395	0.0147012
656.473	0.0147301
656.551	0.0146750
656.629	0.0145094
656.707	0.0143814
656.785	0.0144569
656.863	0.0144971
656.942	0.0143643
657.020	0.0144154
657.098	0.0144773
657.176	0.0143880
657.254	0.0144073
657.332	0.0143015
657.410	0.0142714
657.488	0.0142564
657.567	0.0143604
657.645	0.0142953
657.723	0.0142255
657.801	0.0142589
657.879	0.0141950
657.957	0.0142234
658.035	0.0141388
658.113	0.0140654
658.192	0.0140170
658.270	0.0141965
658.348	0.0141897
658.426	0.0140290
658.504	0.0141020
658.582	0.0142564
658.660	0.0143240
658.738	0.0142583
658.817	0.0143917
658.895	0.0143867
658.973	0.0145248
659.051	0.0144958
659.129	0.0146335
659.207	0.0146299
659.285	0.0147791
659.363	0.0149298
659.442	0.0147874
659.520	0.0148338
659.598	0.0147763
659.676	0.0149526
659.754	0.0149865
659.832	0.0150450
659.910	0.0149950
659.988	0.0150954
660.067	0.0151570
660.145	0.0150560
660.223	0.0150993
660.301	0.0150223
660.379	0.0150374
660.457	0.0152155
660.535	0.0152392
660.613	0.0151273
660.692	0.0151953
660.770	0.0152298
660.848	0.0151391
660.926	0.0150334
661.004	0.0150146
661.082	0.0149630
661.160	0.0149735
661.238	0.0149296
661.317	0.0148262
661.395	0.0149001
661.473	0.0146781
661.551	0.0144305
661.629	0.0144524
661.707	0.0144735
661.785	0.0144976
661.863	0.0143649
661.942	0.0142887
662.020	0.0143784
662.098	0.0144424
662.176	0.0142195
662.254	0.0143008
662.332	0.0142998
662.410	0.0143484
662.488	0.0143761
662.567	0.0143935
662.645	0.0144258
662.723	0.0147054
662.801	0.0146507
662.879	0.0145143
662.957	0.0145680
663.035	0.0145741
663.113	0.0146719
663.192	0.0146397
663.270	0.0146241
663.348	0.0146413
663.426	0.0145830
663.504	0.0145433
663.582	0.0145168
663.660	0.0143289
663.738	0.0143968
663.817	0.0143621
663.895	0.0143301
663.973	0.0144232
664.051	0.0145632
664.129	0.0144097
664.207	0.0144318
664.285	0.0144941
664.363	0.0143940
664.442	0.0145319
664.520	0.0145631
664.598	0.0146256
664.676	0.0146132
664.754	0.0147131
664.832	0.0148174
664.910	0.0148544
664.988	0.0148644
665.067	0.0149194
665.145	0.0149106
665.223	0.0150208
665.301	0.0151645
665.379	0.0149463
665.457	0.0150761
665.535	0.0151080
665.613	0.0151517
665.692	0.0150307
665.770	0.0150242
665.848	0.0150570
665.926	0.0150961
666.004	0.0151355
666.082	0.0150560
666.160	0.0150001
666.238	0.0149072
666.317	0.0149392
666.395	0.0150640
666.473	0.0148186
666.551	0.0147095
666.629	0.0148232
666.707	0.0147492
666.785	0.0145393
666.863	0.0144607
666.942	0.0145461
667.020	0.0145544
667.098	0.0145655
667.176	0.0143716
667.254	0.0144100
667.332	0.0144708
667.410	0.0146188
667.488	0.0143327
667.567	0.0145217
667.645	0.0144775
667.723	0.0145895
667.801	0.0145718
667.879	0.0146290
667.957	0.0145560
668.035	0.0147359
668.113	0.0147383
668.192	0.0147531
668.270	0.0147056
668.348	0.0147104
668.426	0.0146022
668.504	0.0146771
668.582	0.0146175
668.660	0.0146068
668.738	0.0146085
668.817	0.0145986
668.895	0.0145749
668.973	0.0144282
669.051	0.0145969
669.129	0.0145840
669.207	0.0146605
669.285	0.0145815
669.363	0.0145364
669.442	0.0146774
669.520	0.0146603
669.598	0.0146328
669.676	0.0145921
669.754	0.0147861
669.832	0.0147610
669.910	0.0146739
669.988	0.0147026
670.067	0.0147289
670.145	0.0147513
670.223	0.0146390
670.301	0.0144046
670.379	0.0145879
670.457	0.0146456
670.535	0.0145254
670.613	0.0144334
670.692	0.0143985
670.770	0.0144185
670.848	0.0143963
670.926	0.0143887
671.004	0.0143556
671.082	0.0143568
671.160	0.0144587
671.238	0.0144416
671.317	0.0144907
671.395	0.0145676
671.473	0.0143591
671.551	0.0144297
671.629	0.0146003
671.707	0.0147081
671.785	0.0148219
671.863	0.0147391
671.942	0.0148769
672.020	0.0150943
672.098	0.0150694
672.176	0.0150641
672.254	0.0150778
672.332	0.0149972
672.410	0.0150742
672.488	0.0150515
672.567	0.0149557
672.645	0.0149557
672.723	0.0147929
672.801	0.0147823
672.879	0.0146983
672.957	0.0146573
673.035	0.0146230
673.113	0.0146516
673.192	0.0143885
673.270	0.0144270
673.348	0.0142839
673.426	0.0144022
673.504	0.0145132
673.582	0.0142484
673.660	0.0144117
673.738	0.0145985
673.817	0.0147807
673.895	0.0146895
673.973	0.0148449
674.051	0.0150134
674.129	0.0149976
674.207	0.0150764
674.285	0.0151106
674.363	0.0151849
674.442	0.0151606
674.520	0.0151261
674.598	0.0151669
674.676	0.0151677
674.754	0.0152559
674.832	0.0150129
674.910	0.0147684
674.988	0.0148811
675.067	0.0147356
675.145	0.0144418
675.223	0.0143618
675.301	0.0143372
675.379	0.0142049
675.457	0.0140829
675.535	0.0141434
675.613	0.0139092
675.692	0.0139596
675.770	0.0140002
675.848	0.0140791
675.926	0.0141724
676.004	0.0141093
676.082	0.0141018
676.160	0.0142036
676.238	0.0142354
676.317	0.0142905
676.395	0.0141582
676.473	0.0143190
676.551	0.0143715
676.629	0.0145095
676.707	0.0143723
676.785	0.0144730
676.863	0.0145322
676.942	0.0145266
677.020	0.0147285
677.098	0.0148662
677.176	0.0148524
677.254	0.0148988
677.332	0.0148077
677.410	0.0148984
677.488	0.0148747
677.567	0.0148881
677.645	0.0148411
677.723	0.0149503
677.801	0.0149944
677.879	0.0148368
677.957	0.0147861
678.035	0.0148412
678.113	0.0148099
678.192	0.0149483
678.270	0.0149689
678.348	0.0150252
678.426	0.0150047
678.504	0.0151429
678.582	0.0150774
678.660	0.0149343
678.738	0.0150408
678.817	0.0151524
678.895	0.0149840
678.973	0.0151714
679.051	0.0150201
679.129	0.0149986
679.207	0.0147844
679.285	0.0150624
679.363	0.0149421
679.442	0.0149186
679.520	0.0148613
679.598	0.0145779
679.676	0.0146439
679.754	0.0146394
679.832	0.0143929
679.910	0.0142678
679.988	0.0139988
680.067	0.0140251
680.145	0.0139736
680.223	0.0139731
680.301	0.0139735
680.379	0.0139189
680.457	0.0136683
680.535	0.0137287
680.613	0.0137463
680.692	0.0138377
680.770	0.0138503
680.848	0.0139255
680.926	0.0141639
681.004	0.0142467
681.082	0.0144421
681.160	0.0144316
681.238	0.0144986
681.317	0.0146622
681.395	0.0147956
681.473	0.0149155
681.551	0.0149770
681.629	0.0151185
681.707	0.0151209
681.785	0.0152975
681.863	0.0153396
681.942	0.0153764
682.020	0.0152740
682.098	0.0152419
682.176	0.0153370
682.254	0.0153893
682.332	0.0152615
682.410	0.0152715
682.488	0.0151587
682.567	0.0152795
682.645	0.0152407
682.723	0.0151434
682.801	0.0151951
682.879	0.0151199
682.957	0.0151721
683.035	0.0150250
683.113	0.0150050
683.192	0.0150070
683.270	0.0150203
683.348	0.0147958
683.426	0.0147009
683.504	0.0145763
683.582	0.0145998
683.660	0.0144977
683.738	0.0142653
683.817	0.0140877
683.895	0.0141616
683.973	0.0141419
684.051	0.0139417
684.129	0.0138190
684.207	0.0138370
684.285	0.0138675
684.363	0.0138927
684.442	0.0137887
684.520	0.0138289
684.598	0.0140624
684.676	0.0139998
684.754	0.0141471
684.832	0.0139714
684.910	0.0139783
684.988	0.0141814
685.067	0.0142758
685.145	0.0142021
685.223	0.0142879
685.301	0.0143658
685.379	0.0143623
685.457	0.0144963
685.535	0.0145491
685.613	0.0148144
685.692	0.0147335
