05/28/2022	14:18:21	Ver.	4.1	UNKNOWN
Optical Delay	599.988409	Delta X		0.078125	Sweeps	1	Scan Rate	0/0
Coordinates	Axis 1	NaN	Axis 2	NaN	Axis 3	NaN	Axis 4	NaN	Axis 5	NaN	Axis 6	0.000000
TX Power	0.000000	RX Power	0.000000

599.988	0.0146817
600.067	0.0145715
600.145	0.0145870
600.223	0.0146684
600.301	0.0146783
600.379	0.0145458
600.457	0.0145386
600.535	0.0146238
600.613	0.0146817
600.692	0.0148138
600.770	0.0147220
600.848	0.0146513
600.926	0.0145499
601.004	0.0145898
601.082	0.0146299
601.160	0.0146146
601.238	0.0147132
601.317	0.0146615
601.395	0.0145386
601.473	0.0145358
601.551	0.0145731
601.629	0.0145914
601.707	0.0144855
601.785	0.0145779
601.863	0.0146088
601.942	0.0146245
602.020	0.0146669
602.098	0.0146289
602.176	0.0146171
602.254	0.0146368
602.332	0.0147491
602.410	0.0145761
602.488	0.0146104
602.567	0.0146960
602.645	0.0145759
602.723	0.0145017
602.801	0.0147059
602.879	0.0146386
602.957	0.0145573
603.035	0.0146796
603.113	0.0145592
603.192	0.0146706
603.270	0.0145966
603.348	0.0145928
603.426	0.0145763
603.504	0.0146088
603.582	0.0146358
603.660	0.0145945
603.738	0.0146080
603.817	0.0147050
603.895	0.0147465
603.973	0.0147401
604.051	0.0145654
604.129	0.0145290
604.207	0.0145345
604.285	0.0146690
604.363	0.0146606
604.442	0.0147417
604.520	0.0146612
604.598	0.0146887
604.676	0.0145652
604.754	0.0145998
604.832	0.0147103
604.910	0.0146770
604.988	0.0146499
605.067	0.0147395
605.145	0.0146081
605.223	0.0146308
605.301	0.0145956
605.379	0.0145628
605.457	0.0146507
605.535	0.0145548
605.613	0.0145539
605.692	0.0145360
605.770	0.0145744
605.848	0.0145810
605.926	0.0145827
606.004	0.0146230
606.082	0.0146525
606.160	0.0146085
606.238	0.0145950
606.317	0.0145364
606.395	0.0145785
606.473	0.0144968
606.551	0.0145843
606.629	0.0146733
606.707	0.0146731
606.785	0.0145683
606.863	0.0144971
606.942	0.0147347
607.020	0.0146552
607.098	0.0147102
607.176	0.0146540
607.254	0.0146098
607.332	0.0148125
607.410	0.0146443
607.488	0.0145108
607.567	0.0145565
607.645	0.0145966
607.723	0.0146613
607.801	0.0146643
607.879	0.0145464
607.957	0.0145741
608.035	0.0146086
608.113	0.0144343
608.192	0.0146793
608.270	0.0145934
608.348	0.0145456
608.426	0.0146368
608.504	0.0145661
608.582	0.0146701
608.660	0.0146590
608.738	0.0146188
608.817	0.0145412
608.895	0.0147959
608.973	0.0147130
609.051	0.0147061
609.129	0.0147256
609.207	0.0145956
609.285	0.0146563
609.363	0.0146770
609.442	0.0146122
609.520	0.0145698
609.598	0.0146909
609.676	0.0146991
609.754	0.0146933
609.832	0.0146185
609.910	0.0147961
609.988	0.0146130
610.067	0.0147572
610.145	0.0146806
610.223	0.0146716
610.301	0.0145399
610.379	0.0146603
610.457	0.0146626
610.535	0.0146632
610.613	0.0147044
610.692	0.0146799
610.770	0.0146712
610.848	0.0146061
610.926	0.0146555
611.004	0.0146939
611.082	0.0147466
611.160	0.0146606
611.238	0.0145127
611.317	0.0146719
611.395	0.0146995
611.473	0.0146617
611.551	0.0148312
611.629	0.0146399
611.707	0.0146585
611.785	0.0147375
611.863	0.0147409
611.942	0.0146427
612.020	0.0146425
612.098	0.0145989
612.176	0.0147467
612.254	0.0146706
612.332	0.0147427
612.410	0.0148599
612.488	0.0147990
612.567	0.0147486
612.645	0.0147314
612.723	0.0147078
612.801	0.0147792
612.879	0.0146967
612.957	0.0147066
613.035	0.0146978
613.113	0.0148135
613.192	0.0146701
613.270	0.0148672
613.348	0.0148239
613.426	0.0147272
613.504	0.0147211
613.582	0.0148470
613.660	0.0148089
613.738	0.0147958
613.817	0.0147377
613.895	0.0146960
613.973	0.0149271
614.051	0.0147800
614.129	0.0147361
614.207	0.0148750
614.285	0.0147892
614.363	0.0146980
614.442	0.0147279
614.520	0.0147266
614.598	0.0146010
614.676	0.0147681
614.754	0.0147313
614.832	0.0147040
614.910	0.0147273
614.988	0.0148087
615.067	0.0148168
615.145	0.0145561
615.223	0.0147369
615.301	0.0147467
615.379	0.0145913
615.457	0.0147630
615.535	0.0148776
615.613	0.0146111
615.692	0.0146590
615.770	0.0146640
615.848	0.0147400
615.926	0.0148678
616.004	0.0148077
616.082	0.0147730
616.160	0.0146838
616.238	0.0145436
616.317	0.0146709
616.395	0.0146795
616.473	0.0145805
616.551	0.0146654
616.629	0.0147507
616.707	0.0147503
616.785	0.0146687
616.863	0.0147970
616.942	0.0145546
617.020	0.0146010
617.098	0.0146307
617.176	0.0147534
617.254	0.0146671
617.332	0.0147757
617.410	0.0146879
617.488	0.0147076
617.567	0.0145125
617.645	0.0146883
617.723	0.0147116
617.801	0.0146799
617.879	0.0146655
617.957	0.0145880
618.035	0.0146162
618.113	0.0145850
618.192	0.0146192
618.270	0.0145870
618.348	0.0145218
618.426	0.0147655
618.504	0.0146449
618.582	0.0146393
618.660	0.0146197
618.738	0.0145587
618.817	0.0145935
618.895	0.0145333
618.973	0.0146529
619.051	0.0146327
619.129	0.0147342
619.207	0.0146150
619.285	0.0146070
619.363	0.0146105
619.442	0.0145876
619.520	0.0146671
619.598	0.0146436
619.676	0.0147418
619.754	0.0147144
619.832	0.0146192
619.910	0.0146584
619.988	0.0145756
620.067	0.0145883
620.145	0.0145097
620.223	0.0145856
620.301	0.0146315
620.379	0.0146717
620.457	0.0146206
620.535	0.0146774
620.613	0.0147072
620.692	0.0145882
620.770	0.0144773
620.848	0.0146450
620.926	0.0146892
621.004	0.0147617
621.082	0.0146410
621.160	0.0146143
621.238	0.0146305
621.317	0.0146176
621.395	0.0147130
621.473	0.0146480
621.551	0.0145114
621.629	0.0146291
621.707	0.0146203
621.785	0.0145036
621.863	0.0145358
621.942	0.0146438
622.020	0.0146797
622.098	0.0145907
622.176	0.0144857
622.254	0.0145388
622.332	0.0146902
622.410	0.0145913
622.488	0.0145719
622.567	0.0144840
622.645	0.0145001
622.723	0.0145329
622.801	0.0145630
622.879	0.0146070
622.957	0.0146210
623.035	0.0145998
623.113	0.0145272
623.192	0.0145538
623.270	0.0146129
623.348	0.0146181
623.426	0.0145823
623.504	0.0145785
623.582	0.0146700
623.660	0.0146255
623.738	0.0145522
623.817	0.0146114
623.895	0.0146871
623.973	0.0145306
624.051	0.0147123
624.129	0.0146278
624.207	0.0146265
624.285	0.0145860
624.363	0.0145477
624.442	0.0146254
624.520	0.0146880
624.598	0.0146912
624.676	0.0146328
624.754	0.0144834
624.832	0.0146239
624.910	0.0145891
624.988	0.0147038
625.067	0.0146217
625.145	0.0147612
625.223	0.0147729
625.301	0.0146672
625.379	0.0145688
625.457	0.0148152
625.535	0.0145602
625.613	0.0146610
625.692	0.0147173
625.770	0.0146560
625.848	0.0147475
625.926	0.0146099
626.004	0.0146252
626.082	0.0146118
626.160	0.0146629
626.238	0.0147655
626.317	0.0146784
626.395	0.0146442
626.473	0.0145870
626.551	0.0145978
626.629	0.0147158
626.707	0.0146504
626.785	0.0146437
626.863	0.0146596
626.942	0.0146058
627.020	0.0146430
627.098	0.0144638
627.176	0.0145976
627.254	0.0146293
627.332	0.0146489
627.410	0.0146483
627.488	0.0147217
627.567	0.0147576
627.645	0.0144884
627.723	0.0146482
627.801	0.0146075
627.879	0.0147257
627.957	0.0147145
628.035	0.0147210
628.113	0.0147231
628.192	0.0148103
628.270	0.0147697
628.348	0.0145822
628.426	0.0146832
628.504	0.0145689
628.582	0.0146851
628.660	0.0148123
628.738	0.0148157
628.817	0.0148001
628.895	0.0147949
628.973	0.0148016
629.051	0.0147374
629.129	0.0147881
629.207	0.0147160
629.285	0.0148411
629.363	0.0146306
629.442	0.0147260
629.520	0.0147238
629.598	0.0147626
629.676	0.0147542
629.754	0.0146358
629.832	0.0147368
629.910	0.0147890
629.988	0.0147864
630.067	0.0146902
630.145	0.0147282
630.223	0.0146922
630.301	0.0147234
630.379	0.0146631
630.457	0.0145903
630.535	0.0146616
630.613	0.0147555
630.692	0.0146916
630.770	0.0147262
630.848	0.0146482
630.926	0.0146528
631.004	0.0147267
631.082	0.0148225
631.160	0.0147749
631.238	0.0147225
631.317	0.0147235
631.395	0.0147904
631.473	0.0147343
631.551	0.0147435
631.629	0.0147714
631.707	0.0147104
631.785	0.0148145
631.863	0.0146233
631.942	0.0146771
632.020	0.0146964
632.098	0.0148496
632.176	0.0147643
632.254	0.0146639
632.332	0.0147545
632.410	0.0147141
632.488	0.0147456
632.567	0.0148214
632.645	0.0147980
632.723	0.0147014
632.801	0.0146810
632.879	0.0148470
632.957	0.0149320
633.035	0.0147858
633.113	0.0147875
633.192	0.0148439
633.270	0.0147799
633.348	0.0147607
633.426	0.0148279
633.504	0.0148370
633.582	0.0148210
633.660	0.0147524
633.738	0.0148215
633.817	0.0147395
633.895	0.0146748
633.973	0.0148426
634.051	0.0148241
634.129	0.0148270
634.207	0.0147996
634.285	0.0148025
634.363	0.0147176
634.442	0.0148011
634.520	0.0146964
634.598	0.0147176
634.676	0.0145725
634.754	0.0145646
634.832	0.0147080
634.910	0.0147063
634.988	0.0147752
635.067	0.0148182
635.145	0.0147712
635.223	0.0147065
635.301	0.0146315
635.379	0.0146675
635.457	0.0145630
635.535	0.0145654
635.613	0.0147866
635.692	0.0146253
635.770	0.0146263
635.848	0.0147471
635.926	0.0146815
636.004	0.0147056
636.082	0.0148593
636.160	0.0147204
636.238	0.0147435
636.317	0.0148278
636.395	0.0147263
636.473	0.0148159
636.551	0.0146966
636.629	0.0148164
636.707	0.0146069
636.785	0.0146809
636.863	0.0148132
636.942	0.0146445
637.020	0.0147015
637.098	0.0145467
637.176	0.0145531
637.254	0.0144050
637.332	0.0145859
637.410	0.0147086
637.488	0.0144334
637.567	0.0146184
637.645	0.0146519
637.723	0.0145210
637.801	0.0144801
637.879	0.0145765
637.957	0.0145258
638.035	0.0145251
638.113	0.0146124
638.192	0.0147805
638.270	0.0146297
638.348	0.0145623
638.426	0.0146902
638.504	0.0147524
638.582	0.0145859
638.660	0.0147432
638.738	0.0148299
638.817	0.0148138
638.895	0.0147617
638.973	0.0147674
639.051	0.0147676
639.129	0.0148415
639.207	0.0146566
639.285	0.0147430
639.363	0.0147038
639.442	0.0148012
639.520	0.0147125
639.598	0.0148228
639.676	0.0147932
639.754	0.0147881
639.832	0.0147195
639.910	0.0148184
639.988	0.0148839
640.067	0.0147417
640.145	0.0147404
640.223	0.0148202
640.301	0.0148784
640.379	0.0148617
640.457	0.0148277
640.535	0.0148560
640.613	0.0148937
640.692	0.0147713
640.770	0.0149068
640.848	0.0148455
640.926	0.0147781
641.004	0.0146317
641.082	0.0146644
641.160	0.0146614
641.238	0.0146921
641.317	0.0145053
641.395	0.0144356
641.473	0.0145486
641.551	0.0145271
641.629	0.0144736
641.707	0.0144756
641.785	0.0144710
641.863	0.0143631
641.942	0.0145051
642.020	0.0144425
642.098	0.0144668
642.176	0.0144772
642.254	0.0144613
642.332	0.0143204
642.410	0.0143584
642.488	0.0145461
642.567	0.0146211
642.645	0.0144380
642.723	0.0144289
642.801	0.0144643
642.879	0.0144759
642.957	0.0144865
643.035	0.0146086
643.113	0.0146799
643.192	0.0146746
643.270	0.0146415
643.348	0.0146493
643.426	0.0147577
643.504	0.0147176
643.582	0.0148454
643.660	0.0149805
643.738	0.0148680
643.817	0.0149578
643.895	0.0148820
643.973	0.0150598
644.051	0.0150797
644.129	0.0149344
644.207	0.0148692
644.285	0.0149299
644.363	0.0148157
644.442	0.0148767
644.520	0.0148218
644.598	0.0148029
644.676	0.0148084
644.754	0.0146253
644.832	0.0144777
644.910	0.0146556
644.988	0.0146312
645.067	0.0145204
645.145	0.0145168
645.223	0.0146322
645.301	0.0145754
645.379	0.0147966
645.457	0.0146860
645.535	0.0145889
645.613	0.0144205
645.692	0.0145325
645.770	0.0147501
645.848	0.0144638
645.926	0.0142912
646.004	0.0143198
646.082	0.0144412
646.160	0.0143402
646.238	0.0142271
646.317	0.0142845
646.395	0.0141602
646.473	0.0142161
646.551	0.0142204
646.629	0.0140405
646.707	0.0143378
646.785	0.0144682
646.863	0.0143281
646.942	0.0145062
647.020	0.0146323
647.098	0.0145963
647.176	0.0147733
647.254	0.0146734
647.332	0.0148672
647.410	0.0148221
647.488	0.0149048
647.567	0.0149256
647.645	0.0148357
647.723	0.0147473
647.801	0.0149197
647.879	0.0148688
647.957	0.0149032
648.035	0.0149063
648.113	0.0148885
648.192	0.0148572
648.270	0.0147514
648.348	0.0148368
648.426	0.0149395
648.504	0.0150526
648.582	0.0148632
648.660	0.0149918
648.738	0.0148698
648.817	0.0150356
648.895	0.0150684
648.973	0.0150296
649.051	0.0149945
649.129	0.0149135
649.207	0.0149536
649.285	0.0148619
649.363	0.0149619
649.442	0.0149059
649.520	0.0149462
649.598	0.0148960
649.676	0.0148244
649.754	0.0147231
649.832	0.0147370
649.910	0.0147438
649.988	0.0146896
650.067	0.0146754
650.145	0.0147448
650.223	0.0145013
650.301	0.0145342
650.379	0.0145316
650.457	0.0145319
650.535	0.0144903
650.613	0.0145154
650.692	0.0145910
650.770	0.0145157
650.848	0.0146317
650.926	0.0144869
651.004	0.0144173
651.082	0.0146290
651.160	0.0145165
651.238	0.0145766
651.317	0.0144588
651.395	0.0145512
651.473	0.0146018
651.551	0.0143961
651.629	0.0143150
651.707	0.0143362
651.785	0.0144340
651.863	0.0144470
651.942	0.0144992
652.020	0.0145257
652.098	0.0143586
652.176	0.0143951
652.254	0.0144723
652.332	0.0145493
652.410	0.0145219
652.488	0.0146040
652.567	0.0147453
652.645	0.0145305
652.723	0.0144830
652.801	0.0146519
652.879	0.0147739
652.957	0.0148521
653.035	0.0148815
653.113	0.0147852
653.192	0.0148759
653.270	0.0150594
653.348	0.0150532
653.426	0.0150032
653.504	0.0151741
653.582	0.0152029
653.660	0.0152321
653.738	0.0151988
653.817	0.0151016
653.895	0.0153297
653.973	0.0151900
654.051	0.0151714
654.129	0.0151466
654.207	0.0151247
654.285	0.0152290
654.363	0.0150652
654.442	0.0149459
654.520	0.0151115
654.598	0.0149653
654.676	0.0148509
654.754	0.0147874
654.832	0.0147981
654.910	0.0145694
654.988	0.0145544
655.067	0.0145010
655.145	0.0143684
655.223	0.0142904
655.301	0.0144236
655.379	0.0143497
655.457	0.0142950
655.535	0.0143087
655.613	0.0142970
655.692	0.0142869
655.770	0.0143435
655.848	0.0143409
655.926	0.0143205
656.004	0.0143117
656.082	0.0141768
656.160	0.0142730
656.238	0.0143258
656.317	0.0142953
656.395	0.0143427
656.473	0.0142098
656.551	0.0143323
656.629	0.0143883
656.707	0.0143102
656.785	0.0142699
656.863	0.0144365
656.942	0.0143938
657.020	0.0145170
657.098	0.0143503
657.176	0.0144540
657.254	0.0144713
657.332	0.0145302
657.410	0.0145695
657.488	0.0145387
657.567	0.0144525
657.645	0.0146427
657.723	0.0146972
657.801	0.0147521
657.879	0.0147231
657.957	0.0146428
658.035	0.0146711
658.113	0.0147332
658.192	0.0148110
658.270	0.0148337
658.348	0.0149641
658.426	0.0149451
658.504	0.0149595
658.582	0.0151244
658.660	0.0151802
658.738	0.0151344
658.817	0.0153761
658.895	0.0152994
658.973	0.0152791
659.051	0.0154271
659.129	0.0154288
659.207	0.0152597
659.285	0.0153202
659.363	0.0152813
659.442	0.0152170
659.520	0.0152425
659.598	0.0149654
659.676	0.0149452
659.754	0.0146926
659.832	0.0147608
659.910	0.0146325
659.988	0.0144722
660.067	0.0144150
660.145	0.0142447
660.223	0.0141475
660.301	0.0141130
660.379	0.0140880
660.457	0.0140721
660.535	0.0139637
660.613	0.0140094
660.692	0.0139529
660.770	0.0141669
660.848	0.0141171
660.926	0.0142451
661.004	0.0141820
661.082	0.0142543
661.160	0.0142619
661.238	0.0144415
661.317	0.0146591
661.395	0.0146861
661.473	0.0146805
661.551	0.0147753
661.629	0.0148456
661.707	0.0147297
661.785	0.0147153
661.863	0.0148207
661.942	0.0148467
662.020	0.0148659
662.098	0.0148927
662.176	0.0149091
662.254	0.0147289
662.332	0.0147692
662.410	0.0148965
662.488	0.0146700
662.567	0.0146141
662.645	0.0146830
662.723	0.0146270
662.801	0.0145993
662.879	0.0146468
662.957	0.0145415
663.035	0.0147807
663.113	0.0146136
663.192	0.0145949
663.270	0.0146494
663.348	0.0147916
663.426	0.0146799
663.504	0.0146854
663.582	0.0148862
663.660	0.0148561
663.738	0.0147465
663.817	0.0148570
663.895	0.0149042
663.973	0.0148664
664.051	0.0148273
664.129	0.0148409
664.207	0.0148267
664.285	0.0149223
664.363	0.0149857
664.442	0.0150842
664.520	0.0149311
664.598	0.0150600
664.676	0.0149799
664.754	0.0150566
664.832	0.0150391
664.910	0.0149269
664.988	0.0150117
665.067	0.0150006
665.145	0.0149400
665.223	0.0149496
665.301	0.0150243
665.379	0.0148847
665.457	0.0146776
665.535	0.0148280
665.613	0.0147031
665.692	0.0147382
665.770	0.0146471
665.848	0.0145046
665.926	0.0144691
666.004	0.0144212
666.082	0.0143814
666.160	0.0142500
666.238	0.0142924
666.317	0.0142864
666.395	0.0142577
666.473	0.0141428
666.551	0.0141388
666.629	0.0142113
666.707	0.0142401
666.785	0.0142900
666.863	0.0141674
666.942	0.0142068
667.020	0.0142313
667.098	0.0143643
667.176	0.0144897
667.254	0.0145507
667.332	0.0145225
667.410	0.0145667
667.488	0.0146809
667.567	0.0147873
667.645	0.0147102
667.723	0.0149019
667.801	0.0149460
667.879	0.0147438
667.957	0.0150076
668.035	0.0148748
668.113	0.0148836
668.192	0.0149110
668.270	0.0148370
668.348	0.0148866
668.426	0.0147950
668.504	0.0148313
668.582	0.0148893
668.660	0.0149168
668.738	0.0149385
668.817	0.0148060
668.895	0.0147749
668.973	0.0148204
669.051	0.0148885
669.129	0.0147182
669.207	0.0147886
669.285	0.0149732
669.363	0.0147738
669.442	0.0146881
669.520	0.0147411
669.598	0.0147227
669.676	0.0145494
669.754	0.0146152
669.832	0.0145401
669.910	0.0144138
669.988	0.0143936
670.067	0.0144362
670.145	0.0142096
670.223	0.0140954
670.301	0.0143127
670.379	0.0143982
670.457	0.0144422
670.535	0.0142485
670.613	0.0143794
670.692	0.0144230
670.770	0.0144144
670.848	0.0145782
670.926	0.0145286
671.004	0.0145444
671.082	0.0146475
671.160	0.0146208
671.238	0.0147413
671.317	0.0148887
671.395	0.0150189
671.473	0.0150208
671.551	0.0151220
671.629	0.0152454
671.707	0.0152737
671.785	0.0152726
671.863	0.0151396
671.942	0.0152170
672.020	0.0152599
672.098	0.0151006
672.176	0.0151287
672.254	0.0151473
672.332	0.0149658
672.410	0.0146951
672.488	0.0148089
672.567	0.0147565
672.645	0.0145022
672.723	0.0145036
672.801	0.0144543
672.879	0.0141546
672.957	0.0142471
673.035	0.0141382
673.113	0.0142477
673.192	0.0142280
673.270	0.0140191
673.348	0.0142383
673.426	0.0142571
673.504	0.0143998
673.582	0.0144598
673.660	0.0146954
673.738	0.0145948
673.817	0.0147708
673.895	0.0148347
673.973	0.0149881
674.051	0.0150275
674.129	0.0148912
674.207	0.0148191
674.285	0.0148724
674.363	0.0149432
674.442	0.0147041
674.520	0.0147836
674.598	0.0147034
674.676	0.0146565
674.754	0.0146870
674.832	0.0145103
674.910	0.0144000
674.988	0.0144198
675.067	0.0146038
675.145	0.0146233
675.223	0.0144722
675.301	0.0145428
675.379	0.0147135
675.457	0.0145699
675.535	0.0145189
675.613	0.0144508
675.692	0.0146294
675.770	0.0146156
675.848	0.0147178
675.926	0.0145229
676.004	0.0145001
676.082	0.0145291
676.160	0.0144260
676.238	0.0144464
676.317	0.0145354
676.395	0.0144189
676.473	0.0145045
676.551	0.0144803
676.629	0.0144724
676.707	0.0144705
676.785	0.0145753
676.863	0.0144772
676.942	0.0146424
677.020	0.0145467
677.098	0.0146394
677.176	0.0147001
677.254	0.0147761
677.332	0.0146247
677.410	0.0148274
677.488	0.0148751
677.567	0.0148733
677.645	0.0149039
677.723	0.0149063
677.801	0.0149161
677.879	0.0151175
677.957	0.0150001
678.035	0.0149491
678.113	0.0150361
678.192	0.0149626
678.270	0.0149242
678.348	0.0149068
678.426	0.0148545
678.504	0.0149877
678.582	0.0150041
678.660	0.0149525
678.738	0.0148209
678.817	0.0147725
678.895	0.0148302
678.973	0.0146411
679.051	0.0146105
679.129	0.0144799
679.207	0.0143815
679.285	0.0142690
679.363	0.0141420
679.442	0.0141166
679.520	0.0139480
679.598	0.0138813
679.676	0.0138823
679.754	0.0137907
679.832	0.0137429
679.910	0.0137556
679.988	0.0136127
680.067	0.0137940
680.145	0.0138315
680.223	0.0137033
680.301	0.0136536
680.379	0.0139094
680.457	0.0140778
680.535	0.0143000
680.613	0.0143594
680.692	0.0144662
680.770	0.0144850
680.848	0.0147943
680.926	0.0146608
681.004	0.0148965
681.082	0.0147375
681.160	0.0150473
681.238	0.0150861
681.317	0.0151460
681.395	0.0151792
681.473	0.0153087
681.551	0.0153876
681.629	0.0152292
681.707	0.0153362
681.785	0.0152892
681.863	0.0153522
681.942	0.0153464
682.020	0.0152594
682.098	0.0151486
682.176	0.0150502
682.254	0.0150797
682.332	0.0150092
682.410	0.0148984
682.488	0.0150247
682.567	0.0148077
682.645	0.0148011
682.723	0.0148857
682.801	0.0148289
682.879	0.0148608
682.957	0.0147073
683.035	0.0146646
683.113	0.0147080
683.192	0.0146119
683.270	0.0144334
683.348	0.0143180
683.426	0.0142814
683.504	0.0140360
683.582	0.0140211
683.660	0.0136996
683.738	0.0136902
683.817	0.0137038
683.895	0.0135471
683.973	0.0136778
684.051	0.0136250
684.129	0.0136204
684.207	0.0136447
684.285	0.0137171
684.363	0.0138721
684.442	0.0139419
684.520	0.0140240
684.598	0.0141269
684.676	0.0140944
684.754	0.0142384
684.832	0.0144357
684.910	0.0144463
684.988	0.0145241
685.067	0.0147244
685.145	0.0148151
685.223	0.0150323
685.301	0.0150852
685.379	0.0151305
685.457	0.0154092
685.535	0.0155825
685.613	0.0157024
685.692	0.0158005
