05/28/2022	14:19:06	Ver.	4.1	UNKNOWN
Optical Delay	599.988409	Delta X		0.078125	Sweeps	1	Scan Rate	0/0
Coordinates	Axis 1	NaN	Axis 2	NaN	Axis 3	NaN	Axis 4	NaN	Axis 5	NaN	Axis 6	0.000000
TX Power	0.000000	RX Power	0.000000

599.988	0.0146133
600.067	0.0146416
600.145	0.0145800
600.223	0.0146165
600.301	0.0147240
600.379	0.0146506
600.457	0.0146856
600.535	0.0146404
600.613	0.0147469
600.692	0.0147861
600.770	0.0146001
600.848	0.0147646
600.926	0.0145557
601.004	0.0147577
601.082	0.0148329
601.160	0.0146768
601.238	0.0146655
601.317	0.0147498
601.395	0.0146726
601.473	0.0148392
601.551	0.0146746
601.629	0.0147171
601.707	0.0147322
601.785	0.0147669
601.863	0.0147729
601.942	0.0148557
602.020	0.0147289
602.098	0.0146811
602.176	0.0147362
602.254	0.0146513
602.332	0.0147099
602.410	0.0148144
602.488	0.0147876
602.567	0.0148508
602.645	0.0147494
602.723	0.0147704
602.801	0.0148134
602.879	0.0146738
602.957	0.0147452
603.035	0.0145934
603.113	0.0146342
603.192	0.0147173
603.270	0.0147415
603.348	0.0146796
603.426	0.0147047
603.504	0.0147243
603.582	0.0146796
603.660	0.0147779
603.738	0.0147311
603.817	0.0146133
603.895	0.0147154
603.973	0.0147900
604.051	0.0146587
604.129	0.0147384
604.207	0.0148389
604.285	0.0146703
604.363	0.0146291
604.442	0.0145790
604.520	0.0146246
604.598	0.0147084
604.676	0.0148383
604.754	0.0147183
604.832	0.0145486
604.910	0.0146880
604.988	0.0146676
605.067	0.0146507
605.145	0.0147518
605.223	0.0146190
605.301	0.0147124
605.379	0.0146030
605.457	0.0146262
605.535	0.0147393
605.613	0.0147121
605.692	0.0146349
605.770	0.0145593
605.848	0.0147215
605.926	0.0146963
606.004	0.0148561
606.082	0.0146911
606.160	0.0147202
606.238	0.0147121
606.317	0.0147226
606.395	0.0147161
606.473	0.0146545
606.551	0.0147616
606.629	0.0146936
606.707	0.0146435
606.785	0.0146227
606.863	0.0145957
606.942	0.0146099
607.020	0.0147959
607.098	0.0146957
607.176	0.0145992
607.254	0.0146339
607.332	0.0146120
607.410	0.0146978
607.488	0.0147420
607.567	0.0147468
607.645	0.0146432
607.723	0.0145966
607.801	0.0147282
607.879	0.0146301
607.957	0.0146992
608.035	0.0146487
608.113	0.0144824
608.192	0.0146355
608.270	0.0145409
608.348	0.0147385
608.426	0.0147285
608.504	0.0146526
608.582	0.0147034
608.660	0.0146614
608.738	0.0146820
608.817	0.0145229
608.895	0.0146481
608.973	0.0146943
609.051	0.0145442
609.129	0.0146808
609.207	0.0146026
609.285	0.0147446
609.363	0.0145447
609.442	0.0145615
609.520	0.0145741
609.598	0.0145920
609.676	0.0146588
609.754	0.0145837
609.832	0.0145218
609.910	0.0146645
609.988	0.0145951
610.067	0.0147572
610.145	0.0145689
610.223	0.0145493
610.301	0.0146008
610.379	0.0146404
610.457	0.0145760
610.535	0.0144878
610.613	0.0146409
610.692	0.0147043
610.770	0.0145583
610.848	0.0145126
610.926	0.0146516
611.004	0.0145369
611.082	0.0146639
611.160	0.0146314
611.238	0.0146561
611.317	0.0145680
611.395	0.0145174
611.473	0.0145934
611.551	0.0146004
611.629	0.0148122
611.707	0.0146992
611.785	0.0146218
611.863	0.0147188
611.942	0.0146960
612.020	0.0144781
612.098	0.0145036
612.176	0.0145829
612.254	0.0146207
612.332	0.0147201
612.410	0.0146423
612.488	0.0146362
612.567	0.0145678
612.645	0.0146986
612.723	0.0146487
612.801	0.0144821
612.879	0.0147067
612.957	0.0146844
613.035	0.0146645
613.113	0.0146059
613.192	0.0146410
613.270	0.0146616
613.348	0.0145601
613.426	0.0146124
613.504	0.0147224
613.582	0.0145616
613.660	0.0146130
613.738	0.0146286
613.817	0.0147048
613.895	0.0147220
613.973	0.0146453
614.051	0.0145467
614.129	0.0147604
614.207	0.0146629
614.285	0.0145528
614.363	0.0146461
614.442	0.0147065
614.520	0.0146352
614.598	0.0146945
614.676	0.0147561
614.754	0.0146748
614.832	0.0147674
614.910	0.0147786
614.988	0.0145806
615.067	0.0147043
615.145	0.0146921
615.223	0.0147002
615.301	0.0145619
615.379	0.0146984
615.457	0.0147677
615.535	0.0147578
615.613	0.0148446
615.692	0.0146330
615.770	0.0145878
615.848	0.0147021
615.926	0.0145779
616.004	0.0146318
616.082	0.0146627
616.160	0.0146241
616.238	0.0146130
616.317	0.0146359
616.395	0.0147715
616.473	0.0146200
616.551	0.0147025
616.629	0.0144999
616.707	0.0145856
616.785	0.0147046
616.863	0.0147606
616.942	0.0146383
617.020	0.0146424
617.098	0.0147027
617.176	0.0146307
617.254	0.0148245
617.332	0.0145714
617.410	0.0146122
617.488	0.0146596
617.567	0.0146567
617.645	0.0147862
617.723	0.0147091
617.801	0.0147311
617.879	0.0147350
617.957	0.0147480
618.035	0.0148287
618.113	0.0146960
618.192	0.0146915
618.270	0.0146429
618.348	0.0147459
618.426	0.0148486
618.504	0.0147626
618.582	0.0147892
618.660	0.0149048
618.738	0.0147889
618.817	0.0147318
618.895	0.0146520
618.973	0.0145947
619.051	0.0148352
619.129	0.0147789
619.207	0.0146324
619.285	0.0146348
619.363	0.0146788
619.442	0.0146422
619.520	0.0148351
619.598	0.0148049
619.676	0.0147360
619.754	0.0146239
619.832	0.0147329
619.910	0.0146711
619.988	0.0147583
620.067	0.0148699
620.145	0.0148224
620.223	0.0148582
620.301	0.0147260
620.379	0.0146873
620.457	0.0145770
620.535	0.0146504
620.613	0.0147449
620.692	0.0148235
620.770	0.0146405
620.848	0.0147647
620.926	0.0147822
621.004	0.0149097
621.082	0.0148325
621.160	0.0147797
621.238	0.0148020
621.317	0.0147980
621.395	0.0147681
621.473	0.0146580
621.551	0.0147629
621.629	0.0148889
621.707	0.0148956
621.785	0.0149085
621.863	0.0148314
621.942	0.0147892
622.020	0.0147885
622.098	0.0147080
622.176	0.0146815
622.254	0.0147791
622.332	0.0147640
622.410	0.0146706
622.488	0.0147336
622.567	0.0147370
622.645	0.0146266
622.723	0.0147113
622.801	0.0147422
622.879	0.0147516
622.957	0.0147372
623.035	0.0147321
623.113	0.0148029
623.192	0.0147732
623.270	0.0146653
623.348	0.0146244
623.426	0.0147455
623.504	0.0147383
623.582	0.0146669
623.660	0.0146811
623.738	0.0145306
623.817	0.0146487
623.895	0.0147406
623.973	0.0147063
624.051	0.0146824
624.129	0.0146487
624.207	0.0146464
624.285	0.0145364
624.363	0.0146145
624.442	0.0146392
624.520	0.0146275
624.598	0.0146131
624.676	0.0147070
624.754	0.0147493
624.832	0.0146617
624.910	0.0146448
624.988	0.0145970
625.067	0.0145696
625.145	0.0146494
625.223	0.0145811
625.301	0.0147110
625.379	0.0147245
625.457	0.0146758
625.535	0.0147693
625.613	0.0146678
625.692	0.0147704
625.770	0.0147250
625.848	0.0146660
625.926	0.0147214
626.004	0.0146175
626.082	0.0147056
626.160	0.0146327
626.238	0.0146085
626.317	0.0146868
626.395	0.0147128
626.473	0.0146967
626.551	0.0145977
626.629	0.0146718
626.707	0.0145237
626.785	0.0147035
626.863	0.0147513
626.942	0.0147592
627.020	0.0146989
627.098	0.0147091
627.176	0.0146014
627.254	0.0147095
627.332	0.0146292
627.410	0.0147110
627.488	0.0147388
627.567	0.0146503
627.645	0.0145852
627.723	0.0146553
627.801	0.0145060
627.879	0.0146027
627.957	0.0146958
628.035	0.0145753
628.113	0.0144586
628.192	0.0147202
628.270	0.0146233
628.348	0.0146497
628.426	0.0147012
628.504	0.0146805
628.582	0.0147279
628.660	0.0145739
628.738	0.0145971
628.817	0.0146444
628.895	0.0147483
628.973	0.0146101
629.051	0.0146144
629.129	0.0146477
629.207	0.0146213
629.285	0.0146249
629.363	0.0146262
629.442	0.0145714
629.520	0.0145447
629.598	0.0146545
629.676	0.0146200
629.754	0.0146504
629.832	0.0145901
629.910	0.0146287
629.988	0.0146609
630.067	0.0144241
630.145	0.0145295
630.223	0.0144893
630.301	0.0147113
630.379	0.0146053
630.457	0.0145378
630.535	0.0145744
630.613	0.0145671
630.692	0.0146299
630.770	0.0146466
630.848	0.0144998
630.926	0.0146826
631.004	0.0147134
631.082	0.0145454
631.160	0.0145998
631.238	0.0145964
631.317	0.0146250
631.395	0.0145264
631.473	0.0147366
631.551	0.0145737
631.629	0.0146359
631.707	0.0145951
631.785	0.0146536
631.863	0.0145808
631.942	0.0146407
632.020	0.0145993
632.098	0.0146426
632.176	0.0146552
632.254	0.0147225
632.332	0.0146035
632.410	0.0146219
632.488	0.0145737
632.567	0.0146267
632.645	0.0146548
632.723	0.0147278
632.801	0.0144962
632.879	0.0146692
632.957	0.0146468
633.035	0.0144480
633.113	0.0144568
633.192	0.0145622
633.270	0.0145772
633.348	0.0145947
633.426	0.0145792
633.504	0.0146854
633.582	0.0146698
633.660	0.0145685
633.738	0.0145778
633.817	0.0145447
633.895	0.0146220
633.973	0.0146487
634.051	0.0146407
634.129	0.0145201
634.207	0.0146143
634.285	0.0145898
634.363	0.0145690
634.442	0.0146762
634.520	0.0145680
634.598	0.0147120
634.676	0.0146426
634.754	0.0146387
634.832	0.0145410
634.910	0.0146958
634.988	0.0147473
635.067	0.0145063
635.145	0.0146757
635.223	0.0146012
635.301	0.0145857
635.379	0.0147510
635.457	0.0146862
635.535	0.0146843
635.613	0.0145513
635.692	0.0144603
635.770	0.0145102
635.848	0.0144599
635.926	0.0145217
636.004	0.0146072
636.082	0.0146088
636.160	0.0145749
636.238	0.0144530
636.317	0.0144930
636.395	0.0146459
636.473	0.0145541
636.551	0.0146142
636.629	0.0146340
636.707	0.0146255
636.785	0.0147023
636.863	0.0146908
636.942	0.0147649
637.020	0.0147258
637.098	0.0147809
637.176	0.0148011
637.254	0.0147909
637.332	0.0147983
637.410	0.0146932
637.488	0.0147759
637.567	0.0148325
637.645	0.0147065
637.723	0.0148106
637.801	0.0148360
637.879	0.0146976
637.957	0.0148043
638.035	0.0146975
638.113	0.0146807
638.192	0.0147001
638.270	0.0147330
638.348	0.0148150
638.426	0.0146875
638.504	0.0147226
638.582	0.0146505
638.660	0.0148824
638.738	0.0148140
638.817	0.0147055
638.895	0.0147131
638.973	0.0145626
639.051	0.0147967
639.129	0.0147768
639.207	0.0147651
639.285	0.0147638
639.363	0.0147613
639.442	0.0146553
639.520	0.0146952
639.598	0.0148624
639.676	0.0147119
639.754	0.0145656
639.832	0.0145331
639.910	0.0145766
639.988	0.0144872
640.067	0.0145671
640.145	0.0144196
640.223	0.0144839
640.301	0.0145029
640.379	0.0143790
640.457	0.0145068
640.535	0.0144080
640.613	0.0144078
640.692	0.0143253
640.770	0.0144556
640.848	0.0145983
640.926	0.0146481
641.004	0.0146525
641.082	0.0146413
641.160	0.0146086
641.238	0.0147158
641.317	0.0146779
641.395	0.0146552
641.473	0.0146807
641.551	0.0147527
641.629	0.0147948
641.707	0.0147961
641.785	0.0148828
641.863	0.0148936
641.942	0.0147230
642.020	0.0149287
642.098	0.0148460
642.176	0.0150301
642.254	0.0148798
642.332	0.0149530
642.410	0.0150614
642.488	0.0150364
642.567	0.0149823
642.645	0.0149333
642.723	0.0150134
642.801	0.0149150
642.879	0.0147966
642.957	0.0148288
643.035	0.0147646
643.113	0.0148302
643.192	0.0148310
643.270	0.0147963
643.348	0.0146394
643.426	0.0147407
643.504	0.0146103
643.582	0.0145062
643.660	0.0146202
643.738	0.0146336
643.817	0.0147385
643.895	0.0145743
643.973	0.0145913
644.051	0.0144930
644.129	0.0144798
644.207	0.0142871
644.285	0.0143637
644.363	0.0143165
644.442	0.0143370
644.520	0.0141820
644.598	0.0142744
644.676	0.0142355
644.754	0.0141299
644.832	0.0142062
644.910	0.0141774
644.988	0.0143430
645.067	0.0143757
645.145	0.0144623
645.223	0.0144314
645.301	0.0144487
645.379	0.0146281
645.457	0.0145918
645.535	0.0146390
645.613	0.0147188
645.692	0.0147583
645.770	0.0149310
645.848	0.0148801
645.926	0.0147669
646.004	0.0149451
646.082	0.0148730
646.160	0.0148820
646.238	0.0148683
646.317	0.0147716
646.395	0.0148273
646.473	0.0148405
646.551	0.0148250
646.629	0.0149017
646.707	0.0147713
646.785	0.0149541
646.863	0.0148727
646.942	0.0147482
647.020	0.0148059
647.098	0.0149007
647.176	0.0147853
647.254	0.0147725
647.332	0.0147980
647.410	0.0148403
647.488	0.0148148
647.567	0.0147537
647.645	0.0148578
647.723	0.0147956
647.801	0.0147411
647.879	0.0147775
647.957	0.0146471
648.035	0.0146838
648.113	0.0146085
648.192	0.0145299
648.270	0.0144244
648.348	0.0143359
648.426	0.0144248
648.504	0.0144984
648.582	0.0143703
648.660	0.0144540
648.738	0.0144069
648.817	0.0144415
648.895	0.0143829
648.973	0.0145152
649.051	0.0144255
649.129	0.0144654
649.207	0.0144811
649.285	0.0143717
649.363	0.0144537
649.442	0.0146141
649.520	0.0146642
649.598	0.0144199
649.676	0.0144885
649.754	0.0145676
649.832	0.0146132
649.910	0.0144527
649.988	0.0144834
650.067	0.0144662
650.145	0.0142530
650.223	0.0143233
650.301	0.0143766
650.379	0.0145118
650.457	0.0144061
650.535	0.0145124
650.613	0.0143675
650.692	0.0145342
650.770	0.0146143
650.848	0.0146569
650.926	0.0147235
651.004	0.0147639
651.082	0.0147880
651.160	0.0147588
651.238	0.0149130
651.317	0.0147760
651.395	0.0149255
651.473	0.0149508
651.551	0.0148966
651.629	0.0148960
651.707	0.0150201
651.785	0.0150365
651.863	0.0149590
651.942	0.0150607
652.020	0.0149615
652.098	0.0149095
652.176	0.0150124
652.254	0.0150287
652.332	0.0151144
652.410	0.0150655
652.488	0.0150572
652.567	0.0148420
652.645	0.0150337
652.723	0.0149967
652.801	0.0149705
652.879	0.0150837
652.957	0.0151749
653.035	0.0148848
653.113	0.0150002
653.192	0.0147957
653.270	0.0146178
653.348	0.0144215
653.426	0.0146181
653.504	0.0145024
653.582	0.0143803
653.660	0.0142748
653.738	0.0143280
653.817	0.0143583
653.895	0.0143598
653.973	0.0141565
654.051	0.0141150
654.129	0.0142023
654.207	0.0140742
654.285	0.0141627
654.363	0.0142181
654.442	0.0141302
654.520	0.0142613
654.598	0.0142157
654.676	0.0143207
654.754	0.0143983
654.832	0.0142276
654.910	0.0143948
654.988	0.0144580
655.067	0.0144276
655.145	0.0145920
655.223	0.0143020
655.301	0.0144003
655.379	0.0144352
655.457	0.0145889
655.535	0.0146485
655.613	0.0145261
655.692	0.0146161
655.770	0.0148346
655.848	0.0147826
655.926	0.0148309
656.004	0.0147930
656.082	0.0147527
656.160	0.0148237
656.238	0.0147434
656.317	0.0147076
656.395	0.0148338
656.473	0.0147466
656.551	0.0148088
656.629	0.0147463
656.707	0.0147878
656.785	0.0149026
656.863	0.0147813
656.942	0.0148002
657.020	0.0151024
657.098	0.0149267
657.176	0.0151024
657.254	0.0151096
657.332	0.0152198
657.410	0.0152408
657.488	0.0152478
657.567	0.0151598
657.645	0.0153412
657.723	0.0151692
657.801	0.0152097
657.879	0.0152309
657.957	0.0150828
658.035	0.0150047
658.113	0.0149984
658.192	0.0149426
658.270	0.0147083
658.348	0.0147655
658.426	0.0146056
658.504	0.0142965
658.582	0.0143473
658.660	0.0142123
658.738	0.0141209
658.817	0.0141724
658.895	0.0140733
658.973	0.0141898
659.051	0.0139719
659.129	0.0139294
659.207	0.0140047
659.285	0.0139531
659.363	0.0141753
659.442	0.0140411
659.520	0.0141069
659.598	0.0143304
659.676	0.0143031
659.754	0.0142496
659.832	0.0143685
659.910	0.0146072
659.988	0.0145321
660.067	0.0147717
660.145	0.0149001
660.223	0.0147047
660.301	0.0149899
660.379	0.0149904
660.457	0.0148802
660.535	0.0150442
660.613	0.0149516
660.692	0.0148977
660.770	0.0149611
660.848	0.0149229
660.926	0.0149141
661.004	0.0149697
661.082	0.0148669
661.160	0.0149083
661.238	0.0150330
661.317	0.0147507
661.395	0.0145574
661.473	0.0148153
661.551	0.0148115
661.629	0.0146721
661.707	0.0146468
661.785	0.0147035
661.863	0.0145950
661.942	0.0146967
662.020	0.0146667
662.098	0.0146964
662.176	0.0145550
662.254	0.0145354
662.332	0.0145568
662.410	0.0146909
662.488	0.0147248
662.567	0.0146426
662.645	0.0146633
662.723	0.0148586
662.801	0.0147852
662.879	0.0148312
662.957	0.0148858
663.035	0.0149712
663.113	0.0148701
663.192	0.0149902
663.270	0.0149263
663.348	0.0149306
663.426	0.0150623
663.504	0.0150500
663.582	0.0150278
663.660	0.0149785
663.738	0.0149586
663.817	0.0148409
663.895	0.0148901
663.973	0.0147031
664.051	0.0148673
664.129	0.0148574
664.207	0.0145493
664.285	0.0145829
664.363	0.0145534
664.442	0.0145663
664.520	0.0144940
664.598	0.0145706
664.676	0.0144498
664.754	0.0143190
664.832	0.0142180
664.910	0.0142905
664.988	0.0142207
665.067	0.0143378
665.145	0.0141112
665.223	0.0140512
665.301	0.0141263
665.379	0.0141425
665.457	0.0139898
665.535	0.0140403
665.613	0.0142158
665.692	0.0141268
665.770	0.0140623
665.848	0.0142669
665.926	0.0142669
666.004	0.0143675
666.082	0.0143481
666.160	0.0144920
666.238	0.0145079
666.317	0.0147490
666.395	0.0147302
666.473	0.0148163
666.551	0.0148723
666.629	0.0150286
666.707	0.0152124
666.785	0.0149991
666.863	0.0151856
666.942	0.0152582
667.020	0.0154090
667.098	0.0152151
667.176	0.0151365
667.254	0.0150580
667.332	0.0149837
667.410	0.0149991
667.488	0.0150243
667.567	0.0148049
667.645	0.0147423
667.723	0.0147723
667.801	0.0147272
667.879	0.0145600
667.957	0.0145351
668.035	0.0144437
668.113	0.0145378
668.192	0.0145444
668.270	0.0145443
668.348	0.0145126
668.426	0.0145261
668.504	0.0145679
668.582	0.0143213
668.660	0.0144756
668.738	0.0142882
668.817	0.0142555
668.895	0.0144216
668.973	0.0143577
669.051	0.0142258
669.129	0.0141750
669.207	0.0141623
669.285	0.0142191
669.363	0.0141449
669.442	0.0141298
669.520	0.0142256
669.598	0.0142872
669.676	0.0142247
669.754	0.0142135
669.832	0.0142648
669.910	0.0143826
669.988	0.0144694
670.067	0.0145525
670.145	0.0145884
670.223	0.0146120
670.301	0.0145833
670.379	0.0147653
670.457	0.0146629
670.535	0.0149614
670.613	0.0149951
670.692	0.0149505
670.770	0.0149409
670.848	0.0151084
670.926	0.0152299
671.004	0.0151032
671.082	0.0150298
671.160	0.0149779
671.238	0.0151495
671.317	0.0151505
671.395	0.0150627
671.473	0.0151493
671.551	0.0150488
671.629	0.0149075
671.707	0.0146836
671.785	0.0146830
671.863	0.0145969
671.942	0.0144054
672.020	0.0142567
672.098	0.0142712
672.176	0.0142802
672.254	0.0140469
672.332	0.0139417
672.410	0.0138625
672.488	0.0138898
672.567	0.0138942
672.645	0.0139050
672.723	0.0139812
672.801	0.0140292
672.879	0.0141012
672.957	0.0142456
673.035	0.0143654
673.113	0.0145203
673.192	0.0146717
673.270	0.0146933
673.348	0.0148120
673.426	0.0147903
673.504	0.0149065
673.582	0.0150495
673.660	0.0151166
673.738	0.0150949
673.817	0.0150596
673.895	0.0150675
673.973	0.0149423
674.051	0.0150070
674.129	0.0148771
674.207	0.0149382
674.285	0.0149186
674.363	0.0147628
674.442	0.0148189
674.520	0.0148953
674.598	0.0147022
674.676	0.0147569
674.754	0.0148096
674.832	0.0146402
674.910	0.0145857
674.988	0.0146967
675.067	0.0146347
675.145	0.0145522
675.223	0.0145979
675.301	0.0144795
675.379	0.0145354
675.457	0.0144664
675.535	0.0144100
675.613	0.0145087
675.692	0.0144850
675.770	0.0144219
675.848	0.0144598
675.926	0.0144062
676.004	0.0144453
676.082	0.0143447
676.160	0.0144730
676.238	0.0145052
676.317	0.0144963
676.395	0.0145969
676.473	0.0146137
676.551	0.0145846
676.629	0.0146634
676.707	0.0148013
676.785	0.0145959
676.863	0.0147093
676.942	0.0147123
677.020	0.0147293
677.098	0.0148146
677.176	0.0148523
677.254	0.0148234
677.332	0.0148856
677.410	0.0148881
677.488	0.0149331
677.567	0.0148325
677.645	0.0148188
677.723	0.0148682
677.801	0.0149800
677.879	0.0150244
677.957	0.0150613
678.035	0.0150559
678.113	0.0149274
678.192	0.0150648
678.270	0.0149622
678.348	0.0149672
678.426	0.0148904
678.504	0.0150503
678.582	0.0148338
678.660	0.0147433
678.738	0.0145753
678.817	0.0145088
678.895	0.0143234
678.973	0.0143383
679.051	0.0142165
679.129	0.0140962
679.207	0.0140981
679.285	0.0140434
679.363	0.0138948
679.442	0.0139964
679.520	0.0139233
679.598	0.0140160
679.676	0.0140421
679.754	0.0143192
679.832	0.0143113
679.910	0.0143614
679.988	0.0145000
680.067	0.0146581
680.145	0.0145875
680.223	0.0149216
680.301	0.0150394
680.379	0.0149144
680.457	0.0150697
680.535	0.0151449
680.613	0.0150464
680.692	0.0151098
680.770	0.0151411
680.848	0.0151698
680.926	0.0152782
681.004	0.0153771
681.082	0.0153185
681.160	0.0152714
681.238	0.0152821
681.317	0.0153065
681.395	0.0154704
681.473	0.0154875
681.551	0.0153574
681.629	0.0154856
681.707	0.0155370
681.785	0.0154713
681.863	0.0153768
681.942	0.0154145
682.020	0.0152380
682.098	0.0151734
682.176	0.0152268
682.254	0.0150671
682.332	0.0150970
682.410	0.0149400
682.488	0.0150459
682.567	0.0149118
682.645	0.0145737
682.723	0.0144555
682.801	0.0143165
682.879	0.0141678
682.957	0.0140446
683.035	0.0139912
683.113	0.0138210
683.192	0.0136939
683.270	0.0136781
683.348	0.0134568
683.426	0.0134840
683.504	0.0135498
683.582	0.0136115
683.660	0.0136305
683.738	0.0137162
683.817	0.0137949
683.895	0.0139683
683.973	0.0140558
684.051	0.0140907
684.129	0.0142994
684.207	0.0144322
684.285	0.0145392
684.363	0.0148195
684.442	0.0149181
684.520	0.0149529
684.598	0.0150653
684.676	0.0152940
684.754	0.0154016
684.832	0.0153661
684.910	0.0155334
684.988	0.0156034
685.067	0.0155530
685.145	0.0155150
685.223	0.0157464
685.301	0.0158655
685.379	0.0159150
685.457	0.0159622
685.535	0.0159547
685.613	0.0158202
685.692	0.0157246
