05/28/2022	13:52:35	Ver.	4.1	UNKNOWN
Optical Delay	599.988409	Delta X		0.078125	Sweeps	1	Scan Rate	0/0
Coordinates	Axis 1	NaN	Axis 2	NaN	Axis 3	NaN	Axis 4	NaN	Axis 5	NaN	Axis 6	0.000000
TX Power	0.000000	RX Power	0.000000

599.988	0.0148230
600.067	0.0149825
600.145	0.0147601
600.223	0.0148927
600.301	0.0148614
600.379	0.0148751
600.457	0.0147939
600.535	0.0148158
600.613	0.0147205
600.692	0.0148269
600.770	0.0149025
600.848	0.0149249
600.926	0.0147614
601.004	0.0148370
601.082	0.0147665
601.160	0.0147720
601.238	0.0147858
601.317	0.0146425
601.395	0.0148297
601.473	0.0148322
601.551	0.0149062
601.629	0.0149116
601.707	0.0147573
601.785	0.0147717
601.863	0.0147346
601.942	0.0148705
602.020	0.0148666
602.098	0.0148033
602.176	0.0147481
602.254	0.0148623
602.332	0.0149471
602.410	0.0149845
602.488	0.0149077
602.567	0.0148051
602.645	0.0149647
602.723	0.0149595
602.801	0.0148151
602.879	0.0148565
602.957	0.0148328
603.035	0.0148425
603.113	0.0148360
603.192	0.0148077
603.270	0.0148542
603.348	0.0149757
603.426	0.0148049
603.504	0.0148817
603.582	0.0148323
603.660	0.0149068
603.738	0.0148598
603.817	0.0148004
603.895	0.0148754
603.973	0.0148829
604.051	0.0148666
604.129	0.0148475
604.207	0.0148162
604.285	0.0148082
604.363	0.0148553
604.442	0.0148068
604.520	0.0148843
604.598	0.0147123
604.676	0.0148640
604.754	0.0149635
604.832	0.0148712
604.910	0.0146616
604.988	0.0147936
605.067	0.0148842
605.145	0.0147695
605.223	0.0149462
605.301	0.0146803
605.379	0.0147959
605.457	0.0148478
605.535	0.0148563
605.613	0.0147952
605.692	0.0146139
605.770	0.0147538
605.848	0.0149598
605.926	0.0148026
606.004	0.0148790
606.082	0.0149190
606.160	0.0147802
606.238	0.0147168
606.317	0.0148405
606.395	0.0149424
606.473	0.0148762
606.551	0.0148574
606.629	0.0148490
606.707	0.0148703
606.785	0.0148714
606.863	0.0148381
606.942	0.0148917
607.020	0.0147469
607.098	0.0147636
607.176	0.0147475
607.254	0.0147211
607.332	0.0147063
607.410	0.0148696
607.488	0.0148599
607.567	0.0147192
607.645	0.0148024
607.723	0.0147687
607.801	0.0148997
607.879	0.0147961
607.957	0.0148265
608.035	0.0149868
608.113	0.0147886
608.192	0.0147592
608.270	0.0147673
608.348	0.0147981
608.426	0.0148661
608.504	0.0148360
608.582	0.0148861
608.660	0.0147331
608.738	0.0148545
608.817	0.0148657
608.895	0.0148188
608.973	0.0148314
609.051	0.0149580
609.129	0.0147086
609.207	0.0149352
609.285	0.0147671
609.363	0.0146944
609.442	0.0147438
609.520	0.0147497
609.598	0.0148016
609.676	0.0148589
609.754	0.0148447
609.832	0.0148476
609.910	0.0147583
609.988	0.0146510
610.067	0.0148134
610.145	0.0148331
610.223	0.0148271
610.301	0.0149287
610.379	0.0148797
610.457	0.0148488
610.535	0.0146892
610.613	0.0146951
610.692	0.0147204
610.770	0.0148422
610.848	0.0148613
610.926	0.0147498
611.004	0.0148374
611.082	0.0147769
611.160	0.0147210
611.238	0.0147339
611.317	0.0148640
611.395	0.0149035
611.473	0.0148467
611.551	0.0147693
611.629	0.0147508
611.707	0.0149043
611.785	0.0149754
611.863	0.0149129
611.942	0.0148879
612.020	0.0148151
612.098	0.0148432
612.176	0.0148294
612.254	0.0148206
612.332	0.0146923
612.410	0.0148314
612.488	0.0147704
612.567	0.0146851
612.645	0.0147334
612.723	0.0147472
612.801	0.0149190
612.879	0.0148165
612.957	0.0147934
613.035	0.0147697
613.113	0.0147734
613.192	0.0148357
613.270	0.0148505
613.348	0.0148852
613.426	0.0147711
613.504	0.0148566
613.582	0.0149380
613.660	0.0148697
613.738	0.0148161
613.817	0.0147788
613.895	0.0148651
613.973	0.0148002
614.051	0.0147673
614.129	0.0147402
614.207	0.0146976
614.285	0.0148662
614.363	0.0147553
614.442	0.0148849
614.520	0.0149171
614.598	0.0147678
614.676	0.0147350
614.754	0.0147844
614.832	0.0147662
614.910	0.0147683
614.988	0.0148363
615.067	0.0147396
615.145	0.0147377
615.223	0.0148370
615.301	0.0148312
615.379	0.0147951
615.457	0.0148440
615.535	0.0149040
615.613	0.0149218
615.692	0.0148030
615.770	0.0148480
615.848	0.0149197
615.926	0.0148978
616.004	0.0149358
616.082	0.0147598
616.160	0.0147308
616.238	0.0149574
616.317	0.0148817
616.395	0.0147383
616.473	0.0147606
616.551	0.0148177
616.629	0.0147467
616.707	0.0148367
616.785	0.0148100
616.863	0.0147973
616.942	0.0147807
617.020	0.0148142
617.098	0.0147491
617.176	0.0149679
617.254	0.0148385
617.332	0.0147431
617.410	0.0147108
617.488	0.0149042
617.567	0.0147958
617.645	0.0149197
617.723	0.0148399
617.801	0.0147735
617.879	0.0148764
617.957	0.0147238
618.035	0.0146987
618.113	0.0149101
618.192	0.0148619
618.270	0.0148543
618.348	0.0148937
618.426	0.0148298
618.504	0.0147455
618.582	0.0149294
618.660	0.0149142
618.738	0.0148314
618.817	0.0148920
618.895	0.0146976
618.973	0.0147005
619.051	0.0148963
619.129	0.0149332
619.207	0.0148358
619.285	0.0148837
619.363	0.0147702
619.442	0.0149226
619.520	0.0147756
619.598	0.0147507
619.676	0.0149277
619.754	0.0148134
619.832	0.0147466
619.910	0.0148054
619.988	0.0149339
620.067	0.0148236
620.145	0.0147936
620.223	0.0149765
620.301	0.0147525
620.379	0.0148841
620.457	0.0147090
620.535	0.0147689
620.613	0.0148557
620.692	0.0148578
620.770	0.0148482
620.848	0.0149391
620.926	0.0147452
621.004	0.0148063
621.082	0.0149078
621.160	0.0148368
621.238	0.0149492
621.317	0.0148313
621.395	0.0148853
621.473	0.0149800
621.551	0.0147812
621.629	0.0146992
621.707	0.0148979
621.785	0.0147968
621.863	0.0149475
621.942	0.0149000
622.020	0.0147883
622.098	0.0147813
622.176	0.0148780
622.254	0.0149181
622.332	0.0148483
622.410	0.0149390
622.488	0.0149888
622.567	0.0148256
622.645	0.0148296
622.723	0.0148130
622.801	0.0148067
622.879	0.0148009
622.957	0.0147395
623.035	0.0148235
623.113	0.0149389
623.192	0.0147386
623.270	0.0147014
623.348	0.0148418
623.426	0.0147984
623.504	0.0148051
623.582	0.0149143
623.660	0.0149210
623.738	0.0146977
623.817	0.0147823
623.895	0.0148721
623.973	0.0147466
624.051	0.0149112
624.129	0.0148686
624.207	0.0147583
624.285	0.0148067
624.363	0.0147216
624.442	0.0146867
624.520	0.0148835
624.598	0.0148269
624.676	0.0148199
624.754	0.0148476
624.832	0.0148151
624.910	0.0148402
624.988	0.0148066
625.067	0.0147813
625.145	0.0147153
625.223	0.0148651
625.301	0.0148319
625.379	0.0147596
625.457	0.0149269
625.535	0.0147790
625.613	0.0147675
625.692	0.0148440
625.770	0.0148941
625.848	0.0149590
625.926	0.0148914
626.004	0.0146560
626.082	0.0147410
626.160	0.0147568
626.238	0.0148213
626.317	0.0147750
626.395	0.0148322
626.473	0.0148800
626.551	0.0147612
626.629	0.0148624
626.707	0.0148071
626.785	0.0148299
626.863	0.0147510
626.942	0.0148534
627.020	0.0147810
627.098	0.0147578
627.176	0.0146944
627.254	0.0148395
627.332	0.0147688
627.410	0.0148069
627.488	0.0146178
627.567	0.0147912
627.645	0.0148188
627.723	0.0147283
627.801	0.0148399
627.879	0.0148251
627.957	0.0147836
628.035	0.0149064
628.113	0.0148016
628.192	0.0148911
628.270	0.0146435
628.348	0.0147642
628.426	0.0148331
628.504	0.0149380
628.582	0.0148559
628.660	0.0149336
628.738	0.0147810
628.817	0.0148137
628.895	0.0147414
628.973	0.0149831
629.051	0.0149110
629.129	0.0146828
629.207	0.0147433
629.285	0.0148183
629.363	0.0147687
629.442	0.0146803
629.520	0.0148816
629.598	0.0147867
629.676	0.0148482
629.754	0.0148654
629.832	0.0147180
629.910	0.0148685
629.988	0.0149615
630.067	0.0149521
630.145	0.0148224
630.223	0.0147527
630.301	0.0147458
630.379	0.0148434
630.457	0.0148230
630.535	0.0147543
630.613	0.0147661
630.692	0.0148391
630.770	0.0147993
630.848	0.0148192
630.926	0.0147662
631.004	0.0148383
631.082	0.0148103
631.160	0.0148183
631.238	0.0147596
631.317	0.0147618
631.395	0.0148564
631.473	0.0147604
631.551	0.0148573
631.629	0.0147533
631.707	0.0148025
631.785	0.0148997
631.863	0.0148875
631.942	0.0147444
632.020	0.0148705
632.098	0.0148245
632.176	0.0148128
632.254	0.0147211
632.332	0.0146980
632.410	0.0147665
632.488	0.0147680
632.567	0.0148773
632.645	0.0149184
632.723	0.0147968
632.801	0.0148505
632.879	0.0148566
632.957	0.0148934
633.035	0.0148140
633.113	0.0147895
633.192	0.0148412
633.270	0.0146397
633.348	0.0147464
633.426	0.0147298
633.504	0.0148497
633.582	0.0148425
633.660	0.0148162
633.738	0.0146558
633.817	0.0148250
633.895	0.0149001
633.973	0.0149187
634.051	0.0147410
634.129	0.0147530
634.207	0.0147964
634.285	0.0148517
634.363	0.0147489
634.442	0.0147093
634.520	0.0147661
634.598	0.0147937
634.676	0.0147772
634.754	0.0148689
634.832	0.0149227
634.910	0.0148575
634.988	0.0147779
635.067	0.0145564
635.145	0.0147614
635.223	0.0148891
635.301	0.0149839
635.379	0.0147379
635.457	0.0147232
635.535	0.0148675
635.613	0.0148750
635.692	0.0148048
635.770	0.0147839
635.848	0.0146550
635.926	0.0146653
636.004	0.0147453
636.082	0.0147474
636.160	0.0147392
636.238	0.0148740
636.317	0.0148637
636.395	0.0147375
636.473	0.0147334
636.551	0.0147501
636.629	0.0147731
636.707	0.0147366
636.785	0.0149375
636.863	0.0148185
636.942	0.0148312
637.020	0.0148002
637.098	0.0147311
637.176	0.0147670
637.254	0.0147182
637.332	0.0147049
637.410	0.0148750
637.488	0.0147854
637.567	0.0148079
637.645	0.0146772
637.723	0.0148324
637.801	0.0148071
637.879	0.0147685
637.957	0.0147729
638.035	0.0148224
638.113	0.0147023
638.192	0.0149468
638.270	0.0148239
638.348	0.0147542
638.426	0.0147659
638.504	0.0147691
638.582	0.0149081
638.660	0.0147942
638.738	0.0147479
638.817	0.0149214
638.895	0.0149110
638.973	0.0147898
639.051	0.0147072
639.129	0.0147122
639.207	0.0149255
639.285	0.0148328
639.363	0.0147047
639.442	0.0148496
639.520	0.0147401
639.598	0.0147788
639.676	0.0148434
639.754	0.0146917
639.832	0.0146936
639.910	0.0147929
639.988	0.0147573
640.067	0.0147550
640.145	0.0147723
640.223	0.0148206
640.301	0.0147224
640.379	0.0148264
640.457	0.0148880
640.535	0.0149297
640.613	0.0147956
640.692	0.0149986
640.770	0.0148331
640.848	0.0149680
640.926	0.0149092
641.004	0.0148016
641.082	0.0149425
641.160	0.0148657
641.238	0.0149158
641.317	0.0147164
641.395	0.0147794
641.473	0.0148618
641.551	0.0147863
641.629	0.0148096
641.707	0.0150240
641.785	0.0148219
641.863	0.0147172
641.942	0.0148190
642.020	0.0149603
642.098	0.0147862
642.176	0.0148276
642.254	0.0149532
642.332	0.0148135
642.410	0.0148489
642.488	0.0147758
642.567	0.0147630
642.645	0.0147725
642.723	0.0148697
642.801	0.0147766
642.879	0.0148640
642.957	0.0148674
643.035	0.0147220
643.113	0.0148035
643.192	0.0147660
643.270	0.0148621
643.348	0.0147511
643.426	0.0148325
643.504	0.0148023
643.582	0.0148940
643.660	0.0148628
643.738	0.0148295
643.817	0.0149294
643.895	0.0146744
643.973	0.0148879
644.051	0.0148360
644.129	0.0147598
644.207	0.0147983
644.285	0.0149100
644.363	0.0148607
644.442	0.0148840
644.520	0.0148059
644.598	0.0147461
644.676	0.0148492
644.754	0.0149335
644.832	0.0147375
644.910	0.0147319
644.988	0.0148470
645.067	0.0147980
645.145	0.0146931
645.223	0.0148542
645.301	0.0148288
645.379	0.0149038
645.457	0.0147991
645.535	0.0148126
645.613	0.0148773
645.692	0.0148877
645.770	0.0150301
645.848	0.0147566
645.926	0.0147190
646.004	0.0149157
646.082	0.0149295
646.160	0.0149857
646.238	0.0147900
646.317	0.0148914
646.395	0.0148527
646.473	0.0148396
646.551	0.0149049
646.629	0.0147660
646.707	0.0148158
646.785	0.0147255
646.863	0.0148103
646.942	0.0147699
647.020	0.0146973
647.098	0.0148302
647.176	0.0147767
647.254	0.0147904
647.332	0.0149487
647.410	0.0147742
647.488	0.0146758
647.567	0.0147720
647.645	0.0147046
647.723	0.0147094
647.801	0.0147272
647.879	0.0148531
647.957	0.0147610
648.035	0.0147043
648.113	0.0148029
648.192	0.0149254
648.270	0.0148863
648.348	0.0147210
648.426	0.0146984
648.504	0.0147704
648.582	0.0148657
648.660	0.0147984
648.738	0.0147646
648.817	0.0147705
648.895	0.0147617
648.973	0.0148113
649.051	0.0148063
649.129	0.0147649
649.207	0.0147379
649.285	0.0147424
649.363	0.0148516
649.442	0.0148226
649.520	0.0147075
649.598	0.0148595
649.676	0.0147692
649.754	0.0146022
649.832	0.0147288
649.910	0.0147558
649.988	0.0148576
650.067	0.0146635
650.145	0.0146651
650.223	0.0147343
650.301	0.0147410
650.379	0.0148068
650.457	0.0147573
650.535	0.0149060
650.613	0.0149146
650.692	0.0147237
650.770	0.0146970
650.848	0.0147638
650.926	0.0148096
651.004	0.0148489
651.082	0.0147073
651.160	0.0148019
651.238	0.0149251
651.317	0.0146767
651.395	0.0147844
651.473	0.0146992
651.551	0.0148153
651.629	0.0148026
651.707	0.0148626
651.785	0.0147635
651.863	0.0147748
651.942	0.0147517
652.020	0.0148071
652.098	0.0148898
652.176	0.0149052
652.254	0.0146855
652.332	0.0148022
652.410	0.0148769
652.488	0.0147964
652.567	0.0147495
652.645	0.0149160
652.723	0.0148148
652.801	0.0147866
652.879	0.0147963
652.957	0.0147711
653.035	0.0148222
653.113	0.0148479
653.192	0.0148299
653.270	0.0148769
653.348	0.0148270
653.426	0.0147208
653.504	0.0148274
653.582	0.0148547
653.660	0.0149249
653.738	0.0149190
653.817	0.0148250
653.895	0.0147690
653.973	0.0148550
654.051	0.0147735
654.129	0.0148960
654.207	0.0148957
654.285	0.0147926
654.363	0.0148310
654.442	0.0148428
654.520	0.0148640
654.598	0.0147346
654.676	0.0147927
654.754	0.0148921
654.832	0.0148907
654.910	0.0148248
654.988	0.0147076
655.067	0.0146677
655.145	0.0148650
655.223	0.0148164
655.301	0.0147730
655.379	0.0148050
655.457	0.0147959
655.535	0.0147884
655.613	0.0149242
655.692	0.0146823
655.770	0.0148387
655.848	0.0148073
655.926	0.0148380
656.004	0.0148200
656.082	0.0148783
656.160	0.0147797
656.238	0.0147939
656.317	0.0147408
656.395	0.0148972
656.473	0.0148145
656.551	0.0148024
656.629	0.0148257
656.707	0.0148443
656.785	0.0147198
656.863	0.0147849
656.942	0.0148187
657.020	0.0148495
657.098	0.0148637
657.176	0.0147988
657.254	0.0148427
657.332	0.0149389
657.410	0.0147340
657.488	0.0147494
657.567	0.0147561
657.645	0.0148365
657.723	0.0148686
657.801	0.0149033
657.879	0.0148607
657.957	0.0149003
658.035	0.0146815
658.113	0.0149342
658.192	0.0147591
658.270	0.0147765
658.348	0.0147846
658.426	0.0148095
658.504	0.0148213
658.582	0.0148742
658.660	0.0149065
658.738	0.0148051
658.817	0.0147404
658.895	0.0148260
658.973	0.0147353
659.051	0.0147442
659.129	0.0148878
659.207	0.0148730
659.285	0.0148324
659.363	0.0148914
659.442	0.0147102
659.520	0.0148713
659.598	0.0149453
659.676	0.0149308
659.754	0.0148589
659.832	0.0147370
659.910	0.0148936
659.988	0.0147594
660.067	0.0147987
660.145	0.0147459
660.223	0.0147631
660.301	0.0148388
660.379	0.0148557
660.457	0.0148969
660.535	0.0147298
660.613	0.0147168
660.692	0.0148591
660.770	0.0149660
660.848	0.0148363
660.926	0.0148074
661.004	0.0148032
661.082	0.0147961
661.160	0.0149189
661.238	0.0147835
661.317	0.0147260
661.395	0.0148063
661.473	0.0148288
661.551	0.0148058
661.629	0.0148101
661.707	0.0148459
661.785	0.0149571
661.863	0.0147868
661.942	0.0149034
662.020	0.0147729
662.098	0.0148046
662.176	0.0147959
662.254	0.0148470
662.332	0.0147474
662.410	0.0147034
662.488	0.0147528
662.567	0.0146876
662.645	0.0148231
662.723	0.0148582
662.801	0.0147865
662.879	0.0146984
662.957	0.0147674
663.035	0.0148088
663.113	0.0148015
663.192	0.0148243
663.270	0.0148351
663.348	0.0146862
663.426	0.0148303
663.504	0.0150665
663.582	0.0148115
663.660	0.0147984
663.738	0.0148479
663.817	0.0149065
663.895	0.0147803
663.973	0.0148272
664.051	0.0149261
664.129	0.0147194
664.207	0.0148318
664.285	0.0147415
664.363	0.0148665
664.442	0.0148258
664.520	0.0149084
664.598	0.0148153
664.676	0.0148924
664.754	0.0148798
664.832	0.0148340
664.910	0.0146759
664.988	0.0147369
665.067	0.0148646
665.145	0.0148792
665.223	0.0149207
665.301	0.0147951
665.379	0.0147213
665.457	0.0149458
665.535	0.0147336
665.613	0.0148834
665.692	0.0149521
665.770	0.0149252
665.848	0.0149033
665.926	0.0147943
666.004	0.0149158
666.082	0.0149111
666.160	0.0148604
666.238	0.0149669
666.317	0.0149017
666.395	0.0147315
666.473	0.0149271
666.551	0.0149763
666.629	0.0148344
666.707	0.0146671
666.785	0.0148460
666.863	0.0149110
666.942	0.0148669
667.020	0.0147863
667.098	0.0147598
667.176	0.0146664
667.254	0.0147545
667.332	0.0148881
667.410	0.0149687
667.488	0.0147295
667.567	0.0148360
667.645	0.0147827
667.723	0.0149406
667.801	0.0146974
667.879	0.0148660
667.957	0.0148051
668.035	0.0147905
668.113	0.0148007
668.192	0.0147987
668.270	0.0148819
668.348	0.0147682
668.426	0.0146895
668.504	0.0146492
668.582	0.0147952
668.660	0.0148341
668.738	0.0149384
668.817	0.0147704
668.895	0.0148612
668.973	0.0147948
669.051	0.0148292
669.129	0.0149008
669.207	0.0148186
669.285	0.0148774
669.363	0.0149102
669.442	0.0147791
669.520	0.0148374
669.598	0.0149202
669.676	0.0149519
669.754	0.0149378
669.832	0.0149129
669.910	0.0147876
669.988	0.0147807
670.067	0.0147897
670.145	0.0148454
670.223	0.0149394
670.301	0.0149321
670.379	0.0148648
670.457	0.0148404
670.535	0.0148810
670.613	0.0148208
670.692	0.0149195
670.770	0.0149149
670.848	0.0148671
670.926	0.0149184
671.004	0.0147719
671.082	0.0148283
671.160	0.0149434
671.238	0.0149725
671.317	0.0148919
671.395	0.0149522
671.473	0.0148869
671.551	0.0149058
671.629	0.0149221
671.707	0.0148346
671.785	0.0149036
671.863	0.0148740
671.942	0.0148550
672.020	0.0148961
672.098	0.0147862
672.176	0.0149260
672.254	0.0148426
672.332	0.0148354
672.410	0.0149190
672.488	0.0149009
672.567	0.0150202
672.645	0.0148894
672.723	0.0147598
672.801	0.0147969
672.879	0.0148360
672.957	0.0148483
673.035	0.0148623
673.113	0.0149340
673.192	0.0148062
673.270	0.0148074
673.348	0.0149218
673.426	0.0149637
673.504	0.0148548
673.582	0.0148686
673.660	0.0147691
673.738	0.0148542
673.817	0.0146632
673.895	0.0147449
673.973	0.0148074
674.051	0.0147425
674.129	0.0148015
674.207	0.0148074
674.285	0.0147314
674.363	0.0149095
674.442	0.0148209
674.520	0.0148486
674.598	0.0149334
674.676	0.0147262
674.754	0.0147472
674.832	0.0147736
674.910	0.0148283
674.988	0.0146844
675.067	0.0147063
675.145	0.0148567
675.223	0.0148361
675.301	0.0147607
675.379	0.0148940
675.457	0.0147427
675.535	0.0148032
675.613	0.0147841
675.692	0.0148922
675.770	0.0148896
675.848	0.0148131
675.926	0.0146997
676.004	0.0147005
676.082	0.0147230
676.160	0.0145526
676.238	0.0146881
676.317	0.0146897
676.395	0.0146333
676.473	0.0145927
676.551	0.0146891
676.629	0.0148075
676.707	0.0147234
676.785	0.0146447
676.863	0.0148277
676.942	0.0147698
677.020	0.0145509
677.098	0.0147676
677.176	0.0147101
677.254	0.0146970
677.332	0.0146676
677.410	0.0147514
677.488	0.0147145
677.567	0.0146338
677.645	0.0147224
677.723	0.0146439
677.801	0.0147763
677.879	0.0147146
677.957	0.0147516
678.035	0.0147920
678.113	0.0148144
678.192	0.0148115
678.270	0.0147099
678.348	0.0147932
678.426	0.0147177
678.504	0.0148328
678.582	0.0146609
678.660	0.0146624
678.738	0.0147906
678.817	0.0148221
678.895	0.0148823
678.973	0.0146651
679.051	0.0147389
679.129	0.0147268
679.207	0.0148221
679.285	0.0148285
679.363	0.0148389
679.442	0.0147148
679.520	0.0147453
679.598	0.0147546
679.676	0.0148749
679.754	0.0148816
679.832	0.0148251
679.910	0.0148797
679.988	0.0147694
680.067	0.0149020
680.145	0.0149419
680.223	0.0148133
680.301	0.0146811
680.379	0.0147076
680.457	0.0149943
680.535	0.0147963
680.613	0.0148615
680.692	0.0148514
680.770	0.0149003
680.848	0.0148501
680.926	0.0149324
681.004	0.0149349
681.082	0.0149265
681.160	0.0148584
681.238	0.0150447
681.317	0.0149837
681.395	0.0148120
681.473	0.0149920
681.551	0.0149586
681.629	0.0149175
681.707	0.0149024
681.785	0.0149964
681.863	0.0149790
681.942	0.0148647
682.020	0.0149850
682.098	0.0150249
682.176	0.0149805
682.254	0.0149677
682.332	0.0149610
682.410	0.0149804
682.488	0.0150494
682.567	0.0149549
682.645	0.0150172
682.723	0.0149371
682.801	0.0149832
682.879	0.0149223
682.957	0.0149336
683.035	0.0151146
683.113	0.0150698
683.192	0.0150268
683.270	0.0149958
683.348	0.0149224
683.426	0.0149470
683.504	0.0148729
683.582	0.0149353
683.660	0.0148559
683.738	0.0148845
683.817	0.0150278
683.895	0.0148723
683.973	0.0148483
684.051	0.0148804
684.129	0.0147937
684.207	0.0148586
684.285	0.0148085
684.363	0.0149013
684.442	0.0147968
684.520	0.0149406
684.598	0.0150008
684.676	0.0148967
684.754	0.0148367
684.832	0.0148458
684.910	0.0148602
684.988	0.0148948
685.067	0.0148455
685.145	0.0148677
685.223	0.0148606
685.301	0.0148433
685.379	0.0147206
685.457	0.0149007
685.535	0.0148296
685.613	0.0149200
685.692	0.0147666
