05/28/2022	14:26:22	Ver.	4.1	UNKNOWN
Optical Delay	599.988409	Delta X		0.078125	Sweeps	1	Scan Rate	0/0
Coordinates	Axis 1	NaN	Axis 2	NaN	Axis 3	NaN	Axis 4	NaN	Axis 5	NaN	Axis 6	0.000000
TX Power	0.000000	RX Power	0.000000

599.988	0.0146457
600.067	0.0144685
600.145	0.0146240
600.223	0.0146426
600.301	0.0147317
600.379	0.0145929
600.457	0.0146122
600.535	0.0146925
600.613	0.0144681
600.692	0.0146818
600.770	0.0145191
600.848	0.0145915
600.926	0.0146539
601.004	0.0146533
601.082	0.0146857
601.160	0.0147405
601.238	0.0146051
601.317	0.0146611
601.395	0.0145945
601.473	0.0146207
601.551	0.0147510
601.629	0.0146581
601.707	0.0145017
601.785	0.0147089
601.863	0.0145653
601.942	0.0145822
602.020	0.0147069
602.098	0.0145475
602.176	0.0147293
602.254	0.0145288
602.332	0.0146120
602.410	0.0145660
602.488	0.0146089
602.567	0.0144637
602.645	0.0147055
602.723	0.0147363
602.801	0.0146558
602.879	0.0145213
602.957	0.0145242
603.035	0.0145985
603.113	0.0145839
603.192	0.0145155
603.270	0.0146661
603.348	0.0145646
603.426	0.0144941
603.504	0.0146510
603.582	0.0145448
603.660	0.0145968
603.738	0.0144772
603.817	0.0145049
603.895	0.0144857
603.973	0.0145959
604.051	0.0145272
604.129	0.0145808
604.207	0.0145152
604.285	0.0145448
604.363	0.0147378
604.442	0.0146360
604.520	0.0146423
604.598	0.0144858
604.676	0.0146377
604.754	0.0145037
604.832	0.0145644
604.910	0.0145622
604.988	0.0146080
605.067	0.0146668
605.145	0.0146602
605.223	0.0147243
605.301	0.0145966
605.379	0.0145918
605.457	0.0146783
605.535	0.0146420
605.613	0.0146746
605.692	0.0145061
605.770	0.0146668
605.848	0.0146897
605.926	0.0148090
606.004	0.0146924
606.082	0.0146912
606.160	0.0146371
606.238	0.0146556
606.317	0.0146523
606.395	0.0145695
606.473	0.0146548
606.551	0.0145053
606.629	0.0146370
606.707	0.0147328
606.785	0.0144949
606.863	0.0147237
606.942	0.0145673
607.020	0.0146386
607.098	0.0147062
607.176	0.0147006
607.254	0.0144423
607.332	0.0147317
607.410	0.0145978
607.488	0.0145476
607.567	0.0144832
607.645	0.0145778
607.723	0.0147133
607.801	0.0145432
607.879	0.0146215
607.957	0.0146303
608.035	0.0145703
608.113	0.0146590
608.192	0.0145648
608.270	0.0146732
608.348	0.0145615
608.426	0.0146252
608.504	0.0146976
608.582	0.0146384
608.660	0.0146239
608.738	0.0147460
608.817	0.0146993
608.895	0.0146266
608.973	0.0145631
609.051	0.0146053
609.129	0.0146447
609.207	0.0146404
609.285	0.0147239
609.363	0.0146175
609.442	0.0145840
609.520	0.0145839
609.598	0.0146163
609.676	0.0147254
609.754	0.0146825
609.832	0.0146780
609.910	0.0146603
609.988	0.0146078
610.067	0.0146800
610.145	0.0146015
610.223	0.0145758
610.301	0.0147363
610.379	0.0146761
610.457	0.0145890
610.535	0.0146502
610.613	0.0148011
610.692	0.0147190
610.770	0.0146533
610.848	0.0146279
610.926	0.0147309
611.004	0.0145962
611.082	0.0146148
611.160	0.0146040
611.238	0.0145903
611.317	0.0146126
611.395	0.0145284
611.473	0.0146107
611.551	0.0145870
611.629	0.0146012
611.707	0.0146243
611.785	0.0146270
611.863	0.0145432
611.942	0.0145110
612.020	0.0146310
612.098	0.0146419
612.176	0.0145302
612.254	0.0144029
612.332	0.0144866
612.410	0.0145519
612.488	0.0145257
612.567	0.0144614
612.645	0.0143555
612.723	0.0144042
612.801	0.0143871
612.879	0.0144048
612.957	0.0144614
613.035	0.0145525
613.113	0.0144880
613.192	0.0144026
613.270	0.0145170
613.348	0.0145734
613.426	0.0144596
613.504	0.0146344
613.582	0.0146699
613.660	0.0145710
613.738	0.0146007
613.817	0.0146043
613.895	0.0147838
613.973	0.0147672
614.051	0.0148248
614.129	0.0146503
614.207	0.0148025
614.285	0.0146574
614.363	0.0148896
614.442	0.0148699
614.520	0.0148395
614.598	0.0148436
614.676	0.0147991
614.754	0.0146250
614.832	0.0146887
614.910	0.0146328
614.988	0.0146392
615.067	0.0148174
615.145	0.0147175
615.223	0.0144860
615.301	0.0144321
615.379	0.0144495
615.457	0.0145203
615.535	0.0146059
615.613	0.0145244
615.692	0.0146265
615.770	0.0146780
615.848	0.0146356
615.926	0.0144173
616.004	0.0146918
616.082	0.0146082
616.160	0.0146165
616.238	0.0146516
616.317	0.0146881
616.395	0.0146611
616.473	0.0146080
616.551	0.0146503
616.629	0.0147716
616.707	0.0146550
616.785	0.0145723
616.863	0.0146527
616.942	0.0145251
617.020	0.0146752
617.098	0.0146288
617.176	0.0146114
617.254	0.0145063
617.332	0.0146432
617.410	0.0144918
617.488	0.0146498
617.567	0.0146766
617.645	0.0145477
617.723	0.0145354
617.801	0.0144692
617.879	0.0144863
617.957	0.0146731
618.035	0.0146577
618.113	0.0145872
618.192	0.0145041
618.270	0.0145988
618.348	0.0146398
618.426	0.0145874
618.504	0.0145912
618.582	0.0145502
618.660	0.0145879
618.738	0.0146957
618.817	0.0146647
618.895	0.0145988
618.973	0.0146900
619.051	0.0146352
619.129	0.0146751
619.207	0.0146264
619.285	0.0145981
619.363	0.0145355
619.442	0.0147245
619.520	0.0147250
619.598	0.0145923
619.676	0.0146761
619.754	0.0145356
619.832	0.0147987
619.910	0.0146216
619.988	0.0146223
620.067	0.0146789
620.145	0.0145321
620.223	0.0144838
620.301	0.0146143
620.379	0.0147500
620.457	0.0145410
620.535	0.0144374
620.613	0.0147654
620.692	0.0146770
620.770	0.0145573
620.848	0.0144602
620.926	0.0146268
621.004	0.0146061
621.082	0.0145929
621.160	0.0145521
621.238	0.0144756
621.317	0.0146576
621.395	0.0146031
621.473	0.0146944
621.551	0.0145825
621.629	0.0142886
621.707	0.0145610
621.785	0.0146683
621.863	0.0145956
621.942	0.0145394
622.020	0.0146361
622.098	0.0146048
622.176	0.0146017
622.254	0.0146365
622.332	0.0146578
622.410	0.0147314
622.488	0.0146025
622.567	0.0146317
622.645	0.0147539
622.723	0.0146792
622.801	0.0146205
622.879	0.0145761
622.957	0.0146554
623.035	0.0146858
623.113	0.0145939
623.192	0.0145733
623.270	0.0146389
623.348	0.0147395
623.426	0.0146889
623.504	0.0146954
623.582	0.0146567
623.660	0.0146445
623.738	0.0145520
623.817	0.0146146
623.895	0.0145850
623.973	0.0146364
624.051	0.0147019
624.129	0.0146303
624.207	0.0146527
624.285	0.0146275
624.363	0.0149012
624.442	0.0147623
624.520	0.0146191
624.598	0.0146487
624.676	0.0147481
624.754	0.0146919
624.832	0.0145818
624.910	0.0146285
624.988	0.0145860
625.067	0.0145856
625.145	0.0146083
625.223	0.0146923
625.301	0.0146112
625.379	0.0145645
625.457	0.0145132
625.535	0.0146166
625.613	0.0145873
625.692	0.0146558
625.770	0.0145945
625.848	0.0145490
625.926	0.0145638
626.004	0.0145310
626.082	0.0145845
626.160	0.0146378
626.238	0.0145591
626.317	0.0145721
626.395	0.0146806
626.473	0.0144847
626.551	0.0145398
626.629	0.0145921
626.707	0.0145963
626.785	0.0145517
626.863	0.0145882
626.942	0.0145422
627.020	0.0144874
627.098	0.0145297
627.176	0.0147802
627.254	0.0146001
627.332	0.0145836
627.410	0.0145173
627.488	0.0145950
627.567	0.0146000
627.645	0.0145679
627.723	0.0145158
627.801	0.0145109
627.879	0.0147194
627.957	0.0146001
628.035	0.0146178
628.113	0.0144955
628.192	0.0146117
628.270	0.0144817
628.348	0.0143879
628.426	0.0146103
628.504	0.0146645
628.582	0.0145457
628.660	0.0146098
628.738	0.0146930
628.817	0.0145674
628.895	0.0146056
628.973	0.0145950
629.051	0.0144362
629.129	0.0146893
629.207	0.0146178
629.285	0.0145261
629.363	0.0146552
629.442	0.0147050
629.520	0.0146082
629.598	0.0146596
629.676	0.0145793
629.754	0.0146356
629.832	0.0145786
629.910	0.0146073
629.988	0.0147893
630.067	0.0146626
630.145	0.0147072
630.223	0.0147234
630.301	0.0147152
630.379	0.0148327
630.457	0.0146517
630.535	0.0148471
630.613	0.0146507
630.692	0.0146911
630.770	0.0147669
630.848	0.0146822
630.926	0.0147572
631.004	0.0146931
631.082	0.0148460
631.160	0.0149081
631.238	0.0146831
631.317	0.0147872
631.395	0.0146959
631.473	0.0147012
631.551	0.0147758
631.629	0.0147279
631.707	0.0146148
631.785	0.0146616
631.863	0.0145385
631.942	0.0147379
632.020	0.0147437
632.098	0.0147569
632.176	0.0146772
632.254	0.0145229
632.332	0.0146187
632.410	0.0145695
632.488	0.0146767
632.567	0.0147087
632.645	0.0147348
632.723	0.0146618
632.801	0.0144862
632.879	0.0148114
632.957	0.0145882
633.035	0.0146191
633.113	0.0145669
633.192	0.0147038
633.270	0.0147739
633.348	0.0146124
633.426	0.0147950
633.504	0.0148013
633.582	0.0146378
633.660	0.0145901
633.738	0.0146756
633.817	0.0146529
633.895	0.0146204
633.973	0.0147558
634.051	0.0147002
634.129	0.0147477
634.207	0.0148009
634.285	0.0146770
634.363	0.0147318
634.442	0.0146844
634.520	0.0146589
634.598	0.0146299
634.676	0.0146903
634.754	0.0147222
634.832	0.0145786
634.910	0.0146506
634.988	0.0146336
635.067	0.0143560
635.145	0.0145370
635.223	0.0144976
635.301	0.0146561
635.379	0.0145474
635.457	0.0145100
635.535	0.0146108
635.613	0.0145654
635.692	0.0146046
635.770	0.0144802
635.848	0.0143999
635.926	0.0145594
636.004	0.0145800
636.082	0.0147160
636.160	0.0146520
636.238	0.0147318
636.317	0.0146716
636.395	0.0145773
636.473	0.0147036
636.551	0.0147289
636.629	0.0146823
636.707	0.0148025
636.785	0.0147456
636.863	0.0147019
636.942	0.0146413
637.020	0.0146648
637.098	0.0146648
637.176	0.0146265
637.254	0.0145858
637.332	0.0146526
637.410	0.0147633
637.488	0.0146698
637.567	0.0146798
637.645	0.0146306
637.723	0.0146185
637.801	0.0146824
637.879	0.0146669
637.957	0.0146110
638.035	0.0146262
638.113	0.0146661
638.192	0.0145762
638.270	0.0146548
638.348	0.0146521
638.426	0.0146920
638.504	0.0146562
638.582	0.0147062
638.660	0.0147873
638.738	0.0146248
638.817	0.0146069
638.895	0.0145260
638.973	0.0145293
639.051	0.0145021
639.129	0.0145568
639.207	0.0144421
639.285	0.0144493
639.363	0.0143678
639.442	0.0142047
639.520	0.0141302
639.598	0.0143203
639.676	0.0143069
639.754	0.0142725
639.832	0.0142229
639.910	0.0143971
639.988	0.0143386
640.067	0.0143238
640.145	0.0145185
640.223	0.0143491
640.301	0.0143204
640.379	0.0144541
640.457	0.0145089
640.535	0.0144837
640.613	0.0146495
640.692	0.0144711
640.770	0.0145389
640.848	0.0146297
640.926	0.0144687
641.004	0.0144981
641.082	0.0145260
641.160	0.0145522
641.238	0.0146270
641.317	0.0146866
641.395	0.0147195
641.473	0.0148268
641.551	0.0147706
641.629	0.0148443
641.707	0.0148052
641.785	0.0147604
641.863	0.0147041
641.942	0.0147578
642.020	0.0147671
642.098	0.0147101
642.176	0.0147952
642.254	0.0147174
642.332	0.0146187
642.410	0.0144726
642.488	0.0144954
642.567	0.0145777
642.645	0.0146017
642.723	0.0144358
642.801	0.0144041
642.879	0.0145577
642.957	0.0144136
643.035	0.0142735
643.113	0.0144279
643.192	0.0143100
643.270	0.0142535
643.348	0.0141917
643.426	0.0143849
643.504	0.0141889
643.582	0.0143539
643.660	0.0140938
643.738	0.0141325
643.817	0.0141746
643.895	0.0140623
643.973	0.0138890
644.051	0.0140895
644.129	0.0141154
644.207	0.0140537
644.285	0.0141295
644.363	0.0142596
644.442	0.0142250
644.520	0.0143054
644.598	0.0143559
644.676	0.0144332
644.754	0.0143826
644.832	0.0144523
644.910	0.0144801
644.988	0.0145295
645.067	0.0146661
645.145	0.0147322
645.223	0.0146819
645.301	0.0146333
645.379	0.0148010
645.457	0.0149767
645.535	0.0148384
645.613	0.0147241
645.692	0.0147701
645.770	0.0148122
645.848	0.0147885
645.926	0.0147905
646.004	0.0148341
646.082	0.0147984
646.160	0.0147648
646.238	0.0148283
646.317	0.0147785
646.395	0.0147085
646.473	0.0147838
646.551	0.0148353
646.629	0.0148787
646.707	0.0148514
646.785	0.0148154
646.863	0.0148866
646.942	0.0147861
647.020	0.0148307
647.098	0.0148134
647.176	0.0145898
647.254	0.0145993
647.332	0.0146980
647.410	0.0145727
647.488	0.0147592
647.567	0.0145224
647.645	0.0143555
647.723	0.0143262
647.801	0.0142493
647.879	0.0141984
647.957	0.0143105
648.035	0.0141928
648.113	0.0143269
648.192	0.0142454
648.270	0.0142502
648.348	0.0142170
648.426	0.0142387
648.504	0.0143081
648.582	0.0143826
648.660	0.0143602
648.738	0.0142899
648.817	0.0144383
648.895	0.0144665
648.973	0.0144560
649.051	0.0143301
649.129	0.0143314
649.207	0.0142381
649.285	0.0142944
649.363	0.0144252
649.442	0.0142822
649.520	0.0143493
649.598	0.0144366
649.676	0.0141859
649.754	0.0142696
649.832	0.0142986
649.910	0.0143307
649.988	0.0144238
650.067	0.0143005
650.145	0.0144131
650.223	0.0145356
650.301	0.0145962
650.379	0.0145435
650.457	0.0146411
650.535	0.0146700
650.613	0.0146576
650.692	0.0147345
650.770	0.0147886
650.848	0.0146922
650.926	0.0147903
651.004	0.0149712
651.082	0.0148180
651.160	0.0147246
651.238	0.0148620
651.317	0.0147714
651.395	0.0148820
651.473	0.0147662
651.551	0.0149449
651.629	0.0148604
651.707	0.0148455
651.785	0.0147943
651.863	0.0148129
651.942	0.0148090
652.020	0.0149061
652.098	0.0147732
652.176	0.0148582
652.254	0.0147923
652.332	0.0148684
652.410	0.0147488
652.488	0.0148200
652.567	0.0146227
652.645	0.0146484
652.723	0.0146618
652.801	0.0145626
652.879	0.0145657
652.957	0.0144612
653.035	0.0144344
653.113	0.0145768
653.192	0.0144270
653.270	0.0142316
653.348	0.0141927
653.426	0.0142202
653.504	0.0142099
653.582	0.0141538
653.660	0.0142182
653.738	0.0141758
653.817	0.0141467
653.895	0.0141969
653.973	0.0143869
654.051	0.0142348
654.129	0.0142899
654.207	0.0143797
654.285	0.0142905
654.363	0.0144209
654.442	0.0145062
654.520	0.0144108
654.598	0.0145076
654.676	0.0146275
654.754	0.0145071
654.832	0.0144799
654.910	0.0145498
654.988	0.0146729
655.067	0.0146571
655.145	0.0147170
655.223	0.0147269
655.301	0.0148154
655.379	0.0147736
655.457	0.0147929
655.535	0.0148730
655.613	0.0148079
655.692	0.0148669
655.770	0.0148854
655.848	0.0148374
655.926	0.0147237
656.004	0.0147046
656.082	0.0148370
656.160	0.0147923
656.238	0.0148377
656.317	0.0148454
656.395	0.0150397
656.473	0.0149837
656.551	0.0150338
656.629	0.0149111
656.707	0.0150452
656.785	0.0150118
656.863	0.0149895
656.942	0.0150005
657.020	0.0150701
657.098	0.0150869
657.176	0.0150592
657.254	0.0149043
657.332	0.0150847
657.410	0.0149802
657.488	0.0149824
657.567	0.0149848
657.645	0.0147565
657.723	0.0147741
657.801	0.0147177
657.879	0.0144499
657.957	0.0145342
658.035	0.0144659
658.113	0.0143933
658.192	0.0142754
658.270	0.0140194
658.348	0.0140926
658.426	0.0139726
658.504	0.0140341
658.582	0.0140629
658.660	0.0139037
658.738	0.0138274
658.817	0.0139459
658.895	0.0138004
658.973	0.0138058
659.051	0.0139778
659.129	0.0139209
659.207	0.0140642
659.285	0.0141097
659.363	0.0140755
659.442	0.0141880
659.520	0.0142271
659.598	0.0144860
659.676	0.0145411
659.754	0.0145766
659.832	0.0145223
659.910	0.0147112
659.988	0.0147234
660.067	0.0147925
660.145	0.0146813
660.223	0.0147164
660.301	0.0148613
660.379	0.0147768
660.457	0.0148701
660.535	0.0148750
660.613	0.0146671
660.692	0.0146275
660.770	0.0146621
660.848	0.0144646
660.926	0.0146559
661.004	0.0146307
661.082	0.0145494
661.160	0.0146336
661.238	0.0145142
661.317	0.0144830
661.395	0.0143345
661.473	0.0144708
661.551	0.0144292
661.629	0.0143301
661.707	0.0142518
661.785	0.0143577
661.863	0.0144019
661.942	0.0143991
662.020	0.0143250
662.098	0.0143813
662.176	0.0144886
662.254	0.0145259
662.332	0.0145885
662.410	0.0145724
662.488	0.0147037
662.567	0.0147752
662.645	0.0146894
662.723	0.0146896
662.801	0.0148237
662.879	0.0147688
662.957	0.0147933
663.035	0.0148720
663.113	0.0147533
663.192	0.0146994
663.270	0.0148038
663.348	0.0147411
663.426	0.0147114
663.504	0.0145450
663.582	0.0145769
663.660	0.0144636
663.738	0.0144290
663.817	0.0143826
663.895	0.0144618
663.973	0.0142903
664.051	0.0141720
664.129	0.0141984
664.207	0.0142669
664.285	0.0140904
664.363	0.0139916
664.442	0.0141292
664.520	0.0141047
664.598	0.0140476
664.676	0.0139192
664.754	0.0142786
664.832	0.0141704
664.910	0.0139600
664.988	0.0140742
665.067	0.0140972
665.145	0.0139404
665.223	0.0140950
665.301	0.0141722
665.379	0.0140074
665.457	0.0141160
665.535	0.0141096
665.613	0.0141227
665.692	0.0143259
665.770	0.0142892
665.848	0.0142560
665.926	0.0144356
666.004	0.0143576
666.082	0.0145626
666.160	0.0147005
666.238	0.0147382
666.317	0.0149091
666.395	0.0148038
666.473	0.0148412
666.551	0.0148215
666.629	0.0148501
666.707	0.0149901
666.785	0.0149959
666.863	0.0149384
666.942	0.0148882
667.020	0.0148295
667.098	0.0148624
667.176	0.0146832
667.254	0.0145744
667.332	0.0145873
667.410	0.0146114
667.488	0.0144827
667.567	0.0144346
667.645	0.0143154
667.723	0.0143092
667.801	0.0143580
667.879	0.0141877
667.957	0.0143518
668.035	0.0143087
668.113	0.0143357
668.192	0.0141746
668.270	0.0140970
668.348	0.0141551
668.426	0.0142017
668.504	0.0140211
668.582	0.0142004
668.660	0.0142304
668.738	0.0142371
668.817	0.0142110
668.895	0.0142510
668.973	0.0140555
669.051	0.0141968
669.129	0.0142050
669.207	0.0141460
669.285	0.0142799
669.363	0.0143742
669.442	0.0142652
669.520	0.0144405
669.598	0.0144273
669.676	0.0144521
669.754	0.0144684
669.832	0.0143369
669.910	0.0144994
669.988	0.0144711
670.067	0.0146909
670.145	0.0146799
670.223	0.0147182
670.301	0.0148742
670.379	0.0148813
670.457	0.0148157
670.535	0.0148604
670.613	0.0148063
670.692	0.0149020
670.770	0.0149981
670.848	0.0148643
670.926	0.0150599
671.004	0.0150195
671.082	0.0149821
671.160	0.0147604
671.238	0.0148597
671.317	0.0151011
671.395	0.0150586
671.473	0.0148938
671.551	0.0149616
671.629	0.0147314
671.707	0.0146301
671.785	0.0145699
671.863	0.0144671
671.942	0.0144003
672.020	0.0143293
672.098	0.0141263
672.176	0.0140392
672.254	0.0140453
672.332	0.0139543
672.410	0.0140086
672.488	0.0140576
672.567	0.0140553
672.645	0.0140464
672.723	0.0142189
672.801	0.0142278
672.879	0.0143409
672.957	0.0144465
673.035	0.0145753
673.113	0.0147002
673.192	0.0148030
673.270	0.0148564
673.348	0.0149426
673.426	0.0151277
673.504	0.0151175
673.582	0.0151495
673.660	0.0148933
673.738	0.0152543
673.817	0.0152551
673.895	0.0150741
673.973	0.0151394
674.051	0.0150880
674.129	0.0151171
674.207	0.0149992
674.285	0.0150607
674.363	0.0150968
674.442	0.0149078
674.520	0.0147477
674.598	0.0147950
674.676	0.0148409
674.754	0.0147353
674.832	0.0147232
674.910	0.0146417
674.988	0.0147190
675.067	0.0147100
675.145	0.0146324
675.223	0.0145015
675.301	0.0144746
675.379	0.0146293
675.457	0.0145170
675.535	0.0145250
675.613	0.0144297
675.692	0.0144181
675.770	0.0145296
675.848	0.0144775
675.926	0.0143603
676.004	0.0142899
676.082	0.0142807
676.160	0.0143140
676.238	0.0144302
676.317	0.0145954
676.395	0.0145775
676.473	0.0145480
676.551	0.0145601
676.629	0.0145353
676.707	0.0144441
676.785	0.0146400
676.863	0.0147824
676.942	0.0147887
677.020	0.0148497
677.098	0.0147668
677.176	0.0148457
677.254	0.0148657
677.332	0.0150610
677.410	0.0149629
677.488	0.0150736
677.567	0.0150795
677.645	0.0150831
677.723	0.0150504
677.801	0.0149884
677.879	0.0149434
677.957	0.0150399
678.035	0.0150346
678.113	0.0148827
678.192	0.0147273
678.270	0.0148135
678.348	0.0149157
678.426	0.0147298
678.504	0.0145802
678.582	0.0145272
678.660	0.0143575
678.738	0.0142268
678.817	0.0142188
678.895	0.0141459
678.973	0.0139971
679.051	0.0140830
679.129	0.0138508
679.207	0.0136173
679.285	0.0137971
679.363	0.0138713
679.442	0.0139874
679.520	0.0138815
679.598	0.0138790
679.676	0.0139682
679.754	0.0141045
679.832	0.0141804
679.910	0.0143439
679.988	0.0143685
680.067	0.0144310
680.145	0.0146799
680.223	0.0145222
680.301	0.0147606
680.379	0.0149916
680.457	0.0148460
680.535	0.0149262
680.613	0.0149523
680.692	0.0150360
680.770	0.0150441
680.848	0.0150709
680.926	0.0152538
681.004	0.0151973
681.082	0.0151671
681.160	0.0151463
681.238	0.0150127
681.317	0.0151630
681.395	0.0152907
681.473	0.0153078
681.551	0.0152104
681.629	0.0153178
681.707	0.0154210
681.785	0.0153011
681.863	0.0150488
681.942	0.0152253
682.020	0.0150935
682.098	0.0150158
682.176	0.0148298
682.254	0.0148248
682.332	0.0146195
682.410	0.0145599
682.488	0.0144511
682.567	0.0143516
682.645	0.0140373
682.723	0.0138741
682.801	0.0137937
682.879	0.0136855
682.957	0.0136541
683.035	0.0135059
683.113	0.0134103
683.192	0.0135295
683.270	0.0133098
683.348	0.0133300
683.426	0.0133663
683.504	0.0134325
683.582	0.0134772
683.660	0.0135320
683.738	0.0137908
683.817	0.0136642
683.895	0.0138002
683.973	0.0138918
684.051	0.0140604
684.129	0.0142716
684.207	0.0143790
684.285	0.0144531
684.363	0.0145854
684.442	0.0146682
684.520	0.0146546
684.598	0.0148934
684.676	0.0150724
684.754	0.0151888
684.832	0.0152298
684.910	0.0152482
684.988	0.0153793
685.067	0.0153722
685.145	0.0157162
685.223	0.0156932
685.301	0.0156863
685.379	0.0156716
685.457	0.0156552
685.535	0.0156319
685.613	0.0155066
685.692	0.0155814
