05/28/2022	14:27:02	Ver.	4.1	UNKNOWN
Optical Delay	599.988409	Delta X		0.078125	Sweeps	1	Scan Rate	0/0
Coordinates	Axis 1	NaN	Axis 2	NaN	Axis 3	NaN	Axis 4	NaN	Axis 5	NaN	Axis 6	0.000000
TX Power	0.000000	RX Power	0.000000

599.988	0.0144472
600.067	0.0144805
600.145	0.0145394
600.223	0.0144395
600.301	0.0145207
600.379	0.0145867
600.457	0.0145155
600.535	0.0145105
600.613	0.0145086
600.692	0.0145238
600.770	0.0144559
600.848	0.0144746
600.926	0.0146027
601.004	0.0144767
601.082	0.0145097
601.160	0.0145011
601.238	0.0144656
601.317	0.0144141
601.395	0.0143991
601.473	0.0145331
601.551	0.0145608
601.629	0.0145500
601.707	0.0144434
601.785	0.0144188
601.863	0.0144695
601.942	0.0145457
602.020	0.0144440
602.098	0.0145433
602.176	0.0145222
602.254	0.0143816
602.332	0.0144939
602.410	0.0144931
602.488	0.0145740
602.567	0.0144013
602.645	0.0144121
602.723	0.0144437
602.801	0.0145881
602.879	0.0144948
602.957	0.0144817
603.035	0.0145626
603.113	0.0145677
603.192	0.0144547
603.270	0.0144933
603.348	0.0144328
603.426	0.0143526
603.504	0.0145341
603.582	0.0144732
603.660	0.0143088
603.738	0.0143889
603.817	0.0144268
603.895	0.0145231
603.973	0.0144466
604.051	0.0145277
604.129	0.0143773
604.207	0.0144005
604.285	0.0145190
604.363	0.0145120
604.442	0.0145036
604.520	0.0144131
604.598	0.0145162
604.676	0.0144817
604.754	0.0144859
604.832	0.0144122
604.910	0.0145464
604.988	0.0144255
605.067	0.0143496
605.145	0.0143093
605.223	0.0144004
605.301	0.0144021
605.379	0.0143623
605.457	0.0143688
605.535	0.0143599
605.613	0.0143130
605.692	0.0142916
605.770	0.0142221
605.848	0.0142767
605.926	0.0143249
606.004	0.0142136
606.082	0.0141518
606.160	0.0141393
606.238	0.0141714
606.317	0.0142441
606.395	0.0141365
606.473	0.0140337
606.551	0.0142149
606.629	0.0141363
606.707	0.0142195
606.785	0.0143655
606.863	0.0144464
606.942	0.0142038
607.020	0.0142598
607.098	0.0143105
607.176	0.0144778
607.254	0.0144148
607.332	0.0143834
607.410	0.0143806
607.488	0.0145135
607.567	0.0145551
607.645	0.0144807
607.723	0.0143662
607.801	0.0145824
607.879	0.0145800
607.957	0.0146064
608.035	0.0145634
608.113	0.0145639
608.192	0.0144363
608.270	0.0145891
608.348	0.0144735
608.426	0.0144904
608.504	0.0142976
608.582	0.0143974
608.660	0.0145006
608.738	0.0144259
608.817	0.0143552
608.895	0.0143165
608.973	0.0143162
609.051	0.0144434
609.129	0.0144249
609.207	0.0143210
609.285	0.0142688
609.363	0.0142622
609.442	0.0142577
609.520	0.0143657
609.598	0.0143984
609.676	0.0142941
609.754	0.0141764
609.832	0.0143017
609.910	0.0142664
609.988	0.0142945
610.067	0.0143449
610.145	0.0143111
610.223	0.0142995
610.301	0.0143192
610.379	0.0144402
610.457	0.0144167
610.535	0.0143915
610.613	0.0142966
610.692	0.0141706
610.770	0.0142509
610.848	0.0143275
610.926	0.0144409
611.004	0.0143085
611.082	0.0142503
611.160	0.0144462
611.238	0.0143719
611.317	0.0143119
611.395	0.0144135
611.473	0.0144241
611.551	0.0144376
611.629	0.0145304
611.707	0.0144155
611.785	0.0144813
611.863	0.0145160
611.942	0.0144563
612.020	0.0145105
612.098	0.0143224
612.176	0.0144548
612.254	0.0145461
612.332	0.0144717
612.410	0.0145222
612.488	0.0144919
612.567	0.0145011
612.645	0.0144845
612.723	0.0146265
612.801	0.0144228
612.879	0.0145359
612.957	0.0145290
613.035	0.0143229
613.113	0.0144450
613.192	0.0145284
613.270	0.0144909
613.348	0.0144003
613.426	0.0143433
613.504	0.0144215
613.582	0.0145016
613.660	0.0145474
613.738	0.0144837
613.817	0.0144414
613.895	0.0143983
613.973	0.0142605
614.051	0.0144778
614.129	0.0144231
614.207	0.0144003
614.285	0.0143593
614.363	0.0143616
614.442	0.0142655
614.520	0.0143661
614.598	0.0144837
614.676	0.0143764
614.754	0.0142583
614.832	0.0142657
614.910	0.0143893
614.988	0.0143031
615.067	0.0144877
615.145	0.0143060
615.223	0.0144688
615.301	0.0143877
615.379	0.0143929
615.457	0.0143574
615.535	0.0143015
615.613	0.0144615
615.692	0.0142609
615.770	0.0144793
615.848	0.0144265
615.926	0.0143543
616.004	0.0144521
616.082	0.0144868
616.160	0.0143726
616.238	0.0144562
616.317	0.0143591
616.395	0.0145624
616.473	0.0144860
616.551	0.0144344
616.629	0.0143713
616.707	0.0142413
616.785	0.0143127
616.863	0.0143177
616.942	0.0142844
617.020	0.0143470
617.098	0.0144679
617.176	0.0143374
617.254	0.0143496
617.332	0.0143887
617.410	0.0142729
617.488	0.0142953
617.567	0.0144252
617.645	0.0144250
617.723	0.0143393
617.801	0.0141702
617.879	0.0143216
617.957	0.0143829
618.035	0.0142455
618.113	0.0143294
618.192	0.0142913
618.270	0.0143858
618.348	0.0143700
618.426	0.0144209
618.504	0.0143483
618.582	0.0144660
618.660	0.0142716
618.738	0.0143687
618.817	0.0144059
618.895	0.0143139
618.973	0.0143409
619.051	0.0145000
619.129	0.0144656
619.207	0.0144467
619.285	0.0143496
619.363	0.0143246
619.442	0.0142973
619.520	0.0143925
619.598	0.0143874
619.676	0.0144202
619.754	0.0144070
619.832	0.0143558
619.910	0.0144107
619.988	0.0144794
620.067	0.0145203
620.145	0.0142312
620.223	0.0144157
620.301	0.0144288
620.379	0.0144707
620.457	0.0143421
620.535	0.0145572
620.613	0.0144590
620.692	0.0143569
620.770	0.0146325
620.848	0.0145715
620.926	0.0143549
621.004	0.0144258
621.082	0.0144998
621.160	0.0145524
621.238	0.0143810
621.317	0.0144785
621.395	0.0146178
621.473	0.0145044
621.551	0.0144676
621.629	0.0144441
621.707	0.0144502
621.785	0.0143607
621.863	0.0145352
621.942	0.0144456
622.020	0.0146239
622.098	0.0145550
622.176	0.0145064
622.254	0.0146006
622.332	0.0145270
622.410	0.0144573
622.488	0.0145582
622.567	0.0144341
622.645	0.0145210
622.723	0.0146147
622.801	0.0145416
622.879	0.0145267
622.957	0.0144700
623.035	0.0143799
623.113	0.0146500
623.192	0.0144486
623.270	0.0145158
623.348	0.0145192
623.426	0.0144405
623.504	0.0144447
623.582	0.0144524
623.660	0.0143907
623.738	0.0144913
623.817	0.0144628
623.895	0.0144975
623.973	0.0143995
624.051	0.0144472
624.129	0.0144114
624.207	0.0145048
624.285	0.0144542
624.363	0.0145491
624.442	0.0145426
624.520	0.0144186
624.598	0.0143977
624.676	0.0143824
624.754	0.0144499
624.832	0.0144420
624.910	0.0144656
624.988	0.0144331
625.067	0.0144427
625.145	0.0145525
625.223	0.0144264
625.301	0.0143937
625.379	0.0144126
625.457	0.0145468
625.535	0.0144817
625.613	0.0144116
625.692	0.0144572
625.770	0.0145470
625.848	0.0144521
625.926	0.0143937
626.004	0.0144500
626.082	0.0144743
626.160	0.0144429
626.238	0.0143988
626.317	0.0144265
626.395	0.0145676
626.473	0.0145654
626.551	0.0145027
626.629	0.0144718
626.707	0.0144257
626.785	0.0144103
626.863	0.0145468
626.942	0.0144720
627.020	0.0143891
627.098	0.0144794
627.176	0.0144174
627.254	0.0143638
627.332	0.0145701
627.410	0.0143961
627.488	0.0145683
627.567	0.0144748
627.645	0.0145306
627.723	0.0145603
627.801	0.0144328
627.879	0.0145324
627.957	0.0145304
628.035	0.0143889
628.113	0.0143941
628.192	0.0143993
628.270	0.0144944
628.348	0.0145264
628.426	0.0143055
628.504	0.0143298
628.582	0.0145065
628.660	0.0143065
628.738	0.0143905
628.817	0.0143921
628.895	0.0144279
628.973	0.0144048
629.051	0.0143269
629.129	0.0143593
629.207	0.0144298
629.285	0.0143643
629.363	0.0142896
629.442	0.0143221
629.520	0.0143970
629.598	0.0143914
629.676	0.0144302
629.754	0.0143986
629.832	0.0144308
629.910	0.0142883
629.988	0.0142483
630.067	0.0143513
630.145	0.0143172
630.223	0.0143436
630.301	0.0143364
630.379	0.0142651
630.457	0.0142522
630.535	0.0143250
630.613	0.0143578
630.692	0.0143856
630.770	0.0143855
630.848	0.0141943
630.926	0.0142641
631.004	0.0142369
631.082	0.0141470
631.160	0.0142953
631.238	0.0141771
631.317	0.0142771
631.395	0.0143453
631.473	0.0141927
631.551	0.0141747
631.629	0.0143495
631.707	0.0143401
631.785	0.0142458
631.863	0.0143157
631.942	0.0143954
632.020	0.0142558
632.098	0.0144800
632.176	0.0144057
632.254	0.0143013
632.332	0.0142513
632.410	0.0144065
632.488	0.0144234
632.567	0.0143596
632.645	0.0143515
632.723	0.0143774
632.801	0.0144309
632.879	0.0142664
632.957	0.0145108
633.035	0.0144004
633.113	0.0146095
633.192	0.0144144
633.270	0.0143188
633.348	0.0143275
633.426	0.0143180
633.504	0.0142309
633.582	0.0143076
633.660	0.0142101
633.738	0.0142911
633.817	0.0143411
633.895	0.0142454
633.973	0.0142051
634.051	0.0140736
634.129	0.0142408
634.207	0.0143343
634.285	0.0142072
634.363	0.0142425
634.442	0.0142414
634.520	0.0143650
634.598	0.0143449
634.676	0.0144032
634.754	0.0141361
634.832	0.0144924
634.910	0.0144804
634.988	0.0144547
635.067	0.0144350
635.145	0.0145321
635.223	0.0145459
635.301	0.0144900
635.379	0.0145074
635.457	0.0146635
635.535	0.0145754
635.613	0.0146210
635.692	0.0145428
635.770	0.0144641
635.848	0.0145861
635.926	0.0145280
636.004	0.0143700
636.082	0.0146062
636.160	0.0146021
636.238	0.0143738
636.317	0.0143820
636.395	0.0143702
636.473	0.0145255
636.551	0.0143784
636.629	0.0142948
636.707	0.0143259
636.785	0.0143356
636.863	0.0144621
636.942	0.0144910
637.020	0.0143106
637.098	0.0143647
637.176	0.0144917
637.254	0.0145158
637.332	0.0145006
637.410	0.0145501
637.488	0.0143786
637.567	0.0143731
637.645	0.0145101
637.723	0.0144395
637.801	0.0144259
637.879	0.0144024
637.957	0.0142512
638.035	0.0142771
638.113	0.0142693
638.192	0.0140939
638.270	0.0141229
638.348	0.0142227
638.426	0.0141299
638.504	0.0140710
638.582	0.0140211
638.660	0.0140441
638.738	0.0141565
638.817	0.0141213
638.895	0.0140678
638.973	0.0142742
639.051	0.0141924
639.129	0.0143215
639.207	0.0142686
639.285	0.0143848
639.363	0.0144593
639.442	0.0144492
639.520	0.0143831
639.598	0.0143871
639.676	0.0146216
639.754	0.0146415
639.832	0.0145363
639.910	0.0145278
639.988	0.0146114
640.067	0.0147076
640.145	0.0148382
640.223	0.0145412
640.301	0.0145247
640.379	0.0147705
640.457	0.0147159
640.535	0.0147065
640.613	0.0146615
640.692	0.0147046
640.770	0.0147029
640.848	0.0147425
640.926	0.0146814
641.004	0.0147293
641.082	0.0147307
641.160	0.0146493
641.238	0.0146331
641.317	0.0145412
641.395	0.0145763
641.473	0.0145060
641.551	0.0144042
641.629	0.0143696
641.707	0.0142544
641.785	0.0142310
641.863	0.0143362
641.942	0.0143089
642.020	0.0143166
642.098	0.0140926
642.176	0.0141114
642.254	0.0141060
642.332	0.0140851
642.410	0.0141099
642.488	0.0139882
642.567	0.0139960
642.645	0.0139530
642.723	0.0139742
642.801	0.0138000
642.879	0.0140012
642.957	0.0140125
643.035	0.0140749
643.113	0.0139111
643.192	0.0140411
643.270	0.0141415
643.348	0.0142494
643.426	0.0141596
643.504	0.0144014
643.582	0.0143138
643.660	0.0144003
643.738	0.0145896
643.817	0.0146587
643.895	0.0145354
643.973	0.0144017
644.051	0.0145725
644.129	0.0146747
644.207	0.0147401
644.285	0.0149724
644.363	0.0148067
644.442	0.0147337
644.520	0.0146875
644.598	0.0147363
644.676	0.0148028
644.754	0.0147607
644.832	0.0147121
644.910	0.0146850
644.988	0.0147550
645.067	0.0145484
645.145	0.0146973
645.223	0.0145552
645.301	0.0146243
645.379	0.0145654
645.457	0.0146339
645.535	0.0145862
645.613	0.0145275
645.692	0.0144003
645.770	0.0144955
645.848	0.0144911
645.926	0.0145842
646.004	0.0143926
646.082	0.0142910
646.160	0.0143279
646.238	0.0143006
646.317	0.0142210
646.395	0.0142741
646.473	0.0142087
646.551	0.0140229
646.629	0.0141006
646.707	0.0141319
646.785	0.0140749
646.863	0.0140411
646.942	0.0139977
647.020	0.0140591
647.098	0.0140363
647.176	0.0140390
647.254	0.0141728
647.332	0.0142036
647.410	0.0139954
647.488	0.0141838
647.567	0.0141656
647.645	0.0142868
647.723	0.0143781
647.801	0.0143938
647.879	0.0142443
647.957	0.0141747
648.035	0.0144849
648.113	0.0144207
648.192	0.0143059
648.270	0.0144395
648.348	0.0143309
648.426	0.0142395
648.504	0.0143319
648.582	0.0143463
648.660	0.0142654
648.738	0.0142761
648.817	0.0143574
648.895	0.0144153
648.973	0.0143127
649.051	0.0145365
649.129	0.0145313
649.207	0.0146201
649.285	0.0144936
649.363	0.0145741
649.442	0.0147229
649.520	0.0145544
649.598	0.0146027
649.676	0.0148501
649.754	0.0147150
649.832	0.0147665
649.910	0.0146803
649.988	0.0144823
650.067	0.0146244
650.145	0.0146905
650.223	0.0145789
650.301	0.0145788
650.379	0.0144811
650.457	0.0144082
650.535	0.0143591
650.613	0.0144772
650.692	0.0144509
650.770	0.0143073
650.848	0.0143415
650.926	0.0143899
651.004	0.0144369
651.082	0.0144657
651.160	0.0143576
651.238	0.0144703
651.317	0.0144452
651.395	0.0143285
651.473	0.0143923
651.551	0.0144113
651.629	0.0142924
651.707	0.0142332
651.785	0.0142431
651.863	0.0143253
651.942	0.0143475
652.020	0.0141661
652.098	0.0141311
652.176	0.0139978
652.254	0.0140293
652.332	0.0138350
652.410	0.0137054
652.488	0.0135820
652.567	0.0137260
652.645	0.0138793
652.723	0.0138400
652.801	0.0137175
652.879	0.0138840
652.957	0.0137789
653.035	0.0138294
653.113	0.0138643
653.192	0.0138908
653.270	0.0139334
653.348	0.0139524
653.426	0.0140320
653.504	0.0141320
653.582	0.0140935
653.660	0.0141765
653.738	0.0141293
653.817	0.0142827
653.895	0.0142645
653.973	0.0143269
654.051	0.0143449
654.129	0.0142305
654.207	0.0144369
654.285	0.0145409
654.363	0.0144591
654.442	0.0144093
654.520	0.0146524
654.598	0.0145942
654.676	0.0144459
654.754	0.0146563
654.832	0.0145636
654.910	0.0147044
654.988	0.0146513
655.067	0.0146974
655.145	0.0147578
655.223	0.0146036
655.301	0.0146555
655.379	0.0146147
655.457	0.0146325
655.535	0.0146363
655.613	0.0145689
655.692	0.0145370
655.770	0.0144163
655.848	0.0144875
655.926	0.0145683
656.004	0.0144102
656.082	0.0143919
656.160	0.0143551
656.238	0.0143178
656.317	0.0142416
656.395	0.0143633
656.473	0.0141155
656.551	0.0142708
656.629	0.0143039
656.707	0.0142578
656.785	0.0142216
656.863	0.0142769
656.942	0.0144422
657.020	0.0142776
657.098	0.0143287
657.176	0.0142721
657.254	0.0141644
657.332	0.0141878
657.410	0.0141016
657.488	0.0139529
657.567	0.0139074
657.645	0.0140429
657.723	0.0140936
657.801	0.0138898
657.879	0.0139638
657.957	0.0137961
658.035	0.0138126
658.113	0.0137474
658.192	0.0137983
658.270	0.0138307
658.348	0.0138239
658.426	0.0138450
658.504	0.0139463
658.582	0.0140518
658.660	0.0140243
658.738	0.0142384
658.817	0.0142419
658.895	0.0143004
658.973	0.0142869
659.051	0.0143988
659.129	0.0144332
659.207	0.0145308
659.285	0.0147305
659.363	0.0148022
659.442	0.0148698
659.520	0.0147914
659.598	0.0148679
659.676	0.0148300
659.754	0.0149078
659.832	0.0148279
659.910	0.0147836
659.988	0.0148930
660.067	0.0148030
660.145	0.0146999
660.223	0.0146909
660.301	0.0146015
660.379	0.0146341
660.457	0.0145213
660.535	0.0144856
660.613	0.0143468
660.692	0.0144033
660.770	0.0143795
660.848	0.0143343
660.926	0.0142639
661.004	0.0141568
661.082	0.0142033
661.160	0.0143457
661.238	0.0143205
661.317	0.0143825
661.395	0.0145309
661.473	0.0144770
661.551	0.0146661
661.629	0.0146782
661.707	0.0146431
661.785	0.0145909
661.863	0.0147561
661.942	0.0148506
662.020	0.0148431
662.098	0.0148250
662.176	0.0147031
662.254	0.0147807
662.332	0.0146886
662.410	0.0146386
662.488	0.0144758
662.567	0.0144891
662.645	0.0144287
662.723	0.0142766
662.801	0.0143517
662.879	0.0142149
662.957	0.0141869
663.035	0.0142390
663.113	0.0140471
663.192	0.0141191
663.270	0.0140282
663.348	0.0141528
663.426	0.0140453
663.504	0.0139312
663.582	0.0141106
663.660	0.0141644
663.738	0.0141125
663.817	0.0141106
663.895	0.0140990
663.973	0.0142966
664.051	0.0142767
664.129	0.0143628
664.207	0.0143882
664.285	0.0143430
664.363	0.0143280
664.442	0.0143392
664.520	0.0145881
664.598	0.0145531
664.676	0.0144225
664.754	0.0145413
664.832	0.0144112
664.910	0.0144730
664.988	0.0145492
665.067	0.0145789
665.145	0.0145854
665.223	0.0145680
665.301	0.0145103
665.379	0.0144612
665.457	0.0145256
665.535	0.0144630
665.613	0.0145475
665.692	0.0146111
665.770	0.0144820
665.848	0.0145219
665.926	0.0144556
666.004	0.0144595
666.082	0.0146561
666.160	0.0145518
666.238	0.0146250
666.317	0.0145581
666.395	0.0146322
666.473	0.0146635
666.551	0.0147536
666.629	0.0147398
666.707	0.0147350
666.785	0.0147768
666.863	0.0146345
666.942	0.0146296
667.020	0.0144778
667.098	0.0145095
667.176	0.0144227
667.254	0.0143707
667.332	0.0141580
667.410	0.0141858
667.488	0.0141911
667.567	0.0141115
667.645	0.0139785
667.723	0.0139087
667.801	0.0139743
667.879	0.0138667
667.957	0.0139497
668.035	0.0138362
668.113	0.0138249
668.192	0.0139208
668.270	0.0140288
668.348	0.0140513
668.426	0.0140469
668.504	0.0141242
668.582	0.0142009
668.660	0.0141092
668.738	0.0142950
668.817	0.0142555
668.895	0.0143192
668.973	0.0143867
669.051	0.0144678
669.129	0.0145173
669.207	0.0145105
669.285	0.0145729
669.363	0.0145538
669.442	0.0144961
669.520	0.0144562
669.598	0.0144708
669.676	0.0144827
669.754	0.0144373
669.832	0.0145275
669.910	0.0144769
669.988	0.0143886
670.067	0.0143500
670.145	0.0143329
670.223	0.0143399
670.301	0.0143574
670.379	0.0142612
670.457	0.0143810
670.535	0.0142693
670.613	0.0144540
670.692	0.0145312
670.770	0.0144125
670.848	0.0145418
670.926	0.0144763
671.004	0.0146220
671.082	0.0146806
671.160	0.0146478
671.238	0.0145544
671.317	0.0146654
671.395	0.0146556
671.473	0.0147853
671.551	0.0146339
671.629	0.0145987
671.707	0.0144573
671.785	0.0144307
671.863	0.0144309
671.942	0.0141233
672.020	0.0141969
672.098	0.0139154
672.176	0.0137711
672.254	0.0137814
672.332	0.0135275
672.410	0.0135853
672.488	0.0136214
672.567	0.0137725
672.645	0.0134271
672.723	0.0134904
672.801	0.0136686
672.879	0.0138708
672.957	0.0139487
673.035	0.0139602
673.113	0.0141317
673.192	0.0142702
673.270	0.0144293
673.348	0.0146586
673.426	0.0146852
673.504	0.0148392
673.582	0.0148166
673.660	0.0148453
673.738	0.0150104
673.817	0.0150453
673.895	0.0149113
673.973	0.0150389
674.051	0.0149776
674.129	0.0150249
674.207	0.0149310
674.285	0.0148654
674.363	0.0147864
674.442	0.0147099
674.520	0.0146305
674.598	0.0144800
674.676	0.0144033
674.754	0.0143575
674.832	0.0142867
674.910	0.0143763
674.988	0.0140524
675.067	0.0139645
675.145	0.0138618
675.223	0.0138956
675.301	0.0137768
675.379	0.0136764
675.457	0.0135780
675.535	0.0136849
675.613	0.0138311
675.692	0.0137608
675.770	0.0136962
675.848	0.0138997
675.926	0.0138918
676.004	0.0138911
676.082	0.0139938
676.160	0.0141003
676.238	0.0142747
676.317	0.0144704
676.395	0.0143699
676.473	0.0143958
676.551	0.0145656
676.629	0.0145823
676.707	0.0146570
676.785	0.0146833
676.863	0.0148985
676.942	0.0148824
677.020	0.0148564
677.098	0.0149171
677.176	0.0149336
677.254	0.0149013
677.332	0.0149261
677.410	0.0149181
677.488	0.0150034
677.567	0.0149564
677.645	0.0148164
677.723	0.0148360
677.801	0.0147925
677.879	0.0147490
677.957	0.0144724
678.035	0.0145288
678.113	0.0144948
678.192	0.0144386
678.270	0.0144285
678.348	0.0142194
678.426	0.0142682
678.504	0.0141369
678.582	0.0141132
678.660	0.0141140
678.738	0.0139170
678.817	0.0138158
678.895	0.0139568
678.973	0.0137774
679.051	0.0138383
679.129	0.0137878
679.207	0.0136566
679.285	0.0136544
679.363	0.0138149
679.442	0.0137255
679.520	0.0137479
679.598	0.0138572
679.676	0.0138251
679.754	0.0139729
679.832	0.0139682
679.910	0.0140759
679.988	0.0141801
680.067	0.0141357
680.145	0.0144599
680.223	0.0145457
680.301	0.0144991
680.379	0.0146454
680.457	0.0147173
680.535	0.0149048
680.613	0.0147150
680.692	0.0148818
680.770	0.0149635
680.848	0.0149014
680.926	0.0149137
681.004	0.0150333
681.082	0.0149805
681.160	0.0148345
681.238	0.0150304
681.317	0.0150288
681.395	0.0149403
681.473	0.0149242
681.551	0.0149472
681.629	0.0148288
681.707	0.0149479
681.785	0.0149626
681.863	0.0149498
681.942	0.0148736
682.020	0.0148640
682.098	0.0146867
682.176	0.0145198
682.254	0.0146401
682.332	0.0144063
682.410	0.0143165
682.488	0.0141712
682.567	0.0140864
682.645	0.0139882
682.723	0.0137912
682.801	0.0138348
682.879	0.0136555
682.957	0.0136940
683.035	0.0136465
683.113	0.0135879
683.192	0.0136168
683.270	0.0137095
683.348	0.0137119
683.426	0.0137727
683.504	0.0138221
683.582	0.0138305
683.660	0.0139149
683.738	0.0139797
683.817	0.0140291
683.895	0.0141318
683.973	0.0142696
684.051	0.0141506
684.129	0.0143480
684.207	0.0142538
684.285	0.0143573
684.363	0.0144468
684.442	0.0146799
684.520	0.0145487
684.598	0.0147379
684.676	0.0148799
684.754	0.0149704
684.832	0.0151959
684.910	0.0152198
684.988	0.0153560
685.067	0.0156259
685.145	0.0156112
685.223	0.0156255
685.301	0.0157478
685.379	0.0156378
685.457	0.0156271
685.535	0.0156209
685.613	0.0156226
685.692	0.0152895
