05/28/2022	14:27:27	Ver.	4.1	UNKNOWN
Optical Delay	599.988409	Delta X		0.078125	Sweeps	1	Scan Rate	0/0
Coordinates	Axis 1	NaN	Axis 2	NaN	Axis 3	NaN	Axis 4	NaN	Axis 5	NaN	Axis 6	0.000000
TX Power	0.000000	RX Power	0.000000

599.988	0.0148731
600.067	0.0148739
600.145	0.0149190
600.223	0.0148086
600.301	0.0146815
600.379	0.0148546
600.457	0.0148428
600.535	0.0149390
600.613	0.0149507
600.692	0.0147694
600.770	0.0147535
600.848	0.0148148
600.926	0.0148732
601.004	0.0147878
601.082	0.0148279
601.160	0.0148232
601.238	0.0148638
601.317	0.0148160
601.395	0.0145827
601.473	0.0148777
601.551	0.0147796
601.629	0.0146324
601.707	0.0146622
601.785	0.0147652
601.863	0.0148258
601.942	0.0148707
602.020	0.0147016
602.098	0.0148298
602.176	0.0147103
602.254	0.0145922
602.332	0.0146541
602.410	0.0144785
602.488	0.0146980
602.567	0.0146093
602.645	0.0144706
602.723	0.0144451
602.801	0.0145799
602.879	0.0144968
602.957	0.0144104
603.035	0.0145486
603.113	0.0146026
603.192	0.0144833
603.270	0.0144495
603.348	0.0145123
603.426	0.0145291
603.504	0.0146142
603.582	0.0145541
603.660	0.0145896
603.738	0.0145346
603.817	0.0146736
603.895	0.0146644
603.973	0.0146856
604.051	0.0147697
604.129	0.0148005
604.207	0.0148244
604.285	0.0146999
604.363	0.0146715
604.442	0.0148178
604.520	0.0147135
604.598	0.0148759
604.676	0.0150214
604.754	0.0149342
604.832	0.0149233
604.910	0.0147400
604.988	0.0146799
605.067	0.0147946
605.145	0.0148200
605.223	0.0146836
605.301	0.0146811
605.379	0.0146938
605.457	0.0147211
605.535	0.0147080
605.613	0.0147552
605.692	0.0147276
605.770	0.0146236
605.848	0.0147160
605.926	0.0147134
606.004	0.0146810
606.082	0.0146867
606.160	0.0146181
606.238	0.0146436
606.317	0.0147078
606.395	0.0147498
606.473	0.0146397
606.551	0.0146478
606.629	0.0146725
606.707	0.0146925
606.785	0.0147343
606.863	0.0147717
606.942	0.0148037
607.020	0.0148155
607.098	0.0146629
607.176	0.0146606
607.254	0.0147397
607.332	0.0148593
607.410	0.0148516
607.488	0.0146326
607.567	0.0146562
607.645	0.0147997
607.723	0.0147978
607.801	0.0148134
607.879	0.0148064
607.957	0.0147887
608.035	0.0148146
608.113	0.0148032
608.192	0.0147895
608.270	0.0147764
608.348	0.0148882
608.426	0.0148176
608.504	0.0148853
608.582	0.0149328
608.660	0.0148225
608.738	0.0148215
608.817	0.0148837
608.895	0.0149704
608.973	0.0148711
609.051	0.0149209
609.129	0.0146812
609.207	0.0148707
609.285	0.0147112
609.363	0.0149274
609.442	0.0148575
609.520	0.0148181
609.598	0.0149026
609.676	0.0148337
609.754	0.0147758
609.832	0.0149338
609.910	0.0148505
609.988	0.0148403
610.067	0.0148161
610.145	0.0148319
610.223	0.0147827
610.301	0.0147749
610.379	0.0147372
610.457	0.0147480
610.535	0.0147810
610.613	0.0148235
610.692	0.0148421
610.770	0.0148064
610.848	0.0147398
610.926	0.0147672
611.004	0.0148331
611.082	0.0147900
611.160	0.0146690
611.238	0.0146603
611.317	0.0147734
611.395	0.0148027
611.473	0.0146952
611.551	0.0146893
611.629	0.0147629
611.707	0.0147612
611.785	0.0146813
611.863	0.0147131
611.942	0.0147893
612.020	0.0147086
612.098	0.0147086
612.176	0.0146809
612.254	0.0146712
612.332	0.0148301
612.410	0.0146549
612.488	0.0147900
612.567	0.0146088
612.645	0.0147061
612.723	0.0146941
612.801	0.0149159
612.879	0.0148257
612.957	0.0147344
613.035	0.0146835
613.113	0.0146735
613.192	0.0147414
613.270	0.0146716
613.348	0.0147250
613.426	0.0147776
613.504	0.0149032
613.582	0.0148544
613.660	0.0147539
613.738	0.0148578
613.817	0.0148288
613.895	0.0146310
613.973	0.0148231
614.051	0.0148105
614.129	0.0147264
614.207	0.0148034
614.285	0.0147608
614.363	0.0148273
614.442	0.0146752
614.520	0.0147094
614.598	0.0147908
614.676	0.0147203
614.754	0.0149451
614.832	0.0147839
614.910	0.0148803
614.988	0.0147393
615.067	0.0146730
615.145	0.0148271
615.223	0.0147516
615.301	0.0148587
615.379	0.0147977
615.457	0.0148477
615.535	0.0147388
615.613	0.0148063
615.692	0.0147689
615.770	0.0147019
615.848	0.0148971
615.926	0.0147686
616.004	0.0147890
616.082	0.0147432
616.160	0.0149075
616.238	0.0148610
616.317	0.0147793
616.395	0.0149221
616.473	0.0148579
616.551	0.0147566
616.629	0.0147443
616.707	0.0148230
616.785	0.0148392
616.863	0.0148154
616.942	0.0148573
617.020	0.0148204
617.098	0.0148304
617.176	0.0148713
617.254	0.0148370
617.332	0.0148917
617.410	0.0148634
617.488	0.0147406
617.567	0.0148608
617.645	0.0149902
617.723	0.0148766
617.801	0.0148652
617.879	0.0148975
617.957	0.0149603
618.035	0.0149675
618.113	0.0150957
618.192	0.0149213
618.270	0.0149205
618.348	0.0149380
618.426	0.0149921
618.504	0.0148405
618.582	0.0148260
618.660	0.0149849
618.738	0.0150312
618.817	0.0148355
618.895	0.0149015
618.973	0.0149149
619.051	0.0148941
619.129	0.0148985
619.207	0.0147945
619.285	0.0148994
619.363	0.0149646
619.442	0.0148638
619.520	0.0148961
619.598	0.0149330
619.676	0.0148332
619.754	0.0147669
619.832	0.0149551
619.910	0.0148093
619.988	0.0148391
620.067	0.0149677
620.145	0.0147871
620.223	0.0146970
620.301	0.0147838
620.379	0.0148762
620.457	0.0148502
620.535	0.0148038
620.613	0.0147018
620.692	0.0147203
620.770	0.0147253
620.848	0.0147989
620.926	0.0147424
621.004	0.0147498
621.082	0.0148486
621.160	0.0147807
621.238	0.0147887
621.317	0.0148117
621.395	0.0148581
621.473	0.0147241
621.551	0.0147958
621.629	0.0148214
621.707	0.0148828
621.785	0.0147373
621.863	0.0147870
621.942	0.0147946
622.020	0.0147924
622.098	0.0147072
622.176	0.0148451
622.254	0.0148195
622.332	0.0148886
622.410	0.0148277
622.488	0.0148463
622.567	0.0148840
622.645	0.0147797
622.723	0.0146664
622.801	0.0148402
622.879	0.0148556
622.957	0.0147698
623.035	0.0148476
623.113	0.0147616
623.192	0.0147675
623.270	0.0148290
623.348	0.0148869
623.426	0.0148590
623.504	0.0148098
623.582	0.0148656
623.660	0.0148818
623.738	0.0147672
623.817	0.0146945
623.895	0.0147647
623.973	0.0147344
624.051	0.0147875
624.129	0.0147403
624.207	0.0147852
624.285	0.0149100
624.363	0.0147321
624.442	0.0147490
624.520	0.0147243
624.598	0.0147552
624.676	0.0146349
624.754	0.0148428
624.832	0.0148653
624.910	0.0147648
624.988	0.0146280
625.067	0.0147090
625.145	0.0146879
625.223	0.0147780
625.301	0.0147765
625.379	0.0147475
625.457	0.0147910
625.535	0.0145966
625.613	0.0147604
625.692	0.0146778
625.770	0.0146808
625.848	0.0147175
625.926	0.0145409
626.004	0.0145790
626.082	0.0145854
626.160	0.0146670
626.238	0.0146357
626.317	0.0146202
626.395	0.0146230
626.473	0.0146425
626.551	0.0146940
626.629	0.0145154
626.707	0.0146476
626.785	0.0146040
626.863	0.0146420
626.942	0.0147120
627.020	0.0147452
627.098	0.0146397
627.176	0.0145993
627.254	0.0146186
627.332	0.0146671
627.410	0.0145520
627.488	0.0148087
627.567	0.0148227
627.645	0.0146762
627.723	0.0146916
627.801	0.0146203
627.879	0.0146992
627.957	0.0146984
628.035	0.0147121
628.113	0.0146912
628.192	0.0148402
628.270	0.0146011
628.348	0.0148347
628.426	0.0148717
628.504	0.0147730
628.582	0.0146712
628.660	0.0147895
628.738	0.0149631
628.817	0.0147905
628.895	0.0148653
628.973	0.0147935
629.051	0.0148341
629.129	0.0147434
629.207	0.0147768
629.285	0.0148293
629.363	0.0148012
629.442	0.0148120
629.520	0.0147936
629.598	0.0146951
629.676	0.0148065
629.754	0.0147837
629.832	0.0147134
629.910	0.0147836
629.988	0.0147882
630.067	0.0148693
630.145	0.0147012
630.223	0.0147861
630.301	0.0148525
630.379	0.0147881
630.457	0.0149284
630.535	0.0148242
630.613	0.0147723
630.692	0.0149126
630.770	0.0149172
630.848	0.0148471
630.926	0.0146328
631.004	0.0147619
631.082	0.0148648
631.160	0.0148690
631.238	0.0148636
631.317	0.0148605
631.395	0.0147894
631.473	0.0148685
631.551	0.0149414
631.629	0.0148842
631.707	0.0147047
631.785	0.0148989
631.863	0.0148782
631.942	0.0148274
632.020	0.0148361
632.098	0.0148370
632.176	0.0147613
632.254	0.0148131
632.332	0.0146812
632.410	0.0147372
632.488	0.0147414
632.567	0.0147121
632.645	0.0147698
632.723	0.0147249
632.801	0.0147062
632.879	0.0145633
632.957	0.0146972
633.035	0.0146953
633.113	0.0145829
633.192	0.0146120
633.270	0.0146598
633.348	0.0146395
633.426	0.0148045
633.504	0.0145151
633.582	0.0145201
633.660	0.0147813
633.738	0.0147173
633.817	0.0146695
633.895	0.0146073
633.973	0.0146063
634.051	0.0147401
634.129	0.0147259
634.207	0.0148720
634.285	0.0148602
634.363	0.0148103
634.442	0.0147769
634.520	0.0148608
634.598	0.0148724
634.676	0.0148702
634.754	0.0147044
634.832	0.0148174
634.910	0.0148268
634.988	0.0147163
635.067	0.0148281
635.145	0.0147463
635.223	0.0147624
635.301	0.0147537
635.379	0.0147671
635.457	0.0148421
635.535	0.0147779
635.613	0.0147397
635.692	0.0147153
635.770	0.0147358
635.848	0.0147126
635.926	0.0147195
636.004	0.0146600
636.082	0.0147909
636.160	0.0146680
636.238	0.0147170
636.317	0.0148289
636.395	0.0147105
636.473	0.0147514
636.551	0.0148786
636.629	0.0149628
636.707	0.0149223
636.785	0.0148097
636.863	0.0146494
636.942	0.0149073
637.020	0.0147616
637.098	0.0146474
637.176	0.0147260
637.254	0.0145996
637.332	0.0146099
637.410	0.0146095
637.488	0.0146043
637.567	0.0145782
637.645	0.0145073
637.723	0.0144762
637.801	0.0145980
637.879	0.0146117
637.957	0.0145631
638.035	0.0147688
638.113	0.0147641
638.192	0.0146790
638.270	0.0147140
638.348	0.0148721
638.426	0.0149506
638.504	0.0149111
638.582	0.0148342
638.660	0.0148615
638.738	0.0149934
638.817	0.0148939
638.895	0.0148299
638.973	0.0150068
639.051	0.0149764
639.129	0.0150282
639.207	0.0149136
639.285	0.0150373
639.363	0.0149260
639.442	0.0150385
639.520	0.0148351
639.598	0.0150878
639.676	0.0149514
639.754	0.0149406
639.832	0.0150102
639.910	0.0148866
639.988	0.0149597
640.067	0.0148774
640.145	0.0149476
640.223	0.0148846
640.301	0.0147841
640.379	0.0149730
640.457	0.0148886
640.535	0.0147571
640.613	0.0146682
640.692	0.0147949
640.770	0.0146293
640.848	0.0146768
640.926	0.0145680
641.004	0.0144864
641.082	0.0146938
641.160	0.0142869
641.238	0.0143501
641.317	0.0143109
641.395	0.0143462
641.473	0.0142717
641.551	0.0143777
641.629	0.0142907
641.707	0.0142348
641.785	0.0142554
641.863	0.0142094
641.942	0.0143554
642.020	0.0144453
642.098	0.0144145
642.176	0.0142365
642.254	0.0144171
642.332	0.0144415
642.410	0.0144913
642.488	0.0145746
642.567	0.0144976
642.645	0.0145746
642.723	0.0145626
642.801	0.0147076
642.879	0.0148499
642.957	0.0148995
643.035	0.0149418
643.113	0.0148550
643.192	0.0149787
643.270	0.0149392
643.348	0.0150005
643.426	0.0151357
643.504	0.0151290
643.582	0.0150053
643.660	0.0151283
643.738	0.0150120
643.817	0.0150113
643.895	0.0151583
643.973	0.0150356
644.051	0.0149413
644.129	0.0148688
644.207	0.0148734
644.285	0.0149843
644.363	0.0150188
644.442	0.0149200
644.520	0.0149934
644.598	0.0149390
644.676	0.0148650
644.754	0.0148351
644.832	0.0147945
644.910	0.0148814
644.988	0.0147567
645.067	0.0147449
645.145	0.0147775
645.223	0.0146881
645.301	0.0148326
645.379	0.0146198
645.457	0.0144762
645.535	0.0145610
645.613	0.0145397
645.692	0.0144290
645.770	0.0143689
645.848	0.0145192
645.926	0.0143369
646.004	0.0143454
646.082	0.0144237
646.160	0.0143668
646.238	0.0141959
646.317	0.0142655
646.395	0.0143893
646.473	0.0144871
646.551	0.0143722
646.629	0.0145209
646.707	0.0145055
646.785	0.0145833
646.863	0.0145549
646.942	0.0146315
647.020	0.0145303
647.098	0.0145410
647.176	0.0145081
647.254	0.0145138
647.332	0.0145664
647.410	0.0145590
647.488	0.0144460
647.567	0.0145732
647.645	0.0145080
647.723	0.0145147
647.801	0.0143967
647.879	0.0144753
647.957	0.0146148
648.035	0.0148001
648.113	0.0145224
648.192	0.0146517
648.270	0.0147755
648.348	0.0146603
648.426	0.0146734
648.504	0.0147742
648.582	0.0148825
648.660	0.0148859
648.738	0.0148419
648.817	0.0149043
648.895	0.0147986
648.973	0.0147849
649.051	0.0148376
649.129	0.0148419
649.207	0.0145816
649.285	0.0146283
649.363	0.0147256
649.442	0.0147657
649.520	0.0146714
649.598	0.0147351
649.676	0.0145830
649.754	0.0146270
649.832	0.0145969
649.910	0.0146394
649.988	0.0148291
650.067	0.0145783
650.145	0.0144549
650.223	0.0147898
650.301	0.0147514
650.379	0.0146156
650.457	0.0146921
650.535	0.0148621
650.613	0.0146364
650.692	0.0146599
650.770	0.0147102
650.848	0.0147691
650.926	0.0147005
651.004	0.0146885
651.082	0.0145561
651.160	0.0145755
651.238	0.0146600
651.317	0.0145390
651.395	0.0144985
651.473	0.0144217
651.551	0.0143030
651.629	0.0142025
651.707	0.0143510
651.785	0.0141730
651.863	0.0142216
651.942	0.0142901
652.020	0.0142669
652.098	0.0141668
652.176	0.0143456
652.254	0.0142550
652.332	0.0143426
652.410	0.0143109
652.488	0.0144076
652.567	0.0145161
652.645	0.0145522
652.723	0.0144891
652.801	0.0145964
652.879	0.0146011
652.957	0.0145727
653.035	0.0146084
653.113	0.0147855
653.192	0.0148021
653.270	0.0149139
653.348	0.0147237
653.426	0.0147325
653.504	0.0146735
653.582	0.0149508
653.660	0.0148345
653.738	0.0148546
653.817	0.0148939
653.895	0.0148956
653.973	0.0150658
654.051	0.0150075
654.129	0.0150334
654.207	0.0149568
654.285	0.0150514
654.363	0.0150533
654.442	0.0151350
654.520	0.0152001
654.598	0.0150405
654.676	0.0151360
654.754	0.0150057
654.832	0.0150314
654.910	0.0149184
654.988	0.0149594
655.067	0.0149522
655.145	0.0147396
655.223	0.0148820
655.301	0.0148350
655.379	0.0145723
655.457	0.0145501
655.535	0.0145884
655.613	0.0146248
655.692	0.0145217
655.770	0.0144378
655.848	0.0146416
655.926	0.0145815
656.004	0.0147378
656.082	0.0148981
656.160	0.0148513
656.238	0.0148771
656.317	0.0147877
656.395	0.0149663
656.473	0.0148959
656.551	0.0147782
656.629	0.0147517
656.707	0.0147447
656.785	0.0148158
656.863	0.0146756
656.942	0.0147279
657.020	0.0147171
657.098	0.0145885
657.176	0.0144725
657.254	0.0145493
657.332	0.0145509
657.410	0.0144454
657.488	0.0142663
657.567	0.0143817
657.645	0.0144911
657.723	0.0144856
657.801	0.0145782
657.879	0.0145578
657.957	0.0146859
658.035	0.0146441
658.113	0.0147230
658.192	0.0149172
658.270	0.0148063
658.348	0.0149110
658.426	0.0149949
658.504	0.0150941
658.582	0.0151929
658.660	0.0152296
658.738	0.0152702
658.817	0.0151811
658.895	0.0153260
658.973	0.0154289
659.051	0.0152051
659.129	0.0153123
659.207	0.0151694
659.285	0.0151080
659.363	0.0149924
659.442	0.0150979
659.520	0.0152515
659.598	0.0150791
659.676	0.0149424
659.754	0.0150581
659.832	0.0147939
659.910	0.0145914
659.988	0.0147320
660.067	0.0148820
660.145	0.0145779
660.223	0.0146666
660.301	0.0146099
660.379	0.0146492
660.457	0.0145959
660.535	0.0148228
660.613	0.0149120
660.692	0.0146605
660.770	0.0148164
660.848	0.0148469
660.926	0.0148563
661.004	0.0149532
661.082	0.0149471
661.160	0.0148689
661.238	0.0148521
661.317	0.0150324
661.395	0.0150137
661.473	0.0148817
661.551	0.0149590
661.629	0.0147344
661.707	0.0149078
661.785	0.0147237
661.863	0.0146548
661.942	0.0147144
662.020	0.0144780
662.098	0.0144261
662.176	0.0142693
662.254	0.0141840
662.332	0.0142389
662.410	0.0141299
662.488	0.0140963
662.567	0.0141491
662.645	0.0141624
662.723	0.0141022
662.801	0.0142902
662.879	0.0141967
662.957	0.0142627
663.035	0.0144131
663.113	0.0142930
663.192	0.0144617
663.270	0.0145826
663.348	0.0145190
663.426	0.0145857
663.504	0.0146715
663.582	0.0146129
663.660	0.0147707
663.738	0.0147919
663.817	0.0147975
663.895	0.0148026
663.973	0.0148838
664.051	0.0149625
664.129	0.0149051
664.207	0.0148536
664.285	0.0149242
664.363	0.0148269
664.442	0.0150080
664.520	0.0146962
664.598	0.0148042
664.676	0.0147953
664.754	0.0147214
664.832	0.0146938
664.910	0.0147417
664.988	0.0146941
665.067	0.0147118
665.145	0.0147342
665.223	0.0146520
665.301	0.0146465
665.379	0.0147893
665.457	0.0146702
665.535	0.0146880
665.613	0.0147286
665.692	0.0148256
665.770	0.0149887
665.848	0.0148075
665.926	0.0148119
666.004	0.0149801
666.082	0.0149165
666.160	0.0148362
666.238	0.0149245
666.317	0.0148465
666.395	0.0149047
666.473	0.0147916
666.551	0.0147744
666.629	0.0145731
666.707	0.0145454
666.785	0.0144208
666.863	0.0144084
666.942	0.0144538
667.020	0.0143508
667.098	0.0142641
667.176	0.0144781
667.254	0.0143685
667.332	0.0142097
667.410	0.0141769
667.488	0.0142853
667.567	0.0142464
667.645	0.0143587
667.723	0.0143165
667.801	0.0144582
667.879	0.0144313
667.957	0.0144696
668.035	0.0145667
668.113	0.0146151
668.192	0.0147418
668.270	0.0146107
668.348	0.0147589
668.426	0.0147360
668.504	0.0147659
668.582	0.0148992
668.660	0.0148235
668.738	0.0148283
668.817	0.0150124
668.895	0.0148585
668.973	0.0148315
669.051	0.0149488
669.129	0.0149383
669.207	0.0147762
669.285	0.0148806
669.363	0.0148672
669.442	0.0149467
669.520	0.0146770
669.598	0.0147926
669.676	0.0146764
669.754	0.0147163
669.832	0.0146498
669.910	0.0145635
669.988	0.0147279
670.067	0.0146329
670.145	0.0147289
670.223	0.0147260
670.301	0.0147884
670.379	0.0148146
670.457	0.0148367
670.535	0.0149028
670.613	0.0150346
670.692	0.0150124
670.770	0.0150876
670.848	0.0150576
670.926	0.0150653
671.004	0.0150720
671.082	0.0150207
671.160	0.0150084
671.238	0.0148508
671.317	0.0148554
671.395	0.0148422
671.473	0.0145473
671.551	0.0145993
671.629	0.0144676
671.707	0.0143701
671.785	0.0143066
671.863	0.0141161
671.942	0.0140343
672.020	0.0139914
672.098	0.0139108
672.176	0.0139247
672.254	0.0139423
672.332	0.0140027
672.410	0.0141750
672.488	0.0141763
672.567	0.0141861
672.645	0.0144289
672.723	0.0146266
672.801	0.0147164
672.879	0.0149202
672.957	0.0148354
673.035	0.0150562
673.113	0.0151608
673.192	0.0154282
673.270	0.0154429
673.348	0.0155439
673.426	0.0153734
673.504	0.0153683
673.582	0.0154675
673.660	0.0153893
673.738	0.0151870
673.817	0.0152463
673.895	0.0151247
673.973	0.0149590
674.051	0.0149634
674.129	0.0149214
674.207	0.0146465
674.285	0.0146885
674.363	0.0144583
674.442	0.0144517
674.520	0.0143896
674.598	0.0143511
674.676	0.0142384
674.754	0.0141820
674.832	0.0141690
674.910	0.0140599
674.988	0.0141164
675.067	0.0139194
675.145	0.0139597
675.223	0.0140736
675.301	0.0141331
675.379	0.0142083
675.457	0.0142023
675.535	0.0142659
675.613	0.0143395
675.692	0.0145100
675.770	0.0144373
675.848	0.0145010
675.926	0.0146066
676.004	0.0147456
676.082	0.0147353
676.160	0.0149293
676.238	0.0150087
676.317	0.0150116
676.395	0.0150436
676.473	0.0149078
676.551	0.0150332
676.629	0.0152460
676.707	0.0152160
676.785	0.0151151
676.863	0.0152501
676.942	0.0152542
677.020	0.0152401
677.098	0.0152768
677.176	0.0152305
677.254	0.0150671
677.332	0.0151476
677.410	0.0150344
677.488	0.0150016
677.567	0.0149184
677.645	0.0149114
677.723	0.0147743
677.801	0.0146880
677.879	0.0147259
677.957	0.0146710
678.035	0.0146329
678.113	0.0145988
678.192	0.0145893
678.270	0.0144636
678.348	0.0145955
678.426	0.0145531
678.504	0.0144211
678.582	0.0144436
678.660	0.0145155
678.738	0.0144083
678.817	0.0143172
678.895	0.0143683
678.973	0.0144157
679.051	0.0142757
679.129	0.0143443
679.207	0.0143373
679.285	0.0144508
679.363	0.0145110
679.442	0.0146020
679.520	0.0147038
679.598	0.0148015
679.676	0.0148904
679.754	0.0149496
679.832	0.0151145
679.910	0.0151206
679.988	0.0153518
680.067	0.0151905
680.145	0.0152572
680.223	0.0154041
680.301	0.0153392
680.379	0.0154848
680.457	0.0155267
680.535	0.0154969
680.613	0.0155299
680.692	0.0155676
680.770	0.0154470
680.848	0.0154568
680.926	0.0155528
681.004	0.0154363
681.082	0.0154202
681.160	0.0154245
681.238	0.0153934
681.317	0.0152782
681.395	0.0153748
681.473	0.0152969
681.551	0.0152967
681.629	0.0152066
681.707	0.0150488
681.785	0.0149882
681.863	0.0149004
681.942	0.0147945
682.020	0.0148183
682.098	0.0147587
682.176	0.0145436
682.254	0.0144589
682.332	0.0144153
682.410	0.0142725
682.488	0.0142391
682.567	0.0142135
682.645	0.0142113
682.723	0.0139048
682.801	0.0140664
682.879	0.0140474
682.957	0.0140121
683.035	0.0141539
683.113	0.0142860
683.192	0.0142376
683.270	0.0142374
683.348	0.0142273
683.426	0.0142577
683.504	0.0142965
683.582	0.0146080
683.660	0.0144291
683.738	0.0145141
683.817	0.0145547
683.895	0.0145371
683.973	0.0147281
684.051	0.0148641
684.129	0.0149889
684.207	0.0149435
684.285	0.0151149
684.363	0.0152341
684.442	0.0153125
684.520	0.0153351
684.598	0.0156660
684.676	0.0159083
684.754	0.0158408
684.832	0.0158908
684.910	0.0158866
684.988	0.0159402
685.067	0.0160140
685.145	0.0160527
685.223	0.0161250
685.301	0.0157707
685.379	0.0157057
685.457	0.0155357
685.535	0.0154999
685.613	0.0154423
685.692	0.0149676
