05/28/2022	14:28:22	Ver.	4.1	UNKNOWN
Optical Delay	599.988409	Delta X		0.078125	Sweeps	1	Scan Rate	0/0
Coordinates	Axis 1	NaN	Axis 2	NaN	Axis 3	NaN	Axis 4	NaN	Axis 5	NaN	Axis 6	0.000000
TX Power	0.000000	RX Power	0.000000

599.988	0.0144254
600.067	0.0144665
600.145	0.0143712
600.223	0.0143784
600.301	0.0145027
600.379	0.0144311
600.457	0.0143457
600.535	0.0145370
600.613	0.0143736
600.692	0.0144543
600.770	0.0144496
600.848	0.0143510
600.926	0.0144180
601.004	0.0143516
601.082	0.0143084
601.160	0.0143469
601.238	0.0143047
601.317	0.0144187
601.395	0.0144107
601.473	0.0143198
601.551	0.0142352
601.629	0.0142895
601.707	0.0143292
601.785	0.0143695
601.863	0.0142736
601.942	0.0142207
602.020	0.0143057
602.098	0.0143277
602.176	0.0143676
602.254	0.0142379
602.332	0.0143732
602.410	0.0143224
602.488	0.0142931
602.567	0.0144197
602.645	0.0143654
602.723	0.0142477
602.801	0.0144620
602.879	0.0143468
602.957	0.0142490
603.035	0.0143505
603.113	0.0144299
603.192	0.0143542
603.270	0.0143984
603.348	0.0145331
603.426	0.0142910
603.504	0.0142727
603.582	0.0142702
603.660	0.0143591
603.738	0.0143923
603.817	0.0142181
603.895	0.0144077
603.973	0.0143962
604.051	0.0142432
604.129	0.0143204
604.207	0.0144872
604.285	0.0143604
604.363	0.0143679
604.442	0.0142840
604.520	0.0144675
604.598	0.0144037
604.676	0.0141689
604.754	0.0143939
604.832	0.0143118
604.910	0.0143179
604.988	0.0142183
605.067	0.0143362
605.145	0.0143486
605.223	0.0143499
605.301	0.0144080
605.379	0.0143346
605.457	0.0143213
605.535	0.0142630
605.613	0.0143037
605.692	0.0143800
605.770	0.0143614
605.848	0.0142838
605.926	0.0142873
606.004	0.0143478
606.082	0.0142410
606.160	0.0142801
606.238	0.0143061
606.317	0.0143578
606.395	0.0143378
606.473	0.0143382
606.551	0.0143009
606.629	0.0143595
606.707	0.0143456
606.785	0.0144073
606.863	0.0142007
606.942	0.0143000
607.020	0.0144113
607.098	0.0143369
607.176	0.0143684
607.254	0.0143439
607.332	0.0142467
607.410	0.0145048
607.488	0.0143568
607.567	0.0142001
607.645	0.0142929
607.723	0.0143997
607.801	0.0144900
607.879	0.0143792
607.957	0.0143488
608.035	0.0144369
608.113	0.0145051
608.192	0.0142164
608.270	0.0142884
608.348	0.0143491
608.426	0.0144564
608.504	0.0142928
608.582	0.0143189
608.660	0.0144039
608.738	0.0143391
608.817	0.0143658
608.895	0.0143931
608.973	0.0143519
609.051	0.0144275
609.129	0.0145397
609.207	0.0144039
609.285	0.0144140
609.363	0.0143971
609.442	0.0145767
609.520	0.0144885
609.598	0.0144746
609.676	0.0143924
609.754	0.0144186
609.832	0.0144408
609.910	0.0144637
609.988	0.0143881
610.067	0.0144659
610.145	0.0144637
610.223	0.0145300
610.301	0.0144370
610.379	0.0145607
610.457	0.0145927
610.535	0.0143235
610.613	0.0143974
610.692	0.0143929
610.770	0.0145043
610.848	0.0145475
610.926	0.0142994
611.004	0.0142991
611.082	0.0145236
611.160	0.0143286
611.238	0.0143063
611.317	0.0144437
611.395	0.0144791
611.473	0.0143267
611.551	0.0143553
611.629	0.0143403
611.707	0.0144592
611.785	0.0142859
611.863	0.0143312
611.942	0.0143107
612.020	0.0143662
612.098	0.0143587
612.176	0.0144352
612.254	0.0142989
612.332	0.0142737
612.410	0.0143299
612.488	0.0143369
612.567	0.0142043
612.645	0.0143939
612.723	0.0143250
612.801	0.0143791
612.879	0.0143549
612.957	0.0144025
613.035	0.0143714
613.113	0.0143547
613.192	0.0143836
613.270	0.0144195
613.348	0.0144751
613.426	0.0144419
613.504	0.0142781
613.582	0.0145585
613.660	0.0144000
613.738	0.0144257
613.817	0.0143701
613.895	0.0144590
613.973	0.0144054
614.051	0.0143853
614.129	0.0143817
614.207	0.0144529
614.285	0.0145398
614.363	0.0144757
614.442	0.0144603
614.520	0.0144262
614.598	0.0143768
614.676	0.0144749
614.754	0.0143156
614.832	0.0143136
614.910	0.0144688
614.988	0.0145420
615.067	0.0144663
615.145	0.0143656
615.223	0.0144467
615.301	0.0143100
615.379	0.0144052
615.457	0.0145618
615.535	0.0144210
615.613	0.0143894
615.692	0.0141639
615.770	0.0144790
615.848	0.0144425
615.926	0.0143453
616.004	0.0144269
616.082	0.0145807
616.160	0.0146112
616.238	0.0144283
616.317	0.0145374
616.395	0.0143352
616.473	0.0143068
616.551	0.0143680
616.629	0.0142927
616.707	0.0143451
616.785	0.0144147
616.863	0.0143214
616.942	0.0144013
617.020	0.0145244
617.098	0.0144884
617.176	0.0144716
617.254	0.0145242
617.332	0.0143553
617.410	0.0143650
617.488	0.0143935
617.567	0.0143771
617.645	0.0145430
617.723	0.0145769
617.801	0.0144532
617.879	0.0145522
617.957	0.0144665
618.035	0.0145153
618.113	0.0143706
618.192	0.0142413
618.270	0.0143763
618.348	0.0144275
618.426	0.0144222
618.504	0.0144547
618.582	0.0144118
618.660	0.0143925
618.738	0.0143644
618.817	0.0143323
618.895	0.0144734
618.973	0.0142850
619.051	0.0143177
619.129	0.0143048
619.207	0.0143244
619.285	0.0145066
619.363	0.0144833
619.442	0.0142781
619.520	0.0144180
619.598	0.0144398
619.676	0.0143168
619.754	0.0143629
619.832	0.0143203
619.910	0.0142844
619.988	0.0145586
620.067	0.0144004
620.145	0.0142407
620.223	0.0144866
620.301	0.0144456
620.379	0.0143993
620.457	0.0143015
620.535	0.0142979
620.613	0.0143156
620.692	0.0143948
620.770	0.0142690
620.848	0.0143527
620.926	0.0144183
621.004	0.0143359
621.082	0.0143364
621.160	0.0143782
621.238	0.0144138
621.317	0.0142673
621.395	0.0142672
621.473	0.0143325
621.551	0.0143073
621.629	0.0141588
621.707	0.0142612
621.785	0.0142970
621.863	0.0143810
621.942	0.0143690
622.020	0.0143222
622.098	0.0145075
622.176	0.0144475
622.254	0.0142643
622.332	0.0143434
622.410	0.0143958
622.488	0.0143401
622.567	0.0142346
622.645	0.0143398
622.723	0.0142461
622.801	0.0143352
622.879	0.0142215
622.957	0.0141609
623.035	0.0141994
623.113	0.0143568
623.192	0.0143822
623.270	0.0143667
623.348	0.0142147
623.426	0.0143227
623.504	0.0143429
623.582	0.0143261
623.660	0.0141684
623.738	0.0143066
623.817	0.0141991
623.895	0.0142397
623.973	0.0144023
624.051	0.0142940
624.129	0.0141672
624.207	0.0141136
624.285	0.0141492
624.363	0.0142523
624.442	0.0143181
624.520	0.0143474
624.598	0.0142731
624.676	0.0143533
624.754	0.0142635
624.832	0.0142330
624.910	0.0142571
624.988	0.0141929
625.067	0.0143493
625.145	0.0142229
625.223	0.0143862
625.301	0.0143730
625.379	0.0142110
625.457	0.0142685
625.535	0.0143559
625.613	0.0142337
625.692	0.0142879
625.770	0.0141992
625.848	0.0144364
625.926	0.0143420
626.004	0.0142835
626.082	0.0143161
626.160	0.0142702
626.238	0.0143616
626.317	0.0143405
626.395	0.0143594
626.473	0.0143595
626.551	0.0144963
626.629	0.0143819
626.707	0.0143015
626.785	0.0145076
626.863	0.0143536
626.942	0.0142542
627.020	0.0143161
627.098	0.0142030
627.176	0.0143618
627.254	0.0142696
627.332	0.0143414
627.410	0.0142667
627.488	0.0143461
627.567	0.0142759
627.645	0.0143767
627.723	0.0143918
627.801	0.0143931
627.879	0.0144133
627.957	0.0143369
628.035	0.0144766
628.113	0.0143290
628.192	0.0143755
628.270	0.0144063
628.348	0.0144781
628.426	0.0143495
628.504	0.0144798
628.582	0.0143301
628.660	0.0144189
628.738	0.0145535
628.817	0.0145309
628.895	0.0144894
628.973	0.0144415
629.051	0.0144562
629.129	0.0144357
629.207	0.0144764
629.285	0.0144547
629.363	0.0144123
629.442	0.0144585
629.520	0.0143673
629.598	0.0144706
629.676	0.0144184
629.754	0.0144045
629.832	0.0143267
629.910	0.0143004
629.988	0.0143821
630.067	0.0143815
630.145	0.0144020
630.223	0.0142738
630.301	0.0144031
630.379	0.0142024
630.457	0.0143800
630.535	0.0143088
630.613	0.0142466
630.692	0.0141470
630.770	0.0141423
630.848	0.0140215
630.926	0.0141807
631.004	0.0143138
631.082	0.0140012
631.160	0.0141190
631.238	0.0141166
631.317	0.0142291
631.395	0.0142563
631.473	0.0143095
631.551	0.0141453
631.629	0.0141837
631.707	0.0142801
631.785	0.0142094
631.863	0.0142152
631.942	0.0142400
632.020	0.0144053
632.098	0.0142707
632.176	0.0144230
632.254	0.0143568
632.332	0.0144011
632.410	0.0145242
632.488	0.0143870
632.567	0.0144724
632.645	0.0143423
632.723	0.0143777
632.801	0.0144406
632.879	0.0143999
632.957	0.0142580
633.035	0.0143233
633.113	0.0144009
633.192	0.0143285
633.270	0.0142385
633.348	0.0143002
633.426	0.0143127
633.504	0.0142152
633.582	0.0141779
633.660	0.0141109
633.738	0.0140384
633.817	0.0142979
633.895	0.0141002
633.973	0.0140959
634.051	0.0142020
634.129	0.0143926
634.207	0.0142469
634.285	0.0143968
634.363	0.0143389
634.442	0.0142995
634.520	0.0142509
634.598	0.0143711
634.676	0.0143522
634.754	0.0142825
634.832	0.0143467
634.910	0.0144459
634.988	0.0144269
635.067	0.0141588
635.145	0.0142558
635.223	0.0143429
635.301	0.0142319
635.379	0.0142064
635.457	0.0141424
635.535	0.0142453
635.613	0.0142719
635.692	0.0142472
635.770	0.0141611
635.848	0.0141891
635.926	0.0142946
636.004	0.0142433
636.082	0.0143144
636.160	0.0142337
636.238	0.0144199
636.317	0.0144733
636.395	0.0144080
636.473	0.0143733
636.551	0.0144548
636.629	0.0144504
636.707	0.0144852
636.785	0.0144395
636.863	0.0146316
636.942	0.0145464
637.020	0.0145388
637.098	0.0145133
637.176	0.0145025
637.254	0.0145724
637.332	0.0145592
637.410	0.0145560
637.488	0.0144872
637.567	0.0145424
637.645	0.0145502
637.723	0.0143720
637.801	0.0144824
637.879	0.0144734
637.957	0.0144736
638.035	0.0144521
638.113	0.0144247
638.192	0.0146279
638.270	0.0143996
638.348	0.0145164
638.426	0.0143650
638.504	0.0143391
638.582	0.0143040
638.660	0.0142124
638.738	0.0142868
638.817	0.0143623
638.895	0.0140802
638.973	0.0140390
639.051	0.0141156
639.129	0.0140790
639.207	0.0139966
639.285	0.0138895
639.363	0.0138531
639.442	0.0138182
639.520	0.0140241
639.598	0.0140102
639.676	0.0140721
639.754	0.0141444
639.832	0.0140880
639.910	0.0140007
639.988	0.0141697
640.067	0.0142696
640.145	0.0142812
640.223	0.0142112
640.301	0.0142414
640.379	0.0142664
640.457	0.0143201
640.535	0.0144573
640.613	0.0144071
640.692	0.0144911
640.770	0.0145186
640.848	0.0143536
640.926	0.0144775
641.004	0.0145398
641.082	0.0145702
641.160	0.0145435
641.238	0.0146037
641.317	0.0146522
641.395	0.0146910
641.473	0.0146855
641.551	0.0147138
641.629	0.0146523
641.707	0.0148506
641.785	0.0147491
641.863	0.0146391
641.942	0.0146712
642.020	0.0147494
642.098	0.0147845
642.176	0.0146861
642.254	0.0146053
642.332	0.0145477
642.410	0.0146475
642.488	0.0145836
642.567	0.0145135
642.645	0.0144145
642.723	0.0146062
642.801	0.0145506
642.879	0.0144815
642.957	0.0145228
643.035	0.0143250
643.113	0.0144032
643.192	0.0143524
643.270	0.0143930
643.348	0.0144035
643.426	0.0142739
643.504	0.0143647
643.582	0.0142548
643.660	0.0142307
643.738	0.0142452
643.817	0.0142404
643.895	0.0141449
643.973	0.0142476
644.051	0.0141424
644.129	0.0140218
644.207	0.0141685
644.285	0.0142615
644.363	0.0142695
644.442	0.0142483
644.520	0.0144431
644.598	0.0143853
644.676	0.0144593
644.754	0.0144201
644.832	0.0145592
644.910	0.0145740
644.988	0.0145116
645.067	0.0145361
645.145	0.0144901
645.223	0.0145303
645.301	0.0145723
645.379	0.0146235
645.457	0.0146403
645.535	0.0145924
645.613	0.0145335
645.692	0.0146218
645.770	0.0146879
645.848	0.0145769
645.926	0.0146461
646.004	0.0146311
646.082	0.0145250
646.160	0.0146188
646.238	0.0146017
646.317	0.0147513
646.395	0.0147240
646.473	0.0145150
646.551	0.0148181
646.629	0.0147251
646.707	0.0145245
646.785	0.0145258
646.863	0.0147610
646.942	0.0146355
647.020	0.0145595
647.098	0.0146746
647.176	0.0145835
647.254	0.0145950
647.332	0.0144007
647.410	0.0144570
647.488	0.0145404
647.567	0.0145023
647.645	0.0143491
647.723	0.0143916
647.801	0.0142716
647.879	0.0142957
647.957	0.0141704
648.035	0.0141236
648.113	0.0141964
648.192	0.0140681
648.270	0.0142097
648.348	0.0141210
648.426	0.0141315
648.504	0.0141912
648.582	0.0141313
648.660	0.0141270
648.738	0.0140621
648.817	0.0138993
648.895	0.0142887
648.973	0.0142844
649.051	0.0142308
649.129	0.0142015
649.207	0.0141435
649.285	0.0141518
649.363	0.0142188
649.442	0.0140631
649.520	0.0141668
649.598	0.0141897
649.676	0.0140441
649.754	0.0141698
649.832	0.0141472
649.910	0.0141012
649.988	0.0142366
650.067	0.0140014
650.145	0.0141051
650.223	0.0141550
650.301	0.0140344
650.379	0.0140682
650.457	0.0139899
650.535	0.0139169
650.613	0.0140806
650.692	0.0140155
650.770	0.0139959
650.848	0.0140500
650.926	0.0139846
651.004	0.0140421
651.082	0.0140444
651.160	0.0141101
651.238	0.0142107
651.317	0.0142030
651.395	0.0142661
651.473	0.0142850
651.551	0.0142992
651.629	0.0142678
651.707	0.0143925
651.785	0.0143578
651.863	0.0145432
651.942	0.0145375
652.020	0.0143935
652.098	0.0146398
652.176	0.0144829
652.254	0.0145199
652.332	0.0147670
652.410	0.0145964
652.488	0.0146218
652.567	0.0146166
652.645	0.0145603
652.723	0.0145634
652.801	0.0145914
652.879	0.0145691
652.957	0.0144946
653.035	0.0144476
653.113	0.0143813
653.192	0.0144798
653.270	0.0143782
653.348	0.0143130
653.426	0.0142426
653.504	0.0143282
653.582	0.0141177
653.660	0.0142065
653.738	0.0142252
653.817	0.0141196
653.895	0.0140547
653.973	0.0141623
654.051	0.0141491
654.129	0.0139375
654.207	0.0139577
654.285	0.0141217
654.363	0.0143066
654.442	0.0141874
654.520	0.0143166
654.598	0.0142483
654.676	0.0143187
654.754	0.0142897
654.832	0.0145245
654.910	0.0144077
654.988	0.0144691
655.067	0.0146118
655.145	0.0146329
655.223	0.0146540
655.301	0.0146870
655.379	0.0145028
655.457	0.0145342
655.535	0.0146741
655.613	0.0145240
655.692	0.0143856
655.770	0.0144836
655.848	0.0143877
655.926	0.0143113
656.004	0.0142764
656.082	0.0142367
656.160	0.0142863
656.238	0.0143317
656.317	0.0141633
656.395	0.0140217
656.473	0.0140633
656.551	0.0142170
656.629	0.0141029
656.707	0.0141351
656.785	0.0142727
656.863	0.0141805
656.942	0.0142795
657.020	0.0144561
657.098	0.0142614
657.176	0.0142957
657.254	0.0143808
657.332	0.0145539
657.410	0.0146112
657.488	0.0146634
657.567	0.0147198
657.645	0.0147070
657.723	0.0147609
657.801	0.0148620
657.879	0.0146615
657.957	0.0148489
658.035	0.0148260
658.113	0.0148740
658.192	0.0147771
658.270	0.0147803
658.348	0.0147178
658.426	0.0146919
658.504	0.0146667
658.582	0.0146336
658.660	0.0146645
658.738	0.0145955
658.817	0.0145103
658.895	0.0145465
658.973	0.0144082
659.051	0.0144521
659.129	0.0142699
659.207	0.0143432
659.285	0.0142249
659.363	0.0143167
659.442	0.0142136
659.520	0.0140678
659.598	0.0141875
659.676	0.0142437
659.754	0.0141949
659.832	0.0142405
659.910	0.0140687
659.988	0.0141138
660.067	0.0143415
660.145	0.0141904
660.223	0.0141700
660.301	0.0142569
660.379	0.0141272
660.457	0.0141023
660.535	0.0141151
660.613	0.0141447
660.692	0.0139218
660.770	0.0139711
660.848	0.0140645
660.926	0.0140910
661.004	0.0139340
661.082	0.0139059
661.160	0.0138580
661.238	0.0139884
661.317	0.0139944
661.395	0.0138998
661.473	0.0139026
661.551	0.0140742
661.629	0.0140186
661.707	0.0140744
661.785	0.0141678
661.863	0.0141475
661.942	0.0142198
662.020	0.0143812
662.098	0.0144701
662.176	0.0145488
662.254	0.0146471
662.332	0.0146799
662.410	0.0147244
662.488	0.0148841
662.567	0.0147693
662.645	0.0147953
662.723	0.0147453
662.801	0.0148144
662.879	0.0148018
662.957	0.0148277
663.035	0.0146081
663.113	0.0147643
663.192	0.0147189
663.270	0.0145300
663.348	0.0146409
663.426	0.0147168
663.504	0.0144930
663.582	0.0144415
663.660	0.0145228
663.738	0.0143811
663.817	0.0142962
663.895	0.0143808
663.973	0.0142648
664.051	0.0141687
664.129	0.0141516
664.207	0.0142194
664.285	0.0141288
664.363	0.0141484
664.442	0.0140661
664.520	0.0140977
664.598	0.0140779
664.676	0.0140834
664.754	0.0141355
664.832	0.0142576
664.910	0.0142188
664.988	0.0141832
665.067	0.0143291
665.145	0.0143477
665.223	0.0144051
665.301	0.0144506
665.379	0.0145931
665.457	0.0145811
665.535	0.0147248
665.613	0.0147172
665.692	0.0148232
665.770	0.0148165
665.848	0.0149163
665.926	0.0148690
666.004	0.0147752
666.082	0.0148363
666.160	0.0147079
666.238	0.0147351
666.317	0.0147557
666.395	0.0145828
666.473	0.0144196
666.551	0.0144070
666.629	0.0142883
666.707	0.0142931
666.785	0.0143321
666.863	0.0142857
666.942	0.0141047
667.020	0.0141477
667.098	0.0142135
667.176	0.0142133
667.254	0.0140655
667.332	0.0142642
667.410	0.0141410
667.488	0.0142529
667.567	0.0143996
667.645	0.0145129
667.723	0.0145458
667.801	0.0146223
667.879	0.0145211
667.957	0.0147032
668.035	0.0148471
668.113	0.0148466
668.192	0.0147900
668.270	0.0148770
668.348	0.0147626
668.426	0.0147089
668.504	0.0148463
668.582	0.0147285
668.660	0.0147093
668.738	0.0146832
668.817	0.0147586
668.895	0.0147721
668.973	0.0146383
669.051	0.0146765
669.129	0.0147182
669.207	0.0144875
669.285	0.0145250
669.363	0.0145444
669.442	0.0144990
669.520	0.0145572
669.598	0.0145795
669.676	0.0145493
669.754	0.0145783
669.832	0.0145300
669.910	0.0143726
669.988	0.0145110
670.067	0.0146151
670.145	0.0145538
670.223	0.0147490
670.301	0.0146771
670.379	0.0146166
670.457	0.0146455
670.535	0.0147073
670.613	0.0148658
670.692	0.0146876
670.770	0.0145743
670.848	0.0147661
670.926	0.0146299
671.004	0.0145939
671.082	0.0144346
671.160	0.0143138
671.238	0.0142451
671.317	0.0140998
671.395	0.0140553
671.473	0.0140589
671.551	0.0137898
671.629	0.0138236
671.707	0.0136089
671.785	0.0136874
671.863	0.0135286
671.942	0.0135824
672.020	0.0135838
672.098	0.0136647
672.176	0.0138338
672.254	0.0139007
672.332	0.0140382
672.410	0.0139791
672.488	0.0143476
672.567	0.0144474
672.645	0.0146064
672.723	0.0147252
672.801	0.0147913
672.879	0.0149730
672.957	0.0151039
673.035	0.0152166
673.113	0.0152914
673.192	0.0152506
673.270	0.0153852
673.348	0.0152001
673.426	0.0151923
673.504	0.0149928
673.582	0.0149823
673.660	0.0149879
673.738	0.0148903
673.817	0.0147606
673.895	0.0146693
673.973	0.0146099
674.051	0.0144266
674.129	0.0141679
674.207	0.0142453
674.285	0.0142432
674.363	0.0139629
674.442	0.0140294
674.520	0.0138766
674.598	0.0139985
674.676	0.0138511
674.754	0.0139478
674.832	0.0137971
674.910	0.0139422
674.988	0.0137984
675.067	0.0138335
675.145	0.0138246
675.223	0.0139336
675.301	0.0138395
675.379	0.0140249
675.457	0.0139928
675.535	0.0140001
675.613	0.0140076
675.692	0.0142126
675.770	0.0143735
675.848	0.0143594
675.926	0.0143536
676.004	0.0142930
676.082	0.0146781
676.160	0.0147730
676.238	0.0147923
676.317	0.0149117
676.395	0.0146785
676.473	0.0149017
676.551	0.0148584
676.629	0.0148164
676.707	0.0149874
676.785	0.0149050
676.863	0.0148066
676.942	0.0149007
677.020	0.0147002
677.098	0.0145729
677.176	0.0145540
677.254	0.0145457
677.332	0.0145561
677.410	0.0144401
677.488	0.0144331
677.567	0.0143142
677.645	0.0143502
677.723	0.0142975
677.801	0.0141322
677.879	0.0141122
677.957	0.0142439
678.035	0.0141962
678.113	0.0141853
678.192	0.0142080
678.270	0.0141795
678.348	0.0140952
678.426	0.0142487
678.504	0.0141807
678.582	0.0140098
678.660	0.0142788
678.738	0.0142056
678.817	0.0141434
678.895	0.0143101
678.973	0.0143491
679.051	0.0143168
679.129	0.0142709
679.207	0.0142957
679.285	0.0142870
679.363	0.0143241
679.442	0.0145649
679.520	0.0146496
679.598	0.0144621
679.676	0.0145710
679.754	0.0146144
679.832	0.0146845
679.910	0.0147548
679.988	0.0146592
680.067	0.0147607
680.145	0.0148570
680.223	0.0147475
680.301	0.0149653
680.379	0.0148830
680.457	0.0148299
680.535	0.0148083
680.613	0.0147755
680.692	0.0147434
680.770	0.0148422
680.848	0.0149061
680.926	0.0144170
681.004	0.0145266
681.082	0.0145535
681.160	0.0144238
681.238	0.0144917
681.317	0.0144220
681.395	0.0145613
681.473	0.0144762
681.551	0.0142927
681.629	0.0143253
681.707	0.0142589
681.785	0.0141732
681.863	0.0140784
681.942	0.0142864
682.020	0.0142496
682.098	0.0142512
682.176	0.0140533
682.254	0.0139850
682.332	0.0138981
682.410	0.0136934
682.488	0.0140159
682.567	0.0138139
682.645	0.0139323
682.723	0.0138680
682.801	0.0138583
682.879	0.0138625
682.957	0.0138555
683.035	0.0138315
683.113	0.0137450
683.192	0.0138426
683.270	0.0139835
683.348	0.0141735
683.426	0.0141180
683.504	0.0140337
683.582	0.0142556
683.660	0.0143300
683.738	0.0140585
683.817	0.0142401
683.895	0.0145033
683.973	0.0142992
684.051	0.0142603
684.129	0.0145368
684.207	0.0143763
684.285	0.0144039
684.363	0.0144773
684.442	0.0145748
684.520	0.0146351
684.598	0.0147115
684.676	0.0148302
684.754	0.0149249
684.832	0.0151155
684.910	0.0147825
684.988	0.0150928
685.067	0.0148897
685.145	0.0148305
685.223	0.0148502
685.301	0.0147990
685.379	0.0149015
685.457	0.0147852
685.535	0.0146028
685.613	0.0143810
685.692	0.0141787
