05/28/2022	14:28:42	Ver.	4.1	UNKNOWN
Optical Delay	599.988409	Delta X		0.078125	Sweeps	1	Scan Rate	0/0
Coordinates	Axis 1	NaN	Axis 2	NaN	Axis 3	NaN	Axis 4	NaN	Axis 5	NaN	Axis 6	0.000000
TX Power	0.000000	RX Power	0.000000

599.988	0.0145762
600.067	0.0144982
600.145	0.0144949
600.223	0.0144767
600.301	0.0145438
600.379	0.0145705
600.457	0.0144605
600.535	0.0144319
600.613	0.0145215
600.692	0.0146588
600.770	0.0146228
600.848	0.0143887
600.926	0.0146624
601.004	0.0146116
601.082	0.0144770
601.160	0.0144647
601.238	0.0145988
601.317	0.0145098
601.395	0.0144857
601.473	0.0144610
601.551	0.0146817
601.629	0.0145858
601.707	0.0145311
601.785	0.0145773
601.863	0.0145078
601.942	0.0145608
602.020	0.0145924
602.098	0.0145792
602.176	0.0144630
602.254	0.0146229
602.332	0.0146343
602.410	0.0145463
602.488	0.0145515
602.567	0.0145454
602.645	0.0145065
602.723	0.0145471
602.801	0.0145610
602.879	0.0145853
602.957	0.0145667
603.035	0.0145317
603.113	0.0144427
603.192	0.0144933
603.270	0.0146127
603.348	0.0143587
603.426	0.0143787
603.504	0.0145050
603.582	0.0144603
603.660	0.0146191
603.738	0.0145554
603.817	0.0146377
603.895	0.0146160
603.973	0.0145509
604.051	0.0145320
604.129	0.0146848
604.207	0.0146072
604.285	0.0146267
604.363	0.0145153
604.442	0.0145203
604.520	0.0145970
604.598	0.0146330
604.676	0.0146928
604.754	0.0146853
604.832	0.0146487
604.910	0.0146726
604.988	0.0145593
605.067	0.0146604
605.145	0.0146998
605.223	0.0146476
605.301	0.0146714
605.379	0.0146624
605.457	0.0145850
605.535	0.0145676
605.613	0.0146478
605.692	0.0146413
605.770	0.0145109
605.848	0.0146307
605.926	0.0146689
606.004	0.0146078
606.082	0.0147603
606.160	0.0146124
606.238	0.0146709
606.317	0.0147066
606.395	0.0147603
606.473	0.0146452
606.551	0.0148048
606.629	0.0146577
606.707	0.0147570
606.785	0.0148168
606.863	0.0145761
606.942	0.0146235
607.020	0.0147096
607.098	0.0146408
607.176	0.0146899
607.254	0.0146536
607.332	0.0145816
607.410	0.0146735
607.488	0.0147333
607.567	0.0145621
607.645	0.0146933
607.723	0.0147340
607.801	0.0147181
607.879	0.0146776
607.957	0.0145734
608.035	0.0146436
608.113	0.0146394
608.192	0.0146258
608.270	0.0147183
608.348	0.0145497
608.426	0.0146474
608.504	0.0145564
608.582	0.0144952
608.660	0.0146822
608.738	0.0146388
608.817	0.0145541
608.895	0.0145047
608.973	0.0145352
609.051	0.0146521
609.129	0.0145400
609.207	0.0145695
609.285	0.0145740
609.363	0.0146228
609.442	0.0147495
609.520	0.0146507
609.598	0.0145720
609.676	0.0146371
609.754	0.0147260
609.832	0.0144762
609.910	0.0147075
609.988	0.0147839
610.067	0.0146613
610.145	0.0145734
610.223	0.0145732
610.301	0.0145672
610.379	0.0146500
610.457	0.0146449
610.535	0.0145796
610.613	0.0147234
610.692	0.0147427
610.770	0.0145994
610.848	0.0146541
610.926	0.0146569
611.004	0.0145744
611.082	0.0147215
611.160	0.0146759
611.238	0.0147079
611.317	0.0146745
611.395	0.0146509
611.473	0.0146425
611.551	0.0146922
611.629	0.0147246
611.707	0.0147031
611.785	0.0146857
611.863	0.0146848
611.942	0.0146851
612.020	0.0147373
612.098	0.0146667
612.176	0.0147262
612.254	0.0146287
612.332	0.0146501
612.410	0.0146788
612.488	0.0147472
612.567	0.0148193
612.645	0.0146761
612.723	0.0147328
612.801	0.0147081
612.879	0.0146072
612.957	0.0147305
613.035	0.0146297
613.113	0.0147632
613.192	0.0146803
613.270	0.0145394
613.348	0.0147196
613.426	0.0148371
613.504	0.0146210
613.582	0.0146745
613.660	0.0146062
613.738	0.0145766
613.817	0.0145311
613.895	0.0146285
613.973	0.0147453
614.051	0.0146016
614.129	0.0146123
614.207	0.0145126
614.285	0.0145976
614.363	0.0145173
614.442	0.0144771
614.520	0.0146121
614.598	0.0146793
614.676	0.0145708
614.754	0.0145493
614.832	0.0145894
614.910	0.0145779
614.988	0.0147776
615.067	0.0145423
615.145	0.0145794
615.223	0.0146149
615.301	0.0145898
615.379	0.0146051
615.457	0.0146064
615.535	0.0146049
615.613	0.0146381
615.692	0.0144910
615.770	0.0146755
615.848	0.0147922
615.926	0.0147256
616.004	0.0145367
616.082	0.0146037
616.160	0.0146275
616.238	0.0146675
616.317	0.0146315
616.395	0.0145192
616.473	0.0146291
616.551	0.0146449
616.629	0.0146516
616.707	0.0145662
616.785	0.0146503
616.863	0.0145163
616.942	0.0146540
617.020	0.0145885
617.098	0.0144833
617.176	0.0145753
617.254	0.0145658
617.332	0.0145160
617.410	0.0146309
617.488	0.0146413
617.567	0.0145219
617.645	0.0145805
617.723	0.0146436
617.801	0.0146118
617.879	0.0144387
617.957	0.0144653
618.035	0.0145255
618.113	0.0145770
618.192	0.0145545
618.270	0.0146312
618.348	0.0144211
618.426	0.0145365
618.504	0.0146394
618.582	0.0145142
618.660	0.0145344
618.738	0.0146775
618.817	0.0144808
618.895	0.0144769
618.973	0.0146301
619.051	0.0145156
619.129	0.0146204
619.207	0.0146238
619.285	0.0145782
619.363	0.0146124
619.442	0.0146545
619.520	0.0144160
619.598	0.0146069
619.676	0.0145148
619.754	0.0145004
619.832	0.0145904
619.910	0.0146847
619.988	0.0146154
620.067	0.0146436
620.145	0.0144666
620.223	0.0145058
620.301	0.0145730
620.379	0.0146528
620.457	0.0145193
620.535	0.0144701
620.613	0.0145451
620.692	0.0145923
620.770	0.0145651
620.848	0.0146523
620.926	0.0145398
621.004	0.0145541
621.082	0.0144629
621.160	0.0144171
621.238	0.0145879
621.317	0.0146705
621.395	0.0145664
621.473	0.0145628
621.551	0.0146066
621.629	0.0146226
621.707	0.0145263
621.785	0.0144793
621.863	0.0146138
621.942	0.0145625
622.020	0.0145320
622.098	0.0146239
622.176	0.0145338
622.254	0.0145394
622.332	0.0145556
622.410	0.0146243
622.488	0.0145569
622.567	0.0145378
622.645	0.0145149
622.723	0.0145985
622.801	0.0145511
622.879	0.0144288
622.957	0.0144735
623.035	0.0145564
623.113	0.0144479
623.192	0.0145554
623.270	0.0146133
623.348	0.0143340
623.426	0.0145081
623.504	0.0147965
623.582	0.0146495
623.660	0.0146755
623.738	0.0144931
623.817	0.0145440
623.895	0.0145876
623.973	0.0146716
624.051	0.0145279
624.129	0.0144818
624.207	0.0144791
624.285	0.0146794
624.363	0.0145721
624.442	0.0145377
624.520	0.0145173
624.598	0.0144653
624.676	0.0144151
624.754	0.0145535
624.832	0.0145692
624.910	0.0145622
624.988	0.0144800
625.067	0.0144946
625.145	0.0146294
625.223	0.0145774
625.301	0.0145506
625.379	0.0145549
625.457	0.0145119
625.535	0.0146225
625.613	0.0146349
625.692	0.0146934
625.770	0.0145751
625.848	0.0145408
625.926	0.0144889
626.004	0.0147879
626.082	0.0147584
626.160	0.0146397
626.238	0.0146674
626.317	0.0147231
626.395	0.0148443
626.473	0.0146224
626.551	0.0146118
626.629	0.0146632
626.707	0.0146209
626.785	0.0145536
626.863	0.0146512
626.942	0.0147619
627.020	0.0146853
627.098	0.0146009
627.176	0.0145836
627.254	0.0144059
627.332	0.0144501
627.410	0.0145103
627.488	0.0144961
627.567	0.0146433
627.645	0.0144882
627.723	0.0144699
627.801	0.0146246
627.879	0.0145099
627.957	0.0145268
628.035	0.0144687
628.113	0.0145697
628.192	0.0146342
628.270	0.0144820
628.348	0.0145413
628.426	0.0146944
628.504	0.0145219
628.582	0.0144338
628.660	0.0144903
628.738	0.0143876
628.817	0.0144753
628.895	0.0145175
628.973	0.0144747
629.051	0.0144891
629.129	0.0146446
629.207	0.0145782
629.285	0.0144346
629.363	0.0144846
629.442	0.0146134
629.520	0.0145359
629.598	0.0145186
629.676	0.0146086
629.754	0.0143695
629.832	0.0143134
629.910	0.0145726
629.988	0.0144609
630.067	0.0144341
630.145	0.0145135
630.223	0.0142824
630.301	0.0143493
630.379	0.0144673
630.457	0.0143926
630.535	0.0144756
630.613	0.0143108
630.692	0.0144157
630.770	0.0143859
630.848	0.0144003
630.926	0.0143632
631.004	0.0143663
631.082	0.0144251
631.160	0.0144686
631.238	0.0144518
631.317	0.0143655
631.395	0.0144400
631.473	0.0144707
631.551	0.0145558
631.629	0.0147064
631.707	0.0146864
631.785	0.0146865
631.863	0.0146740
631.942	0.0146728
632.020	0.0146014
632.098	0.0149179
632.176	0.0147980
632.254	0.0146674
632.332	0.0146922
632.410	0.0147702
632.488	0.0147160
632.567	0.0147240
632.645	0.0146777
632.723	0.0145821
632.801	0.0146182
632.879	0.0145053
632.957	0.0144907
633.035	0.0146088
633.113	0.0146097
633.192	0.0144830
633.270	0.0145862
633.348	0.0146369
633.426	0.0145132
633.504	0.0143977
633.582	0.0145608
633.660	0.0145998
633.738	0.0145674
633.817	0.0146678
633.895	0.0148140
633.973	0.0147386
634.051	0.0147189
634.129	0.0148518
634.207	0.0146331
634.285	0.0147643
634.363	0.0146897
634.442	0.0147607
634.520	0.0145708
634.598	0.0145528
634.676	0.0146216
634.754	0.0145503
634.832	0.0144688
634.910	0.0145158
634.988	0.0145322
635.067	0.0145089
635.145	0.0144137
635.223	0.0143415
635.301	0.0143884
635.379	0.0144242
635.457	0.0145197
635.535	0.0143201
635.613	0.0144794
635.692	0.0143851
635.770	0.0144672
635.848	0.0144614
635.926	0.0146030
636.004	0.0146716
636.082	0.0146068
636.160	0.0147063
636.238	0.0147288
636.317	0.0145251
636.395	0.0146729
636.473	0.0146995
636.551	0.0147622
636.629	0.0147369
636.707	0.0147184
636.785	0.0147322
636.863	0.0147549
636.942	0.0148205
637.020	0.0145827
637.098	0.0147739
637.176	0.0147186
637.254	0.0147944
637.332	0.0147820
637.410	0.0146554
637.488	0.0148004
637.567	0.0147737
637.645	0.0148228
637.723	0.0147334
637.801	0.0149072
637.879	0.0146089
637.957	0.0147321
638.035	0.0146044
638.113	0.0146725
638.192	0.0147085
638.270	0.0146910
638.348	0.0144836
638.426	0.0143983
638.504	0.0144041
638.582	0.0143623
638.660	0.0141995
638.738	0.0141682
638.817	0.0143805
638.895	0.0142853
638.973	0.0142937
639.051	0.0142705
639.129	0.0142784
639.207	0.0143376
639.285	0.0143519
639.363	0.0143158
639.442	0.0144369
639.520	0.0145410
639.598	0.0143215
639.676	0.0144366
639.754	0.0145425
639.832	0.0146234
639.910	0.0146484
639.988	0.0145902
640.067	0.0146796
640.145	0.0148521
640.223	0.0147466
640.301	0.0149111
640.379	0.0149274
640.457	0.0148788
640.535	0.0148681
640.613	0.0149139
640.692	0.0148655
640.770	0.0148494
640.848	0.0150489
640.926	0.0149150
641.004	0.0149116
641.082	0.0150273
641.160	0.0150830
641.238	0.0149162
641.317	0.0148566
641.395	0.0149918
641.473	0.0148843
641.551	0.0150290
641.629	0.0151675
641.707	0.0150301
641.785	0.0148943
641.863	0.0149808
641.942	0.0150301
642.020	0.0147845
642.098	0.0147629
642.176	0.0148412
642.254	0.0148116
642.332	0.0145276
642.410	0.0147007
642.488	0.0147760
642.567	0.0145792
642.645	0.0146877
642.723	0.0145471
642.801	0.0145184
642.879	0.0144474
642.957	0.0146826
643.035	0.0144434
643.113	0.0144331
643.192	0.0142579
643.270	0.0143266
643.348	0.0143410
643.426	0.0141998
643.504	0.0142240
643.582	0.0142220
643.660	0.0141362
643.738	0.0141882
643.817	0.0141599
643.895	0.0142361
643.973	0.0142068
644.051	0.0142723
644.129	0.0144218
644.207	0.0144151
644.285	0.0144402
644.363	0.0144211
644.442	0.0144815
644.520	0.0145388
644.598	0.0147189
644.676	0.0144942
644.754	0.0145358
644.832	0.0145562
644.910	0.0146703
644.988	0.0145648
645.067	0.0145245
645.145	0.0146152
645.223	0.0145718
645.301	0.0146368
645.379	0.0145506
645.457	0.0145395
645.535	0.0147454
645.613	0.0147263
645.692	0.0146719
645.770	0.0147460
645.848	0.0148004
645.926	0.0146461
646.004	0.0148102
646.082	0.0147385
646.160	0.0146923
646.238	0.0146445
646.317	0.0147437
646.395	0.0147077
646.473	0.0146058
646.551	0.0145782
646.629	0.0146867
646.707	0.0147285
646.785	0.0145609
646.863	0.0145607
646.942	0.0146031
647.020	0.0146027
647.098	0.0146357
647.176	0.0145573
647.254	0.0145883
647.332	0.0146037
647.410	0.0145802
647.488	0.0143542
647.567	0.0145147
647.645	0.0143712
647.723	0.0144170
647.801	0.0144365
647.879	0.0143044
647.957	0.0143871
648.035	0.0143016
648.113	0.0143289
648.192	0.0144292
648.270	0.0143459
648.348	0.0141472
648.426	0.0144836
648.504	0.0146002
648.582	0.0144141
648.660	0.0143347
648.738	0.0143829
648.817	0.0144006
648.895	0.0145412
648.973	0.0145379
649.051	0.0145301
649.129	0.0146140
649.207	0.0145065
649.285	0.0145766
649.363	0.0145422
649.442	0.0146319
649.520	0.0145918
649.598	0.0145216
649.676	0.0145975
649.754	0.0145117
649.832	0.0144490
649.910	0.0145845
649.988	0.0144684
650.067	0.0143866
650.145	0.0144475
650.223	0.0143166
650.301	0.0143405
650.379	0.0144372
650.457	0.0143395
650.535	0.0144068
650.613	0.0143122
650.692	0.0143908
650.770	0.0144032
650.848	0.0145567
650.926	0.0144139
651.004	0.0144583
651.082	0.0146465
651.160	0.0146483
651.238	0.0145357
651.317	0.0147674
651.395	0.0147522
651.473	0.0147534
651.551	0.0147092
651.629	0.0148396
651.707	0.0149030
651.785	0.0148822
651.863	0.0148607
651.942	0.0149019
652.020	0.0148379
652.098	0.0148492
652.176	0.0148785
652.254	0.0148652
652.332	0.0148494
652.410	0.0147794
652.488	0.0148156
652.567	0.0148673
652.645	0.0146994
652.723	0.0147989
652.801	0.0148484
652.879	0.0146973
652.957	0.0145340
653.035	0.0145879
653.113	0.0146839
653.192	0.0146254
653.270	0.0143965
653.348	0.0144729
653.426	0.0143572
653.504	0.0142976
653.582	0.0144145
653.660	0.0143012
653.738	0.0143077
653.817	0.0144042
653.895	0.0143081
653.973	0.0143579
654.051	0.0143935
654.129	0.0144045
654.207	0.0143842
654.285	0.0144366
654.363	0.0143891
654.442	0.0145897
654.520	0.0145349
654.598	0.0147295
654.676	0.0146674
654.754	0.0147104
654.832	0.0146706
654.910	0.0147096
654.988	0.0147262
655.067	0.0148212
655.145	0.0147299
655.223	0.0147651
655.301	0.0147202
655.379	0.0146156
655.457	0.0146886
655.535	0.0145469
655.613	0.0145120
655.692	0.0145159
655.770	0.0145123
655.848	0.0144114
655.926	0.0144247
656.004	0.0143315
656.082	0.0142796
656.160	0.0144055
656.238	0.0144081
656.317	0.0141936
656.395	0.0142920
656.473	0.0142500
656.551	0.0143211
656.629	0.0142595
656.707	0.0143417
656.785	0.0144391
656.863	0.0144837
656.942	0.0145290
657.020	0.0146384
657.098	0.0146001
657.176	0.0146912
657.254	0.0147388
657.332	0.0147844
657.410	0.0147415
657.488	0.0148143
657.567	0.0148240
657.645	0.0148969
657.723	0.0149113
657.801	0.0148760
657.879	0.0151477
657.957	0.0150903
658.035	0.0149694
658.113	0.0149481
658.192	0.0148727
658.270	0.0149259
658.348	0.0149358
658.426	0.0148722
658.504	0.0147177
658.582	0.0145525
658.660	0.0145303
658.738	0.0144514
658.817	0.0144880
658.895	0.0144241
658.973	0.0145213
659.051	0.0143657
659.129	0.0143456
659.207	0.0143401
659.285	0.0141986
659.363	0.0142566
659.442	0.0142875
659.520	0.0143032
659.598	0.0143398
659.676	0.0143295
659.754	0.0141305
659.832	0.0143378
659.910	0.0143288
659.988	0.0143600
660.067	0.0144595
660.145	0.0143336
660.223	0.0143427
660.301	0.0143349
660.379	0.0145428
660.457	0.0145142
660.535	0.0143530
660.613	0.0144286
660.692	0.0144472
660.770	0.0144424
660.848	0.0144540
660.926	0.0145103
661.004	0.0144020
661.082	0.0143503
661.160	0.0142894
661.238	0.0144646
661.317	0.0145049
661.395	0.0145256
661.473	0.0145004
661.551	0.0146130
661.629	0.0146657
661.707	0.0147266
661.785	0.0149434
661.863	0.0148483
661.942	0.0148415
662.020	0.0149761
662.098	0.0150478
662.176	0.0150024
662.254	0.0151214
662.332	0.0151473
662.410	0.0152702
662.488	0.0151564
662.567	0.0152138
662.645	0.0152148
662.723	0.0151527
662.801	0.0152015
662.879	0.0152694
662.957	0.0151799
663.035	0.0150570
663.113	0.0150059
663.192	0.0150494
663.270	0.0149071
663.348	0.0149490
663.426	0.0148333
663.504	0.0146794
663.582	0.0147855
663.660	0.0147021
663.738	0.0144993
663.817	0.0145302
663.895	0.0145273
663.973	0.0145049
664.051	0.0144654
664.129	0.0143502
664.207	0.0144004
664.285	0.0143003
664.363	0.0142049
664.442	0.0142645
664.520	0.0143148
664.598	0.0144132
664.676	0.0143842
664.754	0.0145361
664.832	0.0145427
664.910	0.0145287
664.988	0.0147440
665.067	0.0148380
665.145	0.0149484
665.223	0.0149191
665.301	0.0149989
665.379	0.0150300
665.457	0.0149534
665.535	0.0149648
665.613	0.0151085
665.692	0.0151280
665.770	0.0150811
665.848	0.0150263
665.926	0.0149223
666.004	0.0150677
666.082	0.0149509
666.160	0.0148106
666.238	0.0148942
666.317	0.0147582
666.395	0.0146702
666.473	0.0145607
666.551	0.0144088
666.629	0.0143938
666.707	0.0144868
666.785	0.0142683
666.863	0.0142847
666.942	0.0142284
667.020	0.0143208
667.098	0.0143833
667.176	0.0143774
667.254	0.0143520
667.332	0.0144275
667.410	0.0144933
667.488	0.0143938
667.567	0.0145856
667.645	0.0146645
667.723	0.0145827
667.801	0.0147017
667.879	0.0146642
667.957	0.0146984
668.035	0.0147810
668.113	0.0148432
668.192	0.0148673
668.270	0.0148917
668.348	0.0150564
668.426	0.0149161
668.504	0.0149772
668.582	0.0148989
668.660	0.0150334
668.738	0.0149482
668.817	0.0149871
668.895	0.0149774
668.973	0.0148315
669.051	0.0149313
669.129	0.0148594
669.207	0.0148739
669.285	0.0148325
669.363	0.0148238
669.442	0.0147849
669.520	0.0148027
669.598	0.0147245
669.676	0.0147523
669.754	0.0146543
669.832	0.0146939
669.910	0.0146093
669.988	0.0147295
670.067	0.0146382
670.145	0.0146587
670.223	0.0146828
670.301	0.0146966
670.379	0.0147810
670.457	0.0147281
670.535	0.0147970
670.613	0.0147732
670.692	0.0147065
670.770	0.0147569
670.848	0.0146739
670.926	0.0145358
671.004	0.0146842
671.082	0.0145472
671.160	0.0144511
671.238	0.0143633
671.317	0.0143277
671.395	0.0143348
671.473	0.0141376
671.551	0.0139484
671.629	0.0140170
671.707	0.0140605
671.785	0.0139957
671.863	0.0138769
671.942	0.0137524
672.020	0.0139275
672.098	0.0140534
672.176	0.0140927
672.254	0.0141129
672.332	0.0142191
672.410	0.0144039
672.488	0.0145633
672.567	0.0147108
672.645	0.0148676
672.723	0.0149252
672.801	0.0151679
672.879	0.0152027
672.957	0.0152319
673.035	0.0154063
673.113	0.0156831
673.192	0.0155576
673.270	0.0155011
673.348	0.0156335
673.426	0.0155916
673.504	0.0153332
673.582	0.0153223
673.660	0.0154498
673.738	0.0151545
673.817	0.0149985
673.895	0.0148645
673.973	0.0148600
674.051	0.0148054
674.129	0.0147411
674.207	0.0145446
674.285	0.0143260
674.363	0.0143266
674.442	0.0144019
674.520	0.0142072
674.598	0.0141533
674.676	0.0141609
674.754	0.0141621
674.832	0.0141286
674.910	0.0140048
674.988	0.0141088
675.067	0.0140974
675.145	0.0139909
675.223	0.0138781
675.301	0.0141113
675.379	0.0140285
675.457	0.0140703
675.535	0.0142051
675.613	0.0142382
675.692	0.0144427
675.770	0.0145782
675.848	0.0145773
675.926	0.0148125
676.004	0.0147644
676.082	0.0150166
676.160	0.0150530
676.238	0.0150271
676.317	0.0151167
676.395	0.0152998
676.473	0.0152149
676.551	0.0152745
676.629	0.0152152
676.707	0.0153930
676.785	0.0152245
676.863	0.0151144
676.942	0.0150954
677.020	0.0151360
677.098	0.0149442
677.176	0.0148734
677.254	0.0146998
677.332	0.0146756
677.410	0.0146628
677.488	0.0146712
677.567	0.0144952
677.645	0.0144781
677.723	0.0144860
677.801	0.0143962
677.879	0.0143872
677.957	0.0144147
678.035	0.0142489
678.113	0.0144130
678.192	0.0144496
678.270	0.0144212
678.348	0.0142660
678.426	0.0141516
678.504	0.0142944
678.582	0.0141550
678.660	0.0143803
678.738	0.0142986
678.817	0.0142859
678.895	0.0142183
678.973	0.0144074
679.051	0.0142368
679.129	0.0142236
679.207	0.0142658
679.285	0.0142761
679.363	0.0142785
679.442	0.0143236
679.520	0.0144603
679.598	0.0144692
679.676	0.0145825
679.754	0.0145294
679.832	0.0146246
679.910	0.0147964
679.988	0.0148170
680.067	0.0147339
680.145	0.0147633
680.223	0.0148962
680.301	0.0147708
680.379	0.0147794
680.457	0.0148425
680.535	0.0149692
680.613	0.0148642
680.692	0.0148656
680.770	0.0148624
680.848	0.0146952
680.926	0.0145895
681.004	0.0146511
681.082	0.0146147
681.160	0.0146141
681.238	0.0145866
681.317	0.0146815
681.395	0.0146736
681.473	0.0143848
681.551	0.0144901
681.629	0.0144156
681.707	0.0144882
681.785	0.0144712
681.863	0.0144571
681.942	0.0145410
682.020	0.0145088
682.098	0.0144736
682.176	0.0145596
682.254	0.0145234
682.332	0.0146076
682.410	0.0144028
682.488	0.0143214
682.567	0.0143639
682.645	0.0143127
682.723	0.0144118
682.801	0.0143978
682.879	0.0143048
682.957	0.0142509
683.035	0.0142969
683.113	0.0142696
683.192	0.0144662
683.270	0.0144830
683.348	0.0145113
683.426	0.0144247
683.504	0.0145667
683.582	0.0145637
683.660	0.0145506
683.738	0.0145341
683.817	0.0146023
683.895	0.0147512
683.973	0.0147633
684.051	0.0148683
684.129	0.0147298
684.207	0.0148775
684.285	0.0149274
684.363	0.0148255
684.442	0.0149803
684.520	0.0151234
684.598	0.0151206
684.676	0.0150542
684.754	0.0151968
684.832	0.0151524
684.910	0.0151734
684.988	0.0154169
685.067	0.0155485
685.145	0.0155393
685.223	0.0154819
685.301	0.0154193
685.379	0.0154624
685.457	0.0154272
685.535	0.0152499
685.613	0.0151715
685.692	0.0150693
