05/28/2022	14:28:57	Ver.	4.1	UNKNOWN
Optical Delay	599.988409	Delta X		0.078125	Sweeps	1	Scan Rate	0/0
Coordinates	Axis 1	NaN	Axis 2	NaN	Axis 3	NaN	Axis 4	NaN	Axis 5	NaN	Axis 6	0.000000
TX Power	0.000000	RX Power	0.000000

599.988	0.0145853
600.067	0.0145884
600.145	0.0145979
600.223	0.0146220
600.301	0.0148550
600.379	0.0146332
600.457	0.0146993
600.535	0.0147547
600.613	0.0146715
600.692	0.0147021
600.770	0.0146603
600.848	0.0147323
600.926	0.0147357
601.004	0.0147952
601.082	0.0147124
601.160	0.0147401
601.238	0.0147673
601.317	0.0145505
601.395	0.0147009
601.473	0.0147239
601.551	0.0145353
601.629	0.0147051
601.707	0.0146788
601.785	0.0146388
601.863	0.0146779
601.942	0.0146953
602.020	0.0146452
602.098	0.0147502
602.176	0.0146176
602.254	0.0146392
602.332	0.0145929
602.410	0.0145571
602.488	0.0146544
602.567	0.0147218
602.645	0.0147241
602.723	0.0145874
602.801	0.0146239
602.879	0.0146951
602.957	0.0145062
603.035	0.0146537
603.113	0.0147390
603.192	0.0147747
603.270	0.0147089
603.348	0.0146661
603.426	0.0146363
603.504	0.0147401
603.582	0.0147801
603.660	0.0146651
603.738	0.0147839
603.817	0.0147026
603.895	0.0147117
603.973	0.0146569
604.051	0.0147566
604.129	0.0146684
604.207	0.0147774
604.285	0.0146919
604.363	0.0146342
604.442	0.0146646
604.520	0.0146880
604.598	0.0148524
604.676	0.0147229
604.754	0.0145744
604.832	0.0146234
604.910	0.0148212
604.988	0.0147138
605.067	0.0146340
605.145	0.0146944
605.223	0.0146871
605.301	0.0146973
605.379	0.0146799
605.457	0.0147719
605.535	0.0148563
605.613	0.0147150
605.692	0.0146564
605.770	0.0147237
605.848	0.0147430
605.926	0.0148029
606.004	0.0147984
606.082	0.0147147
606.160	0.0146673
606.238	0.0147137
606.317	0.0146953
606.395	0.0147318
606.473	0.0146589
606.551	0.0147231
606.629	0.0145817
606.707	0.0146690
606.785	0.0147357
606.863	0.0148936
606.942	0.0147597
607.020	0.0146513
607.098	0.0147144
607.176	0.0147714
607.254	0.0146863
607.332	0.0147139
607.410	0.0147175
607.488	0.0147685
607.567	0.0147458
607.645	0.0146044
607.723	0.0147372
607.801	0.0148042
607.879	0.0146597
607.957	0.0146123
608.035	0.0145699
608.113	0.0147162
608.192	0.0147388
608.270	0.0146140
608.348	0.0147330
608.426	0.0147034
608.504	0.0147896
608.582	0.0146915
608.660	0.0147436
608.738	0.0148116
608.817	0.0147073
608.895	0.0146477
608.973	0.0146086
609.051	0.0146585
609.129	0.0148775
609.207	0.0147667
609.285	0.0148412
609.363	0.0146684
609.442	0.0147332
609.520	0.0147537
609.598	0.0147325
609.676	0.0147381
609.754	0.0146410
609.832	0.0147398
609.910	0.0148841
609.988	0.0147911
610.067	0.0147098
610.145	0.0148579
610.223	0.0147590
610.301	0.0146684
610.379	0.0145656
610.457	0.0147326
610.535	0.0147596
610.613	0.0147746
610.692	0.0146896
610.770	0.0147633
610.848	0.0146842
610.926	0.0146727
611.004	0.0147310
611.082	0.0147163
611.160	0.0148586
611.238	0.0147083
611.317	0.0146251
611.395	0.0147508
611.473	0.0146959
611.551	0.0147041
611.629	0.0148449
611.707	0.0147357
611.785	0.0146712
611.863	0.0147212
611.942	0.0147605
612.020	0.0146790
612.098	0.0147719
612.176	0.0147278
612.254	0.0147477
612.332	0.0147955
612.410	0.0147282
612.488	0.0146089
612.567	0.0145794
612.645	0.0146245
612.723	0.0146461
612.801	0.0145650
612.879	0.0146108
612.957	0.0145636
613.035	0.0145467
613.113	0.0146189
613.192	0.0146679
613.270	0.0145225
613.348	0.0147285
613.426	0.0145945
613.504	0.0147021
613.582	0.0146807
613.660	0.0146355
613.738	0.0147169
613.817	0.0145454
613.895	0.0147108
613.973	0.0146565
614.051	0.0145287
614.129	0.0146944
614.207	0.0147260
614.285	0.0146210
614.363	0.0145378
614.442	0.0146646
614.520	0.0145193
614.598	0.0145743
614.676	0.0145517
614.754	0.0146016
614.832	0.0147183
614.910	0.0146367
614.988	0.0146274
615.067	0.0147292
615.145	0.0146077
615.223	0.0146275
615.301	0.0146128
615.379	0.0146185
615.457	0.0146449
615.535	0.0145606
615.613	0.0146283
615.692	0.0146591
615.770	0.0145505
615.848	0.0145448
615.926	0.0146400
616.004	0.0147076
616.082	0.0146770
616.160	0.0145419
616.238	0.0146289
616.317	0.0146937
616.395	0.0147342
616.473	0.0146046
616.551	0.0146429
616.629	0.0145902
616.707	0.0145904
616.785	0.0145254
616.863	0.0146064
616.942	0.0146771
617.020	0.0145279
617.098	0.0146206
617.176	0.0146115
617.254	0.0145424
617.332	0.0145763
617.410	0.0146486
617.488	0.0145831
617.567	0.0144542
617.645	0.0145407
617.723	0.0146275
617.801	0.0146073
617.879	0.0146725
617.957	0.0145352
618.035	0.0145296
618.113	0.0144986
618.192	0.0145542
618.270	0.0146669
618.348	0.0145405
618.426	0.0146207
618.504	0.0146037
618.582	0.0146934
618.660	0.0146790
618.738	0.0146157
618.817	0.0145644
618.895	0.0144466
618.973	0.0145768
619.051	0.0147132
619.129	0.0145055
619.207	0.0146194
619.285	0.0144954
619.363	0.0145943
619.442	0.0147249
619.520	0.0147121
619.598	0.0147218
619.676	0.0146590
619.754	0.0146509
619.832	0.0145831
619.910	0.0147445
619.988	0.0146297
620.067	0.0146487
620.145	0.0146384
620.223	0.0145576
620.301	0.0146008
620.379	0.0146200
620.457	0.0146516
620.535	0.0146146
620.613	0.0146285
620.692	0.0145407
620.770	0.0146631
620.848	0.0144661
620.926	0.0146773
621.004	0.0145291
621.082	0.0146977
621.160	0.0146361
621.238	0.0147046
621.317	0.0146986
621.395	0.0145933
621.473	0.0145362
621.551	0.0144919
621.629	0.0145037
621.707	0.0147571
621.785	0.0144911
621.863	0.0143880
621.942	0.0145998
622.020	0.0144772
622.098	0.0145720
622.176	0.0145435
622.254	0.0144742
622.332	0.0144913
622.410	0.0147041
622.488	0.0145630
622.567	0.0147364
622.645	0.0147478
622.723	0.0144991
622.801	0.0145405
622.879	0.0146030
622.957	0.0147610
623.035	0.0146778
623.113	0.0145998
623.192	0.0146579
623.270	0.0147543
623.348	0.0148244
623.426	0.0147154
623.504	0.0145602
623.582	0.0146715
623.660	0.0148739
623.738	0.0146075
623.817	0.0146191
623.895	0.0147009
623.973	0.0146281
624.051	0.0146547
624.129	0.0145466
624.207	0.0146301
624.285	0.0147066
624.363	0.0146165
624.442	0.0145685
624.520	0.0145911
624.598	0.0146628
624.676	0.0145459
624.754	0.0146394
624.832	0.0147407
624.910	0.0145171
624.988	0.0146546
625.067	0.0146170
625.145	0.0145565
625.223	0.0147082
625.301	0.0146262
625.379	0.0147742
625.457	0.0146806
625.535	0.0145500
625.613	0.0145625
625.692	0.0145799
625.770	0.0145999
625.848	0.0145182
625.926	0.0145464
626.004	0.0145228
626.082	0.0146503
626.160	0.0145935
626.238	0.0145998
626.317	0.0145686
626.395	0.0145554
626.473	0.0146078
626.551	0.0145001
626.629	0.0145654
626.707	0.0144682
626.785	0.0144663
626.863	0.0145869
626.942	0.0144994
627.020	0.0146551
627.098	0.0146134
627.176	0.0144527
627.254	0.0145893
627.332	0.0145114
627.410	0.0145766
627.488	0.0147092
627.567	0.0145831
627.645	0.0145512
627.723	0.0146484
627.801	0.0146381
627.879	0.0146021
627.957	0.0146797
628.035	0.0147074
628.113	0.0147517
628.192	0.0145515
628.270	0.0145221
628.348	0.0145023
628.426	0.0145957
628.504	0.0146440
628.582	0.0146999
628.660	0.0146004
628.738	0.0146482
628.817	0.0146677
628.895	0.0146828
628.973	0.0146130
629.051	0.0145590
629.129	0.0146507
629.207	0.0147228
629.285	0.0145946
629.363	0.0146075
629.442	0.0144678
629.520	0.0146231
629.598	0.0144891
629.676	0.0145646
629.754	0.0146325
629.832	0.0145255
629.910	0.0145481
629.988	0.0146172
630.067	0.0146383
630.145	0.0145354
630.223	0.0144278
630.301	0.0146630
630.379	0.0145930
630.457	0.0145959
630.535	0.0145173
630.613	0.0146661
630.692	0.0147939
630.770	0.0147414
630.848	0.0145554
630.926	0.0146203
631.004	0.0147112
631.082	0.0146803
631.160	0.0146526
631.238	0.0147949
631.317	0.0148306
631.395	0.0149292
631.473	0.0148186
631.551	0.0147593
631.629	0.0148394
631.707	0.0149236
631.785	0.0147144
631.863	0.0146245
631.942	0.0147633
632.020	0.0147939
632.098	0.0146797
632.176	0.0145757
632.254	0.0145711
632.332	0.0146446
632.410	0.0145489
632.488	0.0145033
632.567	0.0145706
632.645	0.0146375
632.723	0.0145648
632.801	0.0146101
632.879	0.0145166
632.957	0.0145641
633.035	0.0146426
633.113	0.0146710
633.192	0.0147125
633.270	0.0147329
633.348	0.0146190
633.426	0.0147181
633.504	0.0147129
633.582	0.0148042
633.660	0.0148038
633.738	0.0147117
633.817	0.0147006
633.895	0.0148022
633.973	0.0146518
634.051	0.0145303
634.129	0.0147527
634.207	0.0144453
634.285	0.0145295
634.363	0.0145892
634.442	0.0145254
634.520	0.0144274
634.598	0.0144054
634.676	0.0145615
634.754	0.0145599
634.832	0.0144806
634.910	0.0144166
634.988	0.0145927
635.067	0.0145971
635.145	0.0146093
635.223	0.0146484
635.301	0.0146915
635.379	0.0147977
635.457	0.0148811
635.535	0.0146795
635.613	0.0147715
635.692	0.0148800
635.770	0.0149327
635.848	0.0150443
635.926	0.0148872
636.004	0.0150047
636.082	0.0149275
636.160	0.0147971
636.238	0.0148878
636.317	0.0147584
636.395	0.0148834
636.473	0.0150031
636.551	0.0148656
636.629	0.0148850
636.707	0.0148474
636.785	0.0148613
636.863	0.0148940
636.942	0.0148598
637.020	0.0148220
637.098	0.0149821
637.176	0.0147905
637.254	0.0147797
637.332	0.0147813
637.410	0.0147913
637.488	0.0147699
637.567	0.0145561
637.645	0.0145365
637.723	0.0144511
637.801	0.0145258
637.879	0.0144498
637.957	0.0143291
638.035	0.0142303
638.113	0.0144365
638.192	0.0141963
638.270	0.0141961
638.348	0.0143787
638.426	0.0142402
638.504	0.0141886
638.582	0.0144171
638.660	0.0144033
638.738	0.0144622
638.817	0.0143754
638.895	0.0146081
638.973	0.0145773
639.051	0.0145031
639.129	0.0146755
639.207	0.0145539
639.285	0.0144942
639.363	0.0147253
639.442	0.0145766
639.520	0.0145536
639.598	0.0146527
639.676	0.0146238
639.754	0.0146422
639.832	0.0145720
639.910	0.0145084
639.988	0.0147629
640.067	0.0146687
640.145	0.0148692
640.223	0.0146567
640.301	0.0148117
640.379	0.0148199
640.457	0.0150275
640.535	0.0148202
640.613	0.0149411
640.692	0.0150524
640.770	0.0149748
640.848	0.0149444
640.926	0.0149052
641.004	0.0149221
641.082	0.0148055
641.160	0.0148238
641.238	0.0147893
641.317	0.0148121
641.395	0.0148002
641.473	0.0147880
641.551	0.0147630
641.629	0.0147556
641.707	0.0146526
641.785	0.0145573
641.863	0.0146543
641.942	0.0146137
642.020	0.0144740
642.098	0.0146250
642.176	0.0145457
642.254	0.0143969
642.332	0.0144238
642.410	0.0144125
642.488	0.0144946
642.567	0.0142899
642.645	0.0142273
642.723	0.0142625
642.801	0.0143011
642.879	0.0143171
642.957	0.0141653
643.035	0.0143159
643.113	0.0142052
643.192	0.0143350
643.270	0.0143478
643.348	0.0143439
643.426	0.0144591
643.504	0.0144479
643.582	0.0145541
643.660	0.0144147
643.738	0.0145755
643.817	0.0146425
643.895	0.0146441
643.973	0.0146367
644.051	0.0146072
644.129	0.0147054
644.207	0.0146800
644.285	0.0147059
644.363	0.0146382
644.442	0.0146653
644.520	0.0146339
644.598	0.0147503
644.676	0.0148061
644.754	0.0147564
644.832	0.0147207
644.910	0.0147007
644.988	0.0147861
645.067	0.0147346
645.145	0.0147285
645.223	0.0148136
645.301	0.0146049
645.379	0.0147607
645.457	0.0147549
645.535	0.0148483
645.613	0.0148005
645.692	0.0148103
645.770	0.0146642
645.848	0.0146250
645.926	0.0147285
646.004	0.0147236
646.082	0.0146597
646.160	0.0145615
646.238	0.0145821
646.317	0.0146603
646.395	0.0145094
646.473	0.0144852
646.551	0.0146160
646.629	0.0146443
646.707	0.0145412
646.785	0.0146146
646.863	0.0145611
646.942	0.0144797
647.020	0.0144923
647.098	0.0144537
647.176	0.0144582
647.254	0.0144051
647.332	0.0142903
647.410	0.0143829
647.488	0.0143508
647.567	0.0144300
647.645	0.0143424
647.723	0.0145004
647.801	0.0145839
647.879	0.0143915
647.957	0.0144379
648.035	0.0145360
648.113	0.0144391
648.192	0.0144797
648.270	0.0146041
648.348	0.0146145
648.426	0.0145996
648.504	0.0146658
648.582	0.0146329
648.660	0.0146576
648.738	0.0147458
648.817	0.0147329
648.895	0.0147999
648.973	0.0147382
649.051	0.0146219
649.129	0.0147538
649.207	0.0146941
649.285	0.0146204
649.363	0.0147018
649.442	0.0146141
649.520	0.0146546
649.598	0.0144599
649.676	0.0145522
649.754	0.0145162
649.832	0.0144155
649.910	0.0144077
649.988	0.0144395
650.067	0.0143210
650.145	0.0143360
650.223	0.0144353
650.301	0.0146130
650.379	0.0146410
650.457	0.0145272
650.535	0.0145022
650.613	0.0147041
650.692	0.0146973
650.770	0.0147158
650.848	0.0147495
650.926	0.0147504
651.004	0.0148902
651.082	0.0149118
651.160	0.0146783
651.238	0.0150256
651.317	0.0148637
651.395	0.0148268
651.473	0.0149239
651.551	0.0146445
651.629	0.0147479
651.707	0.0147549
651.785	0.0147039
651.863	0.0147341
651.942	0.0148202
652.020	0.0148016
652.098	0.0146822
652.176	0.0145542
652.254	0.0147073
652.332	0.0145250
652.410	0.0146131
652.488	0.0145471
652.567	0.0145512
652.645	0.0145430
652.723	0.0144788
652.801	0.0144057
652.879	0.0144768
652.957	0.0143352
653.035	0.0144271
653.113	0.0143407
653.192	0.0144010
653.270	0.0142040
653.348	0.0142902
653.426	0.0143506
653.504	0.0143642
653.582	0.0143765
653.660	0.0143478
653.738	0.0142463
653.817	0.0142677
653.895	0.0144492
653.973	0.0145206
654.051	0.0145428
654.129	0.0144678
654.207	0.0146186
654.285	0.0146017
654.363	0.0146056
654.442	0.0145945
654.520	0.0147511
654.598	0.0148679
654.676	0.0147121
654.754	0.0147969
654.832	0.0148340
654.910	0.0147186
654.988	0.0148721
655.067	0.0147112
655.145	0.0146736
655.223	0.0147057
655.301	0.0145884
655.379	0.0145026
655.457	0.0146726
655.535	0.0145078
655.613	0.0144314
655.692	0.0143960
655.770	0.0143349
655.848	0.0143483
655.926	0.0143647
656.004	0.0144785
656.082	0.0144151
656.160	0.0145647
656.238	0.0143828
656.317	0.0144749
656.395	0.0145643
656.473	0.0146163
656.551	0.0145889
656.629	0.0147594
656.707	0.0148725
656.785	0.0147939
656.863	0.0148435
656.942	0.0149115
657.020	0.0150702
657.098	0.0150888
657.176	0.0150806
657.254	0.0151678
657.332	0.0153257
657.410	0.0153114
657.488	0.0152361
657.567	0.0152270
657.645	0.0152365
657.723	0.0151691
657.801	0.0151892
657.879	0.0150533
657.957	0.0149393
658.035	0.0149902
658.113	0.0148926
658.192	0.0148962
658.270	0.0147997
658.348	0.0146957
658.426	0.0146849
658.504	0.0146508
658.582	0.0144811
658.660	0.0145275
658.738	0.0143951
658.817	0.0142579
658.895	0.0144205
658.973	0.0144051
659.051	0.0142925
659.129	0.0143546
659.207	0.0144129
659.285	0.0143430
659.363	0.0144156
659.442	0.0144356
659.520	0.0145278
659.598	0.0145776
659.676	0.0145888
659.754	0.0145770
659.832	0.0146375
659.910	0.0146584
659.988	0.0144746
660.067	0.0145698
660.145	0.0145827
660.223	0.0145931
660.301	0.0145546
660.379	0.0145679
660.457	0.0145061
660.535	0.0144521
660.613	0.0144926
660.692	0.0145852
660.770	0.0147070
660.848	0.0145398
660.926	0.0145968
661.004	0.0146738
661.082	0.0146248
661.160	0.0146545
661.238	0.0146926
661.317	0.0147875
661.395	0.0148616
661.473	0.0149632
661.551	0.0149628
661.629	0.0151039
661.707	0.0151735
661.785	0.0152013
661.863	0.0150890
661.942	0.0152528
662.020	0.0154539
662.098	0.0151774
662.176	0.0152811
662.254	0.0153394
662.332	0.0153201
662.410	0.0154472
662.488	0.0151815
662.567	0.0151994
662.645	0.0152603
662.723	0.0152272
662.801	0.0150480
662.879	0.0149947
662.957	0.0149992
663.035	0.0148476
663.113	0.0147992
663.192	0.0146748
663.270	0.0146809
663.348	0.0145341
663.426	0.0145269
663.504	0.0142971
663.582	0.0143761
663.660	0.0141561
663.738	0.0142524
663.817	0.0142930
663.895	0.0141398
663.973	0.0141868
664.051	0.0142712
664.129	0.0141979
664.207	0.0142943
664.285	0.0143305
664.363	0.0144183
664.442	0.0145288
664.520	0.0145253
664.598	0.0145425
664.676	0.0146902
664.754	0.0146970
664.832	0.0146292
664.910	0.0148372
664.988	0.0149133
665.067	0.0147777
665.145	0.0149036
665.223	0.0150494
665.301	0.0150117
665.379	0.0150773
665.457	0.0149076
665.535	0.0149043
665.613	0.0149263
665.692	0.0148347
665.770	0.0148936
665.848	0.0149803
665.926	0.0146108
666.004	0.0148307
666.082	0.0147192
666.160	0.0146385
666.238	0.0145605
666.317	0.0146572
666.395	0.0145789
666.473	0.0143909
666.551	0.0145508
666.629	0.0145474
666.707	0.0144923
666.785	0.0145322
666.863	0.0143891
666.942	0.0144566
667.020	0.0144461
667.098	0.0144039
667.176	0.0143779
667.254	0.0143533
667.332	0.0144930
667.410	0.0144219
667.488	0.0145057
667.567	0.0144765
667.645	0.0144732
667.723	0.0146955
667.801	0.0147478
667.879	0.0147498
667.957	0.0148495
668.035	0.0147903
668.113	0.0148788
668.192	0.0150554
668.270	0.0149588
668.348	0.0150556
668.426	0.0151113
668.504	0.0151018
668.582	0.0148869
668.660	0.0149537
668.738	0.0150889
668.817	0.0151140
668.895	0.0150344
668.973	0.0149221
669.051	0.0149343
669.129	0.0149388
669.207	0.0148614
669.285	0.0148783
669.363	0.0147639
669.442	0.0147566
669.520	0.0145345
669.598	0.0145109
669.676	0.0146680
669.754	0.0144849
669.832	0.0145741
669.910	0.0145226
669.988	0.0145391
670.067	0.0145284
670.145	0.0144878
670.223	0.0145798
670.301	0.0145753
670.379	0.0145148
670.457	0.0144666
670.535	0.0146538
670.613	0.0147393
670.692	0.0145625
670.770	0.0144864
670.848	0.0145661
670.926	0.0145267
671.004	0.0144896
671.082	0.0145596
671.160	0.0143370
671.238	0.0144254
671.317	0.0143997
671.395	0.0144515
671.473	0.0143509
671.551	0.0143961
671.629	0.0143240
671.707	0.0142421
671.785	0.0142212
671.863	0.0142630
671.942	0.0142786
672.020	0.0142790
672.098	0.0142741
672.176	0.0144207
672.254	0.0145278
672.332	0.0145948
672.410	0.0146502
672.488	0.0146996
672.567	0.0149321
672.645	0.0150072
672.723	0.0152170
672.801	0.0152814
672.879	0.0151796
672.957	0.0153902
673.035	0.0155090
673.113	0.0153130
673.192	0.0153661
673.270	0.0154434
673.348	0.0153287
673.426	0.0152135
673.504	0.0151455
673.582	0.0151292
673.660	0.0151519
673.738	0.0150415
673.817	0.0148772
673.895	0.0148844
673.973	0.0146503
674.051	0.0145017
674.129	0.0143948
674.207	0.0143369
674.285	0.0141955
674.363	0.0139210
674.442	0.0139767
674.520	0.0138995
674.598	0.0138680
674.676	0.0138091
674.754	0.0138784
674.832	0.0138812
674.910	0.0137363
674.988	0.0138066
675.067	0.0138119
675.145	0.0137446
675.223	0.0138171
675.301	0.0141479
675.379	0.0142496
675.457	0.0142745
675.535	0.0143297
675.613	0.0145215
675.692	0.0146133
675.770	0.0146922
675.848	0.0148994
675.926	0.0150336
676.004	0.0150564
676.082	0.0152086
676.160	0.0152479
676.238	0.0153282
676.317	0.0153728
676.395	0.0153201
676.473	0.0152433
676.551	0.0152571
676.629	0.0152000
676.707	0.0151103
676.785	0.0151321
676.863	0.0150858
676.942	0.0151590
677.020	0.0149596
677.098	0.0147460
677.176	0.0148274
677.254	0.0147334
677.332	0.0145580
677.410	0.0147926
677.488	0.0145044
677.567	0.0143948
677.645	0.0146436
677.723	0.0146326
677.801	0.0144353
677.879	0.0144833
677.957	0.0145930
678.035	0.0145184
678.113	0.0146194
678.192	0.0146760
678.270	0.0146066
678.348	0.0147008
678.426	0.0145562
678.504	0.0144292
678.582	0.0146487
678.660	0.0144889
678.738	0.0145569
678.817	0.0146606
678.895	0.0144626
678.973	0.0145853
679.051	0.0144638
679.129	0.0144464
679.207	0.0144244
679.285	0.0146050
679.363	0.0145692
679.442	0.0147252
679.520	0.0145599
679.598	0.0146314
679.676	0.0147628
679.754	0.0148707
679.832	0.0149534
679.910	0.0148769
679.988	0.0149252
680.067	0.0148307
680.145	0.0151067
680.223	0.0150098
680.301	0.0150331
680.379	0.0150647
680.457	0.0149406
680.535	0.0149345
680.613	0.0149638
680.692	0.0148809
680.770	0.0147593
680.848	0.0148315
680.926	0.0149039
681.004	0.0147987
681.082	0.0147789
681.160	0.0145645
681.238	0.0146329
681.317	0.0146590
681.395	0.0146704
681.473	0.0145200
681.551	0.0146921
681.629	0.0146432
681.707	0.0146579
681.785	0.0146092
681.863	0.0147724
681.942	0.0146819
682.020	0.0148074
682.098	0.0146929
682.176	0.0145735
682.254	0.0144972
682.332	0.0147028
682.410	0.0146809
682.488	0.0147636
682.567	0.0147998
682.645	0.0146318
682.723	0.0146156
682.801	0.0145403
682.879	0.0146191
682.957	0.0146920
683.035	0.0146079
683.113	0.0146126
683.192	0.0146051
683.270	0.0144935
683.348	0.0144179
683.426	0.0144391
683.504	0.0144458
683.582	0.0144395
683.660	0.0144936
683.738	0.0145887
683.817	0.0146634
683.895	0.0146245
683.973	0.0146485
684.051	0.0146023
684.129	0.0146713
684.207	0.0147561
684.285	0.0149364
684.363	0.0149867
684.442	0.0149871
684.520	0.0150572
684.598	0.0151620
684.676	0.0152842
684.754	0.0153959
684.832	0.0155511
684.910	0.0155938
684.988	0.0156157
685.067	0.0155918
685.145	0.0157430
685.223	0.0157172
685.301	0.0157571
685.379	0.0158175
685.457	0.0157683
685.535	0.0154961
685.613	0.0154997
685.692	0.0152705
