05/28/2022	14:29:17	Ver.	4.1	UNKNOWN
Optical Delay	599.988409	Delta X		0.078125	Sweeps	1	Scan Rate	0/0
Coordinates	Axis 1	NaN	Axis 2	NaN	Axis 3	NaN	Axis 4	NaN	Axis 5	NaN	Axis 6	0.000000
TX Power	0.000000	RX Power	0.000000

599.988	0.0148339
600.067	0.0148928
600.145	0.0149582
600.223	0.0148027
600.301	0.0148293
600.379	0.0149430
600.457	0.0149221
600.535	0.0148934
600.613	0.0148589
600.692	0.0150365
600.770	0.0150033
600.848	0.0148169
600.926	0.0148363
601.004	0.0148675
601.082	0.0150072
601.160	0.0149534
601.238	0.0149332
601.317	0.0148733
601.395	0.0148617
601.473	0.0149792
601.551	0.0148679
601.629	0.0148080
601.707	0.0147729
601.785	0.0148277
601.863	0.0149207
601.942	0.0148663
602.020	0.0147000
602.098	0.0148125
602.176	0.0148348
602.254	0.0148759
602.332	0.0146613
602.410	0.0147260
602.488	0.0148357
602.567	0.0147605
602.645	0.0148130
602.723	0.0148933
602.801	0.0148235
602.879	0.0149416
602.957	0.0148578
603.035	0.0147147
603.113	0.0148526
603.192	0.0147875
603.270	0.0149184
603.348	0.0148345
603.426	0.0147015
603.504	0.0147752
603.582	0.0147026
603.660	0.0148071
603.738	0.0148413
603.817	0.0148791
603.895	0.0148862
603.973	0.0147794
604.051	0.0148156
604.129	0.0148161
604.207	0.0149128
604.285	0.0150376
604.363	0.0148711
604.442	0.0147121
604.520	0.0148506
604.598	0.0148358
604.676	0.0148412
604.754	0.0149161
604.832	0.0148996
604.910	0.0148492
604.988	0.0148670
605.067	0.0150123
605.145	0.0150403
605.223	0.0149054
605.301	0.0148805
605.379	0.0149779
605.457	0.0148251
605.535	0.0148207
605.613	0.0148827
605.692	0.0147932
605.770	0.0149410
605.848	0.0150095
605.926	0.0148846
606.004	0.0148613
606.082	0.0148142
606.160	0.0147971
606.238	0.0148071
606.317	0.0147388
606.395	0.0148799
606.473	0.0149953
606.551	0.0148179
606.629	0.0146842
606.707	0.0148692
606.785	0.0148846
606.863	0.0148589
606.942	0.0147413
607.020	0.0147191
607.098	0.0148244
607.176	0.0148623
607.254	0.0148732
607.332	0.0149009
607.410	0.0148380
607.488	0.0146907
607.567	0.0147036
607.645	0.0147677
607.723	0.0148072
607.801	0.0147755
607.879	0.0148618
607.957	0.0148978
608.035	0.0147685
608.113	0.0148586
608.192	0.0147821
608.270	0.0149036
608.348	0.0147555
608.426	0.0147204
608.504	0.0148365
608.582	0.0148318
608.660	0.0147303
608.738	0.0147709
608.817	0.0148495
608.895	0.0148862
608.973	0.0149025
609.051	0.0148422
609.129	0.0147347
609.207	0.0147016
609.285	0.0149031
609.363	0.0147925
609.442	0.0146945
609.520	0.0148218
609.598	0.0148653
609.676	0.0148607
609.754	0.0149366
609.832	0.0147916
609.910	0.0148262
609.988	0.0147654
610.067	0.0148404
610.145	0.0147810
610.223	0.0147648
610.301	0.0148060
610.379	0.0148005
610.457	0.0147465
610.535	0.0146500
610.613	0.0148716
610.692	0.0148176
610.770	0.0149040
610.848	0.0147874
610.926	0.0147694
611.004	0.0148760
611.082	0.0147987
611.160	0.0148254
611.238	0.0148832
611.317	0.0148326
611.395	0.0147224
611.473	0.0147981
611.551	0.0148399
611.629	0.0148136
611.707	0.0147794
611.785	0.0148049
611.863	0.0148373
611.942	0.0148638
612.020	0.0147749
612.098	0.0147507
612.176	0.0146877
612.254	0.0147415
612.332	0.0146213
612.410	0.0147549
612.488	0.0148860
612.567	0.0146564
612.645	0.0147038
612.723	0.0146652
612.801	0.0146928
612.879	0.0146950
612.957	0.0147208
613.035	0.0147094
613.113	0.0146279
613.192	0.0147295
613.270	0.0146060
613.348	0.0147449
613.426	0.0147023
613.504	0.0147105
613.582	0.0147965
613.660	0.0146731
613.738	0.0147243
613.817	0.0148384
613.895	0.0146028
613.973	0.0146515
614.051	0.0147515
614.129	0.0147626
614.207	0.0146912
614.285	0.0146672
614.363	0.0148087
614.442	0.0146879
614.520	0.0146635
614.598	0.0148098
614.676	0.0146081
614.754	0.0148054
614.832	0.0148043
614.910	0.0146941
614.988	0.0147911
615.067	0.0147984
615.145	0.0146687
615.223	0.0146818
615.301	0.0147755
615.379	0.0148093
615.457	0.0147376
615.535	0.0146466
615.613	0.0145892
615.692	0.0147821
615.770	0.0148206
615.848	0.0147805
615.926	0.0147870
616.004	0.0146410
616.082	0.0146273
616.160	0.0146953
616.238	0.0148195
616.317	0.0147416
616.395	0.0145798
616.473	0.0146647
616.551	0.0147298
616.629	0.0147045
616.707	0.0146311
616.785	0.0148181
616.863	0.0147273
616.942	0.0146444
617.020	0.0147610
617.098	0.0147298
617.176	0.0147089
617.254	0.0146677
617.332	0.0146812
617.410	0.0147305
617.488	0.0146954
617.567	0.0146871
617.645	0.0146500
617.723	0.0146358
617.801	0.0147905
617.879	0.0148645
617.957	0.0147533
618.035	0.0147933
618.113	0.0147274
618.192	0.0147655
618.270	0.0148042
618.348	0.0147500
618.426	0.0147876
618.504	0.0148520
618.582	0.0148307
618.660	0.0148758
618.738	0.0147751
618.817	0.0148632
618.895	0.0147739
618.973	0.0147534
619.051	0.0147764
619.129	0.0148046
619.207	0.0146146
619.285	0.0146832
619.363	0.0148349
619.442	0.0147551
619.520	0.0147301
619.598	0.0147290
619.676	0.0147836
619.754	0.0146735
619.832	0.0148187
619.910	0.0148562
619.988	0.0146615
620.067	0.0148284
620.145	0.0149390
620.223	0.0147457
620.301	0.0147367
620.379	0.0146986
620.457	0.0147855
620.535	0.0149084
620.613	0.0147881
620.692	0.0147743
620.770	0.0147993
620.848	0.0147665
620.926	0.0147115
621.004	0.0146558
621.082	0.0148576
621.160	0.0147846
621.238	0.0147674
621.317	0.0147695
621.395	0.0147717
621.473	0.0147205
621.551	0.0146729
621.629	0.0147034
621.707	0.0148078
621.785	0.0145821
621.863	0.0146917
621.942	0.0148033
622.020	0.0147202
622.098	0.0147572
622.176	0.0146218
622.254	0.0145399
622.332	0.0146591
622.410	0.0146362
622.488	0.0146293
622.567	0.0146458
622.645	0.0146474
622.723	0.0147919
622.801	0.0147161
622.879	0.0146928
622.957	0.0146609
623.035	0.0146812
623.113	0.0147051
623.192	0.0147739
623.270	0.0147062
623.348	0.0148415
623.426	0.0147582
623.504	0.0147850
623.582	0.0146245
623.660	0.0146368
623.738	0.0146635
623.817	0.0147442
623.895	0.0146938
623.973	0.0146973
624.051	0.0145198
624.129	0.0146951
624.207	0.0147795
624.285	0.0146453
624.363	0.0145483
624.442	0.0146572
624.520	0.0146770
624.598	0.0146141
624.676	0.0147718
624.754	0.0146400
624.832	0.0147180
624.910	0.0146269
624.988	0.0146140
625.067	0.0146487
625.145	0.0146165
625.223	0.0146144
625.301	0.0146973
625.379	0.0146677
625.457	0.0147247
625.535	0.0146919
625.613	0.0146350
625.692	0.0145948
625.770	0.0147285
625.848	0.0146355
625.926	0.0146915
626.004	0.0147989
626.082	0.0147211
626.160	0.0147878
626.238	0.0146785
626.317	0.0146620
626.395	0.0146851
626.473	0.0145892
626.551	0.0147800
626.629	0.0146709
626.707	0.0148194
626.785	0.0148164
626.863	0.0147365
626.942	0.0146638
627.020	0.0148459
627.098	0.0147388
627.176	0.0148516
627.254	0.0148029
627.332	0.0147477
627.410	0.0148015
627.488	0.0148822
627.567	0.0148327
627.645	0.0148203
627.723	0.0149498
627.801	0.0148276
627.879	0.0148784
627.957	0.0148846
628.035	0.0148104
628.113	0.0150091
628.192	0.0148494
628.270	0.0149350
628.348	0.0149017
628.426	0.0149319
628.504	0.0148152
628.582	0.0149014
628.660	0.0148251
628.738	0.0147176
628.817	0.0147667
628.895	0.0149718
628.973	0.0148528
629.051	0.0147856
629.129	0.0147430
629.207	0.0147395
629.285	0.0147747
629.363	0.0148469
629.442	0.0148193
629.520	0.0148726
629.598	0.0148532
629.676	0.0149300
629.754	0.0149307
629.832	0.0149286
629.910	0.0149533
629.988	0.0149080
630.067	0.0149213
630.145	0.0150498
630.223	0.0150613
630.301	0.0148158
630.379	0.0150407
630.457	0.0149255
630.535	0.0149558
630.613	0.0150482
630.692	0.0150312
630.770	0.0149225
630.848	0.0151567
630.926	0.0149989
631.004	0.0149612
631.082	0.0149322
631.160	0.0148542
631.238	0.0149780
631.317	0.0150617
631.395	0.0147518
631.473	0.0148359
631.551	0.0148683
631.629	0.0148337
631.707	0.0147126
631.785	0.0146812
631.863	0.0146851
631.942	0.0147976
632.020	0.0147871
632.098	0.0147912
632.176	0.0147562
632.254	0.0147518
632.332	0.0148626
632.410	0.0148102
632.488	0.0147462
632.567	0.0148180
632.645	0.0148444
632.723	0.0148296
632.801	0.0149383
632.879	0.0149369
632.957	0.0148466
633.035	0.0147896
633.113	0.0148930
633.192	0.0148416
633.270	0.0147981
633.348	0.0146777
633.426	0.0147437
633.504	0.0147322
633.582	0.0148945
633.660	0.0147276
633.738	0.0147029
633.817	0.0145322
633.895	0.0146947
633.973	0.0147367
634.051	0.0146010
634.129	0.0145361
634.207	0.0146369
634.285	0.0145902
634.363	0.0146093
634.442	0.0147012
634.520	0.0148061
634.598	0.0149713
634.676	0.0147369
634.754	0.0148827
634.832	0.0148769
634.910	0.0149228
634.988	0.0149300
635.067	0.0148853
635.145	0.0148933
635.223	0.0149741
635.301	0.0148723
635.379	0.0149873
635.457	0.0149589
635.535	0.0150149
635.613	0.0149654
635.692	0.0149695
635.770	0.0148450
635.848	0.0148874
635.926	0.0148910
636.004	0.0150336
636.082	0.0150301
636.160	0.0151343
636.238	0.0148637
636.317	0.0149812
636.395	0.0150360
636.473	0.0148310
636.551	0.0148694
636.629	0.0149403
636.707	0.0147061
636.785	0.0147203
636.863	0.0148023
636.942	0.0145897
637.020	0.0145409
637.098	0.0145675
637.176	0.0146216
637.254	0.0145177
637.332	0.0144892
637.410	0.0144568
637.488	0.0144421
637.567	0.0144435
637.645	0.0144944
637.723	0.0146225
637.801	0.0144926
637.879	0.0145698
637.957	0.0144534
638.035	0.0146132
638.113	0.0146157
638.192	0.0147413
638.270	0.0146284
638.348	0.0148678
638.426	0.0147346
638.504	0.0148304
638.582	0.0147729
638.660	0.0147899
638.738	0.0148362
638.817	0.0148081
638.895	0.0147246
638.973	0.0148884
639.051	0.0149601
639.129	0.0149117
639.207	0.0149366
639.285	0.0150133
639.363	0.0148584
639.442	0.0150674
639.520	0.0151859
639.598	0.0150557
639.676	0.0149522
639.754	0.0150854
639.832	0.0150261
639.910	0.0150105
639.988	0.0150365
640.067	0.0151095
640.145	0.0150095
640.223	0.0151418
640.301	0.0151998
640.379	0.0150414
640.457	0.0149548
640.535	0.0149548
640.613	0.0149443
640.692	0.0148725
640.770	0.0150108
640.848	0.0147087
640.926	0.0147971
641.004	0.0147438
641.082	0.0146565
641.160	0.0146086
641.238	0.0146920
641.317	0.0147701
641.395	0.0145502
641.473	0.0146107
641.551	0.0146519
641.629	0.0145777
641.707	0.0145489
641.785	0.0146409
641.863	0.0143751
641.942	0.0144371
642.020	0.0146185
642.098	0.0145603
642.176	0.0143494
642.254	0.0144344
642.332	0.0142892
642.410	0.0144090
642.488	0.0143901
642.567	0.0145473
642.645	0.0144288
642.723	0.0145022
642.801	0.0145647
642.879	0.0147437
642.957	0.0146262
643.035	0.0148170
643.113	0.0147428
643.192	0.0147971
643.270	0.0146893
643.348	0.0147371
643.426	0.0148398
643.504	0.0148848
643.582	0.0149668
643.660	0.0148829
643.738	0.0147329
643.817	0.0148700
643.895	0.0148517
643.973	0.0150135
644.051	0.0149968
644.129	0.0149121
644.207	0.0148779
644.285	0.0149681
644.363	0.0148656
644.442	0.0148513
644.520	0.0148320
644.598	0.0149122
644.676	0.0149357
644.754	0.0149571
644.832	0.0148708
644.910	0.0149368
644.988	0.0149123
645.067	0.0149773
645.145	0.0149049
645.223	0.0147878
645.301	0.0147345
645.379	0.0146867
645.457	0.0147705
645.535	0.0149387
645.613	0.0146964
645.692	0.0146881
645.770	0.0148297
645.848	0.0146927
645.926	0.0148219
646.004	0.0147529
646.082	0.0146576
646.160	0.0148864
646.238	0.0145895
646.317	0.0146849
646.395	0.0146302
646.473	0.0146196
646.551	0.0144902
646.629	0.0144726
646.707	0.0145402
646.785	0.0144291
646.863	0.0143375
646.942	0.0143684
647.020	0.0144107
647.098	0.0145424
647.176	0.0146244
647.254	0.0144900
647.332	0.0144952
647.410	0.0145937
647.488	0.0146750
647.567	0.0144635
647.645	0.0145671
647.723	0.0146887
647.801	0.0145509
647.879	0.0147368
647.957	0.0147192
648.035	0.0147259
648.113	0.0147450
648.192	0.0147058
648.270	0.0147246
648.348	0.0148372
648.426	0.0147598
648.504	0.0148393
648.582	0.0147205
648.660	0.0147353
648.738	0.0148583
648.817	0.0147748
648.895	0.0146972
648.973	0.0146318
649.051	0.0145860
649.129	0.0147611
649.207	0.0146159
649.285	0.0145678
649.363	0.0145014
649.442	0.0144357
649.520	0.0145089
649.598	0.0143372
649.676	0.0145768
649.754	0.0147192
649.832	0.0146262
649.910	0.0146666
649.988	0.0146445
650.067	0.0149004
650.145	0.0148809
650.223	0.0148154
650.301	0.0148095
650.379	0.0149841
650.457	0.0149483
650.535	0.0149806
650.613	0.0150403
650.692	0.0150894
650.770	0.0150517
650.848	0.0149339
650.926	0.0149833
651.004	0.0149273
651.082	0.0149756
651.160	0.0148294
651.238	0.0148100
651.317	0.0148517
651.395	0.0149046
651.473	0.0149101
651.551	0.0148913
651.629	0.0148459
651.707	0.0148862
651.785	0.0148704
651.863	0.0148027
651.942	0.0147455
652.020	0.0148176
652.098	0.0148332
652.176	0.0147660
652.254	0.0147916
652.332	0.0148125
652.410	0.0148343
652.488	0.0148187
652.567	0.0147916
652.645	0.0145228
652.723	0.0146310
652.801	0.0145052
652.879	0.0146496
652.957	0.0146609
653.035	0.0146188
653.113	0.0148195
653.192	0.0147830
653.270	0.0146974
653.348	0.0147011
653.426	0.0146944
653.504	0.0146826
653.582	0.0148157
653.660	0.0149425
653.738	0.0149562
653.817	0.0149531
653.895	0.0149570
653.973	0.0150671
654.051	0.0150121
654.129	0.0150763
654.207	0.0151311
654.285	0.0150517
654.363	0.0150705
654.442	0.0148867
654.520	0.0151107
654.598	0.0149284
654.676	0.0147948
654.754	0.0149155
654.832	0.0148828
654.910	0.0148374
654.988	0.0147532
655.067	0.0148277
655.145	0.0147061
655.223	0.0147615
655.301	0.0146564
655.379	0.0145480
655.457	0.0146088
655.535	0.0145999
655.613	0.0147009
655.692	0.0147308
655.770	0.0146376
655.848	0.0147766
655.926	0.0146790
656.004	0.0148373
656.082	0.0149406
656.160	0.0151027
656.238	0.0150152
656.317	0.0150060
656.395	0.0151791
656.473	0.0151057
656.551	0.0153303
656.629	0.0154414
656.707	0.0154241
656.785	0.0153482
656.863	0.0154543
656.942	0.0154192
657.020	0.0154129
657.098	0.0153979
657.176	0.0153819
657.254	0.0152073
657.332	0.0153629
657.410	0.0153610
657.488	0.0151073
657.567	0.0150937
657.645	0.0150317
657.723	0.0149606
657.801	0.0148739
657.879	0.0147797
657.957	0.0146247
658.035	0.0145220
658.113	0.0145628
658.192	0.0146223
658.270	0.0145541
658.348	0.0143443
658.426	0.0145272
658.504	0.0144674
658.582	0.0144298
658.660	0.0145141
658.738	0.0145847
658.817	0.0144517
658.895	0.0145667
658.973	0.0146871
659.051	0.0146086
659.129	0.0146129
659.207	0.0146809
659.285	0.0147189
659.363	0.0147581
659.442	0.0146297
659.520	0.0146050
659.598	0.0146532
659.676	0.0147395
659.754	0.0147414
659.832	0.0146689
659.910	0.0147905
659.988	0.0147597
660.067	0.0147535
660.145	0.0147504
660.223	0.0148062
660.301	0.0147393
660.379	0.0147685
660.457	0.0147527
660.535	0.0147466
660.613	0.0149708
660.692	0.0149323
660.770	0.0149806
660.848	0.0149831
660.926	0.0150816
661.004	0.0151189
661.082	0.0152493
661.160	0.0151392
661.238	0.0153296
661.317	0.0152632
661.395	0.0154392
661.473	0.0153046
661.551	0.0153429
661.629	0.0154536
661.707	0.0153438
661.785	0.0154216
661.863	0.0152939
661.942	0.0152414
662.020	0.0154228
662.098	0.0153386
662.176	0.0152321
662.254	0.0151492
662.332	0.0150513
662.410	0.0149747
662.488	0.0149782
662.567	0.0149982
662.645	0.0149142
662.723	0.0146805
662.801	0.0145997
662.879	0.0146911
662.957	0.0144942
663.035	0.0144183
663.113	0.0144458
663.192	0.0143053
663.270	0.0143738
663.348	0.0144164
663.426	0.0143334
663.504	0.0142831
663.582	0.0143681
663.660	0.0143530
663.738	0.0143165
663.817	0.0146325
663.895	0.0145415
663.973	0.0145031
664.051	0.0148343
664.129	0.0146465
664.207	0.0147971
664.285	0.0149474
664.363	0.0147523
664.442	0.0149157
664.520	0.0150838
664.598	0.0152041
664.676	0.0151820
664.754	0.0150984
664.832	0.0151302
664.910	0.0151979
664.988	0.0150718
665.067	0.0151300
665.145	0.0151925
665.223	0.0150338
665.301	0.0151370
665.379	0.0150964
665.457	0.0151333
665.535	0.0149281
665.613	0.0150019
665.692	0.0150380
665.770	0.0149396
665.848	0.0149295
665.926	0.0147298
666.004	0.0147882
666.082	0.0147744
666.160	0.0149063
666.238	0.0145767
666.317	0.0145070
666.395	0.0146297
666.473	0.0145022
666.551	0.0144492
666.629	0.0144587
666.707	0.0145007
666.785	0.0142545
666.863	0.0142656
666.942	0.0143340
667.020	0.0144176
667.098	0.0143259
667.176	0.0144243
667.254	0.0143420
667.332	0.0143778
667.410	0.0145603
667.488	0.0146891
667.567	0.0146502
667.645	0.0148040
667.723	0.0148943
667.801	0.0148618
667.879	0.0148851
667.957	0.0150454
668.035	0.0151545
668.113	0.0150917
668.192	0.0151758
668.270	0.0152483
668.348	0.0152191
668.426	0.0152210
668.504	0.0151921
668.582	0.0151292
668.660	0.0150252
668.738	0.0150507
668.817	0.0148536
668.895	0.0149471
668.973	0.0148730
669.051	0.0148661
669.129	0.0147211
669.207	0.0146190
669.285	0.0147256
669.363	0.0145973
669.442	0.0144978
669.520	0.0144722
669.598	0.0144813
669.676	0.0144953
669.754	0.0143394
669.832	0.0141549
669.910	0.0143410
669.988	0.0143173
670.067	0.0142564
670.145	0.0145084
670.223	0.0144386
670.301	0.0144866
670.379	0.0146850
670.457	0.0147017
670.535	0.0145679
670.613	0.0146313
670.692	0.0145444
670.770	0.0147355
670.848	0.0147311
670.926	0.0147824
671.004	0.0146435
671.082	0.0147236
671.160	0.0147053
671.238	0.0146297
671.317	0.0145569
671.395	0.0146786
671.473	0.0144790
671.551	0.0145668
671.629	0.0145572
671.707	0.0144046
671.785	0.0145039
671.863	0.0145349
671.942	0.0146519
672.020	0.0146217
672.098	0.0147485
672.176	0.0149130
672.254	0.0150375
672.332	0.0150790
672.410	0.0152262
672.488	0.0152329
672.567	0.0154192
672.645	0.0154913
672.723	0.0154597
672.801	0.0155950
672.879	0.0156309
672.957	0.0155813
673.035	0.0155117
673.113	0.0155850
673.192	0.0154684
673.270	0.0153542
673.348	0.0152058
673.426	0.0151793
673.504	0.0151035
673.582	0.0149221
673.660	0.0149151
673.738	0.0146750
673.817	0.0145155
673.895	0.0144778
673.973	0.0143851
674.051	0.0144247
674.129	0.0144789
674.207	0.0140791
674.285	0.0141103
674.363	0.0140243
674.442	0.0141173
674.520	0.0140774
674.598	0.0141154
674.676	0.0142029
674.754	0.0141223
674.832	0.0141674
674.910	0.0142893
674.988	0.0144307
675.067	0.0143299
675.145	0.0144596
675.223	0.0146586
675.301	0.0147643
675.379	0.0148210
675.457	0.0150283
675.535	0.0152065
675.613	0.0152550
675.692	0.0152534
675.770	0.0153826
675.848	0.0154689
675.926	0.0155060
676.004	0.0155967
676.082	0.0155657
676.160	0.0155998
676.238	0.0155024
676.317	0.0154346
676.395	0.0154581
676.473	0.0154301
676.551	0.0152304
676.629	0.0151608
676.707	0.0151753
676.785	0.0150330
676.863	0.0148412
676.942	0.0150503
677.020	0.0149158
677.098	0.0147945
677.176	0.0145985
677.254	0.0147274
677.332	0.0147443
677.410	0.0146617
677.488	0.0146760
677.567	0.0146206
677.645	0.0147048
677.723	0.0146140
677.801	0.0147882
677.879	0.0148719
677.957	0.0147526
678.035	0.0147626
678.113	0.0149059
678.192	0.0148340
678.270	0.0148472
678.348	0.0146929
678.426	0.0148872
678.504	0.0148109
678.582	0.0146613
678.660	0.0147659
678.738	0.0146457
678.817	0.0146178
678.895	0.0146795
678.973	0.0146620
679.051	0.0147650
679.129	0.0147207
679.207	0.0148744
679.285	0.0149203
679.363	0.0149062
679.442	0.0149266
679.520	0.0149547
679.598	0.0151454
679.676	0.0151930
679.754	0.0151927
679.832	0.0152358
679.910	0.0153822
679.988	0.0153022
680.067	0.0151782
680.145	0.0152273
680.223	0.0152377
680.301	0.0154070
680.379	0.0153578
680.457	0.0152617
680.535	0.0153277
680.613	0.0150305
680.692	0.0149286
680.770	0.0150704
680.848	0.0151755
680.926	0.0151698
681.004	0.0150366
681.082	0.0149158
681.160	0.0150475
681.238	0.0148642
681.317	0.0149139
681.395	0.0149189
681.473	0.0150493
681.551	0.0150292
681.629	0.0150861
681.707	0.0151479
681.785	0.0150136
681.863	0.0150168
681.942	0.0149299
682.020	0.0151600
682.098	0.0150475
682.176	0.0148539
682.254	0.0149649
682.332	0.0150236
682.410	0.0148145
682.488	0.0148135
682.567	0.0148677
682.645	0.0148097
682.723	0.0146799
682.801	0.0146185
682.879	0.0145586
682.957	0.0145708
683.035	0.0144664
683.113	0.0144589
683.192	0.0144865
683.270	0.0144148
683.348	0.0143723
683.426	0.0144175
683.504	0.0144308
683.582	0.0143142
683.660	0.0145747
683.738	0.0144823
683.817	0.0145741
683.895	0.0146718
683.973	0.0146917
684.051	0.0147348
684.129	0.0148569
684.207	0.0149252
684.285	0.0149382
684.363	0.0151846
684.442	0.0151348
684.520	0.0152459
684.598	0.0153704
684.676	0.0154418
684.754	0.0153803
684.832	0.0153882
684.910	0.0155157
684.988	0.0154615
685.067	0.0153780
685.145	0.0153675
685.223	0.0153551
685.301	0.0151656
685.379	0.0149633
685.457	0.0150587
685.535	0.0149421
685.613	0.0147759
685.692	0.0144292
