06/29/2022	22:58:00	Ver.	4.1	UNKNOWN
Optical Delay	629.995835	Delta X		0.078125	Sweeps	1	Scan Rate	0/0
Coordinates	Axis 1	NaN	Axis 2	NaN	Axis 3	NaN	Axis 4	NaN	Axis 5	NaN	Axis 6	0.000000
TX Power	0.000000	RX Power	0.000000

629.996	0.0146177
630.074	0.0147319
630.152	0.0146111
630.230	0.0147141
630.308	0.0146512
630.386	0.0146305
630.465	0.0146165
630.543	0.0147104
630.621	0.0145450
630.699	0.0145683
630.777	0.0146397
630.855	0.0147404
630.933	0.0146819
631.011	0.0146946
631.090	0.0147634
631.168	0.0146740
631.246	0.0146284
631.324	0.0145863
631.402	0.0146918
631.480	0.0145351
631.558	0.0146185
631.636	0.0146246
631.715	0.0145275
631.793	0.0146300
631.871	0.0147449
631.949	0.0145637
632.027	0.0145616
632.105	0.0146285
632.183	0.0145110
632.261	0.0145801
632.340	0.0147610
632.418	0.0146737
632.496	0.0145845
632.574	0.0146312
632.652	0.0145257
632.730	0.0146310
632.808	0.0145955
632.886	0.0146038
632.965	0.0146030
633.043	0.0145090
633.121	0.0145696
633.199	0.0145856
633.277	0.0145012
633.355	0.0147239
633.433	0.0145896
633.511	0.0146862
633.590	0.0146416
633.668	0.0146442
633.746	0.0144535
633.824	0.0146153
633.902	0.0145005
633.980	0.0146539
634.058	0.0146673
634.136	0.0144637
634.215	0.0145320
634.293	0.0146594
634.371	0.0147728
634.449	0.0146507
634.527	0.0145278
634.605	0.0146470
634.683	0.0145807
634.761	0.0146787
634.840	0.0146336
634.918	0.0146130
634.996	0.0145639
635.074	0.0146510
635.152	0.0146693
635.230	0.0146176
635.308	0.0146785
635.386	0.0146245
635.465	0.0145947
635.543	0.0145432
635.621	0.0145819
635.699	0.0146789
635.777	0.0145673
635.855	0.0145892
635.933	0.0147356
636.011	0.0145450
636.090	0.0146347
636.168	0.0145744
636.246	0.0146494
636.324	0.0145386
636.402	0.0145245
636.480	0.0146648
636.558	0.0145755
636.636	0.0146940
636.715	0.0147009
636.793	0.0144617
636.871	0.0145062
636.949	0.0146582
637.027	0.0147456
637.105	0.0144939
637.183	0.0145269
637.261	0.0147635
637.340	0.0146457
637.418	0.0146277
637.496	0.0146625
637.574	0.0145165
637.652	0.0145587
637.730	0.0147074
637.808	0.0146278
637.886	0.0145679
637.965	0.0145547
638.043	0.0147367
638.121	0.0145648
638.199	0.0145699
638.277	0.0145636
638.355	0.0146732
638.433	0.0147449
638.511	0.0146886
638.590	0.0144474
638.668	0.0145884
638.746	0.0147452
638.824	0.0145926
638.902	0.0147466
638.980	0.0146348
639.058	0.0145121
639.136	0.0147156
639.215	0.0147799
639.293	0.0146158
639.371	0.0146433
639.449	0.0145550
639.527	0.0146895
639.605	0.0146243
639.683	0.0146890
639.761	0.0146654
639.840	0.0146587
639.918	0.0147062
639.996	0.0145973
640.074	0.0146562
640.152	0.0147375
640.230	0.0147803
640.308	0.0146622
640.386	0.0146488
640.465	0.0145689
640.543	0.0146026
640.621	0.0146319
640.699	0.0147390
640.777	0.0146803
640.855	0.0146337
640.933	0.0146159
641.011	0.0147183
641.090	0.0147142
641.168	0.0146045
641.246	0.0146563
641.324	0.0147308
641.402	0.0146838
641.480	0.0146165
641.558	0.0147118
641.636	0.0145850
641.715	0.0146674
641.793	0.0147153
641.871	0.0146765
641.949	0.0146972
642.027	0.0146223
642.105	0.0146115
642.183	0.0147621
642.261	0.0146575
642.340	0.0145676
642.418	0.0147234
642.496	0.0145878
642.574	0.0146606
642.652	0.0145560
642.730	0.0146169
642.808	0.0146197
642.886	0.0145910
642.965	0.0146822
643.043	0.0147116
643.121	0.0147232
643.199	0.0147587
643.277	0.0146789
643.355	0.0145695
643.433	0.0146764
643.511	0.0147565
643.590	0.0146317
643.668	0.0147747
643.746	0.0146472
643.824	0.0147000
643.902	0.0146107
643.980	0.0146500
644.058	0.0147102
644.136	0.0146067
644.215	0.0146381
644.293	0.0146105
644.371	0.0146848
644.449	0.0146702
644.527	0.0146301
644.605	0.0146976
644.683	0.0146665
644.761	0.0146635
644.840	0.0146469
644.918	0.0145706
644.996	0.0146998
645.074	0.0144693
645.152	0.0147688
645.230	0.0146107
645.308	0.0146243
645.386	0.0145164
645.465	0.0146880
645.543	0.0146048
645.621	0.0146485
645.699	0.0146671
645.777	0.0144630
645.855	0.0147610
645.933	0.0146971
646.011	0.0146679
646.090	0.0147085
646.168	0.0146227
646.246	0.0146729
646.324	0.0146462
646.402	0.0146497
646.480	0.0147432
646.558	0.0145576
646.636	0.0146293
646.715	0.0147327
646.793	0.0146039
646.871	0.0147257
646.949	0.0146902
647.027	0.0145216
647.105	0.0146478
647.183	0.0147345
647.261	0.0146471
647.340	0.0145942
647.418	0.0147236
647.496	0.0145977
647.574	0.0145388
647.652	0.0145623
647.730	0.0146198
647.808	0.0146473
647.886	0.0144275
647.965	0.0146024
648.043	0.0147055
648.121	0.0146774
648.199	0.0146026
648.277	0.0146107
648.355	0.0145608
648.433	0.0145692
648.511	0.0145634
648.590	0.0146645
648.668	0.0146579
648.746	0.0146897
648.824	0.0146547
648.902	0.0146169
648.980	0.0146739
649.058	0.0146165
649.136	0.0147083
649.215	0.0146218
649.293	0.0146135
649.371	0.0146528
649.449	0.0146293
649.527	0.0146758
649.605	0.0147210
649.683	0.0146198
649.761	0.0145685
649.840	0.0145733
649.918	0.0145790
649.996	0.0145480
650.074	0.0146841
650.152	0.0146180
650.230	0.0146335
650.308	0.0146564
650.386	0.0146407
650.465	0.0145816
650.543	0.0147559
650.621	0.0147329
650.699	0.0147777
650.777	0.0145804
650.855	0.0146344
650.933	0.0146243
651.011	0.0145816
651.090	0.0147546
651.168	0.0146951
651.246	0.0147727
651.324	0.0146558
651.402	0.0146410
651.480	0.0146495
651.558	0.0147182
651.636	0.0144521
651.715	0.0145124
651.793	0.0147170
651.871	0.0147103
651.949	0.0146032
652.027	0.0146568
652.105	0.0146358
652.183	0.0146687
652.261	0.0146210
652.340	0.0146887
652.418	0.0145711
652.496	0.0146557
652.574	0.0145737
652.652	0.0147457
652.730	0.0147495
652.808	0.0145840
652.886	0.0145975
652.965	0.0146134
653.043	0.0146398
653.121	0.0146677
653.199	0.0146157
653.277	0.0145781
653.355	0.0145986
653.433	0.0147560
653.511	0.0147014
653.590	0.0146095
653.668	0.0145467
653.746	0.0147114
653.824	0.0146807
653.902	0.0146433
653.980	0.0146593
654.058	0.0146621
654.136	0.0146553
654.215	0.0145956
654.293	0.0147234
654.371	0.0146995
654.449	0.0146500
654.527	0.0145580
654.605	0.0146916
654.683	0.0147008
654.761	0.0145287
654.840	0.0145777
654.918	0.0147704
654.996	0.0146908
655.074	0.0145586
655.152	0.0146844
655.230	0.0145766
655.308	0.0147717
655.386	0.0148013
655.465	0.0147029
655.543	0.0144936
655.621	0.0145480
655.699	0.0147083
655.777	0.0147194
655.855	0.0147266
655.933	0.0146416
656.011	0.0145677
656.090	0.0146474
656.168	0.0147058
656.246	0.0147212
656.324	0.0145850
656.402	0.0145977
656.480	0.0145746
656.558	0.0146812
656.636	0.0144400
656.715	0.0145895
656.793	0.0146005
656.871	0.0146375
656.949	0.0146536
657.027	0.0146808
657.105	0.0145456
657.183	0.0145982
657.261	0.0147172
657.340	0.0146136
657.418	0.0148038
657.496	0.0145571
657.574	0.0146480
657.652	0.0146726
657.730	0.0146006
657.808	0.0145966
657.886	0.0145986
657.965	0.0146352
658.043	0.0147237
658.121	0.0145634
658.199	0.0146362
658.277	0.0147685
658.355	0.0146838
658.433	0.0146315
658.511	0.0146008
658.590	0.0145625
658.668	0.0144389
658.746	0.0147002
658.824	0.0147427
658.902	0.0147803
658.980	0.0147470
659.058	0.0146545
659.136	0.0145301
659.215	0.0146972
659.293	0.0147014
659.371	0.0146420
659.449	0.0146922
659.527	0.0146174
659.605	0.0145808
659.683	0.0147337
659.761	0.0145403
659.840	0.0146195
659.918	0.0147471
659.996	0.0145910
660.074	0.0147724
660.152	0.0146357
660.230	0.0147132
660.308	0.0146012
660.386	0.0144787
660.465	0.0147782
660.543	0.0146638
660.621	0.0146999
660.699	0.0146505
660.777	0.0147646
660.855	0.0146645
660.933	0.0147433
661.011	0.0146416
661.090	0.0146944
661.168	0.0146490
661.246	0.0146559
661.324	0.0145879
661.402	0.0146113
661.480	0.0146217
661.558	0.0145390
661.636	0.0146040
661.715	0.0147025
661.793	0.0145824
661.871	0.0146142
661.949	0.0146050
662.027	0.0146719
662.105	0.0145437
662.183	0.0146465
662.261	0.0145634
662.340	0.0146719
662.418	0.0146258
662.496	0.0146323
662.574	0.0147176
662.652	0.0146700
662.730	0.0146408
662.808	0.0145872
662.886	0.0146975
662.965	0.0145972
663.043	0.0147520
663.121	0.0147472
663.199	0.0146136
663.277	0.0145929
663.355	0.0146063
663.433	0.0146207
663.511	0.0146899
663.590	0.0147738
663.668	0.0147822
663.746	0.0147199
663.824	0.0146600
663.902	0.0146313
663.980	0.0146377
664.058	0.0147099
664.136	0.0146928
664.215	0.0145452
664.293	0.0146710
664.371	0.0147062
664.449	0.0148265
664.527	0.0147204
664.605	0.0145595
664.683	0.0145805
664.761	0.0146868
664.840	0.0147082
664.918	0.0146477
664.996	0.0147504
665.074	0.0146432
665.152	0.0147012
665.230	0.0146810
665.308	0.0146391
665.386	0.0146480
665.465	0.0145742
665.543	0.0147095
665.621	0.0147628
665.699	0.0146095
665.777	0.0145858
665.855	0.0146578
665.933	0.0146828
666.011	0.0147724
666.090	0.0146445
666.168	0.0145612
666.246	0.0146910
666.324	0.0146657
666.402	0.0145534
666.480	0.0146851
666.558	0.0146388
666.636	0.0146384
666.715	0.0145638
666.793	0.0145766
666.871	0.0145522
666.949	0.0148078
667.027	0.0147604
667.105	0.0147033
667.183	0.0147473
667.261	0.0144212
667.340	0.0146587
667.418	0.0147218
667.496	0.0145442
667.574	0.0147361
667.652	0.0147640
667.730	0.0146958
667.808	0.0146518
667.886	0.0146578
667.965	0.0146100
668.043	0.0146148
668.121	0.0146812
668.199	0.0146496
668.277	0.0144839
668.355	0.0147261
668.433	0.0146812
668.511	0.0147871
668.590	0.0146507
668.668	0.0146471
668.746	0.0146548
668.824	0.0145442
668.902	0.0146499
668.980	0.0145113
669.058	0.0145839
669.136	0.0146147
669.215	0.0146799
669.293	0.0145673
669.371	0.0145065
669.449	0.0146597
669.527	0.0146400
669.605	0.0145590
669.683	0.0146485
669.761	0.0145489
669.840	0.0146548
669.918	0.0145337
669.996	0.0147150
670.074	0.0147074
670.152	0.0145863
670.230	0.0144070
670.308	0.0145824
670.386	0.0144887
670.465	0.0146111
670.543	0.0145886
670.621	0.0146047
670.699	0.0146193
670.777	0.0145320
670.855	0.0145208
670.933	0.0146806
671.011	0.0146529
671.090	0.0147620
671.168	0.0146220
671.246	0.0145409
671.324	0.0147282
671.402	0.0146764
671.480	0.0147030
671.558	0.0146217
671.636	0.0147694
671.715	0.0146556
671.793	0.0146541
671.871	0.0145657
671.949	0.0146922
672.027	0.0146377
672.105	0.0145836
672.183	0.0146442
672.261	0.0145001
672.340	0.0145965
672.418	0.0146433
672.496	0.0146570
672.574	0.0146392
672.652	0.0146390
672.730	0.0146204
672.808	0.0146082
672.886	0.0145275
672.965	0.0146257
673.043	0.0146688
673.121	0.0147568
673.199	0.0147137
673.277	0.0146583
673.355	0.0147041
673.433	0.0146125
673.511	0.0145794
673.590	0.0147422
673.668	0.0146832
673.746	0.0146499
673.824	0.0147020
673.902	0.0149012
673.980	0.0147586
674.058	0.0146257
674.136	0.0144893
674.215	0.0147664
674.293	0.0146680
674.371	0.0146226
674.449	0.0146819
674.527	0.0147440
674.605	0.0146648
674.683	0.0145422
674.761	0.0146320
674.840	0.0147220
674.918	0.0144964
674.996	0.0146655
675.074	0.0148389
675.152	0.0145240
675.230	0.0145879
675.308	0.0147342
675.386	0.0146194
675.465	0.0146760
675.543	0.0146081
675.621	0.0145576
675.699	0.0146298
675.777	0.0146545
675.855	0.0146111
675.933	0.0145090
676.011	0.0146036
676.090	0.0145598
676.168	0.0146375
676.246	0.0146139
676.324	0.0144961
676.402	0.0146895
676.480	0.0147643
676.558	0.0146270
676.636	0.0146258
676.715	0.0145750
676.793	0.0146054
676.871	0.0146652
676.949	0.0147469
677.027	0.0145335
677.105	0.0146497
677.183	0.0145908
677.261	0.0145644
677.340	0.0145760
677.418	0.0145872
677.496	0.0146168
677.574	0.0145512
677.652	0.0144917
677.730	0.0145413
677.808	0.0146965
677.886	0.0146390
677.965	0.0146746
678.043	0.0147691
678.121	0.0146540
678.199	0.0145557
678.277	0.0146074
678.355	0.0147846
678.433	0.0146120
678.511	0.0145619
678.590	0.0146068
678.668	0.0145190
678.746	0.0147580
678.824	0.0147321
678.902	0.0145790
678.980	0.0144369
679.058	0.0145680
679.136	0.0145580
679.215	0.0145400
679.293	0.0146230
679.371	0.0145702
679.449	0.0145705
679.527	0.0145851
679.605	0.0147178
679.683	0.0146349
679.761	0.0146828
679.840	0.0146944
679.918	0.0146198
679.996	0.0146096
680.074	0.0146947
680.152	0.0145715
680.230	0.0146742
680.308	0.0146149
680.386	0.0146751
680.465	0.0146793
680.543	0.0147350
680.621	0.0146788
680.699	0.0145689
680.777	0.0145892
680.855	0.0145851
680.933	0.0145440
681.011	0.0146159
681.090	0.0145499
681.168	0.0146108
681.246	0.0146344
681.324	0.0146467
681.402	0.0146030
681.480	0.0146576
681.558	0.0146910
681.636	0.0145430
681.715	0.0145811
681.793	0.0146519
681.871	0.0147633
681.949	0.0145508
682.027	0.0146067
682.105	0.0146043
682.183	0.0146883
682.261	0.0146864
682.340	0.0145643
682.418	0.0147092
682.496	0.0147405
682.574	0.0145455
682.652	0.0145379
682.730	0.0145102
682.808	0.0146375
682.886	0.0146420
682.965	0.0147427
683.043	0.0145040
683.121	0.0147068
683.199	0.0148052
683.277	0.0146985
683.355	0.0146736
683.433	0.0146127
683.511	0.0147015
683.590	0.0147260
683.668	0.0147905
683.746	0.0147597
683.824	0.0147459
683.902	0.0147407
683.980	0.0147533
684.058	0.0147095
684.136	0.0146445
684.215	0.0145866
684.293	0.0145789
684.371	0.0145850
684.449	0.0146768
684.527	0.0146696
684.605	0.0147103
684.683	0.0146612
684.761	0.0147432
684.840	0.0147252
684.918	0.0146631
684.996	0.0147278
685.074	0.0147807
685.152	0.0146593
685.230	0.0147495
685.308	0.0145888
685.386	0.0147139
685.465	0.0147791
685.543	0.0147608
685.621	0.0146812
685.699	0.0146041
685.777	0.0146261
685.855	0.0146011
685.933	0.0147749
686.011	0.0146221
686.090	0.0146590
686.168	0.0147073
686.246	0.0147112
686.324	0.0146616
686.402	0.0147179
686.480	0.0146143
686.558	0.0145905
686.636	0.0147470
686.715	0.0148123
686.793	0.0146765
686.871	0.0146578
686.949	0.0146727
687.027	0.0146627
687.105	0.0146761
687.183	0.0145398
687.261	0.0146060
687.340	0.0146294
687.418	0.0147360
687.496	0.0145210
687.574	0.0146320
687.652	0.0146674
687.730	0.0146621
687.808	0.0145530
687.886	0.0146729
687.965	0.0145715
688.043	0.0146664
688.121	0.0146466
688.199	0.0146347
688.277	0.0146506
688.355	0.0146128
688.433	0.0146307
688.511	0.0146300
688.590	0.0145323
688.668	0.0146613
688.746	0.0146764
688.824	0.0147264
688.902	0.0146968
688.980	0.0146847
689.058	0.0146594
689.136	0.0147436
689.215	0.0147228
689.293	0.0147504
689.371	0.0147038
689.449	0.0146555
689.527	0.0146887
689.605	0.0147115
689.683	0.0146783
689.761	0.0146828
689.840	0.0145078
689.918	0.0145982
689.996	0.0146369
690.074	0.0146586
690.152	0.0147355
690.230	0.0147653
690.308	0.0147051
690.386	0.0146326
690.465	0.0146967
690.543	0.0147816
690.621	0.0147122
690.699	0.0145929
690.777	0.0147178
690.855	0.0147036
690.933	0.0146187
691.011	0.0145982
691.090	0.0146658
691.168	0.0146518
691.246	0.0146424
691.324	0.0146262
691.402	0.0144890
691.480	0.0147282
691.558	0.0146875
691.636	0.0146400
691.715	0.0146831
691.793	0.0147494
691.871	0.0146461
691.949	0.0146960
692.027	0.0146033
692.105	0.0145857
692.183	0.0146419
692.261	0.0145147
692.340	0.0143940
692.418	0.0145032
692.496	0.0144809
692.574	0.0145995
692.652	0.0146031
692.730	0.0146026
692.808	0.0146109
692.886	0.0145959
692.965	0.0144631
693.043	0.0145307
693.121	0.0145346
693.199	0.0145992
693.277	0.0145315
693.355	0.0145487
693.433	0.0146773
693.511	0.0147028
693.590	0.0147375
693.668	0.0148698
693.746	0.0148499
693.824	0.0148238
693.902	0.0145997
693.980	0.0147130
694.058	0.0145454
694.136	0.0145773
694.215	0.0145037
694.293	0.0142759
694.371	0.0143494
694.449	0.0142349
694.527	0.0143999
694.605	0.0143752
694.683	0.0143517
694.761	0.0145458
694.840	0.0148708
694.918	0.0147665
694.996	0.0149823
695.074	0.0148551
695.152	0.0149523
695.230	0.0150002
695.308	0.0149194
695.386	0.0147882
695.465	0.0146861
695.543	0.0145977
695.621	0.0145026
695.699	0.0144479
695.777	0.0142075
695.855	0.0141940
695.933	0.0142490
696.011	0.0141733
696.090	0.0142580
696.168	0.0142968
696.246	0.0144334
696.324	0.0145006
696.402	0.0146117
696.480	0.0147762
696.558	0.0148524
696.636	0.0150486
696.715	0.0151221
696.793	0.0150330
696.871	0.0149567
696.949	0.0150772
697.027	0.0148949
697.105	0.0148204
697.183	0.0147074
697.261	0.0144500
697.340	0.0144953
697.418	0.0143717
697.496	0.0143626
697.574	0.0144108
697.652	0.0142523
697.730	0.0143059
697.808	0.0142374
697.886	0.0143807
697.965	0.0145509
698.043	0.0146787
698.121	0.0147342
698.199	0.0149612
698.277	0.0150934
698.355	0.0149822
698.433	0.0150325
698.511	0.0151029
698.590	0.0150676
698.668	0.0149667
698.746	0.0148091
698.824	0.0147498
698.902	0.0146525
698.980	0.0145892
699.058	0.0143655
699.136	0.0143262
699.215	0.0143413
699.293	0.0141241
699.371	0.0141228
699.449	0.0143267
699.527	0.0144172
699.605	0.0144407
699.683	0.0146568
699.761	0.0146068
699.840	0.0147019
699.918	0.0148058
699.996	0.0148311
700.074	0.0147735
700.152	0.0147202
700.230	0.0147984
700.308	0.0148586
700.386	0.0149634
700.465	0.0149476
700.543	0.0148880
700.621	0.0150098
700.699	0.0149341
700.777	0.0147584
700.855	0.0146790
700.933	0.0146540
701.011	0.0144652
701.090	0.0143535
701.168	0.0143017
701.246	0.0142302
701.324	0.0141980
701.402	0.0141550
701.480	0.0142362
701.558	0.0142752
701.636	0.0144464
701.715	0.0146439
701.793	0.0145731
701.871	0.0148484
701.949	0.0149650
702.027	0.0152208
702.105	0.0152364
702.183	0.0149377
702.261	0.0150819
702.340	0.0149493
702.418	0.0147431
702.496	0.0148820
702.574	0.0146382
702.652	0.0145679
702.730	0.0143943
702.808	0.0144655
702.886	0.0143628
702.965	0.0143159
703.043	0.0140825
703.121	0.0142577
703.199	0.0143912
703.277	0.0142989
703.355	0.0144899
703.433	0.0145811
703.511	0.0146296
703.590	0.0147681
703.668	0.0147213
703.746	0.0150649
703.824	0.0147421
703.902	0.0149277
703.980	0.0150079
704.058	0.0150776
704.136	0.0148736
704.215	0.0149910
704.293	0.0147861
704.371	0.0148914
704.449	0.0148384
704.527	0.0147252
704.605	0.0145462
704.683	0.0143739
704.761	0.0142816
704.840	0.0143056
704.918	0.0142365
704.996	0.0141767
705.074	0.0143704
705.152	0.0144347
705.230	0.0141991
705.308	0.0143945
705.386	0.0143145
705.465	0.0146689
705.543	0.0147083
705.621	0.0145998
705.699	0.0147802
705.777	0.0148797
705.855	0.0150803
705.933	0.0150002
706.011	0.0150920
706.090	0.0150814
706.168	0.0150228
706.246	0.0151302
706.324	0.0149700
706.402	0.0149448
706.480	0.0147694
706.558	0.0146490
706.636	0.0144411
706.715	0.0143613
706.793	0.0143661
706.871	0.0141404
706.949	0.0139182
707.027	0.0139954
707.105	0.0141537
707.183	0.0141904
707.261	0.0143284
707.340	0.0146272
707.418	0.0147310
707.496	0.0146591
707.574	0.0149090
707.652	0.0151674
707.730	0.0151423
707.808	0.0151496
707.886	0.0151689
707.965	0.0150423
708.043	0.0149424
708.121	0.0148829
708.199	0.0148573
708.277	0.0145296
708.355	0.0143493
708.433	0.0142659
708.511	0.0142140
708.590	0.0140541
708.668	0.0140882
708.746	0.0141127
708.824	0.0141556
708.902	0.0144016
708.980	0.0145518
709.058	0.0147179
709.136	0.0148273
709.215	0.0149858
709.293	0.0150239
709.371	0.0151367
709.449	0.0151458
709.527	0.0152158
709.605	0.0150222
709.683	0.0150272
709.761	0.0147934
709.840	0.0147514
709.918	0.0145351
709.996	0.0143274
710.074	0.0143133
710.152	0.0143581
710.230	0.0142265
710.308	0.0142741
710.386	0.0143250
710.465	0.0144610
710.543	0.0145349
710.621	0.0146384
710.699	0.0148087
710.777	0.0148942
710.855	0.0147966
710.933	0.0150793
711.011	0.0148882
711.090	0.0149624
711.168	0.0148431
711.246	0.0147863
711.324	0.0146510
711.402	0.0147709
711.480	0.0145097
711.558	0.0143833
711.636	0.0142310
711.715	0.0141807
711.793	0.0141930
711.871	0.0144145
711.949	0.0143913
712.027	0.0144656
712.105	0.0146106
712.183	0.0147027
712.261	0.0150570
712.340	0.0152191
712.418	0.0149844
712.496	0.0152247
712.574	0.0151556
712.652	0.0150833
712.730	0.0150879
712.808	0.0150138
712.886	0.0147450
712.965	0.0146330
713.043	0.0142802
713.121	0.0141598
713.199	0.0142668
713.277	0.0141599
713.355	0.0141487
713.433	0.0141520
713.511	0.0143298
713.590	0.0144215
713.668	0.0144634
713.746	0.0146873
713.824	0.0146502
713.902	0.0147147
713.980	0.0149047
714.058	0.0147438
714.136	0.0148626
714.215	0.0149916
714.293	0.0149418
714.371	0.0149075
714.449	0.0149815
714.527	0.0150069
714.605	0.0150583
714.683	0.0149002
714.761	0.0149548
714.840	0.0148220
714.918	0.0145303
714.996	0.0145368
715.074	0.0143484
715.152	0.0141579
715.230	0.0141204
715.308	0.0140645
715.386	0.0139013
715.465	0.0137975
715.543	0.0139330
715.621	0.0139162
715.699	0.0139150
