06/03/2022	13:57:20	Ver.	4.1	UNKNOWN
Optical Delay	599.988409	Delta X		0.078125	Sweeps	1	Scan Rate	0/0
Coordinates	Axis 1	NaN	Axis 2	NaN	Axis 3	NaN	Axis 4	NaN	Axis 5	NaN	Axis 6	0.000000
TX Power	0.000000	RX Power	0.000000

599.988	0.0163794
600.067	0.0163378
600.145	0.0162775
600.223	0.0164323
600.301	0.0164962
600.379	0.0163146
600.457	0.0164548
600.535	0.0164148
600.613	0.0164252
600.692	0.0163848
600.770	0.0163672
600.848	0.0164465
600.926	0.0163989
601.004	0.0163316
601.082	0.0163837
601.160	0.0164269
601.238	0.0164681
601.317	0.0164248
601.395	0.0164003
601.473	0.0164066
601.551	0.0164044
601.629	0.0163420
601.707	0.0164246
601.785	0.0162765
601.863	0.0164832
601.942	0.0164036
602.020	0.0163702
602.098	0.0163485
602.176	0.0164205
602.254	0.0163344
602.332	0.0163647
602.410	0.0163736
602.488	0.0164022
602.567	0.0163822
602.645	0.0164375
602.723	0.0163320
602.801	0.0164412
602.879	0.0164137
602.957	0.0164671
603.035	0.0163950
603.113	0.0162421
603.192	0.0164336
603.270	0.0163998
603.348	0.0163390
603.426	0.0163969
603.504	0.0163792
603.582	0.0163670
603.660	0.0165017
603.738	0.0164775
603.817	0.0164222
603.895	0.0163882
603.973	0.0162722
604.051	0.0163075
604.129	0.0162650
604.207	0.0164002
604.285	0.0164365
604.363	0.0163386
604.442	0.0164194
604.520	0.0164096
604.598	0.0163639
604.676	0.0164919
604.754	0.0164651
604.832	0.0164819
604.910	0.0163885
604.988	0.0165281
605.067	0.0164267
605.145	0.0164340
605.223	0.0164777
605.301	0.0163338
605.379	0.0163403
605.457	0.0162837
605.535	0.0164716
605.613	0.0165757
605.692	0.0164747
605.770	0.0162547
605.848	0.0164019
605.926	0.0164538
606.004	0.0163424
606.082	0.0164228
606.160	0.0161958
606.238	0.0161638
606.317	0.0162970
606.395	0.0165302
606.473	0.0164523
606.551	0.0163320
606.629	0.0163532
606.707	0.0163847
606.785	0.0163866
606.863	0.0163542
606.942	0.0164716
607.020	0.0164188
607.098	0.0162869
607.176	0.0164542
607.254	0.0163926
607.332	0.0164096
607.410	0.0163828
607.488	0.0164118
607.567	0.0162949
607.645	0.0163657
607.723	0.0163609
607.801	0.0166033
607.879	0.0163956
607.957	0.0163786
608.035	0.0164858
608.113	0.0164508
608.192	0.0163808
608.270	0.0164037
608.348	0.0164763
608.426	0.0163040
608.504	0.0163213
608.582	0.0164072
608.660	0.0164417
608.738	0.0163225
608.817	0.0162215
608.895	0.0163036
608.973	0.0163647
609.051	0.0163963
609.129	0.0163491
609.207	0.0165223
609.285	0.0163690
609.363	0.0163132
609.442	0.0163815
609.520	0.0164074
609.598	0.0163374
609.676	0.0164773
609.754	0.0162551
609.832	0.0164249
609.910	0.0164887
609.988	0.0164568
610.067	0.0165070
610.145	0.0164767
610.223	0.0164763
610.301	0.0163331
610.379	0.0163801
610.457	0.0164211
610.535	0.0164429
610.613	0.0164444
610.692	0.0164395
610.770	0.0165025
610.848	0.0163825
610.926	0.0162669
611.004	0.0163473
611.082	0.0163755
611.160	0.0161542
611.238	0.0163500
611.317	0.0163939
611.395	0.0162438
611.473	0.0162029
611.551	0.0163029
611.629	0.0163335
611.707	0.0163605
611.785	0.0162965
611.863	0.0164742
611.942	0.0164237
612.020	0.0162908
612.098	0.0163344
612.176	0.0164769
612.254	0.0164377
612.332	0.0164627
612.410	0.0163342
612.488	0.0164342
612.567	0.0164899
612.645	0.0163637
612.723	0.0164085
612.801	0.0164558
612.879	0.0164051
612.957	0.0163815
613.035	0.0164371
613.113	0.0163422
613.192	0.0163298
613.270	0.0163576
613.348	0.0164849
613.426	0.0163808
613.504	0.0162556
613.582	0.0163003
613.660	0.0164074
613.738	0.0163776
613.817	0.0164769
613.895	0.0162730
613.973	0.0162896
614.051	0.0163484
614.129	0.0164304
614.207	0.0164139
614.285	0.0164594
614.363	0.0163641
614.442	0.0164416
614.520	0.0163381
614.598	0.0164405
614.676	0.0165102
614.754	0.0164100
614.832	0.0164132
614.910	0.0163827
614.988	0.0164522
615.067	0.0164839
615.145	0.0163927
615.223	0.0164995
615.301	0.0164695
615.379	0.0163488
615.457	0.0163911
615.535	0.0163688
615.613	0.0162788
615.692	0.0164069
615.770	0.0161938
615.848	0.0162917
615.926	0.0163859
616.004	0.0162497
616.082	0.0163033
616.160	0.0163941
616.238	0.0163197
616.317	0.0165184
616.395	0.0164733
616.473	0.0164378
616.551	0.0164423
616.629	0.0163996
616.707	0.0163477
616.785	0.0163902
616.863	0.0163995
616.942	0.0163473
617.020	0.0164568
617.098	0.0164270
617.176	0.0164537
617.254	0.0163704
617.332	0.0162808
617.410	0.0163029
617.488	0.0163055
617.567	0.0165033
617.645	0.0163078
617.723	0.0163759
617.801	0.0165184
617.879	0.0164533
617.957	0.0163728
618.035	0.0162534
618.113	0.0163100
618.192	0.0163305
618.270	0.0164104
618.348	0.0163235
618.426	0.0164323
618.504	0.0164444
618.582	0.0164804
618.660	0.0163760
618.738	0.0163828
618.817	0.0163732
618.895	0.0163765
618.973	0.0164127
619.051	0.0164131
619.129	0.0163836
619.207	0.0163075
619.285	0.0164086
619.363	0.0163421
619.442	0.0165288
619.520	0.0163439
619.598	0.0162812
619.676	0.0163411
619.754	0.0163288
619.832	0.0164236
619.910	0.0163488
619.988	0.0165087
620.067	0.0164276
620.145	0.0162708
620.223	0.0162630
620.301	0.0165311
620.379	0.0162894
620.457	0.0162380
620.535	0.0163992
620.613	0.0163188
620.692	0.0164439
620.770	0.0163661
620.848	0.0163069
620.926	0.0163461
621.004	0.0162740
621.082	0.0163239
621.160	0.0162432
621.238	0.0165015
621.317	0.0164342
621.395	0.0163826
621.473	0.0163269
621.551	0.0162987
621.629	0.0163982
621.707	0.0163578
621.785	0.0164013
621.863	0.0165474
621.942	0.0162850
622.020	0.0164349
622.098	0.0164656
622.176	0.0163316
622.254	0.0162666
622.332	0.0162945
622.410	0.0164090
622.488	0.0164656
622.567	0.0164162
622.645	0.0163823
622.723	0.0164637
622.801	0.0165332
622.879	0.0165418
622.957	0.0163496
623.035	0.0162270
623.113	0.0163418
623.192	0.0163898
623.270	0.0163614
623.348	0.0162827
623.426	0.0164239
623.504	0.0164634
623.582	0.0163206
623.660	0.0163411
623.738	0.0163147
623.817	0.0165055
623.895	0.0162840
623.973	0.0165638
624.051	0.0165058
624.129	0.0161894
624.207	0.0162975
624.285	0.0164572
624.363	0.0164756
624.442	0.0163007
624.520	0.0162703
624.598	0.0161247
624.676	0.0163068
624.754	0.0163995
624.832	0.0164297
624.910	0.0162899
624.988	0.0162717
625.067	0.0164374
625.145	0.0163582
625.223	0.0162343
625.301	0.0163653
625.379	0.0163900
625.457	0.0162799
625.535	0.0163132
625.613	0.0163892
625.692	0.0163188
625.770	0.0163275
625.848	0.0161993
625.926	0.0162688
626.004	0.0163468
626.082	0.0162351
626.160	0.0161614
626.238	0.0163068
626.317	0.0163853
626.395	0.0163927
626.473	0.0163542
626.551	0.0163622
626.629	0.0162193
626.707	0.0163387
626.785	0.0164021
626.863	0.0163453
626.942	0.0164297
627.020	0.0163234
627.098	0.0162879
627.176	0.0164580
627.254	0.0164042
627.332	0.0163260
627.410	0.0162276
627.488	0.0164235
627.567	0.0163187
627.645	0.0162957
627.723	0.0163139
627.801	0.0164227
627.879	0.0165334
627.957	0.0164127
628.035	0.0163548
628.113	0.0163715
628.192	0.0164016
628.270	0.0162817
628.348	0.0163350
628.426	0.0164658
628.504	0.0163313
628.582	0.0162901
628.660	0.0164047
628.738	0.0163647
628.817	0.0165263
628.895	0.0163463
628.973	0.0163882
629.051	0.0163873
629.129	0.0163672
629.207	0.0163889
629.285	0.0163605
629.363	0.0164091
629.442	0.0163231
629.520	0.0163835
629.598	0.0163303
629.676	0.0163338
629.754	0.0164193
629.832	0.0164059
629.910	0.0163848
629.988	0.0164177
630.067	0.0163364
630.145	0.0163801
630.223	0.0164731
630.301	0.0163390
630.379	0.0163342
630.457	0.0165252
630.535	0.0163436
630.613	0.0163354
630.692	0.0163366
630.770	0.0163035
630.848	0.0163299
630.926	0.0164798
631.004	0.0164163
631.082	0.0163979
631.160	0.0164313
631.238	0.0163888
631.317	0.0164808
631.395	0.0163763
631.473	0.0164053
631.551	0.0162627
631.629	0.0163835
631.707	0.0164902
631.785	0.0163519
631.863	0.0164057
631.942	0.0162707
632.020	0.0164039
632.098	0.0164174
632.176	0.0164505
632.254	0.0164974
632.332	0.0162705
632.410	0.0162681
632.488	0.0162955
632.567	0.0163500
632.645	0.0163210
632.723	0.0163766
632.801	0.0163584
632.879	0.0164191
632.957	0.0164195
633.035	0.0161771
633.113	0.0163790
633.192	0.0163874
633.270	0.0162188
633.348	0.0164019
633.426	0.0163573
633.504	0.0163737
633.582	0.0164762
633.660	0.0164223
633.738	0.0163358
633.817	0.0164546
633.895	0.0163145
633.973	0.0163850
634.051	0.0165331
634.129	0.0164050
634.207	0.0163230
634.285	0.0163898
634.363	0.0163333
634.442	0.0163423
634.520	0.0164601
634.598	0.0163237
634.676	0.0162868
634.754	0.0163819
634.832	0.0163605
634.910	0.0163548
634.988	0.0164306
635.067	0.0163782
635.145	0.0164969
635.223	0.0164452
635.301	0.0163909
635.379	0.0163835
635.457	0.0163541
635.535	0.0161971
635.613	0.0165320
635.692	0.0163676
635.770	0.0162535
635.848	0.0162695
635.926	0.0164448
636.004	0.0163116
636.082	0.0162668
636.160	0.0162844
636.238	0.0164123
636.317	0.0165052
636.395	0.0163969
636.473	0.0163776
636.551	0.0162905
636.629	0.0163513
636.707	0.0162349
636.785	0.0166029
636.863	0.0164706
636.942	0.0163762
637.020	0.0162576
637.098	0.0162852
637.176	0.0164646
637.254	0.0162878
637.332	0.0164243
637.410	0.0164785
637.488	0.0163878
637.567	0.0165003
637.645	0.0162827
637.723	0.0163406
637.801	0.0164178
637.879	0.0164002
637.957	0.0164220
638.035	0.0163894
638.113	0.0163339
638.192	0.0163633
638.270	0.0163319
638.348	0.0164655
638.426	0.0163958
638.504	0.0163512
638.582	0.0163862
638.660	0.0164729
638.738	0.0163856
638.817	0.0164876
638.895	0.0163747
638.973	0.0162066
639.051	0.0163712
639.129	0.0164063
639.207	0.0164626
639.285	0.0163110
639.363	0.0161979
639.442	0.0165141
639.520	0.0164245
639.598	0.0163815
639.676	0.0164053
639.754	0.0162951
639.832	0.0163132
639.910	0.0164172
639.988	0.0164207
640.067	0.0163683
640.145	0.0163467
640.223	0.0163124
640.301	0.0162724
640.379	0.0163903
640.457	0.0163847
640.535	0.0163564
640.613	0.0164067
640.692	0.0163879
640.770	0.0163931
640.848	0.0164619
640.926	0.0162828
641.004	0.0163734
641.082	0.0164295
641.160	0.0164455
641.238	0.0163641
641.317	0.0163319
641.395	0.0163898
641.473	0.0162708
641.551	0.0165144
641.629	0.0162536
641.707	0.0162720
641.785	0.0163834
641.863	0.0162441
641.942	0.0163464
642.020	0.0164742
642.098	0.0163889
642.176	0.0163843
642.254	0.0164204
642.332	0.0164359
642.410	0.0163093
642.488	0.0163808
642.567	0.0163313
642.645	0.0163249
642.723	0.0163472
642.801	0.0164859
642.879	0.0164825
642.957	0.0163725
643.035	0.0163610
643.113	0.0163943
643.192	0.0163831
643.270	0.0161935
643.348	0.0163193
643.426	0.0164454
643.504	0.0164906
643.582	0.0163958
643.660	0.0163651
643.738	0.0164211
643.817	0.0164133
643.895	0.0163453
643.973	0.0163968
644.051	0.0162054
644.129	0.0164987
644.207	0.0164449
644.285	0.0164391
644.363	0.0164758
644.442	0.0163878
644.520	0.0164429
644.598	0.0163780
644.676	0.0163339
644.754	0.0164292
644.832	0.0162820
644.910	0.0163759
644.988	0.0163259
645.067	0.0163473
645.145	0.0163187
645.223	0.0162683
645.301	0.0163110
645.379	0.0164278
645.457	0.0164725
645.535	0.0163147
645.613	0.0162900
645.692	0.0163885
645.770	0.0163484
645.848	0.0163686
645.926	0.0163081
646.004	0.0163573
646.082	0.0163154
646.160	0.0162958
646.238	0.0164725
646.317	0.0163663
646.395	0.0163268
646.473	0.0163443
646.551	0.0162467
646.629	0.0164245
646.707	0.0164350
646.785	0.0163910
646.863	0.0163869
646.942	0.0163724
647.020	0.0163589
647.098	0.0164374
647.176	0.0164466
647.254	0.0164383
647.332	0.0164056
647.410	0.0161427
647.488	0.0163686
647.567	0.0164400
647.645	0.0165083
647.723	0.0164621
647.801	0.0162836
647.879	0.0162891
647.957	0.0164357
648.035	0.0163904
648.113	0.0164898
648.192	0.0163239
648.270	0.0163727
648.348	0.0164190
648.426	0.0163207
648.504	0.0164011
648.582	0.0163634
648.660	0.0164149
648.738	0.0164179
648.817	0.0162959
648.895	0.0164313
648.973	0.0163654
649.051	0.0163895
649.129	0.0163653
649.207	0.0164327
649.285	0.0164146
649.363	0.0163403
649.442	0.0163541
649.520	0.0163038
649.598	0.0164757
649.676	0.0163387
649.754	0.0164731
649.832	0.0163834
649.910	0.0164085
649.988	0.0163962
650.067	0.0164415
650.145	0.0163582
650.223	0.0163790
650.301	0.0164559
650.379	0.0164497
650.457	0.0162196
650.535	0.0164082
650.613	0.0163984
650.692	0.0165389
650.770	0.0163602
650.848	0.0163456
650.926	0.0163590
651.004	0.0164395
651.082	0.0164873
651.160	0.0163601
651.238	0.0162884
651.317	0.0164652
651.395	0.0163352
651.473	0.0163898
651.551	0.0163686
651.629	0.0162936
651.707	0.0164498
651.785	0.0163398
651.863	0.0164760
651.942	0.0163761
652.020	0.0164322
652.098	0.0164021
652.176	0.0163609
652.254	0.0163583
652.332	0.0165534
652.410	0.0165308
652.488	0.0163699
652.567	0.0163584
652.645	0.0163531
652.723	0.0162885
652.801	0.0162986
652.879	0.0163266
652.957	0.0164069
653.035	0.0164163
653.113	0.0162907
653.192	0.0162339
653.270	0.0163097
653.348	0.0163939
653.426	0.0163152
653.504	0.0163552
653.582	0.0162855
653.660	0.0163200
653.738	0.0164999
653.817	0.0164043
653.895	0.0163523
653.973	0.0163746
654.051	0.0164674
654.129	0.0163554
654.207	0.0163459
654.285	0.0163326
654.363	0.0163468
654.442	0.0163873
654.520	0.0165044
654.598	0.0163967
654.676	0.0162812
654.754	0.0164004
654.832	0.0165397
654.910	0.0162980
654.988	0.0163948
655.067	0.0164722
655.145	0.0164973
655.223	0.0164058
655.301	0.0164365
655.379	0.0164052
655.457	0.0163980
655.535	0.0163505
655.613	0.0164131
655.692	0.0163318
655.770	0.0163878
655.848	0.0166007
655.926	0.0163656
656.004	0.0163815
656.082	0.0163680
656.160	0.0163807
656.238	0.0164404
656.317	0.0162723
656.395	0.0163888
656.473	0.0163081
656.551	0.0162906
656.629	0.0164918
656.707	0.0164841
656.785	0.0162276
656.863	0.0164788
656.942	0.0163628
657.020	0.0163638
657.098	0.0163898
657.176	0.0164381
657.254	0.0163812
657.332	0.0163116
657.410	0.0162284
657.488	0.0164292
657.567	0.0163230
657.645	0.0164324
657.723	0.0163502
657.801	0.0163001
657.879	0.0163454
657.957	0.0164950
658.035	0.0164303
658.113	0.0163808
658.192	0.0164422
658.270	0.0164494
658.348	0.0164233
658.426	0.0164368
658.504	0.0163510
658.582	0.0164050
658.660	0.0164311
658.738	0.0163625
658.817	0.0163599
658.895	0.0163978
658.973	0.0163715
659.051	0.0164088
659.129	0.0164495
659.207	0.0164368
659.285	0.0162722
659.363	0.0164999
659.442	0.0163938
659.520	0.0163918
659.598	0.0164750
659.676	0.0163457
659.754	0.0163837
659.832	0.0163957
659.910	0.0163888
659.988	0.0163624
660.067	0.0163795
660.145	0.0164922
660.223	0.0164260
660.301	0.0163976
660.379	0.0163639
660.457	0.0164386
660.535	0.0163335
660.613	0.0165148
660.692	0.0163029
660.770	0.0164169
660.848	0.0162891
660.926	0.0163218
661.004	0.0163675
661.082	0.0163881
661.160	0.0164140
661.238	0.0162966
661.317	0.0163876
661.395	0.0163404
661.473	0.0163288
661.551	0.0164026
661.629	0.0164912
661.707	0.0163956
661.785	0.0163523
661.863	0.0163428
661.942	0.0163619
662.020	0.0163741
662.098	0.0164071
662.176	0.0164886
662.254	0.0163743
662.332	0.0164077
662.410	0.0164229
662.488	0.0164223
662.567	0.0163233
662.645	0.0164150
662.723	0.0165494
662.801	0.0163596
662.879	0.0163515
662.957	0.0163777
663.035	0.0164715
663.113	0.0163079
663.192	0.0162260
663.270	0.0164411
663.348	0.0163231
663.426	0.0163132
663.504	0.0163846
663.582	0.0163558
663.660	0.0164259
663.738	0.0162935
663.817	0.0163715
663.895	0.0164494
663.973	0.0163386
664.051	0.0164133
664.129	0.0163856
664.207	0.0163451
664.285	0.0162708
664.363	0.0163898
664.442	0.0163026
664.520	0.0164339
664.598	0.0163807
664.676	0.0163054
664.754	0.0165057
664.832	0.0162782
664.910	0.0163693
664.988	0.0163947
665.067	0.0163728
665.145	0.0164403
665.223	0.0164182
665.301	0.0163591
665.379	0.0162304
665.457	0.0164124
665.535	0.0163131
665.613	0.0162720
665.692	0.0162785
665.770	0.0163667
665.848	0.0162842
665.926	0.0164346
666.004	0.0163197
666.082	0.0163042
666.160	0.0163463
666.238	0.0163208
666.317	0.0163692
666.395	0.0162510
666.473	0.0163332
666.551	0.0163722
666.629	0.0163532
666.707	0.0164064
666.785	0.0163287
666.863	0.0164597
666.942	0.0162990
667.020	0.0163051
667.098	0.0163091
667.176	0.0164082
667.254	0.0162611
667.332	0.0163747
667.410	0.0165904
667.488	0.0164302
667.567	0.0162826
667.645	0.0164487
667.723	0.0162927
667.801	0.0162196
667.879	0.0163743
667.957	0.0164256
668.035	0.0163609
668.113	0.0162928
668.192	0.0163596
668.270	0.0164154
668.348	0.0163142
668.426	0.0163705
668.504	0.0164011
668.582	0.0164035
668.660	0.0162318
668.738	0.0162871
668.817	0.0162973
668.895	0.0163845
668.973	0.0163776
669.051	0.0163257
669.129	0.0164191
669.207	0.0163522
669.285	0.0163492
669.363	0.0164001
669.442	0.0162539
669.520	0.0163165
669.598	0.0162476
669.676	0.0164836
669.754	0.0164307
669.832	0.0163960
669.910	0.0163459
669.988	0.0163622
670.067	0.0164132
670.145	0.0165005
670.223	0.0162843
670.301	0.0164945
670.379	0.0164349
670.457	0.0164353
670.535	0.0163179
670.613	0.0162340
670.692	0.0163833
670.770	0.0164783
670.848	0.0164464
670.926	0.0163770
671.004	0.0164060
671.082	0.0164251
671.160	0.0164248
671.238	0.0162852
671.317	0.0163675
671.395	0.0164220
671.473	0.0163779
671.551	0.0163689
671.629	0.0164641
671.707	0.0164941
671.785	0.0164374
671.863	0.0164457
671.942	0.0163451
672.020	0.0164957
672.098	0.0164619
672.176	0.0164178
672.254	0.0163911
672.332	0.0164259
672.410	0.0165237
672.488	0.0164359
672.567	0.0164906
672.645	0.0163990
672.723	0.0165361
672.801	0.0163934
672.879	0.0164716
672.957	0.0164595
673.035	0.0165654
673.113	0.0163854
673.192	0.0163766
673.270	0.0165578
673.348	0.0164687
673.426	0.0164647
673.504	0.0164723
673.582	0.0165134
673.660	0.0163475
673.738	0.0165047
673.817	0.0164172
673.895	0.0164211
673.973	0.0165080
674.051	0.0165423
674.129	0.0164655
674.207	0.0165613
674.285	0.0165437
674.363	0.0163985
674.442	0.0163332
674.520	0.0163377
674.598	0.0164949
674.676	0.0165054
674.754	0.0164520
674.832	0.0164321
674.910	0.0164085
674.988	0.0167054
675.067	0.0165814
675.145	0.0164503
675.223	0.0163837
675.301	0.0164495
675.379	0.0166077
675.457	0.0165655
675.535	0.0166040
675.613	0.0163771
675.692	0.0164542
675.770	0.0165771
675.848	0.0163391
675.926	0.0163802
676.004	0.0164580
676.082	0.0163808
676.160	0.0163949
676.238	0.0165060
676.317	0.0163913
676.395	0.0163295
676.473	0.0164491
676.551	0.0164884
676.629	0.0164703
676.707	0.0162976
676.785	0.0163911
676.863	0.0163531
676.942	0.0163877
677.020	0.0164957
677.098	0.0163614
677.176	0.0165018
677.254	0.0162829
677.332	0.0164265
677.410	0.0164541
677.488	0.0164698
677.567	0.0165432
677.645	0.0163454
677.723	0.0162853
677.801	0.0164500
677.879	0.0164037
677.957	0.0164240
678.035	0.0164750
678.113	0.0163967
678.192	0.0163125
678.270	0.0162383
678.348	0.0163480
678.426	0.0163504
678.504	0.0162824
678.582	0.0163105
678.660	0.0162908
678.738	0.0164158
678.817	0.0163519
678.895	0.0162756
678.973	0.0163411
679.051	0.0162428
679.129	0.0163246
679.207	0.0162930
679.285	0.0162712
679.363	0.0162967
679.442	0.0163065
679.520	0.0165176
679.598	0.0162727
679.676	0.0163492
679.754	0.0162479
679.832	0.0163109
679.910	0.0163453
679.988	0.0164237
680.067	0.0163992
680.145	0.0163814
680.223	0.0162424
680.301	0.0161767
680.379	0.0163316
680.457	0.0162440
680.535	0.0161642
680.613	0.0163335
680.692	0.0162545
680.770	0.0161813
680.848	0.0163955
680.926	0.0163327
681.004	0.0164214
681.082	0.0163388
681.160	0.0162077
681.238	0.0163104
681.317	0.0164081
681.395	0.0162482
681.473	0.0161285
681.551	0.0164116
681.629	0.0164610
681.707	0.0163960
681.785	0.0164609
681.863	0.0163132
681.942	0.0164154
682.020	0.0163821
682.098	0.0163521
682.176	0.0162788
682.254	0.0163323
682.332	0.0164854
682.410	0.0162212
682.488	0.0163884
682.567	0.0163833
682.645	0.0163221
682.723	0.0163171
682.801	0.0163599
682.879	0.0163681
682.957	0.0164359
683.035	0.0163813
683.113	0.0164363
683.192	0.0163840
683.270	0.0163540
683.348	0.0163714
683.426	0.0163978
683.504	0.0163695
683.582	0.0163360
683.660	0.0164066
683.738	0.0162347
683.817	0.0162952
683.895	0.0163210
683.973	0.0163905
684.051	0.0163316
684.129	0.0161328
684.207	0.0162489
684.285	0.0163011
684.363	0.0162154
684.442	0.0162488
684.520	0.0163881
684.598	0.0163398
684.676	0.0163758
684.754	0.0163768
684.832	0.0164266
684.910	0.0165398
684.988	0.0165282
685.067	0.0165984
685.145	0.0166337
685.223	0.0166173
685.301	0.0166180
685.379	0.0165092
685.457	0.0165470
685.535	0.0165134
685.613	0.0164117
685.692	0.0162912
