06/03/2022	13:57:40	Ver.	4.1	UNKNOWN
Optical Delay	599.981738	Delta X		0.078125	Sweeps	1	Scan Rate	0/0
Coordinates	Axis 1	NaN	Axis 2	NaN	Axis 3	NaN	Axis 4	NaN	Axis 5	NaN	Axis 6	0.000000
TX Power	0.000000	RX Power	0.000000

599.982	0.0164774
600.060	0.0165205
600.138	0.0166287
600.216	0.0165298
600.294	0.0164211
600.372	0.0165878
600.450	0.0164757
600.529	0.0165655
600.607	0.0164529
600.685	0.0165430
600.763	0.0163960
600.841	0.0165511
600.919	0.0164301
600.997	0.0163928
601.075	0.0164777
601.154	0.0165329
601.232	0.0164641
601.310	0.0163754
601.388	0.0164522
601.466	0.0163467
601.544	0.0165120
601.622	0.0165201
601.700	0.0164973
601.779	0.0165049
601.857	0.0163745
601.935	0.0165061
602.013	0.0163544
602.091	0.0165511
602.169	0.0164349
602.247	0.0164703
602.325	0.0165271
602.404	0.0164074
602.482	0.0163740
602.560	0.0163564
602.638	0.0165585
602.716	0.0164625
602.794	0.0165004
602.872	0.0166008
602.950	0.0164722
603.029	0.0164359
603.107	0.0164684
603.185	0.0163519
603.263	0.0165318
603.341	0.0165381
603.419	0.0164635
603.497	0.0163936
603.575	0.0164151
603.654	0.0164505
603.732	0.0165679
603.810	0.0165334
603.888	0.0165868
603.966	0.0164301
604.044	0.0163937
604.122	0.0164640
604.200	0.0164610
604.279	0.0164329
604.357	0.0164957
604.435	0.0166296
604.513	0.0165700
604.591	0.0163649
604.669	0.0164856
604.747	0.0165178
604.825	0.0164003
604.904	0.0165298
604.982	0.0164478
605.060	0.0164771
605.138	0.0164520
605.216	0.0165749
605.294	0.0165028
605.372	0.0164446
605.450	0.0164827
605.529	0.0164537
605.607	0.0163788
605.685	0.0163763
605.763	0.0164146
605.841	0.0165087
605.919	0.0165481
605.997	0.0163764
606.075	0.0164606
606.154	0.0165390
606.232	0.0163780
606.310	0.0164497
606.388	0.0165237
606.466	0.0164449
606.544	0.0164927
606.622	0.0163036
606.700	0.0164678
606.779	0.0165600
606.857	0.0164636
606.935	0.0165140
607.013	0.0164780
607.091	0.0165417
607.169	0.0164209
607.247	0.0165181
607.325	0.0164677
607.404	0.0165148
607.482	0.0164894
607.560	0.0163277
607.638	0.0163669
607.716	0.0164581
607.794	0.0165224
607.872	0.0164611
607.950	0.0164686
608.029	0.0166224
608.107	0.0165136
608.185	0.0165034
608.263	0.0165691
608.341	0.0165783
608.419	0.0163885
608.497	0.0166016
608.575	0.0165189
608.654	0.0164305
608.732	0.0163925
608.810	0.0163069
608.888	0.0164650
608.966	0.0164290
609.044	0.0164259
609.122	0.0164386
609.200	0.0164280
609.279	0.0164890
609.357	0.0164793
609.435	0.0165763
609.513	0.0164351
609.591	0.0164828
609.669	0.0164552
609.747	0.0165776
609.825	0.0163728
609.904	0.0165332
609.982	0.0164958
610.060	0.0164764
610.138	0.0164950
610.216	0.0164488
610.294	0.0165807
610.372	0.0165514
610.450	0.0164687
610.529	0.0165217
610.607	0.0164387
610.685	0.0165330
610.763	0.0165637
610.841	0.0165462
610.919	0.0162994
610.997	0.0165314
611.075	0.0165445
611.154	0.0164124
611.232	0.0164786
611.310	0.0163911
611.388	0.0164024
611.466	0.0163947
611.544	0.0164113
611.622	0.0164847
611.700	0.0165058
611.779	0.0164622
611.857	0.0164611
611.935	0.0164877
612.013	0.0165086
612.091	0.0164774
612.169	0.0164322
612.247	0.0166621
612.325	0.0165907
612.404	0.0165009
612.482	0.0165166
612.560	0.0165515
612.638	0.0165097
612.716	0.0164545
612.794	0.0164465
612.872	0.0163737
612.950	0.0163527
613.029	0.0165836
613.107	0.0165932
613.185	0.0164835
613.263	0.0164085
613.341	0.0165057
613.419	0.0162458
613.497	0.0164857
613.575	0.0165060
613.654	0.0163757
613.732	0.0164196
613.810	0.0165170
613.888	0.0165141
613.966	0.0163911
614.044	0.0163539
614.122	0.0164833
614.200	0.0165025
614.279	0.0164939
614.357	0.0165223
614.435	0.0165329
614.513	0.0164734
614.591	0.0165797
614.669	0.0165277
614.747	0.0165417
614.825	0.0166595
614.904	0.0165420
614.982	0.0164785
615.060	0.0165572
615.138	0.0164745
615.216	0.0165430
615.294	0.0165959
615.372	0.0164983
615.450	0.0164742
615.529	0.0166045
615.607	0.0163956
615.685	0.0164859
615.763	0.0166438
615.841	0.0164347
615.919	0.0164790
615.997	0.0164100
616.075	0.0162844
616.154	0.0164868
616.232	0.0163450
616.310	0.0162912
616.388	0.0163038
616.466	0.0163528
616.544	0.0166275
616.622	0.0163744
616.700	0.0164447
616.779	0.0164922
616.857	0.0166370
616.935	0.0164953
617.013	0.0163831
617.091	0.0164594
617.169	0.0164947
617.247	0.0164809
617.325	0.0164478
617.404	0.0163708
617.482	0.0165443
617.560	0.0164708
617.638	0.0163010
617.716	0.0163283
617.794	0.0165668
617.872	0.0166031
617.950	0.0164933
618.029	0.0163455
618.107	0.0165240
618.185	0.0165031
618.263	0.0164780
618.341	0.0165421
618.419	0.0165069
618.497	0.0165520
618.575	0.0164723
618.654	0.0164481
618.732	0.0162555
618.810	0.0163546
618.888	0.0165110
618.966	0.0164162
619.044	0.0164603
619.122	0.0164587
619.200	0.0164860
619.279	0.0164660
619.357	0.0164574
619.435	0.0163750
619.513	0.0164951
619.591	0.0164919
619.669	0.0164498
619.747	0.0164684
619.825	0.0165481
619.904	0.0165968
619.982	0.0165428
620.060	0.0164490
620.138	0.0164819
620.216	0.0164210
620.294	0.0165550
620.372	0.0165357
620.450	0.0164299
620.529	0.0163057
620.607	0.0164284
620.685	0.0166338
620.763	0.0164619
620.841	0.0163976
620.919	0.0163693
620.997	0.0165070
621.075	0.0164394
621.154	0.0164083
621.232	0.0165011
621.310	0.0164954
621.388	0.0165272
621.466	0.0163452
621.544	0.0165223
621.622	0.0164040
621.700	0.0163594
621.779	0.0163490
621.857	0.0165650
621.935	0.0164268
622.013	0.0165460
622.091	0.0165714
622.169	0.0165845
622.247	0.0164379
622.325	0.0165157
622.404	0.0165253
622.482	0.0163584
622.560	0.0164100
622.638	0.0165137
622.716	0.0163889
622.794	0.0164371
622.872	0.0165744
622.950	0.0163770
623.029	0.0162678
623.107	0.0164227
623.185	0.0165218
623.263	0.0166045
623.341	0.0164194
623.419	0.0165075
623.497	0.0165940
623.575	0.0164719
623.654	0.0165417
623.732	0.0163733
623.810	0.0164835
623.888	0.0165031
623.966	0.0162953
624.044	0.0164417
624.122	0.0164446
624.200	0.0163874
624.279	0.0165147
624.357	0.0166058
624.435	0.0166435
624.513	0.0163933
624.591	0.0164330
624.669	0.0163258
624.747	0.0164516
624.825	0.0164291
624.904	0.0165393
624.982	0.0164339
625.060	0.0164326
625.138	0.0164199
625.216	0.0164153
625.294	0.0164957
625.372	0.0164662
625.450	0.0164941
625.529	0.0163623
625.607	0.0165172
625.685	0.0165694
625.763	0.0164539
625.841	0.0164316
625.919	0.0166132
625.997	0.0162746
626.075	0.0163974
626.154	0.0164036
626.232	0.0165002
626.310	0.0164668
626.388	0.0164970
626.466	0.0164060
626.544	0.0165260
626.622	0.0164274
626.700	0.0164581
626.779	0.0164922
626.857	0.0164626
626.935	0.0164020
627.013	0.0164795
627.091	0.0166061
627.169	0.0166213
627.247	0.0164377
627.325	0.0164471
627.404	0.0165443
627.482	0.0163425
627.560	0.0164855
627.638	0.0164767
627.716	0.0164352
627.794	0.0165665
627.872	0.0164311
627.950	0.0165269
628.029	0.0164359
628.107	0.0165081
628.185	0.0164867
628.263	0.0164909
628.341	0.0164468
628.419	0.0163890
628.497	0.0164330
628.575	0.0164702
628.654	0.0165060
628.732	0.0165082
628.810	0.0163618
628.888	0.0164133
628.966	0.0163805
629.044	0.0165131
629.122	0.0164375
629.200	0.0163988
629.279	0.0164655
629.357	0.0163898
629.435	0.0164642
629.513	0.0165028
629.591	0.0162634
629.669	0.0164806
629.747	0.0164693
629.825	0.0163538
629.904	0.0165500
629.982	0.0165217
630.060	0.0163931
630.138	0.0165531
630.216	0.0166621
630.294	0.0164171
630.372	0.0163657
630.450	0.0163399
630.529	0.0164929
630.607	0.0164870
630.685	0.0165041
630.763	0.0164523
630.841	0.0164285
630.919	0.0164778
630.997	0.0164999
631.075	0.0165437
631.154	0.0164466
631.232	0.0165756
631.310	0.0165158
631.388	0.0166244
631.466	0.0163702
631.544	0.0165208
631.622	0.0164683
631.700	0.0164447
631.779	0.0164394
631.857	0.0164354
631.935	0.0164460
632.013	0.0164836
632.091	0.0165266
632.169	0.0165221
632.247	0.0166214
632.325	0.0163684
632.404	0.0163882
632.482	0.0164968
632.560	0.0162899
632.638	0.0165125
632.716	0.0165527
632.794	0.0165097
632.872	0.0165012
632.950	0.0164716
633.029	0.0164692
633.107	0.0162826
633.185	0.0164560
633.263	0.0164252
633.341	0.0164779
633.419	0.0163502
633.497	0.0164600
633.575	0.0164626
633.654	0.0164091
633.732	0.0165128
633.810	0.0164268
633.888	0.0163780
633.966	0.0165112
634.044	0.0164338
634.122	0.0165337
634.200	0.0163371
634.279	0.0164161
634.357	0.0162749
634.435	0.0165897
634.513	0.0165481
634.591	0.0163441
634.669	0.0164310
634.747	0.0165614
634.825	0.0163905
634.904	0.0163995
634.982	0.0164841
635.060	0.0164478
635.138	0.0163142
635.216	0.0164729
635.294	0.0164309
635.372	0.0164442
635.450	0.0165106
635.529	0.0165458
635.607	0.0163387
635.685	0.0164032
635.763	0.0163639
635.841	0.0164482
635.919	0.0165201
635.997	0.0164224
636.075	0.0164571
636.154	0.0164913
636.232	0.0164513
636.310	0.0164400
636.388	0.0164534
636.466	0.0164468
636.544	0.0165083
636.622	0.0165308
636.700	0.0163963
636.779	0.0164451
636.857	0.0164023
636.935	0.0163918
637.013	0.0163720
637.091	0.0165205
637.169	0.0165363
637.247	0.0163138
637.325	0.0164560
637.404	0.0166374
637.482	0.0164362
637.560	0.0164760
637.638	0.0165668
637.716	0.0164609
637.794	0.0164308
637.872	0.0165066
637.950	0.0163583
638.029	0.0163695
638.107	0.0165919
638.185	0.0164717
638.263	0.0163103
638.341	0.0163317
638.419	0.0164981
638.497	0.0164266
638.575	0.0164745
638.654	0.0164642
638.732	0.0164300
638.810	0.0165486
638.888	0.0164805
638.966	0.0165024
639.044	0.0163992
639.122	0.0162702
639.200	0.0164339
639.279	0.0166103
639.357	0.0164552
639.435	0.0163027
639.513	0.0163775
639.591	0.0163525
639.669	0.0163359
639.747	0.0163615
639.825	0.0165265
639.904	0.0165032
639.982	0.0163076
640.060	0.0164719
640.138	0.0163891
640.216	0.0165616
640.294	0.0164799
640.372	0.0163756
640.450	0.0165410
640.529	0.0165098
640.607	0.0163770
640.685	0.0163869
640.763	0.0164203
640.841	0.0165520
640.919	0.0163487
640.997	0.0164562
641.075	0.0164240
641.154	0.0164908
641.232	0.0164221
641.310	0.0165102
641.388	0.0165707
641.466	0.0164487
641.544	0.0165182
641.622	0.0163585
641.700	0.0164367
641.779	0.0164913
641.857	0.0164190
641.935	0.0163755
642.013	0.0163979
642.091	0.0163442
642.169	0.0164032
642.247	0.0164120
642.325	0.0165491
642.404	0.0164655
642.482	0.0165331
642.560	0.0164499
642.638	0.0163361
642.716	0.0165757
642.794	0.0166323
642.872	0.0164501
642.950	0.0164851
643.029	0.0164252
643.107	0.0164607
643.185	0.0165422
643.263	0.0164810
643.341	0.0164662
643.419	0.0164793
643.497	0.0163660
643.575	0.0164159
643.654	0.0165881
643.732	0.0165042
643.810	0.0164685
643.888	0.0165295
643.966	0.0164880
644.044	0.0164602
644.122	0.0164634
644.200	0.0165839
644.279	0.0164680
644.357	0.0164898
644.435	0.0165156
644.513	0.0163988
644.591	0.0164052
644.669	0.0164899
644.747	0.0163834
644.825	0.0163049
644.904	0.0164837
644.982	0.0164991
645.060	0.0164973
645.138	0.0165396
645.216	0.0164407
645.294	0.0165653
645.372	0.0165063
645.450	0.0165186
645.529	0.0162940
645.607	0.0164837
645.685	0.0164524
645.763	0.0165279
645.841	0.0163712
645.919	0.0163868
645.997	0.0165356
646.075	0.0164774
646.154	0.0164942
646.232	0.0163590
646.310	0.0164193
646.388	0.0166221
646.466	0.0164061
646.544	0.0163841
646.622	0.0164493
646.700	0.0165111
646.779	0.0164886
646.857	0.0165133
646.935	0.0164781
647.013	0.0164875
647.091	0.0163717
647.169	0.0164979
647.247	0.0164993
647.325	0.0164114
647.404	0.0164920
647.482	0.0164814
647.560	0.0163960
647.638	0.0165502
647.716	0.0164971
647.794	0.0165736
647.872	0.0164128
647.950	0.0164756
648.029	0.0165104
648.107	0.0164156
648.185	0.0164082
648.263	0.0164401
648.341	0.0165309
648.419	0.0164689
648.497	0.0164395
648.575	0.0164515
648.654	0.0165015
648.732	0.0165447
648.810	0.0165056
648.888	0.0166139
648.966	0.0164898
649.044	0.0165257
649.122	0.0164575
649.200	0.0164656
649.279	0.0164752
649.357	0.0166001
649.435	0.0164854
649.513	0.0164812
649.591	0.0164983
649.669	0.0165863
649.747	0.0165374
649.825	0.0164632
649.904	0.0164331
649.982	0.0164748
650.060	0.0164619
650.138	0.0164490
650.216	0.0165878
650.294	0.0165373
650.372	0.0163906
650.450	0.0163347
650.529	0.0163976
650.607	0.0165598
650.685	0.0164760
650.763	0.0165704
650.841	0.0164294
650.919	0.0164336
650.997	0.0165479
651.075	0.0164140
651.154	0.0165095
651.232	0.0164481
651.310	0.0163363
651.388	0.0165713
651.466	0.0164060
651.544	0.0164452
651.622	0.0164752
651.700	0.0165155
651.779	0.0166173
651.857	0.0165976
651.935	0.0164938
652.013	0.0164851
652.091	0.0163710
652.169	0.0165215
652.247	0.0166628
652.325	0.0164719
652.404	0.0164751
652.482	0.0164054
652.560	0.0164577
652.638	0.0163860
652.716	0.0165078
652.794	0.0163456
652.872	0.0163342
652.950	0.0164395
653.029	0.0165295
653.107	0.0165466
653.185	0.0163383
653.263	0.0164436
653.341	0.0165661
653.419	0.0165606
653.497	0.0164431
653.575	0.0163559
653.654	0.0164217
653.732	0.0164962
653.810	0.0164054
653.888	0.0163673
653.966	0.0164684
654.044	0.0165077
654.122	0.0163346
654.200	0.0163914
654.279	0.0165124
654.357	0.0165314
654.435	0.0164498
654.513	0.0165018
654.591	0.0164545
654.669	0.0164523
654.747	0.0164073
654.825	0.0162952
654.904	0.0163628
654.982	0.0164730
655.060	0.0163692
655.138	0.0163262
655.216	0.0165833
655.294	0.0164453
655.372	0.0164384
655.450	0.0164018
655.529	0.0164938
655.607	0.0164484
655.685	0.0165781
655.763	0.0164677
655.841	0.0164842
655.919	0.0166443
655.997	0.0165614
656.075	0.0164352
656.154	0.0164088
656.232	0.0164469
656.310	0.0165341
656.388	0.0164543
656.466	0.0166487
656.544	0.0165048
656.622	0.0164153
656.700	0.0164276
656.779	0.0166141
656.857	0.0164697
656.935	0.0163103
657.013	0.0164930
657.091	0.0164065
657.169	0.0165005
657.247	0.0165091
657.325	0.0164793
657.404	0.0165459
657.482	0.0164810
657.560	0.0163371
657.638	0.0163552
657.716	0.0164816
657.794	0.0164298
657.872	0.0164638
657.950	0.0164971
658.029	0.0164281
658.107	0.0163432
658.185	0.0163898
658.263	0.0165115
658.341	0.0164455
658.419	0.0164701
658.497	0.0163828
658.575	0.0164365
658.654	0.0164439
658.732	0.0164786
658.810	0.0163868
658.888	0.0164302
658.966	0.0163860
659.044	0.0164343
659.122	0.0164297
659.200	0.0165840
659.279	0.0164019
659.357	0.0165707
659.435	0.0165555
659.513	0.0164036
659.591	0.0164418
659.669	0.0164970
659.747	0.0164227
659.825	0.0165057
659.904	0.0164816
659.982	0.0164767
660.060	0.0165532
660.138	0.0164674
660.216	0.0164005
660.294	0.0164159
660.372	0.0164393
660.450	0.0165869
660.529	0.0164101
660.607	0.0163991
660.685	0.0165878
660.763	0.0164477
660.841	0.0164709
660.919	0.0165500
660.997	0.0163152
661.075	0.0166028
661.154	0.0165761
661.232	0.0163910
661.310	0.0165834
661.388	0.0165319
661.466	0.0163145
661.544	0.0165326
661.622	0.0165003
661.700	0.0164481
661.779	0.0164999
661.857	0.0164507
661.935	0.0166183
662.013	0.0166296
662.091	0.0164266
662.169	0.0164503
662.247	0.0165374
662.325	0.0164558
662.404	0.0164249
662.482	0.0163790
662.560	0.0164750
662.638	0.0165225
662.716	0.0164334
662.794	0.0165824
662.872	0.0165028
662.950	0.0164264
663.029	0.0163690
663.107	0.0164755
663.185	0.0164810
663.263	0.0162860
663.341	0.0163615
663.419	0.0164720
663.497	0.0164784
663.575	0.0164594
663.654	0.0164657
663.732	0.0163646
663.810	0.0164545
663.888	0.0163769
663.966	0.0164021
664.044	0.0164626
664.122	0.0165563
664.200	0.0164865
664.279	0.0163638
664.357	0.0164038
664.435	0.0164796
664.513	0.0165688
664.591	0.0165255
664.669	0.0163024
664.747	0.0165189
664.825	0.0165625
664.904	0.0164696
664.982	0.0164775
665.060	0.0164334
665.138	0.0163189
665.216	0.0163929
665.294	0.0163361
665.372	0.0162801
665.450	0.0163960
665.529	0.0162984
665.607	0.0164523
665.685	0.0165689
665.763	0.0164735
665.841	0.0164257
665.919	0.0165163
665.997	0.0164124
666.075	0.0164314
666.154	0.0163383
666.232	0.0163983
666.310	0.0163674
666.388	0.0163788
666.466	0.0163889
666.544	0.0165573
666.622	0.0164835
666.700	0.0164519
666.779	0.0164017
666.857	0.0163856
666.935	0.0164130
667.013	0.0164119
667.091	0.0163026
667.169	0.0163744
667.247	0.0164511
667.325	0.0163822
667.404	0.0164983
667.482	0.0165405
667.560	0.0165312
667.638	0.0163118
667.716	0.0164179
667.794	0.0164162
667.872	0.0164660
667.950	0.0164042
668.029	0.0163232
668.107	0.0165313
668.185	0.0165076
668.263	0.0164664
668.341	0.0164633
668.419	0.0164423
668.497	0.0164001
668.575	0.0164421
668.654	0.0163683
668.732	0.0164323
668.810	0.0164768
668.888	0.0164581
668.966	0.0163229
669.044	0.0165196
669.122	0.0165260
669.200	0.0165508
669.279	0.0165219
669.357	0.0163894
669.435	0.0164573
669.513	0.0164780
669.591	0.0164518
669.669	0.0163319
669.747	0.0164120
669.825	0.0164736
669.904	0.0163704
669.982	0.0163937
670.060	0.0164933
670.138	0.0164119
670.216	0.0164969
670.294	0.0164575
670.372	0.0163250
670.450	0.0164063
670.529	0.0165180
670.607	0.0164875
670.685	0.0163142
670.763	0.0164283
670.841	0.0165726
670.919	0.0163792
670.997	0.0163557
671.075	0.0166168
671.154	0.0164641
671.232	0.0163954
671.310	0.0165377
671.388	0.0163919
671.466	0.0165147
671.544	0.0164513
671.622	0.0163393
671.700	0.0164326
671.779	0.0164423
671.857	0.0164328
671.935	0.0163369
672.013	0.0164713
672.091	0.0164625
672.169	0.0164142
672.247	0.0164224
672.325	0.0163908
672.404	0.0164568
672.482	0.0166531
672.560	0.0165316
672.638	0.0164643
672.716	0.0164819
672.794	0.0164679
672.872	0.0165601
672.950	0.0164162
673.029	0.0163272
673.107	0.0163877
673.185	0.0165142
673.263	0.0165739
673.341	0.0163431
673.419	0.0164810
673.497	0.0165358
673.575	0.0164983
673.654	0.0163831
673.732	0.0165326
673.810	0.0165268
673.888	0.0164152
673.966	0.0163818
674.044	0.0163786
674.122	0.0164273
674.200	0.0164664
674.279	0.0164861
674.357	0.0164661
674.435	0.0165170
674.513	0.0165039
674.591	0.0164738
674.669	0.0164834
674.747	0.0164933
674.825	0.0164983
674.904	0.0164420
674.982	0.0164230
675.060	0.0164323
675.138	0.0165182
675.216	0.0163759
675.294	0.0163853
675.372	0.0163860
675.450	0.0165471
675.529	0.0165945
675.607	0.0164633
675.685	0.0164738
675.763	0.0164687
675.841	0.0164454
675.919	0.0165163
675.997	0.0165148
676.075	0.0164529
676.154	0.0164758
676.232	0.0165752
676.310	0.0165334
676.388	0.0165650
676.466	0.0163695
676.544	0.0163335
676.622	0.0163802
676.700	0.0164828
676.779	0.0164658
676.857	0.0163831
676.935	0.0164108
677.013	0.0165189
677.091	0.0165479
677.169	0.0164429
677.247	0.0163470
677.325	0.0164980
677.404	0.0165375
677.482	0.0167448
677.560	0.0164174
677.638	0.0165592
677.716	0.0165087
677.794	0.0165005
677.872	0.0164557
677.950	0.0165025
678.029	0.0166008
678.107	0.0164320
678.185	0.0164423
678.263	0.0164364
678.341	0.0164378
678.419	0.0164764
678.497	0.0164601
678.575	0.0164179
678.654	0.0163479
678.732	0.0164931
678.810	0.0163995
678.888	0.0164289
678.966	0.0164108
679.044	0.0165081
679.122	0.0164075
679.200	0.0163589
679.279	0.0164153
679.357	0.0164515
679.435	0.0164787
679.513	0.0164388
679.591	0.0164796
679.669	0.0163156
679.747	0.0163798
679.825	0.0164894
679.904	0.0163705
679.982	0.0165216
680.060	0.0164528
680.138	0.0163891
680.216	0.0165486
680.294	0.0163830
680.372	0.0164507
680.450	0.0164411
680.529	0.0163927
680.607	0.0163595
680.685	0.0163404
680.763	0.0164048
680.841	0.0163815
680.919	0.0164148
680.997	0.0164939
681.075	0.0164784
681.154	0.0163207
681.232	0.0164217
681.310	0.0163765
681.388	0.0163209
681.466	0.0164317
681.544	0.0164517
681.622	0.0163477
681.700	0.0164456
681.779	0.0163032
681.857	0.0164349
681.935	0.0164445
682.013	0.0164050
682.091	0.0164373
682.169	0.0165263
682.247	0.0164759
682.325	0.0163638
682.404	0.0164465
682.482	0.0164459
682.560	0.0164060
682.638	0.0164650
682.716	0.0163993
682.794	0.0163568
682.872	0.0163760
682.950	0.0163766
683.029	0.0164299
683.107	0.0163111
683.185	0.0164473
683.263	0.0165078
683.341	0.0163667
683.419	0.0164496
683.497	0.0164185
683.575	0.0164330
683.654	0.0165579
683.732	0.0164000
683.810	0.0164452
683.888	0.0163545
683.966	0.0163994
684.044	0.0164076
684.122	0.0162924
684.200	0.0163429
684.279	0.0163702
684.357	0.0164235
684.435	0.0163070
684.513	0.0164169
684.591	0.0164153
684.669	0.0164133
684.747	0.0165034
684.825	0.0166566
684.904	0.0165876
684.982	0.0166489
685.060	0.0166438
685.138	0.0166488
685.216	0.0166957
685.294	0.0165843
685.372	0.0164162
685.450	0.0166225
685.529	0.0164413
685.607	0.0162207
685.685	0.0163033
