06/03/2022	13:53:39	Ver.	4.1	UNKNOWN
Optical Delay	599.988409	Delta X		0.078125	Sweeps	1	Scan Rate	0/0
Coordinates	Axis 1	NaN	Axis 2	NaN	Axis 3	NaN	Axis 4	NaN	Axis 5	NaN	Axis 6	0.000000
TX Power	0.000000	RX Power	0.000000

599.988	0.0164172
600.067	0.0165008
600.145	0.0166270
600.223	0.0163013
600.301	0.0164298
600.379	0.0165428
600.457	0.0164821
600.535	0.0163961
600.613	0.0165004
600.692	0.0164435
600.770	0.0165018
600.848	0.0163934
600.926	0.0164526
601.004	0.0164089
601.082	0.0164452
601.160	0.0164780
601.238	0.0164006
601.317	0.0164831
601.395	0.0164999
601.473	0.0164349
601.551	0.0164237
601.629	0.0163609
601.707	0.0163049
601.785	0.0164675
601.863	0.0164468
601.942	0.0163842
602.020	0.0164423
602.098	0.0165317
602.176	0.0163927
602.254	0.0164787
602.332	0.0163867
602.410	0.0163953
602.488	0.0164783
602.567	0.0165128
602.645	0.0164924
602.723	0.0163538
602.801	0.0164087
602.879	0.0165343
602.957	0.0163618
603.035	0.0164355
603.113	0.0163948
603.192	0.0164565
603.270	0.0165125
603.348	0.0164351
603.426	0.0162755
603.504	0.0164058
603.582	0.0166263
603.660	0.0164507
603.738	0.0163382
603.817	0.0165029
603.895	0.0163600
603.973	0.0164175
604.051	0.0164600
604.129	0.0164843
604.207	0.0163133
604.285	0.0164193
604.363	0.0164355
604.442	0.0163744
604.520	0.0164464
604.598	0.0163690
604.676	0.0165291
604.754	0.0164106
604.832	0.0164070
604.910	0.0163842
604.988	0.0163335
605.067	0.0164832
605.145	0.0163620
605.223	0.0164314
605.301	0.0165701
605.379	0.0163428
605.457	0.0163934
605.535	0.0164929
605.613	0.0164267
605.692	0.0163857
605.770	0.0164396
605.848	0.0162572
605.926	0.0164273
606.004	0.0164934
606.082	0.0162767
606.160	0.0165193
606.238	0.0163226
606.317	0.0162409
606.395	0.0162773
606.473	0.0163688
606.551	0.0164101
606.629	0.0164452
606.707	0.0163892
606.785	0.0163951
606.863	0.0165703
606.942	0.0165029
607.020	0.0163323
607.098	0.0163470
607.176	0.0164434
607.254	0.0164846
607.332	0.0164895
607.410	0.0163326
607.488	0.0165233
607.567	0.0163860
607.645	0.0163806
607.723	0.0164751
607.801	0.0163520
607.879	0.0164022
607.957	0.0164326
608.035	0.0164440
608.113	0.0164357
608.192	0.0163883
608.270	0.0163797
608.348	0.0162918
608.426	0.0165150
608.504	0.0163400
608.582	0.0163125
608.660	0.0163373
608.738	0.0164667
608.817	0.0164182
608.895	0.0163071
608.973	0.0164117
609.051	0.0163776
609.129	0.0163469
609.207	0.0163445
609.285	0.0164254
609.363	0.0162885
609.442	0.0164357
609.520	0.0162668
609.598	0.0165538
609.676	0.0164526
609.754	0.0162113
609.832	0.0162743
609.910	0.0165731
609.988	0.0164382
610.067	0.0164178
610.145	0.0163703
610.223	0.0163486
610.301	0.0164153
610.379	0.0164907
610.457	0.0166190
610.535	0.0164486
610.613	0.0162606
610.692	0.0164703
610.770	0.0164135
610.848	0.0164295
610.926	0.0165054
611.004	0.0163876
611.082	0.0163141
611.160	0.0164602
611.238	0.0163938
611.317	0.0163208
611.395	0.0164215
611.473	0.0164344
611.551	0.0163637
611.629	0.0164430
611.707	0.0164590
611.785	0.0164928
611.863	0.0164646
611.942	0.0163559
612.020	0.0163645
612.098	0.0163092
612.176	0.0164539
612.254	0.0165189
612.332	0.0163609
612.410	0.0162621
612.488	0.0163474
612.567	0.0163328
612.645	0.0163396
612.723	0.0163806
612.801	0.0163422
612.879	0.0163138
612.957	0.0164108
613.035	0.0164484
613.113	0.0163841
613.192	0.0163605
613.270	0.0163493
613.348	0.0163632
613.426	0.0164642
613.504	0.0163929
613.582	0.0164266
613.660	0.0165233
613.738	0.0165046
613.817	0.0163800
613.895	0.0163821
613.973	0.0163354
614.051	0.0164711
614.129	0.0163656
614.207	0.0165349
614.285	0.0164342
614.363	0.0164394
614.442	0.0164046
614.520	0.0163438
614.598	0.0163586
614.676	0.0165112
614.754	0.0164169
614.832	0.0162648
614.910	0.0163214
614.988	0.0164271
615.067	0.0163599
615.145	0.0164592
615.223	0.0164065
615.301	0.0164044
615.379	0.0163598
615.457	0.0163012
615.535	0.0164711
615.613	0.0164435
615.692	0.0162479
615.770	0.0164742
615.848	0.0164528
615.926	0.0164336
616.004	0.0163148
616.082	0.0163403
616.160	0.0163445
616.238	0.0164813
616.317	0.0163955
616.395	0.0164118
616.473	0.0162546
616.551	0.0164297
616.629	0.0163443
616.707	0.0162888
616.785	0.0163026
616.863	0.0163705
616.942	0.0164229
617.020	0.0164291
617.098	0.0163512
617.176	0.0162212
617.254	0.0165599
617.332	0.0165043
617.410	0.0165298
617.488	0.0164442
617.567	0.0162991
617.645	0.0162665
617.723	0.0163741
617.801	0.0163436
617.879	0.0162486
617.957	0.0163498
618.035	0.0164256
618.113	0.0164310
618.192	0.0162759
618.270	0.0163314
618.348	0.0164083
618.426	0.0164427
618.504	0.0163837
618.582	0.0161657
618.660	0.0161944
618.738	0.0164634
618.817	0.0164009
618.895	0.0163480
618.973	0.0162971
619.051	0.0163440
619.129	0.0163247
619.207	0.0164162
619.285	0.0164714
619.363	0.0164423
619.442	0.0163366
619.520	0.0164294
619.598	0.0163605
619.676	0.0165164
619.754	0.0164552
619.832	0.0164635
619.910	0.0163997
619.988	0.0164539
620.067	0.0163120
620.145	0.0163963
620.223	0.0163358
620.301	0.0164060
620.379	0.0163463
620.457	0.0163527
620.535	0.0164111
620.613	0.0164359
620.692	0.0163084
620.770	0.0163306
620.848	0.0162720
620.926	0.0163417
621.004	0.0164127
621.082	0.0164526
621.160	0.0162461
621.238	0.0163521
621.317	0.0163469
621.395	0.0163549
621.473	0.0164391
621.551	0.0166123
621.629	0.0162685
621.707	0.0162746
621.785	0.0164357
621.863	0.0164882
621.942	0.0164087
622.020	0.0164543
622.098	0.0163719
622.176	0.0164336
622.254	0.0164320
622.332	0.0163764
622.410	0.0163889
622.488	0.0163084
622.567	0.0163760
622.645	0.0163979
622.723	0.0163942
622.801	0.0162776
622.879	0.0164812
622.957	0.0163438
623.035	0.0164873
623.113	0.0165256
623.192	0.0162583
623.270	0.0162651
623.348	0.0165301
623.426	0.0163437
623.504	0.0164209
623.582	0.0163300
623.660	0.0163528
623.738	0.0163080
623.817	0.0163275
623.895	0.0164412
623.973	0.0164782
624.051	0.0164034
624.129	0.0164697
624.207	0.0164267
624.285	0.0163584
624.363	0.0163728
624.442	0.0163166
624.520	0.0164577
624.598	0.0163734
624.676	0.0163007
624.754	0.0163186
624.832	0.0163141
624.910	0.0165038
624.988	0.0164381
625.067	0.0164128
625.145	0.0163860
625.223	0.0164635
625.301	0.0163537
625.379	0.0164638
625.457	0.0163682
625.535	0.0162923
625.613	0.0164462
625.692	0.0165105
625.770	0.0163531
625.848	0.0163686
625.926	0.0162946
626.004	0.0163254
626.082	0.0164534
626.160	0.0165794
626.238	0.0163075
626.317	0.0163865
626.395	0.0163895
626.473	0.0164357
626.551	0.0165850
626.629	0.0165521
626.707	0.0163689
626.785	0.0163726
626.863	0.0163469
626.942	0.0163683
627.020	0.0163877
627.098	0.0163836
627.176	0.0163580
627.254	0.0164045
627.332	0.0164326
627.410	0.0164014
627.488	0.0163624
627.567	0.0163651
627.645	0.0163694
627.723	0.0163911
627.801	0.0163197
627.879	0.0164057
627.957	0.0163343
628.035	0.0164085
628.113	0.0164025
628.192	0.0164391
628.270	0.0163428
628.348	0.0164901
628.426	0.0164390
628.504	0.0163741
628.582	0.0163385
628.660	0.0164509
628.738	0.0164085
628.817	0.0163318
628.895	0.0164796
628.973	0.0163987
629.051	0.0162813
629.129	0.0162426
629.207	0.0164336
629.285	0.0164236
629.363	0.0164593
629.442	0.0163884
629.520	0.0164530
629.598	0.0164787
629.676	0.0164625
629.754	0.0163454
629.832	0.0162712
629.910	0.0164355
629.988	0.0162507
630.067	0.0162706
630.145	0.0165246
630.223	0.0164294
630.301	0.0164578
630.379	0.0164150
630.457	0.0163123
630.535	0.0164956
630.613	0.0163284
630.692	0.0163300
630.770	0.0164087
630.848	0.0165253
630.926	0.0163960
631.004	0.0164122
631.082	0.0164381
631.160	0.0164424
631.238	0.0163687
631.317	0.0164740
631.395	0.0165358
631.473	0.0163270
631.551	0.0163383
631.629	0.0163214
631.707	0.0164989
631.785	0.0164710
631.863	0.0163602
631.942	0.0163595
632.020	0.0163737
632.098	0.0164408
632.176	0.0163628
632.254	0.0164637
632.332	0.0164156
632.410	0.0164602
632.488	0.0163152
632.567	0.0163106
632.645	0.0163348
632.723	0.0163216
632.801	0.0161849
632.879	0.0164576
632.957	0.0164382
633.035	0.0164391
633.113	0.0163857
633.192	0.0163672
633.270	0.0163708
633.348	0.0163959
633.426	0.0164333
633.504	0.0165588
633.582	0.0164810
633.660	0.0164709
633.738	0.0163870
633.817	0.0163323
633.895	0.0164518
633.973	0.0163676
634.051	0.0163168
634.129	0.0164486
634.207	0.0164914
634.285	0.0163766
634.363	0.0163441
634.442	0.0163242
634.520	0.0164164
634.598	0.0163423
634.676	0.0163718
634.754	0.0163572
634.832	0.0164186
634.910	0.0162736
634.988	0.0165806
635.067	0.0164246
635.145	0.0164455
635.223	0.0162064
635.301	0.0164742
635.379	0.0163525
635.457	0.0162643
635.535	0.0163718
635.613	0.0163164
635.692	0.0164300
635.770	0.0163126
635.848	0.0164783
635.926	0.0164394
636.004	0.0163162
636.082	0.0165277
636.160	0.0164001
636.238	0.0164169
636.317	0.0163770
636.395	0.0164031
636.473	0.0163368
636.551	0.0164188
636.629	0.0164089
636.707	0.0163023
636.785	0.0163093
636.863	0.0164737
636.942	0.0162578
637.020	0.0164043
637.098	0.0164701
637.176	0.0163408
637.254	0.0163643
637.332	0.0164056
637.410	0.0164782
637.488	0.0163074
637.567	0.0163058
637.645	0.0162830
637.723	0.0163657
637.801	0.0164268
637.879	0.0163290
637.957	0.0163426
638.035	0.0163174
638.113	0.0163348
638.192	0.0163596
638.270	0.0164861
638.348	0.0163708
638.426	0.0164117
638.504	0.0161962
638.582	0.0162419
638.660	0.0163728
638.738	0.0164233
638.817	0.0164787
638.895	0.0162844
638.973	0.0162300
639.051	0.0164494
639.129	0.0162948
639.207	0.0162663
639.285	0.0163659
639.363	0.0161980
639.442	0.0165769
639.520	0.0164277
639.598	0.0163105
639.676	0.0163554
639.754	0.0163042
639.832	0.0163321
639.910	0.0163057
639.988	0.0162112
640.067	0.0164076
640.145	0.0164343
640.223	0.0163686
640.301	0.0162886
640.379	0.0162751
640.457	0.0163566
640.535	0.0164275
640.613	0.0165210
640.692	0.0163963
640.770	0.0164583
640.848	0.0163644
640.926	0.0164474
641.004	0.0163985
641.082	0.0162989
641.160	0.0163653
641.238	0.0164188
641.317	0.0163987
641.395	0.0163568
641.473	0.0164420
641.551	0.0164182
641.629	0.0163567
641.707	0.0163417
641.785	0.0163598
641.863	0.0164120
641.942	0.0163295
642.020	0.0164846
642.098	0.0164378
642.176	0.0164197
642.254	0.0162917
642.332	0.0163557
642.410	0.0163650
642.488	0.0165203
642.567	0.0163042
642.645	0.0163531
642.723	0.0164164
642.801	0.0163373
642.879	0.0164404
642.957	0.0164049
643.035	0.0164301
643.113	0.0164896
643.192	0.0164818
643.270	0.0164413
643.348	0.0163809
643.426	0.0163493
643.504	0.0164829
643.582	0.0164159
643.660	0.0163512
643.738	0.0163155
643.817	0.0164388
643.895	0.0164183
643.973	0.0163026
644.051	0.0163844
644.129	0.0164859
644.207	0.0163738
644.285	0.0164366
644.363	0.0165185
644.442	0.0164725
644.520	0.0163609
644.598	0.0164609
644.676	0.0164366
644.754	0.0164826
644.832	0.0164251
644.910	0.0164416
644.988	0.0164310
645.067	0.0163258
645.145	0.0163940
645.223	0.0164152
645.301	0.0164951
645.379	0.0163631
645.457	0.0164093
645.535	0.0165546
645.613	0.0165222
645.692	0.0163234
645.770	0.0162336
645.848	0.0164668
645.926	0.0165070
646.004	0.0164105
646.082	0.0164390
646.160	0.0162754
646.238	0.0164241
646.317	0.0164246
646.395	0.0163741
646.473	0.0163730
646.551	0.0164695
646.629	0.0163812
646.707	0.0164160
646.785	0.0163546
646.863	0.0164558
646.942	0.0164113
647.020	0.0165300
647.098	0.0163030
647.176	0.0162983
647.254	0.0163993
647.332	0.0164788
647.410	0.0163124
647.488	0.0164802
647.567	0.0163943
647.645	0.0162407
647.723	0.0164347
647.801	0.0163987
647.879	0.0162598
647.957	0.0163158
648.035	0.0164036
648.113	0.0163499
648.192	0.0163834
648.270	0.0163142
648.348	0.0162745
648.426	0.0162672
648.504	0.0163541
648.582	0.0162791
648.660	0.0164501
648.738	0.0164471
648.817	0.0164301
648.895	0.0162756
648.973	0.0163117
649.051	0.0163752
649.129	0.0163649
649.207	0.0163676
649.285	0.0162058
649.363	0.0164223
649.442	0.0165190
649.520	0.0163586
649.598	0.0162583
649.676	0.0165183
649.754	0.0163918
649.832	0.0163515
649.910	0.0163872
649.988	0.0164526
650.067	0.0163833
650.145	0.0163612
650.223	0.0163649
650.301	0.0163807
650.379	0.0164189
650.457	0.0164137
650.535	0.0163316
650.613	0.0163698
650.692	0.0164718
650.770	0.0164098
650.848	0.0164146
650.926	0.0164855
651.004	0.0163178
651.082	0.0164839
651.160	0.0164605
651.238	0.0164376
651.317	0.0164072
651.395	0.0164934
651.473	0.0163320
651.551	0.0164098
651.629	0.0163907
651.707	0.0164233
651.785	0.0165063
651.863	0.0164283
651.942	0.0164297
652.020	0.0164843
652.098	0.0163272
652.176	0.0163457
652.254	0.0163520
652.332	0.0163914
652.410	0.0164273
652.488	0.0164173
652.567	0.0164438
652.645	0.0163883
652.723	0.0162820
652.801	0.0162738
652.879	0.0164294
652.957	0.0162852
653.035	0.0164001
653.113	0.0164626
653.192	0.0164032
653.270	0.0163647
653.348	0.0164343
653.426	0.0164634
653.504	0.0163449
653.582	0.0164561
653.660	0.0164172
653.738	0.0163622
653.817	0.0164311
653.895	0.0163750
653.973	0.0163671
654.051	0.0163258
654.129	0.0163497
654.207	0.0163799
654.285	0.0164954
654.363	0.0163829
654.442	0.0163589
654.520	0.0163644
654.598	0.0164169
654.676	0.0164713
654.754	0.0163029
654.832	0.0163633
654.910	0.0163067
654.988	0.0164489
655.067	0.0165205
655.145	0.0163406
655.223	0.0163807
655.301	0.0163735
655.379	0.0164597
655.457	0.0163881
655.535	0.0164656
655.613	0.0164443
655.692	0.0163548
655.770	0.0164437
655.848	0.0165054
655.926	0.0162989
656.004	0.0163911
656.082	0.0163309
656.160	0.0164423
656.238	0.0164775
656.317	0.0163201
656.395	0.0162791
656.473	0.0164928
656.551	0.0163818
656.629	0.0164371
656.707	0.0163252
656.785	0.0162720
656.863	0.0163135
656.942	0.0165314
657.020	0.0163603
657.098	0.0163405
657.176	0.0163799
657.254	0.0164851
657.332	0.0163300
657.410	0.0162710
657.488	0.0164935
657.567	0.0164291
657.645	0.0163257
657.723	0.0164429
657.801	0.0164862
657.879	0.0163821
657.957	0.0163216
658.035	0.0164091
658.113	0.0164236
658.192	0.0165534
658.270	0.0163249
658.348	0.0164005
658.426	0.0163954
658.504	0.0164390
658.582	0.0164315
658.660	0.0164400
658.738	0.0164276
658.817	0.0163410
658.895	0.0163303
658.973	0.0164154
659.051	0.0163357
659.129	0.0165099
659.207	0.0162556
659.285	0.0163289
659.363	0.0163403
659.442	0.0164652
659.520	0.0165531
659.598	0.0163739
659.676	0.0163472
659.754	0.0163870
659.832	0.0163744
659.910	0.0163353
659.988	0.0164307
660.067	0.0165220
660.145	0.0166786
660.223	0.0163287
660.301	0.0164217
660.379	0.0164661
660.457	0.0162906
660.535	0.0163989
660.613	0.0163472
660.692	0.0163415
660.770	0.0163143
660.848	0.0163099
660.926	0.0163130
661.004	0.0163258
661.082	0.0163482
661.160	0.0163929
661.238	0.0162593
661.317	0.0162238
661.395	0.0163931
661.473	0.0164371
661.551	0.0163496
661.629	0.0163779
661.707	0.0162794
661.785	0.0163931
661.863	0.0162646
661.942	0.0163826
662.020	0.0163670
662.098	0.0164609
662.176	0.0164698
662.254	0.0163982
662.332	0.0164873
662.410	0.0163594
662.488	0.0162472
662.567	0.0163954
662.645	0.0164251
662.723	0.0164869
662.801	0.0164598
662.879	0.0165136
662.957	0.0164510
663.035	0.0163741
663.113	0.0163628
663.192	0.0163022
663.270	0.0164578
663.348	0.0164092
663.426	0.0164713
663.504	0.0163660
663.582	0.0163974
663.660	0.0164336
663.738	0.0163969
663.817	0.0163617
663.895	0.0165387
663.973	0.0164587
664.051	0.0164254
664.129	0.0164989
664.207	0.0163728
664.285	0.0163267
664.363	0.0164366
664.442	0.0164446
664.520	0.0164975
664.598	0.0163979
664.676	0.0164147
664.754	0.0164349
664.832	0.0164223
664.910	0.0164603
664.988	0.0164211
665.067	0.0163042
665.145	0.0163809
665.223	0.0164039
665.301	0.0165223
665.379	0.0164242
665.457	0.0163726
665.535	0.0162956
665.613	0.0163873
665.692	0.0164431
665.770	0.0163988
665.848	0.0162863
665.926	0.0163432
666.004	0.0163118
666.082	0.0163296
666.160	0.0164204
666.238	0.0164678
666.317	0.0162695
666.395	0.0164402
666.473	0.0163889
666.551	0.0162950
666.629	0.0163879
666.707	0.0164594
666.785	0.0164145
666.863	0.0164536
666.942	0.0164087
667.020	0.0163978
667.098	0.0163989
667.176	0.0163263
667.254	0.0163731
667.332	0.0164494
667.410	0.0165028
667.488	0.0163696
667.567	0.0163780
667.645	0.0164448
667.723	0.0164832
667.801	0.0164475
667.879	0.0164388
667.957	0.0165122
668.035	0.0164523
668.113	0.0164797
668.192	0.0165527
668.270	0.0164278
668.348	0.0163199
668.426	0.0163430
668.504	0.0163911
668.582	0.0163680
668.660	0.0164344
668.738	0.0164487
668.817	0.0163206
668.895	0.0163534
668.973	0.0165424
669.051	0.0164822
669.129	0.0164688
669.207	0.0163128
669.285	0.0165141
669.363	0.0164300
669.442	0.0163823
669.520	0.0163445
669.598	0.0163814
669.676	0.0163655
669.754	0.0164729
669.832	0.0164051
669.910	0.0163245
669.988	0.0163985
670.067	0.0164704
670.145	0.0163843
670.223	0.0163878
670.301	0.0162950
670.379	0.0162194
670.457	0.0162730
670.535	0.0163605
670.613	0.0164730
670.692	0.0164108
670.770	0.0162391
670.848	0.0164223
670.926	0.0164277
671.004	0.0162349
671.082	0.0163979
671.160	0.0164517
671.238	0.0164270
671.317	0.0164143
671.395	0.0163772
671.473	0.0163745
671.551	0.0163529
671.629	0.0163074
671.707	0.0164455
671.785	0.0163883
671.863	0.0162043
671.942	0.0163526
672.020	0.0164266
672.098	0.0164112
672.176	0.0162670
672.254	0.0163672
672.332	0.0162593
672.410	0.0161966
672.488	0.0164088
672.567	0.0164211
672.645	0.0164051
672.723	0.0162800
672.801	0.0164310
672.879	0.0163785
672.957	0.0163965
673.035	0.0163484
673.113	0.0163042
673.192	0.0163785
673.270	0.0163908
673.348	0.0162496
673.426	0.0163295
673.504	0.0163512
673.582	0.0163274
673.660	0.0162117
673.738	0.0162743
673.817	0.0163683
673.895	0.0163034
673.973	0.0163586
674.051	0.0163726
674.129	0.0163524
674.207	0.0161507
674.285	0.0163100
674.363	0.0164205
674.442	0.0163159
674.520	0.0162354
674.598	0.0163199
674.676	0.0162356
674.754	0.0164014
674.832	0.0163142
674.910	0.0163400
674.988	0.0163369
675.067	0.0162989
675.145	0.0163749
675.223	0.0163763
675.301	0.0163387
675.379	0.0162996
675.457	0.0163326
675.535	0.0163651
675.613	0.0162060
675.692	0.0163132
675.770	0.0163735
675.848	0.0163055
675.926	0.0163271
676.004	0.0163046
676.082	0.0163859
676.160	0.0164061
676.238	0.0163403
676.317	0.0163235
676.395	0.0164285
676.473	0.0163520
676.551	0.0163600
676.629	0.0163554
676.707	0.0163386
676.785	0.0164456
676.863	0.0162621
676.942	0.0163197
677.020	0.0163786
677.098	0.0163363
677.176	0.0162835
677.254	0.0163948
677.332	0.0164072
677.410	0.0163564
677.488	0.0163805
677.567	0.0163709
677.645	0.0162602
677.723	0.0164382
677.801	0.0164626
677.879	0.0163155
677.957	0.0163523
678.035	0.0162579
678.113	0.0163776
678.192	0.0164045
678.270	0.0164715
678.348	0.0163508
678.426	0.0163913
678.504	0.0162698
678.582	0.0163091
678.660	0.0163876
678.738	0.0164634
678.817	0.0163745
678.895	0.0163985
678.973	0.0163749
679.051	0.0164240
679.129	0.0163467
679.207	0.0163959
679.285	0.0163744
679.363	0.0162947
679.442	0.0164978
679.520	0.0164915
679.598	0.0164980
679.676	0.0163942
679.754	0.0165001
679.832	0.0164380
679.910	0.0163616
679.988	0.0165282
680.067	0.0166321
680.145	0.0166164
680.223	0.0164908
680.301	0.0164537
680.379	0.0163769
680.457	0.0165179
680.535	0.0164165
680.613	0.0163131
680.692	0.0164671
680.770	0.0165214
680.848	0.0164165
680.926	0.0164349
681.004	0.0164213
681.082	0.0163935
681.160	0.0165670
681.238	0.0165083
681.317	0.0165022
681.395	0.0164940
681.473	0.0164902
681.551	0.0164408
681.629	0.0164431
681.707	0.0165589
681.785	0.0165018
681.863	0.0164121
681.942	0.0163536
682.020	0.0164213
682.098	0.0165827
682.176	0.0165166
682.254	0.0164500
682.332	0.0164292
682.410	0.0164361
682.488	0.0164545
682.567	0.0163914
682.645	0.0165060
682.723	0.0164738
682.801	0.0164179
682.879	0.0164492
682.957	0.0162543
683.035	0.0164916
683.113	0.0165331
683.192	0.0163770
683.270	0.0164528
683.348	0.0164721
683.426	0.0164066
683.504	0.0163747
683.582	0.0162921
683.660	0.0164102
683.738	0.0164307
683.817	0.0162831
683.895	0.0164859
683.973	0.0164158
684.051	0.0162847
684.129	0.0162582
684.207	0.0162960
684.285	0.0164726
684.363	0.0162878
684.442	0.0163360
684.520	0.0163481
684.598	0.0163614
684.676	0.0162175
684.754	0.0165141
684.832	0.0164144
684.910	0.0164175
684.988	0.0163551
685.067	0.0163373
685.145	0.0163369
685.223	0.0163287
685.301	0.0161422
685.379	0.0162518
685.457	0.0163509
685.535	0.0163905
685.613	0.0162865
685.692	0.0162364
