05/03/2022	19:54:30	Ver.	4.1	UNKNOWN
Optical Delay	660.003261	Delta X		0.078125	Sweeps	1	Scan Rate	0/0
Coordinates	Axis 1	NaN	Axis 2	NaN	Axis 3	NaN	Axis 4	NaN	Axis 5	NaN	Axis 6	0.000000
TX Power	0.000000	RX Power	0.000000

660.003	0.0147102
660.081	0.0146965
660.160	0.0147411
660.238	0.0146780
660.316	0.0145524
660.394	0.0145878
660.472	0.0147601
660.550	0.0145787
660.628	0.0146999
660.706	0.0147923
660.785	0.0147298
660.863	0.0146712
660.941	0.0146301
661.019	0.0146748
661.097	0.0146818
661.175	0.0146613
661.253	0.0146179
661.331	0.0147232
661.410	0.0148043
661.488	0.0147250
661.566	0.0147121
661.644	0.0148013
661.722	0.0147766
661.800	0.0146500
661.878	0.0147147
661.956	0.0146217
662.035	0.0147807
662.113	0.0147308
662.191	0.0146058
662.269	0.0147965
662.347	0.0146642
662.425	0.0147586
662.503	0.0145799
662.581	0.0146043
662.660	0.0146647
662.738	0.0147055
662.816	0.0147801
662.894	0.0147886
662.972	0.0146436
663.050	0.0146495
663.128	0.0147307
663.206	0.0146776
663.285	0.0147607
663.363	0.0148242
663.441	0.0146509
663.519	0.0146561
663.597	0.0146610
663.675	0.0147240
663.753	0.0146387
663.831	0.0147794
663.910	0.0147565
663.988	0.0147225
664.066	0.0146999
664.144	0.0146522
664.222	0.0147737
664.300	0.0147356
664.378	0.0147759
664.456	0.0148016
664.535	0.0146322
664.613	0.0146768
664.691	0.0147476
664.769	0.0146844
664.847	0.0148087
664.925	0.0146978
665.003	0.0146372
665.081	0.0147859
665.160	0.0147828
665.238	0.0147884
665.316	0.0146838
665.394	0.0146246
665.472	0.0147541
665.550	0.0147572
665.628	0.0147762
665.706	0.0147208
665.785	0.0146432
665.863	0.0147368
665.941	0.0147260
666.019	0.0148224
666.097	0.0147704
666.175	0.0147372
666.253	0.0148158
666.331	0.0146488
666.410	0.0146049
666.488	0.0146624
666.566	0.0146678
666.644	0.0147623
666.722	0.0147725
666.800	0.0146579
666.878	0.0146398
666.956	0.0147133
667.035	0.0146828
667.113	0.0147068
667.191	0.0146828
667.269	0.0147148
667.347	0.0146412
667.425	0.0147160
667.503	0.0146510
667.581	0.0146569
667.660	0.0148337
667.738	0.0146855
667.816	0.0147706
667.894	0.0147288
667.972	0.0146819
668.050	0.0146612
668.128	0.0146572
668.206	0.0146722
668.285	0.0147877
668.363	0.0146792
668.441	0.0147999
668.519	0.0146848
668.597	0.0146902
668.675	0.0146301
668.753	0.0147982
668.831	0.0146855
668.910	0.0147188
668.988	0.0146242
669.066	0.0147335
669.144	0.0147691
669.222	0.0146499
669.300	0.0147305
669.378	0.0145050
669.456	0.0147122
669.535	0.0146931
669.613	0.0146774
669.691	0.0147546
669.769	0.0147883
669.847	0.0147604
669.925	0.0146902
670.003	0.0144636
670.081	0.0146677
670.160	0.0147370
670.238	0.0147044
670.316	0.0147385
670.394	0.0146661
670.472	0.0146937
670.550	0.0146843
670.628	0.0147412
670.706	0.0146428
670.785	0.0145333
670.863	0.0147179
670.941	0.0146573
671.019	0.0147822
671.097	0.0146581
671.175	0.0146416
671.253	0.0146017
671.331	0.0146258
671.410	0.0146395
671.488	0.0146632
671.566	0.0147277
671.644	0.0146865
671.722	0.0145346
671.800	0.0146957
671.878	0.0146444
671.956	0.0144719
672.035	0.0146177
672.113	0.0146297
672.191	0.0146901
672.269	0.0146461
672.347	0.0146129
672.425	0.0147367
672.503	0.0146091
672.581	0.0146857
672.660	0.0146301
672.738	0.0146430
672.816	0.0146227
672.894	0.0147205
672.972	0.0146454
673.050	0.0147810
673.128	0.0147995
673.206	0.0145525
673.285	0.0145869
673.363	0.0147013
673.441	0.0146796
673.519	0.0146293
673.597	0.0147332
673.675	0.0147325
673.753	0.0146444
673.831	0.0146680
673.910	0.0147578
673.988	0.0145544
674.066	0.0147427
674.144	0.0146066
674.222	0.0146461
674.300	0.0145520
674.378	0.0146159
674.456	0.0146002
674.535	0.0146300
674.613	0.0146781
674.691	0.0146417
674.769	0.0146261
674.847	0.0145500
674.925	0.0145214
675.003	0.0145345
675.081	0.0146889
675.160	0.0148598
675.238	0.0146767
675.316	0.0146400
675.394	0.0147073
675.472	0.0147625
675.550	0.0146188
675.628	0.0147253
675.706	0.0147225
675.785	0.0146992
675.863	0.0146072
675.941	0.0147590
676.019	0.0146462
676.097	0.0146387
676.175	0.0147013
676.253	0.0146042
676.331	0.0147382
676.410	0.0148206
676.488	0.0145765
676.566	0.0145700
676.644	0.0147272
676.722	0.0145419
676.800	0.0147362
676.878	0.0146141
676.956	0.0147878
677.035	0.0146860
677.113	0.0147304
677.191	0.0148307
677.269	0.0145083
677.347	0.0145605
677.425	0.0145544
677.503	0.0145378
677.581	0.0146366
677.660	0.0148243
677.738	0.0146149
677.816	0.0146650
677.894	0.0146819
677.972	0.0146055
678.050	0.0145410
678.128	0.0146447
678.206	0.0146399
678.285	0.0147153
678.363	0.0148064
678.441	0.0146284
678.519	0.0146881
678.597	0.0147394
678.675	0.0146911
678.753	0.0146339
678.831	0.0145699
678.910	0.0146941
678.988	0.0146988
679.066	0.0146589
679.144	0.0147659
679.222	0.0147038
679.300	0.0146535
679.378	0.0145413
679.456	0.0146620
679.535	0.0148076
679.613	0.0145844
679.691	0.0146993
679.769	0.0146762
679.847	0.0145797
679.925	0.0147353
680.003	0.0147216
680.081	0.0144676
680.160	0.0147442
680.238	0.0147458
680.316	0.0147551
680.394	0.0146666
680.472	0.0146581
680.550	0.0147152
680.628	0.0148272
680.706	0.0146577
680.785	0.0148444
680.863	0.0146918
680.941	0.0147852
681.019	0.0147612
681.097	0.0146298
681.175	0.0146685
681.253	0.0147112
681.331	0.0146914
681.410	0.0148052
681.488	0.0147430
681.566	0.0147771
681.644	0.0147040
681.722	0.0147261
681.800	0.0148291
681.878	0.0147432
681.956	0.0147770
682.035	0.0146098
682.113	0.0146538
682.191	0.0146815
682.269	0.0146573
682.347	0.0146513
682.425	0.0146742
682.503	0.0146855
682.581	0.0147389
682.660	0.0147330
682.738	0.0146625
682.816	0.0147285
682.894	0.0146941
682.972	0.0146120
683.050	0.0147382
683.128	0.0147814
683.206	0.0148118
683.285	0.0147598
683.363	0.0146856
683.441	0.0145924
683.519	0.0145950
683.597	0.0146419
683.675	0.0146183
683.753	0.0146767
683.831	0.0146321
683.910	0.0146532
683.988	0.0147214
684.066	0.0146819
684.144	0.0146613
684.222	0.0146313
684.300	0.0147701
684.378	0.0146265
684.456	0.0145217
684.535	0.0147303
684.613	0.0147095
684.691	0.0146891
684.769	0.0146828
684.847	0.0145061
684.925	0.0146066
685.003	0.0146005
685.081	0.0145596
685.160	0.0146523
685.238	0.0147004
685.316	0.0146657
685.394	0.0146892
685.472	0.0146397
685.550	0.0145994
685.628	0.0147737
685.706	0.0147373
685.785	0.0145578
685.863	0.0146634
685.941	0.0147679
686.019	0.0146567
686.097	0.0145331
686.175	0.0146361
686.253	0.0146078
686.331	0.0147280
686.410	0.0146345
686.488	0.0146608
686.566	0.0145824
686.644	0.0145301
686.722	0.0146030
686.800	0.0147467
686.878	0.0147552
686.956	0.0146214
687.035	0.0145167
687.113	0.0146644
687.191	0.0146700
687.269	0.0146846
687.347	0.0146007
687.425	0.0146639
687.503	0.0146258
687.581	0.0146416
687.660	0.0146326
687.738	0.0145626
687.816	0.0146134
687.894	0.0148144
687.972	0.0146929
688.050	0.0146690
688.128	0.0146386
688.206	0.0146046
688.285	0.0147897
688.363	0.0146371
688.441	0.0144888
688.519	0.0145947
688.597	0.0146342
688.675	0.0146571
688.753	0.0146534
688.831	0.0146358
688.910	0.0146333
688.988	0.0145882
689.066	0.0146803
689.144	0.0146694
689.222	0.0146122
689.300	0.0146165
689.378	0.0146361
689.456	0.0145461
689.535	0.0146249
689.613	0.0145872
689.691	0.0145934
689.769	0.0146146
689.847	0.0148269
689.925	0.0146430
690.003	0.0146162
690.081	0.0146844
690.160	0.0145983
690.238	0.0146499
690.316	0.0146121
690.394	0.0145974
690.472	0.0146183
690.550	0.0148054
690.628	0.0146247
690.706	0.0145674
690.785	0.0148256
690.863	0.0146778
690.941	0.0146587
691.019	0.0146487
691.097	0.0147101
691.175	0.0148531
691.253	0.0146949
691.331	0.0145757
691.410	0.0146510
691.488	0.0145806
691.566	0.0147266
691.644	0.0146368
691.722	0.0146317
691.800	0.0146843
691.878	0.0147031
691.956	0.0146069
692.035	0.0147997
692.113	0.0148827
692.191	0.0148217
692.269	0.0148063
692.347	0.0146773
692.425	0.0146348
692.503	0.0145695
692.581	0.0147727
692.660	0.0145715
692.738	0.0146680
692.816	0.0146033
692.894	0.0147668
692.972	0.0146511
693.050	0.0147072
693.128	0.0146794
693.206	0.0147730
693.285	0.0147050
693.363	0.0146974
693.441	0.0147448
693.519	0.0147845
693.597	0.0145933
693.675	0.0146680
693.753	0.0149084
693.831	0.0146102
693.910	0.0145817
693.988	0.0146406
694.066	0.0148175
694.144	0.0146577
694.222	0.0146781
694.300	0.0147389
694.378	0.0147561
694.456	0.0146815
694.535	0.0147269
694.613	0.0146891
694.691	0.0146961
694.769	0.0147400
694.847	0.0146789
694.925	0.0147064
695.003	0.0146850
695.081	0.0146307
695.160	0.0146404
695.238	0.0147530
695.316	0.0147122
695.394	0.0146445
695.472	0.0147896
695.550	0.0146101
695.628	0.0147410
695.706	0.0147561
695.785	0.0146630
695.863	0.0146759
695.941	0.0145967
696.019	0.0147060
696.097	0.0147237
696.175	0.0147446
696.253	0.0146470
696.331	0.0146049
696.410	0.0146408
696.488	0.0147023
696.566	0.0145721
696.644	0.0145404
696.722	0.0146525
696.800	0.0147012
696.878	0.0147204
696.956	0.0145819
697.035	0.0145488
697.113	0.0146149
697.191	0.0147301
697.269	0.0146765
697.347	0.0146118
697.425	0.0147332
697.503	0.0148538
697.581	0.0147728
697.660	0.0147185
697.738	0.0147058
697.816	0.0147598
697.894	0.0145849
697.972	0.0146889
698.050	0.0147214
698.128	0.0147414
698.206	0.0147311
698.285	0.0147223
698.363	0.0147157
698.441	0.0146814
698.519	0.0147295
698.597	0.0147593
698.675	0.0147917
698.753	0.0146975
698.831	0.0146571
698.910	0.0146523
698.988	0.0145798
699.066	0.0146334
699.144	0.0146625
699.222	0.0147272
699.300	0.0148092
699.378	0.0147593
699.456	0.0146152
699.535	0.0145670
699.613	0.0146204
699.691	0.0147652
699.769	0.0146558
699.847	0.0146376
699.925	0.0147711
700.003	0.0147546
700.081	0.0145798
700.160	0.0146310
700.238	0.0148486
700.316	0.0147544
700.394	0.0146562
700.472	0.0146853
700.550	0.0146486
700.628	0.0146984
700.706	0.0147221
700.785	0.0146738
700.863	0.0147054
700.941	0.0147359
701.019	0.0146420
701.097	0.0147159
701.175	0.0147742
701.253	0.0146339
701.331	0.0147074
701.410	0.0146848
701.488	0.0148638
701.566	0.0147191
701.644	0.0145802
701.722	0.0147177
701.800	0.0147144
701.878	0.0147493
701.956	0.0147703
702.035	0.0147802
702.113	0.0146612
702.191	0.0147973
702.269	0.0146638
702.347	0.0146559
702.425	0.0146494
702.503	0.0147923
702.581	0.0146368
702.660	0.0147453
702.738	0.0146652
702.816	0.0148186
702.894	0.0147175
702.972	0.0148113
703.050	0.0147823
703.128	0.0147832
703.206	0.0148174
703.285	0.0146154
703.363	0.0146912
703.441	0.0146282
703.519	0.0147207
703.597	0.0147188
703.675	0.0146436
703.753	0.0146931
703.831	0.0147039
703.910	0.0147049
703.988	0.0147350
704.066	0.0146962
704.144	0.0147065
704.222	0.0147084
704.300	0.0146279
704.378	0.0145819
704.456	0.0146953
704.535	0.0146492
704.613	0.0146857
704.691	0.0147547
704.769	0.0147058
704.847	0.0145628
704.925	0.0146497
705.003	0.0146423
705.081	0.0146458
705.160	0.0147494
705.238	0.0146987
705.316	0.0147388
705.394	0.0147113
705.472	0.0146933
705.550	0.0146985
705.628	0.0147432
705.706	0.0146414
705.785	0.0147302
705.863	0.0146867
705.941	0.0146507
706.019	0.0145458
706.097	0.0147746
706.175	0.0146672
706.253	0.0146553
706.331	0.0148027
706.410	0.0146249
706.488	0.0147144
706.566	0.0147751
706.644	0.0147372
706.722	0.0147644
706.800	0.0148682
706.878	0.0148205
706.956	0.0147378
707.035	0.0147498
707.113	0.0148289
707.191	0.0147521
707.269	0.0147750
707.347	0.0147348
707.425	0.0146212
707.503	0.0146338
707.581	0.0146204
707.660	0.0146774
707.738	0.0145404
707.816	0.0144859
707.894	0.0145915
707.972	0.0146352
708.050	0.0146533
708.128	0.0145121
708.206	0.0145166
708.285	0.0145578
708.363	0.0147491
708.441	0.0146476
708.519	0.0145728
708.597	0.0145906
708.675	0.0146342
708.753	0.0145076
708.831	0.0146017
708.910	0.0145409
708.988	0.0146281
709.066	0.0147552
709.144	0.0146893
709.222	0.0146365
709.300	0.0148241
709.378	0.0150483
709.456	0.0149111
709.535	0.0150025
709.613	0.0151032
709.691	0.0151157
709.769	0.0148584
709.847	0.0147694
709.925	0.0147478
710.003	0.0147456
710.081	0.0144987
710.160	0.0143773
710.238	0.0144901
710.316	0.0141876
710.394	0.0143554
710.472	0.0142616
710.550	0.0142091
710.628	0.0142092
710.706	0.0143239
710.785	0.0143307
710.863	0.0144157
710.941	0.0143892
711.019	0.0145644
711.097	0.0145396
711.175	0.0147379
711.253	0.0146053
711.331	0.0148466
711.410	0.0150842
711.488	0.0149675
711.566	0.0148713
711.644	0.0149889
711.722	0.0151109
711.800	0.0149270
711.878	0.0147829
711.956	0.0148776
712.035	0.0147399
712.113	0.0147237
712.191	0.0146469
712.269	0.0145780
712.347	0.0143594
712.425	0.0145313
712.503	0.0144378
712.581	0.0143835
712.660	0.0144910
712.738	0.0143797
712.816	0.0143886
712.894	0.0144082
712.972	0.0147588
713.050	0.0146931
713.128	0.0147984
713.206	0.0148575
713.285	0.0150135
713.363	0.0150990
713.441	0.0152135
713.519	0.0152577
713.597	0.0152710
713.675	0.0154490
713.753	0.0155190
713.831	0.0154498
713.910	0.0155198
713.988	0.0154914
714.066	0.0155478
714.144	0.0154415
714.222	0.0152644
714.300	0.0151145
714.378	0.0148434
714.456	0.0147392
714.535	0.0145501
714.613	0.0144685
714.691	0.0142209
714.769	0.0140079
714.847	0.0138510
714.925	0.0139625
715.003	0.0137502
715.081	0.0136213
715.160	0.0137000
715.238	0.0136965
715.316	0.0137364
715.394	0.0137955
715.472	0.0137626
715.550	0.0135905
715.628	0.0138496
715.706	0.0139431
715.785	0.0140456
715.863	0.0141624
715.941	0.0142700
716.019	0.0145075
716.097	0.0145523
716.175	0.0148222
716.253	0.0149318
716.331	0.0152779
716.410	0.0152659
716.488	0.0153370
716.566	0.0154208
716.644	0.0156872
716.722	0.0157535
716.800	0.0157304
716.878	0.0158102
716.956	0.0160118
717.035	0.0157803
717.113	0.0157671
717.191	0.0157375
717.269	0.0156091
717.347	0.0154548
717.425	0.0155154
717.503	0.0152637
717.581	0.0152560
717.660	0.0149545
717.738	0.0149249
717.816	0.0148737
717.894	0.0145664
717.972	0.0143935
718.050	0.0143184
718.128	0.0142994
718.206	0.0140248
718.285	0.0139066
718.363	0.0140311
718.441	0.0138883
718.519	0.0137016
718.597	0.0137838
718.675	0.0138031
718.753	0.0136897
718.831	0.0137830
718.910	0.0138055
718.988	0.0138233
719.066	0.0139370
719.144	0.0141470
719.222	0.0142852
719.300	0.0142970
719.378	0.0143707
719.456	0.0143281
719.535	0.0145629
719.613	0.0147603
719.691	0.0149929
719.769	0.0149757
719.847	0.0151810
719.925	0.0151903
720.003	0.0152820
720.081	0.0154020
720.160	0.0154102
720.238	0.0155204
720.316	0.0155898
720.394	0.0155988
720.472	0.0154610
720.550	0.0154362
720.628	0.0155637
720.706	0.0153712
720.785	0.0154095
720.863	0.0153394
720.941	0.0151340
721.019	0.0151332
721.097	0.0149065
721.175	0.0149564
721.253	0.0148566
721.331	0.0148597
721.410	0.0147576
721.488	0.0145380
721.566	0.0144969
721.644	0.0141890
721.722	0.0141232
721.800	0.0140915
721.878	0.0141045
721.956	0.0139335
722.035	0.0139610
722.113	0.0138429
722.191	0.0136994
722.269	0.0138930
722.347	0.0138277
722.425	0.0137764
722.503	0.0138486
722.581	0.0138609
722.660	0.0139816
722.738	0.0138828
722.816	0.0140879
722.894	0.0140128
722.972	0.0141705
723.050	0.0141556
723.128	0.0142653
723.206	0.0144743
723.285	0.0144610
723.363	0.0146139
723.441	0.0147815
723.519	0.0148692
723.597	0.0147592
723.675	0.0149566
723.753	0.0150323
723.831	0.0150182
723.910	0.0151091
723.988	0.0151884
724.066	0.0152604
724.144	0.0153192
724.222	0.0153123
724.300	0.0153556
724.378	0.0153744
724.456	0.0154459
724.535	0.0153370
724.613	0.0153073
724.691	0.0153986
724.769	0.0153899
724.847	0.0154689
724.925	0.0154715
725.003	0.0152844
725.081	0.0152132
725.160	0.0153745
725.238	0.0151645
725.316	0.0150378
725.394	0.0151217
725.472	0.0149490
725.550	0.0149536
725.628	0.0147120
725.706	0.0147244
725.785	0.0146568
725.863	0.0145200
725.941	0.0146260
726.019	0.0145065
726.097	0.0143320
726.175	0.0143594
726.253	0.0142752
726.331	0.0140046
726.410	0.0139129
726.488	0.0139830
726.566	0.0140715
726.644	0.0139601
726.722	0.0139217
726.800	0.0138834
726.878	0.0137721
726.956	0.0138495
727.035	0.0139458
727.113	0.0140054
727.191	0.0139870
727.269	0.0140427
727.347	0.0140852
727.425	0.0143452
727.503	0.0143644
727.581	0.0144196
727.660	0.0143874
727.738	0.0145152
727.816	0.0145110
727.894	0.0144531
727.972	0.0146786
728.050	0.0148888
728.128	0.0149503
728.206	0.0150878
728.285	0.0151729
728.363	0.0152200
728.441	0.0152101
728.519	0.0152426
728.597	0.0153935
728.675	0.0153891
728.753	0.0152024
728.831	0.0154595
728.910	0.0153876
728.988	0.0153403
729.066	0.0153571
729.144	0.0154636
729.222	0.0152361
729.300	0.0152610
729.378	0.0153670
729.456	0.0153649
729.535	0.0152206
729.613	0.0152522
729.691	0.0153601
729.769	0.0151805
729.847	0.0149049
729.925	0.0150883
730.003	0.0151040
730.081	0.0149529
730.160	0.0149136
730.238	0.0148583
730.316	0.0147779
730.394	0.0147215
730.472	0.0145217
730.550	0.0146329
730.628	0.0145467
730.706	0.0145644
730.785	0.0145988
730.863	0.0143301
730.941	0.0142613
731.019	0.0141616
731.097	0.0141777
731.175	0.0142458
731.253	0.0140778
731.331	0.0141783
731.410	0.0140973
731.488	0.0141677
731.566	0.0141337
731.644	0.0140697
731.722	0.0140495
731.800	0.0140841
731.878	0.0140615
731.956	0.0139576
732.035	0.0140926
732.113	0.0140528
732.191	0.0141232
732.269	0.0142563
732.347	0.0141422
732.425	0.0141802
732.503	0.0142647
732.581	0.0143309
732.660	0.0143927
732.738	0.0144849
732.816	0.0144710
732.894	0.0143563
732.972	0.0143481
733.050	0.0146337
733.128	0.0145751
733.206	0.0146387
733.285	0.0145345
733.363	0.0146702
733.441	0.0147929
733.519	0.0147980
733.597	0.0149049
733.675	0.0149305
733.753	0.0150051
733.831	0.0149520
733.910	0.0151445
733.988	0.0150703
734.066	0.0152251
734.144	0.0153568
734.222	0.0154330
734.300	0.0153648
734.378	0.0153836
734.456	0.0154113
734.535	0.0154230
734.613	0.0152921
734.691	0.0154127
734.769	0.0153396
734.847	0.0152616
734.925	0.0153761
735.003	0.0153189
735.081	0.0152818
735.160	0.0152170
735.238	0.0150607
735.316	0.0151557
735.394	0.0150918
735.472	0.0149340
735.550	0.0149408
735.628	0.0149656
735.706	0.0150090
735.785	0.0148836
735.863	0.0149374
735.941	0.0146206
736.019	0.0144865
736.097	0.0145578
736.175	0.0146059
736.253	0.0145419
736.331	0.0143982
736.410	0.0144279
736.488	0.0144537
736.566	0.0143708
736.644	0.0144086
736.722	0.0142961
736.800	0.0142926
736.878	0.0142455
736.956	0.0141705
737.035	0.0142754
737.113	0.0142828
737.191	0.0141729
737.269	0.0140648
737.347	0.0141191
737.425	0.0140863
737.503	0.0141823
737.581	0.0141774
737.660	0.0139536
737.738	0.0140491
737.816	0.0141471
737.894	0.0142106
737.972	0.0141641
738.050	0.0141866
738.128	0.0140446
738.206	0.0140903
738.285	0.0141419
738.363	0.0142318
738.441	0.0144275
738.519	0.0143418
738.597	0.0144703
738.675	0.0144827
738.753	0.0144734
738.831	0.0146027
738.910	0.0147625
738.988	0.0148951
739.066	0.0149089
739.144	0.0148897
739.222	0.0149368
739.300	0.0151530
739.378	0.0151277
739.456	0.0151613
739.535	0.0151325
739.613	0.0151463
739.691	0.0151061
739.769	0.0152565
739.847	0.0150188
739.925	0.0151300
740.003	0.0151936
740.081	0.0150695
740.160	0.0151910
740.238	0.0151846
740.316	0.0150774
740.394	0.0149730
740.472	0.0150960
740.550	0.0152200
740.628	0.0149120
740.706	0.0150430
740.785	0.0149258
740.863	0.0150385
740.941	0.0149939
741.019	0.0149973
741.097	0.0149539
741.175	0.0148587
741.253	0.0148392
741.331	0.0149699
741.410	0.0148213
741.488	0.0148360
741.566	0.0147015
741.644	0.0148087
741.722	0.0147549
741.800	0.0145816
741.878	0.0146210
741.956	0.0146252
742.035	0.0144189
742.113	0.0145004
742.191	0.0146700
742.269	0.0145103
742.347	0.0142901
742.425	0.0144500
742.503	0.0143823
742.581	0.0143782
742.660	0.0143378
742.738	0.0141505
742.816	0.0142852
742.894	0.0143949
742.972	0.0143080
743.050	0.0141768
743.128	0.0144914
743.206	0.0143552
743.285	0.0140892
743.363	0.0143570
743.441	0.0142994
743.519	0.0142310
743.597	0.0144363
743.675	0.0143701
743.753	0.0143622
743.831	0.0143231
743.910	0.0144384
743.988	0.0142570
744.066	0.0143550
744.144	0.0143011
744.222	0.0142455
744.300	0.0144981
744.378	0.0143462
744.456	0.0144588
744.535	0.0145259
744.613	0.0143639
744.691	0.0143893
744.769	0.0146634
744.847	0.0145942
744.925	0.0144816
745.003	0.0144447
745.081	0.0146214
745.160	0.0147965
745.238	0.0145673
745.316	0.0146452
745.394	0.0147026
745.472	0.0147461
745.550	0.0149007
745.628	0.0149121
745.706	0.0148597
