05/03/2022	20:02:51	Ver.	4.1	UNKNOWN
Optical Delay	660.009933	Delta X		0.078125	Sweeps	1	Scan Rate	0/0
Coordinates	Axis 1	NaN	Axis 2	NaN	Axis 3	NaN	Axis 4	NaN	Axis 5	NaN	Axis 6	0.000000
TX Power	0.000000	RX Power	0.000000

660.010	0.0143977
660.088	0.0143364
660.166	0.0143142
660.244	0.0144543
660.322	0.0144041
660.401	0.0144331
660.479	0.0145115
660.557	0.0142767
660.635	0.0143953
660.713	0.0143448
660.791	0.0144981
660.869	0.0144424
660.947	0.0144002
661.026	0.0144847
661.104	0.0145766
661.182	0.0144794
661.260	0.0144984
661.338	0.0144073
661.416	0.0143419
661.494	0.0143754
661.572	0.0143292
661.651	0.0142561
661.729	0.0144549
661.807	0.0144124
661.885	0.0144559
661.963	0.0143656
662.041	0.0142999
662.119	0.0144659
662.197	0.0145614
662.276	0.0144519
662.354	0.0145039
662.432	0.0145011
662.510	0.0144065
662.588	0.0144508
662.666	0.0144550
662.744	0.0143711
662.822	0.0144545
662.901	0.0144011
662.979	0.0143288
663.057	0.0144805
663.135	0.0143718
663.213	0.0144519
663.291	0.0144418
663.369	0.0143251
663.447	0.0144609
663.526	0.0143395
663.604	0.0143252
663.682	0.0143895
663.760	0.0143676
663.838	0.0143619
663.916	0.0143327
663.994	0.0144783
664.072	0.0144930
664.151	0.0144269
664.229	0.0143293
664.307	0.0145399
664.385	0.0143324
664.463	0.0144611
664.541	0.0144106
664.619	0.0144289
664.697	0.0144009
664.776	0.0143582
664.854	0.0144498
664.932	0.0144819
665.010	0.0144659
665.088	0.0144643
665.166	0.0144531
665.244	0.0143595
665.322	0.0145645
665.401	0.0144251
665.479	0.0144239
665.557	0.0145609
665.635	0.0144644
665.713	0.0143345
665.791	0.0144157
665.869	0.0144016
665.947	0.0145177
666.026	0.0144271
666.104	0.0144804
666.182	0.0144140
666.260	0.0144784
666.338	0.0144198
666.416	0.0143581
666.494	0.0145041
666.572	0.0144064
666.651	0.0143929
666.729	0.0144344
666.807	0.0143430
666.885	0.0144542
666.963	0.0145080
667.041	0.0143571
667.119	0.0144397
667.197	0.0144521
667.276	0.0144809
667.354	0.0143944
667.432	0.0145197
667.510	0.0143914
667.588	0.0144020
667.666	0.0144392
667.744	0.0145384
667.822	0.0143452
667.901	0.0144090
667.979	0.0143536
668.057	0.0143636
668.135	0.0144175
668.213	0.0144997
668.291	0.0144297
668.369	0.0143402
668.447	0.0143678
668.526	0.0144311
668.604	0.0142306
668.682	0.0145129
668.760	0.0144460
668.838	0.0142807
668.916	0.0143682
668.994	0.0145201
669.072	0.0142752
669.151	0.0143832
669.229	0.0144193
669.307	0.0143758
669.385	0.0144624
669.463	0.0144991
669.541	0.0145249
669.619	0.0143280
669.697	0.0143693
669.776	0.0144598
669.854	0.0144184
669.932	0.0144447
670.010	0.0144443
670.088	0.0143382
670.166	0.0144602
670.244	0.0143821
670.322	0.0144020
670.401	0.0144186
670.479	0.0144521
670.557	0.0144071
670.635	0.0143890
670.713	0.0143986
670.791	0.0142786
670.869	0.0143577
670.947	0.0144986
671.026	0.0144337
671.104	0.0143918
671.182	0.0144923
671.260	0.0144112
671.338	0.0144814
671.416	0.0144037
671.494	0.0143921
671.572	0.0143372
671.651	0.0142024
671.729	0.0144254
671.807	0.0144752
671.885	0.0143731
671.963	0.0144253
672.041	0.0143225
672.119	0.0144696
672.197	0.0144495
672.276	0.0143989
672.354	0.0144534
672.432	0.0143636
672.510	0.0143671
672.588	0.0143585
672.666	0.0142792
672.744	0.0144949
672.822	0.0145925
672.901	0.0144918
672.979	0.0143617
673.057	0.0143889
673.135	0.0144324
673.213	0.0143740
673.291	0.0144479
673.369	0.0143497
673.447	0.0143990
673.526	0.0143526
673.604	0.0144084
673.682	0.0144016
673.760	0.0143446
673.838	0.0144267
673.916	0.0144090
673.994	0.0143641
674.072	0.0144049
674.151	0.0143196
674.229	0.0143254
674.307	0.0143909
674.385	0.0142722
674.463	0.0143914
674.541	0.0144083
674.619	0.0143909
674.697	0.0144075
674.776	0.0143792
674.854	0.0144547
674.932	0.0144616
675.010	0.0145184
675.088	0.0146004
675.166	0.0143865
675.244	0.0143561
675.322	0.0144386
675.401	0.0142875
675.479	0.0144438
675.557	0.0145728
675.635	0.0144651
675.713	0.0144248
675.791	0.0146001
675.869	0.0143048
675.947	0.0142686
676.026	0.0145602
676.104	0.0143910
676.182	0.0143751
676.260	0.0144754
676.338	0.0144659
676.416	0.0143521
676.494	0.0143633
676.572	0.0142686
676.651	0.0143977
676.729	0.0143095
676.807	0.0144144
676.885	0.0143584
676.963	0.0143579
677.041	0.0144643
677.119	0.0142571
677.197	0.0143661
677.276	0.0142651
677.354	0.0144482
677.432	0.0145307
677.510	0.0144374
677.588	0.0143641
677.666	0.0144700
677.744	0.0144243
677.822	0.0144022
677.901	0.0143063
677.979	0.0144579
678.057	0.0144458
678.135	0.0143977
678.213	0.0143780
678.291	0.0142953
678.369	0.0144363
678.447	0.0144633
678.526	0.0144347
678.604	0.0143581
678.682	0.0144106
678.760	0.0145139
678.838	0.0143278
678.916	0.0143900
678.994	0.0144598
679.072	0.0145690
679.151	0.0144336
679.229	0.0143903
679.307	0.0143715
679.385	0.0144553
679.463	0.0144240
679.541	0.0144077
679.619	0.0145464
679.697	0.0143233
679.776	0.0143140
679.854	0.0144089
679.932	0.0144069
680.010	0.0144379
680.088	0.0143925
680.166	0.0143006
680.244	0.0145492
680.322	0.0143953
680.401	0.0144292
680.479	0.0143809
680.557	0.0144121
680.635	0.0143897
680.713	0.0143376
680.791	0.0144319
680.869	0.0143452
680.947	0.0144176
681.026	0.0144022
681.104	0.0143745
681.182	0.0144708
681.260	0.0144888
681.338	0.0144767
681.416	0.0144681
681.494	0.0144128
681.572	0.0143435
681.651	0.0144660
681.729	0.0143901
681.807	0.0143155
681.885	0.0143869
681.963	0.0144602
682.041	0.0143845
682.119	0.0143219
682.197	0.0143651
682.276	0.0144863
682.354	0.0143444
682.432	0.0144156
682.510	0.0144345
682.588	0.0145458
682.666	0.0145203
682.744	0.0144528
682.822	0.0144143
682.901	0.0143250
682.979	0.0144214
683.057	0.0145071
683.135	0.0144537
683.213	0.0143707
683.291	0.0142743
683.369	0.0145948
683.447	0.0145465
683.526	0.0144097
683.604	0.0144116
683.682	0.0144746
683.760	0.0144873
683.838	0.0144322
683.916	0.0143613
683.994	0.0143018
684.072	0.0143855
684.151	0.0144551
684.229	0.0144570
684.307	0.0145851
684.385	0.0143617
684.463	0.0143473
684.541	0.0142741
684.619	0.0144180
684.697	0.0145493
684.776	0.0143511
684.854	0.0143645
684.932	0.0144453
685.010	0.0145699
685.088	0.0145895
685.166	0.0144018
685.244	0.0145248
685.322	0.0144896
685.401	0.0144789
685.479	0.0144270
685.557	0.0144056
685.635	0.0144408
685.713	0.0144266
685.791	0.0144586
685.869	0.0144562
685.947	0.0144656
686.026	0.0143434
686.104	0.0144893
686.182	0.0143987
686.260	0.0144660
686.338	0.0144669
686.416	0.0144733
686.494	0.0144917
686.572	0.0144714
686.651	0.0144572
686.729	0.0143484
686.807	0.0143604
686.885	0.0144044
686.963	0.0144162
687.041	0.0145389
687.119	0.0145148
687.197	0.0143788
687.276	0.0143024
687.354	0.0145348
687.432	0.0145377
687.510	0.0143639
687.588	0.0144936
687.666	0.0144562
687.744	0.0144904
687.822	0.0144019
687.901	0.0145636
687.979	0.0145226
688.057	0.0144779
688.135	0.0143100
688.213	0.0144048
688.291	0.0144273
688.369	0.0145248
688.447	0.0143605
688.526	0.0145725
688.604	0.0145798
688.682	0.0144010
688.760	0.0144687
688.838	0.0144004
688.916	0.0143608
688.994	0.0143248
689.072	0.0143166
689.151	0.0144408
689.229	0.0145058
689.307	0.0143822
689.385	0.0144657
689.463	0.0144516
689.541	0.0144273
689.619	0.0144357
689.697	0.0144852
689.776	0.0143349
689.854	0.0143522
689.932	0.0144038
690.010	0.0143382
690.088	0.0143430
690.166	0.0145124
690.244	0.0143434
690.322	0.0143596
690.401	0.0143640
690.479	0.0144374
690.557	0.0144071
690.635	0.0142553
690.713	0.0144318
690.791	0.0144935
690.869	0.0144147
690.947	0.0142963
691.026	0.0145148
691.104	0.0145478
691.182	0.0143765
691.260	0.0144424
691.338	0.0144039
691.416	0.0145108
691.494	0.0143044
691.572	0.0144333
691.651	0.0143929
691.729	0.0143734
691.807	0.0143780
691.885	0.0142592
691.963	0.0143463
692.041	0.0143852
692.119	0.0143891
692.197	0.0142937
692.276	0.0144647
692.354	0.0145306
692.432	0.0144583
692.510	0.0143378
692.588	0.0144277
692.666	0.0144434
692.744	0.0144613
692.822	0.0144536
692.901	0.0143987
692.979	0.0144284
693.057	0.0144256
693.135	0.0144844
693.213	0.0143336
693.291	0.0144126
693.369	0.0144521
693.447	0.0144273
693.526	0.0144741
693.604	0.0144292
693.682	0.0143822
693.760	0.0143551
693.838	0.0144613
693.916	0.0143228
693.994	0.0142801
694.072	0.0144200
694.151	0.0142715
694.229	0.0143547
694.307	0.0144247
694.385	0.0143713
694.463	0.0143850
694.541	0.0144532
694.619	0.0143571
694.697	0.0142405
694.776	0.0143587
694.854	0.0145329
694.932	0.0143510
695.010	0.0143575
695.088	0.0144286
695.166	0.0144800
695.244	0.0143761
695.322	0.0143959
695.401	0.0143288
695.479	0.0145605
695.557	0.0144571
695.635	0.0144344
695.713	0.0143876
695.791	0.0143601
695.869	0.0143877
695.947	0.0144499
696.026	0.0143729
696.104	0.0143610
696.182	0.0142865
696.260	0.0142880
696.338	0.0144416
696.416	0.0142953
696.494	0.0143541
696.572	0.0143357
696.651	0.0144069
696.729	0.0143671
696.807	0.0146404
696.885	0.0145264
696.963	0.0144026
697.041	0.0144048
697.119	0.0144516
697.197	0.0144271
697.276	0.0144809
697.354	0.0144194
697.432	0.0143463
697.510	0.0143786
697.588	0.0143327
697.666	0.0143645
697.744	0.0143974
697.822	0.0145360
697.901	0.0144693
697.979	0.0145390
698.057	0.0144840
698.135	0.0144195
698.213	0.0144624
698.291	0.0143951
698.369	0.0143691
698.447	0.0143545
698.526	0.0144269
698.604	0.0144432
698.682	0.0144621
698.760	0.0144247
698.838	0.0145229
698.916	0.0144547
698.994	0.0143806
699.072	0.0144079
699.151	0.0143784
699.229	0.0143591
699.307	0.0143889
699.385	0.0143151
699.463	0.0144474
699.541	0.0144806
699.619	0.0143763
699.697	0.0144848
699.776	0.0143427
699.854	0.0142623
699.932	0.0143858
700.010	0.0144844
700.088	0.0144484
700.166	0.0143777
700.244	0.0143622
700.322	0.0144604
700.401	0.0143576
700.479	0.0144971
700.557	0.0143773
700.635	0.0144164
700.713	0.0143925
700.791	0.0142804
700.869	0.0144189
700.947	0.0143044
701.026	0.0143538
701.104	0.0144489
701.182	0.0145287
701.260	0.0144347
701.338	0.0143133
701.416	0.0144257
701.494	0.0143671
701.572	0.0144643
701.651	0.0143806
701.729	0.0144873
701.807	0.0144976
701.885	0.0144559
701.963	0.0143711
702.041	0.0143865
702.119	0.0144881
702.197	0.0143648
702.276	0.0144373
702.354	0.0145393
702.432	0.0146198
702.510	0.0143835
702.588	0.0145258
702.666	0.0144103
702.744	0.0144709
702.822	0.0145551
702.901	0.0143908
702.979	0.0143315
703.057	0.0145737
703.135	0.0145055
703.213	0.0144395
703.291	0.0144878
703.369	0.0146323
703.447	0.0144202
703.526	0.0146080
703.604	0.0145295
703.682	0.0145261
703.760	0.0143385
703.838	0.0143117
703.916	0.0142681
703.994	0.0142721
704.072	0.0143185
704.151	0.0144349
704.229	0.0145185
704.307	0.0142046
704.385	0.0145114
704.463	0.0143962
704.541	0.0144013
704.619	0.0143431
704.697	0.0142747
704.776	0.0143438
704.854	0.0144830
704.932	0.0144872
705.010	0.0144151
705.088	0.0144884
705.166	0.0146015
705.244	0.0146437
705.322	0.0145715
705.401	0.0146395
705.479	0.0146398
705.557	0.0147119
705.635	0.0148752
705.713	0.0147427
705.791	0.0146555
705.869	0.0148701
705.947	0.0148302
706.026	0.0147614
706.104	0.0148106
706.182	0.0148562
706.260	0.0149212
706.338	0.0146399
706.416	0.0145963
706.494	0.0146021
706.572	0.0145660
706.651	0.0146368
706.729	0.0144849
706.807	0.0143771
706.885	0.0144744
706.963	0.0144178
707.041	0.0143693
707.119	0.0145269
707.197	0.0142783
707.276	0.0144175
707.354	0.0144242
707.432	0.0142918
707.510	0.0141711
707.588	0.0141769
707.666	0.0143707
707.744	0.0144318
707.822	0.0142882
707.901	0.0142864
707.979	0.0142950
708.057	0.0143478
708.135	0.0140613
708.213	0.0142552
708.291	0.0140061
708.369	0.0138899
708.447	0.0139399
708.526	0.0137136
708.604	0.0135588
708.682	0.0134234
708.760	0.0131917
708.838	0.0129905
708.916	0.0126367
708.994	0.0122819
709.072	0.0118994
709.151	0.0114893
709.229	0.0111208
709.307	0.0110352
709.385	0.0110452
709.463	0.0112167
709.541	0.0117137
709.619	0.0122984
709.697	0.0131187
709.776	0.0139394
709.854	0.0148829
709.932	0.0157314
710.010	0.0164767
710.088	0.0170747
710.166	0.0175438
710.244	0.0177793
710.322	0.0179918
710.401	0.0179422
710.479	0.0175615
710.557	0.0171471
710.635	0.0169878
710.713	0.0165823
710.791	0.0163399
710.869	0.0161842
710.947	0.0159755
711.026	0.0160674
711.104	0.0159465
711.182	0.0157536
711.260	0.0155237
711.338	0.0153256
711.416	0.0153337
711.494	0.0152351
711.572	0.0154907
711.651	0.0156862
711.729	0.0159563
711.807	0.0164365
711.885	0.0171487
711.963	0.0177513
712.041	0.0179687
712.119	0.0180501
712.197	0.0178178
712.276	0.0172078
712.354	0.0161066
712.432	0.0148515
712.510	0.0133620
712.588	0.0118642
712.666	0.0103840
712.744	0.00900055
712.822	0.00782402
712.901	0.00673447
712.979	0.00614792
713.057	0.00569588
713.135	0.00540138
713.213	0.00551949
713.291	0.00562759
713.369	0.00600266
713.447	0.00691261
713.526	0.00779564
713.604	0.00900902
713.682	0.0104577
713.760	0.0120683
713.838	0.0136127
713.916	0.0152561
713.994	0.0169953
714.072	0.0186346
714.151	0.0204884
714.229	0.0221360
714.307	0.0234860
714.385	0.0250053
714.463	0.0259472
714.541	0.0265034
714.619	0.0268610
714.697	0.0265766
714.776	0.0258958
714.854	0.0249301
714.932	0.0235551
715.010	0.0217337
715.088	0.0197589
715.166	0.0177651
715.244	0.0154490
715.322	0.0133456
715.401	0.0113200
715.479	0.00941315
715.557	0.00805702
715.635	0.00667084
715.713	0.00582039
715.791	0.00541878
715.869	0.00513481
715.947	0.00512527
716.026	0.00548538
716.104	0.00593857
716.182	0.00658844
716.260	0.00737656
716.338	0.00820541
716.416	0.00934448
716.494	0.0103786
716.572	0.0113164
716.651	0.0122398
716.729	0.0131123
716.807	0.0139303
716.885	0.0147273
716.963	0.0155768
717.041	0.0163244
717.119	0.0168027
717.197	0.0171560
717.276	0.0174454
717.354	0.0180830
717.432	0.0185542
717.510	0.0188306
717.588	0.0191801
717.666	0.0194161
717.744	0.0195025
717.822	0.0195974
717.901	0.0195291
717.979	0.0193505
718.057	0.0191997
718.135	0.0188161
718.213	0.0184595
718.291	0.0179638
718.369	0.0173951
718.447	0.0169094
718.526	0.0163704
718.604	0.0157188
718.682	0.0152711
718.760	0.0148173
718.838	0.0142767
718.916	0.0140479
718.994	0.0137338
719.072	0.0131546
719.151	0.0129778
719.229	0.0126512
719.307	0.0122730
719.385	0.0119982
719.463	0.0118524
719.541	0.0113609
719.619	0.0111976
719.697	0.0110374
719.776	0.0106867
719.854	0.0105654
719.932	0.0103563
720.010	0.0104061
720.088	0.0102254
720.166	0.0101661
720.244	0.0102202
720.322	0.0103901
720.401	0.0104375
720.479	0.0104350
720.557	0.0106992
720.635	0.0109830
720.713	0.0112622
720.791	0.0116016
720.869	0.0120575
720.947	0.0126319
721.026	0.0129523
721.104	0.0135835
721.182	0.0143085
721.260	0.0149446
721.338	0.0155280
721.416	0.0161342
721.494	0.0166640
721.572	0.0172470
721.651	0.0174522
721.729	0.0178879
721.807	0.0179591
721.885	0.0181466
721.963	0.0182300
722.041	0.0182611
722.119	0.0182346
722.197	0.0181536
722.276	0.0180606
722.354	0.0178167
722.432	0.0179373
722.510	0.0177963
722.588	0.0175945
722.666	0.0175330
722.744	0.0174168
722.822	0.0172955
722.901	0.0169336
722.979	0.0166097
723.057	0.0165348
723.135	0.0162514
723.213	0.0157846
723.291	0.0154369
723.369	0.0150768
723.447	0.0148526
723.526	0.0146150
723.604	0.0142648
723.682	0.0138715
723.760	0.0135761
723.838	0.0132349
723.916	0.0130644
723.994	0.0124250
724.072	0.0118493
724.151	0.0116694
724.229	0.0111501
724.307	0.0108508
724.385	0.0104963
724.463	0.0102004
724.541	0.0100311
724.619	0.00985672
724.697	0.00980133
724.776	0.00974335
724.854	0.00995407
724.932	0.0100764
725.010	0.0103262
725.088	0.0108882
725.166	0.0112337
725.244	0.0115963
725.322	0.0120265
725.401	0.0124495
725.479	0.0129328
725.557	0.0132658
725.635	0.0136651
725.713	0.0142621
725.791	0.0146838
725.869	0.0152086
725.947	0.0157191
726.026	0.0159973
726.104	0.0165302
726.182	0.0169050
726.260	0.0172315
726.338	0.0174605
726.416	0.0176943
726.494	0.0177197
726.572	0.0178771
726.651	0.0178455
726.729	0.0179237
726.807	0.0176936
726.885	0.0175800
726.963	0.0174503
727.041	0.0173387
727.119	0.0171424
727.197	0.0170354
727.276	0.0169129
727.354	0.0166326
727.432	0.0164308
727.510	0.0161753
727.588	0.0160357
727.666	0.0159939
727.744	0.0157180
727.822	0.0156673
727.901	0.0156203
727.979	0.0153752
728.057	0.0151935
728.135	0.0151289
728.213	0.0149682
728.291	0.0147207
728.369	0.0146250
728.447	0.0145589
728.526	0.0145360
728.604	0.0146027
728.682	0.0145295
728.760	0.0143687
728.838	0.0142375
728.916	0.0141201
728.994	0.0140057
729.072	0.0135949
729.151	0.0132980
729.229	0.0131384
729.307	0.0129409
729.385	0.0124082
729.463	0.0123962
729.541	0.0121494
729.619	0.0120918
729.697	0.0120281
729.776	0.0116633
729.854	0.0116363
729.932	0.0116011
730.010	0.0114357
730.088	0.0112051
730.166	0.0111159
730.244	0.0110306
730.322	0.0111634
730.401	0.0111872
730.479	0.0112433
730.557	0.0115010
730.635	0.0117123
730.713	0.0119327
730.791	0.0120262
730.869	0.0123953
730.947	0.0126779
731.026	0.0129742
731.104	0.0134142
731.182	0.0137675
731.260	0.0140137
731.338	0.0143658
731.416	0.0148265
731.494	0.0150289
731.572	0.0153556
731.651	0.0156175
731.729	0.0157577
731.807	0.0161983
731.885	0.0164016
731.963	0.0165643
732.041	0.0168384
732.119	0.0171976
732.197	0.0174085
732.276	0.0177759
732.354	0.0178597
732.432	0.0179833
732.510	0.0180315
732.588	0.0180712
732.666	0.0180989
732.744	0.0178778
732.822	0.0177300
732.901	0.0175835
732.979	0.0172543
733.057	0.0169890
733.135	0.0168057
733.213	0.0164175
733.291	0.0162505
733.369	0.0160878
733.447	0.0157279
733.526	0.0154380
733.604	0.0149286
733.682	0.0147734
733.760	0.0144870
733.838	0.0142557
733.916	0.0141428
733.994	0.0139794
734.072	0.0139127
734.151	0.0136962
734.229	0.0137162
734.307	0.0134906
734.385	0.0133923
734.463	0.0133993
734.541	0.0131721
734.619	0.0130685
734.697	0.0129025
734.776	0.0126109
734.854	0.0125211
734.932	0.0123862
735.010	0.0120508
735.088	0.0119314
735.166	0.0119686
735.244	0.0118739
735.322	0.0117350
735.401	0.0116634
735.479	0.0115902
735.557	0.0116586
735.635	0.0117715
735.713	0.0118945
735.791	0.0119983
735.869	0.0123008
735.947	0.0122645
736.026	0.0125610
736.104	0.0127375
736.182	0.0129758
736.260	0.0132613
736.338	0.0136275
736.416	0.0139370
736.494	0.0140538
736.572	0.0143282
736.651	0.0146290
736.729	0.0149422
736.807	0.0148945
736.885	0.0152387
736.963	0.0152898
737.041	0.0154169
737.119	0.0155956
737.197	0.0154109
737.276	0.0154617
737.354	0.0154680
737.432	0.0154547
737.510	0.0153326
737.588	0.0153340
737.666	0.0153082
737.744	0.0155013
737.822	0.0155602
737.901	0.0153617
737.979	0.0156438
738.057	0.0157363
738.135	0.0157882
738.213	0.0158193
738.291	0.0156707
738.369	0.0157451
738.447	0.0157749
738.526	0.0156729
738.604	0.0157378
738.682	0.0157600
738.760	0.0156655
738.838	0.0156352
738.916	0.0155757
738.994	0.0155091
739.072	0.0154161
739.151	0.0152517
739.229	0.0151390
739.307	0.0151327
739.385	0.0150996
739.463	0.0150178
739.541	0.0148432
739.619	0.0147427
739.697	0.0148320
739.776	0.0149653
739.854	0.0147330
739.932	0.0147559
740.010	0.0146751
740.088	0.0147895
740.166	0.0147086
740.244	0.0147060
740.322	0.0146346
740.401	0.0146279
740.479	0.0144461
740.557	0.0143869
740.635	0.0142740
740.713	0.0141055
740.791	0.0138312
740.869	0.0136119
740.947	0.0134376
741.026	0.0130777
741.104	0.0129758
741.182	0.0127626
741.260	0.0126980
741.338	0.0125294
741.416	0.0124253
741.494	0.0123888
741.572	0.0124819
741.651	0.0123717
741.729	0.0126378
741.807	0.0126702
741.885	0.0125500
741.963	0.0128658
742.041	0.0130399
742.119	0.0130746
742.197	0.0130690
742.276	0.0131533
742.354	0.0132585
742.432	0.0134456
742.510	0.0135572
742.588	0.0134582
742.666	0.0134982
742.744	0.0135584
742.822	0.0136133
742.901	0.0136248
742.979	0.0136333
743.057	0.0137979
743.135	0.0139051
743.213	0.0139249
743.291	0.0139384
743.369	0.0139774
743.447	0.0141460
743.526	0.0143572
743.604	0.0145014
743.682	0.0147337
743.760	0.0148542
743.838	0.0151208
743.916	0.0152556
743.994	0.0153741
744.072	0.0157762
744.151	0.0159481
744.229	0.0159521
744.307	0.0160783
744.385	0.0161754
744.463	0.0162928
744.541	0.0164281
744.619	0.0165717
744.697	0.0167080
744.776	0.0165923
744.854	0.0165076
744.932	0.0165268
745.010	0.0164859
745.088	0.0162946
745.166	0.0160611
745.244	0.0159710
745.322	0.0159179
745.401	0.0156937
745.479	0.0156100
745.557	0.0155602
745.635	0.0152385
