05/03/2022	20:03:51	Ver.	4.1	UNKNOWN
Optical Delay	660.003261	Delta X		0.078125	Sweeps	1	Scan Rate	0/0
Coordinates	Axis 1	NaN	Axis 2	NaN	Axis 3	NaN	Axis 4	NaN	Axis 5	NaN	Axis 6	0.000000
TX Power	0.000000	RX Power	0.000000

660.003	0.0147777
660.081	0.0147878
660.160	0.0147528
660.238	0.0148257
660.316	0.0149004
660.394	0.0148489
660.472	0.0148311
660.550	0.0146599
660.628	0.0148552
660.706	0.0149757
660.785	0.0147153
660.863	0.0147432
660.941	0.0148849
661.019	0.0147853
661.097	0.0147913
661.175	0.0147346
661.253	0.0148046
661.331	0.0147878
661.410	0.0148608
661.488	0.0147522
661.566	0.0148373
661.644	0.0147580
661.722	0.0148255
661.800	0.0147118
661.878	0.0146513
661.956	0.0147173
662.035	0.0147253
662.113	0.0146078
662.191	0.0147932
662.269	0.0147861
662.347	0.0147090
662.425	0.0146713
662.503	0.0147702
662.581	0.0147018
662.660	0.0148827
662.738	0.0147096
662.816	0.0148330
662.894	0.0147028
662.972	0.0147990
663.050	0.0147056
663.128	0.0147451
663.206	0.0148853
663.285	0.0147052
663.363	0.0146632
663.441	0.0148045
663.519	0.0147062
663.597	0.0147731
663.675	0.0147810
663.753	0.0148535
663.831	0.0147021
663.910	0.0148484
663.988	0.0147199
664.066	0.0147490
664.144	0.0148272
664.222	0.0148103
664.300	0.0147369
664.378	0.0148713
664.456	0.0147157
664.535	0.0147581
664.613	0.0147925
664.691	0.0148056
664.769	0.0147946
664.847	0.0146994
664.925	0.0148230
665.003	0.0148179
665.081	0.0147393
665.160	0.0148311
665.238	0.0147948
665.316	0.0147267
665.394	0.0148335
665.472	0.0147786
665.550	0.0147898
665.628	0.0147018
665.706	0.0148299
665.785	0.0147592
665.863	0.0146883
665.941	0.0147837
666.019	0.0148029
666.097	0.0148344
666.175	0.0147027
666.253	0.0147496
666.331	0.0146904
666.410	0.0147510
666.488	0.0147235
666.566	0.0147330
666.644	0.0147542
666.722	0.0147928
666.800	0.0147289
666.878	0.0146896
666.956	0.0147451
667.035	0.0147410
667.113	0.0147678
667.191	0.0147163
667.269	0.0146900
667.347	0.0146616
667.425	0.0147013
667.503	0.0147198
667.581	0.0147240
667.660	0.0147913
667.738	0.0146781
667.816	0.0148056
667.894	0.0147272
667.972	0.0147786
668.050	0.0146848
668.128	0.0147616
668.206	0.0147524
668.285	0.0146733
668.363	0.0146115
668.441	0.0148177
668.519	0.0147954
668.597	0.0147018
668.675	0.0146606
668.753	0.0147013
668.831	0.0147141
668.910	0.0146571
668.988	0.0147819
669.066	0.0148064
669.144	0.0147878
669.222	0.0146987
669.300	0.0146795
669.378	0.0146864
669.456	0.0147613
669.535	0.0147136
669.613	0.0145819
669.691	0.0146118
669.769	0.0147066
669.847	0.0147560
669.925	0.0146960
670.003	0.0146539
670.081	0.0147062
670.160	0.0149184
670.238	0.0146664
670.316	0.0145998
670.394	0.0146145
670.472	0.0148181
670.550	0.0147864
670.628	0.0146024
670.706	0.0148385
670.785	0.0148320
670.863	0.0146701
670.941	0.0146586
671.019	0.0146966
671.097	0.0148058
671.175	0.0146723
671.253	0.0147343
671.331	0.0147943
671.410	0.0147370
671.488	0.0147246
671.566	0.0146980
671.644	0.0147687
671.722	0.0149553
671.800	0.0148330
671.878	0.0148092
671.956	0.0147557
672.035	0.0147791
672.113	0.0146933
672.191	0.0147588
672.269	0.0147477
672.347	0.0147021
672.425	0.0147208
672.503	0.0146628
672.581	0.0147744
672.660	0.0147739
672.738	0.0147289
672.816	0.0148257
672.894	0.0147828
672.972	0.0146920
673.050	0.0148165
673.128	0.0147971
673.206	0.0146746
673.285	0.0148531
673.363	0.0147321
673.441	0.0148748
673.519	0.0147870
673.597	0.0146946
673.675	0.0147957
673.753	0.0147057
673.831	0.0146996
673.910	0.0146701
673.988	0.0147168
674.066	0.0148387
674.144	0.0146416
674.222	0.0146770
674.300	0.0148925
674.378	0.0147517
674.456	0.0148269
674.535	0.0148789
674.613	0.0147544
674.691	0.0147297
674.769	0.0147470
674.847	0.0148038
674.925	0.0148530
675.003	0.0147533
675.081	0.0146471
675.160	0.0147147
675.238	0.0147417
675.316	0.0147736
675.394	0.0148090
675.472	0.0147598
675.550	0.0147128
675.628	0.0146957
675.706	0.0147600
675.785	0.0147348
675.863	0.0147186
675.941	0.0147181
676.019	0.0146772
676.097	0.0146622
676.175	0.0147890
676.253	0.0147680
676.331	0.0148551
676.410	0.0148566
676.488	0.0147826
676.566	0.0147125
676.644	0.0148116
676.722	0.0148242
676.800	0.0145666
676.878	0.0147394
676.956	0.0147601
677.035	0.0148313
677.113	0.0147223
677.191	0.0146664
677.269	0.0146896
677.347	0.0147085
677.425	0.0147714
677.503	0.0146883
677.581	0.0148005
677.660	0.0146752
677.738	0.0148124
677.816	0.0147938
677.894	0.0146281
677.972	0.0147733
678.050	0.0149732
678.128	0.0146740
678.206	0.0148000
678.285	0.0148067
678.363	0.0147846
678.441	0.0147894
678.519	0.0147747
678.597	0.0148439
678.675	0.0147260
678.753	0.0147459
678.831	0.0148156
678.910	0.0148123
678.988	0.0146131
679.066	0.0147562
679.144	0.0148328
679.222	0.0148033
679.300	0.0148938
679.378	0.0147899
679.456	0.0147454
679.535	0.0147519
679.613	0.0147449
679.691	0.0147605
679.769	0.0148843
679.847	0.0149052
679.925	0.0148048
680.003	0.0148727
680.081	0.0147848
680.160	0.0147934
680.238	0.0148152
680.316	0.0146616
680.394	0.0147179
680.472	0.0148547
680.550	0.0147190
680.628	0.0147195
680.706	0.0148470
680.785	0.0147695
680.863	0.0146706
680.941	0.0146552
681.019	0.0146632
681.097	0.0147279
681.175	0.0146532
681.253	0.0145911
681.331	0.0147425
681.410	0.0147171
681.488	0.0148506
681.566	0.0146523
681.644	0.0148398
681.722	0.0146677
681.800	0.0149326
681.878	0.0147762
681.956	0.0147664
682.035	0.0147070
682.113	0.0147425
682.191	0.0147460
682.269	0.0147846
682.347	0.0148392
682.425	0.0148074
682.503	0.0148767
682.581	0.0147340
682.660	0.0148315
682.738	0.0148215
682.816	0.0146638
682.894	0.0147838
682.972	0.0148238
683.050	0.0148678
683.128	0.0149403
683.206	0.0147249
683.285	0.0146307
683.363	0.0147980
683.441	0.0148444
683.519	0.0148561
683.597	0.0146794
683.675	0.0148001
683.753	0.0148313
683.831	0.0146938
683.910	0.0147267
683.988	0.0148578
684.066	0.0147635
684.144	0.0147690
684.222	0.0147729
684.300	0.0148812
684.378	0.0147313
684.456	0.0147142
684.535	0.0147451
684.613	0.0149622
684.691	0.0146922
684.769	0.0145610
684.847	0.0147869
684.925	0.0149195
685.003	0.0147419
685.081	0.0145615
685.160	0.0146909
685.238	0.0148727
685.316	0.0147648
685.394	0.0147617
685.472	0.0147309
685.550	0.0147963
685.628	0.0147997
685.706	0.0147679
685.785	0.0147964
685.863	0.0147663
685.941	0.0148394
686.019	0.0147066
686.097	0.0147436
686.175	0.0146854
686.253	0.0147976
686.331	0.0147903
686.410	0.0148320
686.488	0.0148429
686.566	0.0148417
686.644	0.0147942
686.722	0.0147222
686.800	0.0148947
686.878	0.0148722
686.956	0.0148969
687.035	0.0146918
687.113	0.0147629
687.191	0.0148370
687.269	0.0148017
687.347	0.0147544
687.425	0.0148981
687.503	0.0147829
687.581	0.0147272
687.660	0.0147775
687.738	0.0148158
687.816	0.0146507
687.894	0.0147022
687.972	0.0148705
688.050	0.0147523
688.128	0.0147849
688.206	0.0147488
688.285	0.0147948
688.363	0.0147009
688.441	0.0147618
688.519	0.0148347
688.597	0.0147449
688.675	0.0147792
688.753	0.0146665
688.831	0.0147138
688.910	0.0148486
688.988	0.0147201
689.066	0.0149245
689.144	0.0147680
689.222	0.0147279
689.300	0.0147618
689.378	0.0147445
689.456	0.0148643
689.535	0.0147701
689.613	0.0147764
689.691	0.0148045
689.769	0.0147351
689.847	0.0147041
689.925	0.0147296
690.003	0.0146454
690.081	0.0145615
690.160	0.0146363
690.238	0.0147327
690.316	0.0147438
690.394	0.0147306
690.472	0.0146334
690.550	0.0146051
690.628	0.0147854
690.706	0.0146812
690.785	0.0148248
690.863	0.0148841
690.941	0.0147943
691.019	0.0146986
691.097	0.0147215
691.175	0.0148016
691.253	0.0148145
691.331	0.0147462
691.410	0.0146896
691.488	0.0148280
691.566	0.0147647
691.644	0.0147578
691.722	0.0147518
691.800	0.0147937
691.878	0.0148214
691.956	0.0147673
692.035	0.0146857
692.113	0.0147248
692.191	0.0146835
692.269	0.0147594
692.347	0.0147622
692.425	0.0148618
692.503	0.0146659
692.581	0.0148540
692.660	0.0148196
692.738	0.0147630
692.816	0.0148122
692.894	0.0148209
692.972	0.0148076
693.050	0.0147178
693.128	0.0147884
693.206	0.0147274
693.285	0.0148415
693.363	0.0148034
693.441	0.0147665
693.519	0.0147629
693.597	0.0148840
693.675	0.0148222
693.753	0.0147591
693.831	0.0147555
693.910	0.0147242
693.988	0.0147498
694.066	0.0147038
694.144	0.0147795
694.222	0.0147959
694.300	0.0147627
694.378	0.0146428
694.456	0.0147000
694.535	0.0148490
694.613	0.0148307
694.691	0.0148027
694.769	0.0147541
694.847	0.0147231
694.925	0.0148137
695.003	0.0148520
695.081	0.0146939
695.160	0.0146499
695.238	0.0148721
695.316	0.0148519
695.394	0.0146533
695.472	0.0147079
695.550	0.0148154
695.628	0.0146561
695.706	0.0147101
695.785	0.0147121
695.863	0.0147367
695.941	0.0148483
696.019	0.0147357
696.097	0.0147082
696.175	0.0148941
696.253	0.0146492
696.331	0.0147630
696.410	0.0147789
696.488	0.0147000
696.566	0.0147131
696.644	0.0148002
696.722	0.0147970
696.800	0.0147726
696.878	0.0147148
696.956	0.0147163
697.035	0.0146707
697.113	0.0148104
697.191	0.0146596
697.269	0.0145354
697.347	0.0147131
697.425	0.0147164
697.503	0.0146980
697.581	0.0147018
697.660	0.0148169
697.738	0.0147172
697.816	0.0148328
697.894	0.0147777
697.972	0.0147748
698.050	0.0147631
698.128	0.0148342
698.206	0.0147306
698.285	0.0147448
698.363	0.0148357
698.441	0.0147739
698.519	0.0146140
698.597	0.0146954
698.675	0.0148179
698.753	0.0148125
698.831	0.0149253
698.910	0.0147450
698.988	0.0148471
699.066	0.0148534
699.144	0.0146582
699.222	0.0147285
699.300	0.0147105
699.378	0.0147771
699.456	0.0147640
699.535	0.0148293
699.613	0.0147661
699.691	0.0148183
699.769	0.0146758
699.847	0.0147734
699.925	0.0147845
700.003	0.0148815
700.081	0.0145300
700.160	0.0147645
700.238	0.0146886
700.316	0.0147242
700.394	0.0148766
700.472	0.0148129
700.550	0.0146008
700.628	0.0147543
700.706	0.0147476
700.785	0.0147872
700.863	0.0148006
700.941	0.0148976
701.019	0.0147202
701.097	0.0147001
701.175	0.0147318
701.253	0.0147318
701.331	0.0147653
701.410	0.0147381
701.488	0.0148906
701.566	0.0148026
701.644	0.0147327
701.722	0.0148648
701.800	0.0148310
701.878	0.0147702
701.956	0.0148026
702.035	0.0146744
702.113	0.0147054
702.191	0.0148064
702.269	0.0147549
702.347	0.0147636
702.425	0.0148325
702.503	0.0148231
702.581	0.0147926
702.660	0.0147022
702.738	0.0149088
702.816	0.0147900
702.894	0.0148128
702.972	0.0147737
703.050	0.0147554
703.128	0.0147444
703.206	0.0147887
703.285	0.0146978
703.363	0.0146761
703.441	0.0148944
703.519	0.0146694
703.597	0.0146016
703.675	0.0148020
703.753	0.0146354
703.831	0.0147186
703.910	0.0146944
703.988	0.0146378
704.066	0.0145879
704.144	0.0147858
704.222	0.0148069
704.300	0.0148132
704.378	0.0147533
704.456	0.0148023
704.535	0.0147455
704.613	0.0148801
704.691	0.0149450
704.769	0.0150330
704.847	0.0150278
704.925	0.0150740
705.003	0.0150393
705.081	0.0149952
705.160	0.0150034
705.238	0.0150671
705.316	0.0151022
705.394	0.0149520
705.472	0.0150129
705.550	0.0149999
705.628	0.0149676
705.706	0.0149583
705.785	0.0149707
705.863	0.0150571
705.941	0.0150534
706.019	0.0149158
706.097	0.0149709
706.175	0.0149074
706.253	0.0148099
706.331	0.0148297
706.410	0.0148993
706.488	0.0149178
706.566	0.0148321
706.644	0.0149306
706.722	0.0148757
706.800	0.0150062
706.878	0.0149944
706.956	0.0148196
707.035	0.0148240
707.113	0.0149963
707.191	0.0150268
707.269	0.0149284
707.347	0.0150485
707.425	0.0149467
707.503	0.0148497
707.581	0.0149475
707.660	0.0148265
707.738	0.0149493
707.816	0.0148263
707.894	0.0147362
707.972	0.0147815
708.050	0.0144366
708.128	0.0143817
708.206	0.0140826
708.285	0.0139991
708.363	0.0139162
708.441	0.0137011
708.519	0.0133706
708.597	0.0130862
708.675	0.0127591
708.753	0.0121184
708.831	0.0117747
708.910	0.0112384
708.988	0.0109050
709.066	0.0105270
709.144	0.0102158
709.222	0.0101631
709.300	0.0105688
709.378	0.0110455
709.456	0.0117407
709.535	0.0129901
709.613	0.0143888
709.691	0.0157173
709.769	0.0170378
709.847	0.0184525
709.925	0.0195689
710.003	0.0203001
710.081	0.0208899
710.160	0.0210791
710.238	0.0208494
710.316	0.0204667
710.394	0.0199492
710.472	0.0189448
710.550	0.0181779
710.628	0.0169173
710.706	0.0160439
710.785	0.0151746
710.863	0.0145043
710.941	0.0141637
711.019	0.0139471
711.097	0.0140540
711.175	0.0144682
711.253	0.0150880
711.331	0.0159900
711.410	0.0170248
711.488	0.0178873
711.566	0.0188277
711.644	0.0194328
711.722	0.0196902
711.800	0.0197769
711.878	0.0194418
711.956	0.0184798
712.035	0.0170220
712.113	0.0153442
712.191	0.0134681
712.269	0.0110944
712.347	0.00911293
712.425	0.00705582
712.503	0.00551926
712.581	0.00437737
712.660	0.00395660
712.738	0.00404305
712.816	0.00465218
712.894	0.00553581
712.972	0.00681801
713.050	0.00810791
713.128	0.00942650
713.206	0.0106724
713.285	0.0121026
713.363	0.0133930
713.441	0.0145020
713.519	0.0155299
713.597	0.0164067
713.675	0.0174034
713.753	0.0180677
713.831	0.0187730
713.910	0.0194933
713.988	0.0201457
714.066	0.0209880
714.144	0.0217861
714.222	0.0227293
714.300	0.0234529
714.378	0.0241550
714.456	0.0248192
714.535	0.0250809
714.613	0.0250267
714.691	0.0244054
714.769	0.0235435
714.847	0.0223264
714.925	0.0206328
715.003	0.0188650
715.081	0.0168604
715.160	0.0144833
715.238	0.0121279
715.316	0.0101685
715.394	0.00832115
715.472	0.00675270
715.550	0.00553925
715.628	0.00468987
715.706	0.00429359
715.785	0.00429527
715.863	0.00470558
715.941	0.00523994
716.019	0.00620323
716.097	0.00731621
716.175	0.00857758
716.253	0.00964676
716.331	0.0110690
716.410	0.0122426
716.488	0.0136019
716.566	0.0147618
716.644	0.0159476
716.722	0.0166294
716.800	0.0173402
716.878	0.0179897
716.956	0.0183397
717.035	0.0187173
717.113	0.0188646
717.191	0.0189181
717.269	0.0190302
717.347	0.0191624
717.425	0.0193107
717.503	0.0196074
717.581	0.0196756
717.660	0.0198629
717.738	0.0198389
717.816	0.0197120
717.894	0.0196401
717.972	0.0190952
718.050	0.0188548
718.128	0.0184809
718.206	0.0178321
718.285	0.0173667
718.363	0.0165475
718.441	0.0158636
718.519	0.0151722
718.597	0.0143872
718.675	0.0137890
718.753	0.0131892
718.831	0.0126585
718.910	0.0122990
718.988	0.0118037
719.066	0.0116088
719.144	0.0112974
719.222	0.0110831
719.300	0.0110738
719.378	0.0111073
719.456	0.0110410
719.535	0.0110316
719.613	0.0111306
719.691	0.0111406
719.769	0.0110940
719.847	0.0110719
719.925	0.0114361
720.003	0.0113221
720.081	0.0116142
720.160	0.0118327
720.238	0.0119959
720.316	0.0122276
720.394	0.0124892
720.472	0.0125960
720.550	0.0128944
720.628	0.0131673
720.706	0.0134298
720.785	0.0136153
720.863	0.0142302
720.941	0.0145619
721.019	0.0149691
721.097	0.0153905
721.175	0.0161638
721.253	0.0164449
721.331	0.0169780
721.410	0.0174757
721.488	0.0177334
721.566	0.0180141
721.644	0.0182489
721.722	0.0182767
721.800	0.0180315
721.878	0.0182998
721.956	0.0182903
722.035	0.0181071
722.113	0.0181490
722.191	0.0178696
722.269	0.0177808
722.347	0.0177731
722.425	0.0176832
722.503	0.0174434
722.581	0.0174282
722.660	0.0171338
722.738	0.0170530
722.816	0.0170287
722.894	0.0168098
722.972	0.0165578
723.050	0.0161827
723.128	0.0161040
723.206	0.0157721
723.285	0.0154561
723.363	0.0149825
723.441	0.0147625
723.519	0.0143401
723.597	0.0138542
723.675	0.0134791
723.753	0.0130202
723.831	0.0124908
723.910	0.0120744
723.988	0.0117376
724.066	0.0111124
724.144	0.0108688
724.222	0.0106015
724.300	0.0102405
724.378	0.00996521
724.456	0.00983833
724.535	0.00975960
724.613	0.00980682
724.691	0.00989265
724.769	0.0101723
724.847	0.0105766
724.925	0.0108028
725.003	0.0113387
725.081	0.0117642
725.160	0.0123186
725.238	0.0129311
725.316	0.0132983
725.394	0.0140287
725.472	0.0147114
725.550	0.0152348
725.628	0.0156030
725.706	0.0160379
725.785	0.0166247
725.863	0.0169972
725.941	0.0174850
726.019	0.0178890
726.097	0.0183322
726.175	0.0186385
726.253	0.0187964
726.331	0.0189663
726.410	0.0190397
726.488	0.0190285
726.566	0.0190253
726.644	0.0188453
726.722	0.0187950
726.800	0.0184483
726.878	0.0181534
726.956	0.0178410
727.035	0.0175048
727.113	0.0171483
727.191	0.0169872
727.269	0.0166116
727.347	0.0162714
727.425	0.0160430
727.503	0.0154771
727.581	0.0153348
727.660	0.0151100
727.738	0.0148605
727.816	0.0148470
727.894	0.0147742
727.972	0.0146368
728.050	0.0146839
728.128	0.0146768
728.206	0.0148496
728.285	0.0147413
728.363	0.0147329
728.441	0.0147301
728.519	0.0146574
728.597	0.0147099
728.675	0.0145391
728.753	0.0143658
728.831	0.0142207
728.910	0.0138412
728.988	0.0136832
729.066	0.0132386
729.144	0.0127213
729.222	0.0124992
729.300	0.0120689
729.378	0.0117781
729.456	0.0115350
729.535	0.0114973
729.613	0.0115037
729.691	0.0114355
729.769	0.0114465
729.847	0.0114421
729.925	0.0115114
730.003	0.0115811
730.081	0.0117864
730.160	0.0119884
730.238	0.0122856
730.316	0.0125043
730.394	0.0127824
730.472	0.0129743
730.550	0.0131852
730.628	0.0133894
730.706	0.0138857
730.785	0.0139266
730.863	0.0141953
730.941	0.0145628
731.019	0.0147975
731.097	0.0150294
731.175	0.0150576
731.253	0.0151553
731.331	0.0155950
731.410	0.0158198
731.488	0.0159364
731.566	0.0164165
731.644	0.0165035
731.722	0.0168207
731.800	0.0171774
731.878	0.0173112
731.956	0.0175920
732.035	0.0178247
732.113	0.0180962
732.191	0.0182621
732.269	0.0183080
732.347	0.0182901
732.425	0.0181953
732.503	0.0180965
732.581	0.0180431
732.660	0.0178168
732.738	0.0175842
732.816	0.0172001
732.894	0.0167695
732.972	0.0166584
733.050	0.0162799
733.128	0.0159566
733.206	0.0156633
733.285	0.0154597
733.363	0.0151505
733.441	0.0150969
733.519	0.0147234
733.597	0.0147231
733.675	0.0146947
733.753	0.0146253
733.831	0.0146233
733.910	0.0144913
733.988	0.0144092
734.066	0.0143616
734.144	0.0141176
734.222	0.0137946
734.300	0.0137843
734.378	0.0136690
734.456	0.0133710
734.535	0.0130958
734.613	0.0126502
734.691	0.0124197
734.769	0.0121002
734.847	0.0118607
734.925	0.0116386
735.003	0.0114268
735.081	0.0113204
735.160	0.0112271
735.238	0.0113042
735.316	0.0113568
735.394	0.0115331
735.472	0.0119268
735.550	0.0123080
735.628	0.0124841
735.706	0.0128178
735.785	0.0131516
735.863	0.0134443
735.941	0.0138528
736.019	0.0142909
736.097	0.0144374
736.175	0.0146688
736.253	0.0151242
736.331	0.0151009
736.410	0.0152071
736.488	0.0154539
736.566	0.0155795
736.644	0.0155448
736.722	0.0156610
736.800	0.0156392
736.878	0.0156606
736.956	0.0157360
737.035	0.0157905
737.113	0.0158831
737.191	0.0160333
737.269	0.0162091
737.347	0.0162458
737.425	0.0163410
737.503	0.0163017
737.581	0.0164085
737.660	0.0163836
737.738	0.0164611
737.816	0.0164209
737.894	0.0165267
737.972	0.0164340
738.050	0.0163586
738.128	0.0162431
738.206	0.0162289
738.285	0.0161024
738.363	0.0158612
738.441	0.0159698
738.519	0.0157491
738.597	0.0156464
738.675	0.0156879
738.753	0.0157511
738.831	0.0158188
738.910	0.0156002
738.988	0.0155785
739.066	0.0154826
739.144	0.0155011
739.222	0.0153960
739.300	0.0152418
739.378	0.0151600
739.456	0.0150380
739.535	0.0148866
739.613	0.0149377
739.691	0.0149684
739.769	0.0148219
739.847	0.0147913
739.925	0.0147143
740.003	0.0147133
740.081	0.0147182
740.160	0.0145976
740.238	0.0146023
740.316	0.0145456
740.394	0.0143899
740.472	0.0144335
740.550	0.0142709
740.628	0.0142098
740.706	0.0140676
740.785	0.0139252
740.863	0.0136485
740.941	0.0135850
741.019	0.0133151
741.097	0.0131734
741.175	0.0130881
741.253	0.0128586
741.331	0.0127531
741.410	0.0128815
741.488	0.0128571
741.566	0.0127801
741.644	0.0130372
741.722	0.0131689
741.800	0.0131148
741.878	0.0133640
741.956	0.0136597
742.035	0.0135685
742.113	0.0136880
742.191	0.0138297
742.269	0.0137321
742.347	0.0140185
742.425	0.0140075
742.503	0.0141142
742.581	0.0141337
742.660	0.0141499
742.738	0.0141419
742.816	0.0141312
742.894	0.0142785
742.972	0.0142740
743.050	0.0142597
743.128	0.0144444
743.206	0.0145962
743.285	0.0147722
743.363	0.0147530
743.441	0.0148683
743.519	0.0151865
743.597	0.0154954
743.675	0.0155798
743.753	0.0158194
743.831	0.0160617
743.910	0.0160648
743.988	0.0161972
744.066	0.0164341
744.144	0.0166891
744.222	0.0165864
744.300	0.0167086
744.378	0.0169099
744.456	0.0169154
744.535	0.0169525
744.613	0.0169837
744.691	0.0168328
744.769	0.0167537
744.847	0.0166476
744.925	0.0164907
745.003	0.0164402
745.081	0.0163103
745.160	0.0162747
745.238	0.0160377
745.316	0.0159999
745.394	0.0156662
745.472	0.0154892
745.550	0.0155180
745.628	0.0152690
