05/03/2022	20:05:36	Ver.	4.1	UNKNOWN
Optical Delay	660.003261	Delta X		0.078125	Sweeps	1	Scan Rate	0/0
Coordinates	Axis 1	NaN	Axis 2	NaN	Axis 3	NaN	Axis 4	NaN	Axis 5	NaN	Axis 6	0.000000
TX Power	0.000000	RX Power	0.000000

660.003	0.0144633
660.081	0.0145942
660.160	0.0144562
660.238	0.0145960
660.316	0.0144914
660.394	0.0143728
660.472	0.0142473
660.550	0.0145226
660.628	0.0145659
660.706	0.0145036
660.785	0.0144848
660.863	0.0144630
660.941	0.0144199
661.019	0.0144699
661.097	0.0145399
661.175	0.0144794
661.253	0.0145715
661.331	0.0144520
661.410	0.0144919
661.488	0.0144696
661.566	0.0145121
661.644	0.0143807
661.722	0.0143765
661.800	0.0142628
661.878	0.0145530
661.956	0.0143945
662.035	0.0144814
662.113	0.0145129
662.191	0.0143435
662.269	0.0144064
662.347	0.0144411
662.425	0.0144947
662.503	0.0143548
662.581	0.0143593
662.660	0.0145044
662.738	0.0144562
662.816	0.0144186
662.894	0.0143703
662.972	0.0145030
663.050	0.0145255
663.128	0.0144263
663.206	0.0144644
663.285	0.0144812
663.363	0.0144925
663.441	0.0144589
663.519	0.0143914
663.597	0.0144332
663.675	0.0144899
663.753	0.0144461
663.831	0.0144373
663.910	0.0144225
663.988	0.0145905
664.066	0.0144981
664.144	0.0145099
664.222	0.0145176
664.300	0.0145338
664.378	0.0144598
664.456	0.0144723
664.535	0.0144601
664.613	0.0145132
664.691	0.0145008
664.769	0.0146661
664.847	0.0144872
664.925	0.0145099
665.003	0.0144822
665.081	0.0144305
665.160	0.0143616
665.238	0.0144882
665.316	0.0145264
665.394	0.0144204
665.472	0.0144219
665.550	0.0144595
665.628	0.0144193
665.706	0.0143894
665.785	0.0144948
665.863	0.0145091
665.941	0.0144766
666.019	0.0145048
666.097	0.0144599
666.175	0.0145886
666.253	0.0144682
666.331	0.0145010
666.410	0.0144212
666.488	0.0144934
666.566	0.0145351
666.644	0.0145028
666.722	0.0144559
666.800	0.0144453
666.878	0.0145551
666.956	0.0144746
667.035	0.0145312
667.113	0.0144614
667.191	0.0143670
667.269	0.0143581
667.347	0.0145261
667.425	0.0146179
667.503	0.0145277
667.581	0.0144030
667.660	0.0144308
667.738	0.0145971
667.816	0.0143932
667.894	0.0144670
667.972	0.0145293
668.050	0.0144903
668.128	0.0145863
668.206	0.0145627
668.285	0.0144556
668.363	0.0142548
668.441	0.0144310
668.519	0.0145335
668.597	0.0144327
668.675	0.0145109
668.753	0.0144341
668.831	0.0146505
668.910	0.0145274
668.988	0.0144573
669.066	0.0144247
669.144	0.0146078
669.222	0.0145496
669.300	0.0143993
669.378	0.0145099
669.456	0.0146013
669.535	0.0144511
669.613	0.0145303
669.691	0.0144556
669.769	0.0144830
669.847	0.0145625
669.925	0.0144842
670.003	0.0144624
670.081	0.0143992
670.160	0.0144090
670.238	0.0145292
670.316	0.0144764
670.394	0.0143728
670.472	0.0144528
670.550	0.0145609
670.628	0.0145470
670.706	0.0145308
670.785	0.0145509
670.863	0.0145408
670.941	0.0143851
671.019	0.0143188
671.097	0.0145358
671.175	0.0145284
671.253	0.0144496
671.331	0.0145235
671.410	0.0145477
671.488	0.0145477
671.566	0.0144757
671.644	0.0145390
671.722	0.0145128
671.800	0.0145336
671.878	0.0145866
671.956	0.0143691
672.035	0.0143243
672.113	0.0146127
672.191	0.0145609
672.269	0.0144881
672.347	0.0144215
672.425	0.0145859
672.503	0.0144694
672.581	0.0145143
672.660	0.0144609
672.738	0.0142766
672.816	0.0145342
672.894	0.0145194
672.972	0.0144595
673.050	0.0145449
673.128	0.0143885
673.206	0.0144112
673.285	0.0145227
673.363	0.0144808
673.441	0.0145300
673.519	0.0145566
673.597	0.0145125
673.675	0.0145428
673.753	0.0144467
673.831	0.0144476
673.910	0.0144144
673.988	0.0144091
674.066	0.0144701
674.144	0.0145918
674.222	0.0144968
674.300	0.0144503
674.378	0.0144887
674.456	0.0145327
674.535	0.0143283
674.613	0.0144068
674.691	0.0144524
674.769	0.0145676
674.847	0.0145293
674.925	0.0144441
675.003	0.0145597
675.081	0.0145164
675.160	0.0145003
675.238	0.0145570
675.316	0.0144918
675.394	0.0144443
675.472	0.0144991
675.550	0.0144704
675.628	0.0144620
675.706	0.0144049
675.785	0.0143452
675.863	0.0145525
675.941	0.0146073
676.019	0.0145523
676.097	0.0144748
676.175	0.0144720
676.253	0.0145297
676.331	0.0145505
676.410	0.0146054
676.488	0.0145071
676.566	0.0144952
676.644	0.0144705
676.722	0.0144920
676.800	0.0144839
676.878	0.0145099
676.956	0.0145644
677.035	0.0144132
677.113	0.0145329
677.191	0.0144927
677.269	0.0145073
677.347	0.0147384
677.425	0.0145680
677.503	0.0145380
677.581	0.0143974
677.660	0.0144516
677.738	0.0146538
677.816	0.0145542
677.894	0.0143743
677.972	0.0144238
678.050	0.0145140
678.128	0.0144019
678.206	0.0144547
678.285	0.0145186
678.363	0.0145036
678.441	0.0143716
678.519	0.0145326
678.597	0.0145050
678.675	0.0144360
678.753	0.0145653
678.831	0.0145506
678.910	0.0144629
678.988	0.0145113
679.066	0.0145098
679.144	0.0144627
679.222	0.0144559
679.300	0.0144657
679.378	0.0145914
679.456	0.0145675
679.535	0.0145190
679.613	0.0144258
679.691	0.0145159
679.769	0.0145717
679.847	0.0145431
679.925	0.0144664
680.003	0.0145595
680.081	0.0144069
680.160	0.0144105
680.238	0.0143882
680.316	0.0145274
680.394	0.0144470
680.472	0.0144928
680.550	0.0143926
680.628	0.0145605
680.706	0.0144978
680.785	0.0145463
680.863	0.0143717
680.941	0.0144140
681.019	0.0145599
681.097	0.0144783
681.175	0.0143855
681.253	0.0145351
681.331	0.0145053
681.410	0.0143732
681.488	0.0145187
681.566	0.0145278
681.644	0.0144315
681.722	0.0145874
681.800	0.0144704
681.878	0.0144926
681.956	0.0145203
682.035	0.0144595
682.113	0.0145091
682.191	0.0145209
682.269	0.0144729
682.347	0.0143571
682.425	0.0144802
682.503	0.0144871
682.581	0.0143620
682.660	0.0144246
682.738	0.0144607
682.816	0.0144691
682.894	0.0144257
682.972	0.0143922
683.050	0.0144035
683.128	0.0144929
683.206	0.0145025
683.285	0.0143573
683.363	0.0144983
683.441	0.0144806
683.519	0.0144920
683.597	0.0144810
683.675	0.0144356
683.753	0.0145448
683.831	0.0144788
683.910	0.0144197
683.988	0.0145705
684.066	0.0144691
684.144	0.0144256
684.222	0.0144064
684.300	0.0145333
684.378	0.0144627
684.456	0.0145100
684.535	0.0145126
684.613	0.0143790
684.691	0.0145023
684.769	0.0144817
684.847	0.0144598
684.925	0.0142961
685.003	0.0144294
685.081	0.0143728
685.160	0.0145374
685.238	0.0146310
685.316	0.0145621
685.394	0.0144171
685.472	0.0145026
685.550	0.0144257
685.628	0.0144693
685.706	0.0143596
685.785	0.0146433
685.863	0.0144601
685.941	0.0143750
686.019	0.0144238
686.097	0.0144337
686.175	0.0144453
686.253	0.0145255
686.331	0.0144015
686.410	0.0145241
686.488	0.0144468
686.566	0.0143697
686.644	0.0143380
686.722	0.0143632
686.800	0.0145215
686.878	0.0146468
686.956	0.0145811
687.035	0.0143755
687.113	0.0146487
687.191	0.0146143
687.269	0.0145454
687.347	0.0143266
687.425	0.0145675
687.503	0.0145286
687.581	0.0145430
687.660	0.0144604
687.738	0.0145173
687.816	0.0144165
687.894	0.0144260
687.972	0.0144057
688.050	0.0144613
688.128	0.0144164
688.206	0.0145059
688.285	0.0145421
688.363	0.0145310
688.441	0.0145335
688.519	0.0143502
688.597	0.0144708
688.675	0.0146144
688.753	0.0146474
688.831	0.0144524
688.910	0.0143863
688.988	0.0144013
689.066	0.0144012
689.144	0.0144878
689.222	0.0143675
689.300	0.0145911
689.378	0.0144420
689.456	0.0144956
689.535	0.0144408
689.613	0.0145422
689.691	0.0144516
689.769	0.0145295
689.847	0.0145347
689.925	0.0143310
690.003	0.0144997
690.081	0.0144614
690.160	0.0145325
690.238	0.0144254
690.316	0.0144110
690.394	0.0145375
690.472	0.0144201
690.550	0.0144067
690.628	0.0145334
690.706	0.0145532
690.785	0.0146462
690.863	0.0144600
690.941	0.0145295
691.019	0.0145076
691.097	0.0145370
691.175	0.0143983
691.253	0.0145125
691.331	0.0145207
691.410	0.0144214
691.488	0.0144946
691.566	0.0146165
691.644	0.0146066
691.722	0.0143957
691.800	0.0144121
691.878	0.0145076
691.956	0.0145656
692.035	0.0145293
692.113	0.0144737
692.191	0.0144434
692.269	0.0145084
692.347	0.0145261
692.425	0.0144498
692.503	0.0145184
692.581	0.0144775
692.660	0.0144854
692.738	0.0145298
692.816	0.0144196
692.894	0.0144717
692.972	0.0144086
693.050	0.0144421
693.128	0.0145326
693.206	0.0143437
693.285	0.0145753
693.363	0.0145051
693.441	0.0143710
693.519	0.0145592
693.597	0.0144783
693.675	0.0145103
693.753	0.0144942
693.831	0.0145338
693.910	0.0142871
693.988	0.0144698
694.066	0.0144238
694.144	0.0144184
694.222	0.0144441
694.300	0.0143906
694.378	0.0143744
694.456	0.0144702
694.535	0.0144994
694.613	0.0145747
694.691	0.0144427
694.769	0.0144923
694.847	0.0144488
694.925	0.0144437
695.003	0.0144009
695.081	0.0143713
695.160	0.0146228
695.238	0.0145712
695.316	0.0144654
695.394	0.0145080
695.472	0.0143474
695.550	0.0144888
695.628	0.0145323
695.706	0.0145624
695.785	0.0143067
695.863	0.0144992
695.941	0.0145384
696.019	0.0143803
696.097	0.0144471
696.175	0.0145627
696.253	0.0145673
696.331	0.0145055
696.410	0.0145254
696.488	0.0146983
696.566	0.0144910
696.644	0.0144719
696.722	0.0144044
696.800	0.0144971
696.878	0.0145335
696.956	0.0146066
697.035	0.0144184
697.113	0.0143738
697.191	0.0144341
697.269	0.0145288
697.347	0.0145274
697.425	0.0144640
697.503	0.0144541
697.581	0.0146296
697.660	0.0144562
697.738	0.0144518
697.816	0.0144544
697.894	0.0144353
697.972	0.0144090
698.050	0.0144195
698.128	0.0145854
698.206	0.0145016
698.285	0.0144964
698.363	0.0144984
698.441	0.0145115
698.519	0.0144391
698.597	0.0143581
698.675	0.0144968
698.753	0.0144886
698.831	0.0144946
698.910	0.0142930
698.988	0.0144964
699.066	0.0144909
699.144	0.0145422
699.222	0.0144928
699.300	0.0145219
699.378	0.0144585
699.456	0.0144286
699.535	0.0145185
699.613	0.0144655
699.691	0.0144643
699.769	0.0144757
699.847	0.0145370
699.925	0.0144495
700.003	0.0144695
700.081	0.0144727
700.160	0.0145416
700.238	0.0144846
700.316	0.0145143
700.394	0.0143589
700.472	0.0143600
700.550	0.0143687
700.628	0.0144294
700.706	0.0143803
700.785	0.0143980
700.863	0.0144198
700.941	0.0144249
701.019	0.0143843
701.097	0.0143797
701.175	0.0145699
701.253	0.0146095
701.331	0.0144099
701.410	0.0145340
701.488	0.0146479
701.566	0.0144343
701.644	0.0143418
701.722	0.0145332
701.800	0.0144825
701.878	0.0144981
701.956	0.0145537
702.035	0.0144627
702.113	0.0144093
702.191	0.0145093
702.269	0.0146040
702.347	0.0144583
702.425	0.0143757
702.503	0.0143809
702.581	0.0144418
702.660	0.0144796
702.738	0.0143665
702.816	0.0143662
702.894	0.0144298
702.972	0.0145312
703.050	0.0144046
703.128	0.0143999
703.206	0.0143102
703.285	0.0143813
703.363	0.0144170
703.441	0.0144402
703.519	0.0144846
703.597	0.0144180
703.675	0.0145410
703.753	0.0144721
703.831	0.0144837
703.910	0.0145763
703.988	0.0146124
704.066	0.0145948
704.144	0.0146030
704.222	0.0145547
704.300	0.0145020
704.378	0.0146159
704.456	0.0147368
704.535	0.0147286
704.613	0.0146491
704.691	0.0146924
704.769	0.0146377
704.847	0.0145663
704.925	0.0146156
705.003	0.0145557
705.081	0.0147043
705.160	0.0146351
705.238	0.0145994
705.316	0.0145547
705.394	0.0145759
705.472	0.0146063
705.550	0.0144827
705.628	0.0145580
705.706	0.0145997
705.785	0.0145477
705.863	0.0146149
705.941	0.0147105
706.019	0.0148013
706.097	0.0146169
706.175	0.0147246
706.253	0.0147780
706.331	0.0148647
706.410	0.0146334
706.488	0.0148693
706.566	0.0146766
706.644	0.0147993
706.722	0.0149237
706.800	0.0149052
706.878	0.0148856
706.956	0.0147444
707.035	0.0146842
707.113	0.0147917
707.191	0.0146826
707.269	0.0146940
707.347	0.0146955
707.425	0.0146904
707.503	0.0147086
707.581	0.0144048
707.660	0.0144538
707.738	0.0143142
707.816	0.0142802
707.894	0.0142215
707.972	0.0141171
708.050	0.0139545
708.128	0.0137222
708.206	0.0134186
708.285	0.0132354
708.363	0.0129385
708.441	0.0124606
708.519	0.0120549
708.597	0.0116048
708.675	0.0110954
708.753	0.0105164
708.831	0.0100106
708.910	0.00955177
708.988	0.00943382
709.066	0.00928551
709.144	0.00943993
709.222	0.0100405
709.300	0.0108678
709.378	0.0121731
709.456	0.0134887
709.535	0.0150594
709.613	0.0164098
709.691	0.0178634
709.769	0.0191980
709.847	0.0200835
709.925	0.0206801
710.003	0.0209028
710.081	0.0207461
710.160	0.0204736
710.238	0.0196899
710.316	0.0186777
710.394	0.0177608
710.472	0.0168390
710.550	0.0160032
710.628	0.0154348
710.706	0.0146293
710.785	0.0144344
710.863	0.0144401
710.941	0.0146510
711.019	0.0152741
711.097	0.0159241
711.175	0.0166226
711.253	0.0171355
711.331	0.0179159
711.410	0.0185504
711.488	0.0185146
711.566	0.0184969
711.644	0.0181455
711.722	0.0172996
711.800	0.0161765
711.878	0.0149288
711.956	0.0132981
712.035	0.0117512
712.113	0.00995872
712.191	0.00825623
712.269	0.00674400
712.347	0.00538200
712.425	0.00453957
712.503	0.00421654
712.581	0.00448441
712.660	0.00533638
712.738	0.00654823
712.816	0.00806152
712.894	0.00977455
712.972	0.0115454
713.050	0.0131339
713.128	0.0144328
713.206	0.0155825
713.285	0.0163352
713.363	0.0169727
713.441	0.0174055
713.519	0.0174283
713.597	0.0173734
713.675	0.0172147
713.753	0.0170622
713.831	0.0168640
713.910	0.0168787
713.988	0.0170147
714.066	0.0172917
714.144	0.0182034
714.222	0.0190135
714.300	0.0199166
714.378	0.0210248
714.456	0.0220570
714.535	0.0227860
714.613	0.0232929
714.691	0.0233455
714.769	0.0229695
714.847	0.0220466
714.925	0.0208846
715.003	0.0191724
715.081	0.0171696
715.160	0.0149749
715.238	0.0126881
715.316	0.0105695
715.394	0.00856606
715.472	0.00692627
715.550	0.00540520
715.628	0.00446709
715.706	0.00398186
715.785	0.00397163
715.863	0.00451111
715.941	0.00521172
716.019	0.00614716
716.097	0.00745827
716.175	0.00855110
716.253	0.0100475
716.331	0.0113815
716.410	0.0125587
716.488	0.0138215
716.566	0.0149596
716.644	0.0160244
716.722	0.0170261
716.800	0.0176625
716.878	0.0181799
716.956	0.0187067
717.035	0.0189006
717.113	0.0192393
717.191	0.0192278
717.269	0.0193665
717.347	0.0193321
717.425	0.0193941
717.503	0.0193916
717.581	0.0194806
717.660	0.0194331
717.738	0.0194326
717.816	0.0192151
717.894	0.0189034
717.972	0.0185116
718.050	0.0181715
718.128	0.0176138
718.206	0.0170179
718.285	0.0163834
718.363	0.0156306
718.441	0.0147832
718.519	0.0139916
718.597	0.0132059
718.675	0.0124485
718.753	0.0117455
718.831	0.0110863
718.910	0.0105814
718.988	0.0101703
719.066	0.00968201
719.144	0.00960655
719.222	0.00956375
719.300	0.00963188
719.378	0.00986084
719.456	0.0101492
719.535	0.0103135
719.613	0.0105600
719.691	0.0109310
719.769	0.0114442
719.847	0.0116023
719.925	0.0121012
720.003	0.0123605
720.081	0.0126671
720.160	0.0132016
720.238	0.0136723
720.316	0.0138424
720.394	0.0139744
720.472	0.0143231
720.550	0.0147437
720.628	0.0148491
720.706	0.0148118
720.785	0.0148956
720.863	0.0151183
720.941	0.0152199
721.019	0.0152885
721.097	0.0153183
721.175	0.0156160
721.253	0.0158604
721.331	0.0160763
721.410	0.0162959
721.488	0.0164085
721.566	0.0166325
721.644	0.0166653
721.722	0.0168930
721.800	0.0168393
721.878	0.0169324
721.956	0.0166736
722.035	0.0165689
722.113	0.0165270
722.191	0.0166657
722.269	0.0165372
722.347	0.0164458
722.425	0.0165179
722.503	0.0164852
722.581	0.0163161
722.660	0.0163487
722.738	0.0162628
722.816	0.0161304
722.894	0.0158369
722.972	0.0158319
723.050	0.0155780
723.128	0.0153803
723.206	0.0153205
723.285	0.0149403
723.363	0.0147105
723.441	0.0145480
723.519	0.0141798
723.597	0.0138447
723.675	0.0134255
723.753	0.0131534
723.831	0.0124085
723.910	0.0119646
723.988	0.0114215
724.066	0.0110490
724.144	0.0106969
724.222	0.0102026
724.300	0.0100166
724.378	0.00999641
724.456	0.00978020
724.535	0.00990715
724.613	0.00991470
724.691	0.0100034
724.769	0.0103526
724.847	0.0106722
724.925	0.0109003
725.003	0.0114492
725.081	0.0119917
725.160	0.0125268
725.238	0.0132693
725.316	0.0137203
725.394	0.0141452
725.472	0.0145966
725.550	0.0148550
725.628	0.0154316
725.706	0.0158062
725.785	0.0160194
725.863	0.0164102
725.941	0.0168820
726.019	0.0172462
726.097	0.0177274
726.175	0.0181918
726.253	0.0184151
726.331	0.0186800
726.410	0.0188580
726.488	0.0188864
726.566	0.0188140
726.644	0.0187666
726.722	0.0185491
726.800	0.0182361
726.878	0.0178928
726.956	0.0175894
727.035	0.0170543
727.113	0.0166351
727.191	0.0161747
727.269	0.0158356
727.347	0.0153487
727.425	0.0150444
727.503	0.0148421
727.581	0.0147026
727.660	0.0146138
727.738	0.0144009
727.816	0.0143893
727.894	0.0143111
727.972	0.0144917
728.050	0.0145594
728.128	0.0146899
728.206	0.0147201
728.285	0.0147718
728.363	0.0146014
728.441	0.0142497
728.519	0.0141715
728.597	0.0139462
728.675	0.0137926
728.753	0.0135781
728.831	0.0130882
728.910	0.0126188
728.988	0.0121594
729.066	0.0117864
729.144	0.0113995
729.222	0.0111601
729.300	0.0108117
729.378	0.0107780
729.456	0.0105560
729.535	0.0105933
729.613	0.0108009
729.691	0.0110616
729.769	0.0113115
729.847	0.0115595
729.925	0.0119609
730.003	0.0122362
730.081	0.0125423
730.160	0.0127915
730.238	0.0131132
730.316	0.0133617
730.394	0.0137399
730.472	0.0137456
730.550	0.0139239
730.628	0.0141376
730.706	0.0142504
730.785	0.0143913
730.863	0.0146259
730.941	0.0146734
731.019	0.0149849
731.097	0.0149490
731.175	0.0151939
731.253	0.0154719
731.331	0.0158028
731.410	0.0157669
731.488	0.0162420
731.566	0.0162643
731.644	0.0165162
731.722	0.0166316
731.800	0.0168053
731.878	0.0169058
731.956	0.0171049
732.035	0.0172309
732.113	0.0173074
732.191	0.0173381
732.269	0.0172019
732.347	0.0170714
732.425	0.0169470
732.503	0.0165921
732.581	0.0162594
732.660	0.0160918
732.738	0.0156924
732.816	0.0155921
732.894	0.0153102
732.972	0.0152082
733.050	0.0151516
733.128	0.0149469
733.206	0.0148473
733.285	0.0148363
733.363	0.0148209
733.441	0.0147848
733.519	0.0149026
733.597	0.0149889
733.675	0.0149566
733.753	0.0149624
733.831	0.0148969
733.910	0.0150317
733.988	0.0148286
734.066	0.0147577
734.144	0.0145050
734.222	0.0140749
734.300	0.0139320
734.378	0.0136374
734.456	0.0131780
734.535	0.0126185
734.613	0.0123256
734.691	0.0119498
734.769	0.0115462
734.847	0.0112962
734.925	0.0109917
735.003	0.0109834
735.081	0.0109310
735.160	0.0109266
735.238	0.0110361
735.316	0.0113334
735.394	0.0115984
735.472	0.0120192
735.550	0.0125083
735.628	0.0127346
735.706	0.0132095
735.785	0.0134245
735.863	0.0136923
735.941	0.0138424
736.019	0.0140449
736.097	0.0141269
736.175	0.0143047
736.253	0.0142718
736.331	0.0142785
736.410	0.0144103
736.488	0.0144804
736.566	0.0145432
736.644	0.0147192
736.722	0.0148853
736.800	0.0149205
736.878	0.0151613
736.956	0.0152796
737.035	0.0155247
737.113	0.0158105
737.191	0.0159528
737.269	0.0161540
737.347	0.0163088
737.425	0.0164646
737.503	0.0165411
737.581	0.0164874
737.660	0.0166268
737.738	0.0165471
737.816	0.0163485
737.894	0.0163954
737.972	0.0161613
738.050	0.0159688
738.128	0.0158669
738.206	0.0158060
738.285	0.0156244
738.363	0.0155641
738.441	0.0155385
738.519	0.0156279
738.597	0.0155425
738.675	0.0154374
738.753	0.0153873
738.831	0.0155366
738.910	0.0153065
738.988	0.0153563
739.066	0.0152631
739.144	0.0151203
739.222	0.0152743
739.300	0.0150363
739.378	0.0147968
739.456	0.0147425
739.535	0.0146078
739.613	0.0143656
739.691	0.0142168
739.769	0.0139630
739.847	0.0138825
739.925	0.0136646
740.003	0.0137291
740.081	0.0137149
740.160	0.0135524
740.238	0.0136703
740.316	0.0137268
740.394	0.0136228
740.472	0.0135823
740.550	0.0136737
740.628	0.0137511
740.706	0.0135306
740.785	0.0135933
740.863	0.0134504
740.941	0.0133454
741.019	0.0132066
741.097	0.0131071
741.175	0.0130577
741.253	0.0128455
741.331	0.0128568
741.410	0.0129695
741.488	0.0129907
741.566	0.0128989
741.644	0.0131222
741.722	0.0132105
741.800	0.0134362
741.878	0.0133025
741.956	0.0135153
742.035	0.0136096
742.113	0.0136549
742.191	0.0138113
742.269	0.0137823
742.347	0.0137742
742.425	0.0137037
742.503	0.0138128
742.581	0.0138300
742.660	0.0139075
742.738	0.0138821
742.816	0.0138219
742.894	0.0141930
742.972	0.0144004
743.050	0.0143799
743.128	0.0144016
743.206	0.0146049
743.285	0.0147949
743.363	0.0147064
743.441	0.0148797
743.519	0.0151523
743.597	0.0152036
743.675	0.0153733
743.753	0.0154147
743.831	0.0155742
743.910	0.0157793
743.988	0.0157595
744.066	0.0158945
744.144	0.0160064
744.222	0.0161709
744.300	0.0162281
744.378	0.0161371
744.456	0.0161581
744.535	0.0163285
744.613	0.0164557
744.691	0.0162457
744.769	0.0163934
744.847	0.0162945
744.925	0.0161942
745.003	0.0160049
745.081	0.0160529
745.160	0.0157494
745.238	0.0155898
745.316	0.0155155
745.394	0.0154432
745.472	0.0151866
745.550	0.0150590
