05/03/2022	20:06:26	Ver.	4.1	UNKNOWN
Optical Delay	660.003261	Delta X		0.078125	Sweeps	1	Scan Rate	0/0
Coordinates	Axis 1	NaN	Axis 2	NaN	Axis 3	NaN	Axis 4	NaN	Axis 5	NaN	Axis 6	0.000000
TX Power	0.000000	RX Power	0.000000

660.003	0.0143747
660.081	0.0143987
660.160	0.0143882
660.238	0.0143755
660.316	0.0142305
660.394	0.0142333
660.472	0.0143439
660.550	0.0143795
660.628	0.0144309
660.706	0.0143960
660.785	0.0142796
660.863	0.0142270
660.941	0.0144471
661.019	0.0144784
661.097	0.0144215
661.175	0.0142997
661.253	0.0143894
661.331	0.0144509
661.410	0.0142810
661.488	0.0142633
661.566	0.0143300
661.644	0.0142920
661.722	0.0143378
661.800	0.0142717
661.878	0.0142921
661.956	0.0143729
662.035	0.0143742
662.113	0.0143725
662.191	0.0143675
662.269	0.0144170
662.347	0.0143311
662.425	0.0143249
662.503	0.0143870
662.581	0.0143907
662.660	0.0144255
662.738	0.0143623
662.816	0.0145358
662.894	0.0144547
662.972	0.0143774
663.050	0.0142735
663.128	0.0143211
663.206	0.0144353
663.285	0.0144368
663.363	0.0144106
663.441	0.0144034
663.519	0.0144204
663.597	0.0143710
663.675	0.0144468
663.753	0.0143710
663.831	0.0142725
663.910	0.0144571
663.988	0.0143286
664.066	0.0144695
664.144	0.0143535
664.222	0.0143774
664.300	0.0143195
664.378	0.0144221
664.456	0.0144738
664.535	0.0143137
664.613	0.0143996
664.691	0.0143836
664.769	0.0143920
664.847	0.0144416
664.925	0.0143655
665.003	0.0144618
665.081	0.0143900
665.160	0.0144069
665.238	0.0144802
665.316	0.0143211
665.394	0.0143668
665.472	0.0143889
665.550	0.0143311
665.628	0.0142651
665.706	0.0144724
665.785	0.0143872
665.863	0.0143210
665.941	0.0143729
666.019	0.0144421
666.097	0.0143972
666.175	0.0143672
666.253	0.0143724
666.331	0.0142801
666.410	0.0143107
666.488	0.0143144
666.566	0.0142989
666.644	0.0143182
666.722	0.0143237
666.800	0.0142814
666.878	0.0144865
666.956	0.0144614
667.035	0.0144588
667.113	0.0143668
667.191	0.0144107
667.269	0.0144540
667.347	0.0143456
667.425	0.0143460
667.503	0.0143651
667.581	0.0144469
667.660	0.0144769
667.738	0.0144334
667.816	0.0143956
667.894	0.0143396
667.972	0.0143009
668.050	0.0143502
668.128	0.0142518
668.206	0.0142971
668.285	0.0144583
668.363	0.0144321
668.441	0.0144224
668.519	0.0143444
668.597	0.0143832
668.675	0.0143557
668.753	0.0144328
668.831	0.0144041
668.910	0.0143010
668.988	0.0144473
669.066	0.0143588
669.144	0.0143857
669.222	0.0144444
669.300	0.0142784
669.378	0.0143170
669.456	0.0143591
669.535	0.0142378
669.613	0.0145103
669.691	0.0144461
669.769	0.0144974
669.847	0.0142992
669.925	0.0142395
670.003	0.0144486
670.081	0.0144046
670.160	0.0143026
670.238	0.0144422
670.316	0.0142386
670.394	0.0143734
670.472	0.0144875
670.550	0.0143843
670.628	0.0143340
670.706	0.0144527
670.785	0.0144427
670.863	0.0144324
670.941	0.0142553
671.019	0.0143148
671.097	0.0144027
671.175	0.0143259
671.253	0.0143814
671.331	0.0143174
671.410	0.0142518
671.488	0.0144033
671.566	0.0144732
671.644	0.0143635
671.722	0.0143987
671.800	0.0142941
671.878	0.0143182
671.956	0.0144105
672.035	0.0144647
672.113	0.0144217
672.191	0.0144217
672.269	0.0143633
672.347	0.0143826
672.425	0.0143732
672.503	0.0143572
672.581	0.0144102
672.660	0.0143494
672.738	0.0144174
672.816	0.0143889
672.894	0.0144290
672.972	0.0143217
673.050	0.0143796
673.128	0.0143131
673.206	0.0143377
673.285	0.0143401
673.363	0.0143983
673.441	0.0143584
673.519	0.0143637
673.597	0.0143350
673.675	0.0143520
673.753	0.0143798
673.831	0.0143501
673.910	0.0142625
673.988	0.0143190
674.066	0.0143450
674.144	0.0142619
674.222	0.0142854
674.300	0.0144086
674.378	0.0143015
674.456	0.0143587
674.535	0.0143777
674.613	0.0144633
674.691	0.0142570
674.769	0.0143211
674.847	0.0144527
674.925	0.0143449
675.003	0.0142943
675.081	0.0143206
675.160	0.0143298
675.238	0.0143884
675.316	0.0144248
675.394	0.0143024
675.472	0.0143420
675.550	0.0142580
675.628	0.0142416
675.706	0.0142990
675.785	0.0145335
675.863	0.0142442
675.941	0.0142549
676.019	0.0142911
676.097	0.0142870
676.175	0.0143663
676.253	0.0143597
676.331	0.0144104
676.410	0.0142264
676.488	0.0142725
676.566	0.0142553
676.644	0.0142086
676.722	0.0141725
676.800	0.0143420
676.878	0.0144579
676.956	0.0143489
677.035	0.0143820
677.113	0.0142265
677.191	0.0143236
677.269	0.0144398
677.347	0.0141695
677.425	0.0143157
677.503	0.0142334
677.581	0.0143861
677.660	0.0142429
677.738	0.0143319
677.816	0.0143826
677.894	0.0143250
677.972	0.0143128
678.050	0.0143900
678.128	0.0143125
678.206	0.0143130
678.285	0.0142783
678.363	0.0143417
678.441	0.0143635
678.519	0.0143669
678.597	0.0143879
678.675	0.0144098
678.753	0.0143437
678.831	0.0142425
678.910	0.0143401
678.988	0.0144083
679.066	0.0144191
679.144	0.0142921
679.222	0.0142898
679.300	0.0143983
679.378	0.0143435
679.456	0.0142249
679.535	0.0141900
679.613	0.0144386
679.691	0.0143423
679.769	0.0144049
679.847	0.0145242
679.925	0.0143121
680.003	0.0143249
680.081	0.0143239
680.160	0.0143372
680.238	0.0143057
680.316	0.0143847
680.394	0.0143362
680.472	0.0143349
680.550	0.0144215
680.628	0.0143391
680.706	0.0143748
680.785	0.0142369
680.863	0.0144257
680.941	0.0144052
681.019	0.0143557
681.097	0.0143342
681.175	0.0143700
681.253	0.0142919
681.331	0.0142949
681.410	0.0143449
681.488	0.0143269
681.566	0.0143322
681.644	0.0144722
681.722	0.0143817
681.800	0.0143213
681.878	0.0145252
681.956	0.0142969
682.035	0.0142843
682.113	0.0143813
682.191	0.0143675
682.269	0.0143541
682.347	0.0143373
682.425	0.0142961
682.503	0.0144939
682.581	0.0142918
682.660	0.0143726
682.738	0.0144339
682.816	0.0142734
682.894	0.0143709
682.972	0.0144115
683.050	0.0144157
683.128	0.0145002
683.206	0.0144315
683.285	0.0142875
683.363	0.0142867
683.441	0.0143620
683.519	0.0143717
683.597	0.0143168
683.675	0.0143481
683.753	0.0144708
683.831	0.0145029
683.910	0.0144703
683.988	0.0142995
684.066	0.0145165
684.144	0.0145004
684.222	0.0142639
684.300	0.0143426
684.378	0.0143125
684.456	0.0143825
684.535	0.0143903
684.613	0.0142594
684.691	0.0143494
684.769	0.0144327
684.847	0.0142758
684.925	0.0142700
685.003	0.0143377
685.081	0.0143789
685.160	0.0143871
685.238	0.0145061
685.316	0.0143887
685.394	0.0142690
685.472	0.0143300
685.550	0.0144218
685.628	0.0144048
685.706	0.0142433
685.785	0.0143156
685.863	0.0144928
685.941	0.0142681
686.019	0.0142303
686.097	0.0143864
686.175	0.0142687
686.253	0.0141365
686.331	0.0143836
686.410	0.0144489
686.488	0.0143669
686.566	0.0144170
686.644	0.0143508
686.722	0.0143571
686.800	0.0143784
686.878	0.0143672
686.956	0.0142958
687.035	0.0144978
687.113	0.0143652
687.191	0.0142659
687.269	0.0142977
687.347	0.0142735
687.425	0.0143533
687.503	0.0143469
687.581	0.0143831
687.660	0.0143666
687.738	0.0143259
687.816	0.0142171
687.894	0.0143517
687.972	0.0144061
688.050	0.0142816
688.128	0.0143739
688.206	0.0142324
688.285	0.0142835
688.363	0.0144724
688.441	0.0144030
688.519	0.0143362
688.597	0.0141656
688.675	0.0143590
688.753	0.0143100
688.831	0.0143599
688.910	0.0143217
688.988	0.0144021
689.066	0.0144507
689.144	0.0144198
689.222	0.0143642
689.300	0.0143101
689.378	0.0142552
689.456	0.0143777
689.535	0.0144484
689.613	0.0142403
689.691	0.0142142
689.769	0.0144256
689.847	0.0144948
689.925	0.0144328
690.003	0.0143095
690.081	0.0144484
690.160	0.0143562
690.238	0.0143380
690.316	0.0142917
690.394	0.0143653
690.472	0.0142359
690.550	0.0143759
690.628	0.0143609
690.706	0.0143832
690.785	0.0143717
690.863	0.0143698
690.941	0.0143558
691.019	0.0142407
691.097	0.0142776
691.175	0.0143198
691.253	0.0144003
691.331	0.0143668
691.410	0.0144938
691.488	0.0144064
691.566	0.0143446
691.644	0.0144146
691.722	0.0143718
691.800	0.0142480
691.878	0.0144112
691.956	0.0144721
692.035	0.0143647
692.113	0.0144510
692.191	0.0143549
692.269	0.0142490
692.347	0.0142538
692.425	0.0143542
692.503	0.0144234
692.581	0.0143597
692.660	0.0143554
692.738	0.0143454
692.816	0.0144494
692.894	0.0144131
692.972	0.0143317
693.050	0.0144044
693.128	0.0142736
693.206	0.0142688
693.285	0.0143450
693.363	0.0143721
693.441	0.0143752
693.519	0.0143216
693.597	0.0143717
693.675	0.0144256
693.753	0.0143590
693.831	0.0144122
693.910	0.0144208
693.988	0.0143474
694.066	0.0143079
694.144	0.0144357
694.222	0.0143190
694.300	0.0142738
694.378	0.0144039
694.456	0.0142217
694.535	0.0143488
694.613	0.0144280
694.691	0.0142840
694.769	0.0143648
694.847	0.0143913
694.925	0.0143668
695.003	0.0144036
695.081	0.0144157
695.160	0.0144323
695.238	0.0143048
695.316	0.0143697
695.394	0.0143483
695.472	0.0144083
695.550	0.0142978
695.628	0.0143872
695.706	0.0142905
695.785	0.0144735
695.863	0.0143554
695.941	0.0143078
696.019	0.0143205
696.097	0.0143310
696.175	0.0143513
696.253	0.0143890
696.331	0.0143208
696.410	0.0142768
696.488	0.0142648
696.566	0.0142785
696.644	0.0142138
696.722	0.0144745
696.800	0.0143317
696.878	0.0142364
696.956	0.0142273
697.035	0.0145226
697.113	0.0143335
697.191	0.0143045
697.269	0.0143584
697.347	0.0142582
697.425	0.0143890
697.503	0.0143302
697.581	0.0143876
697.660	0.0143198
697.738	0.0144978
697.816	0.0143843
697.894	0.0144678
697.972	0.0142759
698.050	0.0142859
698.128	0.0143893
698.206	0.0144038
698.285	0.0143197
698.363	0.0142796
698.441	0.0143689
698.519	0.0143832
698.597	0.0143339
698.675	0.0143587
698.753	0.0144154
698.831	0.0142944
698.910	0.0143876
698.988	0.0144954
699.066	0.0144139
699.144	0.0144349
699.222	0.0143482
699.300	0.0143209
699.378	0.0143818
699.456	0.0144143
699.535	0.0143391
699.613	0.0141940
699.691	0.0143562
699.769	0.0144908
699.847	0.0142113
699.925	0.0143841
700.003	0.0143291
700.081	0.0143475
700.160	0.0142905
700.238	0.0143688
700.316	0.0142816
700.394	0.0141095
700.472	0.0142389
700.550	0.0143616
700.628	0.0144746
700.706	0.0143709
700.785	0.0142905
700.863	0.0144920
700.941	0.0145164
701.019	0.0143725
701.097	0.0143969
701.175	0.0145588
701.253	0.0144893
701.331	0.0144998
701.410	0.0144158
701.488	0.0144065
701.566	0.0143339
701.644	0.0143839
701.722	0.0144250
701.800	0.0144801
701.878	0.0142704
701.956	0.0140800
702.035	0.0142707
702.113	0.0143345
702.191	0.0142834
702.269	0.0142767
702.347	0.0142916
702.425	0.0142638
702.503	0.0143166
702.581	0.0143694
702.660	0.0143504
702.738	0.0143322
702.816	0.0143404
702.894	0.0144211
702.972	0.0143298
703.050	0.0142780
703.128	0.0142592
703.206	0.0143048
703.285	0.0144795
703.363	0.0144009
703.441	0.0145105
703.519	0.0144614
703.597	0.0144627
703.675	0.0144038
703.753	0.0143489
703.831	0.0145419
703.910	0.0145038
703.988	0.0143259
704.066	0.0144073
704.144	0.0145561
704.222	0.0144691
704.300	0.0143677
704.378	0.0144371
704.456	0.0146217
704.535	0.0144456
704.613	0.0144990
704.691	0.0143955
704.769	0.0144083
704.847	0.0145669
704.925	0.0144482
705.003	0.0143498
705.081	0.0145455
705.160	0.0146156
705.238	0.0144262
705.316	0.0143575
705.394	0.0144403
705.472	0.0144122
705.550	0.0144359
705.628	0.0145217
705.706	0.0145914
705.785	0.0146155
705.863	0.0146189
705.941	0.0147153
706.019	0.0147490
706.097	0.0147822
706.175	0.0146769
706.253	0.0147476
706.331	0.0149765
706.410	0.0146882
706.488	0.0147020
706.566	0.0148647
706.644	0.0147932
706.722	0.0146326
706.800	0.0147733
706.878	0.0147058
706.956	0.0146005
707.035	0.0146899
707.113	0.0146589
707.191	0.0145222
707.269	0.0143932
707.347	0.0142317
707.425	0.0142664
707.503	0.0142096
707.581	0.0139764
707.660	0.0140255
707.738	0.0138335
707.816	0.0136159
707.894	0.0134058
707.972	0.0131422
708.050	0.0130476
708.128	0.0126659
708.206	0.0124438
708.285	0.0119251
708.363	0.0112054
708.441	0.0107447
708.519	0.0102003
708.597	0.00956795
708.675	0.00922218
708.753	0.00886353
708.831	0.00891373
708.910	0.00938049
708.988	0.0101113
709.066	0.0113725
709.144	0.0130134
709.222	0.0145586
709.300	0.0161580
709.378	0.0176972
709.456	0.0187833
709.535	0.0195638
709.613	0.0199932
709.691	0.0199185
709.769	0.0196282
709.847	0.0189188
709.925	0.0182504
710.003	0.0173612
710.081	0.0169112
710.160	0.0163808
710.238	0.0160683
710.316	0.0159819
710.394	0.0158186
710.472	0.0160214
710.550	0.0165679
710.628	0.0166202
710.706	0.0169019
710.785	0.0171951
710.863	0.0175591
710.941	0.0175616
711.019	0.0177417
711.097	0.0177509
711.175	0.0175719
711.253	0.0172330
711.331	0.0167590
711.410	0.0159047
711.488	0.0149068
711.566	0.0137695
711.644	0.0127050
711.722	0.0111661
711.800	0.00998718
711.878	0.00873856
711.956	0.00759521
712.035	0.00639076
712.113	0.00565536
712.191	0.00521248
712.269	0.00540405
712.347	0.00600227
712.425	0.00677803
712.503	0.00830238
712.581	0.00991692
712.660	0.0115678
712.738	0.0134330
712.816	0.0149991
712.894	0.0162447
712.972	0.0173555
713.050	0.0179501
713.128	0.0182249
713.206	0.0181950
713.285	0.0181355
713.363	0.0174077
713.441	0.0169353
713.519	0.0161784
713.597	0.0154256
713.675	0.0149673
713.753	0.0148357
713.831	0.0149243
713.910	0.0152518
713.988	0.0160106
714.066	0.0169156
714.144	0.0181067
714.222	0.0193545
714.300	0.0204043
714.378	0.0214199
714.456	0.0221618
714.535	0.0224492
714.613	0.0221603
714.691	0.0215319
714.769	0.0203757
714.847	0.0188525
714.925	0.0172609
715.003	0.0154251
715.081	0.0132198
715.160	0.0113119
715.238	0.00957146
715.316	0.00783386
715.394	0.00655914
715.472	0.00564629
715.550	0.00538490
715.628	0.00515793
715.706	0.00550873
715.785	0.00609871
715.863	0.00706627
715.941	0.00784439
716.019	0.00905243
716.097	0.0100465
716.175	0.0110930
716.253	0.0121835
716.331	0.0132093
716.410	0.0143048
716.488	0.0150798
716.566	0.0161399
716.644	0.0169058
716.722	0.0174918
716.800	0.0180249
716.878	0.0185193
716.956	0.0188329
717.035	0.0192627
717.113	0.0194028
717.191	0.0195506
717.269	0.0195907
717.347	0.0197011
717.425	0.0197170
717.503	0.0196521
717.581	0.0195241
717.660	0.0193817
717.738	0.0190583
717.816	0.0186063
717.894	0.0179282
717.972	0.0174432
718.050	0.0166262
718.128	0.0159342
718.206	0.0151230
718.285	0.0142238
718.363	0.0133452
718.441	0.0125095
718.519	0.0115827
718.597	0.0106863
718.675	0.0101440
718.753	0.00947090
718.831	0.00910179
718.910	0.00890427
718.988	0.00867935
719.066	0.00868973
719.144	0.00881676
719.222	0.00898621
719.300	0.00940887
719.378	0.00977364
719.456	0.0102314
719.535	0.0109091
719.613	0.0116338
719.691	0.0121899
719.769	0.0127396
719.847	0.0133575
719.925	0.0138329
720.003	0.0142842
720.081	0.0146194
720.160	0.0151337
720.238	0.0153065
720.316	0.0155482
720.394	0.0156212
720.472	0.0157093
720.550	0.0159258
720.628	0.0158736
720.706	0.0158078
720.785	0.0159934
720.863	0.0159352
720.941	0.0158855
721.019	0.0157644
721.097	0.0156469
721.175	0.0157285
721.253	0.0158089
721.331	0.0156274
721.410	0.0155017
721.488	0.0155312
721.566	0.0156831
721.644	0.0156142
721.722	0.0158125
721.800	0.0156712
721.878	0.0157400
721.956	0.0157978
722.035	0.0157929
722.113	0.0157678
722.191	0.0159718
722.269	0.0158106
722.347	0.0158788
722.425	0.0159924
722.503	0.0157626
722.581	0.0156539
722.660	0.0155991
722.738	0.0155670
722.816	0.0152633
722.894	0.0152102
722.972	0.0149227
723.050	0.0148580
723.128	0.0146482
723.206	0.0145718
723.285	0.0143390
723.363	0.0139780
723.441	0.0138511
723.519	0.0134879
723.597	0.0131995
723.675	0.0128912
723.753	0.0123964
723.831	0.0118336
723.910	0.0115935
723.988	0.0113904
724.066	0.0108892
724.144	0.0106809
724.222	0.0106350
724.300	0.0103483
724.378	0.0104622
724.456	0.0105569
724.535	0.0106477
724.613	0.0107866
724.691	0.0111256
724.769	0.0115031
724.847	0.0117709
724.925	0.0123689
725.003	0.0128194
725.081	0.0132989
725.160	0.0137498
725.238	0.0143773
725.316	0.0146053
725.394	0.0150314
725.472	0.0153974
725.550	0.0157269
725.628	0.0158295
725.706	0.0163530
725.785	0.0165863
725.863	0.0169239
725.941	0.0171848
726.019	0.0175623
726.097	0.0179697
726.175	0.0181176
726.253	0.0181976
726.331	0.0182970
726.410	0.0183360
726.488	0.0182406
726.566	0.0178721
726.644	0.0176854
726.722	0.0174126
726.800	0.0169754
726.878	0.0166838
726.956	0.0164159
727.035	0.0161269
727.113	0.0158389
727.191	0.0154229
727.269	0.0153413
727.347	0.0151128
727.425	0.0148379
727.503	0.0147520
727.581	0.0146103
727.660	0.0147522
727.738	0.0146628
727.816	0.0146645
727.894	0.0146333
727.972	0.0146607
728.050	0.0146713
728.128	0.0145938
728.206	0.0143845
728.285	0.0140805
728.363	0.0138309
728.441	0.0135312
728.519	0.0132193
728.597	0.0125925
728.675	0.0121017
728.753	0.0117877
728.831	0.0113236
728.910	0.0109798
728.988	0.0107423
729.066	0.0105717
729.144	0.0104078
729.222	0.0102837
729.300	0.0105294
729.378	0.0108226
729.456	0.0111172
729.535	0.0113114
729.613	0.0115347
729.691	0.0119617
729.769	0.0123207
729.847	0.0127070
729.925	0.0130484
730.003	0.0130817
730.081	0.0135744
730.160	0.0137683
730.238	0.0138670
730.316	0.0141103
730.394	0.0142353
730.472	0.0144441
730.550	0.0145768
730.628	0.0147063
730.706	0.0147071
730.785	0.0148845
730.863	0.0149985
730.941	0.0151708
731.019	0.0153970
731.097	0.0156853
731.175	0.0158765
731.253	0.0161740
731.331	0.0163569
731.410	0.0166563
731.488	0.0168561
731.566	0.0168976
731.644	0.0168406
731.722	0.0169677
731.800	0.0168855
731.878	0.0168958
731.956	0.0169025
732.035	0.0165480
732.113	0.0163371
732.191	0.0159850
732.269	0.0157381
732.347	0.0154968
732.425	0.0152780
732.503	0.0148942
732.581	0.0148635
732.660	0.0145697
732.738	0.0144270
732.816	0.0144254
732.894	0.0145464
732.972	0.0145103
733.050	0.0144816
733.128	0.0143910
733.206	0.0145691
733.285	0.0146915
733.363	0.0148119
733.441	0.0151023
733.519	0.0149970
733.597	0.0151278
733.675	0.0150944
733.753	0.0152141
733.831	0.0150472
733.910	0.0150282
733.988	0.0144415
734.066	0.0140830
734.144	0.0136597
734.222	0.0132661
734.300	0.0128806
734.378	0.0125197
734.456	0.0120823
734.535	0.0117502
734.613	0.0114614
734.691	0.0112009
734.769	0.0113109
734.847	0.0112494
734.925	0.0116063
735.003	0.0116329
735.081	0.0119230
735.160	0.0121758
735.238	0.0126303
735.316	0.0129755
735.394	0.0130721
735.472	0.0131792
735.550	0.0133599
735.628	0.0136234
735.706	0.0137300
735.785	0.0137865
735.863	0.0137025
735.941	0.0136053
736.019	0.0134762
736.097	0.0137172
736.175	0.0137347
736.253	0.0137332
736.331	0.0139305
736.410	0.0140158
736.488	0.0143014
736.566	0.0143860
736.644	0.0145861
736.722	0.0149578
736.800	0.0150416
736.878	0.0153804
736.956	0.0157607
737.035	0.0159542
737.113	0.0161572
737.191	0.0160918
737.269	0.0162825
737.347	0.0163546
737.425	0.0164762
737.503	0.0164058
737.581	0.0162485
737.660	0.0160711
737.738	0.0162096
737.816	0.0160600
737.894	0.0158286
737.972	0.0157229
738.050	0.0156384
738.128	0.0155999
738.206	0.0157256
738.285	0.0155891
738.363	0.0156210
738.441	0.0156567
738.519	0.0156837
738.597	0.0155793
738.675	0.0156779
738.753	0.0155450
738.831	0.0154887
738.910	0.0152500
738.988	0.0151588
739.066	0.0150787
739.144	0.0147772
739.222	0.0144166
739.300	0.0144518
739.378	0.0141797
739.456	0.0138535
739.535	0.0135516
739.613	0.0134474
739.691	0.0133913
739.769	0.0132528
739.847	0.0132227
739.925	0.0132118
740.003	0.0132478
740.081	0.0131244
740.160	0.0133643
740.238	0.0133652
740.316	0.0133070
740.394	0.0133229
740.472	0.0134427
740.550	0.0132755
740.628	0.0131982
740.706	0.0133457
740.785	0.0132845
740.863	0.0131908
740.941	0.0130446
741.019	0.0130463
741.097	0.0131583
741.175	0.0129240
741.253	0.0131628
741.331	0.0132990
741.410	0.0133154
741.488	0.0134022
741.566	0.0134947
741.644	0.0136246
741.722	0.0138443
741.800	0.0138007
741.878	0.0138492
741.956	0.0138396
742.035	0.0138242
742.113	0.0138687
742.191	0.0137351
742.269	0.0137148
742.347	0.0137246
742.425	0.0136911
742.503	0.0136385
742.581	0.0137720
742.660	0.0139156
742.738	0.0140838
742.816	0.0142662
742.894	0.0143712
742.972	0.0145972
743.050	0.0148769
743.128	0.0149049
743.206	0.0151205
743.285	0.0151521
743.363	0.0152753
743.441	0.0153161
743.519	0.0154159
743.597	0.0152785
743.675	0.0154417
743.753	0.0156207
743.831	0.0156427
743.910	0.0155894
743.988	0.0155627
744.066	0.0157634
744.144	0.0157081
744.222	0.0157588
744.300	0.0157903
744.378	0.0159442
744.456	0.0158801
744.535	0.0159658
744.613	0.0157307
744.691	0.0158684
744.769	0.0158569
744.847	0.0157256
744.925	0.0156351
745.003	0.0154931
745.081	0.0152985
745.160	0.0152193
745.238	0.0150352
745.316	0.0148551
745.394	0.0148354
745.472	0.0145019
745.550	0.0143368
