05/03/2022	20:06:56	Ver.	4.1	UNKNOWN
Optical Delay	660.009933	Delta X		0.078125	Sweeps	1	Scan Rate	0/0
Coordinates	Axis 1	NaN	Axis 2	NaN	Axis 3	NaN	Axis 4	NaN	Axis 5	NaN	Axis 6	0.000000
TX Power	0.000000	RX Power	0.000000

660.010	0.0145199
660.088	0.0146048
660.166	0.0142818
660.244	0.0145246
660.322	0.0145069
660.401	0.0145942
660.479	0.0144514
660.557	0.0145246
660.635	0.0144968
660.713	0.0143862
660.791	0.0145240
660.869	0.0145509
660.947	0.0145352
661.026	0.0145277
661.104	0.0144591
661.182	0.0144508
661.260	0.0145358
661.338	0.0144713
661.416	0.0146301
661.494	0.0144608
661.572	0.0144905
661.651	0.0144295
661.729	0.0145715
661.807	0.0145370
661.885	0.0144489
661.963	0.0144225
662.041	0.0143781
662.119	0.0145689
662.197	0.0146021
662.276	0.0144360
662.354	0.0144403
662.432	0.0145490
662.510	0.0146152
662.588	0.0144299
662.666	0.0145736
662.744	0.0145023
662.822	0.0146793
662.901	0.0145699
662.979	0.0144078
663.057	0.0145541
663.135	0.0146020
663.213	0.0144689
663.291	0.0145114
663.369	0.0145504
663.447	0.0145058
663.526	0.0145374
663.604	0.0146864
663.682	0.0145985
663.760	0.0144606
663.838	0.0144606
663.916	0.0145853
663.994	0.0145396
664.072	0.0145995
664.151	0.0145719
664.229	0.0146729
664.307	0.0145151
664.385	0.0144431
664.463	0.0143860
664.541	0.0145474
664.619	0.0146304
664.697	0.0146181
664.776	0.0144287
664.854	0.0145637
664.932	0.0145375
665.010	0.0146603
665.088	0.0145761
665.166	0.0146369
665.244	0.0144223
665.322	0.0144990
665.401	0.0146673
665.479	0.0144267
665.557	0.0144647
665.635	0.0145686
665.713	0.0144598
665.791	0.0145124
665.869	0.0145604
665.947	0.0144878
666.026	0.0144883
666.104	0.0146219
666.182	0.0145785
666.260	0.0145776
666.338	0.0145226
666.416	0.0144371
666.494	0.0145470
666.572	0.0144159
666.651	0.0145290
666.729	0.0144461
666.807	0.0144721
666.885	0.0145220
666.963	0.0145389
667.041	0.0145020
667.119	0.0143951
667.197	0.0145032
667.276	0.0144837
667.354	0.0146770
667.432	0.0145986
667.510	0.0144677
667.588	0.0145457
667.666	0.0146391
667.744	0.0146686
667.822	0.0144552
667.901	0.0146106
667.979	0.0145393
668.057	0.0146535
668.135	0.0145285
668.213	0.0145842
668.291	0.0145133
668.369	0.0146011
668.447	0.0145452
668.526	0.0146084
668.604	0.0145667
668.682	0.0146438
668.760	0.0144924
668.838	0.0143960
668.916	0.0145038
668.994	0.0144424
669.072	0.0143510
669.151	0.0145149
669.229	0.0145285
669.307	0.0145895
669.385	0.0147061
669.463	0.0144703
669.541	0.0144440
669.619	0.0145966
669.697	0.0144358
669.776	0.0145609
669.854	0.0144449
669.932	0.0145167
670.010	0.0145527
670.088	0.0145750
670.166	0.0146088
670.244	0.0144359
670.322	0.0143446
670.401	0.0145924
670.479	0.0145634
670.557	0.0144765
670.635	0.0145312
670.713	0.0144747
670.791	0.0146352
670.869	0.0145654
670.947	0.0146845
671.026	0.0146189
671.104	0.0144425
671.182	0.0145568
671.260	0.0145893
671.338	0.0145463
671.416	0.0145407
671.494	0.0145927
671.572	0.0144275
671.651	0.0145737
671.729	0.0146121
671.807	0.0146008
671.885	0.0143623
671.963	0.0145390
672.041	0.0145338
672.119	0.0144885
672.197	0.0144070
672.276	0.0144799
672.354	0.0144772
672.432	0.0144696
672.510	0.0144724
672.588	0.0146161
672.666	0.0145327
672.744	0.0144967
672.822	0.0143678
672.901	0.0146766
672.979	0.0146210
673.057	0.0144569
673.135	0.0145114
673.213	0.0144589
673.291	0.0144145
673.369	0.0146387
673.447	0.0145544
673.526	0.0144398
673.604	0.0145630
673.682	0.0144981
673.760	0.0145362
673.838	0.0145205
673.916	0.0145124
673.994	0.0146243
674.072	0.0144924
674.151	0.0144803
674.229	0.0146217
674.307	0.0146282
674.385	0.0145098
674.463	0.0144873
674.541	0.0144961
674.619	0.0145966
674.697	0.0146155
674.776	0.0144246
674.854	0.0144909
674.932	0.0144449
675.010	0.0144947
675.088	0.0145850
675.166	0.0145023
675.244	0.0144372
675.322	0.0145911
675.401	0.0144120
675.479	0.0144594
675.557	0.0145695
675.635	0.0144952
675.713	0.0145325
675.791	0.0144695
675.869	0.0145930
675.947	0.0145825
676.026	0.0145596
676.104	0.0145965
676.182	0.0145246
676.260	0.0145264
676.338	0.0145397
676.416	0.0144724
676.494	0.0144707
676.572	0.0144886
676.651	0.0145862
676.729	0.0145186
676.807	0.0144267
676.885	0.0144858
676.963	0.0145984
677.041	0.0145344
677.119	0.0144418
677.197	0.0145280
677.276	0.0145036
677.354	0.0144700
677.432	0.0144598
677.510	0.0145178
677.588	0.0145253
677.666	0.0144337
677.744	0.0145040
677.822	0.0146061
677.901	0.0146759
677.979	0.0144701
678.057	0.0144828
678.135	0.0145148
678.213	0.0144372
678.291	0.0145068
678.369	0.0145634
678.447	0.0145383
678.526	0.0146221
678.604	0.0144395
678.682	0.0144897
678.760	0.0143915
678.838	0.0144925
678.916	0.0144624
678.994	0.0144843
679.072	0.0145164
679.151	0.0144026
679.229	0.0143276
679.307	0.0144712
679.385	0.0145533
679.463	0.0146224
679.541	0.0144730
679.619	0.0144376
679.697	0.0145670
679.776	0.0145679
679.854	0.0144408
679.932	0.0144140
680.010	0.0145026
680.088	0.0146201
680.166	0.0145485
680.244	0.0144667
680.322	0.0144540
680.401	0.0145358
680.479	0.0145362
680.557	0.0144833
680.635	0.0145297
680.713	0.0146307
680.791	0.0144743
680.869	0.0146037
680.947	0.0145864
681.026	0.0146445
681.104	0.0143771
681.182	0.0144508
681.260	0.0145530
681.338	0.0144715
681.416	0.0145441
681.494	0.0144538
681.572	0.0144363
681.651	0.0144407
681.729	0.0144611
681.807	0.0144972
681.885	0.0144574
681.963	0.0145224
682.041	0.0144957
682.119	0.0145492
682.197	0.0146873
682.276	0.0145528
682.354	0.0145774
682.432	0.0145184
682.510	0.0145109
682.588	0.0146088
682.666	0.0144483
682.744	0.0146017
682.822	0.0144511
682.901	0.0145691
682.979	0.0144447
683.057	0.0144839
683.135	0.0144948
683.213	0.0146072
683.291	0.0144827
683.369	0.0145005
683.447	0.0144798
683.526	0.0146240
683.604	0.0144045
683.682	0.0144813
683.760	0.0146116
683.838	0.0144975
683.916	0.0145097
683.994	0.0147054
684.072	0.0144788
684.151	0.0145463
684.229	0.0145924
684.307	0.0146581
684.385	0.0146376
684.463	0.0145370
684.541	0.0144875
684.619	0.0144934
684.697	0.0145263
684.776	0.0146122
684.854	0.0144723
684.932	0.0145701
685.010	0.0145365
685.088	0.0146046
685.166	0.0144057
685.244	0.0144831
685.322	0.0145423
685.401	0.0144923
685.479	0.0145000
685.557	0.0145117
685.635	0.0144610
685.713	0.0144369
685.791	0.0146501
685.869	0.0144554
685.947	0.0144452
686.026	0.0145968
686.104	0.0145794
686.182	0.0145410
686.260	0.0144756
686.338	0.0145570
686.416	0.0145678
686.494	0.0144430
686.572	0.0144807
686.651	0.0145423
686.729	0.0145601
686.807	0.0145536
686.885	0.0146590
686.963	0.0145426
687.041	0.0145813
687.119	0.0145062
687.197	0.0145949
687.276	0.0144490
687.354	0.0144321
687.432	0.0144311
687.510	0.0144931
687.588	0.0146477
687.666	0.0145183
687.744	0.0146158
687.822	0.0145650
687.901	0.0144915
687.979	0.0145383
688.057	0.0145439
688.135	0.0145162
688.213	0.0145356
688.291	0.0144843
688.369	0.0145476
688.447	0.0145254
688.526	0.0145264
688.604	0.0145294
688.682	0.0144777
688.760	0.0144087
688.838	0.0145546
688.916	0.0146832
688.994	0.0144544
689.072	0.0144346
689.151	0.0145116
689.229	0.0145142
689.307	0.0147012
689.385	0.0144392
689.463	0.0147384
689.541	0.0144419
689.619	0.0146049
689.697	0.0145396
689.776	0.0144539
689.854	0.0144502
689.932	0.0145657
690.010	0.0145526
690.088	0.0144989
690.166	0.0145506
690.244	0.0145207
690.322	0.0144574
690.401	0.0145050
690.479	0.0145794
690.557	0.0144975
690.635	0.0144669
690.713	0.0144516
690.791	0.0145411
690.869	0.0145290
690.947	0.0143203
691.026	0.0144476
691.104	0.0145219
691.182	0.0144497
691.260	0.0144572
691.338	0.0144428
691.416	0.0144721
691.494	0.0145045
691.572	0.0145121
691.651	0.0145481
691.729	0.0146238
691.807	0.0145588
691.885	0.0144996
691.963	0.0146395
692.041	0.0146600
692.119	0.0143568
692.197	0.0143836
692.276	0.0146274
692.354	0.0145181
692.432	0.0143999
692.510	0.0143772
692.588	0.0144237
692.666	0.0144980
692.744	0.0144999
692.822	0.0145586
692.901	0.0145447
692.979	0.0145553
693.057	0.0145113
693.135	0.0144866
693.213	0.0146752
693.291	0.0146120
693.369	0.0143852
693.447	0.0145371
693.526	0.0145338
693.604	0.0144411
693.682	0.0145357
693.760	0.0145292
693.838	0.0145177
693.916	0.0144975
693.994	0.0146207
694.072	0.0145835
694.151	0.0145442
694.229	0.0144967
694.307	0.0145380
694.385	0.0145856
694.463	0.0145860
694.541	0.0146299
694.619	0.0144839
694.697	0.0144664
694.776	0.0145426
694.854	0.0145691
694.932	0.0145071
695.010	0.0144760
695.088	0.0146665
695.166	0.0145002
695.244	0.0146002
695.322	0.0146313
695.401	0.0144270
695.479	0.0145316
695.557	0.0145615
695.635	0.0143719
695.713	0.0145236
695.791	0.0144156
695.869	0.0145445
695.947	0.0145197
696.026	0.0144951
696.104	0.0144602
696.182	0.0145428
696.260	0.0145415
696.338	0.0144535
696.416	0.0144352
696.494	0.0145021
696.572	0.0145316
696.651	0.0145206
696.729	0.0144089
696.807	0.0144995
696.885	0.0145245
696.963	0.0145496
697.041	0.0145872
697.119	0.0146069
697.197	0.0146146
697.276	0.0145797
697.354	0.0145009
697.432	0.0144260
697.510	0.0144728
697.588	0.0144492
697.666	0.0144473
697.744	0.0144567
697.822	0.0144693
697.901	0.0144728
697.979	0.0144791
698.057	0.0145238
698.135	0.0145555
698.213	0.0145860
698.291	0.0144141
698.369	0.0144175
698.447	0.0146475
698.526	0.0143878
698.604	0.0144856
698.682	0.0145373
698.760	0.0145183
698.838	0.0145309
698.916	0.0145074
698.994	0.0144868
699.072	0.0145373
699.151	0.0146075
699.229	0.0145410
699.307	0.0145561
699.385	0.0145328
699.463	0.0144650
699.541	0.0144508
699.619	0.0145790
699.697	0.0144238
699.776	0.0144068
699.854	0.0143634
699.932	0.0145154
700.010	0.0143618
700.088	0.0145190
700.166	0.0143938
700.244	0.0144902
700.322	0.0145580
700.401	0.0146393
700.479	0.0145712
700.557	0.0144544
700.635	0.0144962
700.713	0.0145659
700.791	0.0146246
700.869	0.0145192
700.947	0.0146467
701.026	0.0145094
701.104	0.0146570
701.182	0.0146031
701.260	0.0146646
701.338	0.0145986
701.416	0.0145458
701.494	0.0145160
701.572	0.0146204
701.651	0.0146910
701.729	0.0144689
701.807	0.0144669
701.885	0.0144623
701.963	0.0146106
702.041	0.0144266
702.119	0.0145132
702.197	0.0146004
702.276	0.0144963
702.354	0.0146225
702.432	0.0146681
702.510	0.0145155
702.588	0.0145161
702.666	0.0146214
702.744	0.0147101
702.822	0.0145983
702.901	0.0146237
702.979	0.0145939
703.057	0.0145689
703.135	0.0145104
703.213	0.0144271
703.291	0.0144602
703.369	0.0145747
703.447	0.0145054
703.526	0.0145838
703.604	0.0145911
703.682	0.0144864
703.760	0.0145358
703.838	0.0145691
703.916	0.0145975
703.994	0.0145113
704.072	0.0145717
704.151	0.0144657
704.229	0.0145100
704.307	0.0144482
704.385	0.0145166
704.463	0.0145411
704.541	0.0146582
704.619	0.0145348
704.697	0.0144484
704.776	0.0145078
704.854	0.0145253
704.932	0.0146999
705.010	0.0146577
705.088	0.0146507
705.166	0.0148003
705.244	0.0148485
705.322	0.0147229
705.401	0.0147153
705.479	0.0147803
705.557	0.0148801
705.635	0.0148228
705.713	0.0147668
705.791	0.0149076
705.869	0.0148429
705.947	0.0149806
706.026	0.0147906
706.104	0.0149529
706.182	0.0150205
706.260	0.0148997
706.338	0.0149290
706.416	0.0149152
706.494	0.0148479
706.572	0.0150238
706.651	0.0147382
706.729	0.0147496
706.807	0.0147997
706.885	0.0146424
706.963	0.0144519
707.041	0.0146360
707.119	0.0143517
707.197	0.0141093
707.276	0.0141241
707.354	0.0139166
707.432	0.0138920
707.510	0.0137739
707.588	0.0134191
707.666	0.0131605
707.744	0.0128128
707.822	0.0125687
707.901	0.0122647
707.979	0.0117983
708.057	0.0111370
708.135	0.0104518
708.213	0.00982079
708.291	0.00926865
708.369	0.00875587
708.447	0.00873772
708.526	0.00921104
708.604	0.0100541
708.682	0.0116215
708.760	0.0133251
708.838	0.0155338
708.916	0.0174117
708.994	0.0188513
709.072	0.0199287
709.151	0.0202695
709.229	0.0201160
709.307	0.0193704
709.385	0.0183208
709.463	0.0173020
709.541	0.0161842
709.619	0.0151877
709.697	0.0147922
709.776	0.0150156
709.854	0.0155443
709.932	0.0160521
710.010	0.0169645
710.088	0.0180371
710.166	0.0188209
710.244	0.0193983
710.322	0.0196333
710.401	0.0196338
710.479	0.0191245
710.557	0.0188396
710.635	0.0182867
710.713	0.0174258
710.791	0.0168835
710.869	0.0160171
710.947	0.0151489
711.026	0.0142944
711.104	0.0134990
711.182	0.0126454
711.260	0.0116231
711.338	0.0107448
711.416	0.00965370
711.494	0.00870804
711.572	0.00778442
711.651	0.00715256
711.729	0.00681396
711.807	0.00658424
711.885	0.00646202
711.963	0.00726624
712.041	0.00820023
712.119	0.00938683
712.197	0.0110506
712.276	0.0126334
712.354	0.0142523
712.432	0.0156712
712.510	0.0169301
712.588	0.0180083
712.666	0.0186248
712.744	0.0189709
712.822	0.0190431
712.901	0.0186634
712.979	0.0179324
713.057	0.0171342
713.135	0.0161948
713.213	0.0153745
713.291	0.0145699
713.369	0.0140442
713.447	0.0138473
713.526	0.0138145
713.604	0.0143444
713.682	0.0148245
713.760	0.0158490
713.838	0.0170407
713.916	0.0181812
713.994	0.0193656
714.072	0.0203924
714.151	0.0209332
714.229	0.0211956
714.307	0.0212855
714.385	0.0206063
714.463	0.0197398
714.541	0.0184979
714.619	0.0172269
714.697	0.0156702
714.776	0.0140331
714.854	0.0124313
714.932	0.0111454
715.010	0.00952858
715.088	0.00858109
715.166	0.00772095
715.244	0.00738541
715.322	0.00729973
715.401	0.00740883
715.479	0.00769989
715.557	0.00808372
715.635	0.00890175
715.713	0.00964859
715.791	0.0104625
715.869	0.0111890
715.947	0.0118539
716.026	0.0126600
716.104	0.0137052
716.182	0.0144995
716.260	0.0152239
716.338	0.0159502
716.416	0.0165360
716.494	0.0172778
716.572	0.0179356
716.651	0.0183440
716.729	0.0188971
716.807	0.0194225
716.885	0.0195345
716.963	0.0196877
717.041	0.0198802
717.119	0.0200225
717.197	0.0200782
717.276	0.0198885
717.354	0.0197060
717.432	0.0194193
717.510	0.0189639
717.588	0.0186436
717.666	0.0178798
717.744	0.0170638
717.822	0.0160864
717.901	0.0152189
717.979	0.0142575
718.057	0.0133104
718.135	0.0122213
718.213	0.0113006
718.291	0.0105193
718.369	0.00989601
718.447	0.00934029
718.526	0.00905144
718.604	0.00873749
718.682	0.00867645
718.760	0.00866409
718.838	0.00867821
718.916	0.00891785
718.994	0.00930321
719.072	0.00985397
719.151	0.0104342
719.229	0.0110661
719.307	0.0117183
719.385	0.0125553
719.463	0.0132709
719.541	0.0139860
719.619	0.0145646
719.697	0.0150713
719.776	0.0156200
719.854	0.0159598
719.932	0.0162124
720.010	0.0162612
720.088	0.0163638
720.166	0.0166160
720.244	0.0167467
720.322	0.0166563
720.401	0.0165719
720.479	0.0167973
720.557	0.0166840
720.635	0.0165414
720.713	0.0162488
720.791	0.0159026
720.869	0.0156274
720.947	0.0153578
721.026	0.0152271
721.104	0.0148207
721.182	0.0148929
721.260	0.0151064
721.338	0.0149517
721.416	0.0150626
721.494	0.0151761
721.572	0.0152863
721.651	0.0154824
721.729	0.0157346
721.807	0.0155608
721.885	0.0157731
721.963	0.0157291
722.041	0.0157166
722.119	0.0156116
722.197	0.0157404
722.276	0.0155473
722.354	0.0156184
722.432	0.0153487
722.510	0.0152367
722.588	0.0150603
722.666	0.0149253
722.744	0.0146194
722.822	0.0144921
722.901	0.0143900
722.979	0.0144386
723.057	0.0142092
723.135	0.0140887
723.213	0.0139364
723.291	0.0137399
723.369	0.0132546
723.447	0.0130756
723.526	0.0127619
723.604	0.0121957
723.682	0.0119675
723.760	0.0116441
723.838	0.0116891
723.916	0.0114022
723.994	0.0113709
724.072	0.0114038
724.151	0.0114529
724.229	0.0116534
724.307	0.0115879
724.385	0.0117784
724.463	0.0120515
724.541	0.0123315
724.619	0.0127903
724.697	0.0132554
724.776	0.0135828
724.854	0.0141030
724.932	0.0146124
725.010	0.0148925
725.088	0.0150213
725.166	0.0155488
725.244	0.0156313
725.322	0.0158918
725.401	0.0162204
725.479	0.0165543
725.557	0.0167591
725.635	0.0169750
725.713	0.0172535
725.791	0.0174477
725.869	0.0176051
725.947	0.0177192
726.026	0.0178085
726.104	0.0177254
726.182	0.0174982
726.260	0.0173537
726.338	0.0172198
726.416	0.0169496
726.494	0.0168955
726.572	0.0167410
726.651	0.0165999
726.729	0.0163943
726.807	0.0163781
726.885	0.0160741
726.963	0.0158405
727.041	0.0156693
727.119	0.0155196
727.197	0.0153152
727.276	0.0151221
727.354	0.0150279
727.432	0.0150043
727.510	0.0150369
727.588	0.0149496
727.666	0.0149688
727.744	0.0145906
727.822	0.0146062
727.901	0.0144655
727.979	0.0141903
728.057	0.0136333
728.135	0.0134940
728.213	0.0131149
728.291	0.0125311
728.369	0.0122581
728.447	0.0118555
728.526	0.0113873
728.604	0.0111197
728.682	0.0108434
728.760	0.0108491
728.838	0.0106126
728.916	0.0108837
728.994	0.0111034
729.072	0.0113477
729.151	0.0115298
729.229	0.0118014
729.307	0.0124076
729.385	0.0125973
729.463	0.0129018
729.541	0.0132178
729.619	0.0134014
729.697	0.0136715
729.776	0.0137843
729.854	0.0139190
729.932	0.0142332
730.010	0.0142850
730.088	0.0145170
730.166	0.0146030
730.244	0.0148502
730.322	0.0148907
730.401	0.0150130
730.479	0.0150170
730.557	0.0154017
730.635	0.0156884
730.713	0.0158830
730.791	0.0160522
730.869	0.0164912
730.947	0.0166731
731.026	0.0167922
731.104	0.0171628
731.182	0.0171310
731.260	0.0172439
731.338	0.0172635
731.416	0.0170081
731.494	0.0169669
731.572	0.0168259
731.651	0.0165360
731.729	0.0161901
731.807	0.0158834
731.885	0.0156149
731.963	0.0152737
732.041	0.0148653
732.119	0.0146851
732.197	0.0145792
732.276	0.0144024
732.354	0.0144198
732.432	0.0144352
732.510	0.0143538
732.588	0.0142881
732.666	0.0145085
732.744	0.0146553
732.822	0.0147054
732.901	0.0148174
732.979	0.0150350
733.057	0.0151904
733.135	0.0152312
733.213	0.0153144
733.291	0.0153300
733.369	0.0153474
733.447	0.0152767
733.526	0.0151652
733.604	0.0149645
733.682	0.0146497
733.760	0.0142306
733.838	0.0138068
733.916	0.0133253
733.994	0.0129475
734.072	0.0125196
734.151	0.0121329
734.229	0.0121682
734.307	0.0119741
734.385	0.0118886
734.463	0.0120121
734.541	0.0122848
734.619	0.0123464
734.697	0.0127139
734.776	0.0130659
734.854	0.0132957
734.932	0.0135979
735.010	0.0137927
735.088	0.0138716
735.166	0.0138927
735.244	0.0140485
735.322	0.0136400
735.401	0.0137315
735.479	0.0135461
735.557	0.0134082
735.635	0.0133273
735.713	0.0132933
735.791	0.0131769
735.869	0.0132778
735.947	0.0135396
736.026	0.0137259
736.104	0.0139378
736.182	0.0141471
736.260	0.0143812
736.338	0.0145387
736.416	0.0147817
736.494	0.0151757
736.572	0.0155623
736.651	0.0156367
736.729	0.0158681
736.807	0.0160516
736.885	0.0163179
736.963	0.0161653
737.041	0.0162579
737.119	0.0163354
737.197	0.0163024
737.276	0.0161660
737.354	0.0160220
737.432	0.0161201
737.510	0.0159342
737.588	0.0158552
737.666	0.0160398
737.744	0.0160087
737.822	0.0159014
737.901	0.0160451
737.979	0.0160479
738.057	0.0161253
738.135	0.0160157
738.213	0.0161049
738.291	0.0160152
738.369	0.0160226
738.447	0.0159996
738.526	0.0157137
738.604	0.0156908
738.682	0.0155425
738.760	0.0152419
738.838	0.0150535
738.916	0.0147594
738.994	0.0144656
739.072	0.0142788
739.151	0.0138944
739.229	0.0135892
739.307	0.0135365
739.385	0.0134129
739.463	0.0134367
739.541	0.0133179
739.619	0.0133382
739.697	0.0134116
739.776	0.0133138
739.854	0.0133495
739.932	0.0135105
740.010	0.0134810
740.088	0.0135539
740.166	0.0135661
740.244	0.0135423
740.322	0.0134469
740.401	0.0133894
740.479	0.0133992
740.557	0.0132439
740.635	0.0132108
740.713	0.0133255
740.791	0.0133036
740.869	0.0132617
740.947	0.0133572
741.026	0.0134705
741.104	0.0136474
741.182	0.0137795
741.260	0.0139433
741.338	0.0140236
741.416	0.0141456
741.494	0.0141798
741.572	0.0141644
741.651	0.0141753
741.729	0.0140381
741.807	0.0141257
741.885	0.0140137
741.963	0.0140043
742.041	0.0140156
742.119	0.0140327
742.197	0.0140430
742.276	0.0141400
742.354	0.0142170
742.432	0.0142464
742.510	0.0144321
742.588	0.0147318
742.666	0.0151054
742.744	0.0151920
742.822	0.0152175
742.901	0.0154546
742.979	0.0155219
743.057	0.0155914
743.135	0.0155903
743.213	0.0155175
743.291	0.0155037
743.369	0.0154042
743.447	0.0154841
743.526	0.0154336
743.604	0.0155554
743.682	0.0156400
743.760	0.0155094
743.838	0.0154462
743.916	0.0156459
743.994	0.0158244
744.072	0.0157538
744.151	0.0159527
744.229	0.0158961
744.307	0.0158199
744.385	0.0158570
744.463	0.0157658
744.541	0.0156405
744.619	0.0154539
744.697	0.0153983
744.776	0.0152168
744.854	0.0151417
744.932	0.0149232
745.010	0.0147700
745.088	0.0144406
745.166	0.0144240
745.244	0.0143250
745.322	0.0141388
745.401	0.0139286
745.479	0.0139297
745.557	0.0138873
