05/03/2022	20:07:46	Ver.	4.1	UNKNOWN
Optical Delay	660.003261	Delta X		0.078125	Sweeps	1	Scan Rate	0/0
Coordinates	Axis 1	NaN	Axis 2	NaN	Axis 3	NaN	Axis 4	NaN	Axis 5	NaN	Axis 6	0.000000
TX Power	0.000000	RX Power	0.000000

660.003	0.0146357
660.081	0.0145982
660.160	0.0146951
660.238	0.0146673
660.316	0.0144556
660.394	0.0144537
660.472	0.0146449
660.550	0.0146239
660.628	0.0145465
660.706	0.0145293
660.785	0.0145576
660.863	0.0146210
660.941	0.0147129
661.019	0.0145428
661.097	0.0146498
661.175	0.0146935
661.253	0.0146017
661.331	0.0146149
661.410	0.0146706
661.488	0.0147020
661.566	0.0146435
661.644	0.0146278
661.722	0.0146729
661.800	0.0146557
661.878	0.0146393
661.956	0.0146655
662.035	0.0146384
662.113	0.0146867
662.191	0.0147012
662.269	0.0146648
662.347	0.0146061
662.425	0.0146122
662.503	0.0145678
662.581	0.0145875
662.660	0.0146693
662.738	0.0146331
662.816	0.0146278
662.894	0.0144611
662.972	0.0145918
663.050	0.0146249
663.128	0.0147116
663.206	0.0146289
663.285	0.0147057
663.363	0.0146942
663.441	0.0146657
663.519	0.0145584
663.597	0.0146018
663.675	0.0146495
663.753	0.0146539
663.831	0.0145868
663.910	0.0147464
663.988	0.0147135
664.066	0.0146867
664.144	0.0145570
664.222	0.0146555
664.300	0.0146113
664.378	0.0145695
664.456	0.0146878
664.535	0.0146791
664.613	0.0146620
664.691	0.0147142
664.769	0.0146251
664.847	0.0146482
664.925	0.0146402
665.003	0.0145584
665.081	0.0147264
665.160	0.0145448
665.238	0.0146915
665.316	0.0146395
665.394	0.0145558
665.472	0.0147155
665.550	0.0147173
665.628	0.0146365
665.706	0.0146004
665.785	0.0146693
665.863	0.0146593
665.941	0.0146680
666.019	0.0146776
666.097	0.0146596
666.175	0.0146468
666.253	0.0146124
666.331	0.0146525
666.410	0.0145860
666.488	0.0146735
666.566	0.0146635
666.644	0.0146458
666.722	0.0145791
666.800	0.0146177
666.878	0.0144431
666.956	0.0145404
667.035	0.0145766
667.113	0.0146581
667.191	0.0147817
667.269	0.0147076
667.347	0.0145635
667.425	0.0147303
667.503	0.0145744
667.581	0.0145349
667.660	0.0146127
667.738	0.0145977
667.816	0.0145952
667.894	0.0146447
667.972	0.0147451
668.050	0.0146065
668.128	0.0145786
668.206	0.0145522
668.285	0.0145233
668.363	0.0146118
668.441	0.0145449
668.519	0.0146498
668.597	0.0146587
668.675	0.0145415
668.753	0.0145226
668.831	0.0147292
668.910	0.0146222
668.988	0.0147424
669.066	0.0146539
669.144	0.0146346
669.222	0.0146005
669.300	0.0145383
669.378	0.0147130
669.456	0.0145270
669.535	0.0145264
669.613	0.0146549
669.691	0.0146575
669.769	0.0145931
669.847	0.0146458
669.925	0.0145116
670.003	0.0145190
670.081	0.0145509
670.160	0.0144518
670.238	0.0144825
670.316	0.0145078
670.394	0.0147680
670.472	0.0145863
670.550	0.0146431
670.628	0.0146289
670.706	0.0145697
670.785	0.0146957
670.863	0.0146714
670.941	0.0145984
671.019	0.0146537
671.097	0.0145738
671.175	0.0145567
671.253	0.0144916
671.331	0.0144773
671.410	0.0145435
671.488	0.0145636
671.566	0.0146973
671.644	0.0145942
671.722	0.0146511
671.800	0.0146539
671.878	0.0145691
671.956	0.0146438
672.035	0.0145956
672.113	0.0145616
672.191	0.0145578
672.269	0.0146875
672.347	0.0145592
672.425	0.0144789
672.503	0.0146603
672.581	0.0146539
672.660	0.0145833
672.738	0.0145961
672.816	0.0146683
672.894	0.0145277
672.972	0.0146382
673.050	0.0148022
673.128	0.0145837
673.206	0.0146702
673.285	0.0146613
673.363	0.0146555
673.441	0.0148463
673.519	0.0146976
673.597	0.0146654
673.675	0.0146783
673.753	0.0146231
673.831	0.0143967
673.910	0.0146034
673.988	0.0146368
674.066	0.0146761
674.144	0.0145110
674.222	0.0146165
674.300	0.0146750
674.378	0.0146505
674.456	0.0146627
674.535	0.0145667
674.613	0.0145733
674.691	0.0146204
674.769	0.0145952
674.847	0.0145930
674.925	0.0145708
675.003	0.0146761
675.081	0.0146094
675.160	0.0145535
675.238	0.0146033
675.316	0.0146321
675.394	0.0146930
675.472	0.0146507
675.550	0.0145281
675.628	0.0146886
675.706	0.0146918
675.785	0.0146664
675.863	0.0145727
675.941	0.0145787
676.019	0.0146309
676.097	0.0146369
676.175	0.0147088
676.253	0.0144492
676.331	0.0144940
676.410	0.0147562
676.488	0.0146825
676.566	0.0146285
676.644	0.0146957
676.722	0.0146041
676.800	0.0146110
676.878	0.0146087
676.956	0.0145477
677.035	0.0145096
677.113	0.0146795
677.191	0.0145434
677.269	0.0146980
677.347	0.0146300
677.425	0.0146136
677.503	0.0146096
677.581	0.0145073
677.660	0.0145690
677.738	0.0146177
677.816	0.0145715
677.894	0.0146503
677.972	0.0146319
678.050	0.0147072
678.128	0.0147609
678.206	0.0146257
678.285	0.0145963
678.363	0.0144986
678.441	0.0147445
678.519	0.0146945
678.597	0.0145112
678.675	0.0147185
678.753	0.0145678
678.831	0.0145901
678.910	0.0146395
678.988	0.0145407
679.066	0.0145022
679.144	0.0145415
679.222	0.0145616
679.300	0.0146954
679.378	0.0145356
679.456	0.0145663
679.535	0.0147215
679.613	0.0145964
679.691	0.0144349
679.769	0.0146023
679.847	0.0146758
679.925	0.0146387
680.003	0.0146965
680.081	0.0146194
680.160	0.0145528
680.238	0.0146078
680.316	0.0147446
680.394	0.0145427
680.472	0.0146855
680.550	0.0146214
680.628	0.0146049
680.706	0.0146808
680.785	0.0146384
680.863	0.0146633
680.941	0.0146406
681.019	0.0145710
681.097	0.0145728
681.175	0.0146259
681.253	0.0145673
681.331	0.0147509
681.410	0.0146008
681.488	0.0146612
681.566	0.0146651
681.644	0.0144685
681.722	0.0145718
681.800	0.0145479
681.878	0.0145941
681.956	0.0147244
682.035	0.0146623
682.113	0.0147375
682.191	0.0146477
682.269	0.0146627
682.347	0.0146274
682.425	0.0144199
682.503	0.0147240
682.581	0.0147106
682.660	0.0146706
682.738	0.0146523
682.816	0.0146435
682.894	0.0146580
682.972	0.0146364
683.050	0.0147185
683.128	0.0145614
683.206	0.0146680
683.285	0.0145715
683.363	0.0145921
683.441	0.0144356
683.519	0.0145916
683.597	0.0146539
683.675	0.0146296
683.753	0.0146557
683.831	0.0145392
683.910	0.0147301
683.988	0.0146648
684.066	0.0145714
684.144	0.0145232
684.222	0.0146609
684.300	0.0146328
684.378	0.0144842
684.456	0.0146358
684.535	0.0146139
684.613	0.0146996
684.691	0.0145700
684.769	0.0146745
684.847	0.0147077
684.925	0.0146185
685.003	0.0146643
685.081	0.0146002
685.160	0.0146232
685.238	0.0147455
685.316	0.0147550
685.394	0.0145961
685.472	0.0146050
685.550	0.0146500
685.628	0.0146659
685.706	0.0145056
685.785	0.0147092
685.863	0.0146561
685.941	0.0145627
686.019	0.0146248
686.097	0.0146721
686.175	0.0146449
686.253	0.0147179
686.331	0.0146619
686.410	0.0146203
686.488	0.0147768
686.566	0.0147767
686.644	0.0146259
686.722	0.0146344
686.800	0.0146248
686.878	0.0146670
686.956	0.0147314
687.035	0.0147279
687.113	0.0147145
687.191	0.0147033
687.269	0.0147291
687.347	0.0147926
687.425	0.0145809
687.503	0.0145471
687.581	0.0145525
687.660	0.0145969
687.738	0.0146647
687.816	0.0146529
687.894	0.0148003
687.972	0.0147755
688.050	0.0146154
688.128	0.0147348
688.206	0.0147144
688.285	0.0146307
688.363	0.0146638
688.441	0.0146608
688.519	0.0146810
688.597	0.0146458
688.675	0.0146758
688.753	0.0146527
688.831	0.0145530
688.910	0.0146115
688.988	0.0146071
689.066	0.0146366
689.144	0.0146301
689.222	0.0146275
689.300	0.0145604
689.378	0.0145578
689.456	0.0145555
689.535	0.0146158
689.613	0.0146501
689.691	0.0147161
689.769	0.0145451
689.847	0.0145101
689.925	0.0146458
690.003	0.0145625
690.081	0.0147049
690.160	0.0146271
690.238	0.0146700
690.316	0.0147119
690.394	0.0147028
690.472	0.0146093
690.550	0.0146609
690.628	0.0146181
690.706	0.0144682
690.785	0.0146556
690.863	0.0146452
690.941	0.0146799
691.019	0.0146131
691.097	0.0145247
691.175	0.0147061
691.253	0.0146100
691.331	0.0145792
691.410	0.0144546
691.488	0.0145931
691.566	0.0145930
691.644	0.0145225
691.722	0.0145178
691.800	0.0147202
691.878	0.0146233
691.956	0.0146738
692.035	0.0146390
692.113	0.0146749
692.191	0.0144968
692.269	0.0145984
692.347	0.0146165
692.425	0.0146099
692.503	0.0147014
692.581	0.0146906
692.660	0.0145848
692.738	0.0146661
692.816	0.0145039
692.894	0.0145374
692.972	0.0146472
693.050	0.0146564
693.128	0.0145647
693.206	0.0145468
693.285	0.0146883
693.363	0.0145296
693.441	0.0146865
693.519	0.0145627
693.597	0.0147013
693.675	0.0145431
693.753	0.0146761
693.831	0.0146705
693.910	0.0145984
693.988	0.0144808
694.066	0.0145534
694.144	0.0146153
694.222	0.0146897
694.300	0.0146026
694.378	0.0145918
694.456	0.0146839
694.535	0.0147556
694.613	0.0145033
694.691	0.0145006
694.769	0.0146268
694.847	0.0146540
694.925	0.0145029
695.003	0.0145137
695.081	0.0145168
695.160	0.0144768
695.238	0.0145920
695.316	0.0146569
695.394	0.0146205
695.472	0.0145295
695.550	0.0145627
695.628	0.0146964
695.706	0.0146326
695.785	0.0145276
695.863	0.0146734
695.941	0.0145052
696.019	0.0145948
696.097	0.0145850
696.175	0.0145255
696.253	0.0145058
696.331	0.0146938
696.410	0.0147318
696.488	0.0146407
696.566	0.0146452
696.644	0.0146977
696.722	0.0145638
696.800	0.0146030
696.878	0.0146468
696.956	0.0146102
697.035	0.0145696
697.113	0.0145601
697.191	0.0145708
697.269	0.0146284
697.347	0.0145387
697.425	0.0146638
697.503	0.0146194
697.581	0.0145466
697.660	0.0146576
697.738	0.0146238
697.816	0.0145821
697.894	0.0146352
697.972	0.0145593
698.050	0.0145357
698.128	0.0146776
698.206	0.0145721
698.285	0.0147203
698.363	0.0147730
698.441	0.0146684
698.519	0.0145138
698.597	0.0146325
698.675	0.0147272
698.753	0.0147370
698.831	0.0146778
698.910	0.0147068
698.988	0.0145883
699.066	0.0145551
699.144	0.0146156
699.222	0.0145251
699.300	0.0146357
699.378	0.0145692
699.456	0.0145596
699.535	0.0145416
699.613	0.0145100
699.691	0.0147322
699.769	0.0147937
699.847	0.0144773
699.925	0.0145631
700.003	0.0144456
700.081	0.0145728
700.160	0.0146662
700.238	0.0146561
700.316	0.0145664
700.394	0.0145692
700.472	0.0145963
700.550	0.0144662
700.628	0.0145125
700.706	0.0145525
700.785	0.0145709
700.863	0.0146423
700.941	0.0145553
701.019	0.0146351
701.097	0.0145101
701.175	0.0145863
701.253	0.0144762
701.331	0.0144910
701.410	0.0144896
701.488	0.0146411
701.566	0.0145976
701.644	0.0146081
701.722	0.0146049
701.800	0.0146960
701.878	0.0146801
701.956	0.0147482
702.035	0.0146040
702.113	0.0145456
702.191	0.0146487
702.269	0.0145885
702.347	0.0145681
702.425	0.0146423
702.503	0.0146449
702.581	0.0145712
702.660	0.0146545
702.738	0.0145702
702.816	0.0144585
702.894	0.0146603
702.972	0.0146159
703.050	0.0146058
703.128	0.0146477
703.206	0.0145341
703.285	0.0146022
703.363	0.0145784
703.441	0.0145056
703.519	0.0144465
703.597	0.0144659
703.675	0.0144637
703.753	0.0145560
703.831	0.0145037
703.910	0.0146395
703.988	0.0146224
704.066	0.0145090
704.144	0.0144563
704.222	0.0146579
704.300	0.0147692
704.378	0.0145728
704.456	0.0146948
704.535	0.0147855
704.613	0.0147065
704.691	0.0148450
704.769	0.0148846
704.847	0.0150094
704.925	0.0148627
705.003	0.0148542
705.081	0.0149497
705.160	0.0149932
705.238	0.0149018
705.316	0.0149203
705.394	0.0150681
705.472	0.0151079
705.550	0.0149817
705.628	0.0150148
705.706	0.0149931
705.785	0.0150920
705.863	0.0151524
705.941	0.0150873
706.019	0.0152149
706.097	0.0149391
706.175	0.0149249
706.253	0.0149424
706.331	0.0151613
706.410	0.0150596
706.488	0.0148442
706.566	0.0148154
706.644	0.0147996
706.722	0.0146514
706.800	0.0145377
706.878	0.0144857
706.956	0.0144643
707.035	0.0144420
707.113	0.0142567
707.191	0.0141848
707.269	0.0140143
707.347	0.0139001
707.425	0.0137180
707.503	0.0136385
707.581	0.0134364
707.660	0.0132169
707.738	0.0129929
707.816	0.0126653
707.894	0.0120849
707.972	0.0112972
708.050	0.0104339
708.128	0.00948189
708.206	0.00865440
708.285	0.00849754
708.363	0.00867020
708.441	0.00990349
708.519	0.0118987
708.597	0.0146331
708.675	0.0175420
708.753	0.0198036
708.831	0.0213025
708.910	0.0219413
708.988	0.0212326
709.066	0.0194920
709.144	0.0170995
709.222	0.0145164
709.300	0.0121917
709.378	0.0104823
709.456	0.00973434
709.535	0.00985359
709.613	0.0113951
709.691	0.0133168
709.769	0.0161223
709.847	0.0191522
709.925	0.0216951
710.003	0.0238698
710.081	0.0253627
710.160	0.0256796
710.238	0.0250809
710.316	0.0234402
710.394	0.0211784
710.472	0.0186767
710.550	0.0164507
710.628	0.0142216
710.706	0.0125076
710.785	0.0111842
710.863	0.0102764
710.941	0.00955116
711.019	0.00945831
711.097	0.00941879
711.175	0.00935097
711.253	0.00949310
711.331	0.00950562
711.410	0.00934578
711.488	0.00940590
711.566	0.00935951
711.644	0.00940659
711.722	0.00977959
711.800	0.0103632
711.878	0.0111433
711.956	0.0120567
712.035	0.0129429
712.113	0.0143273
712.191	0.0153745
712.269	0.0163714
712.347	0.0173228
712.425	0.0179317
712.503	0.0186037
712.581	0.0188813
712.660	0.0189674
712.738	0.0186934
712.816	0.0182516
712.894	0.0175413
712.972	0.0170759
713.050	0.0162226
713.128	0.0152110
713.206	0.0144537
713.285	0.0139868
713.363	0.0133813
713.441	0.0131747
713.519	0.0133536
713.597	0.0137119
713.675	0.0139857
713.753	0.0145346
713.831	0.0150812
713.910	0.0157294
713.988	0.0159180
714.066	0.0163442
714.144	0.0164451
714.222	0.0167348
714.300	0.0168790
714.378	0.0165475
714.456	0.0166101
714.535	0.0167158
714.613	0.0165128
714.691	0.0162444
714.769	0.0159435
714.847	0.0155036
714.925	0.0150095
715.003	0.0145431
715.081	0.0140745
715.160	0.0135509
715.238	0.0130853
715.316	0.0126524
715.394	0.0120811
715.472	0.0117773
715.550	0.0114612
715.628	0.0113895
715.706	0.0111777
715.785	0.0109140
715.863	0.0111295
715.941	0.0111468
716.019	0.0114335
716.097	0.0118384
716.175	0.0123183
716.253	0.0128764
716.331	0.0134955
716.410	0.0141776
716.488	0.0149239
716.566	0.0157402
716.644	0.0163541
716.722	0.0169702
716.800	0.0177267
716.878	0.0182841
716.956	0.0187696
717.035	0.0193804
717.113	0.0196405
717.191	0.0198332
717.269	0.0198731
717.347	0.0201280
717.425	0.0198814
717.503	0.0195079
717.581	0.0191557
717.660	0.0183590
717.738	0.0173172
717.816	0.0164468
717.894	0.0152517
717.972	0.0141364
718.050	0.0129649
718.128	0.0119711
718.206	0.0111777
718.285	0.0106019
718.363	0.0100222
718.441	0.00979797
718.519	0.00950439
718.597	0.00942863
718.675	0.00931000
718.753	0.00933800
718.831	0.00930717
718.910	0.00955536
718.988	0.0100096
719.066	0.0102999
719.144	0.0109693
719.222	0.0117331
719.300	0.0125931
719.378	0.0132616
719.456	0.0140025
719.535	0.0144557
719.613	0.0150309
719.691	0.0155432
719.769	0.0159775
719.847	0.0160887
719.925	0.0165263
720.003	0.0168842
720.081	0.0171904
720.160	0.0172818
720.238	0.0176252
720.316	0.0178599
720.394	0.0179205
720.472	0.0176194
720.550	0.0174537
720.628	0.0171483
720.706	0.0166588
720.785	0.0160287
720.863	0.0153764
720.941	0.0149207
721.019	0.0147609
721.097	0.0144289
721.175	0.0143132
721.253	0.0143221
721.331	0.0142725
721.410	0.0142581
721.488	0.0142428
721.566	0.0143073
721.644	0.0144862
721.722	0.0144897
721.800	0.0145886
721.878	0.0147349
721.956	0.0148751
722.035	0.0151142
722.113	0.0149968
722.191	0.0150114
722.269	0.0149358
722.347	0.0146925
722.425	0.0144965
722.503	0.0144816
722.581	0.0141976
722.660	0.0139558
722.738	0.0139544
722.816	0.0141586
722.894	0.0140786
722.972	0.0141662
723.050	0.0141698
723.128	0.0139682
723.206	0.0141070
723.285	0.0140688
723.363	0.0138860
723.441	0.0138383
723.519	0.0136494
723.597	0.0137446
723.675	0.0138712
723.753	0.0138781
723.831	0.0141664
723.910	0.0140566
723.988	0.0141144
724.066	0.0140831
724.144	0.0138963
724.222	0.0137305
724.300	0.0133917
724.378	0.0131936
724.456	0.0129091
724.535	0.0130956
724.613	0.0130392
724.691	0.0134177
724.769	0.0136307
724.847	0.0137824
724.925	0.0138478
725.003	0.0141983
725.081	0.0142567
725.160	0.0146777
725.238	0.0150831
725.316	0.0155683
725.394	0.0157468
725.472	0.0160711
725.550	0.0163992
725.628	0.0161645
725.706	0.0162196
725.785	0.0161159
725.863	0.0159113
725.941	0.0156142
726.019	0.0154308
726.097	0.0153052
726.175	0.0152583
726.253	0.0154102
726.331	0.0157360
726.410	0.0161961
726.488	0.0164087
726.566	0.0168415
726.644	0.0169768
726.722	0.0172777
726.800	0.0172441
726.878	0.0171194
726.956	0.0170139
727.035	0.0168293
727.113	0.0168444
727.191	0.0165596
727.269	0.0165224
727.347	0.0164111
727.425	0.0159879
727.503	0.0157803
727.581	0.0155826
727.660	0.0151389
727.738	0.0146222
727.816	0.0141645
727.894	0.0137246
727.972	0.0132484
728.050	0.0130481
728.128	0.0127295
728.206	0.0124429
728.285	0.0122456
728.363	0.0121231
728.441	0.0120554
728.519	0.0120780
728.597	0.0120648
728.675	0.0120764
728.753	0.0121400
728.831	0.0123023
728.910	0.0126134
728.988	0.0128066
729.066	0.0128073
729.144	0.0129882
729.222	0.0130120
729.300	0.0129996
729.378	0.0130546
729.456	0.0131075
729.535	0.0132475
729.613	0.0131991
729.691	0.0131322
729.769	0.0131248
729.847	0.0131153
729.925	0.0133093
730.003	0.0133511
730.081	0.0135392
730.160	0.0137859
730.238	0.0139511
730.316	0.0145037
730.394	0.0149332
730.472	0.0152188
730.550	0.0155969
730.628	0.0160096
730.706	0.0164404
730.785	0.0168909
730.863	0.0169646
730.941	0.0171304
731.019	0.0173033
731.097	0.0174000
731.175	0.0173077
731.253	0.0171426
731.331	0.0168722
731.410	0.0166825
731.488	0.0163889
731.566	0.0161062
731.644	0.0159319
731.722	0.0156314
731.800	0.0154701
731.878	0.0153215
731.956	0.0150194
732.035	0.0148225
732.113	0.0148135
732.191	0.0146452
732.269	0.0145592
732.347	0.0144726
732.425	0.0145208
732.503	0.0145621
732.581	0.0147086
732.660	0.0146925
732.738	0.0147173
732.816	0.0148180
732.894	0.0149213
732.972	0.0149007
733.050	0.0149885
733.128	0.0149209
733.206	0.0148441
733.285	0.0148067
733.363	0.0146735
733.441	0.0145385
733.519	0.0142646
733.597	0.0139270
733.675	0.0134798
733.753	0.0131107
733.831	0.0128701
733.910	0.0127229
733.988	0.0125907
734.066	0.0125848
734.144	0.0126926
734.222	0.0129804
734.300	0.0131871
734.378	0.0134014
734.456	0.0138564
734.535	0.0141933
734.613	0.0144694
734.691	0.0147256
734.769	0.0149801
734.847	0.0149844
734.925	0.0147054
735.003	0.0146696
735.081	0.0144839
735.160	0.0141870
735.238	0.0139445
735.316	0.0135458
735.394	0.0133788
735.472	0.0132124
735.550	0.0130284
735.628	0.0130402
735.706	0.0131282
735.785	0.0132764
735.863	0.0135606
735.941	0.0136612
736.019	0.0137599
736.097	0.0140143
736.175	0.0143193
736.253	0.0145215
736.331	0.0147456
736.410	0.0149472
736.488	0.0151601
736.566	0.0156159
736.644	0.0158179
736.722	0.0159523
736.800	0.0159271
736.878	0.0159772
736.956	0.0160476
737.035	0.0159216
737.113	0.0157263
737.191	0.0157188
737.269	0.0155689
737.347	0.0153993
737.425	0.0154066
737.503	0.0155013
737.581	0.0156025
737.660	0.0155691
737.738	0.0157585
737.816	0.0156528
737.894	0.0157402
737.972	0.0157304
738.050	0.0160390
738.128	0.0161411
738.206	0.0161886
738.285	0.0162317
738.363	0.0162313
738.441	0.0162179
738.519	0.0162135
738.597	0.0159190
738.675	0.0159058
738.753	0.0154906
738.831	0.0153268
738.910	0.0151534
738.988	0.0147039
739.066	0.0146250
739.144	0.0142298
739.222	0.0142533
739.300	0.0141467
739.378	0.0139389
739.456	0.0139134
739.535	0.0140923
739.613	0.0139471
739.691	0.0139419
739.769	0.0139922
739.847	0.0138459
739.925	0.0137084
740.003	0.0135772
740.081	0.0136192
740.160	0.0135207
740.238	0.0133093
740.316	0.0133405
740.394	0.0134608
740.472	0.0134487
740.550	0.0135033
740.628	0.0135004
740.706	0.0134256
740.785	0.0135470
740.863	0.0137101
740.941	0.0139271
741.019	0.0139515
741.097	0.0141512
741.175	0.0142248
741.253	0.0142966
741.331	0.0141399
741.410	0.0140708
741.488	0.0140335
741.566	0.0138810
741.644	0.0138494
741.722	0.0137036
741.800	0.0135165
741.878	0.0134289
741.956	0.0135639
742.035	0.0135875
742.113	0.0137682
742.191	0.0138032
742.269	0.0142100
742.347	0.0144359
742.425	0.0146991
742.503	0.0149963
742.581	0.0152309
742.660	0.0155193
742.738	0.0155213
742.816	0.0156153
742.894	0.0157774
742.972	0.0158185
743.050	0.0158598
743.128	0.0159116
743.206	0.0157419
743.285	0.0156688
743.363	0.0155432
743.441	0.0154977
743.519	0.0153876
743.597	0.0152413
743.675	0.0151752
743.753	0.0152250
743.831	0.0154142
743.910	0.0152289
743.988	0.0154792
744.066	0.0154584
744.144	0.0154989
744.222	0.0155344
744.300	0.0153220
744.378	0.0153275
744.456	0.0153894
744.535	0.0151446
744.613	0.0150470
744.691	0.0149004
744.769	0.0147114
744.847	0.0145467
744.925	0.0144679
745.003	0.0144026
745.081	0.0145385
745.160	0.0142248
745.238	0.0143145
745.316	0.0143999
745.394	0.0144950
745.472	0.0144041
745.550	0.0143629
745.628	0.0146334
