05/03/2022	19:55:05	Ver.	4.1	UNKNOWN
Optical Delay	660.003261	Delta X		0.078125	Sweeps	1	Scan Rate	0/0
Coordinates	Axis 1	NaN	Axis 2	NaN	Axis 3	NaN	Axis 4	NaN	Axis 5	NaN	Axis 6	0.000000
TX Power	0.000000	RX Power	0.000000

660.003	0.0142699
660.081	0.0141669
660.160	0.0142195
660.238	0.0142672
660.316	0.0142289
660.394	0.0142599
660.472	0.0142518
660.550	0.0143141
660.628	0.0142799
660.706	0.0141946
660.785	0.0143858
660.863	0.0142621
660.941	0.0142663
661.019	0.0143334
661.097	0.0143433
661.175	0.0142190
661.253	0.0142469
661.331	0.0141846
661.410	0.0142455
661.488	0.0140837
661.566	0.0143235
661.644	0.0142955
661.722	0.0141153
661.800	0.0142860
661.878	0.0141538
661.956	0.0142754
662.035	0.0142296
662.113	0.0143423
662.191	0.0143646
662.269	0.0142570
662.347	0.0141872
662.425	0.0142580
662.503	0.0143331
662.581	0.0142589
662.660	0.0144073
662.738	0.0142830
662.816	0.0142760
662.894	0.0142563
662.972	0.0142837
663.050	0.0141763
663.128	0.0142236
663.206	0.0142348
663.285	0.0143819
663.363	0.0143538
663.441	0.0141686
663.519	0.0142390
663.597	0.0142593
663.675	0.0142989
663.753	0.0142229
663.831	0.0142278
663.910	0.0143225
663.988	0.0142243
664.066	0.0142823
664.144	0.0142228
664.222	0.0142206
664.300	0.0142772
664.378	0.0142917
664.456	0.0142065
664.535	0.0141649
664.613	0.0142393
664.691	0.0142630
664.769	0.0143095
664.847	0.0142120
664.925	0.0141283
665.003	0.0143423
665.081	0.0141871
665.160	0.0142759
665.238	0.0143986
665.316	0.0143364
665.394	0.0142406
665.472	0.0142260
665.550	0.0142719
665.628	0.0143874
665.706	0.0142403
665.785	0.0142921
665.863	0.0142418
665.941	0.0141481
666.019	0.0142529
666.097	0.0143314
666.175	0.0143443
666.253	0.0142582
666.331	0.0142712
666.410	0.0143338
666.488	0.0142344
666.566	0.0142517
666.644	0.0143484
666.722	0.0143197
666.800	0.0143507
666.878	0.0142925
666.956	0.0141511
667.035	0.0141993
667.113	0.0143404
667.191	0.0143084
667.269	0.0142641
667.347	0.0141822
667.425	0.0140520
667.503	0.0141889
667.581	0.0143129
667.660	0.0141731
667.738	0.0143535
667.816	0.0142369
667.894	0.0142302
667.972	0.0143885
668.050	0.0143615
668.128	0.0141788
668.206	0.0141862
668.285	0.0142297
668.363	0.0143570
668.441	0.0142097
668.519	0.0143205
668.597	0.0142322
668.675	0.0141031
668.753	0.0143031
668.831	0.0142746
668.910	0.0142472
668.988	0.0141800
669.066	0.0140865
669.144	0.0141798
669.222	0.0143797
669.300	0.0141833
669.378	0.0142285
669.456	0.0142516
669.535	0.0141828
669.613	0.0142742
669.691	0.0142200
669.769	0.0142160
669.847	0.0142857
669.925	0.0141330
670.003	0.0142249
670.081	0.0142185
670.160	0.0143208
670.238	0.0141932
670.316	0.0142097
670.394	0.0142911
670.472	0.0141828
670.550	0.0143301
670.628	0.0143244
670.706	0.0142226
670.785	0.0143372
670.863	0.0142068
670.941	0.0143510
671.019	0.0142928
671.097	0.0142051
671.175	0.0142173
671.253	0.0142956
671.331	0.0143359
671.410	0.0142863
671.488	0.0141753
671.566	0.0142955
671.644	0.0141422
671.722	0.0141889
671.800	0.0142327
671.878	0.0142916
671.956	0.0143703
672.035	0.0142400
672.113	0.0141505
672.191	0.0143158
672.269	0.0142957
672.347	0.0142574
672.425	0.0142442
672.503	0.0142449
672.581	0.0142478
672.660	0.0141581
672.738	0.0143287
672.816	0.0142996
672.894	0.0144135
672.972	0.0143166
673.050	0.0143085
673.128	0.0143433
673.206	0.0142651
673.285	0.0143568
673.363	0.0143282
673.441	0.0142383
673.519	0.0142450
673.597	0.0143285
673.675	0.0143351
673.753	0.0142247
673.831	0.0143011
673.910	0.0141415
673.988	0.0142286
674.066	0.0142855
674.144	0.0144548
674.222	0.0142529
674.300	0.0142680
674.378	0.0141782
674.456	0.0143802
674.535	0.0141933
674.613	0.0141427
674.691	0.0142831
674.769	0.0143116
674.847	0.0142090
674.925	0.0142548
675.003	0.0142188
675.081	0.0142422
675.160	0.0142885
675.238	0.0142449
675.316	0.0143299
675.394	0.0143450
675.472	0.0141892
675.550	0.0142072
675.628	0.0142004
675.706	0.0143452
675.785	0.0141451
675.863	0.0142388
675.941	0.0143612
676.019	0.0142564
676.097	0.0142612
676.175	0.0141685
676.253	0.0142200
676.331	0.0142790
676.410	0.0142251
676.488	0.0141964
676.566	0.0142024
676.644	0.0141679
676.722	0.0143710
676.800	0.0142214
676.878	0.0143021
676.956	0.0143032
677.035	0.0142954
677.113	0.0141565
677.191	0.0143151
677.269	0.0144513
677.347	0.0141325
677.425	0.0141628
677.503	0.0142173
677.581	0.0142009
677.660	0.0142924
677.738	0.0142155
677.816	0.0143356
677.894	0.0143026
677.972	0.0142711
678.050	0.0141253
678.128	0.0143534
678.206	0.0141663
678.285	0.0142075
678.363	0.0143829
678.441	0.0142678
678.519	0.0141152
678.597	0.0141724
678.675	0.0142513
678.753	0.0142766
678.831	0.0143047
678.910	0.0143067
678.988	0.0141870
679.066	0.0142066
679.144	0.0141806
679.222	0.0143961
679.300	0.0142502
679.378	0.0142277
679.456	0.0142391
679.535	0.0142138
679.613	0.0142657
679.691	0.0142168
679.769	0.0142339
679.847	0.0143517
679.925	0.0142281
680.003	0.0143335
680.081	0.0143267
680.160	0.0142506
680.238	0.0142651
680.316	0.0143013
680.394	0.0143294
680.472	0.0141967
680.550	0.0143388
680.628	0.0142577
680.706	0.0143325
680.785	0.0141085
680.863	0.0141117
680.941	0.0142616
681.019	0.0141843
681.097	0.0143026
681.175	0.0144125
681.253	0.0141653
681.331	0.0142516
681.410	0.0142920
681.488	0.0142847
681.566	0.0142999
681.644	0.0142458
681.722	0.0142338
681.800	0.0140108
681.878	0.0142808
681.956	0.0143273
682.035	0.0142548
682.113	0.0142699
682.191	0.0141056
682.269	0.0141319
682.347	0.0142780
682.425	0.0142915
682.503	0.0142287
682.581	0.0142068
682.660	0.0142284
682.738	0.0142659
682.816	0.0142516
682.894	0.0142065
682.972	0.0142807
683.050	0.0141015
683.128	0.0142590
683.206	0.0143029
683.285	0.0142543
683.363	0.0141872
683.441	0.0143108
683.519	0.0143096
683.597	0.0141732
683.675	0.0142266
683.753	0.0142682
683.831	0.0142155
683.910	0.0141323
683.988	0.0143050
684.066	0.0142114
684.144	0.0143455
684.222	0.0142716
684.300	0.0141291
684.378	0.0142456
684.456	0.0143784
684.535	0.0142467
684.613	0.0142622
684.691	0.0141611
684.769	0.0143102
684.847	0.0142814
684.925	0.0141953
685.003	0.0141252
685.081	0.0141803
685.160	0.0142916
685.238	0.0140759
685.316	0.0142082
685.394	0.0140976
685.472	0.0141914
685.550	0.0141900
685.628	0.0142695
685.706	0.0142763
685.785	0.0142817
685.863	0.0141876
685.941	0.0142294
686.019	0.0142322
686.097	0.0141257
686.175	0.0143126
686.253	0.0142422
686.331	0.0141232
686.410	0.0142796
686.488	0.0142628
686.566	0.0143321
686.644	0.0141389
686.722	0.0142931
686.800	0.0142714
686.878	0.0141972
686.956	0.0142171
687.035	0.0141266
687.113	0.0142461
687.191	0.0142817
687.269	0.0142491
687.347	0.0142459
687.425	0.0142574
687.503	0.0142072
687.581	0.0142439
687.660	0.0141956
687.738	0.0141924
687.816	0.0141827
687.894	0.0142281
687.972	0.0142703
688.050	0.0143991
688.128	0.0142383
688.206	0.0142092
688.285	0.0143083
688.363	0.0142435
688.441	0.0141033
688.519	0.0141635
688.597	0.0142250
688.675	0.0142555
688.753	0.0140819
688.831	0.0142342
688.910	0.0142170
688.988	0.0141570
689.066	0.0142815
689.144	0.0142836
689.222	0.0141605
689.300	0.0142351
689.378	0.0143545
689.456	0.0144028
689.535	0.0141917
689.613	0.0141591
689.691	0.0143022
689.769	0.0143080
689.847	0.0143303
689.925	0.0142155
690.003	0.0141618
690.081	0.0142546
690.160	0.0143833
690.238	0.0143611
690.316	0.0141076
690.394	0.0142913
690.472	0.0143027
690.550	0.0143218
690.628	0.0143301
690.706	0.0142321
690.785	0.0142824
690.863	0.0142345
690.941	0.0143549
691.019	0.0143044
691.097	0.0142355
691.175	0.0143905
691.253	0.0143562
691.331	0.0142381
691.410	0.0142708
691.488	0.0144641
691.566	0.0142719
691.644	0.0143172
691.722	0.0142166
691.800	0.0144978
691.878	0.0142973
691.956	0.0142251
692.035	0.0143097
692.113	0.0142939
692.191	0.0142645
692.269	0.0143654
692.347	0.0141608
692.425	0.0141380
692.503	0.0143755
692.581	0.0143425
692.660	0.0142767
692.738	0.0141362
692.816	0.0142062
692.894	0.0143897
692.972	0.0143687
693.050	0.0143355
693.128	0.0141067
693.206	0.0142550
693.285	0.0141760
693.363	0.0142123
693.441	0.0142471
693.519	0.0141620
693.597	0.0141166
693.675	0.0142988
693.753	0.0143815
693.831	0.0140868
693.910	0.0142381
693.988	0.0142262
694.066	0.0142300
694.144	0.0142117
694.222	0.0142852
694.300	0.0141207
694.378	0.0142125
694.456	0.0141032
694.535	0.0140903
694.613	0.0143557
694.691	0.0143264
694.769	0.0141841
694.847	0.0142506
694.925	0.0142309
695.003	0.0142464
695.081	0.0142117
695.160	0.0140884
695.238	0.0141063
695.316	0.0141769
695.394	0.0143442
695.472	0.0143831
695.550	0.0142290
695.628	0.0142378
695.706	0.0141029
695.785	0.0143063
695.863	0.0143716
695.941	0.0143639
696.019	0.0143633
696.097	0.0142358
696.175	0.0141240
696.253	0.0142288
696.331	0.0141902
696.410	0.0140785
696.488	0.0143464
696.566	0.0142310
696.644	0.0141023
696.722	0.0142262
696.800	0.0142422
696.878	0.0143372
696.956	0.0140896
697.035	0.0143208
697.113	0.0143520
697.191	0.0141934
697.269	0.0142477
697.347	0.0140522
697.425	0.0142491
697.503	0.0142755
697.581	0.0142535
697.660	0.0141103
697.738	0.0142099
697.816	0.0141017
697.894	0.0142706
697.972	0.0143393
698.050	0.0143156
698.128	0.0142994
698.206	0.0142873
698.285	0.0143584
698.363	0.0142226
698.441	0.0142525
698.519	0.0142357
698.597	0.0140917
698.675	0.0142581
698.753	0.0142892
698.831	0.0143604
698.910	0.0140803
698.988	0.0142181
699.066	0.0143234
699.144	0.0141881
699.222	0.0141758
699.300	0.0141656
699.378	0.0142997
699.456	0.0142286
699.535	0.0143128
699.613	0.0142975
699.691	0.0141961
699.769	0.0142354
699.847	0.0143364
699.925	0.0143256
700.003	0.0143896
700.081	0.0142094
700.160	0.0142451
700.238	0.0142422
700.316	0.0142807
700.394	0.0143546
700.472	0.0142361
700.550	0.0141508
700.628	0.0143438
700.706	0.0142709
700.785	0.0143474
700.863	0.0142944
700.941	0.0142538
701.019	0.0142344
701.097	0.0141622
701.175	0.0142931
701.253	0.0143162
701.331	0.0142370
701.410	0.0142307
701.488	0.0143268
701.566	0.0142367
701.644	0.0142653
701.722	0.0141799
701.800	0.0142995
701.878	0.0141598
701.956	0.0142373
702.035	0.0142757
702.113	0.0142723
702.191	0.0142078
702.269	0.0143144
702.347	0.0141247
702.425	0.0142484
702.503	0.0141878
702.581	0.0141866
702.660	0.0142628
702.738	0.0143349
702.816	0.0142944
702.894	0.0143285
702.972	0.0143571
703.050	0.0140807
703.128	0.0140791
703.206	0.0140906
703.285	0.0141631
703.363	0.0141724
703.441	0.0142785
703.519	0.0143623
703.597	0.0143446
703.675	0.0141405
703.753	0.0141174
703.831	0.0142983
703.910	0.0142654
703.988	0.0143244
704.066	0.0142257
704.144	0.0143040
704.222	0.0142924
704.300	0.0143089
704.378	0.0142106
704.456	0.0144356
704.535	0.0142625
704.613	0.0141672
704.691	0.0142539
704.769	0.0142707
704.847	0.0143311
704.925	0.0142978
705.003	0.0142715
705.081	0.0143401
705.160	0.0142424
705.238	0.0142664
705.316	0.0143562
705.394	0.0143232
705.472	0.0141697
705.550	0.0141167
705.628	0.0142848
705.706	0.0142293
705.785	0.0142251
705.863	0.0143336
705.941	0.0141934
706.019	0.0143403
706.097	0.0142103
706.175	0.0143004
706.253	0.0142718
706.331	0.0142380
706.410	0.0143775
706.488	0.0144561
706.566	0.0144012
706.644	0.0143298
706.722	0.0142962
706.800	0.0143366
706.878	0.0143066
706.956	0.0144404
707.035	0.0143879
707.113	0.0142667
707.191	0.0142818
707.269	0.0141901
707.347	0.0139651
707.425	0.0140884
707.503	0.0142303
707.581	0.0141059
707.660	0.0140514
707.738	0.0141039
707.816	0.0141510
707.894	0.0141127
707.972	0.0142259
708.050	0.0141659
708.128	0.0141164
708.206	0.0142497
708.285	0.0142918
708.363	0.0142913
708.441	0.0141836
708.519	0.0143056
708.597	0.0143449
708.675	0.0142309
708.753	0.0140062
708.831	0.0139647
708.910	0.0141119
708.988	0.0141165
709.066	0.0141465
709.144	0.0141574
709.222	0.0141552
709.300	0.0142326
709.378	0.0142397
709.456	0.0143762
709.535	0.0143763
709.613	0.0146152
709.691	0.0146166
709.769	0.0146371
709.847	0.0145074
709.925	0.0144064
710.003	0.0143409
710.081	0.0142168
710.160	0.0141502
710.238	0.0140356
710.316	0.0139560
710.394	0.0136206
710.472	0.0135693
710.550	0.0136907
710.628	0.0136305
710.706	0.0135194
710.785	0.0136441
710.863	0.0136989
710.941	0.0138907
711.019	0.0139255
711.097	0.0141660
711.175	0.0142754
711.253	0.0144067
711.331	0.0145119
711.410	0.0146239
711.488	0.0147437
711.566	0.0147531
711.644	0.0147743
711.722	0.0147525
711.800	0.0147329
711.878	0.0145901
711.956	0.0145410
712.035	0.0143852
712.113	0.0142957
712.191	0.0142346
712.269	0.0141771
712.347	0.0139833
712.425	0.0139850
712.503	0.0140636
712.581	0.0139248
712.660	0.0140438
712.738	0.0139548
712.816	0.0140141
712.894	0.0140342
712.972	0.0141601
713.050	0.0141756
713.128	0.0141653
713.206	0.0143592
713.285	0.0145559
713.363	0.0144743
713.441	0.0144916
713.519	0.0145679
713.597	0.0146873
713.675	0.0148517
713.753	0.0149805
713.831	0.0149745
713.910	0.0151441
713.988	0.0150003
714.066	0.0150306
714.144	0.0149605
714.222	0.0148177
714.300	0.0146263
714.378	0.0145934
714.456	0.0143464
714.535	0.0142386
714.613	0.0140252
714.691	0.0138350
714.769	0.0136580
714.847	0.0134625
714.925	0.0134010
715.003	0.0133670
715.081	0.0130301
715.160	0.0130083
715.238	0.0130082
715.316	0.0128587
715.394	0.0128746
715.472	0.0130497
715.550	0.0130041
715.628	0.0132855
715.706	0.0133723
715.785	0.0136162
715.863	0.0137566
715.941	0.0139586
716.019	0.0141341
716.097	0.0143568
716.175	0.0146346
716.253	0.0148681
716.331	0.0150523
716.410	0.0150472
716.488	0.0153492
716.566	0.0156826
716.644	0.0156671
716.722	0.0156377
716.800	0.0156361
716.878	0.0157122
716.956	0.0156110
717.035	0.0155526
717.113	0.0155453
717.191	0.0153378
717.269	0.0153436
717.347	0.0149997
717.425	0.0147070
717.503	0.0146153
717.581	0.0144495
717.660	0.0142690
717.738	0.0142039
717.816	0.0138326
717.894	0.0138234
717.972	0.0136452
718.050	0.0135441
718.128	0.0134614
718.206	0.0133732
718.285	0.0133621
718.363	0.0132479
718.441	0.0132780
718.519	0.0131387
718.597	0.0133756
718.675	0.0133335
718.753	0.0133424
718.831	0.0133466
718.910	0.0134608
718.988	0.0136552
719.066	0.0137878
719.144	0.0138374
719.222	0.0140514
719.300	0.0142377
719.378	0.0143340
719.456	0.0143330
719.535	0.0146666
719.613	0.0147163
719.691	0.0147842
719.769	0.0150175
719.847	0.0151842
719.925	0.0151316
720.003	0.0152808
720.081	0.0153022
720.160	0.0152511
720.238	0.0152060
720.316	0.0151779
720.394	0.0150713
720.472	0.0150594
720.550	0.0150094
720.628	0.0149354
720.706	0.0148418
720.785	0.0147311
720.863	0.0145518
720.941	0.0144987
721.019	0.0145068
721.097	0.0143836
721.175	0.0142245
721.253	0.0141405
721.331	0.0139507
721.410	0.0139494
721.488	0.0138722
721.566	0.0137465
721.644	0.0136563
721.722	0.0134378
721.800	0.0133658
721.878	0.0133635
721.956	0.0133733
722.035	0.0132369
722.113	0.0133250
722.191	0.0132890
722.269	0.0132664
722.347	0.0132374
722.425	0.0134368
722.503	0.0134585
722.581	0.0133431
722.660	0.0135374
722.738	0.0136180
722.816	0.0136810
722.894	0.0137412
722.972	0.0138902
723.050	0.0140100
723.128	0.0138769
723.206	0.0141198
723.285	0.0144151
723.363	0.0145475
723.441	0.0144906
723.519	0.0147007
723.597	0.0147367
723.675	0.0148510
723.753	0.0149536
723.831	0.0148623
723.910	0.0150674
723.988	0.0149915
724.066	0.0149297
724.144	0.0149017
724.222	0.0149463
724.300	0.0149352
724.378	0.0149116
724.456	0.0150739
724.535	0.0150282
724.613	0.0150415
724.691	0.0149252
724.769	0.0149426
724.847	0.0150120
724.925	0.0149190
725.003	0.0148143
725.081	0.0148277
725.160	0.0148543
725.238	0.0147669
725.316	0.0145753
725.394	0.0145436
725.472	0.0142950
725.550	0.0142406
725.628	0.0141606
725.706	0.0140884
725.785	0.0139287
725.863	0.0138489
725.941	0.0137675
726.019	0.0138454
726.097	0.0135747
726.175	0.0134596
726.253	0.0135346
726.331	0.0133953
726.410	0.0132354
726.488	0.0133331
726.566	0.0133578
726.644	0.0133836
726.722	0.0132757
726.800	0.0133390
726.878	0.0133148
726.956	0.0132512
727.035	0.0134914
727.113	0.0134800
727.191	0.0134998
727.269	0.0135938
727.347	0.0136930
727.425	0.0137457
727.503	0.0138377
727.581	0.0139874
727.660	0.0141962
727.738	0.0141389
727.816	0.0142774
727.894	0.0144901
727.972	0.0145210
728.050	0.0147137
728.128	0.0147631
728.206	0.0149401
728.285	0.0149294
728.363	0.0150973
728.441	0.0150487
728.519	0.0152589
728.597	0.0152254
728.675	0.0150909
728.753	0.0152747
728.831	0.0153111
728.910	0.0152818
728.988	0.0150209
729.066	0.0150576
729.144	0.0150912
729.222	0.0150428
729.300	0.0150517
729.378	0.0150162
729.456	0.0149239
729.535	0.0148585
729.613	0.0147694
729.691	0.0147985
729.769	0.0147804
729.847	0.0145901
729.925	0.0144644
730.003	0.0144889
730.081	0.0144452
730.160	0.0143275
730.238	0.0143560
730.316	0.0141359
730.394	0.0139536
730.472	0.0139614
730.550	0.0139875
730.628	0.0139299
730.706	0.0138335
730.785	0.0138681
730.863	0.0137030
730.941	0.0136180
731.019	0.0137087
731.097	0.0135409
731.175	0.0136073
731.253	0.0134355
731.331	0.0135712
731.410	0.0135282
731.488	0.0134958
731.566	0.0135235
731.644	0.0134057
731.722	0.0134435
731.800	0.0134415
731.878	0.0134784
731.956	0.0135080
732.035	0.0134692
732.113	0.0136182
732.191	0.0137011
732.269	0.0137322
732.347	0.0138293
732.425	0.0138082
732.503	0.0138574
732.581	0.0138461
732.660	0.0140531
732.738	0.0140240
732.816	0.0141150
732.894	0.0141242
732.972	0.0141415
733.050	0.0142062
733.128	0.0142632
733.206	0.0141669
733.285	0.0143269
733.363	0.0142628
733.441	0.0142375
733.519	0.0144786
733.597	0.0144780
733.675	0.0147245
733.753	0.0147424
733.831	0.0149660
733.910	0.0149491
733.988	0.0149403
734.066	0.0148872
734.144	0.0149969
734.222	0.0151218
734.300	0.0150351
734.378	0.0151854
734.456	0.0151778
734.535	0.0152260
734.613	0.0151785
734.691	0.0151669
734.769	0.0149786
734.847	0.0150368
734.925	0.0150363
735.003	0.0150513
735.081	0.0149133
735.160	0.0147359
735.238	0.0147437
735.316	0.0147879
735.394	0.0146758
735.472	0.0146342
735.550	0.0145567
735.628	0.0144906
735.706	0.0143505
735.785	0.0143743
735.863	0.0142564
735.941	0.0142072
736.019	0.0141707
736.097	0.0139909
736.175	0.0139990
736.253	0.0141006
736.331	0.0139358
736.410	0.0138660
736.488	0.0139637
736.566	0.0138726
736.644	0.0138545
736.722	0.0136405
736.800	0.0137430
736.878	0.0137423
736.956	0.0136979
737.035	0.0136769
737.113	0.0136819
737.191	0.0136477
737.269	0.0135264
737.347	0.0135178
737.425	0.0136398
737.503	0.0135809
737.581	0.0135584
737.660	0.0137025
737.738	0.0136547
737.816	0.0135014
737.894	0.0135838
737.972	0.0136670
738.050	0.0136855
738.128	0.0137497
738.206	0.0137988
738.285	0.0139394
738.363	0.0139543
738.441	0.0140309
738.519	0.0140307
738.597	0.0139394
738.675	0.0141508
738.753	0.0143409
738.831	0.0144225
738.910	0.0143262
738.988	0.0145643
739.066	0.0146783
739.144	0.0146216
739.222	0.0146111
739.300	0.0147578
739.378	0.0148382
739.456	0.0147092
739.535	0.0147915
739.613	0.0147433
739.691	0.0149371
739.769	0.0148647
739.847	0.0148630
739.925	0.0149412
740.003	0.0148204
740.081	0.0148972
740.160	0.0147161
740.238	0.0148634
740.316	0.0148743
740.394	0.0146780
740.472	0.0146816
740.550	0.0147081
740.628	0.0147943
740.706	0.0146975
740.785	0.0146501
740.863	0.0146402
740.941	0.0145898
741.019	0.0145011
741.097	0.0145122
741.175	0.0145096
741.253	0.0145293
741.331	0.0143541
741.410	0.0144115
741.488	0.0143495
741.566	0.0143301
741.644	0.0143674
741.722	0.0142577
741.800	0.0143021
741.878	0.0143394
741.956	0.0142554
742.035	0.0140864
742.113	0.0139939
742.191	0.0139096
742.269	0.0141071
742.347	0.0139066
742.425	0.0138367
742.503	0.0138768
742.581	0.0139729
742.660	0.0138299
742.738	0.0139339
742.816	0.0137896
742.894	0.0138280
742.972	0.0139152
743.050	0.0138165
743.128	0.0138416
743.206	0.0136662
743.285	0.0138216
743.363	0.0137888
743.441	0.0138324
743.519	0.0137489
743.597	0.0138258
743.675	0.0136953
743.753	0.0138264
743.831	0.0138525
743.910	0.0139468
743.988	0.0139614
744.066	0.0139661
744.144	0.0137416
744.222	0.0138493
744.300	0.0139467
744.378	0.0140656
744.456	0.0139731
744.535	0.0139408
744.613	0.0142020
744.691	0.0141507
744.769	0.0141476
744.847	0.0142654
744.925	0.0142028
745.003	0.0143190
745.081	0.0142596
745.160	0.0144090
745.238	0.0143485
745.316	0.0143754
745.394	0.0144571
745.472	0.0144540
745.550	0.0144720
745.628	0.0145846
745.706	0.0145522
