05/03/2022	20:08:16	Ver.	4.1	UNKNOWN
Optical Delay	660.003261	Delta X		0.078125	Sweeps	1	Scan Rate	0/0
Coordinates	Axis 1	NaN	Axis 2	NaN	Axis 3	NaN	Axis 4	NaN	Axis 5	NaN	Axis 6	0.000000
TX Power	0.000000	RX Power	0.000000

660.003	0.0139613
660.081	0.0139631
660.160	0.0139352
660.238	0.0139509
660.316	0.0138711
660.394	0.0137873
660.472	0.0139329
660.550	0.0139732
660.628	0.0140748
660.706	0.0140107
660.785	0.0139355
660.863	0.0140649
660.941	0.0139885
661.019	0.0139500
661.097	0.0140030
661.175	0.0138699
661.253	0.0138226
661.331	0.0139836
661.410	0.0137629
661.488	0.0141528
661.566	0.0140711
661.644	0.0138630
661.722	0.0138902
661.800	0.0139291
661.878	0.0140316
661.956	0.0139967
662.035	0.0139445
662.113	0.0138937
662.191	0.0139027
662.269	0.0140395
662.347	0.0139832
662.425	0.0139625
662.503	0.0140506
662.581	0.0139106
662.660	0.0138798
662.738	0.0138761
662.816	0.0141193
662.894	0.0139944
662.972	0.0138799
663.050	0.0139415
663.128	0.0139411
663.206	0.0139057
663.285	0.0139714
663.363	0.0139130
663.441	0.0139658
663.519	0.0138019
663.597	0.0140928
663.675	0.0139645
663.753	0.0139981
663.831	0.0139154
663.910	0.0140868
663.988	0.0141104
664.066	0.0139945
664.144	0.0138943
664.222	0.0140990
664.300	0.0139396
664.378	0.0139648
664.456	0.0139605
664.535	0.0139028
664.613	0.0139632
664.691	0.0140140
664.769	0.0138973
664.847	0.0140008
664.925	0.0140524
665.003	0.0140543
665.081	0.0141466
665.160	0.0140166
665.238	0.0139458
665.316	0.0140096
665.394	0.0140712
665.472	0.0139754
665.550	0.0140238
665.628	0.0137762
665.706	0.0138882
665.785	0.0141317
665.863	0.0141463
665.941	0.0139538
666.019	0.0139745
666.097	0.0139254
666.175	0.0140285
666.253	0.0138923
666.331	0.0139169
666.410	0.0139556
666.488	0.0140302
666.566	0.0140069
666.644	0.0140430
666.722	0.0140077
666.800	0.0140008
666.878	0.0140694
666.956	0.0139923
667.035	0.0139965
667.113	0.0139702
667.191	0.0140547
667.269	0.0139088
667.347	0.0139548
667.425	0.0139574
667.503	0.0140939
667.581	0.0140663
667.660	0.0140853
667.738	0.0140822
667.816	0.0140702
667.894	0.0140521
667.972	0.0139971
668.050	0.0140443
668.128	0.0140276
668.206	0.0140040
668.285	0.0140349
668.363	0.0140624
668.441	0.0141257
668.519	0.0140881
668.597	0.0139533
668.675	0.0139769
668.753	0.0139683
668.831	0.0140998
668.910	0.0140441
668.988	0.0138585
669.066	0.0140160
669.144	0.0139735
669.222	0.0140112
669.300	0.0139072
669.378	0.0139153
669.456	0.0139736
669.535	0.0140147
669.613	0.0139478
669.691	0.0139671
669.769	0.0140232
669.847	0.0138366
669.925	0.0140229
670.003	0.0140481
670.081	0.0140372
670.160	0.0141627
670.238	0.0139629
670.316	0.0139669
670.394	0.0139940
670.472	0.0139636
670.550	0.0140103
670.628	0.0140460
670.706	0.0140173
670.785	0.0140462
670.863	0.0139408
670.941	0.0138579
671.019	0.0139518
671.097	0.0139681
671.175	0.0138614
671.253	0.0138992
671.331	0.0139938
671.410	0.0138844
671.488	0.0140488
671.566	0.0138879
671.644	0.0139230
671.722	0.0139536
671.800	0.0140257
671.878	0.0139658
671.956	0.0139024
672.035	0.0140739
672.113	0.0139223
672.191	0.0139591
672.269	0.0138943
672.347	0.0141299
672.425	0.0139902
672.503	0.0140000
672.581	0.0140788
672.660	0.0140825
672.738	0.0139688
672.816	0.0139662
672.894	0.0141343
672.972	0.0140882
673.050	0.0140712
673.128	0.0140192
673.206	0.0140227
673.285	0.0140145
673.363	0.0139668
673.441	0.0140427
673.519	0.0140462
673.597	0.0139891
673.675	0.0140101
673.753	0.0139509
673.831	0.0139600
673.910	0.0140575
673.988	0.0141009
674.066	0.0139849
674.144	0.0140578
674.222	0.0139632
674.300	0.0140309
674.378	0.0140897
674.456	0.0139655
674.535	0.0140440
674.613	0.0138438
674.691	0.0140740
674.769	0.0140492
674.847	0.0140125
674.925	0.0139941
675.003	0.0140389
675.081	0.0140445
675.160	0.0139468
675.238	0.0140389
675.316	0.0138707
675.394	0.0140900
675.472	0.0138893
675.550	0.0139184
675.628	0.0140617
675.706	0.0140183
675.785	0.0139600
675.863	0.0138481
675.941	0.0139939
676.019	0.0141103
676.097	0.0139325
676.175	0.0140725
676.253	0.0140376
676.331	0.0139292
676.410	0.0138954
676.488	0.0139616
676.566	0.0140256
676.644	0.0140540
676.722	0.0140678
676.800	0.0140804
676.878	0.0140234
676.956	0.0139902
677.035	0.0140111
677.113	0.0140428
677.191	0.0141342
677.269	0.0140682
677.347	0.0140618
677.425	0.0140366
677.503	0.0140448
677.581	0.0140697
677.660	0.0139520
677.738	0.0140351
677.816	0.0139961
677.894	0.0140900
677.972	0.0138570
678.050	0.0139303
678.128	0.0142677
678.206	0.0139256
678.285	0.0139497
678.363	0.0139918
678.441	0.0138400
678.519	0.0139578
678.597	0.0139514
678.675	0.0140379
678.753	0.0139742
678.831	0.0140456
678.910	0.0139988
678.988	0.0140801
679.066	0.0139143
679.144	0.0139999
679.222	0.0139746
679.300	0.0138543
679.378	0.0139216
679.456	0.0140652
679.535	0.0139456
679.613	0.0139642
679.691	0.0138927
679.769	0.0139585
679.847	0.0139542
679.925	0.0139365
680.003	0.0139193
680.081	0.0140038
680.160	0.0139367
680.238	0.0140609
680.316	0.0140996
680.394	0.0140573
680.472	0.0139658
680.550	0.0139289
680.628	0.0138485
680.706	0.0142047
680.785	0.0140205
680.863	0.0138983
680.941	0.0139826
681.019	0.0138201
681.097	0.0139684
681.175	0.0140165
681.253	0.0139098
681.331	0.0140781
681.410	0.0138986
681.488	0.0138966
681.566	0.0140187
681.644	0.0139867
681.722	0.0140318
681.800	0.0139518
681.878	0.0141254
681.956	0.0139504
682.035	0.0139626
682.113	0.0141131
682.191	0.0139816
682.269	0.0139081
682.347	0.0139606
682.425	0.0140936
682.503	0.0139653
682.581	0.0140287
682.660	0.0140637
682.738	0.0140405
682.816	0.0140090
682.894	0.0140251
682.972	0.0141471
683.050	0.0139606
683.128	0.0139623
683.206	0.0140012
683.285	0.0140584
683.363	0.0140354
683.441	0.0139036
683.519	0.0140051
683.597	0.0139711
683.675	0.0139494
683.753	0.0140947
683.831	0.0140415
683.910	0.0139666
683.988	0.0139912
684.066	0.0139568
684.144	0.0139605
684.222	0.0140123
684.300	0.0139041
684.378	0.0138424
684.456	0.0140450
684.535	0.0140466
684.613	0.0140578
684.691	0.0139850
684.769	0.0139476
684.847	0.0139099
684.925	0.0139468
685.003	0.0140151
685.081	0.0140006
685.160	0.0138357
685.238	0.0139187
685.316	0.0139747
685.394	0.0139268
685.472	0.0139960
685.550	0.0139066
685.628	0.0139368
685.706	0.0140771
685.785	0.0140864
685.863	0.0139698
685.941	0.0138878
686.019	0.0140021
686.097	0.0138265
686.175	0.0139312
686.253	0.0140186
686.331	0.0139639
686.410	0.0139245
686.488	0.0139257
686.566	0.0138807
686.644	0.0140911
686.722	0.0140269
686.800	0.0139317
686.878	0.0139909
686.956	0.0140034
687.035	0.0140038
687.113	0.0139124
687.191	0.0140923
687.269	0.0139442
687.347	0.0138972
687.425	0.0140345
687.503	0.0140186
687.581	0.0139062
687.660	0.0140932
687.738	0.0139715
687.816	0.0139230
687.894	0.0140430
687.972	0.0139721
688.050	0.0140095
688.128	0.0139501
688.206	0.0139411
688.285	0.0139861
688.363	0.0139946
688.441	0.0140644
688.519	0.0140485
688.597	0.0139091
688.675	0.0140068
688.753	0.0139552
688.831	0.0139452
688.910	0.0139571
688.988	0.0138949
689.066	0.0139745
689.144	0.0139019
689.222	0.0139789
689.300	0.0139440
689.378	0.0140009
689.456	0.0142046
689.535	0.0140310
689.613	0.0141185
689.691	0.0139250
689.769	0.0139218
689.847	0.0139905
689.925	0.0140458
690.003	0.0139734
690.081	0.0140024
690.160	0.0139642
690.238	0.0140324
690.316	0.0140768
690.394	0.0139732
690.472	0.0140924
690.550	0.0140221
690.628	0.0139721
690.706	0.0139738
690.785	0.0140780
690.863	0.0141045
690.941	0.0139828
691.019	0.0140602
691.097	0.0140275
691.175	0.0139868
691.253	0.0140436
691.331	0.0139059
691.410	0.0139776
691.488	0.0140935
691.566	0.0140337
691.644	0.0139433
691.722	0.0141398
691.800	0.0140264
691.878	0.0139572
691.956	0.0140524
692.035	0.0139602
692.113	0.0138464
692.191	0.0140702
692.269	0.0139807
692.347	0.0138842
692.425	0.0139836
692.503	0.0139396
692.581	0.0140987
692.660	0.0139380
692.738	0.0140682
692.816	0.0140439
692.894	0.0139687
692.972	0.0140952
693.050	0.0140403
693.128	0.0141338
693.206	0.0139474
693.285	0.0139260
693.363	0.0140311
693.441	0.0140142
693.519	0.0140473
693.597	0.0140782
693.675	0.0138541
693.753	0.0140261
693.831	0.0139976
693.910	0.0140921
693.988	0.0140753
694.066	0.0139587
694.144	0.0141051
694.222	0.0140870
694.300	0.0141508
694.378	0.0139356
694.456	0.0140183
694.535	0.0139542
694.613	0.0140533
694.691	0.0141138
694.769	0.0139845
694.847	0.0139330
694.925	0.0140431
695.003	0.0140886
695.081	0.0139188
695.160	0.0139522
695.238	0.0141254
695.316	0.0140048
695.394	0.0139321
695.472	0.0139529
695.550	0.0141113
695.628	0.0140035
695.706	0.0139819
695.785	0.0139033
695.863	0.0139178
695.941	0.0140651
696.019	0.0138673
696.097	0.0139762
696.175	0.0139919
696.253	0.0140084
696.331	0.0140588
696.410	0.0140948
696.488	0.0139337
696.566	0.0140320
696.644	0.0139892
696.722	0.0140288
696.800	0.0141957
696.878	0.0140748
696.956	0.0138229
697.035	0.0140479
697.113	0.0139006
697.191	0.0140420
697.269	0.0139137
697.347	0.0139832
697.425	0.0140392
697.503	0.0138329
697.581	0.0139804
697.660	0.0141360
697.738	0.0139988
697.816	0.0140686
697.894	0.0139719
697.972	0.0140451
698.050	0.0139855
698.128	0.0141077
698.206	0.0139626
698.285	0.0138840
698.363	0.0138767
698.441	0.0138750
698.519	0.0140774
698.597	0.0139538
698.675	0.0138316
698.753	0.0138165
698.831	0.0138797
698.910	0.0139500
698.988	0.0138303
699.066	0.0138899
699.144	0.0140418
699.222	0.0139431
699.300	0.0138633
699.378	0.0139719
699.456	0.0139642
699.535	0.0138381
699.613	0.0139855
699.691	0.0139191
699.769	0.0140752
699.847	0.0138795
699.925	0.0138036
700.003	0.0139587
700.081	0.0139939
700.160	0.0138631
700.238	0.0138846
700.316	0.0138750
700.394	0.0139301
700.472	0.0139099
700.550	0.0138898
700.628	0.0139812
700.706	0.0139856
700.785	0.0139685
700.863	0.0139519
700.941	0.0139306
701.019	0.0139799
701.097	0.0140111
701.175	0.0139890
701.253	0.0140857
701.331	0.0140813
701.410	0.0140318
701.488	0.0140432
701.566	0.0139082
701.644	0.0141466
701.722	0.0140112
701.800	0.0140103
701.878	0.0140130
701.956	0.0140735
702.035	0.0139661
702.113	0.0140527
702.191	0.0140099
702.269	0.0140788
702.347	0.0139677
702.425	0.0140714
702.503	0.0140820
702.581	0.0138276
702.660	0.0139472
702.738	0.0140043
702.816	0.0140079
702.894	0.0139941
702.972	0.0139243
703.050	0.0139466
703.128	0.0138991
703.206	0.0140401
703.285	0.0139696
703.363	0.0139989
703.441	0.0137994
703.519	0.0138989
703.597	0.0137987
703.675	0.0140521
703.753	0.0139513
703.831	0.0140453
703.910	0.0139701
703.988	0.0139988
704.066	0.0140434
704.144	0.0142011
704.222	0.0142308
704.300	0.0141990
704.378	0.0142707
704.456	0.0141530
704.535	0.0141756
704.613	0.0142284
704.691	0.0141875
704.769	0.0143799
704.847	0.0142923
704.925	0.0144463
705.003	0.0144352
705.081	0.0144511
705.160	0.0143024
705.238	0.0142598
705.316	0.0144202
705.394	0.0145083
705.472	0.0144847
705.550	0.0143539
705.628	0.0143184
705.706	0.0142621
705.785	0.0145027
705.863	0.0143664
705.941	0.0143673
706.019	0.0141695
706.097	0.0141492
706.175	0.0141528
706.253	0.0141259
706.331	0.0140470
706.410	0.0139628
706.488	0.0139692
706.566	0.0138175
706.644	0.0137727
706.722	0.0138509
706.800	0.0135612
706.878	0.0136324
706.956	0.0134596
707.035	0.0133755
707.113	0.0134087
707.191	0.0131438
707.269	0.0129477
707.347	0.0129008
707.425	0.0126581
707.503	0.0120518
707.581	0.0114722
707.660	0.0105962
707.738	0.00963554
707.816	0.00856033
707.894	0.00777786
707.972	0.00780411
708.050	0.00860130
708.128	0.0102769
708.206	0.0129942
708.285	0.0159529
708.363	0.0189382
708.441	0.0209795
708.519	0.0219661
708.597	0.0213406
708.675	0.0195293
708.753	0.0167036
708.831	0.0133083
708.910	0.0100500
708.988	0.00751602
709.066	0.00609222
709.144	0.00591881
709.222	0.00726257
709.300	0.00977020
709.378	0.0133695
709.456	0.0174610
709.535	0.0215997
709.613	0.0249939
709.691	0.0274178
709.769	0.0288812
709.847	0.0286064
709.925	0.0267364
710.003	0.0239754
710.081	0.0205944
710.160	0.0165797
710.238	0.0130824
710.316	0.00997566
710.394	0.00769516
710.472	0.00624901
710.550	0.00564354
710.628	0.00566345
710.706	0.00628960
710.785	0.00709473
710.863	0.00788155
710.941	0.00912064
711.019	0.00995613
711.097	0.0108157
711.175	0.0114079
711.253	0.0118558
711.331	0.0121581
711.410	0.0125583
711.488	0.0129408
711.566	0.0133037
711.644	0.0136098
711.722	0.0139062
711.800	0.0144968
711.878	0.0149043
711.956	0.0155988
712.035	0.0162078
712.113	0.0166157
712.191	0.0168719
712.269	0.0170420
712.347	0.0168359
712.425	0.0164756
712.503	0.0163480
712.581	0.0156878
712.660	0.0152563
712.738	0.0148589
712.816	0.0147002
712.894	0.0142950
712.972	0.0140471
713.050	0.0140479
713.128	0.0139476
713.206	0.0140504
713.285	0.0138635
713.363	0.0138940
713.441	0.0139946
713.519	0.0139581
713.597	0.0136745
713.675	0.0135610
713.753	0.0132330
713.831	0.0130671
713.910	0.0129043
713.988	0.0128334
714.066	0.0128071
714.144	0.0130824
714.222	0.0135038
714.300	0.0140763
714.378	0.0147064
714.456	0.0150773
714.535	0.0155193
714.613	0.0159480
714.691	0.0159198
714.769	0.0159359
714.847	0.0158612
714.925	0.0155980
715.003	0.0154205
715.081	0.0150393
715.160	0.0145739
715.238	0.0141360
715.316	0.0134483
715.394	0.0127668
715.472	0.0121670
715.550	0.0116857
715.628	0.0113072
715.706	0.0109464
715.785	0.0107869
715.863	0.0108741
715.941	0.0111179
716.019	0.0114773
716.097	0.0120480
716.175	0.0124419
716.253	0.0130317
716.331	0.0137260
716.410	0.0144580
716.488	0.0150207
716.566	0.0157049
716.644	0.0161583
716.722	0.0167231
716.800	0.0172404
716.878	0.0177423
716.956	0.0183159
717.035	0.0186208
717.113	0.0188239
717.191	0.0186589
717.269	0.0185290
717.347	0.0180586
717.425	0.0172589
717.503	0.0164186
717.581	0.0155072
717.660	0.0145391
717.738	0.0135814
717.816	0.0126431
717.894	0.0118111
717.972	0.0112463
718.050	0.0107168
718.128	0.0102341
718.206	0.00976074
718.285	0.00958527
718.363	0.00938835
718.441	0.00929665
718.519	0.00922020
718.597	0.00929504
718.675	0.00946739
718.753	0.00988594
718.831	0.0104153
718.910	0.0107265
718.988	0.0114066
719.066	0.0121259
719.144	0.0127676
719.222	0.0132734
719.300	0.0137125
719.378	0.0141941
719.456	0.0144603
719.535	0.0148789
719.613	0.0150226
719.691	0.0156300
719.769	0.0160605
719.847	0.0165044
719.925	0.0171212
720.003	0.0173396
720.081	0.0173889
720.160	0.0174023
720.238	0.0170921
720.316	0.0166676
720.394	0.0161526
720.472	0.0154715
720.550	0.0151891
720.628	0.0147973
720.706	0.0145250
720.785	0.0143835
720.863	0.0142776
720.941	0.0143031
721.019	0.0140834
721.097	0.0138897
721.175	0.0138347
721.253	0.0135783
721.331	0.0135320
721.410	0.0134986
721.488	0.0134067
721.566	0.0135100
721.644	0.0135429
721.722	0.0133636
721.800	0.0134297
721.878	0.0133779
721.956	0.0132534
722.035	0.0131536
722.113	0.0130275
722.191	0.0128144
722.269	0.0127778
722.347	0.0126400
722.425	0.0126559
722.503	0.0128325
722.581	0.0130007
722.660	0.0129801
722.738	0.0132406
722.816	0.0132598
722.894	0.0133260
722.972	0.0132137
723.050	0.0132204
723.128	0.0135981
723.206	0.0136472
723.285	0.0137984
723.363	0.0141363
723.441	0.0144576
723.519	0.0147490
723.597	0.0148428
723.675	0.0150693
723.753	0.0151640
723.831	0.0149422
723.910	0.0147097
723.988	0.0144994
724.066	0.0141290
724.144	0.0137794
724.222	0.0135812
724.300	0.0134966
724.378	0.0134800
724.456	0.0133108
724.535	0.0133592
724.613	0.0132939
724.691	0.0131877
724.769	0.0133019
724.847	0.0135445
724.925	0.0137798
725.003	0.0140880
725.081	0.0144186
725.160	0.0147287
725.238	0.0147870
725.316	0.0149677
725.394	0.0147665
725.472	0.0143906
725.550	0.0141476
725.628	0.0138585
725.706	0.0136009
725.785	0.0134572
725.863	0.0134966
725.941	0.0139026
726.019	0.0141279
726.097	0.0144270
726.175	0.0149345
726.253	0.0154044
726.331	0.0156890
726.410	0.0159592
726.488	0.0160670
726.566	0.0161079
726.644	0.0161430
726.722	0.0161153
726.800	0.0161725
726.878	0.0161855
726.956	0.0163725
727.035	0.0164576
727.113	0.0161378
727.191	0.0158820
727.269	0.0156117
727.347	0.0151370
727.425	0.0145655
727.503	0.0138779
727.581	0.0133964
727.660	0.0130046
727.738	0.0125996
727.816	0.0123411
727.894	0.0119931
727.972	0.0118484
728.050	0.0118728
728.128	0.0117319
728.206	0.0118639
728.285	0.0120893
728.363	0.0123066
728.441	0.0124625
728.519	0.0127875
728.597	0.0131568
728.675	0.0133482
728.753	0.0134341
728.831	0.0135834
728.910	0.0134606
728.988	0.0132673
729.066	0.0130866
729.144	0.0127958
729.222	0.0125008
729.300	0.0121736
729.378	0.0119104
729.456	0.0118806
729.535	0.0118047
729.613	0.0118034
729.691	0.0118463
729.769	0.0119409
729.847	0.0122699
729.925	0.0126045
730.003	0.0128606
730.081	0.0133183
730.160	0.0137843
730.238	0.0141299
730.316	0.0146788
730.394	0.0152118
730.472	0.0156474
730.550	0.0160220
730.628	0.0163829
730.706	0.0164165
730.785	0.0163119
730.863	0.0161229
730.941	0.0160089
731.019	0.0157121
731.097	0.0153436
731.175	0.0152560
731.253	0.0150240
731.331	0.0149699
731.410	0.0149981
731.488	0.0147677
731.566	0.0147916
731.644	0.0147044
731.722	0.0146786
731.800	0.0147466
731.878	0.0146532
731.956	0.0146839
732.035	0.0146480
732.113	0.0147057
732.191	0.0147263
732.269	0.0146229
732.347	0.0145573
732.425	0.0145790
732.503	0.0143401
732.581	0.0143423
732.660	0.0142916
732.738	0.0140678
732.816	0.0141286
732.894	0.0139290
732.972	0.0137389
733.050	0.0136069
733.128	0.0133475
733.206	0.0129327
733.285	0.0126352
733.363	0.0122870
733.441	0.0120174
733.519	0.0118627
733.597	0.0119908
733.675	0.0120100
733.753	0.0119795
733.831	0.0123902
733.910	0.0126192
733.988	0.0130259
734.066	0.0134219
734.144	0.0136978
734.222	0.0142016
734.300	0.0145894
734.378	0.0145841
734.456	0.0145464
734.535	0.0146349
734.613	0.0144867
734.691	0.0141114
734.769	0.0140151
734.847	0.0137418
734.925	0.0133063
735.003	0.0130218
735.081	0.0129483
735.160	0.0127704
735.238	0.0126009
735.316	0.0126939
735.394	0.0128086
735.472	0.0130907
735.550	0.0131907
735.628	0.0133205
735.706	0.0134303
735.785	0.0135395
735.863	0.0139086
735.941	0.0138404
736.019	0.0140503
736.097	0.0143098
736.175	0.0145602
736.253	0.0147644
736.331	0.0149220
736.410	0.0150227
736.488	0.0151208
736.566	0.0150960
736.644	0.0151964
736.722	0.0150674
736.800	0.0149248
736.878	0.0148980
736.956	0.0146004
737.035	0.0146141
737.113	0.0146520
737.191	0.0144935
737.269	0.0147619
737.347	0.0145567
737.425	0.0145673
737.503	0.0146094
737.581	0.0145475
737.660	0.0144299
737.738	0.0146586
737.816	0.0149129
737.894	0.0148626
737.972	0.0150739
738.050	0.0151504
738.128	0.0151752
738.206	0.0150861
738.285	0.0152120
738.363	0.0150188
738.441	0.0147459
738.519	0.0145961
738.597	0.0144661
738.675	0.0143034
738.753	0.0140155
738.831	0.0141794
738.910	0.0140543
738.988	0.0140482
739.066	0.0139526
739.144	0.0139054
739.222	0.0138116
739.300	0.0140836
739.378	0.0138820
739.456	0.0137267
739.535	0.0136636
739.613	0.0136236
739.691	0.0133591
739.769	0.0132838
739.847	0.0131715
739.925	0.0130127
740.003	0.0130170
740.081	0.0127769
740.160	0.0128250
740.238	0.0130056
740.316	0.0128763
740.394	0.0130681
740.472	0.0131848
740.550	0.0134252
740.628	0.0134736
740.706	0.0137814
740.785	0.0137370
740.863	0.0137282
740.941	0.0137184
741.019	0.0137504
741.097	0.0135300
741.175	0.0133063
741.253	0.0133067
741.331	0.0130602
741.410	0.0127932
741.488	0.0127509
741.566	0.0126279
741.644	0.0123782
741.722	0.0125054
741.800	0.0126073
741.878	0.0127519
741.956	0.0129409
742.035	0.0132940
742.113	0.0136508
742.191	0.0140540
742.269	0.0141736
742.347	0.0144997
742.425	0.0147367
742.503	0.0149252
742.581	0.0150384
742.660	0.0151768
742.738	0.0151550
742.816	0.0151998
742.894	0.0149973
742.972	0.0149454
743.050	0.0148558
743.128	0.0147744
743.206	0.0146752
743.285	0.0146713
743.363	0.0145806
743.441	0.0145366
743.519	0.0147615
743.597	0.0147901
743.675	0.0147955
743.753	0.0148629
743.831	0.0147495
743.910	0.0147245
743.988	0.0146644
744.066	0.0147889
744.144	0.0147467
744.222	0.0145625
744.300	0.0144520
744.378	0.0143851
744.456	0.0141820
744.535	0.0141152
744.613	0.0139471
744.691	0.0139783
744.769	0.0138608
744.847	0.0138148
744.925	0.0139281
745.003	0.0139816
745.081	0.0138939
745.160	0.0137572
745.238	0.0138770
745.316	0.0140344
745.394	0.0139211
745.472	0.0140041
745.550	0.0140038
745.628	0.0137896
