05/03/2022	20:10:16	Ver.	4.1	UNKNOWN
Optical Delay	660.003261	Delta X		0.078125	Sweeps	1	Scan Rate	0/0
Coordinates	Axis 1	NaN	Axis 2	NaN	Axis 3	NaN	Axis 4	NaN	Axis 5	NaN	Axis 6	0.000000
TX Power	0.000000	RX Power	0.000000

660.003	0.0143637
660.081	0.0143382
660.160	0.0143030
660.238	0.0142616
660.316	0.0144054
660.394	0.0144337
660.472	0.0143198
660.550	0.0143489
660.628	0.0144242
660.706	0.0143027
660.785	0.0144036
660.863	0.0143701
660.941	0.0143073
661.019	0.0142819
661.097	0.0142479
661.175	0.0144515
661.253	0.0143748
661.331	0.0143209
661.410	0.0145436
661.488	0.0143654
661.566	0.0144416
661.644	0.0144112
661.722	0.0142832
661.800	0.0143315
661.878	0.0143800
661.956	0.0145005
662.035	0.0144501
662.113	0.0143592
662.191	0.0144100
662.269	0.0144225
662.347	0.0143597
662.425	0.0143251
662.503	0.0143467
662.581	0.0143750
662.660	0.0142779
662.738	0.0143169
662.816	0.0145086
662.894	0.0142924
662.972	0.0143816
663.050	0.0144821
663.128	0.0144531
663.206	0.0144919
663.285	0.0143749
663.363	0.0143400
663.441	0.0144196
663.519	0.0143111
663.597	0.0142955
663.675	0.0143310
663.753	0.0142696
663.831	0.0143182
663.910	0.0142914
663.988	0.0143303
664.066	0.0143690
664.144	0.0143011
664.222	0.0143803
664.300	0.0142909
664.378	0.0141762
664.456	0.0142587
664.535	0.0143465
664.613	0.0143538
664.691	0.0143987
664.769	0.0143632
664.847	0.0144099
664.925	0.0143653
665.003	0.0143394
665.081	0.0143960
665.160	0.0143311
665.238	0.0144723
665.316	0.0144509
665.394	0.0143539
665.472	0.0142712
665.550	0.0142840
665.628	0.0142863
665.706	0.0143700
665.785	0.0144109
665.863	0.0145337
665.941	0.0144334
666.019	0.0143094
666.097	0.0142386
666.175	0.0144469
666.253	0.0144573
666.331	0.0145028
666.410	0.0143674
666.488	0.0143439
666.566	0.0143478
666.644	0.0144435
666.722	0.0144652
666.800	0.0144223
666.878	0.0144554
666.956	0.0143061
667.035	0.0142988
667.113	0.0144215
667.191	0.0145220
667.269	0.0143935
667.347	0.0143511
667.425	0.0144543
667.503	0.0144971
667.581	0.0144321
667.660	0.0143708
667.738	0.0143023
667.816	0.0144152
667.894	0.0143314
667.972	0.0143804
668.050	0.0142577
668.128	0.0143446
668.206	0.0143561
668.285	0.0143807
668.363	0.0144720
668.441	0.0143935
668.519	0.0142792
668.597	0.0144605
668.675	0.0144022
668.753	0.0143029
668.831	0.0144327
668.910	0.0143054
668.988	0.0142782
669.066	0.0143978
669.144	0.0143729
669.222	0.0142870
669.300	0.0143399
669.378	0.0141404
669.456	0.0142585
669.535	0.0143442
669.613	0.0142136
669.691	0.0142639
669.769	0.0144113
669.847	0.0142796
669.925	0.0141690
670.003	0.0143584
670.081	0.0144721
670.160	0.0145126
670.238	0.0143984
670.316	0.0143137
670.394	0.0144523
670.472	0.0144767
670.550	0.0142116
670.628	0.0141706
670.706	0.0143223
670.785	0.0144151
670.863	0.0144277
670.941	0.0142177
671.019	0.0143507
671.097	0.0143935
671.175	0.0144161
671.253	0.0143186
671.331	0.0142792
671.410	0.0145065
671.488	0.0143747
671.566	0.0143009
671.644	0.0142680
671.722	0.0142635
671.800	0.0142857
671.878	0.0143036
671.956	0.0143867
672.035	0.0142387
672.113	0.0143422
672.191	0.0142521
672.269	0.0142460
672.347	0.0143813
672.425	0.0144374
672.503	0.0144271
672.581	0.0143233
672.660	0.0143921
672.738	0.0143829
672.816	0.0142896
672.894	0.0143472
672.972	0.0143063
673.050	0.0144199
673.128	0.0144003
673.206	0.0142527
673.285	0.0143378
673.363	0.0144364
673.441	0.0142706
673.519	0.0142564
673.597	0.0143112
673.675	0.0143441
673.753	0.0142692
673.831	0.0142845
673.910	0.0143015
673.988	0.0143740
674.066	0.0143967
674.144	0.0142126
674.222	0.0143276
674.300	0.0143304
674.378	0.0143190
674.456	0.0143753
674.535	0.0144032
674.613	0.0143909
674.691	0.0143224
674.769	0.0142675
674.847	0.0144814
674.925	0.0144779
675.003	0.0142937
675.081	0.0141991
675.160	0.0144009
675.238	0.0145055
675.316	0.0143914
675.394	0.0142809
675.472	0.0144117
675.550	0.0143298
675.628	0.0143086
675.706	0.0143243
675.785	0.0142620
675.863	0.0142333
675.941	0.0144595
676.019	0.0143762
676.097	0.0144110
676.175	0.0143104
676.253	0.0142913
676.331	0.0143543
676.410	0.0144668
676.488	0.0144725
676.566	0.0143671
676.644	0.0143250
676.722	0.0144233
676.800	0.0142832
676.878	0.0144228
676.956	0.0143170
677.035	0.0143487
677.113	0.0144011
677.191	0.0143703
677.269	0.0142341
677.347	0.0142736
677.425	0.0142617
677.503	0.0143739
677.581	0.0144087
677.660	0.0144751
677.738	0.0142966
677.816	0.0143468
677.894	0.0144467
677.972	0.0143475
678.050	0.0144176
678.128	0.0144838
678.206	0.0143429
678.285	0.0143660
678.363	0.0143104
678.441	0.0144582
678.519	0.0143951
678.597	0.0144764
678.675	0.0144106
678.753	0.0144265
678.831	0.0144182
678.910	0.0144687
678.988	0.0144189
679.066	0.0143774
679.144	0.0144582
679.222	0.0143561
679.300	0.0143481
679.378	0.0144511
679.456	0.0144835
679.535	0.0143338
679.613	0.0143443
679.691	0.0144943
679.769	0.0143456
679.847	0.0143979
679.925	0.0144331
680.003	0.0142452
680.081	0.0143389
680.160	0.0143516
680.238	0.0143817
680.316	0.0144974
680.394	0.0144732
680.472	0.0144012
680.550	0.0144475
680.628	0.0144758
680.706	0.0144864
680.785	0.0143348
680.863	0.0142726
680.941	0.0144427
681.019	0.0143732
681.097	0.0143645
681.175	0.0144212
681.253	0.0143970
681.331	0.0145874
681.410	0.0143810
681.488	0.0142544
681.566	0.0143716
681.644	0.0144772
681.722	0.0143467
681.800	0.0143577
681.878	0.0145020
681.956	0.0143844
682.035	0.0144562
682.113	0.0144171
682.191	0.0144421
682.269	0.0144098
682.347	0.0143590
682.425	0.0144652
682.503	0.0143156
682.581	0.0142387
682.660	0.0144275
682.738	0.0142880
682.816	0.0144016
682.894	0.0143649
682.972	0.0144540
683.050	0.0143768
683.128	0.0143463
683.206	0.0143042
683.285	0.0144729
683.363	0.0145005
683.441	0.0144029
683.519	0.0143281
683.597	0.0143305
683.675	0.0143224
683.753	0.0145020
683.831	0.0144531
683.910	0.0142646
683.988	0.0142743
684.066	0.0142626
684.144	0.0143615
684.222	0.0144051
684.300	0.0144954
684.378	0.0144071
684.456	0.0142738
684.535	0.0144114
684.613	0.0146619
684.691	0.0144073
684.769	0.0144020
684.847	0.0143108
684.925	0.0144765
685.003	0.0144267
685.081	0.0142928
685.160	0.0142920
685.238	0.0143580
685.316	0.0143364
685.394	0.0143223
685.472	0.0143701
685.550	0.0143963
685.628	0.0144299
685.706	0.0143141
685.785	0.0142954
685.863	0.0144038
685.941	0.0144949
686.019	0.0143854
686.097	0.0143407
686.175	0.0143686
686.253	0.0143556
686.331	0.0142828
686.410	0.0144306
686.488	0.0144913
686.566	0.0144158
686.644	0.0145271
686.722	0.0143598
686.800	0.0142986
686.878	0.0142291
686.956	0.0143572
687.035	0.0144262
687.113	0.0143063
687.191	0.0142821
687.269	0.0143034
687.347	0.0143886
687.425	0.0143541
687.503	0.0145744
687.581	0.0143708
687.660	0.0143673
687.738	0.0144093
687.816	0.0144212
687.894	0.0143190
687.972	0.0143449
688.050	0.0144456
688.128	0.0143735
688.206	0.0144328
688.285	0.0143551
688.363	0.0143245
688.441	0.0143829
688.519	0.0143585
688.597	0.0143764
688.675	0.0143647
688.753	0.0143968
688.831	0.0144275
688.910	0.0144444
688.988	0.0144466
689.066	0.0144186
689.144	0.0143818
689.222	0.0143602
689.300	0.0144666
689.378	0.0144047
689.456	0.0145010
689.535	0.0143825
689.613	0.0142302
689.691	0.0142793
689.769	0.0142827
689.847	0.0144515
689.925	0.0143990
690.003	0.0143013
690.081	0.0141712
690.160	0.0143287
690.238	0.0144232
690.316	0.0143224
690.394	0.0143459
690.472	0.0143200
690.550	0.0143149
690.628	0.0142365
690.706	0.0142184
690.785	0.0143378
690.863	0.0144458
690.941	0.0143970
691.019	0.0142491
691.097	0.0143637
691.175	0.0141912
691.253	0.0144093
691.331	0.0142796
691.410	0.0143136
691.488	0.0144495
691.566	0.0144132
691.644	0.0142625
691.722	0.0142771
691.800	0.0142272
691.878	0.0144829
691.956	0.0144382
692.035	0.0143420
692.113	0.0141688
692.191	0.0143181
692.269	0.0144293
692.347	0.0144853
692.425	0.0144198
692.503	0.0142767
692.581	0.0144311
692.660	0.0142738
692.738	0.0143997
692.816	0.0144906
692.894	0.0142799
692.972	0.0142955
693.050	0.0143100
693.128	0.0144000
693.206	0.0143185
693.285	0.0144576
693.363	0.0143508
693.441	0.0141644
693.519	0.0141714
693.597	0.0144640
693.675	0.0145142
693.753	0.0143316
693.831	0.0144299
693.910	0.0144377
693.988	0.0144729
694.066	0.0143358
694.144	0.0143966
694.222	0.0142777
694.300	0.0142957
694.378	0.0143910
694.456	0.0143705
694.535	0.0143031
694.613	0.0144246
694.691	0.0145099
694.769	0.0143614
694.847	0.0143941
694.925	0.0143183
695.003	0.0143904
695.081	0.0143737
695.160	0.0145123
695.238	0.0143678
695.316	0.0142274
695.394	0.0143614
695.472	0.0145432
695.550	0.0143987
695.628	0.0143179
695.706	0.0143771
695.785	0.0143607
695.863	0.0142744
695.941	0.0143267
696.019	0.0143913
696.097	0.0143739
696.175	0.0143711
696.253	0.0144106
696.331	0.0143807
696.410	0.0144100
696.488	0.0144422
696.566	0.0144547
696.644	0.0144774
696.722	0.0145924
696.800	0.0143626
696.878	0.0144806
696.956	0.0144809
697.035	0.0143800
697.113	0.0144711
697.191	0.0144083
697.269	0.0144267
697.347	0.0143301
697.425	0.0143246
697.503	0.0142323
697.581	0.0144801
697.660	0.0143704
697.738	0.0143291
697.816	0.0144102
697.894	0.0143849
697.972	0.0143551
698.050	0.0143484
698.128	0.0143114
698.206	0.0145396
698.285	0.0144675
698.363	0.0145072
698.441	0.0143495
698.519	0.0143904
698.597	0.0144553
698.675	0.0145075
698.753	0.0145213
698.831	0.0144853
698.910	0.0145356
698.988	0.0143649
699.066	0.0143678
699.144	0.0144032
699.222	0.0143423
699.300	0.0143713
699.378	0.0144102
699.456	0.0143862
699.535	0.0142857
699.613	0.0142871
699.691	0.0144141
699.769	0.0145010
699.847	0.0144622
699.925	0.0144220
700.003	0.0144851
700.081	0.0145215
700.160	0.0144543
700.238	0.0143549
700.316	0.0145027
700.394	0.0145215
700.472	0.0144492
700.550	0.0144081
700.628	0.0144072
700.706	0.0143018
700.785	0.0143723
700.863	0.0145374
700.941	0.0144123
701.019	0.0142131
701.097	0.0143060
701.175	0.0142455
701.253	0.0143197
701.331	0.0143356
701.410	0.0142676
701.488	0.0142899
701.566	0.0143512
701.644	0.0143303
701.722	0.0143219
701.800	0.0145074
701.878	0.0143685
701.956	0.0144179
702.035	0.0144882
702.113	0.0143899
702.191	0.0144619
702.269	0.0145475
702.347	0.0144966
702.425	0.0144027
702.503	0.0144441
702.581	0.0143826
702.660	0.0145153
702.738	0.0145850
702.816	0.0145361
702.894	0.0144695
702.972	0.0143530
703.050	0.0146290
703.128	0.0146008
703.206	0.0145218
703.285	0.0145598
703.363	0.0145352
703.441	0.0145331
703.519	0.0146103
703.597	0.0145831
703.675	0.0146197
703.753	0.0146768
703.831	0.0146996
703.910	0.0144137
703.988	0.0146516
704.066	0.0145042
704.144	0.0145018
704.222	0.0146202
704.300	0.0147153
704.378	0.0146824
704.456	0.0145757
704.535	0.0145526
704.613	0.0144894
704.691	0.0145754
704.769	0.0145969
704.847	0.0144955
704.925	0.0144655
705.003	0.0144492
705.081	0.0144841
705.160	0.0143894
705.238	0.0145057
705.316	0.0144146
705.394	0.0143860
705.472	0.0141570
705.550	0.0143597
705.628	0.0142316
705.706	0.0141611
705.785	0.0142403
705.863	0.0143631
705.941	0.0142673
706.019	0.0142419
706.097	0.0142374
706.175	0.0140411
706.253	0.0138679
706.331	0.0133952
706.410	0.0127177
706.488	0.0120371
706.566	0.0111526
706.644	0.0103832
706.722	0.0100428
706.800	0.0101849
706.878	0.0110672
706.956	0.0125730
707.035	0.0149731
707.113	0.0176028
707.191	0.0198785
707.269	0.0214206
707.347	0.0213129
707.425	0.0200814
707.503	0.0173655
707.581	0.0135831
707.660	0.00958504
707.738	0.00571655
707.816	0.00292244
707.894	0.00143677
707.972	0.00152359
708.050	0.00346817
708.128	0.00713882
708.206	0.0123247
708.285	0.0179929
708.363	0.0240647
708.441	0.0292690
708.519	0.0335627
708.597	0.0359331
708.675	0.0361795
708.753	0.0344615
708.831	0.0308604
708.910	0.0256388
708.988	0.0195599
709.066	0.0131626
709.144	0.00669525
709.222	0.00137123
709.300	-0.00274727
709.378	-0.00520653
709.456	-0.00595070
709.535	-0.00516930
709.613	-0.00301376
709.691	0.000418701
709.769	0.00453156
709.847	0.00895164
709.925	0.0133118
710.003	0.0173608
710.081	0.0210062
710.160	0.0239841
710.238	0.0260683
710.316	0.0271453
710.394	0.0275546
710.472	0.0268125
710.550	0.0252338
710.628	0.0230379
710.706	0.0203593
710.785	0.0174509
710.863	0.0146379
710.941	0.0122745
711.019	0.0102158
711.097	0.00888634
711.175	0.00806389
711.253	0.00736130
711.331	0.00739456
711.410	0.00768890
711.488	0.00824791
711.566	0.00921867
711.644	0.0105866
711.722	0.0119014
711.800	0.0135524
711.878	0.0149695
711.956	0.0166862
712.035	0.0180214
712.113	0.0190402
712.191	0.0200381
712.269	0.0205038
712.347	0.0204282
712.425	0.0202027
712.503	0.0195205
712.581	0.0183097
712.660	0.0170919
712.738	0.0158039
712.816	0.0143843
712.894	0.0131593
712.972	0.0120855
713.050	0.0111143
713.128	0.0104561
713.206	0.00997269
713.285	0.00960625
713.363	0.00973228
713.441	0.00990715
713.519	0.0103838
713.597	0.0107727
713.675	0.0113808
713.753	0.0119318
713.831	0.0125643
713.910	0.0134011
713.988	0.0142435
714.066	0.0149626
714.144	0.0157923
714.222	0.0166560
714.300	0.0173353
714.378	0.0178443
714.456	0.0181028
714.535	0.0182091
714.613	0.0180192
714.691	0.0179383
714.769	0.0173907
714.847	0.0170862
714.925	0.0163641
715.003	0.0157774
715.081	0.0153609
715.160	0.0148273
715.238	0.0143269
715.316	0.0139845
715.394	0.0136080
715.472	0.0132934
715.550	0.0132601
715.628	0.0133053
715.706	0.0134129
715.785	0.0136817
715.863	0.0138442
715.941	0.0141165
716.019	0.0144049
716.097	0.0145454
716.175	0.0144367
716.253	0.0145136
716.331	0.0141432
716.410	0.0137989
716.488	0.0137461
716.566	0.0137099
716.644	0.0136475
716.722	0.0136551
716.800	0.0138516
716.878	0.0139678
716.956	0.0141817
717.035	0.0141543
717.113	0.0142757
717.191	0.0142506
717.269	0.0141209
717.347	0.0138419
717.425	0.0135786
717.503	0.0134386
717.581	0.0134759
717.660	0.0134779
717.738	0.0134043
717.816	0.0133490
717.894	0.0136329
717.972	0.0136704
718.050	0.0136601
718.128	0.0137392
718.206	0.0138738
718.285	0.0138203
718.363	0.0138733
718.441	0.0137881
718.519	0.0138713
718.597	0.0139584
718.675	0.0141953
718.753	0.0144125
718.831	0.0147733
718.910	0.0149161
718.988	0.0151100
719.066	0.0152589
719.144	0.0150343
719.222	0.0150018
719.300	0.0147194
719.378	0.0145894
719.456	0.0147183
719.535	0.0146391
719.613	0.0148409
719.691	0.0150144
719.769	0.0153328
719.847	0.0154842
719.925	0.0157632
720.003	0.0158461
720.081	0.0158840
720.160	0.0161107
720.238	0.0162213
720.316	0.0163519
720.394	0.0164031
720.472	0.0162819
720.550	0.0162096
720.628	0.0159388
720.706	0.0156579
720.785	0.0153201
720.863	0.0148800
720.941	0.0143454
721.019	0.0136219
721.097	0.0130926
721.175	0.0124504
721.253	0.0119018
721.331	0.0113318
721.410	0.0109835
721.488	0.0106617
721.566	0.0104120
721.644	0.0102596
721.722	0.0102418
721.800	0.0104417
721.878	0.0109547
721.956	0.0114364
722.035	0.0121001
722.113	0.0127731
722.191	0.0133769
722.269	0.0141892
722.347	0.0148267
722.425	0.0152384
722.503	0.0157083
722.581	0.0158077
722.660	0.0157866
722.738	0.0158391
722.816	0.0156901
722.894	0.0156863
722.972	0.0157693
723.050	0.0158596
723.128	0.0163378
723.206	0.0164233
723.285	0.0163844
723.363	0.0164460
723.441	0.0167417
723.519	0.0167056
723.597	0.0167464
723.675	0.0167059
723.753	0.0166730
723.831	0.0166431
723.910	0.0165685
723.988	0.0164209
724.066	0.0158129
724.144	0.0153327
724.222	0.0145707
724.300	0.0138298
724.378	0.0131084
724.456	0.0125671
724.535	0.0119137
724.613	0.0116333
724.691	0.0115431
724.769	0.0116975
724.847	0.0119081
724.925	0.0124308
725.003	0.0129741
725.081	0.0136124
725.160	0.0141888
725.238	0.0145584
725.316	0.0150353
725.394	0.0152343
725.472	0.0157032
725.550	0.0157108
725.628	0.0158182
725.706	0.0158882
725.785	0.0156934
725.863	0.0157034
725.941	0.0154854
726.019	0.0150942
726.097	0.0146811
726.175	0.0142576
726.253	0.0139757
726.331	0.0134664
726.410	0.0132309
726.488	0.0131205
726.566	0.0129675
726.644	0.0129282
726.722	0.0130080
726.800	0.0131912
726.878	0.0135216
726.956	0.0136914
727.035	0.0140410
727.113	0.0144012
727.191	0.0147194
727.269	0.0149414
727.347	0.0153313
727.425	0.0157939
727.503	0.0157710
727.581	0.0160190
727.660	0.0159789
727.738	0.0158674
727.816	0.0155689
727.894	0.0154778
727.972	0.0154611
728.050	0.0148229
728.128	0.0145691
728.206	0.0144300
728.285	0.0137857
728.363	0.0135379
728.441	0.0135056
728.519	0.0129746
728.597	0.0130333
728.675	0.0129902
728.753	0.0129347
728.831	0.0131691
728.910	0.0134920
728.988	0.0137512
729.066	0.0140141
729.144	0.0142782
729.222	0.0144135
729.300	0.0144865
729.378	0.0147511
729.456	0.0146293
729.535	0.0144368
729.613	0.0141977
729.691	0.0140172
729.769	0.0137193
729.847	0.0134254
729.925	0.0132149
730.003	0.0131672
730.081	0.0130269
730.160	0.0130650
730.238	0.0131990
730.316	0.0134251
730.394	0.0137035
730.472	0.0140751
730.550	0.0143159
730.628	0.0150694
730.706	0.0154436
730.785	0.0158160
730.863	0.0161661
730.941	0.0166389
731.019	0.0167173
731.097	0.0168905
731.175	0.0168499
731.253	0.0167165
731.331	0.0165466
731.410	0.0164114
731.488	0.0161208
731.566	0.0157540
731.644	0.0155025
731.722	0.0150896
731.800	0.0146532
731.878	0.0140883
731.956	0.0137811
732.035	0.0133099
732.113	0.0130188
732.191	0.0127341
732.269	0.0125840
732.347	0.0124648
732.425	0.0127094
732.503	0.0126563
732.581	0.0130104
732.660	0.0133827
732.738	0.0135394
732.816	0.0139726
732.894	0.0144340
732.972	0.0145803
733.050	0.0148243
733.128	0.0148886
733.206	0.0149091
733.285	0.0146700
733.363	0.0145996
733.441	0.0144102
733.519	0.0140634
733.597	0.0137916
733.675	0.0134641
733.753	0.0132169
733.831	0.0130737
733.910	0.0128722
733.988	0.0129816
734.066	0.0130144
734.144	0.0130486
734.222	0.0134975
734.300	0.0138858
734.378	0.0141161
734.456	0.0143923
734.535	0.0145987
734.613	0.0148854
734.691	0.0149782
734.769	0.0149610
734.847	0.0150487
734.925	0.0149699
735.003	0.0150697
735.081	0.0151977
735.160	0.0152551
735.238	0.0150464
735.316	0.0150630
735.394	0.0149665
735.472	0.0149805
735.550	0.0150743
735.628	0.0147890
735.706	0.0149607
735.785	0.0149363
735.863	0.0150515
735.941	0.0151571
736.019	0.0150709
736.097	0.0151637
736.175	0.0153378
736.253	0.0152191
736.331	0.0150652
736.410	0.0148296
736.488	0.0148677
736.566	0.0148174
736.644	0.0146348
736.722	0.0145202
736.800	0.0142847
736.878	0.0140432
736.956	0.0138566
737.035	0.0139964
737.113	0.0138700
737.191	0.0136933
737.269	0.0136477
737.347	0.0135757
737.425	0.0136732
737.503	0.0136803
737.581	0.0137333
737.660	0.0138622
737.738	0.0138645
737.816	0.0140471
737.894	0.0143547
737.972	0.0143691
738.050	0.0145916
738.128	0.0148169
738.206	0.0148288
738.285	0.0149733
738.363	0.0149467
738.441	0.0151249
738.519	0.0149799
738.597	0.0147853
738.675	0.0147337
738.753	0.0144828
738.831	0.0141492
738.910	0.0140291
738.988	0.0139719
739.066	0.0137370
739.144	0.0137341
739.222	0.0138022
739.300	0.0139011
739.378	0.0140324
739.456	0.0141081
739.535	0.0143605
739.613	0.0146835
739.691	0.0148482
739.769	0.0150413
739.847	0.0153922
739.925	0.0153755
740.003	0.0153645
740.081	0.0152897
740.160	0.0152039
740.238	0.0150069
740.316	0.0146665
740.394	0.0143877
740.472	0.0140967
740.550	0.0136199
740.628	0.0135075
740.706	0.0132483
740.785	0.0131493
740.863	0.0131582
740.941	0.0131340
741.019	0.0133115
741.097	0.0135009
741.175	0.0136821
741.253	0.0137152
741.331	0.0141351
741.410	0.0142810
741.488	0.0144260
741.566	0.0146059
741.644	0.0146906
741.722	0.0146646
741.800	0.0147029
741.878	0.0147461
741.956	0.0147904
742.035	0.0146659
742.113	0.0146616
742.191	0.0146592
742.269	0.0143979
742.347	0.0144442
742.425	0.0142912
742.503	0.0143362
742.581	0.0142086
742.660	0.0141075
742.738	0.0141263
742.816	0.0140714
742.894	0.0139668
742.972	0.0140090
743.050	0.0139453
743.128	0.0141142
743.206	0.0142555
743.285	0.0142252
743.363	0.0144987
743.441	0.0146749
743.519	0.0148432
743.597	0.0150639
743.675	0.0151340
743.753	0.0153557
743.831	0.0152979
743.910	0.0153779
743.988	0.0152888
744.066	0.0153155
744.144	0.0152055
744.222	0.0149664
744.300	0.0146450
744.378	0.0143992
744.456	0.0142919
744.535	0.0140366
744.613	0.0140567
744.691	0.0138567
744.769	0.0135347
744.847	0.0138564
744.925	0.0138940
745.003	0.0139927
745.081	0.0142393
745.160	0.0142833
745.238	0.0145620
745.316	0.0143510
745.394	0.0145486
745.472	0.0145956
745.550	0.0144965
