05/03/2022	20:11:46	Ver.	4.1	UNKNOWN
Optical Delay	660.003261	Delta X		0.078125	Sweeps	1	Scan Rate	0/0
Coordinates	Axis 1	NaN	Axis 2	NaN	Axis 3	NaN	Axis 4	NaN	Axis 5	NaN	Axis 6	0.000000
TX Power	0.000000	RX Power	0.000000

660.003	0.0148988
660.081	0.0149036
660.160	0.0149353
660.238	0.0148390
660.316	0.0148660
660.394	0.0149676
660.472	0.0149529
660.550	0.0149298
660.628	0.0148448
660.706	0.0148799
660.785	0.0149038
660.863	0.0149310
660.941	0.0149742
661.019	0.0149222
661.097	0.0149624
661.175	0.0148754
661.253	0.0147395
661.331	0.0148870
661.410	0.0149408
661.488	0.0149841
661.566	0.0150239
661.644	0.0149021
661.722	0.0148608
661.800	0.0148072
661.878	0.0149232
661.956	0.0149397
662.035	0.0149355
662.113	0.0150385
662.191	0.0148445
662.269	0.0147938
662.347	0.0150238
662.425	0.0149011
662.503	0.0148443
662.581	0.0150002
662.660	0.0151550
662.738	0.0149632
662.816	0.0149133
662.894	0.0149790
662.972	0.0150866
663.050	0.0148161
663.128	0.0149041
663.206	0.0148714
663.285	0.0150842
663.363	0.0150221
663.441	0.0148760
663.519	0.0149091
663.597	0.0150523
663.675	0.0149619
663.753	0.0149553
663.831	0.0149522
663.910	0.0148786
663.988	0.0148457
664.066	0.0150490
664.144	0.0148692
664.222	0.0149343
664.300	0.0149810
664.378	0.0149772
664.456	0.0150188
664.535	0.0149725
664.613	0.0149265
664.691	0.0149606
664.769	0.0149694
664.847	0.0148117
664.925	0.0149948
665.003	0.0150204
665.081	0.0148458
665.160	0.0149454
665.238	0.0150092
665.316	0.0149785
665.394	0.0149471
665.472	0.0149169
665.550	0.0148431
665.628	0.0149405
665.706	0.0150426
665.785	0.0148948
665.863	0.0147575
665.941	0.0148779
666.019	0.0147907
666.097	0.0149208
666.175	0.0149160
666.253	0.0149897
666.331	0.0148892
666.410	0.0148963
666.488	0.0147498
666.566	0.0149879
666.644	0.0149814
666.722	0.0148900
666.800	0.0149296
666.878	0.0149848
666.956	0.0149380
667.035	0.0148819
667.113	0.0150021
667.191	0.0148440
667.269	0.0149314
667.347	0.0149647
667.425	0.0148524
667.503	0.0149268
667.581	0.0150095
667.660	0.0148183
667.738	0.0147472
667.816	0.0148200
667.894	0.0149904
667.972	0.0148394
668.050	0.0149284
668.128	0.0150791
668.206	0.0149469
668.285	0.0149397
668.363	0.0148616
668.441	0.0149066
668.519	0.0150595
668.597	0.0149757
668.675	0.0150557
668.753	0.0149192
668.831	0.0149615
668.910	0.0149100
668.988	0.0149619
669.066	0.0149841
669.144	0.0149768
669.222	0.0149587
669.300	0.0149285
669.378	0.0149509
669.456	0.0149831
669.535	0.0148648
669.613	0.0147604
669.691	0.0148970
669.769	0.0149943
669.847	0.0149484
669.925	0.0149224
670.003	0.0149529
670.081	0.0150078
670.160	0.0148902
670.238	0.0150005
670.316	0.0149889
670.394	0.0148741
670.472	0.0149060
670.550	0.0150661
670.628	0.0151277
670.706	0.0149406
670.785	0.0150153
670.863	0.0149085
670.941	0.0149301
671.019	0.0149504
671.097	0.0149244
671.175	0.0148735
671.253	0.0149550
671.331	0.0150201
671.410	0.0150297
671.488	0.0148804
671.566	0.0148708
671.644	0.0149749
671.722	0.0150181
671.800	0.0150034
671.878	0.0150502
671.956	0.0149786
672.035	0.0149401
672.113	0.0149025
672.191	0.0148830
672.269	0.0150186
672.347	0.0150227
672.425	0.0149723
672.503	0.0149232
672.581	0.0150262
672.660	0.0150314
672.738	0.0149521
672.816	0.0148901
672.894	0.0149040
672.972	0.0149831
673.050	0.0149846
673.128	0.0147226
673.206	0.0149939
673.285	0.0149198
673.363	0.0148940
673.441	0.0150334
673.519	0.0150347
673.597	0.0148448
673.675	0.0149227
673.753	0.0149590
673.831	0.0149658
673.910	0.0149423
673.988	0.0151595
674.066	0.0150288
674.144	0.0149193
674.222	0.0149163
674.300	0.0148874
674.378	0.0149323
674.456	0.0149665
674.535	0.0150201
674.613	0.0149478
674.691	0.0149725
674.769	0.0147842
674.847	0.0148375
674.925	0.0149519
675.003	0.0149107
675.081	0.0149883
675.160	0.0149494
675.238	0.0149289
675.316	0.0149632
675.394	0.0149360
675.472	0.0149533
675.550	0.0149120
675.628	0.0148806
675.706	0.0149185
675.785	0.0149924
675.863	0.0150278
675.941	0.0148956
676.019	0.0150307
676.097	0.0148936
676.175	0.0147368
676.253	0.0149122
676.331	0.0150060
676.410	0.0148734
676.488	0.0149561
676.566	0.0150463
676.644	0.0149430
676.722	0.0148884
676.800	0.0148958
676.878	0.0151334
676.956	0.0148724
677.035	0.0148827
677.113	0.0148820
677.191	0.0148796
677.269	0.0149662
677.347	0.0148225
677.425	0.0149799
677.503	0.0151497
677.581	0.0150553
677.660	0.0149691
677.738	0.0149823
677.816	0.0149648
677.894	0.0148483
677.972	0.0150954
678.050	0.0149004
678.128	0.0149909
678.206	0.0149904
678.285	0.0149171
678.363	0.0148936
678.441	0.0150302
678.519	0.0150433
678.597	0.0149547
678.675	0.0149041
678.753	0.0148113
678.831	0.0149737
678.910	0.0150262
678.988	0.0149757
679.066	0.0148176
679.144	0.0149464
679.222	0.0150023
679.300	0.0150477
679.378	0.0149864
679.456	0.0150823
679.535	0.0150452
679.613	0.0149419
679.691	0.0148246
679.769	0.0149213
679.847	0.0147626
679.925	0.0148627
680.003	0.0149834
680.081	0.0149144
680.160	0.0148304
680.238	0.0149152
680.316	0.0148135
680.394	0.0148545
680.472	0.0148083
680.550	0.0148489
680.628	0.0148504
680.706	0.0149117
680.785	0.0149918
680.863	0.0148812
680.941	0.0148990
681.019	0.0149213
681.097	0.0150069
681.175	0.0149157
681.253	0.0150517
681.331	0.0149893
681.410	0.0149825
681.488	0.0149034
681.566	0.0148545
681.644	0.0149329
681.722	0.0149091
681.800	0.0150504
681.878	0.0151177
681.956	0.0148862
682.035	0.0148526
682.113	0.0148586
682.191	0.0150082
682.269	0.0150673
682.347	0.0149524
682.425	0.0150043
682.503	0.0148761
682.581	0.0149487
682.660	0.0150216
682.738	0.0149439
682.816	0.0150041
682.894	0.0149380
682.972	0.0149684
683.050	0.0149757
683.128	0.0147708
683.206	0.0148940
683.285	0.0149412
683.363	0.0149905
683.441	0.0149560
683.519	0.0149405
683.597	0.0148386
683.675	0.0150657
683.753	0.0150329
683.831	0.0149902
683.910	0.0148954
683.988	0.0148429
684.066	0.0148915
684.144	0.0149149
684.222	0.0148817
684.300	0.0149170
684.378	0.0150719
684.456	0.0148343
684.535	0.0148923
684.613	0.0148994
684.691	0.0148489
684.769	0.0148680
684.847	0.0148732
684.925	0.0149534
685.003	0.0149121
685.081	0.0148527
685.160	0.0149960
685.238	0.0149702
685.316	0.0149563
685.394	0.0149011
685.472	0.0147980
685.550	0.0149293
685.628	0.0149179
685.706	0.0149516
685.785	0.0150026
685.863	0.0149630
685.941	0.0148241
686.019	0.0149583
686.097	0.0149408
686.175	0.0148483
686.253	0.0150454
686.331	0.0149879
686.410	0.0149483
686.488	0.0148043
686.566	0.0149832
686.644	0.0149211
686.722	0.0150393
686.800	0.0148968
686.878	0.0149139
686.956	0.0149731
687.035	0.0149034
687.113	0.0147733
687.191	0.0148705
687.269	0.0147289
687.347	0.0148640
687.425	0.0149586
687.503	0.0147848
687.581	0.0149055
687.660	0.0148141
687.738	0.0149255
687.816	0.0149519
687.894	0.0149247
687.972	0.0148814
688.050	0.0147803
688.128	0.0148983
688.206	0.0148532
688.285	0.0150436
688.363	0.0149927
688.441	0.0149162
688.519	0.0149849
688.597	0.0147743
688.675	0.0148678
688.753	0.0149885
688.831	0.0150217
688.910	0.0149648
688.988	0.0149659
689.066	0.0150574
689.144	0.0149715
689.222	0.0148790
689.300	0.0148187
689.378	0.0148458
689.456	0.0149143
689.535	0.0147570
689.613	0.0149316
689.691	0.0149893
689.769	0.0150185
689.847	0.0147829
689.925	0.0148209
690.003	0.0149492
690.081	0.0149554
690.160	0.0149106
690.238	0.0149113
690.316	0.0149585
690.394	0.0148905
690.472	0.0149940
690.550	0.0148263
690.628	0.0148299
690.706	0.0150500
690.785	0.0149026
690.863	0.0149845
690.941	0.0149425
691.019	0.0148293
691.097	0.0148588
691.175	0.0148817
691.253	0.0148988
691.331	0.0150135
691.410	0.0149677
691.488	0.0149302
691.566	0.0149979
691.644	0.0149253
691.722	0.0149396
691.800	0.0148532
691.878	0.0148274
691.956	0.0148330
692.035	0.0150567
692.113	0.0150562
692.191	0.0149466
692.269	0.0149577
692.347	0.0150256
692.425	0.0148218
692.503	0.0148747
692.581	0.0149999
692.660	0.0148676
692.738	0.0149721
692.816	0.0149419
692.894	0.0149688
692.972	0.0149944
693.050	0.0149311
693.128	0.0149538
693.206	0.0150230
693.285	0.0148550
693.363	0.0150388
693.441	0.0149650
693.519	0.0148877
693.597	0.0148882
693.675	0.0148337
693.753	0.0149725
693.831	0.0148434
693.910	0.0149010
693.988	0.0149136
694.066	0.0149016
694.144	0.0149134
694.222	0.0150578
694.300	0.0148699
694.378	0.0149511
694.456	0.0149370
694.535	0.0148660
694.613	0.0149754
694.691	0.0150077
694.769	0.0148273
694.847	0.0149406
694.925	0.0149522
695.003	0.0149717
695.081	0.0148617
695.160	0.0147987
695.238	0.0148666
695.316	0.0149827
695.394	0.0149863
695.472	0.0148070
695.550	0.0148984
695.628	0.0149934
695.706	0.0151332
695.785	0.0149780
695.863	0.0148827
695.941	0.0150285
696.019	0.0150790
696.097	0.0149528
696.175	0.0149236
696.253	0.0150117
696.331	0.0149203
696.410	0.0149174
696.488	0.0148149
696.566	0.0148663
696.644	0.0150888
696.722	0.0149129
696.800	0.0147707
696.878	0.0148790
696.956	0.0148163
697.035	0.0148978
697.113	0.0148891
697.191	0.0148788
697.269	0.0148486
697.347	0.0149944
697.425	0.0149825
697.503	0.0149677
697.581	0.0150363
697.660	0.0151202
697.738	0.0149275
697.816	0.0149512
697.894	0.0149519
697.972	0.0149709
698.050	0.0150335
698.128	0.0149666
698.206	0.0149747
698.285	0.0148985
698.363	0.0149240
698.441	0.0149249
698.519	0.0148000
698.597	0.0148304
698.675	0.0148170
698.753	0.0147518
698.831	0.0148102
698.910	0.0148269
698.988	0.0149129
699.066	0.0148968
699.144	0.0147969
699.222	0.0150005
699.300	0.0149535
699.378	0.0149814
699.456	0.0150547
699.535	0.0148374
699.613	0.0150409
699.691	0.0148495
699.769	0.0148592
699.847	0.0149706
699.925	0.0148036
700.003	0.0149065
700.081	0.0148923
700.160	0.0150432
700.238	0.0148727
700.316	0.0148722
700.394	0.0148447
700.472	0.0149600
700.550	0.0147953
700.628	0.0148170
700.706	0.0148042
700.785	0.0150000
700.863	0.0148457
700.941	0.0148323
701.019	0.0150182
701.097	0.0149015
701.175	0.0150798
701.253	0.0150549
701.331	0.0147997
701.410	0.0148256
701.488	0.0149413
701.566	0.0150343
701.644	0.0149389
701.722	0.0149017
701.800	0.0149534
701.878	0.0150625
701.956	0.0149311
702.035	0.0150375
702.113	0.0149883
702.191	0.0148843
702.269	0.0150439
702.347	0.0152000
702.425	0.0148805
702.503	0.0149181
702.581	0.0149451
702.660	0.0149725
702.738	0.0148759
702.816	0.0148476
702.894	0.0149008
702.972	0.0148198
703.050	0.0150307
703.128	0.0151163
703.206	0.0149177
703.285	0.0148725
703.363	0.0149154
703.441	0.0149736
703.519	0.0150309
703.597	0.0148623
703.675	0.0149701
703.753	0.0150751
703.831	0.0151361
703.910	0.0150417
703.988	0.0150333
704.066	0.0150522
704.144	0.0150086
704.222	0.0151979
704.300	0.0151286
704.378	0.0150692
704.456	0.0151231
704.535	0.0149800
704.613	0.0149779
704.691	0.0150042
704.769	0.0149590
704.847	0.0149394
704.925	0.0149491
705.003	0.0149412
705.081	0.0149082
705.160	0.0149306
705.238	0.0150889
705.316	0.0147426
705.394	0.0145085
705.472	0.0142245
705.550	0.0136703
705.628	0.0131397
705.706	0.0125836
705.785	0.0121042
705.863	0.0121613
705.941	0.0123947
706.019	0.0132246
706.097	0.0148524
706.175	0.0164487
706.253	0.0182559
706.331	0.0196605
706.410	0.0203362
706.488	0.0200296
706.566	0.0186506
706.644	0.0160231
706.722	0.0127650
706.800	0.00938843
706.878	0.00610855
706.956	0.00369171
707.035	0.00231033
707.113	0.00222900
707.191	0.00381851
707.269	0.00651535
707.347	0.0105678
707.425	0.0156444
707.503	0.0212733
707.581	0.0267833
707.660	0.0318764
707.738	0.0358308
707.816	0.0379641
707.894	0.0378777
707.972	0.0358894
708.050	0.0318753
708.128	0.0262881
708.206	0.0194915
708.285	0.0126621
708.363	0.00591217
708.441	-0.000135956
708.519	-0.00501137
708.597	-0.00848640
708.675	-0.00998039
708.753	-0.0100100
708.831	-0.00848335
708.910	-0.00525475
708.988	-0.00100441
709.066	0.00446625
709.144	0.0105358
709.222	0.0164873
709.300	0.0219447
709.378	0.0270061
709.456	0.0310262
709.535	0.0340703
709.613	0.0358398
709.691	0.0363336
709.769	0.0355253
709.847	0.0338509
709.925	0.0307719
710.003	0.0269803
710.081	0.0227852
710.160	0.0180792
710.238	0.0133571
710.316	0.00922180
710.394	0.00573410
710.472	0.00291534
710.550	0.00100327
710.628	0.000117798
710.706	-0.0000952911
710.785	0.000633545
710.863	0.00226044
710.941	0.00408195
711.019	0.00645950
711.097	0.00889275
711.175	0.0115720
711.253	0.0138159
711.331	0.0160249
711.410	0.0181097
711.488	0.0198399
711.566	0.0213218
711.644	0.0225089
711.722	0.0234622
711.800	0.0240448
711.878	0.0243221
711.956	0.0245984
712.035	0.0240847
712.113	0.0230838
712.191	0.0219836
712.269	0.0204946
712.347	0.0185926
712.425	0.0166940
712.503	0.0147388
712.581	0.0128498
712.660	0.0112235
712.738	0.00974304
712.816	0.00862854
712.894	0.00789711
712.972	0.00724594
713.050	0.00705429
713.128	0.00718071
713.206	0.00738434
713.285	0.00790703
713.363	0.00857933
713.441	0.00946190
713.519	0.0105828
713.597	0.0120190
713.675	0.0136141
713.753	0.0154057
713.831	0.0169106
713.910	0.0186208
713.988	0.0199584
714.066	0.0212740
714.144	0.0222037
714.222	0.0228909
714.300	0.0229353
714.378	0.0225823
714.456	0.0217719
714.535	0.0210686
714.613	0.0200826
714.691	0.0189608
714.769	0.0177143
714.847	0.0164686
714.925	0.0153546
715.003	0.0144621
715.081	0.0135560
715.160	0.0127567
715.238	0.0122548
715.316	0.0118159
715.394	0.0113136
715.472	0.0110691
715.550	0.0108483
715.628	0.0106660
715.706	0.0107562
715.785	0.0109078
715.863	0.0112159
715.941	0.0115460
716.019	0.0119441
716.097	0.0121901
716.175	0.0125219
716.253	0.0128938
716.331	0.0131718
716.410	0.0136417
716.488	0.0142199
716.566	0.0146667
716.644	0.0152160
716.722	0.0156947
716.800	0.0160005
716.878	0.0163882
716.956	0.0165838
717.035	0.0167895
717.113	0.0171223
717.191	0.0171672
717.269	0.0171989
717.347	0.0171873
717.425	0.0170821
717.503	0.0170657
717.581	0.0170268
717.660	0.0167676
717.738	0.0165382
717.816	0.0162811
717.894	0.0160689
717.972	0.0157049
718.050	0.0153499
718.128	0.0150993
718.206	0.0144115
718.285	0.0140170
718.363	0.0138424
718.441	0.0134908
718.519	0.0131499
718.597	0.0129806
718.675	0.0129426
718.753	0.0127350
718.831	0.0128413
718.910	0.0128362
718.988	0.0127938
719.066	0.0130338
719.144	0.0132581
719.222	0.0134325
719.300	0.0138391
719.378	0.0141993
719.456	0.0148119
719.535	0.0156028
719.613	0.0159969
719.691	0.0164126
719.769	0.0167942
719.847	0.0169363
719.925	0.0170557
720.003	0.0171917
720.081	0.0171701
720.160	0.0171270
720.238	0.0169657
720.316	0.0171152
720.394	0.0170224
720.472	0.0166894
720.550	0.0162455
720.628	0.0158274
720.706	0.0152071
720.785	0.0146174
720.863	0.0137335
720.941	0.0133262
721.019	0.0126534
721.097	0.0124870
721.175	0.0119742
721.253	0.0118801
721.331	0.0119693
721.410	0.0121419
721.488	0.0125190
721.566	0.0125786
721.644	0.0128531
721.722	0.0131152
721.800	0.0134130
721.878	0.0137161
721.956	0.0137845
722.035	0.0138865
722.113	0.0144026
722.191	0.0148105
722.269	0.0151286
722.347	0.0154587
722.425	0.0158547
722.503	0.0161040
722.581	0.0162661
722.660	0.0165305
722.738	0.0167519
722.816	0.0171081
722.894	0.0173196
722.972	0.0175846
723.050	0.0176395
723.128	0.0175412
723.206	0.0174139
723.285	0.0172075
723.363	0.0167567
723.441	0.0161902
723.519	0.0157613
723.597	0.0152973
723.675	0.0147799
723.753	0.0143553
723.831	0.0141717
723.910	0.0139121
723.988	0.0137228
724.066	0.0136318
724.144	0.0137052
724.222	0.0137514
724.300	0.0140663
724.378	0.0143842
724.456	0.0147735
724.535	0.0153854
724.613	0.0158044
724.691	0.0161082
724.769	0.0164061
724.847	0.0165583
724.925	0.0167609
725.003	0.0166594
725.081	0.0166602
725.160	0.0163232
725.238	0.0157601
725.316	0.0154353
725.394	0.0150793
725.472	0.0145247
725.550	0.0139574
725.628	0.0136570
725.706	0.0131021
725.785	0.0128149
725.863	0.0125449
725.941	0.0123971
726.019	0.0121915
726.097	0.0121439
726.175	0.0121571
726.253	0.0123706
726.331	0.0125337
726.410	0.0129755
726.488	0.0135240
726.566	0.0140520
726.644	0.0144483
726.722	0.0150745
726.800	0.0156210
726.878	0.0158421
726.956	0.0161166
727.035	0.0164754
727.113	0.0163902
727.191	0.0164342
727.269	0.0162583
727.347	0.0161200
727.425	0.0158790
727.503	0.0155540
727.581	0.0151512
727.660	0.0151977
727.738	0.0150008
727.816	0.0151007
727.894	0.0153331
727.972	0.0154218
728.050	0.0156893
728.128	0.0159061
728.206	0.0160732
728.285	0.0162852
728.363	0.0164751
728.441	0.0163583
728.519	0.0164587
728.597	0.0164094
728.675	0.0162772
728.753	0.0160815
728.831	0.0157922
728.910	0.0154266
728.988	0.0150440
729.066	0.0144333
729.144	0.0140906
729.222	0.0138084
729.300	0.0135049
729.378	0.0134450
729.456	0.0130995
729.535	0.0131329
729.613	0.0131150
729.691	0.0133027
729.769	0.0134800
729.847	0.0136089
729.925	0.0138927
730.003	0.0142343
730.081	0.0144551
730.160	0.0146516
730.238	0.0147630
730.316	0.0148769
730.394	0.0148933
730.472	0.0150072
730.550	0.0150735
730.628	0.0151335
730.706	0.0151353
730.785	0.0150447
730.863	0.0150117
730.941	0.0149802
731.019	0.0149131
731.097	0.0147514
731.175	0.0149215
731.253	0.0147216
731.331	0.0146850
731.410	0.0150126
731.488	0.0149508
731.566	0.0150350
731.644	0.0152366
731.722	0.0155354
731.800	0.0154866
731.878	0.0155676
731.956	0.0157267
732.035	0.0157859
732.113	0.0156805
732.191	0.0158266
732.269	0.0158288
732.347	0.0157180
732.425	0.0157381
732.503	0.0155836
732.581	0.0154988
732.660	0.0153822
732.738	0.0151675
732.816	0.0150003
732.894	0.0147767
732.972	0.0147034
733.050	0.0145346
733.128	0.0143748
733.206	0.0144337
733.285	0.0145012
733.363	0.0145517
733.441	0.0146452
733.519	0.0146415
733.597	0.0147499
733.675	0.0147309
733.753	0.0147513
733.831	0.0143859
733.910	0.0144019
733.988	0.0143758
734.066	0.0142505
734.144	0.0142237
734.222	0.0142788
734.300	0.0144553
734.378	0.0144165
734.456	0.0143811
734.535	0.0145721
734.613	0.0146984
734.691	0.0145186
734.769	0.0147159
734.847	0.0147478
734.925	0.0148832
735.003	0.0149959
735.081	0.0153165
735.160	0.0153976
735.238	0.0155661
735.316	0.0155479
735.394	0.0156614
735.472	0.0157397
735.550	0.0157809
735.628	0.0158284
735.706	0.0160775
735.785	0.0158239
735.863	0.0156212
735.941	0.0156955
736.019	0.0156184
736.097	0.0153921
736.175	0.0150678
736.253	0.0147767
736.331	0.0147417
736.410	0.0144279
736.488	0.0140966
736.566	0.0142683
736.644	0.0142284
736.722	0.0141986
736.800	0.0142879
736.878	0.0144456
736.956	0.0144465
737.035	0.0146779
737.113	0.0150060
737.191	0.0153389
737.269	0.0154818
737.347	0.0157315
737.425	0.0158241
737.503	0.0160345
737.581	0.0159386
737.660	0.0159871
737.738	0.0158080
737.816	0.0155756
737.894	0.0152457
737.972	0.0148692
738.050	0.0144785
738.128	0.0142918
738.206	0.0139588
738.285	0.0136559
738.363	0.0135753
738.441	0.0134914
738.519	0.0136119
738.597	0.0137936
738.675	0.0138212
738.753	0.0142796
738.831	0.0144631
738.910	0.0146442
738.988	0.0148228
739.066	0.0152072
739.144	0.0154884
739.222	0.0156224
739.300	0.0155499
739.378	0.0157421
739.456	0.0156344
739.535	0.0153659
739.613	0.0153893
739.691	0.0152296
739.769	0.0151014
739.847	0.0150504
739.925	0.0148246
740.003	0.0147868
740.081	0.0147914
740.160	0.0147945
740.238	0.0146437
740.316	0.0147272
740.394	0.0148966
740.472	0.0148662
740.550	0.0149771
740.628	0.0152014
740.706	0.0150742
740.785	0.0150489
740.863	0.0153600
740.941	0.0153706
741.019	0.0152408
741.097	0.0150652
741.175	0.0150248
741.253	0.0150402
741.331	0.0149749
741.410	0.0148989
741.488	0.0148136
741.566	0.0150450
741.644	0.0151182
741.722	0.0150536
741.800	0.0151010
741.878	0.0149263
741.956	0.0149152
742.035	0.0148945
742.113	0.0147921
742.191	0.0146466
742.269	0.0146121
742.347	0.0145502
742.425	0.0145691
742.503	0.0145121
742.581	0.0145547
742.660	0.0145412
742.738	0.0145790
742.816	0.0146536
742.894	0.0146368
742.972	0.0147603
743.050	0.0148101
743.128	0.0147995
743.206	0.0149635
743.285	0.0147992
743.363	0.0147736
743.441	0.0147861
743.519	0.0147980
743.597	0.0147734
743.675	0.0145743
743.753	0.0144349
743.831	0.0145540
743.910	0.0145061
743.988	0.0144662
744.066	0.0147801
744.144	0.0149130
744.222	0.0151033
744.300	0.0151350
744.378	0.0152759
744.456	0.0153001
744.535	0.0155003
744.613	0.0154520
744.691	0.0153890
744.769	0.0152930
744.847	0.0153835
744.925	0.0153908
745.003	0.0152039
745.081	0.0153621
745.160	0.0151337
745.238	0.0151180
745.316	0.0149438
745.394	0.0148358
745.472	0.0148199
