05/03/2022	20:12:16	Ver.	4.1	UNKNOWN
Optical Delay	660.003261	Delta X		0.078125	Sweeps	1	Scan Rate	0/0
Coordinates	Axis 1	NaN	Axis 2	NaN	Axis 3	NaN	Axis 4	NaN	Axis 5	NaN	Axis 6	0.000000
TX Power	0.000000	RX Power	0.000000

660.003	0.0147498
660.081	0.0147755
660.160	0.0148218
660.238	0.0146985
660.316	0.0147397
660.394	0.0147640
660.472	0.0148304
660.550	0.0148251
660.628	0.0147457
660.706	0.0148741
660.785	0.0147519
660.863	0.0147247
660.941	0.0147819
661.019	0.0147713
661.097	0.0147741
661.175	0.0148307
661.253	0.0148312
661.331	0.0147021
661.410	0.0148714
661.488	0.0147799
661.566	0.0146545
661.644	0.0147190
661.722	0.0147903
661.800	0.0148720
661.878	0.0148657
661.956	0.0147077
662.035	0.0147308
662.113	0.0147204
662.191	0.0147860
662.269	0.0148441
662.347	0.0146864
662.425	0.0146346
662.503	0.0149047
662.581	0.0148232
662.660	0.0147047
662.738	0.0148164
662.816	0.0147799
662.894	0.0146058
662.972	0.0146594
663.050	0.0146943
663.128	0.0147739
663.206	0.0147736
663.285	0.0146252
663.363	0.0146458
663.441	0.0145802
663.519	0.0147617
663.597	0.0148938
663.675	0.0147790
663.753	0.0147435
663.831	0.0146926
663.910	0.0147099
663.988	0.0147162
664.066	0.0147793
664.144	0.0148723
664.222	0.0147306
664.300	0.0146712
664.378	0.0148415
664.456	0.0148130
664.535	0.0148033
664.613	0.0146822
664.691	0.0146494
664.769	0.0147645
664.847	0.0147695
664.925	0.0146948
665.003	0.0147681
665.081	0.0148302
665.160	0.0146958
665.238	0.0147765
665.316	0.0150184
665.394	0.0148058
665.472	0.0148086
665.550	0.0147124
665.628	0.0147768
665.706	0.0148470
665.785	0.0147563
665.863	0.0147843
665.941	0.0147091
666.019	0.0147987
666.097	0.0147507
666.175	0.0147647
666.253	0.0146561
666.331	0.0146905
666.410	0.0146838
666.488	0.0147572
666.566	0.0147249
666.644	0.0146742
666.722	0.0147532
666.800	0.0148534
666.878	0.0148299
666.956	0.0146730
667.035	0.0147497
667.113	0.0149120
667.191	0.0147943
667.269	0.0146550
667.347	0.0146944
667.425	0.0147410
667.503	0.0147145
667.581	0.0148826
667.660	0.0147748
667.738	0.0147789
667.816	0.0148030
667.894	0.0148050
667.972	0.0147078
668.050	0.0147880
668.128	0.0146879
668.206	0.0147641
668.285	0.0148295
668.363	0.0146603
668.441	0.0146124
668.519	0.0145510
668.597	0.0146914
668.675	0.0148837
668.753	0.0145908
668.831	0.0146393
668.910	0.0146599
668.988	0.0147211
669.066	0.0146777
669.144	0.0147334
669.222	0.0147373
669.300	0.0147472
669.378	0.0147535
669.456	0.0149390
669.535	0.0147031
669.613	0.0147093
669.691	0.0148049
669.769	0.0147808
669.847	0.0147276
669.925	0.0147424
670.003	0.0148310
670.081	0.0147089
670.160	0.0147166
670.238	0.0147222
670.316	0.0147797
670.394	0.0146961
670.472	0.0145975
670.550	0.0147833
670.628	0.0146839
670.706	0.0147343
670.785	0.0147603
670.863	0.0147262
670.941	0.0147176
671.019	0.0147415
671.097	0.0147248
671.175	0.0147643
671.253	0.0148508
671.331	0.0147944
671.410	0.0147913
671.488	0.0147321
671.566	0.0146798
671.644	0.0146471
671.722	0.0146539
671.800	0.0148610
671.878	0.0147997
671.956	0.0146951
672.035	0.0147999
672.113	0.0146535
672.191	0.0146021
672.269	0.0146700
672.347	0.0146229
672.425	0.0147360
672.503	0.0146543
672.581	0.0147687
672.660	0.0146860
672.738	0.0147200
672.816	0.0147148
672.894	0.0145936
672.972	0.0147457
673.050	0.0146735
673.128	0.0146883
673.206	0.0147159
673.285	0.0147887
673.363	0.0147399
673.441	0.0146774
673.519	0.0148022
673.597	0.0148228
673.675	0.0147342
673.753	0.0146594
673.831	0.0148007
673.910	0.0146851
673.988	0.0146141
674.066	0.0147282
674.144	0.0148847
674.222	0.0146829
674.300	0.0148312
674.378	0.0149446
674.456	0.0147336
674.535	0.0146574
674.613	0.0147080
674.691	0.0146322
674.769	0.0148395
674.847	0.0146520
674.925	0.0146848
675.003	0.0147224
675.081	0.0147971
675.160	0.0147531
675.238	0.0148468
675.316	0.0147560
675.394	0.0146899
675.472	0.0146430
675.550	0.0146676
675.628	0.0146695
675.706	0.0148236
675.785	0.0147842
675.863	0.0147192
675.941	0.0147769
676.019	0.0147184
676.097	0.0147638
676.175	0.0147775
676.253	0.0146669
676.331	0.0147504
676.410	0.0149380
676.488	0.0148381
676.566	0.0148639
676.644	0.0147252
676.722	0.0148257
676.800	0.0148106
676.878	0.0147668
676.956	0.0148615
677.035	0.0146747
677.113	0.0146764
677.191	0.0147144
677.269	0.0148476
677.347	0.0147397
677.425	0.0147358
677.503	0.0147386
677.581	0.0146465
677.660	0.0147830
677.738	0.0148190
677.816	0.0147879
677.894	0.0147192
677.972	0.0146247
678.050	0.0146670
678.128	0.0148516
678.206	0.0148208
678.285	0.0147281
678.363	0.0148183
678.441	0.0148277
678.519	0.0147945
678.597	0.0146539
678.675	0.0149096
678.753	0.0147598
678.831	0.0147690
678.910	0.0146787
678.988	0.0146380
679.066	0.0146962
679.144	0.0147616
679.222	0.0146398
679.300	0.0146631
679.378	0.0147621
679.456	0.0146590
679.535	0.0147182
679.613	0.0146936
679.691	0.0147462
679.769	0.0146707
679.847	0.0148300
679.925	0.0148387
680.003	0.0148971
680.081	0.0148312
680.160	0.0147805
680.238	0.0147789
680.316	0.0147677
680.394	0.0146919
680.472	0.0147751
680.550	0.0147260
680.628	0.0147064
680.706	0.0147833
680.785	0.0148325
680.863	0.0147142
680.941	0.0147221
681.019	0.0146107
681.097	0.0147163
681.175	0.0146279
681.253	0.0149376
681.331	0.0148042
681.410	0.0147311
681.488	0.0147559
681.566	0.0148062
681.644	0.0146474
681.722	0.0147666
681.800	0.0146854
681.878	0.0147711
681.956	0.0147715
682.035	0.0148546
682.113	0.0148096
682.191	0.0148174
682.269	0.0148048
682.347	0.0145738
682.425	0.0147448
682.503	0.0147773
682.581	0.0146017
682.660	0.0148238
682.738	0.0147410
682.816	0.0147656
682.894	0.0147753
682.972	0.0146051
683.050	0.0148128
683.128	0.0147787
683.206	0.0146185
683.285	0.0148132
683.363	0.0147345
683.441	0.0145600
683.519	0.0148639
683.597	0.0147751
683.675	0.0146828
683.753	0.0147704
683.831	0.0148098
683.910	0.0147786
683.988	0.0146690
684.066	0.0147569
684.144	0.0147031
684.222	0.0147062
684.300	0.0147977
684.378	0.0147973
684.456	0.0146054
684.535	0.0147810
684.613	0.0146793
684.691	0.0148267
684.769	0.0148958
684.847	0.0147056
684.925	0.0146912
685.003	0.0149245
685.081	0.0147971
685.160	0.0147107
685.238	0.0146564
685.316	0.0148849
685.394	0.0148829
685.472	0.0148301
685.550	0.0147653
685.628	0.0147405
685.706	0.0147426
685.785	0.0148883
685.863	0.0147988
685.941	0.0148637
686.019	0.0147363
686.097	0.0147682
686.175	0.0148039
686.253	0.0148411
686.331	0.0148433
686.410	0.0146747
686.488	0.0148515
686.566	0.0148031
686.644	0.0147193
686.722	0.0148354
686.800	0.0147189
686.878	0.0147893
686.956	0.0147186
687.035	0.0148193
687.113	0.0147965
687.191	0.0148003
687.269	0.0148032
687.347	0.0147489
687.425	0.0147141
687.503	0.0147482
687.581	0.0146199
687.660	0.0147284
687.738	0.0147532
687.816	0.0149359
687.894	0.0148228
687.972	0.0146925
688.050	0.0147973
688.128	0.0147264
688.206	0.0147682
688.285	0.0147945
688.363	0.0148028
688.441	0.0148588
688.519	0.0147660
688.597	0.0147602
688.675	0.0147180
688.753	0.0147733
688.831	0.0148486
688.910	0.0148128
688.988	0.0146768
689.066	0.0148202
689.144	0.0148672
689.222	0.0147475
689.300	0.0146508
689.378	0.0146485
689.456	0.0146797
689.535	0.0148519
689.613	0.0148080
689.691	0.0148010
689.769	0.0146848
689.847	0.0148106
689.925	0.0149547
690.003	0.0147002
690.081	0.0147343
690.160	0.0149574
690.238	0.0147935
690.316	0.0146877
690.394	0.0147253
690.472	0.0148598
690.550	0.0148116
690.628	0.0148217
690.706	0.0147163
690.785	0.0147871
690.863	0.0149209
690.941	0.0148513
691.019	0.0148426
691.097	0.0148389
691.175	0.0148042
691.253	0.0147447
691.331	0.0147783
691.410	0.0147833
691.488	0.0148427
691.566	0.0149104
691.644	0.0147997
691.722	0.0148209
691.800	0.0147622
691.878	0.0147283
691.956	0.0147494
692.035	0.0147688
692.113	0.0147564
692.191	0.0147533
692.269	0.0147582
692.347	0.0147462
692.425	0.0148102
692.503	0.0147665
692.581	0.0147977
692.660	0.0147491
692.738	0.0146857
692.816	0.0148044
692.894	0.0148727
692.972	0.0146655
693.050	0.0146471
693.128	0.0147398
693.206	0.0146548
693.285	0.0146693
693.363	0.0147835
693.441	0.0147227
693.519	0.0146786
693.597	0.0147216
693.675	0.0146864
693.753	0.0147968
693.831	0.0147832
693.910	0.0147111
693.988	0.0147461
694.066	0.0147160
694.144	0.0147462
694.222	0.0147318
694.300	0.0148171
694.378	0.0146717
694.456	0.0146046
694.535	0.0146808
694.613	0.0147421
694.691	0.0148238
694.769	0.0146091
694.847	0.0147269
694.925	0.0147194
695.003	0.0146157
695.081	0.0147530
695.160	0.0147935
695.238	0.0146646
695.316	0.0146902
695.394	0.0146905
695.472	0.0147565
695.550	0.0149094
695.628	0.0148613
695.706	0.0146895
695.785	0.0146814
695.863	0.0147382
695.941	0.0148531
696.019	0.0147664
696.097	0.0148442
696.175	0.0146839
696.253	0.0146261
696.331	0.0146034
696.410	0.0146108
696.488	0.0147118
696.566	0.0147186
696.644	0.0146002
696.722	0.0147099
696.800	0.0147144
696.878	0.0146890
696.956	0.0147408
697.035	0.0148733
697.113	0.0148762
697.191	0.0146501
697.269	0.0147870
697.347	0.0147993
697.425	0.0146996
697.503	0.0147945
697.581	0.0146980
697.660	0.0147339
697.738	0.0147216
697.816	0.0147559
697.894	0.0147165
697.972	0.0146847
698.050	0.0147871
698.128	0.0147872
698.206	0.0146065
698.285	0.0145871
698.363	0.0146570
698.441	0.0146948
698.519	0.0146555
698.597	0.0146609
698.675	0.0148457
698.753	0.0146799
698.831	0.0146870
698.910	0.0148435
698.988	0.0147601
699.066	0.0146587
699.144	0.0147516
699.222	0.0147865
699.300	0.0148067
699.378	0.0146610
699.456	0.0148461
699.535	0.0148085
699.613	0.0147002
699.691	0.0145957
699.769	0.0147616
699.847	0.0147427
699.925	0.0148219
700.003	0.0147474
700.081	0.0145938
700.160	0.0147218
700.238	0.0147309
700.316	0.0145911
700.394	0.0147812
700.472	0.0148723
700.550	0.0147549
700.628	0.0147890
700.706	0.0146611
700.785	0.0148493
700.863	0.0147739
700.941	0.0148277
701.019	0.0148582
701.097	0.0148021
701.175	0.0148170
701.253	0.0147810
701.331	0.0146680
701.410	0.0146758
701.488	0.0147297
701.566	0.0146999
701.644	0.0146756
701.722	0.0147258
701.800	0.0146642
701.878	0.0147411
701.956	0.0146120
702.035	0.0147421
702.113	0.0145767
702.191	0.0147198
702.269	0.0147312
702.347	0.0147249
702.425	0.0147007
702.503	0.0146827
702.581	0.0148502
702.660	0.0148137
702.738	0.0147183
702.816	0.0147246
702.894	0.0147647
702.972	0.0147081
703.050	0.0147969
703.128	0.0147346
703.206	0.0148836
703.285	0.0147971
703.363	0.0148167
703.441	0.0147984
703.519	0.0149109
703.597	0.0148560
703.675	0.0150026
703.753	0.0150092
703.831	0.0150622
703.910	0.0149225
703.988	0.0148985
704.066	0.0148366
704.144	0.0147961
704.222	0.0148443
704.300	0.0148021
704.378	0.0146886
704.456	0.0147282
704.535	0.0148383
704.613	0.0148929
704.691	0.0148386
704.769	0.0148843
704.847	0.0147050
704.925	0.0144640
705.003	0.0140533
705.081	0.0135356
705.160	0.0130112
705.238	0.0126968
705.316	0.0123145
705.394	0.0123356
705.472	0.0127113
705.550	0.0135582
705.628	0.0150008
705.706	0.0162256
705.785	0.0177557
705.863	0.0190263
705.941	0.0193222
706.019	0.0190114
706.097	0.0175697
706.175	0.0152930
706.253	0.0124216
706.331	0.00942703
706.410	0.00675247
706.488	0.00477127
706.566	0.00339195
706.644	0.00353081
706.722	0.00461899
706.800	0.00703934
706.878	0.0106355
706.956	0.0151756
707.035	0.0200185
707.113	0.0250240
707.191	0.0298159
707.269	0.0338315
707.347	0.0361829
707.425	0.0366599
707.503	0.0352010
707.581	0.0319460
707.660	0.0268495
707.738	0.0207420
707.816	0.0140049
707.894	0.00735802
707.972	0.00143929
708.050	-0.00334816
708.128	-0.00704338
708.206	-0.00933098
708.285	-0.00989250
708.363	-0.00887871
708.441	-0.00659615
708.519	-0.00275879
708.597	0.00200562
708.675	0.00782845
708.753	0.0135402
708.831	0.0194315
708.910	0.0248087
708.988	0.0293925
709.066	0.0328645
709.144	0.0352153
709.222	0.0364961
709.300	0.0365297
709.378	0.0355617
709.456	0.0333749
709.535	0.0303942
709.613	0.0262636
709.691	0.0217680
709.769	0.0168966
709.847	0.0121990
709.925	0.00797485
710.003	0.00431900
710.081	0.00135101
710.160	-0.000580750
710.238	-0.00143784
710.316	-0.00141838
710.394	-0.000571060
710.472	0.00103882
710.550	0.00309593
710.628	0.00552223
710.706	0.00792549
710.785	0.0104509
710.863	0.0130162
710.941	0.0155296
711.019	0.0175741
711.097	0.0196018
711.175	0.0212503
711.253	0.0228442
711.331	0.0238972
711.410	0.0249381
711.488	0.0255414
711.566	0.0254702
711.644	0.0252816
711.722	0.0245059
711.800	0.0235378
711.878	0.0219772
711.956	0.0201353
712.035	0.0179198
712.113	0.0157395
712.191	0.0134872
712.269	0.0116048
712.347	0.00977936
712.425	0.00809387
712.503	0.00704880
712.581	0.00627594
712.660	0.00582397
712.738	0.00578659
712.816	0.00566277
712.894	0.00629608
712.972	0.00691116
713.050	0.00789177
713.128	0.00888428
713.206	0.0105433
713.285	0.0121712
713.363	0.0139845
713.441	0.0157796
713.519	0.0176818
713.597	0.0194135
713.675	0.0209029
713.753	0.0220274
713.831	0.0228230
713.910	0.0231894
713.988	0.0234992
714.066	0.0231419
714.144	0.0223968
714.222	0.0213708
714.300	0.0203962
714.378	0.0189878
714.456	0.0176607
714.535	0.0163741
714.613	0.0152064
714.691	0.0139033
714.769	0.0129095
714.847	0.0120197
714.925	0.0112711
715.003	0.0106701
715.081	0.0100986
715.160	0.00998451
715.238	0.00989998
715.316	0.00979164
715.394	0.0100051
715.472	0.0103222
715.550	0.0106226
715.628	0.0108541
715.706	0.0111796
715.785	0.0115199
715.863	0.0119933
715.941	0.0124037
716.019	0.0128373
716.097	0.0133364
716.175	0.0137760
716.253	0.0144357
716.331	0.0149961
716.410	0.0156158
716.488	0.0162056
716.566	0.0165971
716.644	0.0170745
716.722	0.0174943
716.800	0.0177267
716.878	0.0179382
716.956	0.0182874
717.035	0.0182277
717.113	0.0182410
717.191	0.0180769
717.269	0.0178440
717.347	0.0176334
717.425	0.0173313
717.503	0.0167916
717.581	0.0164904
717.660	0.0161279
717.738	0.0154763
717.816	0.0149223
717.894	0.0143865
717.972	0.0138424
718.050	0.0131296
718.128	0.0126923
718.206	0.0123086
718.285	0.0119535
718.363	0.0118367
718.441	0.0115690
718.519	0.0114330
718.597	0.0117659
718.675	0.0117293
718.753	0.0121034
718.831	0.0125793
718.910	0.0130481
718.988	0.0135104
719.066	0.0141594
719.144	0.0146024
719.222	0.0149981
719.300	0.0153908
719.378	0.0158286
719.456	0.0161133
719.535	0.0161978
719.613	0.0164581
719.691	0.0166573
719.769	0.0168723
719.847	0.0169699
719.925	0.0171039
720.003	0.0171348
720.081	0.0169832
720.160	0.0167699
720.238	0.0164267
720.316	0.0159164
720.394	0.0154806
720.472	0.0149393
720.550	0.0144107
720.628	0.0138011
720.706	0.0135071
720.785	0.0131396
720.863	0.0130738
720.941	0.0130019
721.019	0.0127689
721.097	0.0128295
721.175	0.0127949
721.253	0.0127441
721.331	0.0127657
721.410	0.0129262
721.488	0.0129592
721.566	0.0131119
721.644	0.0132555
721.722	0.0133523
721.800	0.0137870
721.878	0.0142322
721.956	0.0145801
722.035	0.0149998
722.113	0.0154585
722.191	0.0158405
722.269	0.0162056
722.347	0.0164693
722.425	0.0167772
722.503	0.0169886
722.581	0.0171772
722.660	0.0169607
722.738	0.0166890
722.816	0.0163834
722.894	0.0159682
722.972	0.0155738
723.050	0.0150451
723.128	0.0146384
723.206	0.0143052
723.285	0.0141658
723.363	0.0139891
723.441	0.0139259
723.519	0.0138745
723.597	0.0140116
723.675	0.0139783
723.753	0.0141346
723.831	0.0144654
723.910	0.0148628
723.988	0.0151310
724.066	0.0154671
724.144	0.0160516
724.222	0.0162485
724.300	0.0164089
724.378	0.0165990
724.456	0.0166122
724.535	0.0166144
724.613	0.0163580
724.691	0.0162438
724.769	0.0158321
724.847	0.0154202
724.925	0.0150545
725.003	0.0146302
725.081	0.0142730
725.160	0.0139498
725.238	0.0134112
725.316	0.0131482
725.394	0.0127150
725.472	0.0125086
725.550	0.0123481
725.628	0.0121732
725.706	0.0119904
725.785	0.0120327
725.863	0.0122448
725.941	0.0124490
726.019	0.0128753
726.097	0.0133851
726.175	0.0136504
726.253	0.0140137
726.331	0.0144157
726.410	0.0146416
726.488	0.0148849
726.566	0.0152033
726.644	0.0151425
726.722	0.0151442
726.800	0.0153607
726.878	0.0153326
726.956	0.0151888
727.035	0.0150756
727.113	0.0151054
727.191	0.0152540
727.269	0.0149043
727.347	0.0151694
727.425	0.0156153
727.503	0.0157441
727.581	0.0160863
727.660	0.0164227
727.738	0.0168556
727.816	0.0168415
727.894	0.0168517
727.972	0.0168425
728.050	0.0167348
728.128	0.0165100
728.206	0.0163743
728.285	0.0162727
728.363	0.0160062
728.441	0.0156995
728.519	0.0152496
728.597	0.0148679
728.675	0.0144646
728.753	0.0142719
728.831	0.0139740
728.910	0.0137813
728.988	0.0136305
729.066	0.0134077
729.144	0.0135104
729.222	0.0135007
729.300	0.0136311
729.378	0.0136193
729.456	0.0138215
729.535	0.0139670
729.613	0.0140733
729.691	0.0141855
729.769	0.0142352
729.847	0.0140945
729.925	0.0141117
730.003	0.0141140
730.081	0.0140366
730.160	0.0139366
730.238	0.0137886
730.316	0.0137513
730.394	0.0137604
730.472	0.0138799
730.550	0.0137852
730.628	0.0138832
730.706	0.0137823
730.785	0.0138359
730.863	0.0141172
730.941	0.0142931
731.019	0.0144394
731.097	0.0146899
731.175	0.0149695
731.253	0.0152334
731.331	0.0153666
731.410	0.0156464
731.488	0.0158089
731.566	0.0160944
731.644	0.0162481
731.722	0.0165642
731.800	0.0164796
731.878	0.0164628
731.956	0.0163455
732.035	0.0161029
732.113	0.0156614
732.191	0.0153767
732.269	0.0151989
732.347	0.0148000
732.425	0.0145538
732.503	0.0144257
732.581	0.0144298
732.660	0.0144347
732.738	0.0143361
732.816	0.0145586
732.894	0.0145992
732.972	0.0148113
733.050	0.0149696
733.128	0.0150920
733.206	0.0150913
733.285	0.0151203
733.363	0.0149419
733.441	0.0147163
733.519	0.0145632
733.597	0.0142363
733.675	0.0141479
733.753	0.0140503
733.831	0.0138002
733.910	0.0137207
733.988	0.0136854
734.066	0.0137170
734.144	0.0137717
734.222	0.0139265
734.300	0.0141624
734.378	0.0144049
734.456	0.0147039
734.535	0.0147874
734.613	0.0150887
734.691	0.0150912
734.769	0.0153328
734.847	0.0153025
734.925	0.0153667
735.003	0.0152990
735.081	0.0151539
735.160	0.0153429
735.238	0.0151423
735.316	0.0151408
735.394	0.0152139
735.472	0.0152285
735.550	0.0152057
735.628	0.0150149
735.706	0.0149754
735.785	0.0148615
735.863	0.0147192
735.941	0.0147291
736.019	0.0144521
736.097	0.0145011
736.175	0.0145518
736.253	0.0143491
736.331	0.0144517
736.410	0.0144842
736.488	0.0146356
736.566	0.0147920
736.644	0.0148357
736.722	0.0151818
736.800	0.0153369
736.878	0.0155614
736.956	0.0159694
737.035	0.0159180
737.113	0.0162487
737.191	0.0162552
737.269	0.0160049
737.347	0.0156787
737.425	0.0156283
737.503	0.0152992
737.581	0.0147656
737.660	0.0143668
737.738	0.0140109
737.816	0.0135344
737.894	0.0133485
737.972	0.0133072
738.050	0.0132892
738.128	0.0131608
738.206	0.0132700
738.285	0.0135854
738.363	0.0136929
738.441	0.0140907
738.519	0.0142826
738.597	0.0145177
738.675	0.0147511
738.753	0.0151095
738.831	0.0153081
738.910	0.0153160
738.988	0.0152454
739.066	0.0151475
739.144	0.0150859
739.222	0.0150582
739.300	0.0148566
739.378	0.0147160
739.456	0.0145857
739.535	0.0145086
739.613	0.0144462
739.691	0.0145284
739.769	0.0146601
739.847	0.0145351
739.925	0.0146360
740.003	0.0148337
740.081	0.0149291
740.160	0.0151167
740.238	0.0153416
740.316	0.0153885
740.394	0.0153813
740.472	0.0155122
740.550	0.0154227
740.628	0.0153472
740.706	0.0152995
740.785	0.0151309
740.863	0.0149836
740.941	0.0149764
741.019	0.0147524
741.097	0.0147173
741.175	0.0146194
741.253	0.0145770
741.331	0.0146532
741.410	0.0146808
741.488	0.0146264
741.566	0.0146211
741.644	0.0147318
741.722	0.0147369
741.800	0.0147629
741.878	0.0148096
741.956	0.0148322
742.035	0.0147675
742.113	0.0147191
742.191	0.0147118
742.269	0.0148260
742.347	0.0145808
742.425	0.0147182
742.503	0.0147646
742.581	0.0145240
742.660	0.0144239
742.738	0.0144279
742.816	0.0143441
742.894	0.0144124
742.972	0.0141788
743.050	0.0139609
743.128	0.0140649
743.206	0.0141308
743.285	0.0141598
743.363	0.0139429
743.441	0.0141446
743.519	0.0141541
743.597	0.0143898
743.675	0.0145501
743.753	0.0146313
743.831	0.0149001
743.910	0.0150551
743.988	0.0151933
744.066	0.0153317
744.144	0.0151868
744.222	0.0152783
744.300	0.0151736
744.378	0.0153347
744.456	0.0151083
744.535	0.0151872
744.613	0.0150003
744.691	0.0149091
744.769	0.0148678
744.847	0.0147926
744.925	0.0146580
745.003	0.0144820
745.081	0.0146136
745.160	0.0146414
745.238	0.0146563
745.316	0.0146973
745.394	0.0147453
745.472	0.0147305
