05/03/2022	20:13:36	Ver.	4.1	UNKNOWN
Optical Delay	660.003261	Delta X		0.078125	Sweeps	1	Scan Rate	0/0
Coordinates	Axis 1	NaN	Axis 2	NaN	Axis 3	NaN	Axis 4	NaN	Axis 5	NaN	Axis 6	0.000000
TX Power	0.000000	RX Power	0.000000

660.003	0.0146922
660.081	0.0147990
660.160	0.0145850
660.238	0.0146958
660.316	0.0146838
660.394	0.0146012
660.472	0.0146878
660.550	0.0144897
660.628	0.0147030
660.706	0.0147110
660.785	0.0147514
660.863	0.0147107
660.941	0.0145513
661.019	0.0145417
661.097	0.0146405
661.175	0.0146385
661.253	0.0146742
661.331	0.0146751
661.410	0.0146196
661.488	0.0147097
661.566	0.0147810
661.644	0.0145907
661.722	0.0147388
661.800	0.0145816
661.878	0.0144577
661.956	0.0146047
662.035	0.0146696
662.113	0.0147353
662.191	0.0147034
662.269	0.0146956
662.347	0.0147491
662.425	0.0147301
662.503	0.0145965
662.581	0.0146620
662.660	0.0146456
662.738	0.0147807
662.816	0.0147880
662.894	0.0148439
662.972	0.0149003
663.050	0.0146314
663.128	0.0145910
663.206	0.0146893
663.285	0.0146211
663.363	0.0145528
663.441	0.0146436
663.519	0.0146732
663.597	0.0147232
663.675	0.0145589
663.753	0.0146110
663.831	0.0146259
663.910	0.0148077
663.988	0.0146673
664.066	0.0145338
664.144	0.0146835
664.222	0.0147002
664.300	0.0147124
664.378	0.0146055
664.456	0.0147128
664.535	0.0147329
664.613	0.0146235
664.691	0.0146132
664.769	0.0146721
664.847	0.0146900
664.925	0.0146237
665.003	0.0146446
665.081	0.0147034
665.160	0.0147296
665.238	0.0145953
665.316	0.0146995
665.394	0.0147607
665.472	0.0146717
665.550	0.0148138
665.628	0.0147334
665.706	0.0147395
665.785	0.0147444
665.863	0.0146960
665.941	0.0148112
666.019	0.0148430
666.097	0.0146552
666.175	0.0145895
666.253	0.0147430
666.331	0.0147171
666.410	0.0146519
666.488	0.0146526
666.566	0.0148444
666.644	0.0146485
666.722	0.0147346
666.800	0.0148492
666.878	0.0147009
666.956	0.0147318
667.035	0.0148109
667.113	0.0147461
667.191	0.0147577
667.269	0.0148222
667.347	0.0148775
667.425	0.0146326
667.503	0.0147190
667.581	0.0146070
667.660	0.0146422
667.738	0.0147646
667.816	0.0147263
667.894	0.0146544
667.972	0.0146669
668.050	0.0147040
668.128	0.0148506
668.206	0.0146779
668.285	0.0146014
668.363	0.0146526
668.441	0.0147137
668.519	0.0146758
668.597	0.0146465
668.675	0.0146794
668.753	0.0146598
668.831	0.0148323
668.910	0.0147027
668.988	0.0147682
669.066	0.0147740
669.144	0.0147299
669.222	0.0146988
669.300	0.0147643
669.378	0.0145535
669.456	0.0146844
669.535	0.0147709
669.613	0.0147279
669.691	0.0147687
669.769	0.0144966
669.847	0.0147848
669.925	0.0146960
670.003	0.0146619
670.081	0.0146513
670.160	0.0146822
670.238	0.0146957
670.316	0.0147720
670.394	0.0146977
670.472	0.0147832
670.550	0.0147596
670.628	0.0146382
670.706	0.0146304
670.785	0.0147407
670.863	0.0147789
670.941	0.0146062
671.019	0.0146623
671.097	0.0146728
671.175	0.0147778
671.253	0.0146886
671.331	0.0146210
671.410	0.0146613
671.488	0.0147370
671.566	0.0147945
671.644	0.0146985
671.722	0.0146265
671.800	0.0147657
671.878	0.0147396
671.956	0.0146483
672.035	0.0147003
672.113	0.0145930
672.191	0.0144473
672.269	0.0146761
672.347	0.0145142
672.425	0.0146874
672.503	0.0147218
672.581	0.0147265
672.660	0.0146587
672.738	0.0146398
672.816	0.0147530
672.894	0.0147382
672.972	0.0146826
673.050	0.0146030
673.128	0.0146722
673.206	0.0147200
673.285	0.0147008
673.363	0.0146693
673.441	0.0146391
673.519	0.0146284
673.597	0.0145064
673.675	0.0148250
673.753	0.0147710
673.831	0.0146122
673.910	0.0148064
673.988	0.0146466
674.066	0.0145687
674.144	0.0147271
674.222	0.0147236
674.300	0.0147631
674.378	0.0146172
674.456	0.0147173
674.535	0.0147488
674.613	0.0147240
674.691	0.0147119
674.769	0.0147439
674.847	0.0146159
674.925	0.0145985
675.003	0.0146978
675.081	0.0147536
675.160	0.0146247
675.238	0.0147054
675.316	0.0147034
675.394	0.0146814
675.472	0.0147781
675.550	0.0147024
675.628	0.0148310
675.706	0.0147309
675.785	0.0146233
675.863	0.0145421
675.941	0.0147659
676.019	0.0147330
676.097	0.0145389
676.175	0.0146539
676.253	0.0145324
676.331	0.0147649
676.410	0.0145779
676.488	0.0146938
676.566	0.0146142
676.644	0.0146531
676.722	0.0146737
676.800	0.0146918
676.878	0.0147937
676.956	0.0145518
677.035	0.0145967
677.113	0.0147988
677.191	0.0146996
677.269	0.0147166
677.347	0.0147651
677.425	0.0146142
677.503	0.0146793
677.581	0.0146426
677.660	0.0144805
677.738	0.0147911
677.816	0.0147156
677.894	0.0147192
677.972	0.0147353
678.050	0.0146951
678.128	0.0145496
678.206	0.0146688
678.285	0.0147250
678.363	0.0146722
678.441	0.0147421
678.519	0.0146774
678.597	0.0147581
678.675	0.0147051
678.753	0.0145375
678.831	0.0146658
678.910	0.0146313
678.988	0.0147414
679.066	0.0146881
679.144	0.0146172
679.222	0.0146175
679.300	0.0147015
679.378	0.0146072
679.456	0.0146046
679.535	0.0146866
679.613	0.0146081
679.691	0.0146278
679.769	0.0147621
679.847	0.0146204
679.925	0.0146745
680.003	0.0146572
680.081	0.0146645
680.160	0.0147133
680.238	0.0146622
680.316	0.0146751
680.394	0.0146049
680.472	0.0147462
680.550	0.0146518
680.628	0.0147771
680.706	0.0146912
680.785	0.0146851
680.863	0.0147698
680.941	0.0146967
681.019	0.0148587
681.097	0.0145673
681.175	0.0146839
681.253	0.0146430
681.331	0.0145824
681.410	0.0147601
681.488	0.0146703
681.566	0.0147746
681.644	0.0148000
681.722	0.0146404
681.800	0.0145380
681.878	0.0146111
681.956	0.0145641
682.035	0.0145956
682.113	0.0146616
682.191	0.0147468
682.269	0.0146764
682.347	0.0145817
682.425	0.0147406
682.503	0.0147022
682.581	0.0147749
682.660	0.0147594
682.738	0.0146716
682.816	0.0145314
682.894	0.0146118
682.972	0.0147057
683.050	0.0146747
683.128	0.0145583
683.206	0.0147379
683.285	0.0147360
683.363	0.0146570
683.441	0.0148132
683.519	0.0147021
683.597	0.0147573
683.675	0.0147499
683.753	0.0146025
683.831	0.0146276
683.910	0.0147086
683.988	0.0147208
684.066	0.0146886
684.144	0.0148016
684.222	0.0147301
684.300	0.0146183
684.378	0.0147001
684.456	0.0146583
684.535	0.0146719
684.613	0.0145793
684.691	0.0147346
684.769	0.0147716
684.847	0.0148003
684.925	0.0147137
685.003	0.0145039
685.081	0.0146458
685.160	0.0147649
685.238	0.0147919
685.316	0.0148421
685.394	0.0145273
685.472	0.0146574
685.550	0.0146600
685.628	0.0147083
685.706	0.0146594
685.785	0.0146198
685.863	0.0146864
685.941	0.0145107
686.019	0.0146657
686.097	0.0146975
686.175	0.0146661
686.253	0.0147833
686.331	0.0144874
686.410	0.0146524
686.488	0.0146782
686.566	0.0145249
686.644	0.0146445
686.722	0.0146889
686.800	0.0146673
686.878	0.0147105
686.956	0.0146053
687.035	0.0146954
687.113	0.0146716
687.191	0.0145875
687.269	0.0146350
687.347	0.0145905
687.425	0.0144532
687.503	0.0146039
687.581	0.0146236
687.660	0.0146586
687.738	0.0147547
687.816	0.0146647
687.894	0.0147459
687.972	0.0146563
688.050	0.0146632
688.128	0.0147201
688.206	0.0148215
688.285	0.0146219
688.363	0.0147203
688.441	0.0147397
688.519	0.0147050
688.597	0.0146787
688.675	0.0146866
688.753	0.0146112
688.831	0.0145926
688.910	0.0146091
688.988	0.0145837
689.066	0.0145768
689.144	0.0147723
689.222	0.0145038
689.300	0.0147054
689.378	0.0146059
689.456	0.0145769
689.535	0.0146597
689.613	0.0147425
689.691	0.0147108
689.769	0.0145844
689.847	0.0147099
689.925	0.0146355
690.003	0.0146549
690.081	0.0146703
690.160	0.0145432
690.238	0.0145795
690.316	0.0146124
690.394	0.0145486
690.472	0.0146024
690.550	0.0146419
690.628	0.0146687
690.706	0.0146909
690.785	0.0146510
690.863	0.0145470
690.941	0.0147277
691.019	0.0146808
691.097	0.0144712
691.175	0.0145502
691.253	0.0145119
691.331	0.0145978
691.410	0.0146442
691.488	0.0146793
691.566	0.0145396
691.644	0.0145664
691.722	0.0145934
691.800	0.0146829
691.878	0.0146968
691.956	0.0145303
692.035	0.0148039
692.113	0.0145872
692.191	0.0144898
692.269	0.0147080
692.347	0.0147034
692.425	0.0145953
692.503	0.0146130
692.581	0.0145922
692.660	0.0146716
692.738	0.0146801
692.816	0.0146897
692.894	0.0145914
692.972	0.0148274
693.050	0.0145330
693.128	0.0146439
693.206	0.0148019
693.285	0.0145998
693.363	0.0146417
693.441	0.0145589
693.519	0.0146185
693.597	0.0145354
693.675	0.0146546
693.753	0.0145967
693.831	0.0146355
693.910	0.0145331
693.988	0.0145015
694.066	0.0145989
694.144	0.0147311
694.222	0.0146677
694.300	0.0147572
694.378	0.0145944
694.456	0.0145956
694.535	0.0147024
694.613	0.0147119
694.691	0.0147842
694.769	0.0146944
694.847	0.0146300
694.925	0.0145997
695.003	0.0147634
695.081	0.0146991
695.160	0.0146272
695.238	0.0145637
695.316	0.0147031
695.394	0.0147269
695.472	0.0146496
695.550	0.0145531
695.628	0.0146257
695.706	0.0146754
695.785	0.0146165
695.863	0.0145978
695.941	0.0146299
696.019	0.0145759
696.097	0.0146563
696.175	0.0146184
696.253	0.0146701
696.331	0.0147572
696.410	0.0146979
696.488	0.0147661
696.566	0.0147575
696.644	0.0146152
696.722	0.0146735
696.800	0.0148304
696.878	0.0146723
696.956	0.0147999
697.035	0.0145895
697.113	0.0145811
697.191	0.0146519
697.269	0.0146671
697.347	0.0147239
697.425	0.0145608
697.503	0.0145438
697.581	0.0145429
697.660	0.0146981
697.738	0.0147009
697.816	0.0146127
697.894	0.0146228
697.972	0.0147483
698.050	0.0147126
698.128	0.0146452
698.206	0.0145409
698.285	0.0145769
698.363	0.0148757
698.441	0.0148000
698.519	0.0147685
698.597	0.0147109
698.675	0.0147366
698.753	0.0148067
698.831	0.0146951
698.910	0.0145458
698.988	0.0147196
699.066	0.0147723
699.144	0.0146577
699.222	0.0148645
699.300	0.0147969
699.378	0.0146576
699.456	0.0144421
699.535	0.0147073
699.613	0.0146745
699.691	0.0146465
699.769	0.0147929
699.847	0.0148777
699.925	0.0146832
700.003	0.0146510
700.081	0.0146275
700.160	0.0145751
700.238	0.0146350
700.316	0.0147552
700.394	0.0147427
700.472	0.0146171
700.550	0.0146546
700.628	0.0146163
700.706	0.0147515
700.785	0.0146928
700.863	0.0147352
700.941	0.0147005
701.019	0.0147440
701.097	0.0145956
701.175	0.0147296
701.253	0.0146955
701.331	0.0146711
701.410	0.0144955
701.488	0.0147403
701.566	0.0148623
701.644	0.0147952
701.722	0.0147192
701.800	0.0147658
701.878	0.0148150
701.956	0.0148257
702.035	0.0148663
702.113	0.0147886
702.191	0.0147521
702.269	0.0149287
702.347	0.0149612
702.425	0.0149496
702.503	0.0149593
702.581	0.0148589
702.660	0.0147605
702.738	0.0149789
702.816	0.0149044
702.894	0.0148769
702.972	0.0149681
703.050	0.0149369
703.128	0.0149127
703.206	0.0148913
703.285	0.0149635
703.363	0.0148817
703.441	0.0148043
703.519	0.0148649
703.597	0.0148604
703.675	0.0147342
703.753	0.0148529
703.831	0.0148067
703.910	0.0146262
703.988	0.0143806
704.066	0.0140926
704.144	0.0139283
704.222	0.0136652
704.300	0.0134783
704.378	0.0134869
704.456	0.0135003
704.535	0.0137418
704.613	0.0144748
704.691	0.0149985
704.769	0.0157789
704.847	0.0165878
704.925	0.0169247
705.003	0.0170560
705.081	0.0166512
705.160	0.0159474
705.238	0.0148493
705.316	0.0131852
705.394	0.0115356
705.472	0.0101222
705.550	0.00890068
705.628	0.00821793
705.706	0.00790955
705.785	0.00836182
705.863	0.00912514
705.941	0.0106702
706.019	0.0129720
706.097	0.0156586
706.175	0.0186994
706.253	0.0220643
706.331	0.0254720
706.410	0.0281432
706.488	0.0300014
706.566	0.0307656
706.644	0.0302532
706.722	0.0283671
706.800	0.0251439
706.878	0.0207523
706.956	0.0159929
707.035	0.0105630
707.113	0.00550743
707.191	0.00102341
707.269	-0.00264404
707.347	-0.00490440
707.425	-0.00591797
707.503	-0.00568245
707.581	-0.00405762
707.660	-0.00151680
707.738	0.00165421
707.816	0.00547668
707.894	0.00961006
707.972	0.0139462
708.050	0.0183907
708.128	0.0223482
708.206	0.0261859
708.285	0.0292047
708.363	0.0318845
708.441	0.0334812
708.519	0.0345783
708.597	0.0346343
708.675	0.0338120
708.753	0.0322124
708.831	0.0296539
708.910	0.0264944
708.988	0.0228055
709.066	0.0185467
709.144	0.0140305
709.222	0.00939751
709.300	0.00526550
709.378	0.00188416
709.456	-0.000800171
709.535	-0.00246170
709.613	-0.00344582
709.691	-0.00340424
709.769	-0.00263725
709.847	-0.00130600
709.925	0.000660477
710.003	0.00311783
710.081	0.00577538
710.160	0.00869812
710.238	0.0115249
710.316	0.0144176
710.394	0.0173277
710.472	0.0197708
710.550	0.0221452
710.628	0.0241852
710.706	0.0257895
710.785	0.0269967
710.863	0.0277825
710.941	0.0281891
711.019	0.0281864
711.097	0.0278175
711.175	0.0268163
711.253	0.0253841
711.331	0.0237824
711.410	0.0217439
711.488	0.0194973
711.566	0.0169780
711.644	0.0144372
711.722	0.0118780
711.800	0.00924873
711.878	0.00709908
711.956	0.00553955
712.035	0.00444824
712.113	0.00376862
712.191	0.00358398
712.269	0.00381866
712.347	0.00436317
712.425	0.00521500
712.503	0.00649811
712.581	0.00782341
712.660	0.00910255
712.738	0.0104945
712.816	0.0120139
712.894	0.0136912
712.972	0.0151903
713.050	0.0168394
713.128	0.0186186
713.206	0.0200317
713.285	0.0215230
713.363	0.0225190
713.441	0.0233478
713.519	0.0238618
713.597	0.0237960
713.675	0.0235541
713.753	0.0228612
713.831	0.0217487
713.910	0.0205974
713.988	0.0194389
714.066	0.0180819
714.144	0.0169080
714.222	0.0155229
714.300	0.0143987
714.378	0.0132796
714.456	0.0122251
714.535	0.0113280
714.613	0.0104574
714.691	0.0100135
714.769	0.00939682
714.847	0.00896469
714.925	0.00882080
715.003	0.00866447
715.081	0.00869041
715.160	0.00881752
715.238	0.00928925
715.316	0.00956726
715.394	0.00987488
715.472	0.0103741
715.550	0.0110223
715.628	0.0116790
715.706	0.0121458
715.785	0.0128545
715.863	0.0136612
715.941	0.0144501
716.019	0.0152120
716.097	0.0162328
716.175	0.0171282
716.253	0.0180830
716.331	0.0188031
716.410	0.0195580
716.488	0.0200452
716.566	0.0203348
716.644	0.0205710
716.722	0.0204749
716.800	0.0204517
716.878	0.0201021
716.956	0.0198180
717.035	0.0194892
717.113	0.0188929
717.191	0.0180756
717.269	0.0174351
717.347	0.0165195
717.425	0.0154825
717.503	0.0144419
717.581	0.0131087
717.660	0.0121015
717.738	0.0113147
717.816	0.0104043
717.894	0.0100249
717.972	0.00965019
718.050	0.00965401
718.128	0.00984512
718.206	0.0101295
718.285	0.0105743
718.363	0.0110035
718.441	0.0115047
718.519	0.0119186
718.597	0.0123535
718.675	0.0126064
718.753	0.0128361
718.831	0.0132467
718.910	0.0134579
718.988	0.0138327
719.066	0.0141702
719.144	0.0144945
719.222	0.0148496
719.300	0.0151988
719.378	0.0155081
719.456	0.0158248
719.535	0.0162651
719.613	0.0165109
719.691	0.0168519
719.769	0.0170744
719.847	0.0171770
719.925	0.0173602
720.003	0.0172256
720.081	0.0170089
720.160	0.0168169
720.238	0.0164540
720.316	0.0161438
720.394	0.0158262
720.472	0.0155071
720.550	0.0153633
720.628	0.0152103
720.706	0.0148419
720.785	0.0146333
720.863	0.0143650
720.941	0.0141645
721.019	0.0139330
721.097	0.0138435
721.175	0.0136823
721.253	0.0137203
721.331	0.0135768
721.410	0.0139921
721.488	0.0144314
721.566	0.0148164
721.644	0.0151610
721.722	0.0154591
721.800	0.0157565
721.878	0.0158390
721.956	0.0155330
722.035	0.0152956
722.113	0.0148008
722.191	0.0145403
722.269	0.0139978
722.347	0.0133999
722.425	0.0130379
722.503	0.0124335
722.581	0.0120183
722.660	0.0119084
722.738	0.0117693
722.816	0.0119904
722.894	0.0120854
722.972	0.0126276
723.050	0.0132544
723.128	0.0139167
723.206	0.0146409
723.285	0.0154820
723.363	0.0162164
723.441	0.0167220
723.519	0.0172689
723.597	0.0175798
723.675	0.0176569
723.753	0.0177579
723.831	0.0176495
723.910	0.0174205
723.988	0.0173484
724.066	0.0172856
724.144	0.0168156
724.222	0.0164194
724.300	0.0161423
724.378	0.0156812
724.456	0.0154632
724.535	0.0149494
724.613	0.0146541
724.691	0.0143080
724.769	0.0139661
724.847	0.0137019
724.925	0.0137150
725.003	0.0135947
725.081	0.0136526
725.160	0.0137059
725.238	0.0136909
725.316	0.0137077
725.394	0.0137777
725.472	0.0136574
725.550	0.0137102
725.628	0.0136944
725.706	0.0136395
725.785	0.0136678
725.863	0.0134654
725.941	0.0132800
726.019	0.0131519
726.097	0.0129739
726.175	0.0128917
726.253	0.0129540
726.331	0.0128354
726.410	0.0129209
726.488	0.0131101
726.566	0.0132128
726.644	0.0134919
726.722	0.0138361
726.800	0.0143310
726.878	0.0147397
726.956	0.0151261
727.035	0.0156345
727.113	0.0158272
727.191	0.0162181
727.269	0.0165553
727.347	0.0167234
727.425	0.0168784
727.503	0.0169670
727.581	0.0170606
727.660	0.0170035
727.738	0.0167032
727.816	0.0168159
727.894	0.0164276
727.972	0.0161782
728.050	0.0158826
728.128	0.0156842
728.206	0.0155318
728.285	0.0154660
728.363	0.0153790
728.441	0.0152728
728.519	0.0152486
728.597	0.0151778
728.675	0.0154034
728.753	0.0150932
728.831	0.0151767
728.910	0.0152656
728.988	0.0150565
729.066	0.0150667
729.144	0.0150561
729.222	0.0148381
729.300	0.0145423
729.378	0.0142434
729.456	0.0138557
729.535	0.0134363
729.613	0.0130039
729.691	0.0127419
729.769	0.0124362
729.847	0.0121054
729.925	0.0120639
730.003	0.0120371
730.081	0.0120589
730.160	0.0121775
730.238	0.0124684
730.316	0.0126178
730.394	0.0127705
730.472	0.0131414
730.550	0.0136302
730.628	0.0137855
730.706	0.0140926
730.785	0.0144170
730.863	0.0146659
730.941	0.0150840
731.019	0.0153333
731.097	0.0155195
731.175	0.0159071
731.253	0.0157732
731.331	0.0158341
731.410	0.0160474
731.488	0.0160031
731.566	0.0160748
731.644	0.0160154
731.722	0.0159872
731.800	0.0160445
731.878	0.0159320
731.956	0.0160057
732.035	0.0158427
732.113	0.0157801
732.191	0.0156650
732.269	0.0157153
732.347	0.0155206
732.425	0.0157011
732.503	0.0155248
732.581	0.0154765
732.660	0.0153974
732.738	0.0154298
732.816	0.0152791
732.894	0.0152588
732.972	0.0149428
733.050	0.0149013
733.128	0.0148201
733.206	0.0146584
733.285	0.0146844
733.363	0.0143842
733.441	0.0143719
733.519	0.0142400
733.597	0.0143230
733.675	0.0142162
733.753	0.0142662
733.831	0.0141541
733.910	0.0140714
733.988	0.0139731
734.066	0.0138740
734.144	0.0139173
734.222	0.0139802
734.300	0.0141668
734.378	0.0140610
734.456	0.0141125
734.535	0.0141798
734.613	0.0141504
734.691	0.0140376
734.769	0.0140115
734.847	0.0139240
734.925	0.0138427
735.003	0.0137176
735.081	0.0136553
735.160	0.0134924
735.238	0.0134286
735.316	0.0134320
735.394	0.0136674
735.472	0.0138807
735.550	0.0139848
735.628	0.0141911
735.706	0.0145015
735.785	0.0148595
735.863	0.0152953
735.941	0.0157818
736.019	0.0158962
736.097	0.0162770
736.175	0.0166837
736.253	0.0168475
736.331	0.0168111
736.410	0.0170229
736.488	0.0169940
736.566	0.0166103
736.644	0.0163630
736.722	0.0160683
736.800	0.0156168
736.878	0.0152895
736.956	0.0148991
737.035	0.0145060
737.113	0.0142507
737.191	0.0140143
737.269	0.0138315
737.347	0.0138055
737.425	0.0137320
737.503	0.0138360
737.581	0.0139692
737.660	0.0141528
737.738	0.0142798
737.816	0.0142896
737.894	0.0145387
737.972	0.0145947
738.050	0.0146959
738.128	0.0148728
738.206	0.0146803
738.285	0.0148732
738.363	0.0146348
738.441	0.0144997
738.519	0.0145326
738.597	0.0144358
738.675	0.0140974
738.753	0.0139165
738.831	0.0138158
738.910	0.0137089
738.988	0.0136568
739.066	0.0136883
739.144	0.0136361
739.222	0.0136815
739.300	0.0138101
739.378	0.0142004
739.456	0.0142493
739.535	0.0142667
739.613	0.0146465
739.691	0.0148608
739.769	0.0150087
739.847	0.0150837
739.925	0.0153955
740.003	0.0155119
740.081	0.0155287
740.160	0.0154790
740.238	0.0154546
740.316	0.0154186
740.394	0.0155399
740.472	0.0153104
740.550	0.0149798
740.628	0.0149903
740.706	0.0147511
740.785	0.0147722
740.863	0.0147523
740.941	0.0148159
741.019	0.0146669
741.097	0.0147421
741.175	0.0147519
741.253	0.0147687
741.331	0.0150655
741.410	0.0150378
741.488	0.0151569
741.566	0.0150347
741.644	0.0150494
741.722	0.0150513
741.800	0.0149838
741.878	0.0151171
741.956	0.0148740
742.035	0.0147661
742.113	0.0148199
742.191	0.0145290
742.269	0.0144472
742.347	0.0142143
742.425	0.0139965
742.503	0.0139122
742.581	0.0138435
742.660	0.0137144
742.738	0.0136461
742.816	0.0136605
742.894	0.0138692
742.972	0.0139708
743.050	0.0140815
743.128	0.0142776
743.206	0.0143170
743.285	0.0144479
743.363	0.0145473
743.441	0.0145522
743.519	0.0146294
743.597	0.0146632
743.675	0.0146301
743.753	0.0146849
743.831	0.0147444
743.910	0.0148600
743.988	0.0147527
744.066	0.0147131
744.144	0.0145869
744.222	0.0145399
744.300	0.0144835
744.378	0.0144261
744.456	0.0142574
744.535	0.0142016
744.613	0.0142724
744.691	0.0142970
744.769	0.0144012
744.847	0.0142990
744.925	0.0142743
745.003	0.0145267
745.081	0.0144949
745.160	0.0145947
745.238	0.0146360
745.316	0.0146988
745.394	0.0148699
745.472	0.0149245
