05/03/2022	20:14:41	Ver.	4.1	UNKNOWN
Optical Delay	660.003261	Delta X		0.078125	Sweeps	1	Scan Rate	0/0
Coordinates	Axis 1	NaN	Axis 2	NaN	Axis 3	NaN	Axis 4	NaN	Axis 5	NaN	Axis 6	0.000000
TX Power	0.000000	RX Power	0.000000

660.003	0.0146965
660.081	0.0146036
660.160	0.0145955
660.238	0.0147256
660.316	0.0146756
660.394	0.0146835
660.472	0.0147884
660.550	0.0147193
660.628	0.0147044
660.706	0.0145803
660.785	0.0147185
660.863	0.0146882
660.941	0.0146397
661.019	0.0147565
661.097	0.0147307
661.175	0.0146603
661.253	0.0146739
661.331	0.0147400
661.410	0.0147477
661.488	0.0147558
661.566	0.0145435
661.644	0.0147029
661.722	0.0145753
661.800	0.0147644
661.878	0.0145982
661.956	0.0146199
662.035	0.0147746
662.113	0.0147038
662.191	0.0146821
662.269	0.0148075
662.347	0.0147082
662.425	0.0147302
662.503	0.0147303
662.581	0.0147727
662.660	0.0145879
662.738	0.0146641
662.816	0.0148016
662.894	0.0147813
662.972	0.0147331
663.050	0.0146801
663.128	0.0146422
663.206	0.0147500
663.285	0.0146822
663.363	0.0147156
663.441	0.0147787
663.519	0.0147013
663.597	0.0147734
663.675	0.0146850
663.753	0.0145019
663.831	0.0147886
663.910	0.0146331
663.988	0.0147778
664.066	0.0147891
664.144	0.0145741
664.222	0.0146980
664.300	0.0146958
664.378	0.0146619
664.456	0.0147189
664.535	0.0146073
664.613	0.0145831
664.691	0.0147775
664.769	0.0147648
664.847	0.0147753
664.925	0.0146532
665.003	0.0146010
665.081	0.0146804
665.160	0.0147303
665.238	0.0146515
665.316	0.0146601
665.394	0.0147570
665.472	0.0146587
665.550	0.0147556
665.628	0.0147345
665.706	0.0146956
665.785	0.0146043
665.863	0.0146391
665.941	0.0147179
666.019	0.0148614
666.097	0.0146790
666.175	0.0147021
666.253	0.0146210
666.331	0.0146085
666.410	0.0146211
666.488	0.0146951
666.566	0.0147655
666.644	0.0147195
666.722	0.0148714
666.800	0.0147091
666.878	0.0146896
666.956	0.0147409
667.035	0.0147714
667.113	0.0147732
667.191	0.0147113
667.269	0.0147948
667.347	0.0148798
667.425	0.0147363
667.503	0.0147772
667.581	0.0147158
667.660	0.0146777
667.738	0.0146432
667.816	0.0147690
667.894	0.0148050
667.972	0.0147158
668.050	0.0146307
668.128	0.0147040
668.206	0.0146182
668.285	0.0146162
668.363	0.0146686
668.441	0.0146230
668.519	0.0146223
668.597	0.0147418
668.675	0.0146989
668.753	0.0147025
668.831	0.0147402
668.910	0.0147178
668.988	0.0144819
669.066	0.0147169
669.144	0.0145398
669.222	0.0145470
669.300	0.0145945
669.378	0.0146580
669.456	0.0146265
669.535	0.0146363
669.613	0.0145586
669.691	0.0146102
669.769	0.0146801
669.847	0.0147089
669.925	0.0147576
670.003	0.0146642
670.081	0.0147553
670.160	0.0146289
670.238	0.0145977
670.316	0.0145609
670.394	0.0146768
670.472	0.0147011
670.550	0.0147491
670.628	0.0146119
670.706	0.0146343
670.785	0.0146381
670.863	0.0146497
670.941	0.0147495
671.019	0.0147466
671.097	0.0146870
671.175	0.0146902
671.253	0.0146811
671.331	0.0146201
671.410	0.0148753
671.488	0.0147443
671.566	0.0146893
671.644	0.0147208
671.722	0.0146648
671.800	0.0145631
671.878	0.0147638
671.956	0.0146839
672.035	0.0145630
672.113	0.0145653
672.191	0.0147148
672.269	0.0145718
672.347	0.0145089
672.425	0.0146820
672.503	0.0147198
672.581	0.0146315
672.660	0.0145528
672.738	0.0147477
672.816	0.0147532
672.894	0.0146966
672.972	0.0145607
673.050	0.0145796
673.128	0.0147780
673.206	0.0146344
673.285	0.0147533
673.363	0.0147426
673.441	0.0145883
673.519	0.0147300
673.597	0.0147527
673.675	0.0146887
673.753	0.0146048
673.831	0.0147258
673.910	0.0148252
673.988	0.0147736
674.066	0.0146469
674.144	0.0146746
674.222	0.0146226
674.300	0.0147381
674.378	0.0147900
674.456	0.0148140
674.535	0.0147272
674.613	0.0147150
674.691	0.0146162
674.769	0.0145540
674.847	0.0147221
674.925	0.0147789
675.003	0.0146008
675.081	0.0147704
675.160	0.0147458
675.238	0.0147954
675.316	0.0146693
675.394	0.0147263
675.472	0.0147474
675.550	0.0146932
675.628	0.0146455
675.706	0.0146504
675.785	0.0147693
675.863	0.0146587
675.941	0.0145609
676.019	0.0146182
676.097	0.0145378
676.175	0.0146765
676.253	0.0146825
676.331	0.0147461
676.410	0.0147655
676.488	0.0146758
676.566	0.0146129
676.644	0.0148057
676.722	0.0147935
676.800	0.0147713
676.878	0.0148638
676.956	0.0147520
677.035	0.0145748
677.113	0.0146865
677.191	0.0146498
677.269	0.0146879
677.347	0.0146190
677.425	0.0147604
677.503	0.0148280
677.581	0.0147224
677.660	0.0148063
677.738	0.0148157
677.816	0.0145812
677.894	0.0146321
677.972	0.0147057
678.050	0.0146679
678.128	0.0146558
678.206	0.0147118
678.285	0.0147315
678.363	0.0146085
678.441	0.0146955
678.519	0.0146832
678.597	0.0146622
678.675	0.0148017
678.753	0.0144845
678.831	0.0146030
678.910	0.0147134
678.988	0.0147924
679.066	0.0147783
679.144	0.0145451
679.222	0.0146255
679.300	0.0146835
679.378	0.0146262
679.456	0.0147176
679.535	0.0148416
679.613	0.0146230
679.691	0.0146173
679.769	0.0146619
679.847	0.0145811
679.925	0.0147686
680.003	0.0148208
680.081	0.0145856
680.160	0.0146097
680.238	0.0146572
680.316	0.0147667
680.394	0.0146500
680.472	0.0146136
680.550	0.0146854
680.628	0.0146363
680.706	0.0146870
680.785	0.0146861
680.863	0.0147196
680.941	0.0145853
681.019	0.0146338
681.097	0.0147423
681.175	0.0146712
681.253	0.0146211
681.331	0.0146667
681.410	0.0146062
681.488	0.0145874
681.566	0.0146975
681.644	0.0146294
681.722	0.0146323
681.800	0.0146949
681.878	0.0146480
681.956	0.0146682
682.035	0.0146580
682.113	0.0147767
682.191	0.0146313
682.269	0.0146720
682.347	0.0146700
682.425	0.0146333
682.503	0.0147066
682.581	0.0146740
682.660	0.0146642
682.738	0.0146948
682.816	0.0146181
682.894	0.0146457
682.972	0.0147179
683.050	0.0148312
683.128	0.0146241
683.206	0.0145746
683.285	0.0145869
683.363	0.0147090
683.441	0.0146199
683.519	0.0147786
683.597	0.0146349
683.675	0.0146233
683.753	0.0146378
683.831	0.0147525
683.910	0.0146366
683.988	0.0145579
684.066	0.0145366
684.144	0.0147270
684.222	0.0147766
684.300	0.0146663
684.378	0.0146826
684.456	0.0147130
684.535	0.0146975
684.613	0.0146351
684.691	0.0146531
684.769	0.0146588
684.847	0.0147021
684.925	0.0146532
685.003	0.0147112
685.081	0.0146412
685.160	0.0147067
685.238	0.0146563
685.316	0.0147257
685.394	0.0146436
685.472	0.0146878
685.550	0.0146609
685.628	0.0145490
685.706	0.0146389
685.785	0.0147174
685.863	0.0145781
685.941	0.0145855
686.019	0.0146535
686.097	0.0146065
686.175	0.0146767
686.253	0.0145767
686.331	0.0146394
686.410	0.0148035
686.488	0.0146571
686.566	0.0147293
686.644	0.0147100
686.722	0.0147201
686.800	0.0147509
686.878	0.0146819
686.956	0.0147165
687.035	0.0148226
687.113	0.0148232
687.191	0.0148066
687.269	0.0147468
687.347	0.0145998
687.425	0.0146754
687.503	0.0146023
687.581	0.0145903
687.660	0.0146960
687.738	0.0146245
687.816	0.0146644
687.894	0.0145332
687.972	0.0147175
688.050	0.0146724
688.128	0.0146719
688.206	0.0148321
688.285	0.0146292
688.363	0.0147646
688.441	0.0147237
688.519	0.0146919
688.597	0.0146861
688.675	0.0144456
688.753	0.0145668
688.831	0.0145896
688.910	0.0146907
688.988	0.0147476
689.066	0.0146156
689.144	0.0145930
689.222	0.0147083
689.300	0.0144923
689.378	0.0146918
689.456	0.0146241
689.535	0.0145609
689.613	0.0146308
689.691	0.0147027
689.769	0.0146552
689.847	0.0145775
689.925	0.0145671
690.003	0.0146349
690.081	0.0146696
690.160	0.0147865
690.238	0.0146153
690.316	0.0147446
690.394	0.0145578
690.472	0.0146375
690.550	0.0146279
690.628	0.0146144
690.706	0.0146981
690.785	0.0146298
690.863	0.0146326
690.941	0.0146027
691.019	0.0145615
691.097	0.0147026
691.175	0.0147086
691.253	0.0147166
691.331	0.0146855
691.410	0.0146394
691.488	0.0146655
691.566	0.0146168
691.644	0.0147360
691.722	0.0146099
691.800	0.0144162
691.878	0.0146584
691.956	0.0146704
692.035	0.0145833
692.113	0.0145821
692.191	0.0146529
692.269	0.0146449
692.347	0.0145528
692.425	0.0146539
692.503	0.0147214
692.581	0.0146682
692.660	0.0146622
692.738	0.0146190
692.816	0.0146791
692.894	0.0146479
692.972	0.0147442
693.050	0.0145686
693.128	0.0147347
693.206	0.0146983
693.285	0.0146375
693.363	0.0146670
693.441	0.0146790
693.519	0.0147196
693.597	0.0147369
693.675	0.0147694
693.753	0.0148339
693.831	0.0147964
693.910	0.0146121
693.988	0.0147269
694.066	0.0146655
694.144	0.0145596
694.222	0.0146927
694.300	0.0147848
694.378	0.0146295
694.456	0.0146272
694.535	0.0146295
694.613	0.0146799
694.691	0.0146232
694.769	0.0145618
694.847	0.0146044
694.925	0.0146454
695.003	0.0147485
695.081	0.0147871
695.160	0.0146590
695.238	0.0148204
695.316	0.0147601
695.394	0.0146719
695.472	0.0147536
695.550	0.0146398
695.628	0.0146700
695.706	0.0147459
695.785	0.0147196
695.863	0.0146645
695.941	0.0147031
696.019	0.0147295
696.097	0.0147477
696.175	0.0146001
696.253	0.0146442
696.331	0.0146870
696.410	0.0147159
696.488	0.0147933
696.566	0.0147308
696.644	0.0146911
696.722	0.0147215
696.800	0.0146497
696.878	0.0148405
696.956	0.0147049
697.035	0.0147227
697.113	0.0146371
697.191	0.0148262
697.269	0.0147897
697.347	0.0147037
697.425	0.0147779
697.503	0.0146474
697.581	0.0147369
697.660	0.0147600
697.738	0.0146938
697.816	0.0146924
697.894	0.0147179
697.972	0.0148737
698.050	0.0147640
698.128	0.0146831
698.206	0.0147710
698.285	0.0146951
698.363	0.0148396
698.441	0.0147051
698.519	0.0147612
698.597	0.0147588
698.675	0.0148034
698.753	0.0145580
698.831	0.0146173
698.910	0.0147046
698.988	0.0145920
699.066	0.0145863
699.144	0.0146329
699.222	0.0146616
699.300	0.0147834
699.378	0.0147195
699.456	0.0146841
699.535	0.0147752
699.613	0.0147800
699.691	0.0146185
699.769	0.0145865
699.847	0.0145628
699.925	0.0147196
700.003	0.0146748
700.081	0.0147089
700.160	0.0146339
700.238	0.0146535
700.316	0.0147058
700.394	0.0147842
700.472	0.0146732
700.550	0.0146226
700.628	0.0145924
700.706	0.0148033
700.785	0.0147440
700.863	0.0147313
700.941	0.0146413
701.019	0.0147530
701.097	0.0147932
701.175	0.0146137
701.253	0.0147381
701.331	0.0149322
701.410	0.0149174
701.488	0.0147113
701.566	0.0149050
701.644	0.0148248
701.722	0.0147831
701.800	0.0147977
701.878	0.0147720
701.956	0.0147926
702.035	0.0148312
702.113	0.0148092
702.191	0.0147094
702.269	0.0148028
702.347	0.0146875
702.425	0.0146481
702.503	0.0147239
702.581	0.0146684
702.660	0.0145110
702.738	0.0144170
702.816	0.0140997
702.894	0.0142612
702.972	0.0141227
703.050	0.0140681
703.128	0.0142379
703.206	0.0146267
703.285	0.0147414
703.363	0.0150821
703.441	0.0156606
703.519	0.0158112
703.597	0.0157269
703.675	0.0157625
703.753	0.0153329
703.831	0.0147519
703.910	0.0140785
703.988	0.0133553
704.066	0.0125211
704.144	0.0118022
704.222	0.0114755
704.300	0.0112209
704.378	0.0110779
704.456	0.0114610
704.535	0.0119379
704.613	0.0125155
704.691	0.0136216
704.769	0.0148811
704.847	0.0162324
704.925	0.0177733
705.003	0.0193195
705.081	0.0211516
705.160	0.0225475
705.238	0.0235920
705.316	0.0242297
705.394	0.0242614
705.472	0.0235509
705.550	0.0220849
705.628	0.0198480
705.706	0.0171273
705.785	0.0140410
705.863	0.0103487
705.941	0.00681816
706.019	0.00377289
706.097	0.00131744
706.175	-0.000184326
706.253	-0.000490952
706.331	0.000180130
706.410	0.00166321
706.488	0.00385429
706.566	0.00658638
706.644	0.00947617
706.722	0.0122664
706.800	0.0147044
706.878	0.0170107
706.956	0.0192051
707.035	0.0212230
707.113	0.0231988
707.191	0.0250610
707.269	0.0266913
707.347	0.0281521
707.425	0.0289847
707.503	0.0294022
707.581	0.0293490
707.660	0.0287534
707.738	0.0275069
707.816	0.0258335
707.894	0.0236001
707.972	0.0208222
708.050	0.0175168
708.128	0.0140191
708.206	0.0103742
708.285	0.00686394
708.363	0.00342026
708.441	0.000597305
708.519	-0.00151093
708.597	-0.00269768
708.675	-0.00320084
708.753	-0.00282928
708.831	-0.00180305
708.910	-0.000250397
708.988	0.00166794
709.066	0.00418518
709.144	0.00673073
709.222	0.00967575
709.300	0.0124908
709.378	0.0152981
709.456	0.0178596
709.535	0.0203281
709.613	0.0227393
709.691	0.0246401
709.769	0.0263469
709.847	0.0275874
709.925	0.0284698
710.003	0.0290959
710.081	0.0293566
710.160	0.0291978
710.238	0.0286344
710.316	0.0273033
710.394	0.0259097
710.472	0.0241133
710.550	0.0219933
710.628	0.0196122
710.706	0.0170653
710.785	0.0144329
710.863	0.0118802
710.941	0.00955544
711.019	0.00757790
711.097	0.00579117
711.175	0.00433136
711.253	0.00354874
711.331	0.00318932
711.410	0.00304352
711.488	0.00320946
711.566	0.00366257
711.644	0.00430489
711.722	0.00514061
711.800	0.00633743
711.878	0.00750832
711.956	0.00874924
712.035	0.00993248
712.113	0.0112280
712.191	0.0127164
712.269	0.0140658
712.347	0.0154718
712.425	0.0170180
712.503	0.0187401
712.581	0.0200220
712.660	0.0212568
712.738	0.0225323
712.816	0.0232750
712.894	0.0240362
712.972	0.0246572
713.050	0.0246584
713.128	0.0245552
713.206	0.0240612
713.285	0.0234398
713.363	0.0224973
713.441	0.0214575
713.519	0.0200965
713.597	0.0185346
713.675	0.0170061
713.753	0.0152483
713.831	0.0139045
713.910	0.0124683
713.988	0.0109505
714.066	0.00968475
714.144	0.00852135
714.222	0.00777336
714.300	0.00726807
714.378	0.00683273
714.456	0.00666962
714.535	0.00680611
714.613	0.00717499
714.691	0.00760345
714.769	0.00816544
714.847	0.00894089
714.925	0.00977470
715.003	0.0104251
715.081	0.0111582
715.160	0.0119745
715.238	0.0128619
715.316	0.0135303
715.394	0.0142782
715.472	0.0150431
715.550	0.0158286
715.628	0.0167386
715.706	0.0177467
715.785	0.0185987
715.863	0.0194994
715.941	0.0203907
716.019	0.0210804
716.097	0.0214197
716.175	0.0216280
716.253	0.0214576
716.331	0.0210097
716.410	0.0206345
716.488	0.0197858
716.566	0.0189027
716.644	0.0179659
716.722	0.0171729
716.800	0.0161702
716.878	0.0154609
716.956	0.0147102
717.035	0.0140363
717.113	0.0135672
717.191	0.0129682
717.269	0.0124508
717.347	0.0121534
717.425	0.0118019
717.503	0.0114200
717.581	0.0112418
717.660	0.0111601
717.738	0.0109724
717.816	0.0108657
717.894	0.0109979
717.972	0.0111068
718.050	0.0114845
718.128	0.0115815
718.206	0.0118831
718.285	0.0120495
718.363	0.0123666
718.441	0.0124995
718.519	0.0129008
718.597	0.0129485
718.675	0.0131487
718.753	0.0133026
718.831	0.0135242
718.910	0.0137404
718.988	0.0140788
719.066	0.0144530
719.144	0.0146829
719.222	0.0151907
719.300	0.0155294
719.378	0.0161219
719.456	0.0166733
719.535	0.0170359
719.613	0.0174146
719.691	0.0176555
719.769	0.0176988
719.847	0.0175217
719.925	0.0176006
720.003	0.0175801
720.081	0.0174185
720.160	0.0173133
720.238	0.0174366
720.316	0.0174621
720.394	0.0176389
720.472	0.0176902
720.550	0.0175397
720.628	0.0175072
720.706	0.0171914
720.785	0.0169372
720.863	0.0164770
720.941	0.0159636
721.019	0.0153488
721.097	0.0148066
721.175	0.0142455
721.253	0.0136303
721.331	0.0131429
721.410	0.0126633
721.488	0.0122271
721.566	0.0118877
721.644	0.0115797
721.722	0.0112267
721.800	0.0111462
721.878	0.0110503
721.956	0.0108591
722.035	0.0111248
722.113	0.0111262
722.191	0.0111697
722.269	0.0116302
722.347	0.0118481
722.425	0.0122209
722.503	0.0125623
722.581	0.0127696
722.660	0.0132265
722.738	0.0136295
722.816	0.0142495
722.894	0.0147816
722.972	0.0150643
723.050	0.0157118
723.128	0.0163419
723.206	0.0166252
723.285	0.0170139
723.363	0.0172570
723.441	0.0173894
723.519	0.0174507
723.597	0.0175324
723.675	0.0175742
723.753	0.0175261
723.831	0.0173552
723.910	0.0173546
723.988	0.0171233
724.066	0.0171233
724.144	0.0169671
724.222	0.0166696
724.300	0.0166675
724.378	0.0163821
724.456	0.0161559
724.535	0.0156924
724.613	0.0155707
724.691	0.0152962
724.769	0.0149404
724.847	0.0146659
724.925	0.0146799
725.003	0.0142892
725.081	0.0141505
725.160	0.0140924
725.238	0.0140392
725.316	0.0137305
725.394	0.0136532
725.472	0.0135870
725.550	0.0134245
725.628	0.0131134
725.706	0.0131699
725.785	0.0130516
725.863	0.0128670
725.941	0.0126763
726.019	0.0126948
726.097	0.0124449
726.175	0.0124125
726.253	0.0124095
726.331	0.0123579
726.410	0.0124714
726.488	0.0125871
726.566	0.0126934
726.644	0.0129632
726.722	0.0131163
726.800	0.0132898
726.878	0.0138172
726.956	0.0142760
727.035	0.0147131
727.113	0.0150650
727.191	0.0155522
727.269	0.0161604
727.347	0.0165377
727.425	0.0170227
727.503	0.0172389
727.581	0.0173280
727.660	0.0174049
727.738	0.0172729
727.816	0.0172520
727.894	0.0168761
727.972	0.0165614
728.050	0.0163427
728.128	0.0162592
728.206	0.0160162
728.285	0.0156610
728.363	0.0156612
728.441	0.0153970
728.519	0.0154717
728.597	0.0153362
728.675	0.0154446
728.753	0.0152668
728.831	0.0153687
728.910	0.0152020
728.988	0.0152409
729.066	0.0152190
729.144	0.0151301
729.222	0.0148900
729.300	0.0146037
729.378	0.0146603
729.456	0.0144344
729.535	0.0141246
729.613	0.0139077
729.691	0.0135483
729.769	0.0134241
729.847	0.0131278
729.925	0.0128827
730.003	0.0128168
730.081	0.0127017
730.160	0.0128656
730.238	0.0127322
730.316	0.0128874
730.394	0.0129847
730.472	0.0130251
730.550	0.0130410
730.628	0.0131615
730.706	0.0131191
730.785	0.0131412
730.863	0.0132858
730.941	0.0133913
731.019	0.0135111
731.097	0.0136208
731.175	0.0139502
731.253	0.0140996
731.331	0.0145080
731.410	0.0147218
731.488	0.0149380
731.566	0.0152965
731.644	0.0156628
731.722	0.0159060
731.800	0.0160732
731.878	0.0162099
731.956	0.0162564
732.035	0.0164261
732.113	0.0164711
732.191	0.0164803
732.269	0.0164857
732.347	0.0165443
732.425	0.0165425
732.503	0.0164855
732.581	0.0162907
732.660	0.0163627
732.738	0.0161966
732.816	0.0161446
732.894	0.0159019
732.972	0.0158543
733.050	0.0157691
733.128	0.0155949
733.206	0.0154628
733.285	0.0153326
733.363	0.0149473
733.441	0.0147594
733.519	0.0146296
733.597	0.0143221
733.675	0.0142112
733.753	0.0138128
733.831	0.0138847
733.910	0.0135804
733.988	0.0134173
734.066	0.0133295
734.144	0.0132827
734.222	0.0131729
734.300	0.0131895
734.378	0.0132899
734.456	0.0133908
734.535	0.0134158
734.613	0.0134939
734.691	0.0135591
734.769	0.0136928
734.847	0.0137513
734.925	0.0138158
735.003	0.0139490
735.081	0.0139476
735.160	0.0138736
735.238	0.0138232
735.316	0.0138498
735.394	0.0138844
735.472	0.0139082
735.550	0.0137952
735.628	0.0140500
735.706	0.0140598
735.785	0.0141994
735.863	0.0143836
735.941	0.0144776
736.019	0.0146229
736.097	0.0149689
736.175	0.0151155
736.253	0.0154524
736.331	0.0155907
736.410	0.0156812
736.488	0.0158866
736.566	0.0158626
736.644	0.0158863
736.722	0.0158138
736.800	0.0157217
736.878	0.0156209
736.956	0.0154556
737.035	0.0153629
737.113	0.0154001
737.191	0.0153563
737.269	0.0153313
737.347	0.0153332
737.425	0.0153570
737.503	0.0153261
737.581	0.0154762
737.660	0.0155243
737.738	0.0157178
737.816	0.0157552
737.894	0.0158172
737.972	0.0156642
738.050	0.0156108
738.128	0.0153011
738.206	0.0151787
738.285	0.0147703
738.363	0.0144919
738.441	0.0142001
738.519	0.0139378
738.597	0.0137522
738.675	0.0139017
738.753	0.0134438
738.831	0.0134344
738.910	0.0136094
738.988	0.0135784
739.066	0.0135365
739.144	0.0137231
739.222	0.0137247
739.300	0.0138863
739.378	0.0139394
739.456	0.0140959
739.535	0.0141418
739.613	0.0143761
739.691	0.0145555
739.769	0.0143661
739.847	0.0146146
739.925	0.0145229
740.003	0.0144904
740.081	0.0145679
740.160	0.0146612
740.238	0.0145306
740.316	0.0146172
740.394	0.0147556
740.472	0.0148149
740.550	0.0147485
740.628	0.0147839
740.706	0.0147125
740.785	0.0147675
740.863	0.0146967
740.941	0.0145855
741.019	0.0146452
741.097	0.0144707
741.175	0.0145147
741.253	0.0143003
741.331	0.0144552
741.410	0.0144373
741.488	0.0144200
741.566	0.0146230
741.644	0.0145033
741.722	0.0145608
741.800	0.0149447
741.878	0.0150076
741.956	0.0149521
742.035	0.0149903
742.113	0.0152119
742.191	0.0152900
742.269	0.0152903
742.347	0.0153735
742.425	0.0154099
742.503	0.0153746
742.581	0.0153428
742.660	0.0152225
742.738	0.0151498
742.816	0.0150102
742.894	0.0148912
742.972	0.0149862
743.050	0.0149436
743.128	0.0149142
743.206	0.0148419
743.285	0.0147301
743.363	0.0147723
743.441	0.0146136
743.519	0.0144578
743.597	0.0144546
743.675	0.0142920
743.753	0.0142811
743.831	0.0143250
743.910	0.0143387
743.988	0.0142235
744.066	0.0141603
744.144	0.0142973
744.222	0.0141551
744.300	0.0142020
744.378	0.0142326
744.456	0.0141264
744.535	0.0141370
744.613	0.0139420
744.691	0.0139140
744.769	0.0138708
744.847	0.0140170
744.925	0.0137473
745.003	0.0137749
745.081	0.0140441
745.160	0.0141396
745.238	0.0143101
745.316	0.0145415
745.394	0.0148029
745.472	0.0147801
