05/03/2022	20:15:36	Ver.	4.1	UNKNOWN
Optical Delay	660.003261	Delta X		0.078125	Sweeps	1	Scan Rate	0/0
Coordinates	Axis 1	NaN	Axis 2	NaN	Axis 3	NaN	Axis 4	NaN	Axis 5	NaN	Axis 6	0.000000
TX Power	0.000000	RX Power	0.000000

660.003	0.0147292
660.081	0.0147436
660.160	0.0148418
660.238	0.0147787
660.316	0.0147924
660.394	0.0146441
660.472	0.0147021
660.550	0.0146957
660.628	0.0147405
660.706	0.0146543
660.785	0.0146429
660.863	0.0147762
660.941	0.0147325
661.019	0.0146555
661.097	0.0147796
661.175	0.0146693
661.253	0.0148512
661.331	0.0147725
661.410	0.0146690
661.488	0.0147048
661.566	0.0146362
661.644	0.0146628
661.722	0.0146403
661.800	0.0145829
661.878	0.0147063
661.956	0.0147235
662.035	0.0148046
662.113	0.0148917
662.191	0.0148063
662.269	0.0147516
662.347	0.0146119
662.425	0.0145693
662.503	0.0148697
662.581	0.0147822
662.660	0.0147323
662.738	0.0146452
662.816	0.0146704
662.894	0.0146745
662.972	0.0147288
663.050	0.0146494
663.128	0.0147353
663.206	0.0147952
663.285	0.0149088
663.363	0.0147400
663.441	0.0146587
663.519	0.0146889
663.597	0.0146684
663.675	0.0147810
663.753	0.0147311
663.831	0.0147195
663.910	0.0148473
663.988	0.0148389
664.066	0.0147046
664.144	0.0147031
664.222	0.0147757
664.300	0.0147435
664.378	0.0147621
664.456	0.0147179
664.535	0.0146902
664.613	0.0147300
664.691	0.0148072
664.769	0.0148745
664.847	0.0147594
664.925	0.0147635
665.003	0.0147334
665.081	0.0146317
665.160	0.0146475
665.238	0.0146217
665.316	0.0148273
665.394	0.0147032
665.472	0.0147248
665.550	0.0146164
665.628	0.0147891
665.706	0.0146924
665.785	0.0147156
665.863	0.0146519
665.941	0.0148425
666.019	0.0147195
666.097	0.0146482
666.175	0.0146491
666.253	0.0145415
666.331	0.0147448
666.410	0.0146645
666.488	0.0147651
666.566	0.0145668
666.644	0.0148089
666.722	0.0146898
666.800	0.0146933
666.878	0.0147380
666.956	0.0147018
667.035	0.0147338
667.113	0.0148187
667.191	0.0146615
667.269	0.0146471
667.347	0.0146800
667.425	0.0146761
667.503	0.0147407
667.581	0.0146806
667.660	0.0148210
667.738	0.0148036
667.816	0.0147060
667.894	0.0146966
667.972	0.0146495
668.050	0.0147509
668.128	0.0147992
668.206	0.0146703
668.285	0.0147165
668.363	0.0147205
668.441	0.0147328
668.519	0.0148439
668.597	0.0147603
668.675	0.0147617
668.753	0.0147148
668.831	0.0147681
668.910	0.0147884
668.988	0.0147128
669.066	0.0146678
669.144	0.0145806
669.222	0.0147867
669.300	0.0147047
669.378	0.0147437
669.456	0.0147099
669.535	0.0146127
669.613	0.0147309
669.691	0.0147772
669.769	0.0147326
669.847	0.0147392
669.925	0.0147147
670.003	0.0146858
670.081	0.0146349
670.160	0.0146347
670.238	0.0147462
670.316	0.0146444
670.394	0.0146458
670.472	0.0146019
670.550	0.0146210
670.628	0.0147533
670.706	0.0148200
670.785	0.0147187
670.863	0.0146552
670.941	0.0147843
671.019	0.0147553
671.097	0.0147357
671.175	0.0147482
671.253	0.0147543
671.331	0.0147500
671.410	0.0147658
671.488	0.0149023
671.566	0.0147189
671.644	0.0146648
671.722	0.0147412
671.800	0.0147744
671.878	0.0148141
671.956	0.0147123
672.035	0.0147137
672.113	0.0147446
672.191	0.0146642
672.269	0.0147536
672.347	0.0148116
672.425	0.0148843
672.503	0.0147321
672.581	0.0147740
672.660	0.0147967
672.738	0.0147659
672.816	0.0148186
672.894	0.0146719
672.972	0.0148271
673.050	0.0148579
673.128	0.0147115
673.206	0.0146860
673.285	0.0147108
673.363	0.0148403
673.441	0.0148100
673.519	0.0146797
673.597	0.0147709
673.675	0.0147369
673.753	0.0147408
673.831	0.0147975
673.910	0.0146788
673.988	0.0147150
674.066	0.0147080
674.144	0.0145917
674.222	0.0147547
674.300	0.0147882
674.378	0.0147966
674.456	0.0148421
674.535	0.0147238
674.613	0.0147526
674.691	0.0146405
674.769	0.0146704
674.847	0.0146981
674.925	0.0147259
675.003	0.0146655
675.081	0.0147468
675.160	0.0147136
675.238	0.0148004
675.316	0.0147713
675.394	0.0147630
675.472	0.0147664
675.550	0.0147520
675.628	0.0146597
675.706	0.0146693
675.785	0.0148111
675.863	0.0146670
675.941	0.0146873
676.019	0.0147318
676.097	0.0147359
676.175	0.0148841
676.253	0.0148706
676.331	0.0148290
676.410	0.0147556
676.488	0.0145757
676.566	0.0148288
676.644	0.0146600
676.722	0.0147616
676.800	0.0148748
676.878	0.0148087
676.956	0.0148412
677.035	0.0147026
677.113	0.0147701
677.191	0.0148312
677.269	0.0146914
677.347	0.0147206
677.425	0.0147293
677.503	0.0147933
677.581	0.0145297
677.660	0.0147615
677.738	0.0146399
677.816	0.0147063
677.894	0.0147620
677.972	0.0147189
678.050	0.0148436
678.128	0.0148204
678.206	0.0148271
678.285	0.0147211
678.363	0.0146696
678.441	0.0146996
678.519	0.0146833
678.597	0.0146707
678.675	0.0147234
678.753	0.0147485
678.831	0.0146997
678.910	0.0147025
678.988	0.0146291
679.066	0.0148190
679.144	0.0149477
679.222	0.0147534
679.300	0.0147967
679.378	0.0146825
679.456	0.0147005
679.535	0.0147138
679.613	0.0147904
679.691	0.0148104
679.769	0.0148118
679.847	0.0147299
679.925	0.0145632
680.003	0.0147331
680.081	0.0148041
680.160	0.0147877
680.238	0.0148033
680.316	0.0146310
680.394	0.0146917
680.472	0.0148271
680.550	0.0146848
680.628	0.0147146
680.706	0.0148051
680.785	0.0146637
680.863	0.0148209
680.941	0.0146732
681.019	0.0147322
681.097	0.0148507
681.175	0.0147560
681.253	0.0146639
681.331	0.0146728
681.410	0.0148273
681.488	0.0148006
681.566	0.0147633
681.644	0.0147649
681.722	0.0147566
681.800	0.0146466
681.878	0.0147744
681.956	0.0147269
682.035	0.0147090
682.113	0.0147734
682.191	0.0146576
682.269	0.0146701
682.347	0.0148459
682.425	0.0148501
682.503	0.0147193
682.581	0.0146900
682.660	0.0147313
682.738	0.0146980
682.816	0.0147210
682.894	0.0146155
682.972	0.0145884
683.050	0.0147504
683.128	0.0148009
683.206	0.0147701
683.285	0.0146683
683.363	0.0145952
683.441	0.0146896
683.519	0.0147712
683.597	0.0146465
683.675	0.0145812
683.753	0.0147237
683.831	0.0146469
683.910	0.0148089
683.988	0.0147234
684.066	0.0147708
684.144	0.0147534
684.222	0.0146993
684.300	0.0146918
684.378	0.0147276
684.456	0.0145812
684.535	0.0147461
684.613	0.0146796
684.691	0.0147146
684.769	0.0147986
684.847	0.0147864
684.925	0.0147221
685.003	0.0148505
685.081	0.0146820
685.160	0.0147758
685.238	0.0147713
685.316	0.0147581
685.394	0.0147433
685.472	0.0146692
685.550	0.0146400
685.628	0.0147248
685.706	0.0148174
685.785	0.0148409
685.863	0.0148163
685.941	0.0147652
686.019	0.0148125
686.097	0.0146092
686.175	0.0147655
686.253	0.0148670
686.331	0.0146581
686.410	0.0146753
686.488	0.0146070
686.566	0.0145862
686.644	0.0147881
686.722	0.0146436
686.800	0.0146722
686.878	0.0146366
686.956	0.0146736
687.035	0.0146691
687.113	0.0146912
687.191	0.0147079
687.269	0.0147815
687.347	0.0147642
687.425	0.0147747
687.503	0.0146188
687.581	0.0148241
687.660	0.0146996
687.738	0.0145820
687.816	0.0147544
687.894	0.0147675
687.972	0.0146156
688.050	0.0146920
688.128	0.0147766
688.206	0.0147205
688.285	0.0147820
688.363	0.0147961
688.441	0.0148633
688.519	0.0146916
688.597	0.0147205
688.675	0.0147690
688.753	0.0147309
688.831	0.0147160
688.910	0.0147302
688.988	0.0146120
689.066	0.0147429
689.144	0.0149323
689.222	0.0147570
689.300	0.0146694
689.378	0.0146925
689.456	0.0147690
689.535	0.0146008
689.613	0.0148188
689.691	0.0148108
689.769	0.0146839
689.847	0.0147025
689.925	0.0146794
690.003	0.0146766
690.081	0.0149270
690.160	0.0147735
690.238	0.0148387
690.316	0.0147630
690.394	0.0147241
690.472	0.0147646
690.550	0.0148541
690.628	0.0148073
690.706	0.0146352
690.785	0.0148261
690.863	0.0148174
690.941	0.0148266
691.019	0.0147181
691.097	0.0147120
691.175	0.0147499
691.253	0.0147897
691.331	0.0147038
691.410	0.0148453
691.488	0.0146792
691.566	0.0147531
691.644	0.0147079
691.722	0.0147445
691.800	0.0148043
691.878	0.0148184
691.956	0.0147659
692.035	0.0148734
692.113	0.0148496
692.191	0.0148111
692.269	0.0147304
692.347	0.0146615
692.425	0.0148858
692.503	0.0147944
692.581	0.0147988
692.660	0.0147196
692.738	0.0147543
692.816	0.0149203
692.894	0.0147551
692.972	0.0148227
693.050	0.0147265
693.128	0.0147435
693.206	0.0147702
693.285	0.0147855
693.363	0.0147475
693.441	0.0147617
693.519	0.0146262
693.597	0.0145433
693.675	0.0148209
693.753	0.0147593
693.831	0.0147014
693.910	0.0148294
693.988	0.0147363
694.066	0.0147804
694.144	0.0147382
694.222	0.0146224
694.300	0.0146571
694.378	0.0147883
694.456	0.0147503
694.535	0.0147612
694.613	0.0147282
694.691	0.0147262
694.769	0.0147337
694.847	0.0147469
694.925	0.0146368
695.003	0.0147898
695.081	0.0146659
695.160	0.0145910
695.238	0.0147608
695.316	0.0148423
695.394	0.0146948
695.472	0.0148043
695.550	0.0148068
695.628	0.0149231
695.706	0.0147171
695.785	0.0146865
695.863	0.0148305
695.941	0.0145944
696.019	0.0147836
696.097	0.0146541
696.175	0.0146783
696.253	0.0147018
696.331	0.0147955
696.410	0.0147224
696.488	0.0146198
696.566	0.0147249
696.644	0.0147038
696.722	0.0147643
696.800	0.0146288
696.878	0.0146709
696.956	0.0146936
697.035	0.0147224
697.113	0.0146652
697.191	0.0146046
697.269	0.0146671
697.347	0.0146626
697.425	0.0147460
697.503	0.0147015
697.581	0.0147366
697.660	0.0147729
697.738	0.0145955
697.816	0.0147556
697.894	0.0147690
697.972	0.0147942
698.050	0.0147229
698.128	0.0145900
698.206	0.0146512
698.285	0.0146894
698.363	0.0147884
698.441	0.0147012
698.519	0.0147870
698.597	0.0146712
698.675	0.0146944
698.753	0.0147141
698.831	0.0147321
698.910	0.0145384
698.988	0.0147608
699.066	0.0147645
699.144	0.0146283
699.222	0.0148114
699.300	0.0146326
699.378	0.0148521
699.456	0.0148082
699.535	0.0147199
699.613	0.0147192
699.691	0.0146403
699.769	0.0146121
699.847	0.0147828
699.925	0.0147534
700.003	0.0146642
700.081	0.0147999
700.160	0.0148201
700.238	0.0147901
700.316	0.0147864
700.394	0.0148016
700.472	0.0148035
700.550	0.0148077
700.628	0.0148858
700.706	0.0148746
700.785	0.0146994
700.863	0.0148314
700.941	0.0146512
701.019	0.0147835
701.097	0.0147850
701.175	0.0147298
701.253	0.0148560
701.331	0.0146723
701.410	0.0148013
701.488	0.0148399
701.566	0.0147880
701.644	0.0147456
701.722	0.0146601
701.800	0.0146613
701.878	0.0146330
701.956	0.0145510
702.035	0.0144106
702.113	0.0143375
702.191	0.0143113
702.269	0.0142244
702.347	0.0143988
702.425	0.0144740
702.503	0.0145613
702.581	0.0146893
702.660	0.0150423
702.738	0.0153036
702.816	0.0156559
702.894	0.0156368
702.972	0.0153996
703.050	0.0151683
703.128	0.0147034
703.206	0.0141795
703.285	0.0136564
703.363	0.0130887
703.441	0.0125089
703.519	0.0122336
703.597	0.0120087
703.675	0.0120911
703.753	0.0124306
703.831	0.0129825
703.910	0.0132635
703.988	0.0138937
704.066	0.0146944
704.144	0.0156754
704.222	0.0165837
704.300	0.0176647
704.378	0.0188671
704.456	0.0198621
704.535	0.0205630
704.613	0.0213319
704.691	0.0215012
704.769	0.0212738
704.847	0.0208380
704.925	0.0198191
705.003	0.0180865
705.081	0.0161504
705.160	0.0139835
705.238	0.0113680
705.316	0.00859329
705.394	0.00629036
705.472	0.00432640
705.550	0.00316032
705.628	0.00278084
705.706	0.00321899
705.785	0.00429222
705.863	0.00610153
705.941	0.00829437
706.019	0.0105684
706.097	0.0128288
706.175	0.0148045
706.253	0.0165823
706.331	0.0180974
706.410	0.0195077
706.488	0.0208171
706.566	0.0220989
706.644	0.0232377
706.722	0.0243871
706.800	0.0250832
706.878	0.0259749
706.956	0.0262151
707.035	0.0261240
707.113	0.0256411
707.191	0.0246418
707.269	0.0234431
707.347	0.0217340
707.425	0.0195582
707.503	0.0170791
707.581	0.0142693
707.660	0.0114937
707.738	0.00863800
707.816	0.00593857
707.894	0.00343300
707.972	0.00156609
708.050	0.000376968
708.128	-0.000173111
708.206	-0.000168381
708.285	0.000381470
708.363	0.00124100
708.441	0.00286209
708.519	0.00474045
708.597	0.00659195
708.675	0.00904289
708.753	0.0112643
708.831	0.0134751
708.910	0.0159800
708.988	0.0183072
709.066	0.0201933
709.144	0.0219653
709.222	0.0237593
709.300	0.0251425
709.378	0.0265211
709.456	0.0272542
709.535	0.0277647
709.613	0.0281403
709.691	0.0280038
709.769	0.0275774
709.847	0.0267141
709.925	0.0253271
710.003	0.0237910
710.081	0.0219344
710.160	0.0199299
710.238	0.0178667
710.316	0.0155294
710.394	0.0133935
710.472	0.0112322
710.550	0.00912659
710.628	0.00731323
710.706	0.00578163
710.785	0.00461517
710.863	0.00386589
710.941	0.00329704
711.019	0.00315376
711.097	0.00330505
711.175	0.00387169
711.253	0.00480537
711.331	0.00578468
711.410	0.00678131
711.488	0.00812187
711.566	0.00934731
711.644	0.0104550
711.722	0.0116019
711.800	0.0127203
711.878	0.0139774
711.956	0.0151030
712.035	0.0165343
712.113	0.0176733
712.191	0.0191029
712.269	0.0205334
712.347	0.0217249
712.425	0.0229139
712.503	0.0237936
712.581	0.0245260
712.660	0.0250471
712.738	0.0252022
712.816	0.0249980
712.894	0.0246079
712.972	0.0239018
713.050	0.0230131
713.128	0.0215901
713.206	0.0200210
713.285	0.0185390
713.363	0.0167056
713.441	0.0151051
713.519	0.0133723
713.597	0.0116804
713.675	0.0101295
713.753	0.00891205
713.831	0.00767265
713.910	0.00692642
713.988	0.00651901
714.066	0.00633293
714.144	0.00651596
714.222	0.00689590
714.300	0.00744667
714.378	0.00829971
714.456	0.00901108
714.535	0.00988762
714.613	0.0105965
714.691	0.0112817
714.769	0.0116968
714.847	0.0123555
714.925	0.0127807
715.003	0.0132659
715.081	0.0137067
715.160	0.0142918
715.238	0.0150050
715.316	0.0155585
715.394	0.0167516
715.472	0.0177962
715.550	0.0185650
715.628	0.0194972
715.706	0.0201789
715.785	0.0207215
715.863	0.0210606
715.941	0.0210251
716.019	0.0210065
716.097	0.0206905
716.175	0.0202476
716.253	0.0195842
716.331	0.0190568
716.410	0.0182842
716.488	0.0174568
716.566	0.0168809
716.644	0.0161642
716.722	0.0155083
716.800	0.0148405
716.878	0.0142769
716.956	0.0138058
717.035	0.0131908
717.113	0.0128362
717.191	0.0123952
717.269	0.0120731
717.347	0.0119894
717.425	0.0114854
717.503	0.0114472
717.581	0.0113235
717.660	0.0112206
717.738	0.0110397
717.816	0.0110633
717.894	0.0110621
717.972	0.0110494
718.050	0.0110584
718.128	0.0112352
718.206	0.0114040
718.285	0.0116025
718.363	0.0118324
718.441	0.0118416
718.519	0.0120960
718.597	0.0123389
718.675	0.0128909
718.753	0.0133796
718.831	0.0138163
718.910	0.0144556
718.988	0.0151860
719.066	0.0157907
719.144	0.0164745
719.222	0.0173186
719.300	0.0178284
719.378	0.0182532
719.456	0.0185858
719.535	0.0188483
719.613	0.0190031
719.691	0.0191012
719.769	0.0190743
719.847	0.0190737
719.925	0.0190054
720.003	0.0188161
720.081	0.0188016
720.160	0.0184456
720.238	0.0182529
720.316	0.0179997
720.394	0.0176368
720.472	0.0172064
720.550	0.0167572
720.628	0.0162344
720.706	0.0157700
720.785	0.0149841
720.863	0.0144288
720.941	0.0139301
721.019	0.0132273
721.097	0.0127337
721.175	0.0122757
721.253	0.0117463
721.331	0.0114091
721.410	0.0110637
721.488	0.0109133
721.566	0.0107966
721.644	0.0109032
721.722	0.0108585
721.800	0.0110135
721.878	0.0110315
721.956	0.0111729
722.035	0.0113666
722.113	0.0115038
722.191	0.0116141
722.269	0.0117596
722.347	0.0120315
722.425	0.0123466
722.503	0.0127380
722.581	0.0132610
722.660	0.0136808
722.738	0.0141285
722.816	0.0147720
722.894	0.0152175
722.972	0.0158945
723.050	0.0162956
723.128	0.0168440
723.206	0.0175555
723.285	0.0178348
723.363	0.0181384
723.441	0.0186122
723.519	0.0187050
723.597	0.0188160
723.675	0.0189217
723.753	0.0186108
723.831	0.0183714
723.910	0.0181823
723.988	0.0177882
724.066	0.0173396
724.144	0.0168536
724.222	0.0165063
724.300	0.0162291
724.378	0.0160062
724.456	0.0155336
724.535	0.0153075
724.613	0.0151553
724.691	0.0147798
724.769	0.0145488
724.847	0.0143613
724.925	0.0143720
725.003	0.0141145
725.081	0.0138763
725.160	0.0140607
725.238	0.0139357
725.316	0.0137448
725.394	0.0134943
725.472	0.0134174
725.550	0.0131860
725.628	0.0127326
725.706	0.0124300
725.785	0.0121342
725.863	0.0119678
725.941	0.0117412
726.019	0.0117796
726.097	0.0117785
726.175	0.0117184
726.253	0.0118927
726.331	0.0119848
726.410	0.0120982
726.488	0.0124641
726.566	0.0128115
726.644	0.0130417
726.722	0.0133696
726.800	0.0135126
726.878	0.0140023
726.956	0.0145487
727.035	0.0149741
727.113	0.0154605
727.191	0.0158994
727.269	0.0160125
727.347	0.0163311
727.425	0.0166579
727.503	0.0167467
727.581	0.0169273
727.660	0.0170953
727.738	0.0171307
727.816	0.0170334
727.894	0.0169901
727.972	0.0169563
728.050	0.0170469
728.128	0.0168995
728.206	0.0166409
728.285	0.0165814
728.363	0.0164839
728.441	0.0164101
728.519	0.0161835
728.597	0.0162033
728.675	0.0161206
728.753	0.0159952
728.831	0.0158125
728.910	0.0157927
728.988	0.0156841
729.066	0.0154663
729.144	0.0151830
729.222	0.0151559
729.300	0.0146659
729.378	0.0143064
729.456	0.0138773
729.535	0.0138351
729.613	0.0134589
729.691	0.0131248
729.769	0.0129334
729.847	0.0126639
729.925	0.0123853
730.003	0.0123102
730.081	0.0124245
730.160	0.0122750
730.238	0.0122598
730.316	0.0124012
730.394	0.0125177
730.472	0.0124938
730.550	0.0126060
730.628	0.0128847
730.706	0.0129752
730.785	0.0131843
730.863	0.0131162
730.941	0.0132664
731.019	0.0134391
731.097	0.0135191
731.175	0.0135949
731.253	0.0136304
731.331	0.0138702
731.410	0.0141710
731.488	0.0144891
731.566	0.0148538
731.644	0.0151262
731.722	0.0154313
731.800	0.0158788
731.878	0.0163150
731.956	0.0166264
732.035	0.0169381
732.113	0.0170840
732.191	0.0174236
732.269	0.0173277
732.347	0.0175018
732.425	0.0175803
732.503	0.0173426
732.581	0.0171883
732.660	0.0169633
732.738	0.0165197
732.816	0.0164603
732.894	0.0161340
732.972	0.0157677
733.050	0.0154794
733.128	0.0152470
733.206	0.0149425
733.285	0.0148690
733.363	0.0146388
733.441	0.0145209
733.519	0.0143554
733.597	0.0144366
733.675	0.0144822
733.753	0.0145190
733.831	0.0144855
733.910	0.0145876
733.988	0.0146358
734.066	0.0146319
734.144	0.0143096
734.222	0.0142067
734.300	0.0142077
734.378	0.0140086
734.456	0.0137616
734.535	0.0133822
734.613	0.0133752
734.691	0.0130193
734.769	0.0128822
734.847	0.0127152
734.925	0.0125385
735.003	0.0124847
735.081	0.0125587
735.160	0.0125267
735.238	0.0124932
735.316	0.0125507
735.394	0.0127486
735.472	0.0131078
735.550	0.0134518
735.628	0.0135873
735.706	0.0140279
735.785	0.0142607
735.863	0.0145172
735.941	0.0150034
736.019	0.0150805
736.097	0.0152435
736.175	0.0155981
736.253	0.0157703
736.331	0.0156483
736.410	0.0158845
736.488	0.0159086
736.566	0.0159293
736.644	0.0158212
736.722	0.0158791
736.800	0.0158369
736.878	0.0159415
736.956	0.0160400
737.035	0.0160156
737.113	0.0160649
737.191	0.0158389
737.269	0.0159404
737.347	0.0160371
737.425	0.0160055
737.503	0.0160673
737.581	0.0159739
737.660	0.0158516
737.738	0.0159092
737.816	0.0157697
737.894	0.0156956
737.972	0.0157915
738.050	0.0155245
738.128	0.0154570
738.206	0.0153369
738.285	0.0150986
738.363	0.0150065
738.441	0.0147400
738.519	0.0146104
738.597	0.0141997
738.675	0.0142034
738.753	0.0140681
738.831	0.0137318
738.910	0.0137743
738.988	0.0136069
739.066	0.0135134
739.144	0.0134906
739.222	0.0135187
739.300	0.0136382
739.378	0.0135620
739.456	0.0138071
739.535	0.0139378
739.613	0.0140896
739.691	0.0140937
739.769	0.0142408
739.847	0.0142756
739.925	0.0143992
740.003	0.0146014
740.081	0.0144417
740.160	0.0143927
740.238	0.0144316
740.316	0.0142799
740.394	0.0141588
740.472	0.0139673
740.550	0.0139191
740.628	0.0139405
740.706	0.0139168
740.785	0.0139190
740.863	0.0139806
740.941	0.0140899
741.019	0.0143215
741.097	0.0143568
741.175	0.0144833
741.253	0.0145837
741.331	0.0146220
741.410	0.0147671
741.488	0.0148617
741.566	0.0149828
741.644	0.0152056
741.722	0.0152676
741.800	0.0152064
741.878	0.0153679
741.956	0.0154887
742.035	0.0157063
742.113	0.0154816
742.191	0.0156302
742.269	0.0156439
742.347	0.0158367
742.425	0.0159347
742.503	0.0160006
742.581	0.0158955
742.660	0.0157295
742.738	0.0158424
742.816	0.0158255
742.894	0.0156937
742.972	0.0155001
743.050	0.0154347
743.128	0.0153203
743.206	0.0151941
743.285	0.0151086
743.363	0.0150208
743.441	0.0148647
743.519	0.0148483
743.597	0.0147221
743.675	0.0145039
743.753	0.0144843
743.831	0.0141936
743.910	0.0142827
743.988	0.0141047
744.066	0.0141290
744.144	0.0138023
744.222	0.0138729
744.300	0.0138571
744.378	0.0138026
744.456	0.0136734
744.535	0.0138471
744.613	0.0139445
744.691	0.0137852
744.769	0.0139301
744.847	0.0138991
744.925	0.0138106
745.003	0.0137897
745.081	0.0140397
745.160	0.0140623
745.238	0.0139614
745.316	0.0142584
745.394	0.0142834
745.472	0.0143197
