05/03/2022	20:16:01	Ver.	4.1	UNKNOWN
Optical Delay	660.003261	Delta X		0.078125	Sweeps	1	Scan Rate	0/0
Coordinates	Axis 1	NaN	Axis 2	NaN	Axis 3	NaN	Axis 4	NaN	Axis 5	NaN	Axis 6	0.000000
TX Power	0.000000	RX Power	0.000000

660.003	0.0145267
660.081	0.0144365
660.160	0.0144577
660.238	0.0144743
660.316	0.0145249
660.394	0.0144241
660.472	0.0144773
660.550	0.0144543
660.628	0.0144333
660.706	0.0143974
660.785	0.0143915
660.863	0.0144784
660.941	0.0145769
661.019	0.0144796
661.097	0.0145275
661.175	0.0144739
661.253	0.0143853
661.331	0.0144362
661.410	0.0146089
661.488	0.0144230
661.566	0.0143107
661.644	0.0144302
661.722	0.0144863
661.800	0.0143670
661.878	0.0143835
661.956	0.0144665
662.035	0.0144874
662.113	0.0143164
662.191	0.0143414
662.269	0.0143282
662.347	0.0144779
662.425	0.0145554
662.503	0.0143972
662.581	0.0145012
662.660	0.0144966
662.738	0.0145756
662.816	0.0144743
662.894	0.0144907
662.972	0.0145975
663.050	0.0144144
663.128	0.0144436
663.206	0.0144914
663.285	0.0146012
663.363	0.0145213
663.441	0.0144951
663.519	0.0143470
663.597	0.0144544
663.675	0.0146001
663.753	0.0145265
663.831	0.0144135
663.910	0.0144965
663.988	0.0144530
664.066	0.0143685
664.144	0.0144266
664.222	0.0144502
664.300	0.0144917
664.378	0.0144289
664.456	0.0144583
664.535	0.0145161
664.613	0.0145299
664.691	0.0144680
664.769	0.0144392
664.847	0.0144936
664.925	0.0145260
665.003	0.0144379
665.081	0.0145980
665.160	0.0144764
665.238	0.0145512
665.316	0.0144402
665.394	0.0143980
665.472	0.0145652
665.550	0.0145296
665.628	0.0144079
665.706	0.0144123
665.785	0.0144442
665.863	0.0144654
665.941	0.0143571
666.019	0.0145131
666.097	0.0145526
666.175	0.0144575
666.253	0.0144439
666.331	0.0145674
666.410	0.0144434
666.488	0.0145267
666.566	0.0145583
666.644	0.0145036
666.722	0.0145361
666.800	0.0144499
666.878	0.0145053
666.956	0.0144630
667.035	0.0144994
667.113	0.0144915
667.191	0.0145579
667.269	0.0144192
667.347	0.0145094
667.425	0.0143726
667.503	0.0143995
667.581	0.0145152
667.660	0.0144669
667.738	0.0144350
667.816	0.0145542
667.894	0.0145911
667.972	0.0144613
668.050	0.0144903
668.128	0.0145235
668.206	0.0144788
668.285	0.0144903
668.363	0.0144730
668.441	0.0145476
668.519	0.0146342
668.597	0.0145291
668.675	0.0146357
668.753	0.0146932
668.831	0.0145020
668.910	0.0146099
668.988	0.0143700
669.066	0.0145009
669.144	0.0145411
669.222	0.0145454
669.300	0.0144024
669.378	0.0144294
669.456	0.0145252
669.535	0.0144242
669.613	0.0143839
669.691	0.0144181
669.769	0.0145441
669.847	0.0144189
669.925	0.0144070
670.003	0.0142879
670.081	0.0144234
670.160	0.0144418
670.238	0.0144912
670.316	0.0145283
670.394	0.0145378
670.472	0.0145747
670.550	0.0144014
670.628	0.0144338
670.706	0.0144773
670.785	0.0144572
670.863	0.0144356
670.941	0.0143750
671.019	0.0145350
671.097	0.0145931
671.175	0.0145163
671.253	0.0144060
671.331	0.0146139
671.410	0.0145045
671.488	0.0145129
671.566	0.0145676
671.644	0.0145648
671.722	0.0145876
671.800	0.0143436
671.878	0.0144985
671.956	0.0144973
672.035	0.0145249
672.113	0.0145274
672.191	0.0146136
672.269	0.0145026
672.347	0.0145001
672.425	0.0145397
672.503	0.0143733
672.581	0.0144783
672.660	0.0144722
672.738	0.0145480
672.816	0.0145323
672.894	0.0145042
672.972	0.0145074
673.050	0.0145782
673.128	0.0144633
673.206	0.0145845
673.285	0.0145380
673.363	0.0145596
673.441	0.0146086
673.519	0.0144915
673.597	0.0143881
673.675	0.0145271
673.753	0.0143932
673.831	0.0145495
673.910	0.0145449
673.988	0.0144608
674.066	0.0144543
674.144	0.0144830
674.222	0.0145313
674.300	0.0144361
674.378	0.0145438
674.456	0.0144125
674.535	0.0145210
674.613	0.0146374
674.691	0.0145966
674.769	0.0145184
674.847	0.0145969
674.925	0.0145132
675.003	0.0144971
675.081	0.0144993
675.160	0.0145417
675.238	0.0145818
675.316	0.0145535
675.394	0.0144207
675.472	0.0144923
675.550	0.0145359
675.628	0.0144983
675.706	0.0145028
675.785	0.0145963
675.863	0.0145128
675.941	0.0145812
676.019	0.0144434
676.097	0.0144554
676.175	0.0144897
676.253	0.0145086
676.331	0.0144467
676.410	0.0145013
676.488	0.0143335
676.566	0.0144653
676.644	0.0145051
676.722	0.0144405
676.800	0.0144952
676.878	0.0145145
676.956	0.0144244
677.035	0.0146010
677.113	0.0145474
677.191	0.0144639
677.269	0.0144862
677.347	0.0145172
677.425	0.0145999
677.503	0.0143433
677.581	0.0145058
677.660	0.0144828
677.738	0.0145444
677.816	0.0144862
677.894	0.0144583
677.972	0.0145045
678.050	0.0145776
678.128	0.0145251
678.206	0.0145495
678.285	0.0144685
678.363	0.0144847
678.441	0.0144155
678.519	0.0145538
678.597	0.0144355
678.675	0.0145478
678.753	0.0146424
678.831	0.0145801
678.910	0.0146086
678.988	0.0145032
679.066	0.0144630
679.144	0.0145473
679.222	0.0144014
679.300	0.0143935
679.378	0.0146685
679.456	0.0144326
679.535	0.0145436
679.613	0.0144247
679.691	0.0145242
679.769	0.0144658
679.847	0.0144572
679.925	0.0145261
680.003	0.0145679
680.081	0.0145135
680.160	0.0144991
680.238	0.0145858
680.316	0.0144675
680.394	0.0143064
680.472	0.0144109
680.550	0.0144877
680.628	0.0143970
680.706	0.0144085
680.785	0.0144135
680.863	0.0144842
680.941	0.0144898
681.019	0.0144958
681.097	0.0144738
681.175	0.0144967
681.253	0.0145424
681.331	0.0145049
681.410	0.0144393
681.488	0.0144973
681.566	0.0144991
681.644	0.0144332
681.722	0.0145027
681.800	0.0145601
681.878	0.0146765
681.956	0.0143269
682.035	0.0143781
682.113	0.0144422
682.191	0.0144936
682.269	0.0146465
682.347	0.0144378
682.425	0.0144019
682.503	0.0143837
682.581	0.0144534
682.660	0.0145889
682.738	0.0146242
682.816	0.0145517
682.894	0.0145489
682.972	0.0144742
683.050	0.0145065
683.128	0.0145423
683.206	0.0145985
683.285	0.0144516
683.363	0.0145905
683.441	0.0145802
683.519	0.0145463
683.597	0.0145229
683.675	0.0144923
683.753	0.0145862
683.831	0.0143371
683.910	0.0144865
683.988	0.0145691
684.066	0.0143489
684.144	0.0145949
684.222	0.0143505
684.300	0.0145883
684.378	0.0144985
684.456	0.0144371
684.535	0.0143187
684.613	0.0145206
684.691	0.0144611
684.769	0.0143459
684.847	0.0145646
684.925	0.0144469
685.003	0.0144422
685.081	0.0144789
685.160	0.0143887
685.238	0.0145296
685.316	0.0144678
685.394	0.0144872
685.472	0.0143288
685.550	0.0144633
685.628	0.0145567
685.706	0.0145161
685.785	0.0144032
685.863	0.0144163
685.941	0.0144509
686.019	0.0143803
686.097	0.0144981
686.175	0.0145529
686.253	0.0145456
686.331	0.0144753
686.410	0.0144064
686.488	0.0144775
686.566	0.0145206
686.644	0.0145697
686.722	0.0146571
686.800	0.0144511
686.878	0.0144101
686.956	0.0145817
687.035	0.0145317
687.113	0.0145574
687.191	0.0144610
687.269	0.0146355
687.347	0.0144095
687.425	0.0145448
687.503	0.0145532
687.581	0.0145884
687.660	0.0145173
687.738	0.0144998
687.816	0.0144772
687.894	0.0143347
687.972	0.0145423
688.050	0.0145673
688.128	0.0146210
688.206	0.0145798
688.285	0.0146004
688.363	0.0143690
688.441	0.0144623
688.519	0.0143233
688.597	0.0145414
688.675	0.0145718
688.753	0.0145811
688.831	0.0144276
688.910	0.0145654
688.988	0.0145869
689.066	0.0145425
689.144	0.0144928
689.222	0.0144775
689.300	0.0145071
689.378	0.0144785
689.456	0.0145368
689.535	0.0145264
689.613	0.0145167
689.691	0.0145150
689.769	0.0146082
689.847	0.0145694
689.925	0.0144881
690.003	0.0143954
690.081	0.0146583
690.160	0.0144540
690.238	0.0144949
690.316	0.0145258
690.394	0.0146874
690.472	0.0145047
690.550	0.0145795
690.628	0.0144949
690.706	0.0145725
690.785	0.0145261
690.863	0.0144011
690.941	0.0144731
691.019	0.0146057
691.097	0.0145297
691.175	0.0145596
691.253	0.0145715
691.331	0.0144317
691.410	0.0146115
691.488	0.0145827
691.566	0.0144543
691.644	0.0144819
691.722	0.0144827
691.800	0.0146488
691.878	0.0144302
691.956	0.0146378
692.035	0.0145627
692.113	0.0145647
692.191	0.0145811
692.269	0.0144544
692.347	0.0144757
692.425	0.0144932
692.503	0.0145396
692.581	0.0145383
692.660	0.0144325
692.738	0.0144524
692.816	0.0144990
692.894	0.0143481
692.972	0.0143094
693.050	0.0144266
693.128	0.0145402
693.206	0.0145350
693.285	0.0144031
693.363	0.0144440
693.441	0.0144173
693.519	0.0144872
693.597	0.0144210
693.675	0.0145135
693.753	0.0144560
693.831	0.0143900
693.910	0.0145930
693.988	0.0145361
694.066	0.0144282
694.144	0.0145908
694.222	0.0144831
694.300	0.0144654
694.378	0.0145428
694.456	0.0145048
694.535	0.0144456
694.613	0.0145049
694.691	0.0145976
694.769	0.0145442
694.847	0.0145496
694.925	0.0145514
695.003	0.0144651
695.081	0.0145116
695.160	0.0145560
695.238	0.0146108
695.316	0.0145125
695.394	0.0145513
695.472	0.0144886
695.550	0.0144678
695.628	0.0145509
695.706	0.0143465
695.785	0.0144360
695.863	0.0144337
695.941	0.0144985
696.019	0.0144893
696.097	0.0145579
696.175	0.0145208
696.253	0.0144646
696.331	0.0143346
696.410	0.0143071
696.488	0.0144046
696.566	0.0144534
696.644	0.0145602
696.722	0.0144447
696.800	0.0144029
696.878	0.0143388
696.956	0.0144247
697.035	0.0144666
697.113	0.0145573
697.191	0.0145864
697.269	0.0145116
697.347	0.0144553
697.425	0.0144435
697.503	0.0145000
697.581	0.0144720
697.660	0.0144489
697.738	0.0145423
697.816	0.0146274
697.894	0.0144414
697.972	0.0145397
698.050	0.0145695
698.128	0.0144204
698.206	0.0145094
698.285	0.0146332
698.363	0.0145756
698.441	0.0145962
698.519	0.0144940
698.597	0.0144710
698.675	0.0144785
698.753	0.0145589
698.831	0.0144958
698.910	0.0143337
698.988	0.0145400
699.066	0.0146198
699.144	0.0144680
699.222	0.0146155
699.300	0.0144680
699.378	0.0145605
699.456	0.0144096
699.535	0.0145141
699.613	0.0145562
699.691	0.0146749
699.769	0.0145744
699.847	0.0145802
699.925	0.0147756
700.003	0.0145589
700.081	0.0144829
700.160	0.0144418
700.238	0.0145183
700.316	0.0146617
700.394	0.0145607
700.472	0.0146375
700.550	0.0145770
700.628	0.0145077
700.706	0.0146247
700.785	0.0145863
700.863	0.0145933
700.941	0.0146167
701.019	0.0145623
701.097	0.0143684
701.175	0.0143313
701.253	0.0143100
701.331	0.0141605
701.410	0.0141850
701.488	0.0140405
701.566	0.0141170
701.644	0.0142043
701.722	0.0142354
701.800	0.0143626
701.878	0.0144530
701.956	0.0146260
702.035	0.0147527
702.113	0.0150208
702.191	0.0150566
702.269	0.0150985
702.347	0.0148856
702.425	0.0146367
702.503	0.0143795
702.581	0.0139088
702.660	0.0133836
702.738	0.0130608
702.816	0.0127273
702.894	0.0124907
702.972	0.0123163
703.050	0.0124400
703.128	0.0127002
703.206	0.0130142
703.285	0.0135121
703.363	0.0142451
703.441	0.0149890
703.519	0.0155588
703.597	0.0163622
703.675	0.0172061
703.753	0.0180638
703.831	0.0187247
703.910	0.0193546
703.988	0.0197272
704.066	0.0198062
704.144	0.0196365
704.222	0.0190302
704.300	0.0182112
704.378	0.0171785
704.456	0.0156527
704.535	0.0137695
704.613	0.0118441
704.691	0.00971764
704.769	0.00764709
704.847	0.00613106
704.925	0.00488693
705.003	0.00450211
705.081	0.00465927
705.160	0.00556252
705.238	0.00699829
705.316	0.00870811
705.394	0.0106951
705.472	0.0125664
705.550	0.0145262
705.628	0.0159952
705.706	0.0173035
705.785	0.0184233
705.863	0.0193764
705.941	0.0204082
706.019	0.0211703
706.097	0.0220210
706.175	0.0230142
706.253	0.0236152
706.331	0.0239656
706.410	0.0241426
706.488	0.0241043
706.566	0.0234790
706.644	0.0224995
706.722	0.0211824
706.800	0.0196603
706.878	0.0176462
706.956	0.0153492
707.035	0.0132520
707.113	0.0109055
707.191	0.00858971
707.269	0.00640167
707.347	0.00459259
707.425	0.00320244
707.503	0.00205109
707.581	0.00157120
707.660	0.00168152
707.738	0.00225700
707.816	0.00310966
707.894	0.00440521
707.972	0.00565254
708.050	0.00731392
708.128	0.00912735
708.206	0.0111150
708.285	0.0130895
708.363	0.0149024
708.441	0.0168797
708.519	0.0187147
708.597	0.0203783
708.675	0.0218938
708.753	0.0232934
708.831	0.0245835
708.910	0.0256158
708.988	0.0262598
709.066	0.0265289
709.144	0.0268384
709.222	0.0265645
709.300	0.0260110
709.378	0.0250892
709.456	0.0237389
709.535	0.0222851
709.613	0.0206834
709.691	0.0189222
709.769	0.0169431
709.847	0.0148768
709.925	0.0127227
710.003	0.0106726
710.081	0.00883980
710.160	0.00687698
710.238	0.00525780
710.316	0.00426018
710.394	0.00368896
710.472	0.00315903
710.550	0.00300079
710.628	0.00331154
710.706	0.00394714
710.785	0.00474915
710.863	0.00590179
710.941	0.00689095
711.019	0.00811348
711.097	0.00945381
711.175	0.0105551
711.253	0.0114985
711.331	0.0126700
711.410	0.0136314
711.488	0.0146482
711.566	0.0159563
711.644	0.0171262
711.722	0.0184217
711.800	0.0195850
711.878	0.0209547
711.956	0.0222385
712.035	0.0232973
712.113	0.0240895
712.191	0.0247272
712.269	0.0250723
712.347	0.0250956
712.425	0.0248048
712.503	0.0242654
712.581	0.0234180
712.660	0.0221800
712.738	0.0207565
712.816	0.0191689
712.894	0.0173000
712.972	0.0155592
713.050	0.0137183
713.128	0.0119246
713.206	0.0104311
713.285	0.00898834
713.363	0.00778748
713.441	0.00700890
713.519	0.00661346
713.597	0.00622566
713.675	0.00637688
713.753	0.00678719
713.831	0.00721352
713.910	0.00789726
713.988	0.00867279
714.066	0.00948280
714.144	0.0100919
714.222	0.0105690
714.300	0.0110613
714.378	0.0114212
714.456	0.0117075
714.535	0.0120531
714.613	0.0125436
714.691	0.0130014
714.769	0.0133820
714.847	0.0140586
714.925	0.0149176
715.003	0.0158792
715.081	0.0167640
715.160	0.0178488
715.238	0.0186910
715.316	0.0195136
715.394	0.0203841
715.472	0.0209181
715.550	0.0211073
715.628	0.0210448
715.706	0.0207976
715.785	0.0205911
715.863	0.0201205
715.941	0.0194802
716.019	0.0188013
716.097	0.0181017
716.175	0.0172392
716.253	0.0164410
716.331	0.0158304
716.410	0.0152344
716.488	0.0145368
716.566	0.0140528
716.644	0.0136913
716.722	0.0132848
716.800	0.0129425
716.878	0.0125732
716.956	0.0123774
717.035	0.0117815
717.113	0.0113995
717.191	0.0110238
717.269	0.0107075
717.347	0.0104066
717.425	0.0100106
717.503	0.00999786
717.581	0.00995155
717.660	0.00987122
717.738	0.00987427
717.816	0.0101407
717.894	0.0102068
717.972	0.0105442
718.050	0.0110557
718.128	0.0111952
718.206	0.0115846
718.285	0.0120987
718.363	0.0128824
718.441	0.0133755
718.519	0.0140394
718.597	0.0147309
718.675	0.0156341
718.753	0.0163409
718.831	0.0171326
718.910	0.0177749
718.988	0.0181987
719.066	0.0189313
719.144	0.0193066
719.222	0.0193449
719.300	0.0193954
719.378	0.0195038
719.456	0.0192476
719.535	0.0192451
719.613	0.0189159
719.691	0.0186390
719.769	0.0184849
719.847	0.0180964
719.925	0.0178209
720.003	0.0175561
720.081	0.0171257
720.160	0.0168272
720.238	0.0163306
720.316	0.0155276
720.394	0.0151283
720.472	0.0145372
720.550	0.0137276
720.628	0.0132070
720.706	0.0125761
720.785	0.0119022
720.863	0.0115043
720.941	0.0111670
721.019	0.0108326
721.097	0.0107503
721.175	0.0105756
721.253	0.0107434
721.331	0.0107459
721.410	0.0105669
721.488	0.0108656
721.566	0.0107764
721.644	0.0107095
721.722	0.0108522
721.800	0.0109401
721.878	0.0111446
721.956	0.0112155
722.035	0.0115241
722.113	0.0121159
722.191	0.0124492
722.269	0.0128834
722.347	0.0134061
722.425	0.0137788
722.503	0.0142487
722.581	0.0148610
722.660	0.0154723
722.738	0.0160725
722.816	0.0167767
722.894	0.0172193
722.972	0.0179852
723.050	0.0184523
723.128	0.0186623
723.206	0.0190629
723.285	0.0189369
723.363	0.0188779
723.441	0.0187142
723.519	0.0184920
723.597	0.0180147
723.675	0.0176169
723.753	0.0172973
723.831	0.0168774
723.910	0.0164390
723.988	0.0160338
724.066	0.0156763
724.144	0.0154096
724.222	0.0150728
724.300	0.0148482
724.378	0.0148166
724.456	0.0146172
724.535	0.0143139
724.613	0.0142823
724.691	0.0142079
724.769	0.0140472
724.847	0.0139890
724.925	0.0138153
725.003	0.0136903
725.081	0.0132712
725.160	0.0129927
725.238	0.0127390
725.316	0.0123629
725.394	0.0121274
725.472	0.0119476
725.550	0.0117249
725.628	0.0115589
725.706	0.0115879
725.785	0.0115479
725.863	0.0114284
725.941	0.0115141
726.019	0.0116363
726.097	0.0117585
726.175	0.0119756
726.253	0.0121573
726.331	0.0123820
726.410	0.0127612
726.488	0.0130161
726.566	0.0133820
726.644	0.0136548
726.722	0.0140725
726.800	0.0144267
726.878	0.0147516
726.956	0.0151863
727.035	0.0155578
727.113	0.0160158
727.191	0.0164249
727.269	0.0164954
727.347	0.0170052
727.425	0.0171262
727.503	0.0172819
727.581	0.0174428
727.660	0.0174687
727.738	0.0174168
727.816	0.0172519
727.894	0.0171871
727.972	0.0169472
728.050	0.0168109
728.128	0.0167616
728.206	0.0165880
728.285	0.0164515
728.363	0.0164480
728.441	0.0162891
728.519	0.0159039
728.597	0.0157484
728.675	0.0156528
728.753	0.0154319
728.831	0.0152422
728.910	0.0149361
728.988	0.0147327
729.066	0.0144367
729.144	0.0141214
729.222	0.0137712
729.300	0.0135606
729.378	0.0132464
729.456	0.0129641
729.535	0.0128143
729.613	0.0125463
729.691	0.0122507
729.769	0.0122354
729.847	0.0120681
729.925	0.0120929
730.003	0.0120921
730.081	0.0122652
730.160	0.0122881
730.238	0.0125218
730.316	0.0125421
730.394	0.0125765
730.472	0.0125314
730.550	0.0125458
730.628	0.0126241
730.706	0.0126041
730.785	0.0124442
730.863	0.0126169
730.941	0.0127371
731.019	0.0130496
731.097	0.0131786
731.175	0.0134073
731.253	0.0138755
731.331	0.0141530
731.410	0.0146457
731.488	0.0152171
731.566	0.0158817
731.644	0.0161714
731.722	0.0166074
731.800	0.0171979
731.878	0.0174155
731.956	0.0176069
732.035	0.0176770
732.113	0.0175534
732.191	0.0175731
732.269	0.0171892
732.347	0.0169494
732.425	0.0166174
732.503	0.0163545
732.581	0.0159249
732.660	0.0155048
732.738	0.0154164
732.816	0.0150299
732.894	0.0149152
732.972	0.0148689
733.050	0.0148117
733.128	0.0148323
733.206	0.0150011
733.285	0.0151240
733.363	0.0152204
733.441	0.0151537
733.519	0.0153025
733.597	0.0154277
733.675	0.0153153
733.753	0.0151229
733.831	0.0148701
733.910	0.0146080
733.988	0.0142036
734.066	0.0139113
734.144	0.0135713
734.222	0.0130695
734.300	0.0124950
734.378	0.0120433
734.456	0.0118102
734.535	0.0116505
734.613	0.0113652
734.691	0.0113485
734.769	0.0114281
734.847	0.0115912
734.925	0.0118369
735.003	0.0121556
735.081	0.0124398
735.160	0.0127447
735.238	0.0130644
735.316	0.0132674
735.394	0.0134759
735.472	0.0138143
735.550	0.0140540
735.628	0.0142089
735.706	0.0144416
735.785	0.0146664
735.863	0.0148354
735.941	0.0148720
736.019	0.0148221
736.097	0.0150328
736.175	0.0150401
736.253	0.0151567
736.331	0.0154333
736.410	0.0155471
736.488	0.0157133
736.566	0.0159502
736.644	0.0160497
736.722	0.0161405
736.800	0.0161520
736.878	0.0162143
736.956	0.0162817
737.035	0.0161718
737.113	0.0160948
737.191	0.0160123
737.269	0.0160469
737.347	0.0158678
737.425	0.0157859
737.503	0.0158359
737.581	0.0158850
737.660	0.0156790
737.738	0.0157433
737.816	0.0157364
737.894	0.0156351
737.972	0.0153728
738.050	0.0153088
738.128	0.0152807
738.206	0.0148368
738.285	0.0148332
738.363	0.0145935
738.441	0.0143311
738.519	0.0140622
738.597	0.0139018
738.675	0.0137617
738.753	0.0135929
738.831	0.0134804
738.910	0.0133772
738.988	0.0131541
739.066	0.0132524
739.144	0.0131912
739.222	0.0132967
739.300	0.0134246
739.378	0.0135873
739.456	0.0136069
739.535	0.0136597
739.613	0.0137209
739.691	0.0138238
739.769	0.0137213
739.847	0.0137525
739.925	0.0138290
740.003	0.0135356
740.081	0.0134290
740.160	0.0133429
740.238	0.0131366
740.316	0.0134963
740.394	0.0133112
740.472	0.0132438
740.550	0.0134943
740.628	0.0134175
740.706	0.0138017
740.785	0.0138898
740.863	0.0139312
740.941	0.0141789
741.019	0.0141963
741.097	0.0143280
741.175	0.0144555
741.253	0.0148706
741.331	0.0147243
741.410	0.0149384
741.488	0.0151138
741.566	0.0152048
741.644	0.0152014
741.722	0.0154118
741.800	0.0154443
741.878	0.0154485
741.956	0.0157641
742.035	0.0159933
742.113	0.0159345
742.191	0.0159262
742.269	0.0159930
742.347	0.0161190
742.425	0.0161249
742.503	0.0159921
742.581	0.0160878
742.660	0.0159963
742.738	0.0158194
742.816	0.0157590
742.894	0.0156258
742.972	0.0154781
743.050	0.0154505
743.128	0.0153072
743.206	0.0150904
743.285	0.0149576
743.363	0.0147897
743.441	0.0146391
743.519	0.0143658
743.597	0.0142535
743.675	0.0140136
743.753	0.0138538
743.831	0.0138046
743.910	0.0137020
743.988	0.0135373
744.066	0.0134750
744.144	0.0134550
744.222	0.0133548
744.300	0.0133048
744.378	0.0133047
744.456	0.0133328
744.535	0.0132336
744.613	0.0131417
744.691	0.0133732
744.769	0.0133069
744.847	0.0132103
744.925	0.0130634
745.003	0.0133361
745.081	0.0132642
745.160	0.0134343
745.238	0.0134539
745.316	0.0135397
745.394	0.0137267
745.472	0.0138757
