05/03/2022	20:17:16	Ver.	4.1	UNKNOWN
Optical Delay	660.003261	Delta X		0.078125	Sweeps	1	Scan Rate	0/0
Coordinates	Axis 1	NaN	Axis 2	NaN	Axis 3	NaN	Axis 4	NaN	Axis 5	NaN	Axis 6	0.000000
TX Power	0.000000	RX Power	0.000000

660.003	0.0147054
660.081	0.0146087
660.160	0.0146627
660.238	0.0146545
660.316	0.0146638
660.394	0.0146516
660.472	0.0146678
660.550	0.0146413
660.628	0.0147863
660.706	0.0146915
660.785	0.0147388
660.863	0.0147494
660.941	0.0146840
661.019	0.0146223
661.097	0.0146174
661.175	0.0146525
661.253	0.0146452
661.331	0.0145183
661.410	0.0144746
661.488	0.0148363
661.566	0.0147163
661.644	0.0146945
661.722	0.0145949
661.800	0.0146793
661.878	0.0147511
661.956	0.0146945
662.035	0.0147204
662.113	0.0147125
662.191	0.0147243
662.269	0.0147844
662.347	0.0147087
662.425	0.0147141
662.503	0.0147269
662.581	0.0146647
662.660	0.0147015
662.738	0.0148249
662.816	0.0147869
662.894	0.0147379
662.972	0.0145889
663.050	0.0146937
663.128	0.0148118
663.206	0.0148186
663.285	0.0148162
663.363	0.0148060
663.441	0.0146954
663.519	0.0147422
663.597	0.0145987
663.675	0.0147307
663.753	0.0147413
663.831	0.0148407
663.910	0.0148363
663.988	0.0146739
664.066	0.0146000
664.144	0.0147012
664.222	0.0146909
664.300	0.0147678
664.378	0.0147132
664.456	0.0147734
664.535	0.0146190
664.613	0.0145537
664.691	0.0146792
664.769	0.0145013
664.847	0.0147214
664.925	0.0147002
665.003	0.0146607
665.081	0.0147464
665.160	0.0147559
665.238	0.0146595
665.316	0.0146805
665.394	0.0146076
665.472	0.0146183
665.550	0.0145535
665.628	0.0146472
665.706	0.0146695
665.785	0.0147308
665.863	0.0148051
665.941	0.0147848
666.019	0.0147516
666.097	0.0146622
666.175	0.0146743
666.253	0.0145514
666.331	0.0146730
666.410	0.0145914
666.488	0.0146440
666.566	0.0147150
666.644	0.0146204
666.722	0.0145358
666.800	0.0145627
666.878	0.0147863
666.956	0.0147295
667.035	0.0145908
667.113	0.0146296
667.191	0.0146592
667.269	0.0147002
667.347	0.0147308
667.425	0.0145802
667.503	0.0147062
667.581	0.0147025
667.660	0.0146819
667.738	0.0146484
667.816	0.0146472
667.894	0.0146069
667.972	0.0148016
668.050	0.0147422
668.128	0.0148409
668.206	0.0146649
668.285	0.0146511
668.363	0.0147607
668.441	0.0146867
668.519	0.0146030
668.597	0.0146949
668.675	0.0146671
668.753	0.0146368
668.831	0.0147211
668.910	0.0147423
668.988	0.0146226
669.066	0.0147333
669.144	0.0146470
669.222	0.0147241
669.300	0.0147758
669.378	0.0147551
669.456	0.0147164
669.535	0.0147059
669.613	0.0146438
669.691	0.0146137
669.769	0.0146118
669.847	0.0147411
669.925	0.0147147
670.003	0.0147543
670.081	0.0147638
670.160	0.0146652
670.238	0.0147110
670.316	0.0147846
670.394	0.0147400
670.472	0.0147559
670.550	0.0147849
670.628	0.0146812
670.706	0.0145954
670.785	0.0146997
670.863	0.0146429
670.941	0.0146656
671.019	0.0147705
671.097	0.0145886
671.175	0.0145337
671.253	0.0146851
671.331	0.0147224
671.410	0.0146750
671.488	0.0147138
671.566	0.0146938
671.644	0.0145864
671.722	0.0146178
671.800	0.0146965
671.878	0.0148003
671.956	0.0148017
672.035	0.0146049
672.113	0.0146127
672.191	0.0146609
672.269	0.0146223
672.347	0.0147355
672.425	0.0148730
672.503	0.0146857
672.581	0.0147662
672.660	0.0147980
672.738	0.0147176
672.816	0.0147491
672.894	0.0146431
672.972	0.0147837
673.050	0.0147540
673.128	0.0148717
673.206	0.0147502
673.285	0.0147076
673.363	0.0146218
673.441	0.0147204
673.519	0.0147060
673.597	0.0147971
673.675	0.0147214
673.753	0.0146307
673.831	0.0146030
673.910	0.0147916
673.988	0.0146878
674.066	0.0146742
674.144	0.0147607
674.222	0.0147443
674.300	0.0146352
674.378	0.0147206
674.456	0.0146942
674.535	0.0147103
674.613	0.0146093
674.691	0.0145520
674.769	0.0145839
674.847	0.0148087
674.925	0.0146767
675.003	0.0148093
675.081	0.0148082
675.160	0.0148428
675.238	0.0147097
675.316	0.0147073
675.394	0.0148428
675.472	0.0147945
675.550	0.0146849
675.628	0.0148126
675.706	0.0145979
675.785	0.0146459
675.863	0.0147308
675.941	0.0147597
676.019	0.0146105
676.097	0.0146374
676.175	0.0147662
676.253	0.0146915
676.331	0.0147569
676.410	0.0147228
676.488	0.0147752
676.566	0.0147224
676.644	0.0147894
676.722	0.0147157
676.800	0.0145994
676.878	0.0146833
676.956	0.0146752
677.035	0.0146648
677.113	0.0146297
677.191	0.0146004
677.269	0.0148280
677.347	0.0148466
677.425	0.0146339
677.503	0.0146840
677.581	0.0147634
677.660	0.0146893
677.738	0.0147665
677.816	0.0146611
677.894	0.0146495
677.972	0.0146243
678.050	0.0146674
678.128	0.0146806
678.206	0.0146998
678.285	0.0146442
678.363	0.0146223
678.441	0.0146558
678.519	0.0147762
678.597	0.0147281
678.675	0.0146374
678.753	0.0147003
678.831	0.0147865
678.910	0.0147607
678.988	0.0147466
679.066	0.0147269
679.144	0.0147546
679.222	0.0146811
679.300	0.0146992
679.378	0.0146545
679.456	0.0147634
679.535	0.0148569
679.613	0.0147587
679.691	0.0147063
679.769	0.0146443
679.847	0.0147012
679.925	0.0147569
680.003	0.0146528
680.081	0.0146410
680.160	0.0146121
680.238	0.0144702
680.316	0.0145753
680.394	0.0146546
680.472	0.0145736
680.550	0.0146338
680.628	0.0147021
680.706	0.0147107
680.785	0.0145918
680.863	0.0144949
680.941	0.0147605
681.019	0.0147491
681.097	0.0147205
681.175	0.0146279
681.253	0.0147414
681.331	0.0147047
681.410	0.0147496
681.488	0.0146740
681.566	0.0147733
681.644	0.0147558
681.722	0.0146416
681.800	0.0147341
681.878	0.0145761
681.956	0.0146346
682.035	0.0147750
682.113	0.0146344
682.191	0.0147442
682.269	0.0147055
682.347	0.0147642
682.425	0.0146037
682.503	0.0144600
682.581	0.0146191
682.660	0.0145993
682.738	0.0147483
682.816	0.0147482
682.894	0.0148080
682.972	0.0146072
683.050	0.0146821
683.128	0.0146463
683.206	0.0147347
683.285	0.0147227
683.363	0.0147776
683.441	0.0147089
683.519	0.0145673
683.597	0.0144980
683.675	0.0147434
683.753	0.0146212
683.831	0.0147466
683.910	0.0146667
683.988	0.0146866
684.066	0.0147459
684.144	0.0147810
684.222	0.0146250
684.300	0.0146671
684.378	0.0147160
684.456	0.0145348
684.535	0.0146616
684.613	0.0147330
684.691	0.0146465
684.769	0.0146330
684.847	0.0147858
684.925	0.0148084
685.003	0.0147057
685.081	0.0146030
685.160	0.0147213
685.238	0.0147173
685.316	0.0146070
685.394	0.0147724
685.472	0.0147170
685.550	0.0144801
685.628	0.0147353
685.706	0.0147034
685.785	0.0147509
685.863	0.0146767
685.941	0.0145837
686.019	0.0146664
686.097	0.0147724
686.175	0.0146493
686.253	0.0147236
686.331	0.0147208
686.410	0.0145777
686.488	0.0146608
686.566	0.0145789
686.644	0.0146517
686.722	0.0146272
686.800	0.0148351
686.878	0.0147647
686.956	0.0145872
687.035	0.0147225
687.113	0.0148427
687.191	0.0146758
687.269	0.0147350
687.347	0.0145426
687.425	0.0147795
687.503	0.0146513
687.581	0.0146926
687.660	0.0146688
687.738	0.0148286
687.816	0.0145788
687.894	0.0147530
687.972	0.0147066
688.050	0.0148154
688.128	0.0146661
688.206	0.0146513
688.285	0.0146910
688.363	0.0147232
688.441	0.0147750
688.519	0.0148021
688.597	0.0146624
688.675	0.0146146
688.753	0.0146567
688.831	0.0148009
688.910	0.0147681
688.988	0.0145418
689.066	0.0146557
689.144	0.0145703
689.222	0.0148011
689.300	0.0147849
689.378	0.0147269
689.456	0.0146751
689.535	0.0147200
689.613	0.0148511
689.691	0.0147401
689.769	0.0147866
689.847	0.0147538
689.925	0.0147086
690.003	0.0147055
690.081	0.0147625
690.160	0.0146936
690.238	0.0146575
690.316	0.0147037
690.394	0.0147401
690.472	0.0148092
690.550	0.0147211
690.628	0.0146949
690.706	0.0147346
690.785	0.0144836
690.863	0.0146694
690.941	0.0147974
691.019	0.0148286
691.097	0.0146155
691.175	0.0147163
691.253	0.0147351
691.331	0.0146629
691.410	0.0145892
691.488	0.0146632
691.566	0.0148119
691.644	0.0146955
691.722	0.0146292
691.800	0.0145980
691.878	0.0146914
691.956	0.0145594
692.035	0.0144853
692.113	0.0146114
692.191	0.0146825
692.269	0.0146945
692.347	0.0147256
692.425	0.0145785
692.503	0.0145303
692.581	0.0146374
692.660	0.0146074
692.738	0.0146117
692.816	0.0145650
692.894	0.0146513
692.972	0.0147552
693.050	0.0146651
693.128	0.0146687
693.206	0.0146049
693.285	0.0146558
693.363	0.0145772
693.441	0.0147430
693.519	0.0147041
693.597	0.0147472
693.675	0.0146146
693.753	0.0147689
693.831	0.0146462
693.910	0.0146220
693.988	0.0145325
694.066	0.0147179
694.144	0.0146349
694.222	0.0145926
694.300	0.0146029
694.378	0.0146723
694.456	0.0146415
694.535	0.0147092
694.613	0.0146198
694.691	0.0146965
694.769	0.0147469
694.847	0.0146437
694.925	0.0144678
695.003	0.0145480
695.081	0.0147031
695.160	0.0146410
695.238	0.0146670
695.316	0.0145937
695.394	0.0145570
695.472	0.0146076
695.550	0.0146204
695.628	0.0146601
695.706	0.0144843
695.785	0.0146439
695.863	0.0146392
695.941	0.0146234
696.019	0.0144756
696.097	0.0146674
696.175	0.0146717
696.253	0.0146770
696.331	0.0146613
696.410	0.0147906
696.488	0.0147609
696.566	0.0146114
696.644	0.0147486
696.722	0.0148398
696.800	0.0145914
696.878	0.0147626
696.956	0.0147937
697.035	0.0147766
697.113	0.0147182
697.191	0.0146652
697.269	0.0146664
697.347	0.0147387
697.425	0.0146326
697.503	0.0146352
697.581	0.0145664
697.660	0.0146100
697.738	0.0145486
697.816	0.0146617
697.894	0.0147689
697.972	0.0147761
698.050	0.0147209
698.128	0.0147295
698.206	0.0147913
698.285	0.0146761
698.363	0.0146973
698.441	0.0148511
698.519	0.0146986
698.597	0.0146289
698.675	0.0147931
698.753	0.0147198
698.831	0.0147031
698.910	0.0147276
698.988	0.0147592
699.066	0.0147975
699.144	0.0146847
699.222	0.0147665
699.300	0.0148308
699.378	0.0148240
699.456	0.0147243
699.535	0.0145992
699.613	0.0147483
699.691	0.0148742
699.769	0.0145774
699.847	0.0147394
699.925	0.0147173
700.003	0.0145041
700.081	0.0143678
700.160	0.0145592
700.238	0.0146104
700.316	0.0145709
700.394	0.0145233
700.472	0.0146275
700.550	0.0148459
700.628	0.0148719
700.706	0.0148674
700.785	0.0149541
700.863	0.0150188
700.941	0.0150616
701.019	0.0149884
701.097	0.0149337
701.175	0.0148440
701.253	0.0146481
701.331	0.0144495
701.410	0.0139973
701.488	0.0138943
701.566	0.0136977
701.644	0.0136445
701.722	0.0136377
701.800	0.0135523
701.878	0.0137101
701.956	0.0138043
702.035	0.0141477
702.113	0.0145104
702.191	0.0147213
702.269	0.0152153
702.347	0.0157030
702.425	0.0161951
702.503	0.0166205
702.581	0.0171223
702.660	0.0174332
702.738	0.0177346
702.816	0.0177529
702.894	0.0177348
702.972	0.0175903
703.050	0.0170937
703.128	0.0166438
703.206	0.0159573
703.285	0.0152341
703.363	0.0140668
703.441	0.0131240
703.519	0.0119558
703.597	0.0109497
703.675	0.00996040
703.753	0.00925674
703.831	0.00875771
703.910	0.00851608
703.988	0.00869812
704.066	0.00946762
704.144	0.0104151
704.222	0.0116626
704.300	0.0128807
704.378	0.0141485
704.456	0.0152537
704.535	0.0163029
704.613	0.0170364
704.691	0.0177847
704.769	0.0183752
704.847	0.0188293
704.925	0.0193434
705.003	0.0197314
705.081	0.0201185
705.160	0.0206625
705.238	0.0208028
705.316	0.0209811
705.394	0.0210863
705.472	0.0207174
705.550	0.0201283
705.628	0.0192213
705.706	0.0184466
705.785	0.0171195
705.863	0.0158292
705.941	0.0141673
706.019	0.0127238
706.097	0.0114806
706.175	0.0101869
706.253	0.00895546
706.331	0.00799500
706.410	0.00736320
706.488	0.00660690
706.566	0.00638496
706.644	0.00653946
706.722	0.00683502
706.800	0.00740112
706.878	0.00826912
706.956	0.00894485
707.035	0.00976204
707.113	0.0107810
707.191	0.0118503
707.269	0.0128405
707.347	0.0137404
707.425	0.0148073
707.503	0.0159153
707.581	0.0168696
707.660	0.0177733
707.738	0.0187985
707.816	0.0197570
707.894	0.0207314
707.972	0.0214859
708.050	0.0221352
708.128	0.0230682
708.206	0.0237177
708.285	0.0243563
708.363	0.0244642
708.441	0.0244547
708.519	0.0242187
708.597	0.0234758
708.675	0.0225368
708.753	0.0212633
708.831	0.0196278
708.910	0.0179381
708.988	0.0162199
709.066	0.0140509
709.144	0.0121005
709.222	0.0103336
709.300	0.00850769
709.378	0.00700783
709.456	0.00561005
709.535	0.00483963
709.613	0.00424080
709.691	0.00410141
709.769	0.00415779
709.847	0.00466347
709.925	0.00542313
710.003	0.00637695
710.081	0.00741211
710.160	0.00849258
710.238	0.00967712
710.316	0.0105536
710.394	0.0114976
710.472	0.0123420
710.550	0.0132224
710.628	0.0139192
710.706	0.0143239
710.785	0.0152981
710.863	0.0159388
710.941	0.0168188
711.019	0.0178812
711.097	0.0188663
711.175	0.0199902
711.253	0.0214036
711.331	0.0225037
711.410	0.0236468
711.488	0.0242683
711.566	0.0250822
711.644	0.0251949
711.722	0.0251598
711.800	0.0247982
711.878	0.0240248
711.956	0.0229274
712.035	0.0216757
712.113	0.0201519
712.191	0.0185921
712.269	0.0170370
712.347	0.0153561
712.425	0.0138818
712.503	0.0122404
712.581	0.0110706
712.660	0.00987885
712.738	0.00898552
712.816	0.00846031
712.894	0.00800636
712.972	0.00761101
713.050	0.00768127
713.128	0.00746239
713.206	0.00765045
713.285	0.00779129
713.363	0.00816116
713.441	0.00846657
713.519	0.00885773
713.597	0.00928055
713.675	0.00970467
713.753	0.0102557
713.831	0.0106464
713.910	0.0109340
713.988	0.0114904
714.066	0.0119125
714.144	0.0122846
714.222	0.0129137
714.300	0.0135015
714.378	0.0140592
714.456	0.0149493
714.535	0.0159498
714.613	0.0169991
714.691	0.0181914
714.769	0.0194111
714.847	0.0204328
714.925	0.0214995
715.003	0.0222540
715.081	0.0226812
715.160	0.0228120
715.238	0.0224403
715.316	0.0219906
715.394	0.0211787
715.472	0.0204569
715.550	0.0195493
715.628	0.0189788
715.706	0.0183252
715.785	0.0177583
715.863	0.0172105
715.941	0.0166282
716.019	0.0162697
716.097	0.0158957
716.175	0.0151722
716.253	0.0146396
716.331	0.0138012
716.410	0.0129705
716.488	0.0123026
716.566	0.0114704
716.644	0.0105119
716.722	0.00992203
716.800	0.00947556
716.878	0.00901894
716.956	0.00858795
717.035	0.00842079
717.113	0.00848763
717.191	0.00863579
717.269	0.00892517
717.347	0.00935410
717.425	0.00986877
717.503	0.0103506
717.581	0.0107919
717.660	0.0115616
717.738	0.0121365
717.816	0.0125263
717.894	0.0133127
717.972	0.0137326
718.050	0.0140810
718.128	0.0145657
718.206	0.0150950
718.285	0.0156528
718.363	0.0161926
718.441	0.0169070
718.519	0.0174172
718.597	0.0180444
718.675	0.0188074
718.753	0.0191399
718.831	0.0195766
718.910	0.0197807
718.988	0.0198827
719.066	0.0200220
719.144	0.0198833
719.222	0.0197753
719.300	0.0196398
719.378	0.0193502
719.456	0.0188231
719.535	0.0183091
719.613	0.0177995
719.691	0.0173933
719.769	0.0168357
719.847	0.0160983
719.925	0.0157286
720.003	0.0152956
720.081	0.0145483
720.160	0.0142012
720.238	0.0137976
720.316	0.0132150
720.394	0.0126700
720.472	0.0124220
720.550	0.0118922
720.628	0.0117117
720.706	0.0115109
720.785	0.0112956
720.863	0.0112282
720.941	0.0112427
721.019	0.0112173
721.097	0.0111076
721.175	0.0109948
721.253	0.0110672
721.331	0.0110066
721.410	0.0111555
721.488	0.0112624
721.566	0.0112257
721.644	0.0114011
721.722	0.0116907
721.800	0.0120800
721.878	0.0124084
721.956	0.0128177
722.035	0.0132848
722.113	0.0137543
722.191	0.0141596
722.269	0.0146102
722.347	0.0151764
722.425	0.0155121
722.503	0.0160292
722.581	0.0164131
722.660	0.0170119
722.738	0.0174726
722.816	0.0178195
722.894	0.0182688
722.972	0.0185040
723.050	0.0186137
723.128	0.0185839
723.206	0.0184955
723.285	0.0183396
723.363	0.0182270
723.441	0.0178429
723.519	0.0175864
723.597	0.0174307
723.675	0.0170065
723.753	0.0167509
723.831	0.0166663
723.910	0.0164118
723.988	0.0162244
724.066	0.0160223
724.144	0.0156610
724.222	0.0155880
724.300	0.0153410
724.378	0.0149886
724.456	0.0147701
724.535	0.0144176
724.613	0.0142838
724.691	0.0138042
724.769	0.0136597
724.847	0.0133228
724.925	0.0130238
725.003	0.0127957
725.081	0.0123601
725.160	0.0121519
725.238	0.0121382
725.316	0.0120790
725.394	0.0120329
725.472	0.0124021
725.550	0.0121622
725.628	0.0121351
725.706	0.0122028
725.785	0.0123389
725.863	0.0122036
725.941	0.0122097
726.019	0.0121584
726.097	0.0122086
726.175	0.0121857
726.253	0.0124071
726.331	0.0125835
726.410	0.0127309
726.488	0.0130894
726.566	0.0133282
726.644	0.0135729
726.722	0.0139558
726.800	0.0142764
726.878	0.0147165
726.956	0.0152103
727.035	0.0156107
727.113	0.0163397
727.191	0.0166875
727.269	0.0171865
727.347	0.0174273
727.425	0.0177248
727.503	0.0178780
727.581	0.0182140
727.660	0.0181425
727.738	0.0181577
727.816	0.0181416
727.894	0.0179823
727.972	0.0178459
728.050	0.0176035
728.128	0.0173386
728.206	0.0170773
728.285	0.0166346
728.363	0.0163413
728.441	0.0160313
728.519	0.0158047
728.597	0.0156738
728.675	0.0153714
728.753	0.0150887
728.831	0.0150951
728.910	0.0148459
728.988	0.0149763
729.066	0.0148814
729.144	0.0147939
729.222	0.0145418
729.300	0.0143935
729.378	0.0143729
729.456	0.0140433
729.535	0.0139693
729.613	0.0137803
729.691	0.0134296
729.769	0.0131516
729.847	0.0128075
729.925	0.0126852
730.003	0.0123042
730.081	0.0121031
730.160	0.0119418
730.238	0.0115621
730.316	0.0114742
730.394	0.0114465
730.472	0.0113220
730.550	0.0114539
730.628	0.0116373
730.706	0.0116167
730.785	0.0119787
730.863	0.0124059
730.941	0.0127531
731.019	0.0129723
731.097	0.0133791
731.175	0.0138235
731.253	0.0142255
731.331	0.0146544
731.410	0.0149064
731.488	0.0152702
731.566	0.0155280
731.644	0.0159197
731.722	0.0159697
731.800	0.0162444
731.878	0.0164790
731.956	0.0167868
732.035	0.0168158
732.113	0.0169414
732.191	0.0169429
732.269	0.0168604
732.347	0.0168887
732.425	0.0170000
732.503	0.0169122
732.581	0.0167455
732.660	0.0168549
732.738	0.0167474
732.816	0.0169216
732.894	0.0169142
732.972	0.0168186
733.050	0.0168078
733.128	0.0169248
733.206	0.0167467
733.285	0.0166430
733.363	0.0165194
733.441	0.0161306
733.519	0.0158540
733.597	0.0156326
733.675	0.0154933
733.753	0.0150273
733.831	0.0147314
733.910	0.0143579
733.988	0.0139627
734.066	0.0136062
734.144	0.0134142
734.222	0.0130970
734.300	0.0129089
734.378	0.0126660
734.456	0.0126163
734.535	0.0123533
734.613	0.0123722
734.691	0.0123962
734.769	0.0123878
734.847	0.0124049
734.925	0.0124699
735.003	0.0126009
735.081	0.0124509
735.160	0.0126511
735.238	0.0127338
735.316	0.0128038
735.394	0.0128688
735.472	0.0129739
735.550	0.0130459
735.628	0.0131264
735.706	0.0133677
735.785	0.0133247
735.863	0.0134159
735.941	0.0135857
736.019	0.0137083
736.097	0.0140495
736.175	0.0140594
736.253	0.0143928
736.331	0.0147059
736.410	0.0149594
736.488	0.0152035
736.566	0.0155640
736.644	0.0157617
736.722	0.0158414
736.800	0.0160913
736.878	0.0161859
736.956	0.0163849
737.035	0.0164804
737.113	0.0167310
737.191	0.0169016
737.269	0.0168524
737.347	0.0169361
737.425	0.0170622
737.503	0.0169754
737.581	0.0170508
737.660	0.0170476
737.738	0.0168946
737.816	0.0170157
737.894	0.0169181
737.972	0.0168154
738.050	0.0166576
738.128	0.0165808
738.206	0.0163805
738.285	0.0161853
738.363	0.0160165
738.441	0.0159122
738.519	0.0155192
738.597	0.0151699
738.675	0.0151871
738.753	0.0148350
738.831	0.0144906
738.910	0.0142623
738.988	0.0139412
739.066	0.0138321
739.144	0.0135486
739.222	0.0132683
739.300	0.0131213
739.378	0.0130868
739.456	0.0128725
739.535	0.0127794
739.613	0.0127654
739.691	0.0125871
739.769	0.0126374
739.847	0.0124918
739.925	0.0124344
740.003	0.0121897
740.081	0.0120729
740.160	0.0121181
740.238	0.0120705
740.316	0.0120161
740.394	0.0120025
740.472	0.0120749
740.550	0.0122575
740.628	0.0125395
740.706	0.0126723
740.785	0.0131268
740.863	0.0133380
740.941	0.0136625
741.019	0.0141254
741.097	0.0144905
741.175	0.0147426
741.253	0.0150002
741.331	0.0152349
741.410	0.0153439
741.488	0.0156528
741.566	0.0157753
741.644	0.0159398
741.722	0.0162428
741.800	0.0163924
741.878	0.0166004
741.956	0.0168266
742.035	0.0168624
742.113	0.0172743
742.191	0.0174377
742.269	0.0173956
742.347	0.0174895
742.425	0.0174429
742.503	0.0174580
742.581	0.0174996
742.660	0.0172399
742.738	0.0172099
742.816	0.0169038
742.894	0.0166506
742.972	0.0166432
743.050	0.0163932
743.128	0.0161667
743.206	0.0160231
743.285	0.0157260
743.363	0.0155270
743.441	0.0152565
743.519	0.0149445
743.597	0.0146847
743.675	0.0144026
743.753	0.0142398
743.831	0.0138313
743.910	0.0135829
743.988	0.0133874
744.066	0.0130265
744.144	0.0128043
744.222	0.0125355
744.300	0.0125433
744.378	0.0123545
744.456	0.0124019
744.535	0.0124507
744.613	0.0122485
744.691	0.0123409
744.769	0.0123999
744.847	0.0123064
744.925	0.0124438
745.003	0.0126060
745.081	0.0129245
745.160	0.0130194
745.238	0.0130720
745.316	0.0133130
745.394	0.0135455
745.472	0.0138126
