05/03/2022	20:17:56	Ver.	4.1	UNKNOWN
Optical Delay	660.003261	Delta X		0.078125	Sweeps	1	Scan Rate	0/0
Coordinates	Axis 1	NaN	Axis 2	NaN	Axis 3	NaN	Axis 4	NaN	Axis 5	NaN	Axis 6	0.000000
TX Power	0.000000	RX Power	0.000000

660.003	0.0144993
660.081	0.0145378
660.160	0.0144534
660.238	0.0145251
660.316	0.0144884
660.394	0.0144991
660.472	0.0144706
660.550	0.0145983
660.628	0.0144836
660.706	0.0144399
660.785	0.0144356
660.863	0.0144261
660.941	0.0145551
661.019	0.0143076
661.097	0.0144541
661.175	0.0143923
661.253	0.0145387
661.331	0.0147023
661.410	0.0145302
661.488	0.0144648
661.566	0.0145042
661.644	0.0147062
661.722	0.0145759
661.800	0.0143858
661.878	0.0144964
661.956	0.0146001
662.035	0.0145045
662.113	0.0145071
662.191	0.0143122
662.269	0.0145292
662.347	0.0145448
662.425	0.0144487
662.503	0.0144147
662.581	0.0144777
662.660	0.0144643
662.738	0.0145520
662.816	0.0146877
662.894	0.0145826
662.972	0.0143979
663.050	0.0145775
663.128	0.0145454
663.206	0.0145128
663.285	0.0144505
663.363	0.0143821
663.441	0.0145197
663.519	0.0144704
663.597	0.0144250
663.675	0.0143880
663.753	0.0144592
663.831	0.0144717
663.910	0.0143307
663.988	0.0143767
664.066	0.0145924
664.144	0.0144566
664.222	0.0144358
664.300	0.0143369
664.378	0.0143475
664.456	0.0145676
664.535	0.0143722
664.613	0.0144312
664.691	0.0144934
664.769	0.0145440
664.847	0.0145068
664.925	0.0144215
665.003	0.0145286
665.081	0.0144349
665.160	0.0144609
665.238	0.0143515
665.316	0.0144571
665.394	0.0145246
665.472	0.0144421
665.550	0.0143804
665.628	0.0142983
665.706	0.0143839
665.785	0.0144082
665.863	0.0144809
665.941	0.0145193
666.019	0.0145344
666.097	0.0146432
666.175	0.0145268
666.253	0.0144856
666.331	0.0144954
666.410	0.0144820
666.488	0.0144305
666.566	0.0144891
666.644	0.0145059
666.722	0.0145197
666.800	0.0145665
666.878	0.0146228
666.956	0.0144019
667.035	0.0144186
667.113	0.0144520
667.191	0.0144010
667.269	0.0144947
667.347	0.0144896
667.425	0.0145230
667.503	0.0144963
667.581	0.0147800
667.660	0.0143942
667.738	0.0143915
667.816	0.0145439
667.894	0.0146175
667.972	0.0144978
668.050	0.0144238
668.128	0.0143817
668.206	0.0143793
668.285	0.0145415
668.363	0.0144669
668.441	0.0145440
668.519	0.0144772
668.597	0.0143334
668.675	0.0144608
668.753	0.0146129
668.831	0.0144659
668.910	0.0144345
668.988	0.0144437
669.066	0.0143874
669.144	0.0146103
669.222	0.0145008
669.300	0.0144160
669.378	0.0146342
669.456	0.0144784
669.535	0.0145393
669.613	0.0144616
669.691	0.0145411
669.769	0.0145899
669.847	0.0144489
669.925	0.0143914
670.003	0.0146229
670.081	0.0145323
670.160	0.0144765
670.238	0.0145484
670.316	0.0146126
670.394	0.0144621
670.472	0.0144725
670.550	0.0145055
670.628	0.0144695
670.706	0.0143939
670.785	0.0146039
670.863	0.0144225
670.941	0.0145469
671.019	0.0145567
671.097	0.0145271
671.175	0.0145033
671.253	0.0145014
671.331	0.0143972
671.410	0.0144695
671.488	0.0146257
671.566	0.0145166
671.644	0.0144660
671.722	0.0144741
671.800	0.0144799
671.878	0.0144238
671.956	0.0143813
672.035	0.0145805
672.113	0.0145862
672.191	0.0146107
672.269	0.0145662
672.347	0.0144968
672.425	0.0145070
672.503	0.0144958
672.581	0.0144658
672.660	0.0144983
672.738	0.0145329
672.816	0.0144895
672.894	0.0145765
672.972	0.0144331
673.050	0.0144384
673.128	0.0145345
673.206	0.0145427
673.285	0.0144324
673.363	0.0144250
673.441	0.0144747
673.519	0.0145525
673.597	0.0145035
673.675	0.0143610
673.753	0.0144818
673.831	0.0144530
673.910	0.0144714
673.988	0.0145026
674.066	0.0145532
674.144	0.0145466
674.222	0.0145540
674.300	0.0144252
674.378	0.0144361
674.456	0.0144835
674.535	0.0143918
674.613	0.0144018
674.691	0.0145338
674.769	0.0145242
674.847	0.0146318
674.925	0.0144704
675.003	0.0145377
675.081	0.0146317
675.160	0.0145332
675.238	0.0143767
675.316	0.0143293
675.394	0.0145571
675.472	0.0145609
675.550	0.0145908
675.628	0.0145451
675.706	0.0145599
675.785	0.0145004
675.863	0.0145571
675.941	0.0145377
676.019	0.0144954
676.097	0.0145941
676.175	0.0145202
676.253	0.0145324
676.331	0.0146424
676.410	0.0145210
676.488	0.0145236
676.566	0.0144776
676.644	0.0146822
676.722	0.0144508
676.800	0.0146053
676.878	0.0144355
676.956	0.0144463
677.035	0.0145837
677.113	0.0146201
677.191	0.0145060
677.269	0.0144068
677.347	0.0144296
677.425	0.0144362
677.503	0.0144683
677.581	0.0145045
677.660	0.0145091
677.738	0.0143889
677.816	0.0144765
677.894	0.0145174
677.972	0.0144929
678.050	0.0143910
678.128	0.0145895
678.206	0.0146167
678.285	0.0144328
678.363	0.0144859
678.441	0.0145336
678.519	0.0144276
678.597	0.0144427
678.675	0.0144354
678.753	0.0144338
678.831	0.0145608
678.910	0.0145567
678.988	0.0144871
679.066	0.0146104
679.144	0.0146870
679.222	0.0144564
679.300	0.0143916
679.378	0.0146427
679.456	0.0146905
679.535	0.0143560
679.613	0.0144830
679.691	0.0145556
679.769	0.0144785
679.847	0.0144069
679.925	0.0144444
680.003	0.0144141
680.081	0.0144268
680.160	0.0145150
680.238	0.0144440
680.316	0.0144939
680.394	0.0145300
680.472	0.0145852
680.550	0.0145039
680.628	0.0145756
680.706	0.0144145
680.785	0.0144265
680.863	0.0145268
680.941	0.0144808
681.019	0.0145480
681.097	0.0143706
681.175	0.0145096
681.253	0.0145820
681.331	0.0145658
681.410	0.0144724
681.488	0.0146567
681.566	0.0145626
681.644	0.0144582
681.722	0.0146388
681.800	0.0144507
681.878	0.0144538
681.956	0.0144329
682.035	0.0145791
682.113	0.0145338
682.191	0.0145998
682.269	0.0145097
682.347	0.0143906
682.425	0.0145165
682.503	0.0144675
682.581	0.0145840
682.660	0.0144363
682.738	0.0144988
682.816	0.0145786
682.894	0.0144764
682.972	0.0146037
683.050	0.0145631
683.128	0.0146651
683.206	0.0144330
683.285	0.0143842
683.363	0.0145123
683.441	0.0144941
683.519	0.0144280
683.597	0.0144917
683.675	0.0146483
683.753	0.0145780
683.831	0.0144480
683.910	0.0144379
683.988	0.0147166
684.066	0.0146089
684.144	0.0144462
684.222	0.0143900
684.300	0.0144496
684.378	0.0145770
684.456	0.0145183
684.535	0.0145132
684.613	0.0145294
684.691	0.0144234
684.769	0.0145876
684.847	0.0145236
684.925	0.0144592
685.003	0.0145575
685.081	0.0145834
685.160	0.0145251
685.238	0.0145308
685.316	0.0146628
685.394	0.0145242
685.472	0.0144508
685.550	0.0145294
685.628	0.0144958
685.706	0.0146224
685.785	0.0145065
685.863	0.0146398
685.941	0.0145363
686.019	0.0146434
686.097	0.0145593
686.175	0.0144041
686.253	0.0145954
686.331	0.0144940
686.410	0.0146180
686.488	0.0145036
686.566	0.0144864
686.644	0.0145246
686.722	0.0146305
686.800	0.0145833
686.878	0.0144205
686.956	0.0144640
687.035	0.0144862
687.113	0.0146452
687.191	0.0144228
687.269	0.0144484
687.347	0.0144764
687.425	0.0143674
687.503	0.0146036
687.581	0.0145549
687.660	0.0145303
687.738	0.0145190
687.816	0.0144537
687.894	0.0145474
687.972	0.0145889
688.050	0.0144140
688.128	0.0145738
688.206	0.0143595
688.285	0.0144271
688.363	0.0145434
688.441	0.0144524
688.519	0.0144749
688.597	0.0146004
688.675	0.0146245
688.753	0.0144708
688.831	0.0144324
688.910	0.0146536
688.988	0.0144610
689.066	0.0144897
689.144	0.0144553
689.222	0.0145177
689.300	0.0144294
689.378	0.0145329
689.456	0.0145078
689.535	0.0144727
689.613	0.0144347
689.691	0.0144138
689.769	0.0144534
689.847	0.0145522
689.925	0.0144169
690.003	0.0145469
690.081	0.0144221
690.160	0.0144274
690.238	0.0144926
690.316	0.0145591
690.394	0.0145649
690.472	0.0145600
690.550	0.0146118
690.628	0.0145621
690.706	0.0144917
690.785	0.0145977
690.863	0.0145273
690.941	0.0146114
691.019	0.0144779
691.097	0.0144916
691.175	0.0146491
691.253	0.0145870
691.331	0.0143163
691.410	0.0143557
691.488	0.0144463
691.566	0.0145293
691.644	0.0144448
691.722	0.0143966
691.800	0.0143635
691.878	0.0143569
691.956	0.0144706
692.035	0.0144462
692.113	0.0144888
692.191	0.0143938
692.269	0.0145522
692.347	0.0145210
692.425	0.0143606
692.503	0.0144672
692.581	0.0144357
692.660	0.0144846
692.738	0.0143798
692.816	0.0145433
692.894	0.0145265
692.972	0.0142939
693.050	0.0143835
693.128	0.0145403
693.206	0.0144514
693.285	0.0144463
693.363	0.0144888
693.441	0.0143545
693.519	0.0144662
693.597	0.0144225
693.675	0.0143646
693.753	0.0146010
693.831	0.0145259
693.910	0.0143896
693.988	0.0144410
694.066	0.0145328
694.144	0.0144302
694.222	0.0144374
694.300	0.0145670
694.378	0.0146237
694.456	0.0144128
694.535	0.0145191
694.613	0.0144545
694.691	0.0146145
694.769	0.0143472
694.847	0.0145084
694.925	0.0144088
695.003	0.0144552
695.081	0.0145220
695.160	0.0144823
695.238	0.0145455
695.316	0.0144936
695.394	0.0145375
695.472	0.0145554
695.550	0.0144627
695.628	0.0146015
695.706	0.0144113
695.785	0.0144368
695.863	0.0145016
695.941	0.0145972
696.019	0.0145820
696.097	0.0144804
696.175	0.0144819
696.253	0.0145434
696.331	0.0145867
696.410	0.0145523
696.488	0.0145847
696.566	0.0145908
696.644	0.0145425
696.722	0.0145560
696.800	0.0145748
696.878	0.0146295
696.956	0.0144714
697.035	0.0144141
697.113	0.0144889
697.191	0.0145004
697.269	0.0145544
697.347	0.0145893
697.425	0.0144102
697.503	0.0145377
697.581	0.0144242
697.660	0.0145641
697.738	0.0144604
697.816	0.0145001
697.894	0.0144770
697.972	0.0146607
698.050	0.0145685
698.128	0.0145608
698.206	0.0145836
698.285	0.0144141
698.363	0.0145447
698.441	0.0146553
698.519	0.0144011
698.597	0.0144413
698.675	0.0145898
698.753	0.0144850
698.831	0.0144086
698.910	0.0143802
698.988	0.0144765
699.066	0.0145759
699.144	0.0145541
699.222	0.0145893
699.300	0.0146844
699.378	0.0145619
699.456	0.0145483
699.535	0.0145261
699.613	0.0145276
699.691	0.0143378
699.769	0.0143911
699.847	0.0143728
699.925	0.0144382
700.003	0.0143959
700.081	0.0144588
700.160	0.0146493
700.238	0.0145757
700.316	0.0146568
700.394	0.0147979
700.472	0.0148502
700.550	0.0148483
700.628	0.0148318
700.706	0.0146922
700.785	0.0145448
700.863	0.0144521
700.941	0.0140721
701.019	0.0140187
701.097	0.0138144
701.175	0.0136194
701.253	0.0136765
701.331	0.0136453
701.410	0.0134686
701.488	0.0137219
701.566	0.0138025
701.644	0.0140319
701.722	0.0143522
701.800	0.0145249
701.878	0.0148402
701.956	0.0151516
702.035	0.0156284
702.113	0.0159219
702.191	0.0163229
702.269	0.0166763
702.347	0.0171090
702.425	0.0168575
702.503	0.0169029
702.581	0.0168771
702.660	0.0165457
702.738	0.0160085
702.816	0.0155591
702.894	0.0149327
702.972	0.0141560
703.050	0.0134864
703.128	0.0125320
703.206	0.0116983
703.285	0.0107856
703.363	0.0102148
703.441	0.00983635
703.519	0.00944778
703.597	0.00951729
703.675	0.00978050
703.753	0.0104224
703.831	0.0114731
703.910	0.0123682
703.988	0.0134213
704.066	0.0144521
704.144	0.0154032
704.222	0.0163320
704.300	0.0169666
704.378	0.0174627
704.456	0.0178758
704.535	0.0182614
704.613	0.0187088
704.691	0.0190900
704.769	0.0194365
704.847	0.0197874
704.925	0.0198866
705.003	0.0198711
705.081	0.0195619
705.160	0.0193230
705.238	0.0187349
705.316	0.0179550
705.394	0.0170010
705.472	0.0159571
705.550	0.0146411
705.628	0.0136366
705.706	0.0123717
705.785	0.0113498
705.863	0.0103872
705.941	0.00950333
706.019	0.00881485
706.097	0.00810127
706.175	0.00779015
706.253	0.00755417
706.331	0.00769356
706.410	0.00784142
706.488	0.00830482
706.566	0.00897011
706.644	0.00961678
706.722	0.0104751
706.800	0.0112701
706.878	0.0120178
706.956	0.0129175
707.035	0.0136617
707.113	0.0144864
707.191	0.0151292
707.269	0.0159636
707.347	0.0166492
707.425	0.0174420
707.503	0.0182980
707.581	0.0190635
707.660	0.0197817
707.738	0.0204756
707.816	0.0211696
707.894	0.0220059
707.972	0.0226695
708.050	0.0231693
708.128	0.0234333
708.206	0.0233930
708.285	0.0231947
708.363	0.0223568
708.441	0.0212952
708.519	0.0201720
708.597	0.0186174
708.675	0.0168653
708.753	0.0151107
708.831	0.0133174
708.910	0.0114935
708.988	0.00974754
709.066	0.00815063
709.144	0.00690643
709.222	0.00587486
709.300	0.00512352
709.378	0.00488235
709.456	0.00492493
709.535	0.00510742
709.613	0.00555115
709.691	0.00632690
709.769	0.00691467
709.847	0.00805260
709.925	0.00896835
710.003	0.00997780
710.081	0.0107766
710.160	0.0116254
710.238	0.0125582
710.316	0.0131980
710.394	0.0136778
710.472	0.0143999
710.550	0.0149323
710.628	0.0155902
710.706	0.0161423
710.785	0.0169464
710.863	0.0179345
710.941	0.0190440
711.019	0.0201535
711.097	0.0210906
711.175	0.0224629
711.253	0.0232330
711.331	0.0237288
711.410	0.0241940
711.488	0.0241758
711.566	0.0238935
711.644	0.0234018
711.722	0.0224518
711.800	0.0214108
711.878	0.0203059
711.956	0.0189273
712.035	0.0175113
712.113	0.0160825
712.191	0.0145819
712.269	0.0131821
712.347	0.0120446
712.425	0.0110446
712.503	0.0101147
712.581	0.00915634
712.660	0.00860954
712.738	0.00814659
712.816	0.00765594
712.894	0.00752243
712.972	0.00746933
713.050	0.00743286
713.128	0.00763062
713.206	0.00766335
713.285	0.00810707
713.363	0.00852333
713.441	0.00894669
713.519	0.00941734
713.597	0.00987251
713.675	0.0102094
713.753	0.0110494
713.831	0.0115301
713.910	0.0117772
713.988	0.0122405
714.066	0.0128313
714.144	0.0134074
714.222	0.0141310
714.300	0.0149454
714.378	0.0158492
714.456	0.0168838
714.535	0.0179294
714.613	0.0190498
714.691	0.0201963
714.769	0.0212319
714.847	0.0219482
714.925	0.0223840
715.003	0.0222978
715.081	0.0221924
715.160	0.0220149
715.238	0.0213470
715.316	0.0205025
715.394	0.0198698
715.472	0.0191612
715.550	0.0185086
715.628	0.0176958
715.706	0.0169943
715.785	0.0164731
715.863	0.0160637
715.941	0.0153242
716.019	0.0147756
716.097	0.0140722
716.175	0.0133582
716.253	0.0126161
716.331	0.0119160
716.410	0.0111783
716.488	0.0103577
716.566	0.00975281
716.644	0.00916229
716.722	0.00869492
716.800	0.00844421
716.878	0.00829224
716.956	0.00848640
717.035	0.00878998
717.113	0.00895416
717.191	0.00926971
717.269	0.00976593
717.347	0.0104558
717.425	0.0110069
717.503	0.0115459
717.581	0.0119983
717.660	0.0124629
717.738	0.0128043
717.816	0.0132964
717.894	0.0136353
717.972	0.0139352
718.050	0.0144864
718.128	0.0148047
718.206	0.0153897
718.285	0.0157858
718.363	0.0163332
718.441	0.0171862
718.519	0.0176511
718.597	0.0184218
718.675	0.0187920
718.753	0.0194643
718.831	0.0198381
718.910	0.0199867
718.988	0.0199260
719.066	0.0198396
719.144	0.0197038
719.222	0.0194242
719.300	0.0190096
719.378	0.0182687
719.456	0.0176527
719.535	0.0171949
719.613	0.0165984
719.691	0.0162542
719.769	0.0157462
719.847	0.0153007
719.925	0.0147880
720.003	0.0144388
720.081	0.0137745
720.160	0.0134370
720.238	0.0130295
720.316	0.0124778
720.394	0.0121924
720.472	0.0119775
720.550	0.0116753
720.628	0.0115199
720.706	0.0113802
720.785	0.0112090
720.863	0.0110767
720.941	0.0111157
721.019	0.0109904
721.097	0.0110100
721.175	0.0108870
721.253	0.0109113
721.331	0.0109693
721.410	0.0111276
721.488	0.0113504
721.566	0.0115191
721.644	0.0120013
721.722	0.0122550
721.800	0.0126073
721.878	0.0129923
721.956	0.0132744
722.035	0.0134654
722.113	0.0138731
722.191	0.0141186
722.269	0.0144607
722.347	0.0149459
722.425	0.0153542
722.503	0.0156793
722.581	0.0163534
722.660	0.0166978
722.738	0.0169956
722.816	0.0173456
722.894	0.0176833
722.972	0.0179339
723.050	0.0181964
723.128	0.0180363
723.206	0.0181638
723.285	0.0180290
723.363	0.0179601
723.441	0.0178114
723.519	0.0174606
723.597	0.0171709
723.675	0.0169304
723.753	0.0166721
723.831	0.0164159
723.910	0.0162411
723.988	0.0159312
724.066	0.0158323
724.144	0.0154945
724.222	0.0152561
724.300	0.0150372
724.378	0.0146325
724.456	0.0143787
724.535	0.0140579
724.613	0.0136800
724.691	0.0132086
724.769	0.0127858
724.847	0.0126256
724.925	0.0125597
725.003	0.0123853
725.081	0.0120692
725.160	0.0121874
725.238	0.0121470
725.316	0.0121768
725.394	0.0121983
725.472	0.0122495
725.550	0.0122182
725.628	0.0120353
725.706	0.0121006
725.785	0.0119608
725.863	0.0119710
725.941	0.0118579
726.019	0.0117192
726.097	0.0117813
726.175	0.0119226
726.253	0.0120078
726.331	0.0121599
726.410	0.0122733
726.488	0.0125086
726.566	0.0129591
726.644	0.0130694
726.722	0.0134645
726.800	0.0138496
726.878	0.0143236
726.956	0.0149271
727.035	0.0153960
727.113	0.0160099
727.191	0.0165556
727.269	0.0171272
727.347	0.0173853
727.425	0.0176899
727.503	0.0179852
727.581	0.0182437
727.660	0.0181996
727.738	0.0180755
727.816	0.0180999
727.894	0.0177067
727.972	0.0175380
728.050	0.0170831
728.128	0.0168629
728.206	0.0165569
728.285	0.0161511
728.363	0.0159949
728.441	0.0157611
728.519	0.0156717
728.597	0.0155239
728.675	0.0154588
728.753	0.0155462
728.831	0.0154946
728.910	0.0152883
728.988	0.0152972
729.066	0.0151811
729.144	0.0151134
729.222	0.0148603
729.300	0.0146860
729.378	0.0145067
729.456	0.0140623
729.535	0.0138531
729.613	0.0135222
729.691	0.0131283
729.769	0.0126846
729.847	0.0122441
729.925	0.0119688
730.003	0.0117204
730.081	0.0113696
730.160	0.0111186
730.238	0.0110081
730.316	0.0107410
730.394	0.0108170
730.472	0.0109859
730.550	0.0113131
730.628	0.0114877
730.706	0.0116830
730.785	0.0120052
730.863	0.0123694
730.941	0.0126224
731.019	0.0128302
731.097	0.0131606
731.175	0.0134270
731.253	0.0136224
731.331	0.0139199
731.410	0.0141219
731.488	0.0144009
731.566	0.0145972
731.644	0.0148233
731.722	0.0152590
731.800	0.0155723
731.878	0.0157687
731.956	0.0160249
732.035	0.0163412
732.113	0.0164962
732.191	0.0165820
732.269	0.0169547
732.347	0.0170701
732.425	0.0169891
732.503	0.0171074
732.581	0.0171317
732.660	0.0171648
732.738	0.0171984
732.816	0.0169502
732.894	0.0169302
732.972	0.0169281
733.050	0.0168854
733.128	0.0167837
733.206	0.0165717
733.285	0.0164602
733.363	0.0162717
733.441	0.0162927
733.519	0.0160958
733.597	0.0158664
733.675	0.0154304
733.753	0.0151264
733.831	0.0149278
733.910	0.0145426
733.988	0.0141467
734.066	0.0138615
734.144	0.0135182
734.222	0.0133678
734.300	0.0129965
734.378	0.0127110
734.456	0.0124096
734.535	0.0124839
734.613	0.0122237
734.691	0.0120688
734.769	0.0120966
734.847	0.0119556
734.925	0.0119292
735.003	0.0119573
735.081	0.0120961
735.160	0.0120567
735.238	0.0121406
735.316	0.0124788
735.394	0.0124317
735.472	0.0123184
735.550	0.0125081
735.628	0.0125117
735.706	0.0124525
735.785	0.0123945
735.863	0.0127650
735.941	0.0126469
736.019	0.0128299
736.097	0.0130918
736.175	0.0132153
736.253	0.0135899
736.331	0.0138156
736.410	0.0142686
736.488	0.0146457
736.566	0.0150452
736.644	0.0153963
736.722	0.0157229
736.800	0.0159445
736.878	0.0162444
736.956	0.0163509
737.035	0.0165774
737.113	0.0167748
737.191	0.0170805
737.269	0.0172086
737.347	0.0171746
737.425	0.0172182
737.503	0.0172903
737.581	0.0172469
737.660	0.0170151
737.738	0.0171718
737.816	0.0169907
737.894	0.0168176
737.972	0.0166768
738.050	0.0166560
738.128	0.0166338
738.206	0.0164860
738.285	0.0163483
738.363	0.0160926
738.441	0.0160538
738.519	0.0158440
738.597	0.0154497
738.675	0.0151583
738.753	0.0148494
738.831	0.0145853
738.910	0.0142458
738.988	0.0139860
739.066	0.0137139
739.144	0.0133993
739.222	0.0131087
739.300	0.0128291
739.378	0.0127612
739.456	0.0124860
739.535	0.0122940
739.613	0.0121601
739.691	0.0119435
739.769	0.0116578
739.847	0.0118066
739.925	0.0115820
740.003	0.0116312
740.081	0.0114766
740.160	0.0114735
740.238	0.0113477
740.316	0.0116683
740.394	0.0117039
740.472	0.0117083
740.550	0.0119650
740.628	0.0122109
740.706	0.0124512
740.785	0.0127020
740.863	0.0132632
740.941	0.0134898
741.019	0.0136751
741.097	0.0140578
741.175	0.0144203
741.253	0.0146078
741.331	0.0147260
741.410	0.0152516
741.488	0.0152251
741.566	0.0154758
741.644	0.0158035
741.722	0.0159387
741.800	0.0162534
741.878	0.0164149
741.956	0.0168061
742.035	0.0168315
742.113	0.0168764
742.191	0.0172048
742.269	0.0173775
742.347	0.0173383
742.425	0.0174725
742.503	0.0175580
742.581	0.0174777
742.660	0.0173104
742.738	0.0172022
742.816	0.0169900
742.894	0.0167381
742.972	0.0165492
743.050	0.0162260
743.128	0.0160334
743.206	0.0158320
743.285	0.0155466
743.363	0.0152763
743.441	0.0151101
743.519	0.0149277
743.597	0.0145785
743.675	0.0142821
743.753	0.0139754
743.831	0.0136814
743.910	0.0133411
743.988	0.0132158
744.066	0.0129774
744.144	0.0128220
744.222	0.0126368
744.300	0.0124059
744.378	0.0122525
744.456	0.0121799
744.535	0.0121985
744.613	0.0120437
744.691	0.0119489
744.769	0.0121323
744.847	0.0122599
744.925	0.0121842
745.003	0.0123818
745.081	0.0126517
745.160	0.0127317
745.238	0.0128133
745.316	0.0131392
745.394	0.0132516
745.472	0.0134287
