05/03/2022	20:20:57	Ver.	4.1	UNKNOWN
Optical Delay	660.003261	Delta X		0.078125	Sweeps	1	Scan Rate	0/0
Coordinates	Axis 1	NaN	Axis 2	NaN	Axis 3	NaN	Axis 4	NaN	Axis 5	NaN	Axis 6	0.000000
TX Power	0.000000	RX Power	0.000000

660.003	0.0141383
660.081	0.0139380
660.160	0.0141805
660.238	0.0141035
660.316	0.0140774
660.394	0.0141853
660.472	0.0141326
660.550	0.0140498
660.628	0.0140438
660.706	0.0141392
660.785	0.0141312
660.863	0.0142738
660.941	0.0141483
661.019	0.0140864
661.097	0.0141508
661.175	0.0141376
661.253	0.0140762
661.331	0.0139595
661.410	0.0140042
661.488	0.0142423
661.566	0.0141319
661.644	0.0140824
661.722	0.0141983
661.800	0.0140690
661.878	0.0140838
661.956	0.0140715
662.035	0.0140752
662.113	0.0141977
662.191	0.0141506
662.269	0.0142140
662.347	0.0141783
662.425	0.0140639
662.503	0.0141656
662.581	0.0142146
662.660	0.0141370
662.738	0.0142125
662.816	0.0142017
662.894	0.0141252
662.972	0.0140347
663.050	0.0141095
663.128	0.0140347
663.206	0.0141025
663.285	0.0140727
663.363	0.0141948
663.441	0.0142177
663.519	0.0141599
663.597	0.0140688
663.675	0.0141639
663.753	0.0141341
663.831	0.0141723
663.910	0.0140665
663.988	0.0141283
664.066	0.0142355
664.144	0.0141187
664.222	0.0141126
664.300	0.0141517
664.378	0.0140980
664.456	0.0141778
664.535	0.0141226
664.613	0.0141748
664.691	0.0140681
664.769	0.0140482
664.847	0.0142295
664.925	0.0140314
665.003	0.0139968
665.081	0.0141267
665.160	0.0141805
665.238	0.0140926
665.316	0.0141663
665.394	0.0141484
665.472	0.0141238
665.550	0.0139866
665.628	0.0141225
665.706	0.0141772
665.785	0.0142142
665.863	0.0141405
665.941	0.0141257
666.019	0.0140843
666.097	0.0141616
666.175	0.0141090
666.253	0.0141675
666.331	0.0141404
666.410	0.0141225
666.488	0.0141364
666.566	0.0140359
666.644	0.0140859
666.722	0.0142220
666.800	0.0141853
666.878	0.0140728
666.956	0.0140393
667.035	0.0141733
667.113	0.0142604
667.191	0.0142090
667.269	0.0141882
667.347	0.0140662
667.425	0.0141333
667.503	0.0141145
667.581	0.0141763
667.660	0.0142365
667.738	0.0142031
667.816	0.0141905
667.894	0.0142506
667.972	0.0141171
668.050	0.0141314
668.128	0.0141723
668.206	0.0142171
668.285	0.0140997
668.363	0.0140977
668.441	0.0141560
668.519	0.0140893
668.597	0.0141050
668.675	0.0141730
668.753	0.0143111
668.831	0.0141088
668.910	0.0142127
668.988	0.0140947
669.066	0.0141748
669.144	0.0139586
669.222	0.0141547
669.300	0.0143611
669.378	0.0142032
669.456	0.0142010
669.535	0.0142105
669.613	0.0141219
669.691	0.0141655
669.769	0.0142072
669.847	0.0141252
669.925	0.0141934
670.003	0.0142569
670.081	0.0141664
670.160	0.0141325
670.238	0.0141974
670.316	0.0142070
670.394	0.0140692
670.472	0.0141236
670.550	0.0141026
670.628	0.0141480
670.706	0.0142024
670.785	0.0140370
670.863	0.0141566
670.941	0.0141865
671.019	0.0139892
671.097	0.0140987
671.175	0.0141383
671.253	0.0141912
671.331	0.0142247
671.410	0.0140682
671.488	0.0140253
671.566	0.0141167
671.644	0.0141953
671.722	0.0141929
671.800	0.0142080
671.878	0.0142110
671.956	0.0143179
672.035	0.0141122
672.113	0.0141660
672.191	0.0140471
672.269	0.0141779
672.347	0.0141550
672.425	0.0141475
672.503	0.0141806
672.581	0.0142178
672.660	0.0141860
672.738	0.0141036
672.816	0.0141685
672.894	0.0141882
672.972	0.0142519
673.050	0.0141930
673.128	0.0142057
673.206	0.0141866
673.285	0.0140903
673.363	0.0141341
673.441	0.0142359
673.519	0.0141541
673.597	0.0141397
673.675	0.0142321
673.753	0.0142400
673.831	0.0141284
673.910	0.0141922
673.988	0.0142923
674.066	0.0141788
674.144	0.0141576
674.222	0.0142520
674.300	0.0142613
674.378	0.0142719
674.456	0.0141618
674.535	0.0141219
674.613	0.0142281
674.691	0.0141602
674.769	0.0141763
674.847	0.0142436
674.925	0.0141796
675.003	0.0141445
675.081	0.0142393
675.160	0.0141337
675.238	0.0141855
675.316	0.0141460
675.394	0.0141925
675.472	0.0141414
675.550	0.0141291
675.628	0.0142580
675.706	0.0142182
675.785	0.0141396
675.863	0.0141675
675.941	0.0142130
676.019	0.0142348
676.097	0.0142057
676.175	0.0140569
676.253	0.0141280
676.331	0.0141808
676.410	0.0141593
676.488	0.0141885
676.566	0.0142048
676.644	0.0141245
676.722	0.0141151
676.800	0.0142152
676.878	0.0143429
676.956	0.0141193
677.035	0.0140199
677.113	0.0141106
677.191	0.0140013
677.269	0.0140884
677.347	0.0140765
677.425	0.0140945
677.503	0.0141296
677.581	0.0141769
677.660	0.0142214
677.738	0.0140995
677.816	0.0141532
677.894	0.0140819
677.972	0.0140612
678.050	0.0142065
678.128	0.0142248
678.206	0.0141508
678.285	0.0140461
678.363	0.0140783
678.441	0.0141988
678.519	0.0142459
678.597	0.0141110
678.675	0.0143464
678.753	0.0141046
678.831	0.0140727
678.910	0.0141010
678.988	0.0142371
679.066	0.0141492
679.144	0.0141373
679.222	0.0141096
679.300	0.0140520
679.378	0.0142130
679.456	0.0141718
679.535	0.0140701
679.613	0.0141766
679.691	0.0141070
679.769	0.0140915
679.847	0.0141891
679.925	0.0141951
680.003	0.0141502
680.081	0.0140771
680.160	0.0140643
680.238	0.0140434
680.316	0.0140992
680.394	0.0140550
680.472	0.0139375
680.550	0.0140964
680.628	0.0141274
680.706	0.0142178
680.785	0.0142281
680.863	0.0141969
680.941	0.0140123
681.019	0.0141412
681.097	0.0141792
681.175	0.0139992
681.253	0.0141095
681.331	0.0141013
681.410	0.0141640
681.488	0.0141814
681.566	0.0140880
681.644	0.0141163
681.722	0.0141496
681.800	0.0142124
681.878	0.0140559
681.956	0.0140324
682.035	0.0140334
682.113	0.0141161
682.191	0.0140260
682.269	0.0140495
682.347	0.0140458
682.425	0.0139689
682.503	0.0140812
682.581	0.0140317
682.660	0.0142721
682.738	0.0140878
682.816	0.0140239
682.894	0.0141573
682.972	0.0140866
683.050	0.0140773
683.128	0.0141135
683.206	0.0142390
683.285	0.0141261
683.363	0.0141396
683.441	0.0141454
683.519	0.0140519
683.597	0.0141473
683.675	0.0140818
683.753	0.0140132
683.831	0.0140839
683.910	0.0142613
683.988	0.0141548
684.066	0.0141680
684.144	0.0140621
684.222	0.0141233
684.300	0.0140975
684.378	0.0140878
684.456	0.0142307
684.535	0.0141147
684.613	0.0141550
684.691	0.0141961
684.769	0.0142548
684.847	0.0141877
684.925	0.0142079
685.003	0.0142755
685.081	0.0140948
685.160	0.0142311
685.238	0.0142307
685.316	0.0141357
685.394	0.0141100
685.472	0.0142219
685.550	0.0142653
685.628	0.0141304
685.706	0.0140778
685.785	0.0140845
685.863	0.0140862
685.941	0.0141679
686.019	0.0140723
686.097	0.0142289
686.175	0.0142711
686.253	0.0141465
686.331	0.0140569
686.410	0.0142268
686.488	0.0140707
686.566	0.0140573
686.644	0.0141146
686.722	0.0141119
686.800	0.0141756
686.878	0.0140266
686.956	0.0142334
687.035	0.0142184
687.113	0.0141829
687.191	0.0140749
687.269	0.0140710
687.347	0.0141695
687.425	0.0142316
687.503	0.0140837
687.581	0.0141592
687.660	0.0141148
687.738	0.0141138
687.816	0.0140816
687.894	0.0140926
687.972	0.0142022
688.050	0.0141566
688.128	0.0140553
688.206	0.0140170
688.285	0.0141586
688.363	0.0141665
688.441	0.0140311
688.519	0.0141630
688.597	0.0140473
688.675	0.0141553
688.753	0.0142179
688.831	0.0141972
688.910	0.0141207
688.988	0.0141283
689.066	0.0142905
689.144	0.0141392
689.222	0.0141440
689.300	0.0141589
689.378	0.0140928
689.456	0.0141550
689.535	0.0140955
689.613	0.0139767
689.691	0.0142632
689.769	0.0140572
689.847	0.0141335
689.925	0.0141195
690.003	0.0139769
690.081	0.0140805
690.160	0.0141753
690.238	0.0141414
690.316	0.0141108
690.394	0.0141802
690.472	0.0142690
690.550	0.0141456
690.628	0.0140089
690.706	0.0140958
690.785	0.0141152
690.863	0.0141087
690.941	0.0140786
691.019	0.0141534
691.097	0.0141546
691.175	0.0139971
691.253	0.0141663
691.331	0.0141257
691.410	0.0141280
691.488	0.0140956
691.566	0.0141193
691.644	0.0142359
691.722	0.0139926
691.800	0.0141393
691.878	0.0141857
691.956	0.0140446
692.035	0.0141394
692.113	0.0140807
692.191	0.0141200
692.269	0.0140658
692.347	0.0141748
692.425	0.0140845
692.503	0.0141444
692.581	0.0142782
692.660	0.0141265
692.738	0.0141286
692.816	0.0141019
692.894	0.0140855
692.972	0.0141533
693.050	0.0141563
693.128	0.0141042
693.206	0.0140347
693.285	0.0141370
693.363	0.0140923
693.441	0.0142245
693.519	0.0142918
693.597	0.0141624
693.675	0.0141087
693.753	0.0141746
693.831	0.0141521
693.910	0.0141485
693.988	0.0141830
694.066	0.0141634
694.144	0.0142143
694.222	0.0141599
694.300	0.0142223
694.378	0.0141699
694.456	0.0142564
694.535	0.0141605
694.613	0.0141304
694.691	0.0141344
694.769	0.0141931
694.847	0.0140080
694.925	0.0142902
695.003	0.0143309
695.081	0.0141335
695.160	0.0140251
695.238	0.0140588
695.316	0.0142703
695.394	0.0141871
695.472	0.0140417
695.550	0.0142035
695.628	0.0142528
695.706	0.0141532
695.785	0.0141906
695.863	0.0141261
695.941	0.0142006
696.019	0.0140911
696.097	0.0141101
696.175	0.0140981
696.253	0.0141366
696.331	0.0141618
696.410	0.0140975
696.488	0.0141708
696.566	0.0141232
696.644	0.0139642
696.722	0.0140029
696.800	0.0141038
696.878	0.0142191
696.956	0.0142634
697.035	0.0140906
697.113	0.0141965
697.191	0.0141986
697.269	0.0143237
697.347	0.0144941
697.425	0.0145084
697.503	0.0144553
697.581	0.0145087
697.660	0.0144216
697.738	0.0144659
697.816	0.0142838
697.894	0.0141502
697.972	0.0142188
698.050	0.0138904
698.128	0.0139565
698.206	0.0137633
698.285	0.0137949
698.363	0.0136037
698.441	0.0137552
698.519	0.0137595
698.597	0.0136825
698.675	0.0138371
698.753	0.0140100
698.831	0.0141832
698.910	0.0141734
698.988	0.0144151
699.066	0.0147762
699.144	0.0147858
699.222	0.0147636
699.300	0.0150243
699.378	0.0151475
699.456	0.0151285
699.535	0.0151530
699.613	0.0150698
699.691	0.0150375
699.769	0.0148818
699.847	0.0145838
699.925	0.0145267
700.003	0.0142625
700.081	0.0140490
700.160	0.0137637
700.238	0.0134470
700.316	0.0133464
700.394	0.0130428
700.472	0.0129823
700.550	0.0128959
700.628	0.0126646
700.706	0.0124900
700.785	0.0124668
700.863	0.0124537
700.941	0.0126517
701.019	0.0125987
701.097	0.0129668
701.175	0.0131418
701.253	0.0135423
701.331	0.0137405
701.410	0.0142236
701.488	0.0146943
701.566	0.0150642
701.644	0.0154617
701.722	0.0156422
701.800	0.0160789
701.878	0.0161415
701.956	0.0167676
702.035	0.0167670
702.113	0.0168104
702.191	0.0169413
702.269	0.0170213
702.347	0.0168945
702.425	0.0165685
702.503	0.0161330
702.581	0.0157490
702.660	0.0151764
702.738	0.0147698
702.816	0.0141490
702.894	0.0135493
702.972	0.0131464
703.050	0.0126526
703.128	0.0121557
703.206	0.0119530
703.285	0.0116688
703.363	0.0115173
703.441	0.0112891
703.519	0.0111221
703.597	0.0111076
703.675	0.0111330
703.753	0.0112559
703.831	0.0114214
703.910	0.0116030
703.988	0.0121176
704.066	0.0125063
704.144	0.0127477
704.222	0.0131493
704.300	0.0135994
704.378	0.0138178
704.456	0.0141414
704.535	0.0143666
704.613	0.0144973
704.691	0.0146764
704.769	0.0149435
704.847	0.0150093
704.925	0.0152023
705.003	0.0151409
705.081	0.0154629
705.160	0.0159653
705.238	0.0162657
705.316	0.0166934
705.394	0.0171883
705.472	0.0177618
705.550	0.0182853
705.628	0.0188057
705.706	0.0191342
705.785	0.0193564
705.863	0.0192948
705.941	0.0189576
706.019	0.0180199
706.097	0.0172198
706.175	0.0162991
706.253	0.0150629
706.331	0.0138936
706.410	0.0126756
706.488	0.0117650
706.566	0.0110984
706.644	0.0104000
706.722	0.00985664
706.800	0.00958412
706.878	0.00964851
706.956	0.00956406
707.035	0.00957542
707.113	0.00958183
707.191	0.00985733
707.269	0.0101357
707.347	0.0101845
707.425	0.0102902
707.503	0.0108147
707.581	0.0108920
707.660	0.0113345
707.738	0.0115789
707.816	0.0118487
707.894	0.0124365
707.972	0.0128993
708.050	0.0133946
708.128	0.0138928
708.206	0.0143291
708.285	0.0146261
708.363	0.0149609
708.441	0.0152810
708.519	0.0155311
708.597	0.0157920
708.675	0.0161362
708.753	0.0164264
708.831	0.0166980
708.910	0.0170428
708.988	0.0175542
709.066	0.0179991
709.144	0.0185126
709.222	0.0188892
709.300	0.0193466
709.378	0.0197363
709.456	0.0198734
709.535	0.0196828
709.613	0.0194749
709.691	0.0190689
709.769	0.0184475
709.847	0.0178975
709.925	0.0170621
710.003	0.0161504
710.081	0.0153120
710.160	0.0144019
710.238	0.0135270
710.316	0.0125702
710.394	0.0117994
710.472	0.0110606
710.550	0.0103236
710.628	0.00970619
710.706	0.00904297
710.785	0.00884575
710.863	0.00851105
710.941	0.00823128
711.019	0.00830948
711.097	0.00847755
711.175	0.00861092
711.253	0.00902199
711.331	0.00936249
711.410	0.00972298
711.488	0.0102960
711.566	0.0107609
711.644	0.0111767
711.722	0.0116112
711.800	0.0119773
711.878	0.0124567
711.956	0.0127464
712.035	0.0132737
712.113	0.0137231
712.191	0.0141189
712.269	0.0145876
712.347	0.0150268
712.425	0.0155412
712.503	0.0158373
712.581	0.0164307
712.660	0.0169104
712.738	0.0175180
712.816	0.0181047
712.894	0.0186018
712.972	0.0191992
713.050	0.0196487
713.128	0.0199883
713.206	0.0203148
713.285	0.0202630
713.363	0.0200436
713.441	0.0195507
713.519	0.0190289
713.597	0.0181502
713.675	0.0174992
713.753	0.0168736
713.831	0.0159483
713.910	0.0151569
713.988	0.0146114
714.066	0.0140701
714.144	0.0133739
714.222	0.0130944
714.300	0.0127533
714.378	0.0123904
714.456	0.0121419
714.535	0.0119774
714.613	0.0116887
714.691	0.0112958
714.769	0.0110665
714.847	0.0107415
714.925	0.0105255
715.003	0.0101820
715.081	0.0103046
715.160	0.00998642
715.238	0.00997055
715.316	0.0100294
715.394	0.0102827
715.472	0.0106548
715.550	0.0107221
715.628	0.0108302
715.706	0.0113414
715.785	0.0116700
715.863	0.0120672
715.941	0.0124045
716.019	0.0128908
716.097	0.0130908
716.175	0.0134623
716.253	0.0138416
716.331	0.0140791
716.410	0.0142403
716.488	0.0145228
716.566	0.0148795
716.644	0.0149543
716.722	0.0153555
716.800	0.0155092
716.878	0.0160313
716.956	0.0165470
717.035	0.0170097
717.113	0.0173811
717.191	0.0179400
717.269	0.0183913
717.347	0.0187681
717.425	0.0188332
717.503	0.0189368
717.581	0.0187664
717.660	0.0185126
717.738	0.0181219
717.816	0.0174275
717.894	0.0168692
717.972	0.0163979
718.050	0.0158233
718.128	0.0154704
718.206	0.0148810
718.285	0.0145506
718.363	0.0142314
718.441	0.0139825
718.519	0.0136277
718.597	0.0133917
718.675	0.0129452
718.753	0.0127915
718.831	0.0124519
718.910	0.0121480
718.988	0.0119431
719.066	0.0113892
719.144	0.0113269
719.222	0.0109869
719.300	0.0111281
719.378	0.0110110
719.456	0.0108924
719.535	0.0109468
719.613	0.0113274
719.691	0.0115567
719.769	0.0118659
719.847	0.0122335
719.925	0.0125397
720.003	0.0127299
720.081	0.0129227
720.160	0.0129179
720.238	0.0128934
720.316	0.0129469
720.394	0.0128984
720.472	0.0127916
720.550	0.0126842
720.628	0.0127834
720.706	0.0129739
720.785	0.0131849
720.863	0.0133660
720.941	0.0136274
721.019	0.0140408
721.097	0.0145989
721.175	0.0149277
721.253	0.0152305
721.331	0.0156638
721.410	0.0163611
721.488	0.0167655
721.566	0.0172932
721.644	0.0175722
721.722	0.0179089
721.800	0.0180119
721.878	0.0180667
721.956	0.0179256
722.035	0.0177226
722.113	0.0175796
722.191	0.0171268
722.269	0.0168628
722.347	0.0165929
722.425	0.0162817
722.503	0.0160490
722.581	0.0158291
722.660	0.0155976
722.738	0.0155786
722.816	0.0152930
722.894	0.0151454
722.972	0.0148949
723.050	0.0147134
723.128	0.0143013
723.206	0.0139256
723.285	0.0135298
723.363	0.0133524
723.441	0.0129607
723.519	0.0126791
723.597	0.0123357
723.675	0.0120549
723.753	0.0118834
723.831	0.0116085
723.910	0.0115276
723.988	0.0112527
724.066	0.0112035
724.144	0.0112025
724.222	0.0112637
724.300	0.0111986
724.378	0.0112787
724.456	0.0113298
724.535	0.0116384
724.613	0.0116820
724.691	0.0118452
724.769	0.0121033
724.847	0.0122536
724.925	0.0124599
725.003	0.0126607
725.081	0.0128482
725.160	0.0129484
725.238	0.0133217
725.316	0.0135182
725.394	0.0135484
725.472	0.0137304
725.550	0.0138789
725.628	0.0139027
725.706	0.0140572
725.785	0.0141337
725.863	0.0145616
725.941	0.0149892
726.019	0.0151598
726.097	0.0155730
726.175	0.0159286
726.253	0.0163111
726.331	0.0167385
726.410	0.0170060
726.488	0.0174188
726.566	0.0177324
726.644	0.0177923
726.722	0.0179344
726.800	0.0182249
726.878	0.0180997
726.956	0.0177645
727.035	0.0179978
727.113	0.0177663
727.191	0.0175072
727.269	0.0172117
727.347	0.0168707
727.425	0.0166299
727.503	0.0163975
727.581	0.0159384
727.660	0.0152578
727.738	0.0149971
727.816	0.0145276
727.894	0.0142175
727.972	0.0136673
728.050	0.0133746
728.128	0.0131789
728.206	0.0128535
728.285	0.0126157
728.363	0.0123105
728.441	0.0121449
728.519	0.0119952
728.597	0.0118912
728.675	0.0117851
728.753	0.0115380
728.831	0.0115647
728.910	0.0113653
728.988	0.0112361
729.066	0.0112084
729.144	0.0112159
729.222	0.0112285
729.300	0.0111139
729.378	0.0110808
729.456	0.0111682
729.535	0.0110521
729.613	0.0112918
729.691	0.0112267
729.769	0.0114732
729.847	0.0116094
729.925	0.0116675
730.003	0.0119725
730.081	0.0121545
730.160	0.0122964
730.238	0.0125684
730.316	0.0128960
730.394	0.0131530
730.472	0.0135732
730.550	0.0140170
730.628	0.0144908
730.706	0.0149136
730.785	0.0153067
730.863	0.0156784
730.941	0.0160258
731.019	0.0165058
731.097	0.0166804
731.175	0.0169704
731.253	0.0172912
731.331	0.0173689
731.410	0.0176519
731.488	0.0177654
731.566	0.0180119
731.644	0.0179244
731.722	0.0179327
731.800	0.0180509
731.878	0.0178571
731.956	0.0176109
732.035	0.0174741
732.113	0.0173186
732.191	0.0171521
732.269	0.0168884
732.347	0.0164148
732.425	0.0164095
732.503	0.0161107
732.581	0.0159643
732.660	0.0156414
732.738	0.0153249
732.816	0.0148857
732.894	0.0148350
732.972	0.0143809
733.050	0.0139696
733.128	0.0137807
733.206	0.0131033
733.285	0.0128655
733.363	0.0124928
733.441	0.0121375
733.519	0.0117387
733.597	0.0115266
733.675	0.0110545
733.753	0.0109568
733.831	0.0108138
733.910	0.0105672
733.988	0.0103883
734.066	0.0102904
734.144	0.0101702
734.222	0.0101463
734.300	0.0102119
734.378	0.0102765
734.456	0.0105314
734.535	0.0104734
734.613	0.0107743
734.691	0.0110047
734.769	0.0111066
734.847	0.0115485
734.925	0.0117611
735.003	0.0122198
735.081	0.0123943
735.160	0.0128329
735.238	0.0132594
735.316	0.0137082
735.394	0.0140366
735.472	0.0144695
735.550	0.0146641
735.628	0.0149611
735.706	0.0153680
735.785	0.0157208
735.863	0.0159419
735.941	0.0163060
736.019	0.0165218
736.097	0.0168152
736.175	0.0171101
736.253	0.0173215
736.331	0.0174078
736.410	0.0176342
736.488	0.0177452
736.566	0.0178613
736.644	0.0179572
736.722	0.0178614
736.800	0.0177467
736.878	0.0175254
736.956	0.0173579
737.035	0.0170646
737.113	0.0169756
737.191	0.0166853
737.269	0.0163770
737.347	0.0161572
737.425	0.0159907
737.503	0.0158256
737.581	0.0154872
737.660	0.0152622
737.738	0.0150055
737.816	0.0146333
737.894	0.0144894
737.972	0.0141254
738.050	0.0137072
738.128	0.0133662
738.206	0.0131395
738.285	0.0127376
738.363	0.0124279
738.441	0.0121170
738.519	0.0118265
738.597	0.0116537
738.675	0.0116137
738.753	0.0113907
738.831	0.0111164
738.910	0.0111875
738.988	0.0110912
739.066	0.0111058
739.144	0.0112148
739.222	0.0113499
739.300	0.0112481
739.378	0.0115198
739.456	0.0114735
739.535	0.0117909
739.613	0.0118147
739.691	0.0120705
739.769	0.0121805
739.847	0.0121581
739.925	0.0124628
740.003	0.0125426
740.081	0.0128331
740.160	0.0129186
740.238	0.0130415
740.316	0.0133465
740.394	0.0137084
740.472	0.0138503
740.550	0.0142338
740.628	0.0144950
740.706	0.0148014
740.785	0.0149895
740.863	0.0153798
740.941	0.0155473
741.019	0.0157973
741.097	0.0159321
741.175	0.0160631
741.253	0.0161518
741.331	0.0162370
741.410	0.0162853
741.488	0.0163545
741.566	0.0162874
741.644	0.0163586
741.722	0.0164163
741.800	0.0164433
741.878	0.0163004
741.956	0.0162137
742.035	0.0161095
742.113	0.0161255
742.191	0.0158910
742.269	0.0157794
742.347	0.0158572
742.425	0.0158004
742.503	0.0156188
742.581	0.0156696
742.660	0.0154334
742.738	0.0152003
742.816	0.0151735
742.894	0.0150283
742.972	0.0148717
743.050	0.0145144
743.128	0.0143890
743.206	0.0141105
743.285	0.0138918
743.363	0.0137193
743.441	0.0135555
743.519	0.0134364
743.597	0.0133018
743.675	0.0132294
743.753	0.0129750
743.831	0.0130182
743.910	0.0127763
743.988	0.0128676
744.066	0.0127585
744.144	0.0127811
744.222	0.0128649
744.300	0.0125997
744.378	0.0125135
744.456	0.0127379
744.535	0.0125670
744.613	0.0125005
744.691	0.0123727
744.769	0.0123452
744.847	0.0122546
744.925	0.0121397
745.003	0.0120958
745.081	0.0121161
745.160	0.0120987
745.238	0.0123351
745.316	0.0125407
745.394	0.0125415
745.472	0.0127493
745.550	0.0129609
745.628	0.0131914
