05/03/2022	19:57:30	Ver.	4.1	UNKNOWN
Optical Delay	660.003261	Delta X		0.078125	Sweeps	1	Scan Rate	0/0
Coordinates	Axis 1	NaN	Axis 2	NaN	Axis 3	NaN	Axis 4	NaN	Axis 5	NaN	Axis 6	0.000000
TX Power	0.000000	RX Power	0.000000

660.003	0.0144805
660.081	0.0145061
660.160	0.0146616
660.238	0.0144575
660.316	0.0145013
660.394	0.0144859
660.472	0.0145425
660.550	0.0145305
660.628	0.0145775
660.706	0.0144060
660.785	0.0144473
660.863	0.0145128
660.941	0.0145074
661.019	0.0145233
661.097	0.0143121
661.175	0.0143480
661.253	0.0145300
661.331	0.0145180
661.410	0.0144781
661.488	0.0145242
661.566	0.0144980
661.644	0.0144408
661.722	0.0144524
661.800	0.0145237
661.878	0.0147593
661.956	0.0144341
662.035	0.0144765
662.113	0.0145216
662.191	0.0144711
662.269	0.0145190
662.347	0.0143349
662.425	0.0144170
662.503	0.0143887
662.581	0.0145707
662.660	0.0145586
662.738	0.0144106
662.816	0.0143581
662.894	0.0144717
662.972	0.0145173
663.050	0.0145523
663.128	0.0143878
663.206	0.0145015
663.285	0.0143443
663.363	0.0144489
663.441	0.0144325
663.519	0.0144923
663.597	0.0144753
663.675	0.0144693
663.753	0.0144478
663.831	0.0144669
663.910	0.0144454
663.988	0.0144029
664.066	0.0145554
664.144	0.0145332
664.222	0.0145053
664.300	0.0145007
664.378	0.0145885
664.456	0.0145119
664.535	0.0145354
664.613	0.0144550
664.691	0.0144543
664.769	0.0145097
664.847	0.0144827
664.925	0.0145591
665.003	0.0145055
665.081	0.0144118
665.160	0.0144724
665.238	0.0143687
665.316	0.0144218
665.394	0.0145501
665.472	0.0144325
665.550	0.0143791
665.628	0.0144868
665.706	0.0144609
665.785	0.0145725
665.863	0.0144164
665.941	0.0144682
666.019	0.0145920
666.097	0.0144226
666.175	0.0144688
666.253	0.0146129
666.331	0.0145332
666.410	0.0144643
666.488	0.0144453
666.566	0.0145545
666.644	0.0144788
666.722	0.0145747
666.800	0.0145019
666.878	0.0145000
666.956	0.0146301
667.035	0.0145059
667.113	0.0144741
667.191	0.0145327
667.269	0.0144168
667.347	0.0145911
667.425	0.0145677
667.503	0.0145229
667.581	0.0144157
667.660	0.0144419
667.738	0.0144663
667.816	0.0145116
667.894	0.0146410
667.972	0.0144903
668.050	0.0143549
668.128	0.0145230
668.206	0.0145423
668.285	0.0144088
668.363	0.0144836
668.441	0.0145367
668.519	0.0144608
668.597	0.0146861
668.675	0.0144295
668.753	0.0145375
668.831	0.0145499
668.910	0.0144611
668.988	0.0143510
669.066	0.0145113
669.144	0.0144425
669.222	0.0144542
669.300	0.0145537
669.378	0.0144672
669.456	0.0145596
669.535	0.0145159
669.613	0.0144573
669.691	0.0144418
669.769	0.0145100
669.847	0.0144347
669.925	0.0144981
670.003	0.0145549
670.081	0.0144804
670.160	0.0145135
670.238	0.0144221
670.316	0.0144958
670.394	0.0145798
670.472	0.0144709
670.550	0.0145836
670.628	0.0146000
670.706	0.0143929
670.785	0.0144109
670.863	0.0145171
670.941	0.0145929
671.019	0.0146086
671.097	0.0144973
671.175	0.0143855
671.253	0.0145151
671.331	0.0144819
671.410	0.0144702
671.488	0.0144379
671.566	0.0145518
671.644	0.0144905
671.722	0.0144910
671.800	0.0145420
671.878	0.0145576
671.956	0.0144951
672.035	0.0145232
672.113	0.0144101
672.191	0.0145754
672.269	0.0144614
672.347	0.0145979
672.425	0.0143891
672.503	0.0145135
672.581	0.0144717
672.660	0.0144425
672.738	0.0144669
672.816	0.0144170
672.894	0.0143880
672.972	0.0145274
673.050	0.0146391
673.128	0.0145701
673.206	0.0144153
673.285	0.0144114
673.363	0.0144491
673.441	0.0143821
673.519	0.0144254
673.597	0.0144798
673.675	0.0145308
673.753	0.0143365
673.831	0.0145827
673.910	0.0145786
673.988	0.0143977
674.066	0.0145175
674.144	0.0145206
674.222	0.0144953
674.300	0.0144235
674.378	0.0144983
674.456	0.0145368
674.535	0.0145103
674.613	0.0144503
674.691	0.0143391
674.769	0.0144819
674.847	0.0144900
674.925	0.0144817
675.003	0.0145673
675.081	0.0145056
675.160	0.0145753
675.238	0.0145775
675.316	0.0144176
675.394	0.0144128
675.472	0.0142534
675.550	0.0145551
675.628	0.0144080
675.706	0.0144824
675.785	0.0145419
675.863	0.0144457
675.941	0.0145737
676.019	0.0146198
676.097	0.0145793
676.175	0.0145281
676.253	0.0145045
676.331	0.0146337
676.410	0.0144681
676.488	0.0144482
676.566	0.0144056
676.644	0.0144195
676.722	0.0146084
676.800	0.0144781
676.878	0.0144604
676.956	0.0144668
677.035	0.0145483
677.113	0.0143952
677.191	0.0145349
677.269	0.0144778
677.347	0.0144672
677.425	0.0144135
677.503	0.0144858
677.581	0.0146141
677.660	0.0145488
677.738	0.0145610
677.816	0.0144152
677.894	0.0145272
677.972	0.0144935
678.050	0.0144814
678.128	0.0144834
678.206	0.0145208
678.285	0.0144242
678.363	0.0144889
678.441	0.0145462
678.519	0.0143864
678.597	0.0143774
678.675	0.0144665
678.753	0.0143746
678.831	0.0144767
678.910	0.0144843
678.988	0.0144170
679.066	0.0144615
679.144	0.0144918
679.222	0.0145785
679.300	0.0144112
679.378	0.0145865
679.456	0.0145434
679.535	0.0144753
679.613	0.0144702
679.691	0.0142918
679.769	0.0145753
679.847	0.0145566
679.925	0.0143853
680.003	0.0145877
680.081	0.0146008
680.160	0.0145792
680.238	0.0144194
680.316	0.0143394
680.394	0.0144672
680.472	0.0143510
680.550	0.0145470
680.628	0.0143943
680.706	0.0144245
680.785	0.0144006
680.863	0.0144711
680.941	0.0144913
681.019	0.0147110
681.097	0.0144881
681.175	0.0144688
681.253	0.0145177
681.331	0.0144473
681.410	0.0145103
681.488	0.0144906
681.566	0.0143562
681.644	0.0143951
681.722	0.0145770
681.800	0.0145734
681.878	0.0143246
681.956	0.0144592
682.035	0.0145118
682.113	0.0144627
682.191	0.0145222
682.269	0.0144757
682.347	0.0144695
682.425	0.0145402
682.503	0.0145058
682.581	0.0145602
682.660	0.0144223
682.738	0.0144328
682.816	0.0144537
682.894	0.0144710
682.972	0.0144434
683.050	0.0144429
683.128	0.0144692
683.206	0.0145365
683.285	0.0144505
683.363	0.0144273
683.441	0.0144061
683.519	0.0143798
683.597	0.0143960
683.675	0.0144551
683.753	0.0144579
683.831	0.0144012
683.910	0.0143188
683.988	0.0144711
684.066	0.0144640
684.144	0.0144759
684.222	0.0144431
684.300	0.0145134
684.378	0.0144317
684.456	0.0145317
684.535	0.0143635
684.613	0.0144975
684.691	0.0144563
684.769	0.0143889
684.847	0.0143945
684.925	0.0145116
685.003	0.0145832
685.081	0.0144550
685.160	0.0144499
685.238	0.0144684
685.316	0.0144035
685.394	0.0144616
685.472	0.0144681
685.550	0.0145464
685.628	0.0144682
685.706	0.0143787
685.785	0.0144724
685.863	0.0144512
685.941	0.0143510
686.019	0.0144016
686.097	0.0145058
686.175	0.0146154
686.253	0.0145047
686.331	0.0143831
686.410	0.0143946
686.488	0.0144945
686.566	0.0143944
686.644	0.0145109
686.722	0.0144379
686.800	0.0145197
686.878	0.0145293
686.956	0.0144503
687.035	0.0145541
687.113	0.0145708
687.191	0.0143126
687.269	0.0143604
687.347	0.0144479
687.425	0.0144315
687.503	0.0144623
687.581	0.0144673
687.660	0.0144974
687.738	0.0144374
687.816	0.0144667
687.894	0.0144420
687.972	0.0144382
688.050	0.0145999
688.128	0.0145325
688.206	0.0144933
688.285	0.0145800
688.363	0.0145356
688.441	0.0144981
688.519	0.0145390
688.597	0.0145058
688.675	0.0144695
688.753	0.0145856
688.831	0.0144185
688.910	0.0144833
688.988	0.0145829
689.066	0.0143837
689.144	0.0143777
689.222	0.0143913
689.300	0.0144365
689.378	0.0145825
689.456	0.0144495
689.535	0.0142890
689.613	0.0144595
689.691	0.0144952
689.769	0.0146069
689.847	0.0144562
689.925	0.0144151
690.003	0.0144514
690.081	0.0145702
690.160	0.0145709
690.238	0.0145152
690.316	0.0146011
690.394	0.0144600
690.472	0.0144485
690.550	0.0145403
690.628	0.0144869
690.706	0.0144234
690.785	0.0143516
690.863	0.0145657
690.941	0.0146584
691.019	0.0145868
691.097	0.0143738
691.175	0.0146215
691.253	0.0144974
691.331	0.0144263
691.410	0.0144029
691.488	0.0144587
691.566	0.0145970
691.644	0.0143706
691.722	0.0146027
691.800	0.0144904
691.878	0.0143521
691.956	0.0145464
692.035	0.0146063
692.113	0.0144211
692.191	0.0144263
692.269	0.0144151
692.347	0.0145381
692.425	0.0144078
692.503	0.0145003
692.581	0.0144248
692.660	0.0143740
692.738	0.0144237
692.816	0.0145007
692.894	0.0145086
692.972	0.0145470
693.050	0.0145785
693.128	0.0144947
693.206	0.0145753
693.285	0.0143407
693.363	0.0145090
693.441	0.0144572
693.519	0.0144697
693.597	0.0145203
693.675	0.0144600
693.753	0.0144331
693.831	0.0145322
693.910	0.0144898
693.988	0.0144823
694.066	0.0143457
694.144	0.0145599
694.222	0.0145847
694.300	0.0145210
694.378	0.0144783
694.456	0.0144080
694.535	0.0145412
694.613	0.0144289
694.691	0.0143392
694.769	0.0146607
694.847	0.0145052
694.925	0.0143716
695.003	0.0144386
695.081	0.0144460
695.160	0.0146616
695.238	0.0144832
695.316	0.0144118
695.394	0.0145351
695.472	0.0145193
695.550	0.0144823
695.628	0.0144833
695.706	0.0144067
695.785	0.0145850
695.863	0.0144901
695.941	0.0145023
696.019	0.0144768
696.097	0.0144467
696.175	0.0145093
696.253	0.0145380
696.331	0.0145601
696.410	0.0144772
696.488	0.0145046
696.566	0.0145704
696.644	0.0145052
696.722	0.0145087
696.800	0.0144922
696.878	0.0144719
696.956	0.0144968
697.035	0.0146043
697.113	0.0145126
697.191	0.0145697
697.269	0.0143981
697.347	0.0144624
697.425	0.0144788
697.503	0.0145275
697.581	0.0145570
697.660	0.0146282
697.738	0.0144987
697.816	0.0145480
697.894	0.0146318
697.972	0.0144466
698.050	0.0144382
698.128	0.0145705
698.206	0.0144370
698.285	0.0145078
698.363	0.0145177
698.441	0.0144443
698.519	0.0146223
698.597	0.0145934
698.675	0.0144253
698.753	0.0145836
698.831	0.0146701
698.910	0.0144406
698.988	0.0144885
699.066	0.0143905
699.144	0.0144218
699.222	0.0145018
699.300	0.0145602
699.378	0.0145051
699.456	0.0145216
699.535	0.0145911
699.613	0.0145111
699.691	0.0146050
699.769	0.0143928
699.847	0.0144524
699.925	0.0144705
700.003	0.0144398
700.081	0.0145127
700.160	0.0144480
700.238	0.0145150
700.316	0.0144065
700.394	0.0146022
700.472	0.0145287
700.550	0.0144098
700.628	0.0145093
700.706	0.0145261
700.785	0.0146198
700.863	0.0144559
700.941	0.0144245
701.019	0.0145126
701.097	0.0143809
701.175	0.0144430
701.253	0.0145324
701.331	0.0142630
701.410	0.0143066
701.488	0.0145135
701.566	0.0145988
701.644	0.0145226
701.722	0.0143433
701.800	0.0144141
701.878	0.0144833
701.956	0.0144476
702.035	0.0144729
702.113	0.0144863
702.191	0.0145557
702.269	0.0143372
702.347	0.0144753
702.425	0.0144336
702.503	0.0145866
702.581	0.0144935
702.660	0.0145046
702.738	0.0143851
702.816	0.0144184
702.894	0.0144373
702.972	0.0144991
703.050	0.0145093
703.128	0.0144132
703.206	0.0143645
703.285	0.0144951
703.363	0.0144193
703.441	0.0145617
703.519	0.0144439
703.597	0.0146184
703.675	0.0144133
703.753	0.0145866
703.831	0.0144709
703.910	0.0144796
703.988	0.0144923
704.066	0.0144838
704.144	0.0145895
704.222	0.0144257
704.300	0.0144742
704.378	0.0145057
704.456	0.0146024
704.535	0.0144534
704.613	0.0145218
704.691	0.0143939
704.769	0.0145199
704.847	0.0143259
704.925	0.0143536
705.003	0.0145242
705.081	0.0144856
705.160	0.0146755
705.238	0.0145185
705.316	0.0145019
705.394	0.0146593
705.472	0.0146557
705.550	0.0145757
705.628	0.0146693
705.706	0.0146378
705.785	0.0147224
705.863	0.0146301
705.941	0.0145895
706.019	0.0146291
706.097	0.0145114
706.175	0.0145591
706.253	0.0146160
706.331	0.0144287
706.410	0.0143737
706.488	0.0144122
706.566	0.0143642
706.644	0.0144293
706.722	0.0144802
706.800	0.0144395
706.878	0.0145127
706.956	0.0145351
707.035	0.0144410
707.113	0.0144832
707.191	0.0144236
707.269	0.0145542
707.347	0.0144359
707.425	0.0145711
707.503	0.0146473
707.581	0.0146753
707.660	0.0145891
707.738	0.0146742
707.816	0.0146876
707.894	0.0146340
707.972	0.0145336
708.050	0.0146725
708.128	0.0143890
708.206	0.0144632
708.285	0.0145128
708.363	0.0144432
708.441	0.0144504
708.519	0.0143438
708.597	0.0144035
708.675	0.0142190
708.753	0.0141089
708.831	0.0139155
708.910	0.0136721
708.988	0.0135173
709.066	0.0133855
709.144	0.0133438
709.222	0.0133564
709.300	0.0133129
709.378	0.0135142
709.456	0.0137434
709.535	0.0140778
709.613	0.0143284
709.691	0.0147108
709.769	0.0152019
709.847	0.0155853
709.925	0.0156406
710.003	0.0155311
710.081	0.0153047
710.160	0.0150246
710.238	0.0147408
710.316	0.0142623
710.394	0.0140070
710.472	0.0136387
710.550	0.0136565
710.628	0.0134766
710.706	0.0133627
710.785	0.0135031
710.863	0.0137283
710.941	0.0139898
711.019	0.0142751
711.097	0.0146700
711.175	0.0147704
711.253	0.0150713
711.331	0.0152641
711.410	0.0155219
711.488	0.0156966
711.566	0.0157552
711.644	0.0157692
711.722	0.0160426
711.800	0.0159084
711.878	0.0159975
711.956	0.0159929
712.035	0.0159482
712.113	0.0155740
712.191	0.0152484
712.269	0.0149225
712.347	0.0148302
712.425	0.0145518
712.503	0.0142459
712.581	0.0142966
712.660	0.0140691
712.738	0.0139777
712.816	0.0138569
712.894	0.0137395
712.972	0.0136667
713.050	0.0136818
713.128	0.0134962
713.206	0.0133980
713.285	0.0135801
713.363	0.0136231
713.441	0.0137952
713.519	0.0138866
713.597	0.0139999
713.675	0.0141830
713.753	0.0145704
713.831	0.0145567
713.910	0.0146379
713.988	0.0147962
714.066	0.0147649
714.144	0.0149171
714.222	0.0147895
714.300	0.0146900
714.378	0.0144878
714.456	0.0143077
714.535	0.0141725
714.613	0.0138847
714.691	0.0136694
714.769	0.0137271
714.847	0.0136352
714.925	0.0135110
715.003	0.0136088
715.081	0.0140163
715.160	0.0140242
715.238	0.0143185
715.316	0.0145705
715.394	0.0149394
715.472	0.0151302
715.550	0.0151619
715.628	0.0154945
715.706	0.0157884
715.785	0.0159721
715.863	0.0160870
715.941	0.0159933
716.019	0.0160076
716.097	0.0160014
716.175	0.0158575
716.253	0.0158031
716.331	0.0156157
716.410	0.0154331
716.488	0.0150404
716.566	0.0148306
716.644	0.0146629
716.722	0.0144903
716.800	0.0142677
716.878	0.0141141
716.956	0.0139299
717.035	0.0137758
717.113	0.0135120
717.191	0.0134541
717.269	0.0134821
717.347	0.0131408
717.425	0.0132394
717.503	0.0131902
717.581	0.0130911
717.660	0.0131381
717.738	0.0131022
717.816	0.0132047
717.894	0.0133282
717.972	0.0133768
718.050	0.0134564
718.128	0.0137717
718.206	0.0139624
718.285	0.0143396
718.363	0.0145637
718.441	0.0147575
718.519	0.0150932
718.597	0.0154302
718.675	0.0157238
718.753	0.0158481
718.831	0.0161351
718.910	0.0162865
718.988	0.0164762
719.066	0.0165942
719.144	0.0165735
719.222	0.0165666
719.300	0.0164671
719.378	0.0163873
719.456	0.0162224
719.535	0.0159946
719.613	0.0156626
719.691	0.0153429
719.769	0.0151135
719.847	0.0147453
719.925	0.0145718
720.003	0.0142442
720.081	0.0141093
720.160	0.0138216
720.238	0.0136059
720.316	0.0134985
720.394	0.0136041
720.472	0.0134978
720.550	0.0133010
720.628	0.0131437
720.706	0.0131803
720.785	0.0130943
720.863	0.0131943
720.941	0.0132660
721.019	0.0132152
721.097	0.0133569
721.175	0.0132709
721.253	0.0131907
721.331	0.0132538
721.410	0.0133804
721.488	0.0133618
721.566	0.0134583
721.644	0.0134204
721.722	0.0133971
721.800	0.0135105
721.878	0.0136349
721.956	0.0135559
722.035	0.0136937
722.113	0.0138143
722.191	0.0140957
722.269	0.0142056
722.347	0.0144727
722.425	0.0147722
722.503	0.0150305
722.581	0.0150787
722.660	0.0153928
722.738	0.0156631
722.816	0.0157561
722.894	0.0160460
722.972	0.0160410
723.050	0.0161842
723.128	0.0161139
723.206	0.0160478
723.285	0.0161505
723.363	0.0161359
723.441	0.0161452
723.519	0.0160109
723.597	0.0158776
723.675	0.0158692
723.753	0.0155745
723.831	0.0156155
723.910	0.0155132
723.988	0.0153419
724.066	0.0153603
724.144	0.0155134
724.222	0.0152353
724.300	0.0149347
724.378	0.0147317
724.456	0.0144987
724.535	0.0145589
724.613	0.0144862
724.691	0.0142031
724.769	0.0141027
724.847	0.0140604
724.925	0.0137794
725.003	0.0138055
725.081	0.0138375
725.160	0.0135484
725.238	0.0135596
725.316	0.0134461
725.394	0.0132616
725.472	0.0133161
725.550	0.0133103
725.628	0.0131878
725.706	0.0131573
725.785	0.0130661
725.863	0.0130898
725.941	0.0130387
726.019	0.0130722
726.097	0.0132472
726.175	0.0132076
726.253	0.0131773
726.331	0.0132914
726.410	0.0133892
726.488	0.0135141
726.566	0.0134814
726.644	0.0137703
726.722	0.0138667
726.800	0.0140900
726.878	0.0141411
726.956	0.0141481
727.035	0.0142670
727.113	0.0144370
727.191	0.0146038
727.269	0.0146814
727.347	0.0149313
727.425	0.0151510
727.503	0.0152427
727.581	0.0154500
727.660	0.0156283
727.738	0.0158411
727.816	0.0158602
727.894	0.0159172
727.972	0.0161497
728.050	0.0161703
728.128	0.0161112
728.206	0.0160419
728.285	0.0161189
728.363	0.0161267
728.441	0.0160556
728.519	0.0160045
728.597	0.0160023
728.675	0.0160085
728.753	0.0159394
728.831	0.0158247
728.910	0.0155410
728.988	0.0154269
729.066	0.0153162
729.144	0.0151936
729.222	0.0149046
729.300	0.0148796
729.378	0.0147355
729.456	0.0146078
729.535	0.0144745
729.613	0.0143089
729.691	0.0143010
729.769	0.0142101
729.847	0.0140155
729.925	0.0138812
730.003	0.0138379
730.081	0.0136448
730.160	0.0136433
730.238	0.0136951
730.316	0.0134783
730.394	0.0133315
730.472	0.0134033
730.550	0.0131884
730.628	0.0130670
730.706	0.0130564
730.785	0.0129221
730.863	0.0129288
730.941	0.0130234
731.019	0.0129018
731.097	0.0130804
731.175	0.0131075
731.253	0.0129311
731.331	0.0131435
731.410	0.0131979
731.488	0.0133154
731.566	0.0133408
731.644	0.0136052
731.722	0.0135721
731.800	0.0136462
731.878	0.0139245
731.956	0.0141274
732.035	0.0141290
732.113	0.0142851
732.191	0.0143994
732.269	0.0144377
732.347	0.0144531
732.425	0.0146247
732.503	0.0146394
732.581	0.0149119
732.660	0.0150069
732.738	0.0151547
732.816	0.0153158
732.894	0.0152773
732.972	0.0154105
733.050	0.0153043
733.128	0.0153957
733.206	0.0156486
733.285	0.0156917
733.363	0.0155750
733.441	0.0157011
733.519	0.0158031
733.597	0.0157262
733.675	0.0157278
733.753	0.0158646
733.831	0.0158459
733.910	0.0159853
733.988	0.0160901
734.066	0.0160275
734.144	0.0159092
734.222	0.0158246
734.300	0.0158679
734.378	0.0158108
734.456	0.0156456
734.535	0.0154387
734.613	0.0154238
734.691	0.0152438
734.769	0.0150311
734.847	0.0148185
734.925	0.0145342
735.003	0.0144667
735.081	0.0143623
735.160	0.0141959
735.238	0.0142208
735.316	0.0140993
735.394	0.0140325
735.472	0.0139096
735.550	0.0138760
735.628	0.0139151
735.706	0.0138662
735.785	0.0138475
735.863	0.0137376
735.941	0.0136993
736.019	0.0137361
736.097	0.0136359
736.175	0.0137727
736.253	0.0135759
736.331	0.0134951
736.410	0.0134282
736.488	0.0133039
736.566	0.0135211
736.644	0.0134973
736.722	0.0133658
736.800	0.0133879
736.878	0.0133496
736.956	0.0133957
737.035	0.0134531
737.113	0.0135404
737.191	0.0135970
737.269	0.0136409
737.347	0.0135629
737.425	0.0137058
737.503	0.0139297
737.581	0.0139248
737.660	0.0139648
737.738	0.0141885
737.816	0.0143365
737.894	0.0143423
737.972	0.0144762
738.050	0.0145675
738.128	0.0147272
738.206	0.0147357
738.285	0.0149219
738.363	0.0149053
738.441	0.0150730
738.519	0.0151965
738.597	0.0152626
738.675	0.0151324
738.753	0.0153082
738.831	0.0154608
738.910	0.0154442
738.988	0.0154337
739.066	0.0154603
739.144	0.0154276
739.222	0.0155604
739.300	0.0155439
739.378	0.0154960
739.456	0.0155733
739.535	0.0155741
739.613	0.0154075
739.691	0.0154934
739.769	0.0156617
739.847	0.0152844
739.925	0.0153446
740.003	0.0153799
740.081	0.0153083
740.160	0.0152261
740.238	0.0151725
740.316	0.0151166
740.394	0.0149493
740.472	0.0148270
740.550	0.0147374
740.628	0.0147327
740.706	0.0146406
740.785	0.0147357
740.863	0.0146835
740.941	0.0144707
741.019	0.0143227
741.097	0.0142848
741.175	0.0141835
741.253	0.0143245
741.331	0.0142987
741.410	0.0141871
741.488	0.0141685
741.566	0.0141010
741.644	0.0141390
741.722	0.0140186
741.800	0.0140443
741.878	0.0139694
741.956	0.0140263
742.035	0.0140256
742.113	0.0137815
742.191	0.0137941
742.269	0.0137424
742.347	0.0136998
742.425	0.0137029
742.503	0.0136221
742.581	0.0135400
742.660	0.0135201
742.738	0.0135407
742.816	0.0134688
742.894	0.0135010
742.972	0.0134850
743.050	0.0134887
743.128	0.0135181
743.206	0.0135879
743.285	0.0137395
743.363	0.0138220
743.441	0.0137422
743.519	0.0139739
743.597	0.0139365
743.675	0.0140186
743.753	0.0140235
743.831	0.0141125
743.910	0.0141775
743.988	0.0142868
744.066	0.0143251
744.144	0.0143924
744.222	0.0144053
744.300	0.0144838
744.378	0.0144479
744.456	0.0144231
744.535	0.0146586
744.613	0.0147520
744.691	0.0146737
744.769	0.0149000
744.847	0.0147396
744.925	0.0149117
745.003	0.0150358
745.081	0.0150566
745.160	0.0150892
745.238	0.0150943
745.316	0.0151325
745.394	0.0151288
745.472	0.0152386
745.550	0.0152099
745.628	0.0152059
745.706	0.0153004
