05/03/2022	20:25:52	Ver.	4.1	UNKNOWN
Optical Delay	660.003261	Delta X		0.078125	Sweeps	1	Scan Rate	0/0
Coordinates	Axis 1	NaN	Axis 2	NaN	Axis 3	NaN	Axis 4	NaN	Axis 5	NaN	Axis 6	0.000000
TX Power	0.000000	RX Power	0.000000

660.003	0.0144245
660.081	0.0143995
660.160	0.0142440
660.238	0.0143570
660.316	0.0143829
660.394	0.0143192
660.472	0.0143834
660.550	0.0143960
660.628	0.0143624
660.706	0.0143016
660.785	0.0143832
660.863	0.0144910
660.941	0.0143741
661.019	0.0144076
661.097	0.0144787
661.175	0.0142261
661.253	0.0143703
661.331	0.0144727
661.410	0.0144092
661.488	0.0143021
661.566	0.0143613
661.644	0.0144668
661.722	0.0144395
661.800	0.0142667
661.878	0.0144512
661.956	0.0144347
662.035	0.0144432
662.113	0.0145373
662.191	0.0143705
662.269	0.0143545
662.347	0.0143639
662.425	0.0144098
662.503	0.0144501
662.581	0.0143380
662.660	0.0143591
662.738	0.0145976
662.816	0.0145355
662.894	0.0144450
662.972	0.0143444
663.050	0.0144592
663.128	0.0145128
663.206	0.0143827
663.285	0.0144276
663.363	0.0144790
663.441	0.0144110
663.519	0.0143939
663.597	0.0143133
663.675	0.0144547
663.753	0.0144836
663.831	0.0144742
663.910	0.0144393
663.988	0.0144093
664.066	0.0144308
664.144	0.0143560
664.222	0.0145078
664.300	0.0145180
664.378	0.0145098
664.456	0.0146252
664.535	0.0144246
664.613	0.0143475
664.691	0.0143638
664.769	0.0142996
664.847	0.0145074
664.925	0.0144457
665.003	0.0144301
665.081	0.0145017
665.160	0.0145486
665.238	0.0145466
665.316	0.0143561
665.394	0.0144637
665.472	0.0144095
665.550	0.0145579
665.628	0.0144358
665.706	0.0144919
665.785	0.0144035
665.863	0.0144193
665.941	0.0144169
666.019	0.0145479
666.097	0.0143609
666.175	0.0144403
666.253	0.0145445
666.331	0.0143977
666.410	0.0144012
666.488	0.0143761
666.566	0.0144255
666.644	0.0144459
666.722	0.0144074
666.800	0.0145392
666.878	0.0145836
666.956	0.0144962
667.035	0.0142875
667.113	0.0145544
667.191	0.0145019
667.269	0.0143006
667.347	0.0144434
667.425	0.0145315
667.503	0.0143987
667.581	0.0144126
667.660	0.0143924
667.738	0.0144685
667.816	0.0144257
667.894	0.0144828
667.972	0.0144846
668.050	0.0144431
668.128	0.0144271
668.206	0.0143394
668.285	0.0145364
668.363	0.0145493
668.441	0.0144067
668.519	0.0143903
668.597	0.0144389
668.675	0.0143304
668.753	0.0143456
668.831	0.0143826
668.910	0.0144193
668.988	0.0145533
669.066	0.0143892
669.144	0.0144006
669.222	0.0144382
669.300	0.0143079
669.378	0.0143967
669.456	0.0143770
669.535	0.0143716
669.613	0.0144814
669.691	0.0144254
669.769	0.0143502
669.847	0.0144577
669.925	0.0144245
670.003	0.0143272
670.081	0.0143869
670.160	0.0145353
670.238	0.0144324
670.316	0.0143192
670.394	0.0142856
670.472	0.0143038
670.550	0.0143320
670.628	0.0144307
670.706	0.0144835
670.785	0.0144083
670.863	0.0143448
670.941	0.0143842
671.019	0.0142954
671.097	0.0143640
671.175	0.0145364
671.253	0.0144205
671.331	0.0143922
671.410	0.0144535
671.488	0.0143456
671.566	0.0143098
671.644	0.0144530
671.722	0.0144438
671.800	0.0143362
671.878	0.0143876
671.956	0.0144513
672.035	0.0144687
672.113	0.0144628
672.191	0.0144064
672.269	0.0144371
672.347	0.0144270
672.425	0.0145211
672.503	0.0143493
672.581	0.0144708
672.660	0.0145793
672.738	0.0145241
672.816	0.0144708
672.894	0.0144493
672.972	0.0144122
673.050	0.0145040
673.128	0.0145151
673.206	0.0143957
673.285	0.0145306
673.363	0.0144225
673.441	0.0144769
673.519	0.0144435
673.597	0.0146081
673.675	0.0144249
673.753	0.0142702
673.831	0.0144794
673.910	0.0144583
673.988	0.0143842
674.066	0.0143658
674.144	0.0144774
674.222	0.0144740
674.300	0.0144802
674.378	0.0143239
674.456	0.0144067
674.535	0.0144807
674.613	0.0145741
674.691	0.0144764
674.769	0.0144909
674.847	0.0144031
674.925	0.0144400
675.003	0.0145076
675.081	0.0143818
675.160	0.0142832
675.238	0.0144322
675.316	0.0144661
675.394	0.0144213
675.472	0.0143999
675.550	0.0146223
675.628	0.0145019
675.706	0.0144743
675.785	0.0145330
675.863	0.0143801
675.941	0.0145308
676.019	0.0144009
676.097	0.0145052
676.175	0.0145275
676.253	0.0144508
676.331	0.0144540
676.410	0.0145299
676.488	0.0144257
676.566	0.0144981
676.644	0.0144814
676.722	0.0144781
676.800	0.0144752
676.878	0.0145277
676.956	0.0144427
677.035	0.0145945
677.113	0.0145148
677.191	0.0145332
677.269	0.0145189
677.347	0.0143807
677.425	0.0143987
677.503	0.0145773
677.581	0.0143692
677.660	0.0145216
677.738	0.0145187
677.816	0.0144280
677.894	0.0145559
677.972	0.0146168
678.050	0.0144402
678.128	0.0144654
678.206	0.0144744
678.285	0.0145905
678.363	0.0145818
678.441	0.0144313
678.519	0.0143513
678.597	0.0145892
678.675	0.0146017
678.753	0.0144112
678.831	0.0143739
678.910	0.0145541
678.988	0.0145619
679.066	0.0143680
679.144	0.0145671
679.222	0.0144640
679.300	0.0145965
679.378	0.0145667
679.456	0.0143864
679.535	0.0144231
679.613	0.0143392
679.691	0.0145197
679.769	0.0144453
679.847	0.0144543
679.925	0.0144667
680.003	0.0145419
680.081	0.0144382
680.160	0.0144798
680.238	0.0143815
680.316	0.0144475
680.394	0.0144739
680.472	0.0144243
680.550	0.0145097
680.628	0.0143782
680.706	0.0144379
680.785	0.0144721
680.863	0.0144930
680.941	0.0143549
681.019	0.0143903
681.097	0.0143788
681.175	0.0144032
681.253	0.0144408
681.331	0.0144322
681.410	0.0145380
681.488	0.0144065
681.566	0.0144808
681.644	0.0143923
681.722	0.0143986
681.800	0.0144598
681.878	0.0144334
681.956	0.0144650
682.035	0.0144023
682.113	0.0143762
682.191	0.0144484
682.269	0.0145039
682.347	0.0143983
682.425	0.0144810
682.503	0.0143309
682.581	0.0142777
682.660	0.0144052
682.738	0.0144336
682.816	0.0144962
682.894	0.0143497
682.972	0.0143920
683.050	0.0143587
683.128	0.0144335
683.206	0.0144383
683.285	0.0144930
683.363	0.0144500
683.441	0.0145396
683.519	0.0144731
683.597	0.0143551
683.675	0.0144112
683.753	0.0144597
683.831	0.0143703
683.910	0.0144060
683.988	0.0143922
684.066	0.0144376
684.144	0.0143808
684.222	0.0144659
684.300	0.0145385
684.378	0.0143648
684.456	0.0143866
684.535	0.0144017
684.613	0.0144617
684.691	0.0144743
684.769	0.0144376
684.847	0.0143818
684.925	0.0143991
685.003	0.0143481
685.081	0.0145248
685.160	0.0144448
685.238	0.0144697
685.316	0.0143597
685.394	0.0143813
685.472	0.0143710
685.550	0.0143239
685.628	0.0144927
685.706	0.0144524
685.785	0.0142942
685.863	0.0143478
685.941	0.0144047
686.019	0.0144856
686.097	0.0143604
686.175	0.0144257
686.253	0.0145110
686.331	0.0145159
686.410	0.0144832
686.488	0.0144820
686.566	0.0143343
686.644	0.0144930
686.722	0.0144489
686.800	0.0144867
686.878	0.0143560
686.956	0.0144753
687.035	0.0143962
687.113	0.0144064
687.191	0.0144151
687.269	0.0144543
687.347	0.0145327
687.425	0.0145072
687.503	0.0143518
687.581	0.0143341
687.660	0.0144224
687.738	0.0144131
687.816	0.0143985
687.894	0.0143163
687.972	0.0145615
688.050	0.0144232
688.128	0.0144263
688.206	0.0144551
688.285	0.0143650
688.363	0.0144455
688.441	0.0143692
688.519	0.0143966
688.597	0.0144241
688.675	0.0143929
688.753	0.0144482
688.831	0.0145718
688.910	0.0144884
688.988	0.0144453
689.066	0.0144424
689.144	0.0143259
689.222	0.0144592
689.300	0.0144257
689.378	0.0143862
689.456	0.0145110
689.535	0.0144447
689.613	0.0145213
689.691	0.0144168
689.769	0.0142995
689.847	0.0144616
689.925	0.0143706
690.003	0.0144780
690.081	0.0143852
690.160	0.0145079
690.238	0.0144179
690.316	0.0144703
690.394	0.0143697
690.472	0.0144112
690.550	0.0145100
690.628	0.0146172
690.706	0.0142435
690.785	0.0143193
690.863	0.0145020
690.941	0.0144292
691.019	0.0145111
691.097	0.0143350
691.175	0.0143752
691.253	0.0144297
691.331	0.0144254
691.410	0.0143919
691.488	0.0143916
691.566	0.0144527
691.644	0.0145912
691.722	0.0143181
691.800	0.0142916
691.878	0.0144198
691.956	0.0144356
692.035	0.0144544
692.113	0.0144859
692.191	0.0144765
692.269	0.0145737
692.347	0.0145185
692.425	0.0145344
692.503	0.0144019
692.581	0.0144941
692.660	0.0145373
692.738	0.0147520
692.816	0.0144746
692.894	0.0144655
692.972	0.0145528
693.050	0.0144721
693.128	0.0144211
693.206	0.0143134
693.285	0.0142803
693.363	0.0142966
693.441	0.0143083
693.519	0.0143048
693.597	0.0142203
693.675	0.0142895
693.753	0.0142822
693.831	0.0140714
693.910	0.0143066
693.988	0.0143343
694.066	0.0142965
694.144	0.0143152
694.222	0.0144765
694.300	0.0144088
694.378	0.0146510
694.456	0.0146684
694.535	0.0147319
694.613	0.0148093
694.691	0.0147336
694.769	0.0147580
694.847	0.0147324
694.925	0.0147421
695.003	0.0147262
695.081	0.0147295
695.160	0.0145055
695.238	0.0144422
695.316	0.0145094
695.394	0.0144052
695.472	0.0141388
695.550	0.0141748
695.628	0.0140804
695.706	0.0139618
695.785	0.0140329
695.863	0.0139340
695.941	0.0139071
696.019	0.0139169
696.097	0.0139893
696.175	0.0139735
696.253	0.0140230
696.331	0.0141041
696.410	0.0142210
696.488	0.0143089
696.566	0.0143328
696.644	0.0143727
696.722	0.0144469
696.800	0.0145918
696.878	0.0146924
696.956	0.0146868
697.035	0.0146777
697.113	0.0146559
697.191	0.0149001
697.269	0.0149355
697.347	0.0147913
697.425	0.0149384
697.503	0.0151205
697.581	0.0152028
697.660	0.0152669
697.738	0.0153549
697.816	0.0153128
697.894	0.0152308
697.972	0.0152268
698.050	0.0151284
698.128	0.0148820
698.206	0.0146050
698.285	0.0143931
698.363	0.0144608
698.441	0.0142241
698.519	0.0140143
698.597	0.0136069
698.675	0.0136754
698.753	0.0135852
698.831	0.0133975
698.910	0.0133578
698.988	0.0132349
699.066	0.0131649
699.144	0.0132837
699.222	0.0132800
699.300	0.0134067
699.378	0.0134559
699.456	0.0135727
699.535	0.0137117
699.613	0.0138589
699.691	0.0140903
699.769	0.0142268
699.847	0.0144458
699.925	0.0145784
700.003	0.0146608
700.081	0.0147532
700.160	0.0148200
700.238	0.0148219
700.316	0.0147200
700.394	0.0149230
700.472	0.0148783
700.550	0.0149401
700.628	0.0148446
700.706	0.0150829
700.785	0.0151071
700.863	0.0151678
700.941	0.0151799
701.019	0.0155354
701.097	0.0155061
701.175	0.0154922
701.253	0.0157452
701.331	0.0158323
701.410	0.0158960
701.488	0.0158644
701.566	0.0158900
701.644	0.0157494
701.722	0.0156300
701.800	0.0154417
701.878	0.0150772
701.956	0.0146717
702.035	0.0141715
702.113	0.0138029
702.191	0.0133826
702.269	0.0130505
702.347	0.0128268
702.425	0.0127482
702.503	0.0127124
702.581	0.0126892
702.660	0.0127909
702.738	0.0129652
702.816	0.0132670
702.894	0.0135368
702.972	0.0135622
703.050	0.0136349
703.128	0.0139441
703.206	0.0138377
703.285	0.0138006
703.363	0.0139677
703.441	0.0140274
703.519	0.0140826
703.597	0.0141453
703.675	0.0142194
703.753	0.0142027
703.831	0.0142094
703.910	0.0142915
703.988	0.0144054
704.066	0.0143141
704.144	0.0142953
704.222	0.0142619
704.300	0.0143485
704.378	0.0144073
704.456	0.0144996
704.535	0.0144164
704.613	0.0146720
704.691	0.0147089
704.769	0.0149197
704.847	0.0149693
704.925	0.0152116
705.003	0.0152811
705.081	0.0154122
705.160	0.0155824
705.238	0.0157317
705.316	0.0158897
705.394	0.0160382
705.472	0.0161069
705.550	0.0161205
705.628	0.0164216
705.706	0.0164306
705.785	0.0164481
705.863	0.0164526
705.941	0.0163625
706.019	0.0162347
706.097	0.0159033
706.175	0.0154731
706.253	0.0150774
706.331	0.0145326
706.410	0.0143488
706.488	0.0139740
706.566	0.0134328
706.644	0.0129765
706.722	0.0126081
706.800	0.0122005
706.878	0.0121331
706.956	0.0122638
707.035	0.0121442
707.113	0.0121477
707.191	0.0122500
707.269	0.0122715
707.347	0.0124958
707.425	0.0126704
707.503	0.0128634
707.581	0.0130692
707.660	0.0131996
707.738	0.0132272
707.816	0.0134568
707.894	0.0135414
707.972	0.0136594
708.050	0.0138520
708.128	0.0142402
708.206	0.0145941
708.285	0.0146899
708.363	0.0149493
708.441	0.0150677
708.519	0.0152145
708.597	0.0152383
708.675	0.0153032
708.753	0.0151775
708.831	0.0151117
708.910	0.0148837
708.988	0.0147342
709.066	0.0145316
709.144	0.0144815
709.222	0.0144490
709.300	0.0143259
709.378	0.0143242
709.456	0.0144638
709.535	0.0145937
709.613	0.0145743
709.691	0.0146640
709.769	0.0148489
709.847	0.0153394
709.925	0.0157662
710.003	0.0160958
710.081	0.0163277
710.160	0.0167182
710.238	0.0170208
710.316	0.0172968
710.394	0.0174570
710.472	0.0173015
710.550	0.0172060
710.628	0.0168652
710.706	0.0165414
710.785	0.0161584
710.863	0.0154750
710.941	0.0149238
711.019	0.0144633
711.097	0.0139278
711.175	0.0134394
711.253	0.0130171
711.331	0.0126372
711.410	0.0123837
711.488	0.0120659
711.566	0.0121887
711.644	0.0118752
711.722	0.0119126
711.800	0.0120690
711.878	0.0120558
711.956	0.0122197
712.035	0.0123097
712.113	0.0124611
712.191	0.0127029
712.269	0.0128104
712.347	0.0129898
712.425	0.0132169
712.503	0.0133000
712.581	0.0132623
712.660	0.0133656
712.738	0.0136926
712.816	0.0136961
712.894	0.0139060
712.972	0.0142462
713.050	0.0143391
713.128	0.0143791
713.206	0.0145797
713.285	0.0148759
713.363	0.0149641
713.441	0.0149305
713.519	0.0150282
713.597	0.0149476
713.675	0.0147698
713.753	0.0147818
713.831	0.0146868
713.910	0.0147433
713.988	0.0144447
714.066	0.0147240
714.144	0.0147610
714.222	0.0146147
714.300	0.0148862
714.378	0.0151262
714.456	0.0153675
714.535	0.0155708
714.613	0.0158350
714.691	0.0161399
714.769	0.0164379
714.847	0.0166651
714.925	0.0167663
715.003	0.0169662
715.081	0.0168302
715.160	0.0167307
715.238	0.0165726
715.316	0.0164668
715.394	0.0162392
715.472	0.0159380
715.550	0.0156828
715.628	0.0154697
715.706	0.0151050
715.785	0.0147198
715.863	0.0144821
715.941	0.0142867
716.019	0.0140314
716.097	0.0136543
716.175	0.0134258
716.253	0.0131664
716.331	0.0128527
716.410	0.0127277
716.488	0.0125414
716.566	0.0123447
716.644	0.0121403
716.722	0.0120570
716.800	0.0121046
716.878	0.0122076
716.956	0.0122511
717.035	0.0123654
717.113	0.0124197
717.191	0.0126495
717.269	0.0126742
717.347	0.0129423
717.425	0.0132283
717.503	0.0134265
717.581	0.0135900
717.660	0.0139346
717.738	0.0141292
717.816	0.0143232
717.894	0.0144270
717.972	0.0144215
718.050	0.0147176
718.128	0.0146696
718.206	0.0144510
718.285	0.0143647
718.363	0.0143189
718.441	0.0142821
718.519	0.0143013
718.597	0.0143407
718.675	0.0142258
718.753	0.0144774
718.831	0.0145900
718.910	0.0143340
718.988	0.0147871
719.066	0.0150587
719.144	0.0152457
719.222	0.0154965
719.300	0.0156977
719.378	0.0158945
719.456	0.0161256
719.535	0.0163627
719.613	0.0165641
719.691	0.0166858
719.769	0.0167000
719.847	0.0169589
719.925	0.0167020
720.003	0.0166752
720.081	0.0167305
720.160	0.0164552
720.238	0.0163006
720.316	0.0160572
720.394	0.0158558
720.472	0.0156608
720.550	0.0152087
720.628	0.0149493
720.706	0.0147726
720.785	0.0145251
720.863	0.0142486
720.941	0.0140297
721.019	0.0137251
721.097	0.0135866
721.175	0.0133630
721.253	0.0130435
721.331	0.0130161
721.410	0.0127641
721.488	0.0125719
721.566	0.0124564
721.644	0.0122354
721.722	0.0123418
721.800	0.0124297
721.878	0.0123944
721.956	0.0124771
722.035	0.0128328
722.113	0.0129748
722.191	0.0129574
722.269	0.0133080
722.347	0.0134493
722.425	0.0135007
722.503	0.0135504
722.581	0.0138169
722.660	0.0139840
722.738	0.0138371
722.816	0.0138544
722.894	0.0139123
722.972	0.0138544
723.050	0.0137537
723.128	0.0138686
723.206	0.0139444
723.285	0.0138136
723.363	0.0138192
723.441	0.0140611
723.519	0.0141953
723.597	0.0143655
723.675	0.0144584
723.753	0.0146251
723.831	0.0148442
723.910	0.0150065
723.988	0.0153430
724.066	0.0155079
724.144	0.0154834
724.222	0.0158581
724.300	0.0162065
724.378	0.0162373
724.456	0.0163684
724.535	0.0166966
724.613	0.0167781
724.691	0.0168109
724.769	0.0167595
724.847	0.0168345
724.925	0.0167287
725.003	0.0166329
725.081	0.0163613
725.160	0.0163748
725.238	0.0162173
725.316	0.0158949
725.394	0.0157240
725.472	0.0153462
725.550	0.0153558
725.628	0.0149950
725.706	0.0146999
725.785	0.0145176
725.863	0.0142786
725.941	0.0141143
726.019	0.0138246
726.097	0.0137543
726.175	0.0136284
726.253	0.0135826
726.331	0.0133434
726.410	0.0130149
726.488	0.0129865
726.566	0.0128262
726.644	0.0127602
726.722	0.0124550
726.800	0.0123927
726.878	0.0126212
726.956	0.0124989
727.035	0.0125428
727.113	0.0126053
727.191	0.0128094
727.269	0.0126933
727.347	0.0129026
727.425	0.0130902
727.503	0.0131357
727.581	0.0131888
727.660	0.0134234
727.738	0.0136134
727.816	0.0135059
727.894	0.0136536
727.972	0.0137199
728.050	0.0138246
728.128	0.0138665
728.206	0.0139315
728.285	0.0139092
728.363	0.0141199
728.441	0.0141848
728.519	0.0142197
728.597	0.0144249
728.675	0.0144070
728.753	0.0145531
728.831	0.0147328
728.910	0.0148951
728.988	0.0150539
729.066	0.0152023
729.144	0.0153744
729.222	0.0156512
729.300	0.0158772
729.378	0.0161201
729.456	0.0162576
729.535	0.0163320
729.613	0.0166042
729.691	0.0167164
729.769	0.0166212
729.847	0.0166813
729.925	0.0166627
730.003	0.0164696
730.081	0.0165411
730.160	0.0164072
730.238	0.0161683
730.316	0.0161203
730.394	0.0159282
730.472	0.0159042
730.550	0.0156146
730.628	0.0154034
730.706	0.0152889
730.785	0.0151730
730.863	0.0150464
730.941	0.0149563
731.019	0.0146284
731.097	0.0147327
731.175	0.0144949
731.253	0.0143461
731.331	0.0141595
731.410	0.0138899
731.488	0.0137633
731.566	0.0135339
731.644	0.0134936
731.722	0.0132984
731.800	0.0130044
731.878	0.0130286
731.956	0.0128967
732.035	0.0126762
732.113	0.0126600
732.191	0.0126186
732.269	0.0125061
732.347	0.0123505
732.425	0.0123226
732.503	0.0123763
732.581	0.0124368
732.660	0.0124190
732.738	0.0125261
732.816	0.0125387
732.894	0.0125493
732.972	0.0128212
733.050	0.0130652
733.128	0.0131703
733.206	0.0133498
733.285	0.0135080
733.363	0.0136937
733.441	0.0137363
733.519	0.0138728
733.597	0.0140430
733.675	0.0140955
733.753	0.0142931
733.831	0.0144689
733.910	0.0144099
733.988	0.0145249
734.066	0.0146822
734.144	0.0149432
734.222	0.0150428
734.300	0.0151483
734.378	0.0153378
734.456	0.0155227
734.535	0.0155066
734.613	0.0158482
734.691	0.0159373
734.769	0.0161434
734.847	0.0163210
734.925	0.0162943
735.003	0.0164332
735.081	0.0165095
735.160	0.0165946
735.238	0.0166348
735.316	0.0168631
735.394	0.0167530
735.472	0.0167157
735.550	0.0167336
735.628	0.0165748
735.706	0.0165659
735.785	0.0164081
735.863	0.0161712
735.941	0.0160574
736.019	0.0160849
736.097	0.0158534
736.175	0.0157333
736.253	0.0157445
736.331	0.0154918
736.410	0.0154366
736.488	0.0152491
736.566	0.0151482
736.644	0.0147935
736.722	0.0148177
736.800	0.0145313
736.878	0.0142368
736.956	0.0139768
737.035	0.0135715
737.113	0.0132131
737.191	0.0128423
737.269	0.0126933
737.347	0.0124666
737.425	0.0122212
737.503	0.0118854
737.581	0.0117567
737.660	0.0115347
737.738	0.0115596
737.816	0.0116811
737.894	0.0114168
737.972	0.0115913
738.050	0.0116539
738.128	0.0118671
738.206	0.0120406
738.285	0.0122926
738.363	0.0123790
738.441	0.0124236
738.519	0.0127626
738.597	0.0128545
738.675	0.0130998
738.753	0.0131043
738.831	0.0132822
738.910	0.0136426
738.988	0.0136090
739.066	0.0135354
739.144	0.0138400
739.222	0.0137508
739.300	0.0139783
739.378	0.0142950
739.456	0.0142808
739.535	0.0143578
739.613	0.0146590
739.691	0.0150998
739.769	0.0151244
739.847	0.0152723
739.925	0.0156666
740.003	0.0159116
740.081	0.0161417
740.160	0.0163178
740.238	0.0164474
740.316	0.0166708
740.394	0.0168699
740.472	0.0169846
740.550	0.0170232
740.628	0.0171797
740.706	0.0172140
740.785	0.0171432
740.863	0.0170741
740.941	0.0170083
741.019	0.0168935
741.097	0.0169444
741.175	0.0168582
741.253	0.0166766
741.331	0.0167844
741.410	0.0164613
741.488	0.0164173
741.566	0.0164485
741.644	0.0162997
741.722	0.0160806
741.800	0.0159380
741.878	0.0155718
741.956	0.0154353
742.035	0.0151929
742.113	0.0149288
742.191	0.0146795
742.269	0.0144741
742.347	0.0140073
742.425	0.0138995
742.503	0.0134810
742.581	0.0130013
742.660	0.0128487
742.738	0.0127985
742.816	0.0125424
742.894	0.0121525
742.972	0.0119373
743.050	0.0119185
743.128	0.0118732
743.206	0.0116608
743.285	0.0116631
743.363	0.0116702
743.441	0.0117719
743.519	0.0117564
743.597	0.0117755
743.675	0.0119713
743.753	0.0120669
743.831	0.0121357
743.910	0.0122794
743.988	0.0125632
744.066	0.0127308
744.144	0.0128604
744.222	0.0129826
744.300	0.0131507
744.378	0.0133780
744.456	0.0133621
744.535	0.0135161
744.613	0.0136243
744.691	0.0136922
744.769	0.0139816
744.847	0.0139595
744.925	0.0140465
745.003	0.0141683
745.081	0.0144736
745.160	0.0146101
745.238	0.0147623
745.316	0.0149709
745.394	0.0149595
745.472	0.0151953
745.550	0.0154403
745.628	0.0156950
745.706	0.0158152
