05/03/2022	20:26:22	Ver.	4.1	UNKNOWN
Optical Delay	660.003261	Delta X		0.078125	Sweeps	1	Scan Rate	0/0
Coordinates	Axis 1	NaN	Axis 2	NaN	Axis 3	NaN	Axis 4	NaN	Axis 5	NaN	Axis 6	0.000000
TX Power	0.000000	RX Power	0.000000

660.003	0.0142866
660.081	0.0143744
660.160	0.0143073
660.238	0.0143058
660.316	0.0143170
660.394	0.0142869
660.472	0.0143195
660.550	0.0143254
660.628	0.0143951
660.706	0.0144881
660.785	0.0143219
660.863	0.0142912
660.941	0.0143699
661.019	0.0144225
661.097	0.0143617
661.175	0.0143588
661.253	0.0143703
661.331	0.0143278
661.410	0.0143712
661.488	0.0144669
661.566	0.0143997
661.644	0.0143470
661.722	0.0145605
661.800	0.0143703
661.878	0.0144019
661.956	0.0144084
662.035	0.0143690
662.113	0.0143766
662.191	0.0143598
662.269	0.0143531
662.347	0.0144035
662.425	0.0143612
662.503	0.0144099
662.581	0.0144122
662.660	0.0142985
662.738	0.0143043
662.816	0.0141757
662.894	0.0142634
662.972	0.0143779
663.050	0.0142832
663.128	0.0144946
663.206	0.0144347
663.285	0.0143983
663.363	0.0143129
663.441	0.0143974
663.519	0.0141996
663.597	0.0143483
663.675	0.0143866
663.753	0.0143315
663.831	0.0141973
663.910	0.0143259
663.988	0.0145096
664.066	0.0143121
664.144	0.0143703
664.222	0.0144518
664.300	0.0143094
664.378	0.0144695
664.456	0.0143578
664.535	0.0144592
664.613	0.0142875
664.691	0.0142933
664.769	0.0143088
664.847	0.0142886
664.925	0.0142244
665.003	0.0143051
665.081	0.0143600
665.160	0.0143416
665.238	0.0140914
665.316	0.0143034
665.394	0.0142784
665.472	0.0142757
665.550	0.0144085
665.628	0.0144452
665.706	0.0142587
665.785	0.0143951
665.863	0.0142876
665.941	0.0143367
666.019	0.0143066
666.097	0.0143106
666.175	0.0142612
666.253	0.0142486
666.331	0.0142537
666.410	0.0142892
666.488	0.0142881
666.566	0.0143519
666.644	0.0141796
666.722	0.0144611
666.800	0.0143047
666.878	0.0142173
666.956	0.0141872
667.035	0.0143900
667.113	0.0142772
667.191	0.0143475
667.269	0.0143801
667.347	0.0142899
667.425	0.0142922
667.503	0.0143106
667.581	0.0142846
667.660	0.0143887
667.738	0.0142681
667.816	0.0143345
667.894	0.0142748
667.972	0.0142346
668.050	0.0143362
668.128	0.0143082
668.206	0.0143771
668.285	0.0143678
668.363	0.0142693
668.441	0.0142544
668.519	0.0143270
668.597	0.0143684
668.675	0.0143236
668.753	0.0142850
668.831	0.0143297
668.910	0.0142104
668.988	0.0141853
669.066	0.0144371
669.144	0.0144624
669.222	0.0142698
669.300	0.0143372
669.378	0.0143368
669.456	0.0143016
669.535	0.0142384
669.613	0.0143565
669.691	0.0142135
669.769	0.0143822
669.847	0.0143520
669.925	0.0143874
670.003	0.0143513
670.081	0.0143993
670.160	0.0143671
670.238	0.0142641
670.316	0.0143247
670.394	0.0142564
670.472	0.0142452
670.550	0.0143484
670.628	0.0142355
670.706	0.0141656
670.785	0.0142707
670.863	0.0143240
670.941	0.0143139
671.019	0.0144968
671.097	0.0143913
671.175	0.0144470
671.253	0.0144060
671.331	0.0144204
671.410	0.0142387
671.488	0.0143713
671.566	0.0145280
671.644	0.0143734
671.722	0.0143603
671.800	0.0143596
671.878	0.0144193
671.956	0.0144439
672.035	0.0144281
672.113	0.0143282
672.191	0.0144073
672.269	0.0144443
672.347	0.0143101
672.425	0.0142455
672.503	0.0143522
672.581	0.0143501
672.660	0.0143640
672.738	0.0143672
672.816	0.0144205
672.894	0.0143371
672.972	0.0143528
673.050	0.0143735
673.128	0.0144497
673.206	0.0143471
673.285	0.0143907
673.363	0.0144955
673.441	0.0144090
673.519	0.0145287
673.597	0.0144212
673.675	0.0144002
673.753	0.0144010
673.831	0.0144191
673.910	0.0144225
673.988	0.0144003
674.066	0.0145158
674.144	0.0145261
674.222	0.0145409
674.300	0.0144356
674.378	0.0143952
674.456	0.0144111
674.535	0.0144264
674.613	0.0143198
674.691	0.0144081
674.769	0.0143525
674.847	0.0142395
674.925	0.0143663
675.003	0.0144028
675.081	0.0142743
675.160	0.0144483
675.238	0.0143481
675.316	0.0143212
675.394	0.0144769
675.472	0.0143623
675.550	0.0143360
675.628	0.0143080
675.706	0.0143817
675.785	0.0144437
675.863	0.0144032
675.941	0.0144449
676.019	0.0144681
676.097	0.0143376
676.175	0.0143336
676.253	0.0142695
676.331	0.0142342
676.410	0.0142147
676.488	0.0144432
676.566	0.0143863
676.644	0.0144094
676.722	0.0142902
676.800	0.0143455
676.878	0.0143178
676.956	0.0144135
677.035	0.0143569
677.113	0.0144518
677.191	0.0143004
677.269	0.0142709
677.347	0.0143911
677.425	0.0144082
677.503	0.0143649
677.581	0.0142521
677.660	0.0142387
677.738	0.0143216
677.816	0.0143715
677.894	0.0143532
677.972	0.0142797
678.050	0.0143471
678.128	0.0144526
678.206	0.0144669
678.285	0.0142958
678.363	0.0142709
678.441	0.0143923
678.519	0.0142855
678.597	0.0142233
678.675	0.0143330
678.753	0.0143743
678.831	0.0143574
678.910	0.0143645
678.988	0.0143075
679.066	0.0143982
679.144	0.0144151
679.222	0.0144032
679.300	0.0143958
679.378	0.0143843
679.456	0.0143252
679.535	0.0143404
679.613	0.0144550
679.691	0.0142951
679.769	0.0143368
679.847	0.0144888
679.925	0.0143645
680.003	0.0143317
680.081	0.0143798
680.160	0.0144984
680.238	0.0141877
680.316	0.0142878
680.394	0.0143256
680.472	0.0142603
680.550	0.0143024
680.628	0.0142902
680.706	0.0143461
680.785	0.0143983
680.863	0.0143309
680.941	0.0142074
681.019	0.0142981
681.097	0.0144244
681.175	0.0143797
681.253	0.0143585
681.331	0.0143674
681.410	0.0145276
681.488	0.0143937
681.566	0.0142824
681.644	0.0142623
681.722	0.0141783
681.800	0.0142514
681.878	0.0143581
681.956	0.0143867
682.035	0.0143233
682.113	0.0142367
682.191	0.0144267
682.269	0.0142810
682.347	0.0141521
682.425	0.0143247
682.503	0.0143514
682.581	0.0142944
682.660	0.0143854
682.738	0.0143414
682.816	0.0143665
682.894	0.0143040
682.972	0.0142899
683.050	0.0144238
683.128	0.0142616
683.206	0.0142847
683.285	0.0142637
683.363	0.0144364
683.441	0.0143508
683.519	0.0143125
683.597	0.0142078
683.675	0.0142566
683.753	0.0143008
683.831	0.0143141
683.910	0.0144514
683.988	0.0143372
684.066	0.0142960
684.144	0.0143018
684.222	0.0143111
684.300	0.0143547
684.378	0.0144209
684.456	0.0143995
684.535	0.0142653
684.613	0.0144465
684.691	0.0142878
684.769	0.0142213
684.847	0.0142594
684.925	0.0141884
685.003	0.0142674
685.081	0.0144108
685.160	0.0142597
685.238	0.0143352
685.316	0.0143689
685.394	0.0143211
685.472	0.0143604
685.550	0.0142463
685.628	0.0143750
685.706	0.0143540
685.785	0.0143335
685.863	0.0143143
685.941	0.0143266
686.019	0.0142182
686.097	0.0144655
686.175	0.0143185
686.253	0.0142824
686.331	0.0143685
686.410	0.0143510
686.488	0.0143165
686.566	0.0142432
686.644	0.0142480
686.722	0.0142767
686.800	0.0143810
686.878	0.0141667
686.956	0.0142899
687.035	0.0143887
687.113	0.0143333
687.191	0.0143487
687.269	0.0142831
687.347	0.0142898
687.425	0.0142883
687.503	0.0140958
687.581	0.0142629
687.660	0.0143143
687.738	0.0141679
687.816	0.0141939
687.894	0.0143784
687.972	0.0143568
688.050	0.0140847
688.128	0.0141514
688.206	0.0143236
688.285	0.0144342
688.363	0.0141784
688.441	0.0142250
688.519	0.0143386
688.597	0.0144041
688.675	0.0143666
688.753	0.0141964
688.831	0.0142287
688.910	0.0143279
688.988	0.0141479
689.066	0.0142139
689.144	0.0143104
689.222	0.0143493
689.300	0.0142901
689.378	0.0142905
689.456	0.0142392
689.535	0.0143085
689.613	0.0142985
689.691	0.0142552
689.769	0.0143031
689.847	0.0144156
689.925	0.0142024
690.003	0.0143491
690.081	0.0143039
690.160	0.0142725
690.238	0.0142472
690.316	0.0142974
690.394	0.0142299
690.472	0.0142525
690.550	0.0142749
690.628	0.0141499
690.706	0.0143246
690.785	0.0142769
690.863	0.0142052
690.941	0.0142276
691.019	0.0142888
691.097	0.0142311
691.175	0.0142046
691.253	0.0142978
691.331	0.0142314
691.410	0.0141959
691.488	0.0141427
691.566	0.0142407
691.644	0.0142849
691.722	0.0142868
691.800	0.0143201
691.878	0.0142570
691.956	0.0142666
692.035	0.0143599
692.113	0.0144263
692.191	0.0143047
692.269	0.0143349
692.347	0.0143578
692.425	0.0142702
692.503	0.0142430
692.581	0.0142516
692.660	0.0141364
692.738	0.0142223
692.816	0.0140810
692.894	0.0140402
692.972	0.0139538
693.050	0.0141093
693.128	0.0142728
693.206	0.0140756
693.285	0.0142480
693.363	0.0142883
693.441	0.0143014
693.519	0.0143034
693.597	0.0143731
693.675	0.0143923
693.753	0.0144640
693.831	0.0144922
693.910	0.0146363
693.988	0.0144913
694.066	0.0145763
694.144	0.0145894
694.222	0.0146282
694.300	0.0144838
694.378	0.0145884
694.456	0.0145411
694.535	0.0145150
694.613	0.0142573
694.691	0.0143165
694.769	0.0140515
694.847	0.0141117
694.925	0.0139006
695.003	0.0140755
695.081	0.0139233
695.160	0.0137840
695.238	0.0139164
695.316	0.0139097
695.394	0.0139258
695.472	0.0139090
695.550	0.0138992
695.628	0.0139861
695.706	0.0140633
695.785	0.0142551
695.863	0.0142618
695.941	0.0143437
696.019	0.0143426
696.097	0.0144162
696.175	0.0145184
696.253	0.0145200
696.331	0.0146808
696.410	0.0147646
696.488	0.0147384
696.566	0.0147960
696.644	0.0148473
696.722	0.0148998
696.800	0.0148636
696.878	0.0150400
696.956	0.0150732
697.035	0.0151466
697.113	0.0151727
697.191	0.0150697
697.269	0.0150252
697.347	0.0148534
697.425	0.0146713
697.503	0.0146246
697.581	0.0144243
697.660	0.0143436
697.738	0.0142485
697.816	0.0140942
697.894	0.0138845
697.972	0.0137760
698.050	0.0137823
698.128	0.0134940
698.206	0.0135824
698.285	0.0135492
698.363	0.0134113
698.441	0.0133285
698.519	0.0134323
698.597	0.0133286
698.675	0.0133855
698.753	0.0135667
698.831	0.0135142
698.910	0.0135873
698.988	0.0139246
699.066	0.0140777
699.144	0.0140079
699.222	0.0141287
699.300	0.0142927
699.378	0.0143726
699.456	0.0145412
699.535	0.0147208
699.613	0.0148177
699.691	0.0147706
699.769	0.0147102
699.847	0.0148827
699.925	0.0148711
700.003	0.0148778
700.081	0.0148761
700.160	0.0149808
700.238	0.0150829
700.316	0.0150480
700.394	0.0151718
700.472	0.0151124
700.550	0.0152306
700.628	0.0151804
700.706	0.0153117
700.785	0.0155480
700.863	0.0154895
700.941	0.0154793
701.019	0.0156075
701.097	0.0154835
701.175	0.0152161
701.253	0.0147740
701.331	0.0144778
701.410	0.0140887
701.488	0.0136221
701.566	0.0132540
701.644	0.0129100
701.722	0.0127156
701.800	0.0124845
701.878	0.0124466
701.956	0.0125983
702.035	0.0127856
702.113	0.0130132
702.191	0.0132097
702.269	0.0132907
702.347	0.0135104
702.425	0.0137302
702.503	0.0138386
702.581	0.0140189
702.660	0.0139916
702.738	0.0140039
702.816	0.0140748
702.894	0.0142875
702.972	0.0143176
703.050	0.0143411
703.128	0.0143916
703.206	0.0142345
703.285	0.0143311
703.363	0.0142106
703.441	0.0143239
703.519	0.0141933
703.597	0.0141977
703.675	0.0142165
703.753	0.0141756
703.831	0.0141597
703.910	0.0142797
703.988	0.0142503
704.066	0.0144454
704.144	0.0143755
704.222	0.0144569
704.300	0.0145787
704.378	0.0148177
704.456	0.0149495
704.535	0.0151207
704.613	0.0153191
704.691	0.0155149
704.769	0.0156223
704.847	0.0156949
704.925	0.0159562
705.003	0.0160470
705.081	0.0159956
705.160	0.0161190
705.238	0.0161051
705.316	0.0160309
705.394	0.0157983
705.472	0.0155910
705.550	0.0152722
705.628	0.0150947
705.706	0.0146886
705.785	0.0144041
705.863	0.0140012
705.941	0.0136873
706.019	0.0132968
706.097	0.0129976
706.175	0.0125159
706.253	0.0124316
706.331	0.0123788
706.410	0.0122704
706.488	0.0121588
706.566	0.0122202
706.644	0.0124359
706.722	0.0124780
706.800	0.0126380
706.878	0.0129086
706.956	0.0129997
707.035	0.0129814
707.113	0.0132652
707.191	0.0133030
707.269	0.0135384
707.347	0.0137264
707.425	0.0139388
707.503	0.0141551
707.581	0.0144016
707.660	0.0146729
707.738	0.0148692
707.816	0.0149811
707.894	0.0152445
707.972	0.0151493
708.050	0.0150550
708.128	0.0149948
708.206	0.0148536
708.285	0.0147409
708.363	0.0145982
708.441	0.0143134
708.519	0.0142332
708.597	0.0140374
708.675	0.0140857
708.753	0.0140203
708.831	0.0141335
708.910	0.0140942
708.988	0.0143334
709.066	0.0143901
709.144	0.0144197
709.222	0.0146823
709.300	0.0149571
709.378	0.0153279
709.456	0.0155880
709.535	0.0158409
709.613	0.0160731
709.691	0.0164119
709.769	0.0167350
709.847	0.0168065
709.925	0.0167208
710.003	0.0167233
710.081	0.0165579
710.160	0.0164602
710.238	0.0159818
710.316	0.0155981
710.394	0.0150974
710.472	0.0146896
710.550	0.0143911
710.628	0.0138805
710.706	0.0134771
710.785	0.0129955
710.863	0.0127795
710.941	0.0124398
711.019	0.0122027
711.097	0.0121062
711.175	0.0120300
711.253	0.0119743
711.331	0.0120914
711.410	0.0122896
711.488	0.0124104
711.566	0.0125149
711.644	0.0126081
711.722	0.0127753
711.800	0.0127463
711.878	0.0129570
711.956	0.0131371
712.035	0.0131605
712.113	0.0133078
712.191	0.0135203
712.269	0.0136978
712.347	0.0137367
712.425	0.0140390
712.503	0.0140877
712.581	0.0143813
712.660	0.0145529
712.738	0.0147441
712.816	0.0148831
712.894	0.0148950
712.972	0.0149778
713.050	0.0148375
713.128	0.0148586
713.206	0.0147587
713.285	0.0146835
713.363	0.0145317
713.441	0.0144991
713.519	0.0145099
713.597	0.0142908
713.675	0.0144023
713.753	0.0144524
713.831	0.0146609
713.910	0.0147990
713.988	0.0149390
714.066	0.0152518
714.144	0.0153385
714.222	0.0155800
714.300	0.0158762
714.378	0.0159708
714.456	0.0161636
714.535	0.0163365
714.613	0.0162905
714.691	0.0163708
714.769	0.0161742
714.847	0.0163932
714.925	0.0161376
715.003	0.0159188
715.081	0.0158102
715.160	0.0155376
715.238	0.0152621
715.316	0.0149960
715.394	0.0146688
715.472	0.0142588
715.550	0.0142403
715.628	0.0137471
715.706	0.0134099
715.785	0.0131612
715.863	0.0130714
715.941	0.0128970
716.019	0.0127046
716.097	0.0124957
716.175	0.0122137
716.253	0.0122630
716.331	0.0121075
716.410	0.0122643
716.488	0.0121142
716.566	0.0122484
716.644	0.0123618
716.722	0.0124461
716.800	0.0126820
716.878	0.0128313
716.956	0.0129822
717.035	0.0132677
717.113	0.0134818
717.191	0.0136616
717.269	0.0139097
717.347	0.0139924
717.425	0.0141858
717.503	0.0144385
717.581	0.0145596
717.660	0.0144266
717.738	0.0145029
717.816	0.0144325
717.894	0.0143937
717.972	0.0144846
718.050	0.0143757
718.128	0.0142170
718.206	0.0143054
718.285	0.0142522
718.363	0.0141927
718.441	0.0144099
718.519	0.0143623
718.597	0.0146540
718.675	0.0147832
718.753	0.0149681
718.831	0.0151569
718.910	0.0153392
718.988	0.0154930
719.066	0.0157453
719.144	0.0158389
719.222	0.0159223
719.300	0.0160325
719.378	0.0163841
719.456	0.0163438
719.535	0.0164379
719.613	0.0162968
719.691	0.0163116
719.769	0.0163238
719.847	0.0161433
719.925	0.0160260
720.003	0.0157069
720.081	0.0156741
720.160	0.0152074
720.238	0.0150928
720.316	0.0148160
720.394	0.0146178
720.472	0.0142468
720.550	0.0140862
720.628	0.0139615
720.706	0.0136565
720.785	0.0135545
720.863	0.0133739
720.941	0.0130823
721.019	0.0129848
721.097	0.0128428
721.175	0.0125114
721.253	0.0125998
721.331	0.0125187
721.410	0.0122901
721.488	0.0124503
721.566	0.0124107
721.644	0.0125365
721.722	0.0128146
721.800	0.0129396
721.878	0.0131498
721.956	0.0133219
722.035	0.0133717
722.113	0.0136245
722.191	0.0135371
722.269	0.0139254
722.347	0.0138184
722.425	0.0137955
722.503	0.0137631
722.581	0.0138530
722.660	0.0136242
722.738	0.0137905
722.816	0.0137382
722.894	0.0137846
722.972	0.0138909
723.050	0.0139237
723.128	0.0140005
723.206	0.0140466
723.285	0.0142409
723.363	0.0143322
723.441	0.0145355
723.519	0.0148366
723.597	0.0148962
723.675	0.0150314
723.753	0.0150964
723.831	0.0152692
723.910	0.0156688
723.988	0.0157121
724.066	0.0157806
724.144	0.0160207
724.222	0.0161183
724.300	0.0161254
724.378	0.0163470
724.456	0.0163103
724.535	0.0162829
724.613	0.0163017
724.691	0.0161868
724.769	0.0161106
724.847	0.0160226
724.925	0.0158854
725.003	0.0157647
725.081	0.0154115
725.160	0.0152319
725.238	0.0152024
725.316	0.0150346
725.394	0.0149113
725.472	0.0147049
725.550	0.0143590
725.628	0.0143404
725.706	0.0140495
725.785	0.0139754
725.863	0.0138358
725.941	0.0135414
726.019	0.0133379
726.097	0.0131837
726.175	0.0129402
726.253	0.0127851
726.331	0.0126976
726.410	0.0125780
726.488	0.0126471
726.566	0.0125832
726.644	0.0124718
726.722	0.0127414
726.800	0.0127042
726.878	0.0128870
726.956	0.0130199
727.035	0.0132161
727.113	0.0133167
727.191	0.0133238
727.269	0.0135288
727.347	0.0134071
727.425	0.0135413
727.503	0.0136520
727.581	0.0136733
727.660	0.0134595
727.738	0.0136481
727.816	0.0138036
727.894	0.0137710
727.972	0.0138296
728.050	0.0138441
728.128	0.0139099
728.206	0.0141319
728.285	0.0142091
728.363	0.0141807
728.441	0.0142175
728.519	0.0144061
728.597	0.0147057
728.675	0.0146646
728.753	0.0148181
728.831	0.0150534
728.910	0.0151946
728.988	0.0153582
729.066	0.0154140
729.144	0.0156905
729.222	0.0157690
729.300	0.0158589
729.378	0.0160314
729.456	0.0161006
729.535	0.0160591
729.613	0.0161599
729.691	0.0162266
729.769	0.0161369
729.847	0.0161537
729.925	0.0158992
730.003	0.0159126
730.081	0.0158447
730.160	0.0157785
730.238	0.0156998
730.316	0.0154855
730.394	0.0154319
730.472	0.0152442
730.550	0.0150866
730.628	0.0149838
730.706	0.0146901
730.785	0.0146693
730.863	0.0145493
730.941	0.0143279
731.019	0.0142499
731.097	0.0140875
731.175	0.0139495
731.253	0.0139191
731.331	0.0137456
731.410	0.0134198
731.488	0.0133202
731.566	0.0131519
731.644	0.0129963
731.722	0.0128617
731.800	0.0127728
731.878	0.0126434
731.956	0.0124384
732.035	0.0125972
732.113	0.0123289
732.191	0.0122985
732.269	0.0123193
732.347	0.0123649
732.425	0.0125280
732.503	0.0124556
732.581	0.0125996
732.660	0.0127422
732.738	0.0129247
732.816	0.0130713
732.894	0.0132181
732.972	0.0134412
733.050	0.0136711
733.128	0.0137448
733.206	0.0139122
733.285	0.0139605
733.363	0.0140619
733.441	0.0139695
733.519	0.0142079
733.597	0.0143111
733.675	0.0142815
733.753	0.0143790
733.831	0.0144267
733.910	0.0145267
733.988	0.0146217
734.066	0.0146399
734.144	0.0149283
734.222	0.0150970
734.300	0.0151845
734.378	0.0153297
734.456	0.0155363
734.535	0.0154573
734.613	0.0156744
734.691	0.0160199
734.769	0.0161566
734.847	0.0162380
734.925	0.0163647
735.003	0.0165545
735.081	0.0164689
735.160	0.0165331
735.238	0.0164662
735.316	0.0164670
735.394	0.0163481
735.472	0.0161709
735.550	0.0160694
735.628	0.0160497
735.706	0.0159877
735.785	0.0157880
735.863	0.0156934
735.941	0.0155878
736.019	0.0154134
736.097	0.0153700
736.175	0.0152746
736.253	0.0151192
736.331	0.0148531
736.410	0.0147898
736.488	0.0145614
736.566	0.0141953
736.644	0.0140112
736.722	0.0138385
736.800	0.0136156
736.878	0.0132970
736.956	0.0129417
737.035	0.0126783
737.113	0.0125179
737.191	0.0123192
737.269	0.0120422
737.347	0.0119539
737.425	0.0118037
737.503	0.0117164
737.581	0.0116734
737.660	0.0118223
737.738	0.0117453
737.816	0.0117973
737.894	0.0121011
737.972	0.0121179
738.050	0.0123564
738.128	0.0124237
738.206	0.0126987
738.285	0.0127843
738.363	0.0128659
738.441	0.0132058
738.519	0.0133676
738.597	0.0133897
738.675	0.0135565
738.753	0.0136056
738.831	0.0137107
738.910	0.0137758
738.988	0.0138007
739.066	0.0140236
739.144	0.0141045
739.222	0.0142377
739.300	0.0144388
739.378	0.0143797
739.456	0.0145922
739.535	0.0147337
739.613	0.0150278
739.691	0.0151826
739.769	0.0153796
739.847	0.0156985
739.925	0.0157200
740.003	0.0159740
740.081	0.0161055
740.160	0.0162702
740.238	0.0164622
740.316	0.0165684
740.394	0.0167393
740.472	0.0167664
740.550	0.0168309
740.628	0.0169028
740.706	0.0167612
740.785	0.0168085
740.863	0.0168167
740.941	0.0165539
741.019	0.0164569
741.097	0.0164002
741.175	0.0162577
741.253	0.0162827
741.331	0.0160877
741.410	0.0158585
741.488	0.0156949
741.566	0.0156913
741.644	0.0154155
741.722	0.0151604
741.800	0.0152220
741.878	0.0148292
741.956	0.0145928
742.035	0.0144253
742.113	0.0141372
742.191	0.0139899
742.269	0.0136547
742.347	0.0134724
742.425	0.0132195
742.503	0.0130055
742.581	0.0128947
742.660	0.0127728
742.738	0.0125246
742.816	0.0123316
742.894	0.0120624
742.972	0.0120922
743.050	0.0118317
743.128	0.0118209
743.206	0.0117892
743.285	0.0117570
743.363	0.0118662
743.441	0.0118463
743.519	0.0120052
743.597	0.0120490
743.675	0.0122493
743.753	0.0123753
743.831	0.0125759
743.910	0.0128414
743.988	0.0128262
744.066	0.0128283
744.144	0.0132344
744.222	0.0132540
744.300	0.0133806
744.378	0.0135021
744.456	0.0136133
744.535	0.0136374
744.613	0.0136681
744.691	0.0138150
744.769	0.0139584
744.847	0.0138071
744.925	0.0139998
745.003	0.0141875
745.081	0.0143657
745.160	0.0146346
745.238	0.0148096
745.316	0.0151176
745.394	0.0153094
745.472	0.0155361
745.550	0.0158480
745.628	0.0158198
745.706	0.0160860
