05/03/2022	20:30:12	Ver.	4.1	UNKNOWN
Optical Delay	660.003261	Delta X		0.078125	Sweeps	1	Scan Rate	0/0
Coordinates	Axis 1	NaN	Axis 2	NaN	Axis 3	NaN	Axis 4	NaN	Axis 5	NaN	Axis 6	0.000000
TX Power	0.000000	RX Power	0.000000

660.003	0.0145054
660.081	0.0145521
660.160	0.0144472
660.238	0.0144474
660.316	0.0144594
660.394	0.0145258
660.472	0.0144012
660.550	0.0144310
660.628	0.0145701
660.706	0.0145040
660.785	0.0144707
660.863	0.0144517
660.941	0.0144905
661.019	0.0144817
661.097	0.0144257
661.175	0.0144538
661.253	0.0144633
661.331	0.0144311
661.410	0.0144253
661.488	0.0144175
661.566	0.0145813
661.644	0.0145886
661.722	0.0144334
661.800	0.0144100
661.878	0.0144379
661.956	0.0145630
662.035	0.0144586
662.113	0.0144805
662.191	0.0145515
662.269	0.0143926
662.347	0.0144885
662.425	0.0144513
662.503	0.0145230
662.581	0.0144903
662.660	0.0143761
662.738	0.0143915
662.816	0.0143949
662.894	0.0144588
662.972	0.0144527
663.050	0.0144582
663.128	0.0143476
663.206	0.0144695
663.285	0.0144469
663.363	0.0144506
663.441	0.0144149
663.519	0.0144645
663.597	0.0143462
663.675	0.0144824
663.753	0.0144437
663.831	0.0143858
663.910	0.0144485
663.988	0.0143465
664.066	0.0144109
664.144	0.0143868
664.222	0.0144344
664.300	0.0144152
664.378	0.0144034
664.456	0.0144106
664.535	0.0144983
664.613	0.0143577
664.691	0.0144069
664.769	0.0143121
664.847	0.0144247
664.925	0.0143279
665.003	0.0145864
665.081	0.0144293
665.160	0.0144839
665.238	0.0145068
665.316	0.0144707
665.394	0.0144244
665.472	0.0144604
665.550	0.0146044
665.628	0.0145358
665.706	0.0145109
665.785	0.0143532
665.863	0.0145847
665.941	0.0145925
666.019	0.0145216
666.097	0.0144986
666.175	0.0144273
666.253	0.0143928
666.331	0.0144263
666.410	0.0145206
666.488	0.0145262
666.566	0.0144966
666.644	0.0142949
666.722	0.0144271
666.800	0.0145007
666.878	0.0145486
666.956	0.0145784
667.035	0.0144988
667.113	0.0146057
667.191	0.0146330
667.269	0.0144425
667.347	0.0145005
667.425	0.0145428
667.503	0.0144667
667.581	0.0144553
667.660	0.0145585
667.738	0.0146274
667.816	0.0145235
667.894	0.0144335
667.972	0.0144937
668.050	0.0145718
668.128	0.0145058
668.206	0.0144621
668.285	0.0145983
668.363	0.0145961
668.441	0.0144429
668.519	0.0144037
668.597	0.0145794
668.675	0.0143671
668.753	0.0143900
668.831	0.0143854
668.910	0.0144226
668.988	0.0144023
669.066	0.0145484
669.144	0.0144793
669.222	0.0145352
669.300	0.0142455
669.378	0.0143785
669.456	0.0145670
669.535	0.0145755
669.613	0.0145204
669.691	0.0143587
669.769	0.0144221
669.847	0.0144251
669.925	0.0144482
670.003	0.0144469
670.081	0.0144418
670.160	0.0144360
670.238	0.0144394
670.316	0.0144896
670.394	0.0145322
670.472	0.0144557
670.550	0.0144244
670.628	0.0145287
670.706	0.0143793
670.785	0.0144753
670.863	0.0144375
670.941	0.0144852
671.019	0.0145184
671.097	0.0145154
671.175	0.0144051
671.253	0.0143663
671.331	0.0145364
671.410	0.0145041
671.488	0.0145622
671.566	0.0144965
671.644	0.0144537
671.722	0.0144908
671.800	0.0143857
671.878	0.0145807
671.956	0.0145422
672.035	0.0144817
672.113	0.0145946
672.191	0.0144940
672.269	0.0144673
672.347	0.0145591
672.425	0.0145370
672.503	0.0144209
672.581	0.0144881
672.660	0.0144526
672.738	0.0144038
672.816	0.0145373
672.894	0.0145300
672.972	0.0145229
673.050	0.0145216
673.128	0.0145224
673.206	0.0144811
673.285	0.0144981
673.363	0.0145919
673.441	0.0145461
673.519	0.0144094
673.597	0.0146406
673.675	0.0144065
673.753	0.0144672
673.831	0.0143819
673.910	0.0143089
673.988	0.0144170
674.066	0.0145213
674.144	0.0144532
674.222	0.0145591
674.300	0.0145311
674.378	0.0143633
674.456	0.0143175
674.535	0.0143653
674.613	0.0145375
674.691	0.0143966
674.769	0.0144784
674.847	0.0142966
674.925	0.0144788
675.003	0.0144955
675.081	0.0143703
675.160	0.0143646
675.238	0.0144327
675.316	0.0144695
675.394	0.0145501
675.472	0.0145245
675.550	0.0143317
675.628	0.0144894
675.706	0.0144121
675.785	0.0144609
675.863	0.0142938
675.941	0.0144416
676.019	0.0144260
676.097	0.0144263
676.175	0.0144221
676.253	0.0144833
676.331	0.0145127
676.410	0.0144332
676.488	0.0144799
676.566	0.0144498
676.644	0.0144923
676.722	0.0144683
676.800	0.0144174
676.878	0.0144286
676.956	0.0144208
677.035	0.0145144
677.113	0.0145901
677.191	0.0144219
677.269	0.0145015
677.347	0.0145671
677.425	0.0144662
677.503	0.0145451
677.581	0.0145316
677.660	0.0145760
677.738	0.0144739
677.816	0.0145854
677.894	0.0145343
677.972	0.0144617
678.050	0.0144942
678.128	0.0144997
678.206	0.0144947
678.285	0.0143789
678.363	0.0144740
678.441	0.0145066
678.519	0.0144936
678.597	0.0145158
678.675	0.0145014
678.753	0.0144426
678.831	0.0143906
678.910	0.0144930
678.988	0.0144693
679.066	0.0143738
679.144	0.0144895
679.222	0.0145927
679.300	0.0144427
679.378	0.0143858
679.456	0.0144305
679.535	0.0145579
679.613	0.0144466
679.691	0.0142871
679.769	0.0143922
679.847	0.0145139
679.925	0.0145533
680.003	0.0145796
680.081	0.0144718
680.160	0.0144297
680.238	0.0144496
680.316	0.0144156
680.394	0.0144458
680.472	0.0144451
680.550	0.0143969
680.628	0.0144323
680.706	0.0145850
680.785	0.0145920
680.863	0.0144852
680.941	0.0143893
681.019	0.0144783
681.097	0.0145358
681.175	0.0143684
681.253	0.0146318
681.331	0.0145338
681.410	0.0144957
681.488	0.0144098
681.566	0.0142832
681.644	0.0144359
681.722	0.0145447
681.800	0.0145042
681.878	0.0144596
681.956	0.0145204
682.035	0.0144731
682.113	0.0145466
682.191	0.0143700
682.269	0.0143427
682.347	0.0145297
682.425	0.0145938
682.503	0.0145080
682.581	0.0142771
682.660	0.0145354
682.738	0.0145427
682.816	0.0145449
682.894	0.0144588
682.972	0.0144735
683.050	0.0144421
683.128	0.0145665
683.206	0.0144298
683.285	0.0145219
683.363	0.0144263
683.441	0.0144222
683.519	0.0145152
683.597	0.0145903
683.675	0.0145758
683.753	0.0144420
683.831	0.0143565
683.910	0.0145433
683.988	0.0145139
684.066	0.0144421
684.144	0.0143796
684.222	0.0144573
684.300	0.0145624
684.378	0.0145512
684.456	0.0144355
684.535	0.0144717
684.613	0.0145173
684.691	0.0145513
684.769	0.0144830
684.847	0.0145628
684.925	0.0145883
685.003	0.0144981
685.081	0.0145071
685.160	0.0145270
685.238	0.0143891
685.316	0.0143832
685.394	0.0145387
685.472	0.0146829
685.550	0.0145275
685.628	0.0144341
685.706	0.0145432
685.785	0.0145292
685.863	0.0145142
685.941	0.0145504
686.019	0.0145895
686.097	0.0145544
686.175	0.0145168
686.253	0.0145705
686.331	0.0144676
686.410	0.0144590
686.488	0.0145541
686.566	0.0144061
686.644	0.0143721
686.722	0.0143905
686.800	0.0145442
686.878	0.0144306
686.956	0.0144160
687.035	0.0143985
687.113	0.0145229
687.191	0.0144081
687.269	0.0144067
687.347	0.0143530
687.425	0.0143659
687.503	0.0144273
687.581	0.0145187
687.660	0.0145495
687.738	0.0144904
687.816	0.0145583
687.894	0.0145467
687.972	0.0145092
688.050	0.0144297
688.128	0.0145110
688.206	0.0146271
688.285	0.0144829
688.363	0.0143688
688.441	0.0144654
688.519	0.0145837
688.597	0.0143513
688.675	0.0143378
688.753	0.0143208
688.831	0.0143269
688.910	0.0143193
688.988	0.0143819
689.066	0.0143881
689.144	0.0144641
689.222	0.0144381
689.300	0.0142957
689.378	0.0143810
689.456	0.0144842
689.535	0.0145548
689.613	0.0145312
689.691	0.0146796
689.769	0.0146732
689.847	0.0147186
689.925	0.0144922
690.003	0.0148355
690.081	0.0146973
690.160	0.0145875
690.238	0.0145046
690.316	0.0146144
690.394	0.0145907
690.472	0.0145518
690.550	0.0145622
690.628	0.0145378
690.706	0.0143765
690.785	0.0142596
690.863	0.0142728
690.941	0.0142854
691.019	0.0142422
691.097	0.0142358
691.175	0.0143050
691.253	0.0140689
691.331	0.0141185
691.410	0.0141284
691.488	0.0142367
691.566	0.0143745
691.644	0.0142850
691.722	0.0142660
691.800	0.0143339
691.878	0.0143163
691.956	0.0144502
692.035	0.0143739
692.113	0.0145189
692.191	0.0143525
692.269	0.0145263
692.347	0.0147105
692.425	0.0145934
692.503	0.0148074
692.581	0.0145713
692.660	0.0147715
692.738	0.0147825
692.816	0.0147376
692.894	0.0148145
692.972	0.0148225
693.050	0.0147550
693.128	0.0148613
693.206	0.0147010
693.285	0.0146941
693.363	0.0146332
693.441	0.0146255
693.519	0.0145257
693.597	0.0144117
693.675	0.0143641
693.753	0.0143061
693.831	0.0143630
693.910	0.0143549
693.988	0.0141547
694.066	0.0141394
694.144	0.0142820
694.222	0.0141566
694.300	0.0142525
694.378	0.0141196
694.456	0.0141825
694.535	0.0141087
694.613	0.0142071
694.691	0.0142164
694.769	0.0140581
694.847	0.0142340
694.925	0.0142622
695.003	0.0140931
695.081	0.0142549
695.160	0.0143298
695.238	0.0141652
695.316	0.0143580
695.394	0.0144027
695.472	0.0144462
695.550	0.0144807
695.628	0.0145307
695.706	0.0146230
695.785	0.0146106
695.863	0.0146445
695.941	0.0146822
696.019	0.0148135
696.097	0.0147263
696.175	0.0147986
696.253	0.0147792
696.331	0.0148646
696.410	0.0149346
696.488	0.0150496
696.566	0.0149680
696.644	0.0149974
696.722	0.0150208
696.800	0.0149418
696.878	0.0149398
696.956	0.0150896
697.035	0.0150809
697.113	0.0149318
697.191	0.0148283
697.269	0.0148442
697.347	0.0147156
697.425	0.0144780
697.503	0.0143969
697.581	0.0141201
697.660	0.0141270
697.738	0.0142477
697.816	0.0140594
697.894	0.0138541
697.972	0.0137120
698.050	0.0135461
698.128	0.0136519
698.206	0.0136249
698.285	0.0137069
698.363	0.0136209
698.441	0.0138074
698.519	0.0138468
698.597	0.0140813
698.675	0.0141576
698.753	0.0141737
698.831	0.0143130
698.910	0.0143166
698.988	0.0144102
699.066	0.0145661
699.144	0.0144977
699.222	0.0144626
699.300	0.0146230
699.378	0.0147567
699.456	0.0146521
699.535	0.0147062
699.613	0.0147110
699.691	0.0147307
699.769	0.0146303
699.847	0.0146525
699.925	0.0145437
700.003	0.0145421
700.081	0.0145815
700.160	0.0146748
700.238	0.0146117
700.316	0.0144910
700.394	0.0145983
700.472	0.0145859
700.550	0.0145681
700.628	0.0145310
700.706	0.0146404
700.785	0.0144691
700.863	0.0146692
700.941	0.0147894
701.019	0.0147424
701.097	0.0147369
701.175	0.0149319
701.253	0.0149199
701.331	0.0149277
701.410	0.0151028
701.488	0.0151787
701.566	0.0151203
701.644	0.0150499
701.722	0.0151459
701.800	0.0149590
701.878	0.0149672
701.956	0.0149048
702.035	0.0147302
702.113	0.0146291
702.191	0.0144142
702.269	0.0141584
702.347	0.0141194
702.425	0.0139997
702.503	0.0138553
702.581	0.0136922
702.660	0.0137176
702.738	0.0137734
702.816	0.0137938
702.894	0.0135664
702.972	0.0137070
703.050	0.0137377
703.128	0.0137379
703.206	0.0137749
703.285	0.0139455
703.363	0.0139472
703.441	0.0141225
703.519	0.0141047
703.597	0.0140510
703.675	0.0141334
703.753	0.0143524
703.831	0.0144976
703.910	0.0146713
703.988	0.0147277
704.066	0.0148962
704.144	0.0150301
704.222	0.0151891
704.300	0.0150375
704.378	0.0149869
704.456	0.0150377
704.535	0.0149696
704.613	0.0148143
704.691	0.0146709
704.769	0.0145837
704.847	0.0143297
704.925	0.0143307
705.003	0.0143250
705.081	0.0142584
705.160	0.0141944
705.238	0.0142744
705.316	0.0144131
705.394	0.0144249
705.472	0.0145512
705.550	0.0145307
705.628	0.0147857
705.706	0.0146368
705.785	0.0148029
705.863	0.0148449
705.941	0.0147335
706.019	0.0149142
706.097	0.0148173
706.175	0.0149743
706.253	0.0150866
706.331	0.0151725
706.410	0.0150133
706.488	0.0150858
706.566	0.0151821
706.644	0.0150621
706.722	0.0151582
706.800	0.0151251
706.878	0.0150444
706.956	0.0150787
707.035	0.0149553
707.113	0.0147893
707.191	0.0147698
707.269	0.0146239
707.347	0.0145497
707.425	0.0144357
707.503	0.0143753
707.581	0.0142545
707.660	0.0141267
707.738	0.0140389
707.816	0.0138265
707.894	0.0138387
707.972	0.0136680
708.050	0.0137417
708.128	0.0137411
708.206	0.0135494
708.285	0.0135886
708.363	0.0135220
708.441	0.0134497
708.519	0.0135025
708.597	0.0135681
708.675	0.0135792
708.753	0.0136052
708.831	0.0136295
708.910	0.0138486
708.988	0.0138689
709.066	0.0142300
709.144	0.0143719
709.222	0.0145051
709.300	0.0146608
709.378	0.0148936
709.456	0.0149195
709.535	0.0150652
709.613	0.0150568
709.691	0.0153079
709.769	0.0150613
709.847	0.0149702
709.925	0.0149932
710.003	0.0149097
710.081	0.0147892
710.160	0.0145238
710.238	0.0146120
710.316	0.0144431
710.394	0.0143925
710.472	0.0144255
710.550	0.0143057
710.628	0.0142082
710.706	0.0143463
710.785	0.0143645
710.863	0.0143819
710.941	0.0143844
711.019	0.0145328
711.097	0.0146667
711.175	0.0148234
711.253	0.0149780
711.331	0.0153045
711.410	0.0152911
711.488	0.0153313
711.566	0.0154689
711.644	0.0155305
711.722	0.0156154
711.800	0.0155775
711.878	0.0157002
711.956	0.0154884
712.035	0.0154449
712.113	0.0152391
712.191	0.0151299
712.269	0.0148760
712.347	0.0146278
712.425	0.0145712
712.503	0.0143980
712.581	0.0143573
712.660	0.0143339
712.738	0.0140686
712.816	0.0141010
712.894	0.0140898
712.972	0.0140694
713.050	0.0140858
713.128	0.0140251
713.206	0.0139324
713.285	0.0139181
713.363	0.0138972
713.441	0.0137975
713.519	0.0138522
713.597	0.0137376
713.675	0.0136196
713.753	0.0136095
713.831	0.0135871
713.910	0.0133900
713.988	0.0134706
714.066	0.0134993
714.144	0.0135149
714.222	0.0135215
714.300	0.0137215
714.378	0.0137502
714.456	0.0138883
714.535	0.0140065
714.613	0.0141450
714.691	0.0144666
714.769	0.0146446
714.847	0.0147119
714.925	0.0147077
715.003	0.0148096
715.081	0.0148692
715.160	0.0149285
715.238	0.0149561
715.316	0.0149695
715.394	0.0149287
715.472	0.0148590
715.550	0.0148064
715.628	0.0146392
715.706	0.0145430
715.785	0.0145840
715.863	0.0145609
715.941	0.0145108
716.019	0.0145533
716.097	0.0145940
716.175	0.0145661
716.253	0.0147094
716.331	0.0146066
716.410	0.0145808
716.488	0.0147649
716.566	0.0148911
716.644	0.0149890
716.722	0.0149605
716.800	0.0150045
716.878	0.0150240
716.956	0.0151459
717.035	0.0152973
717.113	0.0152786
717.191	0.0152905
717.269	0.0153679
717.347	0.0153735
717.425	0.0154505
717.503	0.0153369
717.581	0.0153391
717.660	0.0152325
717.738	0.0152772
717.816	0.0150928
717.894	0.0149824
717.972	0.0146774
718.050	0.0146720
718.128	0.0145782
718.206	0.0143644
718.285	0.0141844
718.363	0.0141802
718.441	0.0140340
718.519	0.0139085
718.597	0.0137381
718.675	0.0136245
718.753	0.0136770
718.831	0.0135883
718.910	0.0136399
718.988	0.0133440
719.066	0.0134965
719.144	0.0135635
719.222	0.0135243
719.300	0.0134263
719.378	0.0134750
719.456	0.0135379
719.535	0.0136005
719.613	0.0137843
719.691	0.0137689
719.769	0.0138546
719.847	0.0139480
719.925	0.0140925
720.003	0.0141509
720.081	0.0142725
720.160	0.0142684
720.238	0.0143660
720.316	0.0144983
720.394	0.0144829
720.472	0.0144390
720.550	0.0144262
720.628	0.0146080
720.706	0.0144640
720.785	0.0144578
720.863	0.0143315
720.941	0.0143457
721.019	0.0141663
721.097	0.0142308
721.175	0.0142011
721.253	0.0142155
721.331	0.0142532
721.410	0.0144401
721.488	0.0143687
721.566	0.0144212
721.644	0.0144945
721.722	0.0145081
721.800	0.0147404
721.878	0.0149394
721.956	0.0152879
722.035	0.0152685
722.113	0.0152410
722.191	0.0153363
722.269	0.0155114
722.347	0.0154707
722.425	0.0155198
722.503	0.0155302
722.581	0.0156036
722.660	0.0154889
722.738	0.0153152
722.816	0.0153522
722.894	0.0153572
722.972	0.0151565
723.050	0.0152673
723.128	0.0150754
723.206	0.0152154
723.285	0.0151749
723.363	0.0149922
723.441	0.0149220
723.519	0.0148612
723.597	0.0149557
723.675	0.0148546
723.753	0.0147767
723.831	0.0146171
723.910	0.0146318
723.988	0.0143935
724.066	0.0143669
724.144	0.0141697
724.222	0.0140091
724.300	0.0138197
724.378	0.0137597
724.456	0.0136209
724.535	0.0136754
724.613	0.0134192
724.691	0.0133585
724.769	0.0133048
724.847	0.0132355
724.925	0.0134012
725.003	0.0134143
725.081	0.0134067
725.160	0.0135791
725.238	0.0137285
725.316	0.0137743
725.394	0.0139776
725.472	0.0140105
725.550	0.0141862
725.628	0.0143210
725.706	0.0144450
725.785	0.0144045
725.863	0.0142953
725.941	0.0143877
726.019	0.0144520
726.097	0.0144283
726.175	0.0143517
726.253	0.0143203
726.331	0.0141702
726.410	0.0141784
726.488	0.0141229
726.566	0.0140979
726.644	0.0142158
726.722	0.0143250
726.800	0.0143700
726.878	0.0143225
726.956	0.0144161
727.035	0.0143826
727.113	0.0144712
727.191	0.0146429
727.269	0.0148299
727.347	0.0148374
727.425	0.0149796
727.503	0.0151380
727.581	0.0152576
727.660	0.0154015
727.738	0.0155409
727.816	0.0156464
727.894	0.0157238
727.972	0.0157867
728.050	0.0158808
728.128	0.0158727
728.206	0.0158316
728.285	0.0158431
728.363	0.0156630
728.441	0.0157207
728.519	0.0156216
728.597	0.0153535
728.675	0.0152228
728.753	0.0151249
728.831	0.0150203
728.910	0.0149819
728.988	0.0148959
729.066	0.0148232
729.144	0.0148030
729.222	0.0146964
729.300	0.0146067
729.378	0.0145789
729.456	0.0145158
729.535	0.0145480
729.613	0.0145315
729.691	0.0144498
729.769	0.0143368
729.847	0.0142824
729.925	0.0142444
730.003	0.0139729
730.081	0.0138174
730.160	0.0136876
730.238	0.0136611
730.316	0.0133831
730.394	0.0134189
730.472	0.0134591
730.550	0.0133436
730.628	0.0133071
730.706	0.0132800
730.785	0.0133299
730.863	0.0134595
730.941	0.0135437
731.019	0.0136076
731.097	0.0137737
731.175	0.0140504
731.253	0.0139711
731.331	0.0141720
731.410	0.0142606
731.488	0.0141859
731.566	0.0143371
731.644	0.0143628
731.722	0.0143691
731.800	0.0142858
731.878	0.0143012
731.956	0.0143070
732.035	0.0144289
732.113	0.0143816
732.191	0.0142518
732.269	0.0142574
732.347	0.0142962
732.425	0.0142280
732.503	0.0142546
732.581	0.0144144
732.660	0.0144743
732.738	0.0145430
732.816	0.0147539
732.894	0.0148394
732.972	0.0148229
733.050	0.0150687
733.128	0.0152280
733.206	0.0155633
733.285	0.0154250
733.363	0.0153669
733.441	0.0155736
733.519	0.0156931
733.597	0.0156437
733.675	0.0157467
733.753	0.0156524
733.831	0.0156148
733.910	0.0155565
733.988	0.0155359
734.066	0.0154097
734.144	0.0153522
734.222	0.0151633
734.300	0.0151226
734.378	0.0149277
734.456	0.0148781
734.535	0.0149194
734.613	0.0148722
734.691	0.0148203
734.769	0.0146941
734.847	0.0147307
734.925	0.0148840
735.003	0.0145438
735.081	0.0147221
735.160	0.0146648
735.238	0.0145789
735.316	0.0145670
735.394	0.0145881
735.472	0.0143304
735.550	0.0142175
735.628	0.0140451
735.706	0.0141020
735.785	0.0137394
735.863	0.0136797
735.941	0.0136607
736.019	0.0135018
736.097	0.0131585
736.175	0.0132063
736.253	0.0130132
736.331	0.0131870
736.410	0.0133559
736.488	0.0132850
736.566	0.0133995
736.644	0.0133793
736.722	0.0134291
736.800	0.0136131
736.878	0.0138403
736.956	0.0137389
737.035	0.0138774
737.113	0.0141124
737.191	0.0140343
737.269	0.0141125
737.347	0.0142297
737.425	0.0143370
737.503	0.0142702
737.581	0.0142588
737.660	0.0142621
737.738	0.0143755
737.816	0.0142419
737.894	0.0142668
737.972	0.0142726
738.050	0.0141629
738.128	0.0143841
738.206	0.0144592
738.285	0.0146151
738.363	0.0144801
738.441	0.0147197
738.519	0.0148016
738.597	0.0149187
738.675	0.0150729
738.753	0.0152961
738.831	0.0151782
738.910	0.0153778
738.988	0.0154651
739.066	0.0156348
739.144	0.0156979
739.222	0.0155565
739.300	0.0155965
739.378	0.0155503
739.456	0.0155380
739.535	0.0154591
739.613	0.0154224
739.691	0.0153754
739.769	0.0152296
739.847	0.0151630
739.925	0.0151019
740.003	0.0149361
740.081	0.0149256
740.160	0.0150336
740.238	0.0150204
740.316	0.0148136
740.394	0.0147335
740.472	0.0148112
740.550	0.0147362
740.628	0.0146844
740.706	0.0146882
740.785	0.0147430
740.863	0.0146998
740.941	0.0146070
741.019	0.0145020
741.097	0.0145029
741.175	0.0143153
741.253	0.0143088
741.331	0.0141125
741.410	0.0139435
741.488	0.0139165
741.566	0.0136323
741.644	0.0136301
741.722	0.0135760
741.800	0.0135575
741.878	0.0133171
741.956	0.0134311
742.035	0.0133222
742.113	0.0131789
742.191	0.0131498
742.269	0.0132633
742.347	0.0132275
742.425	0.0132941
742.503	0.0134189
742.581	0.0135275
742.660	0.0134333
742.738	0.0134985
742.816	0.0137231
742.894	0.0136818
742.972	0.0138591
743.050	0.0139749
743.128	0.0140492
743.206	0.0141017
743.285	0.0140928
743.363	0.0142690
743.441	0.0143763
743.519	0.0144164
743.597	0.0144704
743.675	0.0144266
743.753	0.0145518
743.831	0.0145702
743.910	0.0145067
743.988	0.0145043
744.066	0.0146326
744.144	0.0146799
744.222	0.0149455
744.300	0.0148306
744.378	0.0149928
744.456	0.0151910
744.535	0.0150135
744.613	0.0152338
744.691	0.0154154
744.769	0.0154567
744.847	0.0154541
744.925	0.0155882
745.003	0.0153780
745.081	0.0154819
745.160	0.0156287
745.238	0.0157332
745.316	0.0157247
745.394	0.0156437
745.472	0.0157332
745.550	0.0157153
745.628	0.0155810
745.706	0.0154519
