05/03/2022	20:32:02	Ver.	4.1	UNKNOWN
Optical Delay	660.003261	Delta X		0.078125	Sweeps	1	Scan Rate	0/0
Coordinates	Axis 1	NaN	Axis 2	NaN	Axis 3	NaN	Axis 4	NaN	Axis 5	NaN	Axis 6	0.000000
TX Power	0.000000	RX Power	0.000000

660.003	0.0148708
660.081	0.0148193
660.160	0.0149512
660.238	0.0148392
660.316	0.0150350
660.394	0.0149290
660.472	0.0147654
660.550	0.0147626
660.628	0.0147556
660.706	0.0149587
660.785	0.0148775
660.863	0.0147665
660.941	0.0148301
661.019	0.0150381
661.097	0.0149013
661.175	0.0147836
661.253	0.0148338
661.331	0.0148621
661.410	0.0148384
661.488	0.0147659
661.566	0.0147820
661.644	0.0148997
661.722	0.0149297
661.800	0.0148836
661.878	0.0148030
661.956	0.0148791
662.035	0.0149010
662.113	0.0149649
662.191	0.0148605
662.269	0.0149957
662.347	0.0148624
662.425	0.0147929
662.503	0.0148705
662.581	0.0149174
662.660	0.0149229
662.738	0.0149509
662.816	0.0149405
662.894	0.0148724
662.972	0.0150269
663.050	0.0148545
663.128	0.0149428
663.206	0.0148251
663.285	0.0148158
663.363	0.0148049
663.441	0.0149560
663.519	0.0149573
663.597	0.0148903
663.675	0.0148722
663.753	0.0148153
663.831	0.0149009
663.910	0.0149193
663.988	0.0148991
664.066	0.0150011
664.144	0.0150183
664.222	0.0148668
664.300	0.0149181
664.378	0.0148664
664.456	0.0146787
664.535	0.0148409
664.613	0.0148608
664.691	0.0148989
664.769	0.0148161
664.847	0.0147696
664.925	0.0148103
665.003	0.0147683
665.081	0.0147701
665.160	0.0147511
665.238	0.0149262
665.316	0.0148161
665.394	0.0149307
665.472	0.0149483
665.550	0.0148418
665.628	0.0148548
665.706	0.0149115
665.785	0.0149703
665.863	0.0149270
665.941	0.0148831
666.019	0.0148394
666.097	0.0149334
666.175	0.0149273
666.253	0.0148442
666.331	0.0148531
666.410	0.0148362
666.488	0.0147803
666.566	0.0149192
666.644	0.0149969
666.722	0.0148238
666.800	0.0149306
666.878	0.0148911
666.956	0.0149519
667.035	0.0150359
667.113	0.0148730
667.191	0.0148961
667.269	0.0148189
667.347	0.0148789
667.425	0.0149675
667.503	0.0150398
667.581	0.0148740
667.660	0.0149380
667.738	0.0148573
667.816	0.0148488
667.894	0.0149208
667.972	0.0149320
668.050	0.0149397
668.128	0.0148257
668.206	0.0148307
668.285	0.0149091
668.363	0.0150709
668.441	0.0149928
668.519	0.0150328
668.597	0.0149596
668.675	0.0147851
668.753	0.0149898
668.831	0.0150515
668.910	0.0149217
668.988	0.0148141
669.066	0.0150405
669.144	0.0149742
669.222	0.0148982
669.300	0.0150564
669.378	0.0150285
669.456	0.0149464
669.535	0.0150336
669.613	0.0149788
669.691	0.0149521
669.769	0.0149866
669.847	0.0149586
669.925	0.0151044
670.003	0.0150583
670.081	0.0149367
670.160	0.0149847
670.238	0.0150020
670.316	0.0149613
670.394	0.0149531
670.472	0.0149611
670.550	0.0148884
670.628	0.0150560
670.706	0.0150318
670.785	0.0148621
670.863	0.0149797
670.941	0.0148876
671.019	0.0149132
671.097	0.0150476
671.175	0.0151869
671.253	0.0149457
671.331	0.0149126
671.410	0.0150767
671.488	0.0149109
671.566	0.0150905
671.644	0.0151743
671.722	0.0150513
671.800	0.0149563
671.878	0.0149965
671.956	0.0150248
672.035	0.0149923
672.113	0.0150134
672.191	0.0149537
672.269	0.0149640
672.347	0.0149416
672.425	0.0149892
672.503	0.0151270
672.581	0.0149728
672.660	0.0149344
672.738	0.0148428
672.816	0.0149979
672.894	0.0149431
672.972	0.0150273
673.050	0.0150586
673.128	0.0150125
673.206	0.0150596
673.285	0.0149744
673.363	0.0148748
673.441	0.0149497
673.519	0.0149359
673.597	0.0149448
673.675	0.0148827
673.753	0.0148481
673.831	0.0148527
673.910	0.0149422
673.988	0.0148467
674.066	0.0149285
674.144	0.0149197
674.222	0.0149247
674.300	0.0147325
674.378	0.0149123
674.456	0.0149523
674.535	0.0149626
674.613	0.0149200
674.691	0.0149472
674.769	0.0149815
674.847	0.0148503
674.925	0.0147169
675.003	0.0150063
675.081	0.0149222
675.160	0.0148670
675.238	0.0150000
675.316	0.0149927
675.394	0.0148096
675.472	0.0148922
675.550	0.0149593
675.628	0.0148182
675.706	0.0149317
675.785	0.0150204
675.863	0.0149445
675.941	0.0149567
676.019	0.0148615
676.097	0.0149373
676.175	0.0149435
676.253	0.0149142
676.331	0.0147878
676.410	0.0149277
676.488	0.0148628
676.566	0.0148298
676.644	0.0148844
676.722	0.0149744
676.800	0.0147590
676.878	0.0149361
676.956	0.0147488
677.035	0.0148257
677.113	0.0148130
677.191	0.0149590
677.269	0.0148617
677.347	0.0149461
677.425	0.0147995
677.503	0.0150414
677.581	0.0149876
677.660	0.0149719
677.738	0.0149561
677.816	0.0150497
677.894	0.0148521
677.972	0.0149122
678.050	0.0150039
678.128	0.0148300
678.206	0.0149546
678.285	0.0149363
678.363	0.0148183
678.441	0.0148766
678.519	0.0149958
678.597	0.0147894
678.675	0.0149091
678.753	0.0150429
678.831	0.0150117
678.910	0.0148231
678.988	0.0149076
679.066	0.0150284
679.144	0.0149327
679.222	0.0149044
679.300	0.0148499
679.378	0.0150031
679.456	0.0148105
679.535	0.0149037
679.613	0.0148563
679.691	0.0148992
679.769	0.0149753
679.847	0.0148116
679.925	0.0148831
680.003	0.0149602
680.081	0.0149581
680.160	0.0148554
680.238	0.0149107
680.316	0.0149078
680.394	0.0149296
680.472	0.0147402
680.550	0.0148687
680.628	0.0149068
680.706	0.0149004
680.785	0.0148902
680.863	0.0149673
680.941	0.0148449
681.019	0.0149586
681.097	0.0148746
681.175	0.0149076
681.253	0.0150146
681.331	0.0149981
681.410	0.0148930
681.488	0.0149708
681.566	0.0148261
681.644	0.0149117
681.722	0.0148227
681.800	0.0148187
681.878	0.0147942
681.956	0.0149824
682.035	0.0148798
682.113	0.0148367
682.191	0.0148914
682.269	0.0148631
682.347	0.0148042
682.425	0.0148969
682.503	0.0148698
682.581	0.0149091
682.660	0.0148109
682.738	0.0149453
682.816	0.0148593
682.894	0.0148272
682.972	0.0149166
683.050	0.0148578
683.128	0.0149267
683.206	0.0150375
683.285	0.0149622
683.363	0.0149327
683.441	0.0150395
683.519	0.0149711
683.597	0.0149336
683.675	0.0149638
683.753	0.0148887
683.831	0.0148334
683.910	0.0150693
683.988	0.0150230
684.066	0.0147930
684.144	0.0149482
684.222	0.0149856
684.300	0.0149084
684.378	0.0149501
684.456	0.0148698
684.535	0.0149319
684.613	0.0149466
684.691	0.0150508
684.769	0.0149522
684.847	0.0151509
684.925	0.0148724
685.003	0.0148650
685.081	0.0151073
685.160	0.0150812
685.238	0.0148691
685.316	0.0149168
685.394	0.0150479
685.472	0.0149712
685.550	0.0147559
685.628	0.0148629
685.706	0.0149794
685.785	0.0149077
685.863	0.0149509
685.941	0.0149891
686.019	0.0149789
686.097	0.0149096
686.175	0.0148969
686.253	0.0148379
686.331	0.0148649
686.410	0.0148535
686.488	0.0148368
686.566	0.0149121
686.644	0.0149340
686.722	0.0149042
686.800	0.0148087
686.878	0.0148052
686.956	0.0149220
687.035	0.0149480
687.113	0.0149313
687.191	0.0150684
687.269	0.0149697
687.347	0.0149748
687.425	0.0150269
687.503	0.0149944
687.581	0.0150214
687.660	0.0150421
687.738	0.0150043
687.816	0.0152467
687.894	0.0150915
687.972	0.0149004
688.050	0.0150088
688.128	0.0150173
688.206	0.0149498
688.285	0.0149911
688.363	0.0150139
688.441	0.0148107
688.519	0.0148133
688.597	0.0148050
688.675	0.0147976
688.753	0.0147947
688.831	0.0147616
688.910	0.0147621
688.988	0.0147491
689.066	0.0147766
689.144	0.0147453
689.222	0.0147647
689.300	0.0147134
689.378	0.0148137
689.456	0.0148795
689.535	0.0147994
689.613	0.0150472
689.691	0.0148777
689.769	0.0149826
689.847	0.0149531
689.925	0.0148795
690.003	0.0151510
690.081	0.0150579
690.160	0.0150201
690.238	0.0151513
690.316	0.0150924
690.394	0.0151926
690.472	0.0151424
690.550	0.0150854
690.628	0.0151299
690.706	0.0151601
690.785	0.0150314
690.863	0.0152398
690.941	0.0150524
691.019	0.0150440
691.097	0.0149778
691.175	0.0148602
691.253	0.0148882
691.331	0.0146585
691.410	0.0147758
691.488	0.0148006
691.566	0.0148093
691.644	0.0146577
691.722	0.0146826
691.800	0.0148327
691.878	0.0147617
691.956	0.0147252
692.035	0.0147517
692.113	0.0148561
692.191	0.0147684
692.269	0.0147471
692.347	0.0147879
692.425	0.0147688
692.503	0.0147675
692.581	0.0146555
692.660	0.0147627
692.738	0.0147169
692.816	0.0148447
692.894	0.0147545
692.972	0.0148239
693.050	0.0147306
693.128	0.0149258
693.206	0.0148158
693.285	0.0147711
693.363	0.0147901
693.441	0.0149009
693.519	0.0149323
693.597	0.0149265
693.675	0.0149474
693.753	0.0150197
693.831	0.0149812
693.910	0.0152125
693.988	0.0152346
694.066	0.0152396
694.144	0.0153164
694.222	0.0152983
694.300	0.0153589
694.378	0.0154854
694.456	0.0152780
694.535	0.0153990
694.613	0.0153849
694.691	0.0154256
694.769	0.0153166
694.847	0.0153212
694.925	0.0153115
695.003	0.0151920
695.081	0.0150478
695.160	0.0147887
695.238	0.0148077
695.316	0.0147723
695.394	0.0147572
695.472	0.0145380
695.550	0.0145176
695.628	0.0144043
695.706	0.0142432
695.785	0.0142142
695.863	0.0142686
695.941	0.0143170
696.019	0.0143461
696.097	0.0144345
696.175	0.0145198
696.253	0.0144093
696.331	0.0144927
696.410	0.0146494
696.488	0.0147377
696.566	0.0147710
696.644	0.0148956
696.722	0.0147968
696.800	0.0148943
696.878	0.0151477
696.956	0.0151048
697.035	0.0151447
697.113	0.0151034
697.191	0.0151543
697.269	0.0151076
697.347	0.0149462
697.425	0.0150003
697.503	0.0149922
697.581	0.0149408
697.660	0.0149708
697.738	0.0148306
697.816	0.0149200
697.894	0.0149839
697.972	0.0150307
698.050	0.0149406
698.128	0.0148804
698.206	0.0151022
698.285	0.0151078
698.363	0.0150060
698.441	0.0149121
698.519	0.0151021
698.597	0.0150185
698.675	0.0150950
698.753	0.0150845
698.831	0.0151260
698.910	0.0150642
698.988	0.0151660
699.066	0.0150565
699.144	0.0151184
699.222	0.0151219
699.300	0.0151598
699.378	0.0151275
699.456	0.0151624
699.535	0.0150949
699.613	0.0150881
699.691	0.0151231
699.769	0.0150391
699.847	0.0150643
699.925	0.0151041
700.003	0.0149575
700.081	0.0148101
700.160	0.0146696
700.238	0.0146911
700.316	0.0143822
700.394	0.0145194
700.472	0.0142947
700.550	0.0143510
700.628	0.0143307
700.706	0.0144524
700.785	0.0144151
700.863	0.0144469
700.941	0.0144762
701.019	0.0145807
701.097	0.0147583
701.175	0.0147427
701.253	0.0147846
701.331	0.0149454
701.410	0.0150529
701.488	0.0149335
701.566	0.0150429
701.644	0.0150797
701.722	0.0151014
701.800	0.0153503
701.878	0.0154066
701.956	0.0154401
702.035	0.0155088
702.113	0.0154674
702.191	0.0154653
702.269	0.0154960
702.347	0.0152615
702.425	0.0152089
702.503	0.0149918
702.581	0.0149017
702.660	0.0146414
702.738	0.0146059
702.816	0.0146389
702.894	0.0146730
702.972	0.0146803
703.050	0.0148082
703.128	0.0147105
703.206	0.0146773
703.285	0.0149355
703.363	0.0149403
703.441	0.0150946
703.519	0.0151508
703.597	0.0151539
703.675	0.0151971
703.753	0.0152137
703.831	0.0152879
703.910	0.0153424
703.988	0.0152350
704.066	0.0154063
704.144	0.0154494
704.222	0.0153622
704.300	0.0153774
704.378	0.0153159
704.456	0.0150555
704.535	0.0152146
704.613	0.0151788
704.691	0.0150559
704.769	0.0151076
704.847	0.0150191
704.925	0.0150806
705.003	0.0150101
705.081	0.0149037
705.160	0.0150001
705.238	0.0150294
705.316	0.0149550
705.394	0.0149873
705.472	0.0150206
705.550	0.0149053
705.628	0.0149365
705.706	0.0148067
705.785	0.0147678
705.863	0.0146272
705.941	0.0145269
706.019	0.0145515
706.097	0.0145328
706.175	0.0144141
706.253	0.0143515
706.331	0.0142197
706.410	0.0142676
706.488	0.0142144
706.566	0.0143762
706.644	0.0144534
706.722	0.0142443
706.800	0.0144140
706.878	0.0144650
706.956	0.0144624
707.035	0.0146525
707.113	0.0147520
707.191	0.0149883
707.269	0.0150029
707.347	0.0151604
707.425	0.0152060
707.503	0.0153432
707.581	0.0154696
707.660	0.0155719
707.738	0.0154206
707.816	0.0153905
707.894	0.0154382
707.972	0.0151998
708.050	0.0151040
708.128	0.0150407
708.206	0.0149773
708.285	0.0149255
708.363	0.0147092
708.441	0.0145947
708.519	0.0147073
708.597	0.0145953
708.675	0.0146325
708.753	0.0146912
708.831	0.0145775
708.910	0.0146497
708.988	0.0148476
709.066	0.0149723
709.144	0.0151389
709.222	0.0152960
709.300	0.0154041
709.378	0.0154150
709.456	0.0155471
709.535	0.0155813
709.613	0.0157286
709.691	0.0157027
709.769	0.0158498
709.847	0.0156107
709.925	0.0155615
710.003	0.0154983
710.081	0.0153286
710.160	0.0151086
710.238	0.0151289
710.316	0.0150075
710.394	0.0149280
710.472	0.0148415
710.550	0.0148266
710.628	0.0147923
710.706	0.0147424
710.785	0.0149162
710.863	0.0148576
710.941	0.0148232
711.019	0.0149419
711.097	0.0149037
711.175	0.0148367
711.253	0.0149706
711.331	0.0148583
711.410	0.0147324
711.488	0.0146407
711.566	0.0146326
711.644	0.0146291
711.722	0.0142663
711.800	0.0143286
711.878	0.0140178
711.956	0.0140830
712.035	0.0139720
712.113	0.0139779
712.191	0.0139313
712.269	0.0138945
712.347	0.0140611
712.425	0.0142623
712.503	0.0143572
712.581	0.0143341
712.660	0.0145686
712.738	0.0147748
712.816	0.0148645
712.894	0.0150196
712.972	0.0150401
713.050	0.0151494
713.128	0.0152317
713.206	0.0152612
713.285	0.0151871
713.363	0.0153747
713.441	0.0152171
713.519	0.0152370
713.597	0.0151064
713.675	0.0151796
713.753	0.0149671
713.831	0.0149320
713.910	0.0149952
713.988	0.0147835
714.066	0.0146947
714.144	0.0147906
714.222	0.0147482
714.300	0.0148477
714.378	0.0147590
714.456	0.0147976
714.535	0.0147904
714.613	0.0148930
714.691	0.0151364
714.769	0.0151653
714.847	0.0152186
714.925	0.0153509
715.003	0.0152233
715.081	0.0153439
715.160	0.0156236
715.238	0.0156387
715.316	0.0157469
715.394	0.0156836
715.472	0.0156466
715.550	0.0157175
715.628	0.0156071
715.706	0.0155378
715.785	0.0154027
715.863	0.0152174
715.941	0.0152725
716.019	0.0151411
716.097	0.0150217
716.175	0.0149063
716.253	0.0147852
716.331	0.0147607
716.410	0.0146307
716.488	0.0147100
716.566	0.0146973
716.644	0.0147835
716.722	0.0146731
716.800	0.0147161
716.878	0.0147922
716.956	0.0148878
717.035	0.0148446
717.113	0.0148911
717.191	0.0148874
717.269	0.0147458
717.347	0.0146086
717.425	0.0146566
717.503	0.0144577
717.581	0.0142204
717.660	0.0141508
717.738	0.0141487
717.816	0.0139494
717.894	0.0141048
717.972	0.0139276
718.050	0.0140201
718.128	0.0141205
718.206	0.0141509
718.285	0.0141477
718.363	0.0143517
718.441	0.0144072
718.519	0.0146008
718.597	0.0148420
718.675	0.0148683
718.753	0.0150620
718.831	0.0151319
718.910	0.0150400
718.988	0.0151147
719.066	0.0151566
719.144	0.0150926
719.222	0.0150814
719.300	0.0150486
719.378	0.0148238
719.456	0.0147653
719.535	0.0147215
719.613	0.0148351
719.691	0.0147452
719.769	0.0149062
719.847	0.0147018
719.925	0.0149002
720.003	0.0149311
720.081	0.0150301
720.160	0.0150294
720.238	0.0151665
720.316	0.0153587
720.394	0.0152785
720.472	0.0153958
720.550	0.0155899
720.628	0.0154912
720.706	0.0155127
720.785	0.0155598
720.863	0.0155858
720.941	0.0155316
721.019	0.0156076
721.097	0.0155638
721.175	0.0153931
721.253	0.0154591
721.331	0.0156113
721.410	0.0156066
721.488	0.0155956
721.566	0.0155023
721.644	0.0155265
721.722	0.0154140
721.800	0.0154942
721.878	0.0152539
721.956	0.0153351
722.035	0.0152428
722.113	0.0152827
722.191	0.0151714
722.269	0.0151977
722.347	0.0148945
722.425	0.0148451
722.503	0.0147167
722.581	0.0148074
722.660	0.0147095
722.738	0.0146358
722.816	0.0147144
722.894	0.0144829
722.972	0.0145521
723.050	0.0145853
723.128	0.0145444
723.206	0.0145576
723.285	0.0144702
723.363	0.0144891
723.441	0.0143658
723.519	0.0143234
723.597	0.0143542
723.675	0.0142032
723.753	0.0141659
723.831	0.0142777
723.910	0.0142566
723.988	0.0140735
724.066	0.0144086
724.144	0.0144882
724.222	0.0143398
724.300	0.0145556
724.378	0.0145845
724.456	0.0144761
724.535	0.0146030
724.613	0.0148134
724.691	0.0148813
724.769	0.0149657
724.847	0.0149315
724.925	0.0149815
725.003	0.0150130
725.081	0.0149458
725.160	0.0149895
725.238	0.0148869
725.316	0.0149743
725.394	0.0150011
725.472	0.0149828
725.550	0.0149754
725.628	0.0150117
725.706	0.0151172
725.785	0.0150160
725.863	0.0151604
725.941	0.0152876
726.019	0.0153888
726.097	0.0152815
726.175	0.0153957
726.253	0.0154778
726.331	0.0155718
726.410	0.0156172
726.488	0.0157949
726.566	0.0158337
726.644	0.0157910
726.722	0.0157721
726.800	0.0157651
726.878	0.0156815
726.956	0.0156981
727.035	0.0157279
727.113	0.0156421
727.191	0.0156355
727.269	0.0155997
727.347	0.0155647
727.425	0.0155206
727.503	0.0155078
727.581	0.0153542
727.660	0.0153916
727.738	0.0152439
727.816	0.0153163
727.894	0.0154042
727.972	0.0152025
728.050	0.0152757
728.128	0.0151053
728.206	0.0149553
728.285	0.0151259
728.363	0.0150742
728.441	0.0149371
728.519	0.0149484
728.597	0.0146581
728.675	0.0145630
728.753	0.0146491
728.831	0.0145029
728.910	0.0144984
728.988	0.0142099
729.066	0.0139863
729.144	0.0139605
729.222	0.0140112
729.300	0.0139346
729.378	0.0138174
729.456	0.0138232
729.535	0.0139012
729.613	0.0140889
729.691	0.0140176
729.769	0.0140996
729.847	0.0141808
729.925	0.0142389
730.003	0.0144834
730.081	0.0144571
730.160	0.0144805
730.238	0.0145159
730.316	0.0147111
730.394	0.0147173
730.472	0.0146236
730.550	0.0147022
730.628	0.0148344
730.706	0.0148074
730.785	0.0148196
730.863	0.0148409
730.941	0.0147961
731.019	0.0148827
731.097	0.0148874
731.175	0.0148209
731.253	0.0147369
731.331	0.0147850
731.410	0.0147777
731.488	0.0149303
731.566	0.0149777
731.644	0.0148846
731.722	0.0150208
731.800	0.0148928
731.878	0.0151042
731.956	0.0149944
732.035	0.0152768
732.113	0.0151672
732.191	0.0152094
732.269	0.0154887
732.347	0.0154970
732.425	0.0154929
732.503	0.0156382
732.581	0.0157460
732.660	0.0157346
732.738	0.0156849
732.816	0.0155723
732.894	0.0155565
732.972	0.0155090
733.050	0.0155984
733.128	0.0154885
733.206	0.0152775
733.285	0.0152761
733.363	0.0152218
733.441	0.0152541
733.519	0.0152789
733.597	0.0151381
733.675	0.0149661
733.753	0.0150325
733.831	0.0150438
733.910	0.0150246
733.988	0.0149316
734.066	0.0148946
734.144	0.0149747
734.222	0.0148381
734.300	0.0150117
734.378	0.0148859
734.456	0.0148099
734.535	0.0147671
734.613	0.0147117
734.691	0.0147181
734.769	0.0146008
734.847	0.0143961
734.925	0.0144080
735.003	0.0143616
735.081	0.0141674
735.160	0.0141389
735.238	0.0140499
735.316	0.0139930
735.394	0.0139647
735.472	0.0139345
735.550	0.0139922
735.628	0.0140428
735.706	0.0139857
735.785	0.0140467
735.863	0.0141577
735.941	0.0143220
736.019	0.0141902
736.097	0.0144833
736.175	0.0146058
736.253	0.0145607
736.331	0.0145957
736.410	0.0146838
736.488	0.0148349
736.566	0.0147932
736.644	0.0147791
736.722	0.0149324
736.800	0.0148510
736.878	0.0150431
736.956	0.0150401
737.035	0.0149246
737.113	0.0149864
737.191	0.0150433
737.269	0.0150862
737.347	0.0150565
737.425	0.0150225
737.503	0.0150397
737.581	0.0151405
737.660	0.0150250
737.738	0.0150267
737.816	0.0152097
737.894	0.0151847
737.972	0.0153583
738.050	0.0155723
738.128	0.0154543
738.206	0.0154568
738.285	0.0154863
738.363	0.0154940
738.441	0.0155868
738.519	0.0156071
738.597	0.0156214
738.675	0.0156651
738.753	0.0156169
738.831	0.0157167
738.910	0.0157041
738.988	0.0155651
739.066	0.0154505
739.144	0.0155249
739.222	0.0154145
739.300	0.0151527
739.378	0.0150834
739.456	0.0150111
739.535	0.0150706
739.613	0.0149277
739.691	0.0149631
739.769	0.0148550
739.847	0.0150211
739.925	0.0150526
740.003	0.0148000
740.081	0.0149911
740.160	0.0149677
740.238	0.0149438
740.316	0.0149428
740.394	0.0149479
740.472	0.0149471
740.550	0.0147957
740.628	0.0148420
740.706	0.0146940
740.785	0.0147511
740.863	0.0147135
740.941	0.0146017
741.019	0.0143608
741.097	0.0143818
741.175	0.0142785
741.253	0.0141935
741.331	0.0139326
741.410	0.0140514
741.488	0.0142044
741.566	0.0140752
741.644	0.0140272
741.722	0.0141924
741.800	0.0141443
741.878	0.0141941
741.956	0.0140423
742.035	0.0141296
742.113	0.0143353
742.191	0.0141776
742.269	0.0144563
742.347	0.0144600
742.425	0.0144080
742.503	0.0145426
742.581	0.0146857
742.660	0.0146631
742.738	0.0148041
742.816	0.0147565
742.894	0.0147968
742.972	0.0148019
743.050	0.0148736
743.128	0.0147852
743.206	0.0148933
743.285	0.0149128
743.363	0.0149001
743.441	0.0150561
743.519	0.0149384
743.597	0.0148555
743.675	0.0150036
743.753	0.0151707
743.831	0.0151435
743.910	0.0151494
743.988	0.0152483
744.066	0.0153250
744.144	0.0155037
744.222	0.0155461
744.300	0.0157003
744.378	0.0157304
744.456	0.0157481
744.535	0.0158327
744.613	0.0158615
744.691	0.0159747
744.769	0.0158662
744.847	0.0157545
744.925	0.0157063
745.003	0.0156263
745.081	0.0155301
745.160	0.0154204
745.238	0.0153204
745.316	0.0151849
745.394	0.0151857
745.472	0.0153440
745.550	0.0150100
745.628	0.0150095
745.706	0.0150563
