05/03/2022	20:32:22	Ver.	4.1	UNKNOWN
Optical Delay	660.003261	Delta X		0.078125	Sweeps	1	Scan Rate	0/0
Coordinates	Axis 1	NaN	Axis 2	NaN	Axis 3	NaN	Axis 4	NaN	Axis 5	NaN	Axis 6	0.000000
TX Power	0.000000	RX Power	0.000000

660.003	0.0149054
660.081	0.0148568
660.160	0.0147961
660.238	0.0149416
660.316	0.0149487
660.394	0.0149115
660.472	0.0150623
660.550	0.0150018
660.628	0.0149156
660.706	0.0149136
660.785	0.0148562
660.863	0.0148998
660.941	0.0148011
661.019	0.0149906
661.097	0.0149491
661.175	0.0149169
661.253	0.0148192
661.331	0.0147320
661.410	0.0148475
661.488	0.0147881
661.566	0.0148431
661.644	0.0148454
661.722	0.0148529
661.800	0.0148803
661.878	0.0149274
661.956	0.0148749
662.035	0.0149255
662.113	0.0148385
662.191	0.0149780
662.269	0.0148119
662.347	0.0147138
662.425	0.0148846
662.503	0.0151068
662.581	0.0149667
662.660	0.0149547
662.738	0.0148273
662.816	0.0148847
662.894	0.0150089
662.972	0.0148606
663.050	0.0150506
663.128	0.0149232
663.206	0.0148550
663.285	0.0149745
663.363	0.0150034
663.441	0.0149979
663.519	0.0149978
663.597	0.0150071
663.675	0.0148784
663.753	0.0150311
663.831	0.0149615
663.910	0.0149284
663.988	0.0149319
664.066	0.0149317
664.144	0.0149484
664.222	0.0150639
664.300	0.0150548
664.378	0.0149663
664.456	0.0150748
664.535	0.0149605
664.613	0.0149402
664.691	0.0148383
664.769	0.0149677
664.847	0.0150241
664.925	0.0150300
665.003	0.0148888
665.081	0.0149454
665.160	0.0149730
665.238	0.0149967
665.316	0.0149532
665.394	0.0150019
665.472	0.0149620
665.550	0.0150798
665.628	0.0149062
665.706	0.0149129
665.785	0.0150536
665.863	0.0149655
665.941	0.0149335
666.019	0.0149756
666.097	0.0149001
666.175	0.0148840
666.253	0.0150268
666.331	0.0149789
666.410	0.0150057
666.488	0.0149121
666.566	0.0148476
666.644	0.0149625
666.722	0.0151259
666.800	0.0149745
666.878	0.0149464
666.956	0.0150853
667.035	0.0148832
667.113	0.0149496
667.191	0.0149328
667.269	0.0149342
667.347	0.0149691
667.425	0.0149881
667.503	0.0150101
667.581	0.0149050
667.660	0.0150879
667.738	0.0149353
667.816	0.0149506
667.894	0.0150723
667.972	0.0150882
668.050	0.0149332
668.128	0.0151239
668.206	0.0150334
668.285	0.0148460
668.363	0.0150878
668.441	0.0149495
668.519	0.0149033
668.597	0.0151338
668.675	0.0150460
668.753	0.0150333
668.831	0.0149874
668.910	0.0149611
668.988	0.0150839
669.066	0.0149401
669.144	0.0149215
669.222	0.0149233
669.300	0.0150147
669.378	0.0148193
669.456	0.0149651
669.535	0.0149089
669.613	0.0149287
669.691	0.0149519
669.769	0.0149763
669.847	0.0149810
669.925	0.0147383
670.003	0.0148399
670.081	0.0150287
670.160	0.0148701
670.238	0.0148298
670.316	0.0149933
670.394	0.0150352
670.472	0.0149794
670.550	0.0149718
670.628	0.0149214
670.706	0.0148090
670.785	0.0148640
670.863	0.0150121
670.941	0.0149317
671.019	0.0149197
671.097	0.0148561
671.175	0.0150188
671.253	0.0150235
671.331	0.0149181
671.410	0.0148468
671.488	0.0150104
671.566	0.0149110
671.644	0.0150237
671.722	0.0149491
671.800	0.0148966
671.878	0.0149287
671.956	0.0147964
672.035	0.0149168
672.113	0.0150482
672.191	0.0149090
672.269	0.0148698
672.347	0.0148798
672.425	0.0148489
672.503	0.0149498
672.581	0.0148746
672.660	0.0149912
672.738	0.0149111
672.816	0.0149496
672.894	0.0148900
672.972	0.0148586
673.050	0.0149577
673.128	0.0147835
673.206	0.0148199
673.285	0.0150294
673.363	0.0149300
673.441	0.0149189
673.519	0.0149380
673.597	0.0149735
673.675	0.0149686
673.753	0.0148911
673.831	0.0148507
673.910	0.0149592
673.988	0.0148818
674.066	0.0150237
674.144	0.0150185
674.222	0.0150074
674.300	0.0149478
674.378	0.0148621
674.456	0.0148599
674.535	0.0149716
674.613	0.0148742
674.691	0.0149297
674.769	0.0150785
674.847	0.0149414
674.925	0.0148661
675.003	0.0147035
675.081	0.0148790
675.160	0.0148703
675.238	0.0149727
675.316	0.0149940
675.394	0.0148535
675.472	0.0147384
675.550	0.0149812
675.628	0.0149624
675.706	0.0148147
675.785	0.0148220
675.863	0.0148158
675.941	0.0149203
676.019	0.0150668
676.097	0.0148582
676.175	0.0149219
676.253	0.0150125
676.331	0.0149088
676.410	0.0148683
676.488	0.0148674
676.566	0.0148939
676.644	0.0148324
676.722	0.0149561
676.800	0.0150466
676.878	0.0150515
676.956	0.0148463
677.035	0.0147092
677.113	0.0149124
677.191	0.0148402
677.269	0.0147517
677.347	0.0148685
677.425	0.0147477
677.503	0.0149131
677.581	0.0148695
677.660	0.0147957
677.738	0.0148967
677.816	0.0148669
677.894	0.0148276
677.972	0.0147881
678.050	0.0149117
678.128	0.0148302
678.206	0.0148264
678.285	0.0149297
678.363	0.0147664
678.441	0.0147419
678.519	0.0149478
678.597	0.0148235
678.675	0.0148064
678.753	0.0148969
678.831	0.0149759
678.910	0.0149497
678.988	0.0148656
679.066	0.0148349
679.144	0.0150520
679.222	0.0149030
679.300	0.0146857
679.378	0.0149484
679.456	0.0149257
679.535	0.0148580
679.613	0.0148806
679.691	0.0149445
679.769	0.0148998
679.847	0.0149015
679.925	0.0149123
680.003	0.0149001
680.081	0.0148888
680.160	0.0147517
680.238	0.0148965
680.316	0.0148650
680.394	0.0148344
680.472	0.0149561
680.550	0.0149810
680.628	0.0147578
680.706	0.0149448
680.785	0.0148542
680.863	0.0147029
680.941	0.0148309
681.019	0.0149548
681.097	0.0149447
681.175	0.0149061
681.253	0.0148979
681.331	0.0148623
681.410	0.0148406
681.488	0.0149208
681.566	0.0148165
681.644	0.0147760
681.722	0.0150096
681.800	0.0149245
681.878	0.0149843
681.956	0.0149384
682.035	0.0149788
682.113	0.0148515
682.191	0.0149350
682.269	0.0149606
682.347	0.0151141
682.425	0.0148441
682.503	0.0150842
682.581	0.0148142
682.660	0.0148558
682.738	0.0149250
682.816	0.0149429
682.894	0.0149639
682.972	0.0150077
683.050	0.0148139
683.128	0.0147823
683.206	0.0150456
683.285	0.0149786
683.363	0.0148050
683.441	0.0150359
683.519	0.0151138
683.597	0.0148150
683.675	0.0149519
683.753	0.0148878
683.831	0.0149333
683.910	0.0148876
683.988	0.0148520
684.066	0.0149592
684.144	0.0148220
684.222	0.0148916
684.300	0.0149010
684.378	0.0149505
684.456	0.0149039
684.535	0.0149065
684.613	0.0150035
684.691	0.0149609
684.769	0.0149430
684.847	0.0149795
684.925	0.0149890
685.003	0.0149288
685.081	0.0149242
685.160	0.0149557
685.238	0.0148003
685.316	0.0149782
685.394	0.0148897
685.472	0.0149005
685.550	0.0148640
685.628	0.0148110
685.706	0.0148956
685.785	0.0147362
685.863	0.0148436
685.941	0.0148520
686.019	0.0148202
686.097	0.0147621
686.175	0.0148064
686.253	0.0148162
686.331	0.0149715
686.410	0.0149560
686.488	0.0149200
686.566	0.0149464
686.644	0.0149583
686.722	0.0151572
686.800	0.0149932
686.878	0.0149197
686.956	0.0149910
687.035	0.0149654
687.113	0.0149146
687.191	0.0149821
687.269	0.0150290
687.347	0.0150542
687.425	0.0149304
687.503	0.0149824
687.581	0.0149021
687.660	0.0147206
687.738	0.0148112
687.816	0.0146779
687.894	0.0148062
687.972	0.0146858
688.050	0.0146025
688.128	0.0146770
688.206	0.0146732
688.285	0.0147389
688.363	0.0146645
688.441	0.0147270
688.519	0.0149033
688.597	0.0148660
688.675	0.0148033
688.753	0.0147767
688.831	0.0148140
688.910	0.0147838
688.988	0.0148347
689.066	0.0147849
689.144	0.0149011
689.222	0.0150302
689.300	0.0151102
689.378	0.0150586
689.456	0.0149680
689.535	0.0150679
689.613	0.0152300
689.691	0.0150778
689.769	0.0150861
689.847	0.0152164
689.925	0.0150974
690.003	0.0150734
690.081	0.0150459
690.160	0.0151630
690.238	0.0151058
690.316	0.0150800
690.394	0.0150701
690.472	0.0151585
690.550	0.0149312
690.628	0.0148711
690.706	0.0149031
690.785	0.0149019
690.863	0.0147739
690.941	0.0147157
691.019	0.0147685
691.097	0.0146691
691.175	0.0146799
691.253	0.0146700
691.331	0.0146964
691.410	0.0149084
691.488	0.0147758
691.566	0.0145896
691.644	0.0146986
691.722	0.0147375
691.800	0.0149133
691.878	0.0148293
691.956	0.0147684
692.035	0.0147835
692.113	0.0147830
692.191	0.0147288
692.269	0.0147056
692.347	0.0146281
692.425	0.0148103
692.503	0.0148099
692.581	0.0148573
692.660	0.0149029
692.738	0.0149789
692.816	0.0147422
692.894	0.0149010
692.972	0.0150682
693.050	0.0150388
693.128	0.0150928
693.206	0.0150917
693.285	0.0150504
693.363	0.0151980
693.441	0.0151302
693.519	0.0152422
693.597	0.0153149
693.675	0.0152869
693.753	0.0153362
693.831	0.0152673
693.910	0.0154160
693.988	0.0151762
694.066	0.0153853
694.144	0.0153682
694.222	0.0153281
694.300	0.0151243
694.378	0.0150315
694.456	0.0150105
694.535	0.0149078
694.613	0.0149219
694.691	0.0148649
694.769	0.0145152
694.847	0.0144776
694.925	0.0144808
695.003	0.0144174
695.081	0.0145055
695.160	0.0144806
695.238	0.0143442
695.316	0.0142729
695.394	0.0144263
695.472	0.0145106
695.550	0.0144518
695.628	0.0145036
695.706	0.0146451
695.785	0.0147000
695.863	0.0146627
695.941	0.0148061
696.019	0.0147810
696.097	0.0150539
696.175	0.0150539
696.253	0.0150586
696.331	0.0152757
696.410	0.0153595
696.488	0.0152313
696.566	0.0153644
696.644	0.0153140
696.722	0.0152170
696.800	0.0151384
696.878	0.0152472
696.956	0.0150892
697.035	0.0150815
697.113	0.0151799
697.191	0.0150698
697.269	0.0149593
697.347	0.0151532
697.425	0.0150388
697.503	0.0150673
697.581	0.0150390
697.660	0.0150089
697.738	0.0151038
697.816	0.0150620
697.894	0.0151740
697.972	0.0151132
698.050	0.0153130
698.128	0.0151530
698.206	0.0151846
698.285	0.0153705
698.363	0.0154523
698.441	0.0152603
698.519	0.0153255
698.597	0.0153078
698.675	0.0152509
698.753	0.0153239
698.831	0.0152146
698.910	0.0151691
698.988	0.0151366
699.066	0.0150727
699.144	0.0150127
699.222	0.0149686
699.300	0.0149345
699.378	0.0148161
699.456	0.0147626
699.535	0.0147424
699.613	0.0147282
699.691	0.0146840
699.769	0.0147251
699.847	0.0145609
699.925	0.0144746
700.003	0.0144234
700.081	0.0144673
700.160	0.0144363
700.238	0.0145980
700.316	0.0146264
700.394	0.0146816
700.472	0.0146851
700.550	0.0147421
700.628	0.0148371
700.706	0.0148586
700.785	0.0148920
700.863	0.0150336
700.941	0.0150184
701.019	0.0150294
701.097	0.0152197
701.175	0.0153926
701.253	0.0152446
701.331	0.0154030
701.410	0.0154079
701.488	0.0152958
701.566	0.0154088
701.644	0.0151055
701.722	0.0151306
701.800	0.0152515
701.878	0.0151057
701.956	0.0150005
702.035	0.0147935
702.113	0.0146607
702.191	0.0147920
702.269	0.0146431
702.347	0.0144877
702.425	0.0145752
702.503	0.0145348
702.581	0.0146258
702.660	0.0148887
702.738	0.0149146
702.816	0.0150281
702.894	0.0150204
702.972	0.0151979
703.050	0.0152517
703.128	0.0154105
703.206	0.0154111
703.285	0.0153954
703.363	0.0154662
703.441	0.0153860
703.519	0.0156075
703.597	0.0153712
703.675	0.0151768
703.753	0.0152773
703.831	0.0153623
703.910	0.0152270
703.988	0.0151145
704.066	0.0150613
704.144	0.0150207
704.222	0.0150336
704.300	0.0149831
704.378	0.0149873
704.456	0.0150278
704.535	0.0149335
704.613	0.0149416
704.691	0.0149433
704.769	0.0149018
704.847	0.0150350
704.925	0.0148512
705.003	0.0148881
705.081	0.0148940
705.160	0.0147988
705.238	0.0147079
705.316	0.0144644
705.394	0.0144641
705.472	0.0144746
705.550	0.0144656
705.628	0.0143584
705.706	0.0144034
705.785	0.0143095
705.863	0.0143057
705.941	0.0143497
706.019	0.0144592
706.097	0.0144406
706.175	0.0144038
706.253	0.0144296
706.331	0.0145660
706.410	0.0146023
706.488	0.0147079
706.566	0.0148765
706.644	0.0150645
706.722	0.0148516
706.800	0.0150677
706.878	0.0152161
706.956	0.0154256
707.035	0.0154862
707.113	0.0153042
707.191	0.0153286
707.269	0.0153111
707.347	0.0151315
707.425	0.0150757
707.503	0.0150983
707.581	0.0148485
707.660	0.0147569
707.738	0.0145964
707.816	0.0146267
707.894	0.0145779
707.972	0.0145976
708.050	0.0146204
708.128	0.0145231
708.206	0.0146684
708.285	0.0147465
708.363	0.0148831
708.441	0.0148610
708.519	0.0147803
708.597	0.0149232
708.675	0.0152100
708.753	0.0150898
708.831	0.0152604
708.910	0.0154479
708.988	0.0155402
709.066	0.0154871
709.144	0.0154911
709.222	0.0154903
709.300	0.0154803
709.378	0.0154124
709.456	0.0152711
709.535	0.0150903
709.613	0.0151097
709.691	0.0149303
709.769	0.0148286
709.847	0.0147396
709.925	0.0146357
710.003	0.0149022
710.081	0.0148501
710.160	0.0148536
710.238	0.0148259
710.316	0.0148695
710.394	0.0149471
710.472	0.0148471
710.550	0.0148868
710.628	0.0149682
710.706	0.0149611
710.785	0.0148890
710.863	0.0148235
710.941	0.0147407
711.019	0.0146585
711.097	0.0144610
711.175	0.0142056
711.253	0.0143616
711.331	0.0142530
711.410	0.0140392
711.488	0.0141686
711.566	0.0140720
711.644	0.0140358
711.722	0.0140373
711.800	0.0141528
711.878	0.0143716
711.956	0.0143291
712.035	0.0143797
712.113	0.0146257
712.191	0.0148091
712.269	0.0148134
712.347	0.0151006
712.425	0.0151799
712.503	0.0151744
712.581	0.0153622
712.660	0.0152431
712.738	0.0153143
712.816	0.0153227
712.894	0.0152223
712.972	0.0152116
713.050	0.0152170
713.128	0.0151090
713.206	0.0149768
713.285	0.0151195
713.363	0.0148512
713.441	0.0148144
713.519	0.0148617
713.597	0.0148007
713.675	0.0149046
713.753	0.0148520
713.831	0.0147527
713.910	0.0148625
713.988	0.0148312
714.066	0.0148286
714.144	0.0149265
714.222	0.0151907
714.300	0.0151939
714.378	0.0152576
714.456	0.0151245
714.535	0.0153233
714.613	0.0154904
714.691	0.0155717
714.769	0.0156974
714.847	0.0156092
714.925	0.0156920
715.003	0.0156381
715.081	0.0155073
715.160	0.0154336
715.238	0.0153772
715.316	0.0154177
715.394	0.0153680
715.472	0.0152454
715.550	0.0150416
715.628	0.0149548
715.706	0.0149310
715.785	0.0148744
715.863	0.0145896
715.941	0.0147184
716.019	0.0147092
716.097	0.0149803
716.175	0.0148878
716.253	0.0149492
716.331	0.0150611
716.410	0.0150598
716.488	0.0151138
716.566	0.0150594
716.644	0.0149364
716.722	0.0149536
716.800	0.0150089
716.878	0.0149251
716.956	0.0146432
717.035	0.0146892
717.113	0.0143768
717.191	0.0143119
717.269	0.0143883
717.347	0.0141547
717.425	0.0141073
717.503	0.0140507
717.581	0.0140288
717.660	0.0141179
717.738	0.0143023
717.816	0.0141753
717.894	0.0143472
717.972	0.0145887
718.050	0.0148122
718.128	0.0148536
718.206	0.0149825
718.285	0.0151249
718.363	0.0152394
718.441	0.0153143
718.519	0.0152414
718.597	0.0153343
718.675	0.0152268
718.753	0.0151751
718.831	0.0152055
718.910	0.0153246
718.988	0.0151183
719.066	0.0151862
719.144	0.0150676
719.222	0.0148074
719.300	0.0150204
719.378	0.0149178
719.456	0.0148557
719.535	0.0149879
719.613	0.0150964
719.691	0.0151520
719.769	0.0151732
719.847	0.0152203
719.925	0.0153862
720.003	0.0153847
720.081	0.0154927
720.160	0.0154679
720.238	0.0155293
720.316	0.0154053
720.394	0.0155706
720.472	0.0156864
720.550	0.0155863
720.628	0.0154969
720.706	0.0156866
720.785	0.0156989
720.863	0.0156306
720.941	0.0155854
721.019	0.0156315
721.097	0.0157304
721.175	0.0154841
721.253	0.0154615
721.331	0.0155618
721.410	0.0154942
721.488	0.0153733
721.566	0.0150849
721.644	0.0151468
721.722	0.0150893
721.800	0.0151021
721.878	0.0150705
721.956	0.0148560
722.035	0.0148975
722.113	0.0149069
722.191	0.0147778
722.269	0.0148505
722.347	0.0148661
722.425	0.0145991
722.503	0.0146404
722.581	0.0147361
722.660	0.0147445
722.738	0.0145890
722.816	0.0147060
722.894	0.0146267
722.972	0.0145190
723.050	0.0144058
723.128	0.0143042
723.206	0.0142986
723.285	0.0142649
723.363	0.0143591
723.441	0.0143304
723.519	0.0141101
723.597	0.0141487
723.675	0.0144421
723.753	0.0143484
723.831	0.0143731
723.910	0.0144184
723.988	0.0145283
724.066	0.0147071
724.144	0.0147607
724.222	0.0148221
724.300	0.0149500
724.378	0.0149954
724.456	0.0148747
724.535	0.0150610
724.613	0.0151535
724.691	0.0151454
724.769	0.0152748
724.847	0.0150325
724.925	0.0150410
725.003	0.0151205
725.081	0.0151324
725.160	0.0150083
725.238	0.0148980
725.316	0.0149626
725.394	0.0149224
725.472	0.0149916
725.550	0.0149284
725.628	0.0151118
725.706	0.0151419
725.785	0.0151648
725.863	0.0152575
725.941	0.0153496
726.019	0.0156190
726.097	0.0155518
726.175	0.0157151
726.253	0.0155679
726.331	0.0156629
726.410	0.0154886
726.488	0.0156107
726.566	0.0155147
726.644	0.0155264
726.722	0.0155235
726.800	0.0152891
726.878	0.0152686
726.956	0.0152872
727.035	0.0152196
727.113	0.0153259
727.191	0.0152339
727.269	0.0152042
727.347	0.0152549
727.425	0.0153299
727.503	0.0150590
727.581	0.0150190
727.660	0.0150584
727.738	0.0150723
727.816	0.0150312
727.894	0.0149136
727.972	0.0149085
728.050	0.0148697
728.128	0.0147058
728.206	0.0146418
728.285	0.0146884
728.363	0.0143499
728.441	0.0145110
728.519	0.0145082
728.597	0.0142973
728.675	0.0142352
728.753	0.0142468
728.831	0.0141211
728.910	0.0142641
728.988	0.0139694
729.066	0.0139449
729.144	0.0139633
729.222	0.0140363
729.300	0.0140259
729.378	0.0140141
729.456	0.0140792
729.535	0.0141705
729.613	0.0143272
729.691	0.0143211
729.769	0.0144902
729.847	0.0147072
729.925	0.0145149
730.003	0.0145399
730.081	0.0147992
730.160	0.0147694
730.238	0.0147628
730.316	0.0148627
730.394	0.0148399
730.472	0.0149052
730.550	0.0148204
730.628	0.0148615
730.706	0.0148180
730.785	0.0147871
730.863	0.0149146
730.941	0.0148632
731.019	0.0148621
731.097	0.0148905
731.175	0.0148379
731.253	0.0149049
731.331	0.0149156
731.410	0.0151086
731.488	0.0150411
731.566	0.0151927
731.644	0.0151858
731.722	0.0151019
731.800	0.0152259
731.878	0.0153943
731.956	0.0154672
732.035	0.0155194
732.113	0.0155510
732.191	0.0155130
732.269	0.0155978
732.347	0.0156042
732.425	0.0158536
732.503	0.0157826
732.581	0.0156821
732.660	0.0155078
732.738	0.0156033
732.816	0.0153598
732.894	0.0153755
732.972	0.0153016
733.050	0.0152875
733.128	0.0152440
733.206	0.0153227
733.285	0.0151431
733.363	0.0150054
733.441	0.0150272
733.519	0.0150961
733.597	0.0150546
733.675	0.0149997
733.753	0.0150258
733.831	0.0150443
733.910	0.0149191
733.988	0.0149584
734.066	0.0151107
734.144	0.0149230
734.222	0.0148545
734.300	0.0147660
734.378	0.0146077
734.456	0.0146479
734.535	0.0145994
734.613	0.0145162
734.691	0.0146233
734.769	0.0143748
734.847	0.0142982
734.925	0.0141175
735.003	0.0140909
735.081	0.0140106
735.160	0.0140540
735.238	0.0141442
735.316	0.0140259
735.394	0.0140398
735.472	0.0141556
735.550	0.0143519
735.628	0.0142872
735.706	0.0145413
735.785	0.0144395
735.863	0.0145786
735.941	0.0148370
736.019	0.0147083
736.097	0.0148167
736.175	0.0149825
736.253	0.0148050
736.331	0.0149656
736.410	0.0150401
736.488	0.0151359
736.566	0.0149435
736.644	0.0149548
736.722	0.0150900
736.800	0.0151278
736.878	0.0150372
736.956	0.0149310
737.035	0.0148711
737.113	0.0148896
737.191	0.0150352
737.269	0.0149444
737.347	0.0149764
737.425	0.0151814
737.503	0.0152101
737.581	0.0151476
737.660	0.0152579
737.738	0.0151746
737.816	0.0152736
737.894	0.0153224
737.972	0.0154794
738.050	0.0156117
738.128	0.0155302
738.206	0.0156234
738.285	0.0156252
738.363	0.0157093
738.441	0.0156899
738.519	0.0155678
738.597	0.0154615
738.675	0.0155085
738.753	0.0153556
738.831	0.0152992
738.910	0.0153241
738.988	0.0152589
739.066	0.0151202
739.144	0.0150460
739.222	0.0148115
739.300	0.0149376
739.378	0.0150510
739.456	0.0149232
739.535	0.0150185
739.613	0.0150072
739.691	0.0151196
739.769	0.0150344
739.847	0.0151238
739.925	0.0149805
740.003	0.0151511
740.081	0.0152287
740.160	0.0149461
740.238	0.0149731
740.316	0.0150056
740.394	0.0149434
740.472	0.0148210
740.550	0.0146805
740.628	0.0145226
740.706	0.0145687
740.785	0.0144520
740.863	0.0142566
740.941	0.0141948
741.019	0.0143015
741.097	0.0141707
741.175	0.0141921
741.253	0.0141984
741.331	0.0140539
741.410	0.0142638
741.488	0.0142488
741.566	0.0142575
741.644	0.0143092
741.722	0.0142185
741.800	0.0142811
741.878	0.0144009
741.956	0.0145037
742.035	0.0143930
742.113	0.0144886
742.191	0.0145909
742.269	0.0146379
742.347	0.0147129
742.425	0.0146510
742.503	0.0146738
742.581	0.0148898
742.660	0.0149216
742.738	0.0150159
742.816	0.0150280
742.894	0.0148328
742.972	0.0149853
743.050	0.0151123
743.128	0.0149171
743.206	0.0150583
743.285	0.0150037
743.363	0.0150465
743.441	0.0151733
743.519	0.0152210
743.597	0.0152501
743.675	0.0152495
743.753	0.0153046
743.831	0.0154353
743.910	0.0155466
743.988	0.0155117
744.066	0.0157446
744.144	0.0156373
744.222	0.0157120
744.300	0.0156766
744.378	0.0156632
744.456	0.0157935
744.535	0.0158570
744.613	0.0157696
744.691	0.0157432
744.769	0.0156157
744.847	0.0155452
744.925	0.0152865
745.003	0.0153030
745.081	0.0153325
745.160	0.0151953
745.238	0.0150491
745.316	0.0150345
745.394	0.0149999
745.472	0.0149689
745.550	0.0150085
745.628	0.0151489
745.706	0.0150290
