05/03/2022	20:33:07	Ver.	4.1	UNKNOWN
Optical Delay	660.003261	Delta X		0.078125	Sweeps	1	Scan Rate	0/0
Coordinates	Axis 1	NaN	Axis 2	NaN	Axis 3	NaN	Axis 4	NaN	Axis 5	NaN	Axis 6	0.000000
TX Power	0.000000	RX Power	0.000000

660.003	0.0142795
660.081	0.0142054
660.160	0.0142542
660.238	0.0142832
660.316	0.0142012
660.394	0.0141457
660.472	0.0142966
660.550	0.0141473
660.628	0.0143970
660.706	0.0142714
660.785	0.0141048
660.863	0.0142767
660.941	0.0142209
661.019	0.0141824
661.097	0.0142767
661.175	0.0142644
661.253	0.0142177
661.331	0.0142765
661.410	0.0142546
661.488	0.0143832
661.566	0.0143045
661.644	0.0142640
661.722	0.0142796
661.800	0.0143209
661.878	0.0142776
661.956	0.0142560
662.035	0.0141904
662.113	0.0142890
662.191	0.0143549
662.269	0.0142788
662.347	0.0143079
662.425	0.0142581
662.503	0.0143564
662.581	0.0143785
662.660	0.0142898
662.738	0.0143031
662.816	0.0142965
662.894	0.0141749
662.972	0.0142343
663.050	0.0142087
663.128	0.0144043
663.206	0.0142507
663.285	0.0141833
663.363	0.0142754
663.441	0.0143048
663.519	0.0142769
663.597	0.0142616
663.675	0.0143149
663.753	0.0142074
663.831	0.0143605
663.910	0.0143447
663.988	0.0144033
664.066	0.0142544
664.144	0.0143579
664.222	0.0143371
664.300	0.0143176
664.378	0.0142921
664.456	0.0143374
664.535	0.0143462
664.613	0.0143517
664.691	0.0142768
664.769	0.0142986
664.847	0.0142303
664.925	0.0142942
665.003	0.0143755
665.081	0.0143941
665.160	0.0143527
665.238	0.0143351
665.316	0.0142970
665.394	0.0143863
665.472	0.0143845
665.550	0.0142091
665.628	0.0142551
665.706	0.0143363
665.785	0.0143842
665.863	0.0144204
665.941	0.0143240
666.019	0.0143848
666.097	0.0144391
666.175	0.0142124
666.253	0.0142108
666.331	0.0144749
666.410	0.0146011
666.488	0.0142649
666.566	0.0143181
666.644	0.0144340
666.722	0.0143341
666.800	0.0141682
666.878	0.0143193
666.956	0.0144120
667.035	0.0145067
667.113	0.0143974
667.191	0.0143396
667.269	0.0144054
667.347	0.0143000
667.425	0.0143604
667.503	0.0141348
667.581	0.0142793
667.660	0.0143257
667.738	0.0143400
667.816	0.0143783
667.894	0.0143800
667.972	0.0143790
668.050	0.0142386
668.128	0.0142281
668.206	0.0144716
668.285	0.0141132
668.363	0.0141377
668.441	0.0142387
668.519	0.0141905
668.597	0.0143420
668.675	0.0143819
668.753	0.0143164
668.831	0.0142912
668.910	0.0143855
668.988	0.0142807
669.066	0.0142712
669.144	0.0143220
669.222	0.0142772
669.300	0.0143259
669.378	0.0143683
669.456	0.0142667
669.535	0.0143158
669.613	0.0143198
669.691	0.0143755
669.769	0.0144261
669.847	0.0141664
669.925	0.0142852
670.003	0.0143092
670.081	0.0142606
670.160	0.0143113
670.238	0.0141767
670.316	0.0143304
670.394	0.0143170
670.472	0.0142538
670.550	0.0142799
670.628	0.0144330
670.706	0.0143683
670.785	0.0142932
670.863	0.0143707
670.941	0.0143707
671.019	0.0141952
671.097	0.0142926
671.175	0.0143366
671.253	0.0143125
671.331	0.0142009
671.410	0.0144222
671.488	0.0142950
671.566	0.0142213
671.644	0.0142807
671.722	0.0143992
671.800	0.0143443
671.878	0.0142438
671.956	0.0142899
672.035	0.0142765
672.113	0.0143212
672.191	0.0143530
672.269	0.0142744
672.347	0.0141508
672.425	0.0142310
672.503	0.0142701
672.581	0.0143194
672.660	0.0142937
672.738	0.0142632
672.816	0.0142850
672.894	0.0141931
672.972	0.0140465
673.050	0.0142673
673.128	0.0142102
673.206	0.0141965
673.285	0.0141701
673.363	0.0142026
673.441	0.0143030
673.519	0.0142530
673.597	0.0142606
673.675	0.0142856
673.753	0.0143107
673.831	0.0143284
673.910	0.0141608
673.988	0.0141876
674.066	0.0141373
674.144	0.0142375
674.222	0.0142471
674.300	0.0143149
674.378	0.0142203
674.456	0.0141782
674.535	0.0142907
674.613	0.0144264
674.691	0.0142630
674.769	0.0142048
674.847	0.0143398
674.925	0.0141969
675.003	0.0142508
675.081	0.0140895
675.160	0.0142915
675.238	0.0143424
675.316	0.0142933
675.394	0.0142682
675.472	0.0142943
675.550	0.0143147
675.628	0.0141020
675.706	0.0141659
675.785	0.0142213
675.863	0.0142408
675.941	0.0142553
676.019	0.0141256
676.097	0.0142755
676.175	0.0142451
676.253	0.0141444
676.331	0.0142338
676.410	0.0142650
676.488	0.0141571
676.566	0.0142542
676.644	0.0142158
676.722	0.0141415
676.800	0.0143534
676.878	0.0142825
676.956	0.0141359
677.035	0.0142410
677.113	0.0142014
677.191	0.0143772
677.269	0.0143533
677.347	0.0142751
677.425	0.0142322
677.503	0.0143447
677.581	0.0143234
677.660	0.0143169
677.738	0.0143692
677.816	0.0143161
677.894	0.0142416
677.972	0.0143433
678.050	0.0143341
678.128	0.0141595
678.206	0.0142591
678.285	0.0142817
678.363	0.0143262
678.441	0.0142065
678.519	0.0143251
678.597	0.0142825
678.675	0.0142792
678.753	0.0141895
678.831	0.0140916
678.910	0.0143315
678.988	0.0144187
679.066	0.0142255
679.144	0.0142429
679.222	0.0143054
679.300	0.0143105
679.378	0.0143921
679.456	0.0143649
679.535	0.0142697
679.613	0.0142844
679.691	0.0142315
679.769	0.0143245
679.847	0.0142491
679.925	0.0142045
680.003	0.0142224
680.081	0.0141735
680.160	0.0141117
680.238	0.0142175
680.316	0.0142877
680.394	0.0141325
680.472	0.0142381
680.550	0.0142730
680.628	0.0142484
680.706	0.0142545
680.785	0.0142085
680.863	0.0142548
680.941	0.0142354
681.019	0.0143587
681.097	0.0143142
681.175	0.0143011
681.253	0.0140795
681.331	0.0141003
681.410	0.0143526
681.488	0.0142511
681.566	0.0143794
681.644	0.0144015
681.722	0.0141826
681.800	0.0142168
681.878	0.0143082
681.956	0.0143169
682.035	0.0142880
682.113	0.0143383
682.191	0.0143204
682.269	0.0143476
682.347	0.0142366
682.425	0.0143230
682.503	0.0142753
682.581	0.0142902
682.660	0.0142809
682.738	0.0142815
682.816	0.0142898
682.894	0.0142699
682.972	0.0141350
683.050	0.0141381
683.128	0.0142584
683.206	0.0142852
683.285	0.0141122
683.363	0.0142368
683.441	0.0142790
683.519	0.0142498
683.597	0.0142972
683.675	0.0141397
683.753	0.0142561
683.831	0.0141929
683.910	0.0142120
683.988	0.0143330
684.066	0.0141982
684.144	0.0142374
684.222	0.0141200
684.300	0.0142366
684.378	0.0143385
684.456	0.0143021
684.535	0.0141153
684.613	0.0141415
684.691	0.0141207
684.769	0.0142329
684.847	0.0142805
684.925	0.0140995
685.003	0.0140864
685.081	0.0139745
685.160	0.0142349
685.238	0.0140752
685.316	0.0140740
685.394	0.0142105
685.472	0.0142692
685.550	0.0143410
685.628	0.0142998
685.706	0.0143858
685.785	0.0143790
685.863	0.0143717
685.941	0.0143415
686.019	0.0144246
686.097	0.0144309
686.175	0.0144136
686.253	0.0144912
686.331	0.0144434
686.410	0.0144328
686.488	0.0145519
686.566	0.0143011
686.644	0.0143396
686.722	0.0142904
686.800	0.0142994
686.878	0.0142789
686.956	0.0141703
687.035	0.0141294
687.113	0.0142436
687.191	0.0140889
687.269	0.0141163
687.347	0.0142899
687.425	0.0142059
687.503	0.0141206
687.581	0.0142420
687.660	0.0142714
687.738	0.0142015
687.816	0.0143714
687.894	0.0143222
687.972	0.0143580
688.050	0.0142477
688.128	0.0144751
688.206	0.0143983
688.285	0.0143872
688.363	0.0143694
688.441	0.0145463
688.519	0.0144466
688.597	0.0146136
688.675	0.0144090
688.753	0.0145333
688.831	0.0147545
688.910	0.0145287
688.988	0.0145416
689.066	0.0145258
689.144	0.0145559
689.222	0.0145804
689.300	0.0144523
689.378	0.0143880
689.456	0.0144009
689.535	0.0143037
689.613	0.0141854
689.691	0.0141455
689.769	0.0141136
689.847	0.0141570
689.925	0.0141008
690.003	0.0140791
690.081	0.0140999
690.160	0.0140866
690.238	0.0141708
690.316	0.0143377
690.394	0.0140275
690.472	0.0141396
690.550	0.0140781
690.628	0.0140540
690.706	0.0140905
690.785	0.0142335
690.863	0.0141553
690.941	0.0140518
691.019	0.0141256
691.097	0.0142879
691.175	0.0141183
691.253	0.0141266
691.331	0.0141887
691.410	0.0141654
691.488	0.0141769
691.566	0.0142472
691.644	0.0141264
691.722	0.0142825
691.800	0.0142482
691.878	0.0142948
691.956	0.0143301
692.035	0.0143551
692.113	0.0144974
692.191	0.0145354
692.269	0.0146249
692.347	0.0146088
692.425	0.0146460
692.503	0.0146249
692.581	0.0147685
692.660	0.0146516
692.738	0.0149006
692.816	0.0146665
692.894	0.0147217
692.972	0.0148350
693.050	0.0147230
693.128	0.0147089
693.206	0.0148106
693.285	0.0147261
693.363	0.0145374
693.441	0.0144498
693.519	0.0144669
693.597	0.0143710
693.675	0.0142806
693.753	0.0142616
693.831	0.0141297
693.910	0.0141645
693.988	0.0139918
694.066	0.0139633
694.144	0.0139044
694.222	0.0139972
694.300	0.0138395
694.378	0.0137498
694.456	0.0139214
694.535	0.0140179
694.613	0.0138827
694.691	0.0139962
694.769	0.0140766
694.847	0.0141049
694.925	0.0141473
695.003	0.0142062
695.081	0.0142636
695.160	0.0144774
695.238	0.0144273
695.316	0.0145094
695.394	0.0144323
695.472	0.0146591
695.550	0.0145848
695.628	0.0145440
695.706	0.0146834
695.785	0.0145831
695.863	0.0144402
695.941	0.0145146
696.019	0.0145192
696.097	0.0143847
696.175	0.0142974
696.253	0.0144013
696.331	0.0142898
696.410	0.0142757
696.488	0.0144270
696.566	0.0143493
696.644	0.0144386
696.722	0.0144161
696.800	0.0143056
696.878	0.0143633
696.956	0.0144157
697.035	0.0144272
697.113	0.0145046
697.191	0.0145081
697.269	0.0145012
697.347	0.0146451
697.425	0.0145664
697.503	0.0146101
697.581	0.0147449
697.660	0.0147363
697.738	0.0146310
697.816	0.0147269
697.894	0.0146149
697.972	0.0145106
698.050	0.0144145
698.128	0.0145360
698.206	0.0145960
698.285	0.0144602
698.363	0.0143817
698.441	0.0142523
698.519	0.0142097
698.597	0.0140915
698.675	0.0137794
698.753	0.0137825
698.831	0.0137985
698.910	0.0137621
698.988	0.0138599
699.066	0.0136726
699.144	0.0137125
699.222	0.0137025
699.300	0.0138722
699.378	0.0139915
699.456	0.0140237
699.535	0.0140134
699.613	0.0141886
699.691	0.0140871
699.769	0.0141910
699.847	0.0143296
699.925	0.0142391
700.003	0.0142985
700.081	0.0144015
700.160	0.0146381
700.238	0.0145544
700.316	0.0146093
700.394	0.0147497
700.472	0.0146219
700.550	0.0144890
700.628	0.0147264
700.706	0.0146728
700.785	0.0143439
700.863	0.0143755
700.941	0.0143147
701.019	0.0139928
701.097	0.0141080
701.175	0.0140000
701.253	0.0138745
701.331	0.0139482
701.410	0.0138800
701.488	0.0137860
701.566	0.0140176
701.644	0.0140580
701.722	0.0138850
701.800	0.0140690
701.878	0.0142788
701.956	0.0142889
702.035	0.0143769
702.113	0.0144926
702.191	0.0145454
702.269	0.0144794
702.347	0.0145131
702.425	0.0144727
702.503	0.0146264
702.581	0.0146793
702.660	0.0145966
702.738	0.0145387
702.816	0.0145661
702.894	0.0145018
702.972	0.0145007
703.050	0.0144564
703.128	0.0142784
703.206	0.0143481
703.285	0.0142542
703.363	0.0142115
703.441	0.0141619
703.519	0.0142113
703.597	0.0142095
703.675	0.0140614
703.753	0.0141719
703.831	0.0142521
703.910	0.0142001
703.988	0.0141533
704.066	0.0140842
704.144	0.0140617
704.222	0.0140152
704.300	0.0138456
704.378	0.0139064
704.456	0.0138138
704.535	0.0138342
704.613	0.0137060
704.691	0.0137344
704.769	0.0136604
704.847	0.0136559
704.925	0.0136192
705.003	0.0136707
705.081	0.0137444
705.160	0.0137972
705.238	0.0138287
705.316	0.0138709
705.394	0.0140092
705.472	0.0140234
705.550	0.0141470
705.628	0.0143150
705.706	0.0143848
705.785	0.0144411
705.863	0.0146619
705.941	0.0146364
706.019	0.0147395
706.097	0.0147165
706.175	0.0146361
706.253	0.0146562
706.331	0.0145082
706.410	0.0145361
706.488	0.0143869
706.566	0.0143090
706.644	0.0141851
706.722	0.0142004
706.800	0.0140895
706.878	0.0139788
706.956	0.0139555
707.035	0.0141136
707.113	0.0140951
707.191	0.0140228
707.269	0.0142069
707.347	0.0140559
707.425	0.0142541
707.503	0.0142431
707.581	0.0145042
707.660	0.0145358
707.738	0.0145112
707.816	0.0145139
707.894	0.0146284
707.972	0.0147310
708.050	0.0147928
708.128	0.0149202
708.206	0.0149503
708.285	0.0148678
708.363	0.0148164
708.441	0.0147127
708.519	0.0147389
708.597	0.0145007
708.675	0.0144602
708.753	0.0143493
708.831	0.0141773
708.910	0.0140613
708.988	0.0141465
709.066	0.0143423
709.144	0.0141704
709.222	0.0143604
709.300	0.0142941
709.378	0.0143700
709.456	0.0145197
709.535	0.0144920
709.613	0.0144543
709.691	0.0144306
709.769	0.0145980
709.847	0.0145753
709.925	0.0142448
710.003	0.0141886
710.081	0.0142063
710.160	0.0140873
710.238	0.0140340
710.316	0.0138244
710.394	0.0137955
710.472	0.0137785
710.550	0.0136717
710.628	0.0136962
710.706	0.0136082
710.785	0.0135653
710.863	0.0138219
710.941	0.0138584
711.019	0.0138634
711.097	0.0139732
711.175	0.0141148
711.253	0.0143053
711.331	0.0141901
711.410	0.0141502
711.488	0.0142889
711.566	0.0145898
711.644	0.0145761
711.722	0.0145590
711.800	0.0146537
711.878	0.0146419
711.956	0.0146037
712.035	0.0146861
712.113	0.0145844
712.191	0.0146666
712.269	0.0145804
712.347	0.0144907
712.425	0.0144635
712.503	0.0144977
712.581	0.0143929
712.660	0.0142977
712.738	0.0144010
712.816	0.0142835
712.894	0.0142245
712.972	0.0142116
713.050	0.0141704
713.128	0.0142955
713.206	0.0142488
713.285	0.0143995
713.363	0.0146089
713.441	0.0144769
713.519	0.0146875
713.597	0.0147461
713.675	0.0146485
713.753	0.0148949
713.831	0.0149433
713.910	0.0149322
713.988	0.0150436
714.066	0.0150562
714.144	0.0149570
714.222	0.0149078
714.300	0.0146974
714.378	0.0148644
714.456	0.0147399
714.535	0.0144305
714.613	0.0145157
714.691	0.0144072
714.769	0.0142830
714.847	0.0140990
714.925	0.0139680
715.003	0.0141584
715.081	0.0142012
715.160	0.0142301
715.238	0.0142431
715.316	0.0144277
715.394	0.0143081
715.472	0.0145213
715.550	0.0145446
715.628	0.0146443
715.706	0.0146638
715.785	0.0146143
715.863	0.0145355
715.941	0.0145207
716.019	0.0143910
716.097	0.0142075
716.175	0.0141372
716.253	0.0141293
716.331	0.0138800
716.410	0.0137314
716.488	0.0136003
716.566	0.0135625
716.644	0.0135378
716.722	0.0135239
716.800	0.0134488
716.878	0.0135657
716.956	0.0136823
717.035	0.0137402
717.113	0.0137640
717.191	0.0139007
717.269	0.0141818
717.347	0.0140408
717.425	0.0142364
717.503	0.0142651
717.581	0.0144340
717.660	0.0144704
717.738	0.0145173
717.816	0.0144525
717.894	0.0145226
717.972	0.0146268
718.050	0.0145782
718.128	0.0145251
718.206	0.0144798
718.285	0.0145206
718.363	0.0146444
718.441	0.0144644
718.519	0.0144792
718.597	0.0144338
718.675	0.0142880
718.753	0.0144057
718.831	0.0144581
718.910	0.0143049
718.988	0.0143562
719.066	0.0143121
719.144	0.0144250
719.222	0.0144791
719.300	0.0145674
719.378	0.0145434
719.456	0.0145927
719.535	0.0146320
719.613	0.0145722
719.691	0.0145663
719.769	0.0147346
719.847	0.0147008
719.925	0.0148729
720.003	0.0148436
720.081	0.0148495
720.160	0.0147549
720.238	0.0146719
720.316	0.0146754
720.394	0.0146402
720.472	0.0145711
720.550	0.0144417
720.628	0.0146318
720.706	0.0144897
720.785	0.0143681
720.863	0.0143672
720.941	0.0142828
721.019	0.0141711
721.097	0.0141406
721.175	0.0142111
721.253	0.0141444
721.331	0.0141415
721.410	0.0141059
721.488	0.0141436
721.566	0.0141185
721.644	0.0142004
721.722	0.0141608
721.800	0.0141611
721.878	0.0142538
721.956	0.0140546
722.035	0.0140170
722.113	0.0140509
722.191	0.0139635
722.269	0.0139447
722.347	0.0137006
722.425	0.0137257
722.503	0.0136578
722.581	0.0136327
722.660	0.0135782
722.738	0.0133601
722.816	0.0135004
722.894	0.0136523
722.972	0.0135807
723.050	0.0135397
723.128	0.0138357
723.206	0.0136959
723.285	0.0138022
723.363	0.0138309
723.441	0.0140041
723.519	0.0142422
723.597	0.0143857
723.675	0.0143159
723.753	0.0143757
723.831	0.0144659
723.910	0.0143454
723.988	0.0144671
724.066	0.0145000
724.144	0.0144281
724.222	0.0143309
724.300	0.0143615
724.378	0.0142343
724.456	0.0143764
724.535	0.0143567
724.613	0.0141299
724.691	0.0142211
724.769	0.0141518
724.847	0.0141186
724.925	0.0143925
725.003	0.0144300
725.081	0.0146475
725.160	0.0146299
725.238	0.0144915
725.316	0.0146555
725.394	0.0147163
725.472	0.0146928
725.550	0.0149380
725.628	0.0149465
725.706	0.0148299
725.785	0.0148089
725.863	0.0147818
725.941	0.0147723
726.019	0.0147594
726.097	0.0147807
726.175	0.0145602
726.253	0.0146934
726.331	0.0146046
726.410	0.0144091
726.488	0.0144117
726.566	0.0144488
726.644	0.0145377
726.722	0.0144789
726.800	0.0143417
726.878	0.0143941
726.956	0.0144026
727.035	0.0143156
727.113	0.0140961
727.191	0.0143399
727.269	0.0142604
727.347	0.0141261
727.425	0.0142804
727.503	0.0142655
727.581	0.0141627
727.660	0.0140736
727.738	0.0139848
727.816	0.0139545
727.894	0.0139577
727.972	0.0140731
728.050	0.0138975
728.128	0.0138890
728.206	0.0139011
728.285	0.0136640
728.363	0.0137245
728.441	0.0137520
728.519	0.0137222
728.597	0.0136027
728.675	0.0137831
728.753	0.0135853
728.831	0.0136992
728.910	0.0137656
728.988	0.0137568
729.066	0.0139245
729.144	0.0139191
729.222	0.0138638
729.300	0.0139280
729.378	0.0141377
729.456	0.0140359
729.535	0.0141056
729.613	0.0142292
729.691	0.0142907
729.769	0.0142719
729.847	0.0143582
729.925	0.0142663
730.003	0.0142309
730.081	0.0144396
730.160	0.0143322
730.238	0.0143360
730.316	0.0143935
730.394	0.0144098
730.472	0.0144740
730.550	0.0142252
730.628	0.0144218
730.706	0.0144828
730.785	0.0143539
730.863	0.0143759
730.941	0.0146538
731.019	0.0145461
731.097	0.0145277
731.175	0.0146658
731.253	0.0146494
731.331	0.0146685
731.410	0.0148571
731.488	0.0148959
731.566	0.0148356
731.644	0.0149614
731.722	0.0149452
731.800	0.0150632
731.878	0.0150069
731.956	0.0149578
732.035	0.0149155
732.113	0.0148413
732.191	0.0147298
732.269	0.0147179
732.347	0.0146906
732.425	0.0146220
732.503	0.0146265
732.581	0.0144886
732.660	0.0143873
732.738	0.0144576
732.816	0.0144411
732.894	0.0143614
732.972	0.0144301
733.050	0.0144549
733.128	0.0143990
733.206	0.0143987
733.285	0.0144308
733.363	0.0144511
733.441	0.0144316
733.519	0.0143848
733.597	0.0144443
733.675	0.0144245
733.753	0.0143443
733.831	0.0141098
733.910	0.0141568
733.988	0.0141486
734.066	0.0138692
734.144	0.0139016
734.222	0.0137315
734.300	0.0136742
734.378	0.0134859
734.456	0.0135153
734.535	0.0134041
734.613	0.0136155
734.691	0.0136669
734.769	0.0135413
734.847	0.0136542
734.925	0.0137194
735.003	0.0137366
735.081	0.0137630
735.160	0.0137518
735.238	0.0137434
735.316	0.0139207
735.394	0.0139790
735.472	0.0139680
735.550	0.0139352
735.628	0.0140819
735.706	0.0141306
735.785	0.0142031
735.863	0.0141730
735.941	0.0141099
736.019	0.0142146
736.097	0.0142002
736.175	0.0140665
736.253	0.0140833
736.331	0.0141064
736.410	0.0141029
736.488	0.0141013
736.566	0.0141995
736.644	0.0142439
736.722	0.0142854
736.800	0.0142171
736.878	0.0142588
736.956	0.0143553
737.035	0.0144236
737.113	0.0144650
737.191	0.0144656
737.269	0.0145609
737.347	0.0146658
737.425	0.0146967
737.503	0.0147796
737.581	0.0148512
737.660	0.0148950
737.738	0.0148625
737.816	0.0149360
737.894	0.0148421
737.972	0.0148038
738.050	0.0145885
738.128	0.0146474
738.206	0.0146413
738.285	0.0146361
738.363	0.0145498
738.441	0.0146384
738.519	0.0145438
738.597	0.0145538
738.675	0.0145345
738.753	0.0145170
738.831	0.0144775
738.910	0.0144349
738.988	0.0145308
739.066	0.0146269
739.144	0.0145359
739.222	0.0145010
739.300	0.0146948
739.378	0.0147018
739.456	0.0146218
739.535	0.0145254
739.613	0.0145725
739.691	0.0145062
739.769	0.0144744
739.847	0.0144227
739.925	0.0143071
740.003	0.0141726
740.081	0.0141084
740.160	0.0139592
740.238	0.0138715
740.316	0.0137639
740.394	0.0138103
740.472	0.0137421
740.550	0.0135851
740.628	0.0135191
740.706	0.0133954
740.785	0.0135440
740.863	0.0137056
740.941	0.0136106
741.019	0.0136415
741.097	0.0137520
741.175	0.0136922
741.253	0.0137880
741.331	0.0136060
741.410	0.0137470
741.488	0.0137374
741.566	0.0137028
741.644	0.0137850
741.722	0.0138414
741.800	0.0138480
741.878	0.0139655
741.956	0.0139855
742.035	0.0140563
742.113	0.0140992
742.191	0.0141829
742.269	0.0142348
742.347	0.0141381
742.425	0.0142018
742.503	0.0142786
742.581	0.0142412
742.660	0.0143885
742.738	0.0142866
742.816	0.0143364
742.894	0.0143684
742.972	0.0143604
743.050	0.0143897
743.128	0.0144936
743.206	0.0145771
743.285	0.0146164
743.363	0.0145574
743.441	0.0147352
743.519	0.0147881
743.597	0.0147411
743.675	0.0149904
743.753	0.0148940
743.831	0.0150546
743.910	0.0148978
743.988	0.0150836
744.066	0.0150558
744.144	0.0149462
744.222	0.0149180
744.300	0.0148724
744.378	0.0148173
744.456	0.0148968
744.535	0.0147508
744.613	0.0147231
744.691	0.0144485
744.769	0.0144317
744.847	0.0144552
744.925	0.0144146
745.003	0.0142896
745.081	0.0142484
745.160	0.0141914
745.238	0.0143784
745.316	0.0144503
745.394	0.0144370
745.472	0.0143689
745.550	0.0143628
745.628	0.0144814
745.706	0.0144170
