05/03/2022	20:34:57	Ver.	4.1	UNKNOWN
Optical Delay	660.003261	Delta X		0.078125	Sweeps	1	Scan Rate	0/0
Coordinates	Axis 1	NaN	Axis 2	NaN	Axis 3	NaN	Axis 4	NaN	Axis 5	NaN	Axis 6	0.000000
TX Power	0.000000	RX Power	0.000000

660.003	0.0143828
660.081	0.0142475
660.160	0.0144031
660.238	0.0144183
660.316	0.0142763
660.394	0.0142212
660.472	0.0143208
660.550	0.0143057
660.628	0.0143961
660.706	0.0142865
660.785	0.0143248
660.863	0.0143297
660.941	0.0143740
661.019	0.0143868
661.097	0.0143447
661.175	0.0143403
661.253	0.0142476
661.331	0.0142986
661.410	0.0143043
661.488	0.0142868
661.566	0.0142666
661.644	0.0142654
661.722	0.0142848
661.800	0.0144899
661.878	0.0144839
661.956	0.0142525
662.035	0.0142883
662.113	0.0142428
662.191	0.0143043
662.269	0.0143345
662.347	0.0143891
662.425	0.0143056
662.503	0.0143330
662.581	0.0143272
662.660	0.0142065
662.738	0.0142233
662.816	0.0143424
662.894	0.0142902
662.972	0.0142062
663.050	0.0142719
663.128	0.0142396
663.206	0.0142477
663.285	0.0142666
663.363	0.0141625
663.441	0.0142793
663.519	0.0141769
663.597	0.0142994
663.675	0.0143255
663.753	0.0143143
663.831	0.0142739
663.910	0.0142928
663.988	0.0143626
664.066	0.0143538
664.144	0.0142416
664.222	0.0144017
664.300	0.0141948
664.378	0.0142437
664.456	0.0142309
664.535	0.0142809
664.613	0.0141944
664.691	0.0141429
664.769	0.0143212
664.847	0.0144616
664.925	0.0143525
665.003	0.0143288
665.081	0.0142770
665.160	0.0141705
665.238	0.0140895
665.316	0.0143516
665.394	0.0142503
665.472	0.0142888
665.550	0.0142646
665.628	0.0141428
665.706	0.0143356
665.785	0.0142864
665.863	0.0141358
665.941	0.0142051
666.019	0.0144476
666.097	0.0141248
666.175	0.0142341
666.253	0.0142831
666.331	0.0141899
666.410	0.0141918
666.488	0.0143244
666.566	0.0141788
666.644	0.0141187
666.722	0.0142282
666.800	0.0143760
666.878	0.0142468
666.956	0.0143148
667.035	0.0143041
667.113	0.0143634
667.191	0.0142267
667.269	0.0143491
667.347	0.0143068
667.425	0.0141970
667.503	0.0142742
667.581	0.0141422
667.660	0.0143243
667.738	0.0142484
667.816	0.0142800
667.894	0.0141871
667.972	0.0142242
668.050	0.0142260
668.128	0.0142442
668.206	0.0142857
668.285	0.0142680
668.363	0.0142516
668.441	0.0142390
668.519	0.0143107
668.597	0.0142265
668.675	0.0142183
668.753	0.0142163
668.831	0.0143256
668.910	0.0142664
668.988	0.0143024
669.066	0.0144526
669.144	0.0142284
669.222	0.0143694
669.300	0.0142750
669.378	0.0143385
669.456	0.0143520
669.535	0.0142529
669.613	0.0143781
669.691	0.0144128
669.769	0.0144747
669.847	0.0142959
669.925	0.0143955
670.003	0.0143639
670.081	0.0143207
670.160	0.0143765
670.238	0.0143459
670.316	0.0143767
670.394	0.0142797
670.472	0.0142037
670.550	0.0143739
670.628	0.0144154
670.706	0.0143184
670.785	0.0143706
670.863	0.0144400
670.941	0.0144003
671.019	0.0144386
671.097	0.0143658
671.175	0.0144071
671.253	0.0145156
671.331	0.0144788
671.410	0.0143796
671.488	0.0142429
671.566	0.0142908
671.644	0.0145107
671.722	0.0144640
671.800	0.0144054
671.878	0.0145125
671.956	0.0145184
672.035	0.0143140
672.113	0.0143163
672.191	0.0144400
672.269	0.0144370
672.347	0.0144270
672.425	0.0142396
672.503	0.0142738
672.581	0.0141931
672.660	0.0144041
672.738	0.0144688
672.816	0.0142879
672.894	0.0143429
672.972	0.0144028
673.050	0.0144914
673.128	0.0143041
673.206	0.0143159
673.285	0.0142252
673.363	0.0142275
673.441	0.0142390
673.519	0.0143128
673.597	0.0143582
673.675	0.0142225
673.753	0.0142871
673.831	0.0143563
673.910	0.0144202
673.988	0.0143337
674.066	0.0142478
674.144	0.0144398
674.222	0.0144483
674.300	0.0143545
674.378	0.0143403
674.456	0.0142809
674.535	0.0143375
674.613	0.0144165
674.691	0.0143301
674.769	0.0145064
674.847	0.0143497
674.925	0.0144059
675.003	0.0142876
675.081	0.0143533
675.160	0.0142751
675.238	0.0141683
675.316	0.0142313
675.394	0.0143473
675.472	0.0143339
675.550	0.0142938
675.628	0.0143220
675.706	0.0142860
675.785	0.0143204
675.863	0.0143853
675.941	0.0143225
676.019	0.0145248
676.097	0.0144465
676.175	0.0143996
676.253	0.0144379
676.331	0.0143658
676.410	0.0143974
676.488	0.0143274
676.566	0.0143282
676.644	0.0143509
676.722	0.0145038
676.800	0.0143542
676.878	0.0144451
676.956	0.0144471
677.035	0.0142920
677.113	0.0143076
677.191	0.0144606
677.269	0.0144349
677.347	0.0143285
677.425	0.0144423
677.503	0.0143699
677.581	0.0144962
677.660	0.0145566
677.738	0.0144578
677.816	0.0143977
677.894	0.0143931
677.972	0.0143958
678.050	0.0145249
678.128	0.0144546
678.206	0.0144794
678.285	0.0142953
678.363	0.0145628
678.441	0.0144398
678.519	0.0144819
678.597	0.0145508
678.675	0.0144638
678.753	0.0143944
678.831	0.0143989
678.910	0.0145184
678.988	0.0143922
679.066	0.0142837
679.144	0.0145684
679.222	0.0143662
679.300	0.0144949
679.378	0.0143610
679.456	0.0144022
679.535	0.0145786
679.613	0.0143289
679.691	0.0144094
679.769	0.0144572
679.847	0.0144827
679.925	0.0143822
680.003	0.0143600
680.081	0.0144522
680.160	0.0144368
680.238	0.0144205
680.316	0.0143647
680.394	0.0143998
680.472	0.0144308
680.550	0.0143958
680.628	0.0143562
680.706	0.0143356
680.785	0.0143712
680.863	0.0144238
680.941	0.0143517
681.019	0.0145386
681.097	0.0143247
681.175	0.0144485
681.253	0.0146538
681.331	0.0145498
681.410	0.0143782
681.488	0.0145095
681.566	0.0145249
681.644	0.0143363
681.722	0.0144485
681.800	0.0143516
681.878	0.0143899
681.956	0.0143777
682.035	0.0143711
682.113	0.0144057
682.191	0.0142558
682.269	0.0142605
682.347	0.0143345
682.425	0.0142712
682.503	0.0142321
682.581	0.0143682
682.660	0.0142559
682.738	0.0143265
682.816	0.0143317
682.894	0.0142953
682.972	0.0145033
683.050	0.0146505
683.128	0.0144498
683.206	0.0145269
683.285	0.0143999
683.363	0.0144219
683.441	0.0143887
683.519	0.0145287
683.597	0.0144469
683.675	0.0143494
683.753	0.0145804
683.831	0.0143340
683.910	0.0143430
683.988	0.0142938
684.066	0.0142760
684.144	0.0143461
684.222	0.0142055
684.300	0.0142846
684.378	0.0142598
684.456	0.0141738
684.535	0.0141785
684.613	0.0141769
684.691	0.0142189
684.769	0.0142583
684.847	0.0141830
684.925	0.0142390
685.003	0.0142986
685.081	0.0143361
685.160	0.0142934
685.238	0.0143773
685.316	0.0143594
685.394	0.0143141
685.472	0.0142570
685.550	0.0144400
685.628	0.0145128
685.706	0.0144099
685.785	0.0144364
685.863	0.0144805
685.941	0.0146512
686.019	0.0145761
686.097	0.0144338
686.175	0.0146446
686.253	0.0145291
686.331	0.0145090
686.410	0.0144609
686.488	0.0145124
686.566	0.0145748
686.644	0.0145155
686.722	0.0145361
686.800	0.0143739
686.878	0.0143945
686.956	0.0143476
687.035	0.0144181
687.113	0.0142139
687.191	0.0142404
687.269	0.0141862
687.347	0.0141512
687.425	0.0140823
687.503	0.0141859
687.581	0.0140948
687.660	0.0140409
687.738	0.0140439
687.816	0.0141402
687.894	0.0141973
687.972	0.0143211
688.050	0.0143072
688.128	0.0141664
688.206	0.0141237
688.285	0.0142412
688.363	0.0141430
688.441	0.0142294
688.519	0.0142580
688.597	0.0142854
688.675	0.0141657
688.753	0.0141868
688.831	0.0142581
688.910	0.0142855
688.988	0.0143179
689.066	0.0142506
689.144	0.0143030
689.222	0.0142428
689.300	0.0144049
689.378	0.0144715
689.456	0.0142203
689.535	0.0143053
689.613	0.0143792
689.691	0.0144182
689.769	0.0144914
689.847	0.0144726
689.925	0.0145770
690.003	0.0145590
690.081	0.0145765
690.160	0.0145197
690.238	0.0145213
690.316	0.0145383
690.394	0.0146314
690.472	0.0146516
690.550	0.0145804
690.628	0.0144759
690.706	0.0143877
690.785	0.0145084
690.863	0.0144958
690.941	0.0143501
691.019	0.0142704
691.097	0.0141192
691.175	0.0142386
691.253	0.0141228
691.331	0.0140569
691.410	0.0139726
691.488	0.0140823
691.566	0.0140317
691.644	0.0139666
691.722	0.0140884
691.800	0.0140727
691.878	0.0141310
691.956	0.0140375
692.035	0.0139552
692.113	0.0141445
692.191	0.0140226
692.269	0.0141048
692.347	0.0142160
692.425	0.0141310
692.503	0.0142397
692.581	0.0143298
692.660	0.0143295
692.738	0.0143068
692.816	0.0143032
692.894	0.0144197
692.972	0.0145560
693.050	0.0144530
693.128	0.0145148
693.206	0.0144853
693.285	0.0145377
693.363	0.0144760
693.441	0.0144166
693.519	0.0143932
693.597	0.0144811
693.675	0.0144086
693.753	0.0144549
693.831	0.0144574
693.910	0.0144775
693.988	0.0143939
694.066	0.0143983
694.144	0.0143445
694.222	0.0144954
694.300	0.0145183
694.378	0.0142490
694.456	0.0143826
694.535	0.0143932
694.613	0.0144622
694.691	0.0144047
694.769	0.0144946
694.847	0.0145124
694.925	0.0144534
695.003	0.0145731
695.081	0.0145753
695.160	0.0145570
695.238	0.0146281
695.316	0.0145757
695.394	0.0146092
695.472	0.0145840
695.550	0.0145041
695.628	0.0144965
695.706	0.0144142
695.785	0.0143291
695.863	0.0143291
695.941	0.0142532
696.019	0.0142038
696.097	0.0141536
696.175	0.0140051
696.253	0.0141690
696.331	0.0140594
696.410	0.0140105
696.488	0.0139266
696.566	0.0137061
696.644	0.0140579
696.722	0.0140234
696.800	0.0140384
696.878	0.0141135
696.956	0.0140446
697.035	0.0141679
697.113	0.0142520
697.191	0.0142883
697.269	0.0143568
697.347	0.0145017
697.425	0.0144033
697.503	0.0145351
697.581	0.0145144
697.660	0.0147957
697.738	0.0148179
697.816	0.0148109
697.894	0.0146948
697.972	0.0147428
698.050	0.0146059
698.128	0.0145493
698.206	0.0145483
698.285	0.0145125
698.363	0.0145221
698.441	0.0143573
698.519	0.0141317
698.597	0.0141658
698.675	0.0140591
698.753	0.0140867
698.831	0.0141108
698.910	0.0140545
698.988	0.0140311
699.066	0.0142097
699.144	0.0143446
699.222	0.0143108
699.300	0.0143458
699.378	0.0145193
699.456	0.0144896
699.535	0.0144397
699.613	0.0145204
699.691	0.0145891
699.769	0.0146424
699.847	0.0148318
699.925	0.0146968
700.003	0.0147639
700.081	0.0146421
700.160	0.0147605
700.238	0.0147234
700.316	0.0146494
700.394	0.0145318
700.472	0.0145602
700.550	0.0145028
700.628	0.0145353
700.706	0.0145161
700.785	0.0143816
700.863	0.0144624
700.941	0.0143749
701.019	0.0143388
701.097	0.0143687
701.175	0.0143778
701.253	0.0144006
701.331	0.0143661
701.410	0.0142921
701.488	0.0143008
701.566	0.0144592
701.644	0.0143628
701.722	0.0142745
701.800	0.0142540
701.878	0.0141887
701.956	0.0142477
702.035	0.0141259
702.113	0.0140788
702.191	0.0140469
702.269	0.0139595
702.347	0.0140763
702.425	0.0140016
702.503	0.0139811
702.581	0.0139661
702.660	0.0140987
702.738	0.0141993
702.816	0.0141033
702.894	0.0142522
702.972	0.0142232
703.050	0.0143010
703.128	0.0143228
703.206	0.0143276
703.285	0.0144856
703.363	0.0145949
703.441	0.0146307
703.519	0.0145264
703.597	0.0144941
703.675	0.0144811
703.753	0.0146133
703.831	0.0146287
703.910	0.0144444
703.988	0.0143335
704.066	0.0144235
704.144	0.0142838
704.222	0.0143706
704.300	0.0142416
704.378	0.0141988
704.456	0.0140907
704.535	0.0143063
704.613	0.0142133
704.691	0.0142918
704.769	0.0144329
704.847	0.0143922
704.925	0.0144546
705.003	0.0144563
705.081	0.0144204
705.160	0.0145181
705.238	0.0146131
705.316	0.0145779
705.394	0.0146704
705.472	0.0145317
705.550	0.0145579
705.628	0.0148573
705.706	0.0145738
705.785	0.0145975
705.863	0.0146246
705.941	0.0144484
706.019	0.0143809
706.097	0.0143565
706.175	0.0142667
706.253	0.0143312
706.331	0.0142594
706.410	0.0142299
706.488	0.0142048
706.566	0.0143420
706.644	0.0143427
706.722	0.0145005
706.800	0.0146044
706.878	0.0146320
706.956	0.0146444
707.035	0.0145717
707.113	0.0146954
707.191	0.0147472
707.269	0.0147088
707.347	0.0145238
707.425	0.0145777
707.503	0.0145243
707.581	0.0143484
707.660	0.0142204
707.738	0.0141035
707.816	0.0140649
707.894	0.0140915
707.972	0.0139246
708.050	0.0139104
708.128	0.0138536
708.206	0.0139528
708.285	0.0139448
708.363	0.0138465
708.441	0.0139942
708.519	0.0140607
708.597	0.0141156
708.675	0.0141909
708.753	0.0142015
708.831	0.0142058
708.910	0.0142372
708.988	0.0143412
709.066	0.0143786
709.144	0.0145081
709.222	0.0146196
709.300	0.0145335
709.378	0.0144506
709.456	0.0144812
709.535	0.0144781
709.613	0.0146198
709.691	0.0145876
709.769	0.0145245
709.847	0.0145001
709.925	0.0143954
710.003	0.0145249
710.081	0.0145637
710.160	0.0145281
710.238	0.0144134
710.316	0.0143810
710.394	0.0141913
710.472	0.0141378
710.550	0.0143587
710.628	0.0142329
710.706	0.0141869
710.785	0.0143267
710.863	0.0142468
710.941	0.0141486
711.019	0.0144411
711.097	0.0146002
711.175	0.0146149
711.253	0.0146923
711.331	0.0146600
711.410	0.0147678
711.488	0.0148756
711.566	0.0150219
711.644	0.0150407
711.722	0.0148631
711.800	0.0148981
711.878	0.0149013
711.956	0.0147001
712.035	0.0145190
712.113	0.0145285
712.191	0.0143892
712.269	0.0143358
712.347	0.0141740
712.425	0.0143196
712.503	0.0142258
712.581	0.0141347
712.660	0.0142690
712.738	0.0143391
712.816	0.0143394
712.894	0.0145605
712.972	0.0145528
713.050	0.0145515
713.128	0.0148328
713.206	0.0148809
713.285	0.0148662
713.363	0.0146986
713.441	0.0145783
713.519	0.0145660
713.597	0.0143754
713.675	0.0143556
713.753	0.0142956
713.831	0.0142847
713.910	0.0140150
713.988	0.0138931
714.066	0.0139751
714.144	0.0138359
714.222	0.0137743
714.300	0.0138837
714.378	0.0137312
714.456	0.0138539
714.535	0.0138987
714.613	0.0139210
714.691	0.0139989
714.769	0.0141484
714.847	0.0142026
714.925	0.0140157
715.003	0.0141834
715.081	0.0141624
715.160	0.0143501
715.238	0.0141505
715.316	0.0143017
715.394	0.0143494
715.472	0.0141776
715.550	0.0144302
715.628	0.0145393
715.706	0.0144830
715.785	0.0145328
715.863	0.0145052
715.941	0.0144978
716.019	0.0146758
716.097	0.0145740
716.175	0.0145102
716.253	0.0144755
716.331	0.0143981
716.410	0.0144215
716.488	0.0144036
716.566	0.0143618
716.644	0.0143916
716.722	0.0143519
716.800	0.0144360
716.878	0.0144802
716.956	0.0144284
717.035	0.0143726
717.113	0.0146075
717.191	0.0145447
717.269	0.0146418
717.347	0.0145463
717.425	0.0146643
717.503	0.0147473
717.581	0.0146442
717.660	0.0147556
717.738	0.0147417
717.816	0.0148157
717.894	0.0147198
717.972	0.0146432
718.050	0.0146540
718.128	0.0147137
718.206	0.0145370
718.285	0.0144415
718.363	0.0144936
718.441	0.0143587
718.519	0.0141268
718.597	0.0141459
718.675	0.0142668
718.753	0.0143073
718.831	0.0142701
718.910	0.0141405
718.988	0.0143593
719.066	0.0142130
719.144	0.0143612
719.222	0.0143510
719.300	0.0145099
719.378	0.0145004
719.456	0.0145229
719.535	0.0145126
719.613	0.0143907
719.691	0.0142838
719.769	0.0143684
719.847	0.0142726
719.925	0.0141054
720.003	0.0141090
720.081	0.0139898
720.160	0.0138444
720.238	0.0137824
720.316	0.0136941
720.394	0.0136225
720.472	0.0136242
720.550	0.0134904
720.628	0.0136304
720.706	0.0136848
720.785	0.0137482
720.863	0.0136578
720.941	0.0136844
721.019	0.0138412
721.097	0.0139794
721.175	0.0140598
721.253	0.0139590
721.331	0.0143008
721.410	0.0143745
721.488	0.0142963
721.566	0.0144167
721.644	0.0145344
721.722	0.0144119
721.800	0.0143919
721.878	0.0145530
721.956	0.0145289
722.035	0.0144765
722.113	0.0145787
722.191	0.0144758
722.269	0.0144666
722.347	0.0144305
722.425	0.0143848
722.503	0.0143749
722.581	0.0143391
722.660	0.0145714
722.738	0.0145448
722.816	0.0145042
722.894	0.0146082
722.972	0.0145711
723.050	0.0146844
723.128	0.0147404
723.206	0.0146856
723.285	0.0147603
723.363	0.0148734
723.441	0.0149286
723.519	0.0149400
723.597	0.0150041
723.675	0.0149738
723.753	0.0148669
723.831	0.0147704
723.910	0.0147845
723.988	0.0146741
724.066	0.0147986
724.144	0.0146666
724.222	0.0146996
724.300	0.0145946
724.378	0.0145650
724.456	0.0144069
724.535	0.0142835
724.613	0.0143356
724.691	0.0143523
724.769	0.0143909
724.847	0.0142519
724.925	0.0142860
725.003	0.0143237
725.081	0.0142940
725.160	0.0142291
725.238	0.0143453
725.316	0.0141930
725.394	0.0141811
725.472	0.0143701
725.550	0.0141613
725.628	0.0142225
725.706	0.0142516
725.785	0.0141701
725.863	0.0141450
725.941	0.0141875
726.019	0.0141875
726.097	0.0142181
726.175	0.0140447
726.253	0.0140733
726.331	0.0140291
726.410	0.0139177
726.488	0.0138124
726.566	0.0138084
726.644	0.0138295
726.722	0.0139535
726.800	0.0138908
726.878	0.0137463
726.956	0.0136535
727.035	0.0138014
727.113	0.0136683
727.191	0.0137296
727.269	0.0137241
727.347	0.0138757
727.425	0.0139995
727.503	0.0139227
727.581	0.0140316
727.660	0.0141029
727.738	0.0141845
727.816	0.0142691
727.894	0.0143599
727.972	0.0143179
728.050	0.0142280
728.128	0.0143373
728.206	0.0144096
728.285	0.0144809
728.363	0.0143492
728.441	0.0143361
728.519	0.0143292
728.597	0.0143342
728.675	0.0142907
728.753	0.0142372
728.831	0.0143119
728.910	0.0143285
728.988	0.0143127
729.066	0.0143855
729.144	0.0146021
729.222	0.0146698
729.300	0.0146350
729.378	0.0147604
729.456	0.0146950
729.535	0.0149753
729.613	0.0149105
729.691	0.0149578
729.769	0.0149643
729.847	0.0151458
729.925	0.0150401
730.003	0.0150621
730.081	0.0149900
730.160	0.0149161
730.238	0.0147938
730.316	0.0146786
730.394	0.0146874
730.472	0.0147263
730.550	0.0146207
730.628	0.0145300
730.706	0.0145385
730.785	0.0146790
730.863	0.0146219
730.941	0.0144759
731.019	0.0144577
731.097	0.0144888
731.175	0.0143948
731.253	0.0145524
731.331	0.0143810
731.410	0.0144772
731.488	0.0145396
731.566	0.0145757
731.644	0.0144559
731.722	0.0144539
731.800	0.0143360
731.878	0.0142300
731.956	0.0144061
732.035	0.0143375
732.113	0.0143321
732.191	0.0142305
732.269	0.0143203
732.347	0.0143124
732.425	0.0142389
732.503	0.0140606
732.581	0.0140019
732.660	0.0140501
732.738	0.0139849
732.816	0.0141074
732.894	0.0141534
732.972	0.0141601
733.050	0.0139597
733.128	0.0140263
733.206	0.0139574
733.285	0.0141454
733.363	0.0140841
733.441	0.0139960
733.519	0.0139589
733.597	0.0141080
733.675	0.0140701
733.753	0.0141479
733.831	0.0141586
733.910	0.0139730
733.988	0.0140815
734.066	0.0142509
734.144	0.0142696
734.222	0.0143150
734.300	0.0141763
734.378	0.0142649
734.456	0.0144424
734.535	0.0144197
734.613	0.0144272
734.691	0.0144041
734.769	0.0145260
734.847	0.0144209
734.925	0.0144518
735.003	0.0145509
735.081	0.0145200
735.160	0.0144830
735.238	0.0145470
735.316	0.0145096
735.394	0.0147178
735.472	0.0145559
735.550	0.0146686
735.628	0.0146518
735.706	0.0148190
735.785	0.0147626
735.863	0.0147800
735.941	0.0148445
736.019	0.0149650
736.097	0.0149168
736.175	0.0148984
736.253	0.0148853
736.331	0.0149544
736.410	0.0149952
736.488	0.0149416
736.566	0.0148051
736.644	0.0149481
736.722	0.0148831
736.800	0.0148369
736.878	0.0147494
736.956	0.0144676
737.035	0.0145451
737.113	0.0144984
737.191	0.0144579
737.269	0.0144263
737.347	0.0143773
737.425	0.0144576
737.503	0.0144310
737.581	0.0144621
737.660	0.0144741
737.738	0.0143681
737.816	0.0143052
737.894	0.0142920
737.972	0.0143329
738.050	0.0143108
738.128	0.0143281
738.206	0.0141881
738.285	0.0141019
738.363	0.0141871
738.441	0.0140949
738.519	0.0138652
738.597	0.0137384
738.675	0.0138970
738.753	0.0139389
738.831	0.0137663
738.910	0.0138473
738.988	0.0137354
739.066	0.0136684
739.144	0.0137970
739.222	0.0140231
739.300	0.0139547
739.378	0.0139044
739.456	0.0139047
739.535	0.0138895
739.613	0.0139656
739.691	0.0140395
739.769	0.0140487
739.847	0.0139790
739.925	0.0141243
740.003	0.0141888
740.081	0.0139925
740.160	0.0140091
740.238	0.0139118
740.316	0.0140729
740.394	0.0142120
740.472	0.0141209
740.550	0.0141960
740.628	0.0141264
740.706	0.0142652
740.785	0.0143372
740.863	0.0143438
740.941	0.0143818
741.019	0.0142026
741.097	0.0143085
741.175	0.0143722
741.253	0.0144688
741.331	0.0143723
741.410	0.0144167
741.488	0.0144019
741.566	0.0146127
741.644	0.0145782
741.722	0.0145717
741.800	0.0147547
741.878	0.0145953
741.956	0.0147198
742.035	0.0146352
742.113	0.0147294
742.191	0.0149529
742.269	0.0149158
742.347	0.0149100
742.425	0.0148030
742.503	0.0149358
742.581	0.0149870
742.660	0.0147626
742.738	0.0150003
742.816	0.0149547
742.894	0.0148144
742.972	0.0149487
743.050	0.0148388
743.128	0.0147219
743.206	0.0147951
743.285	0.0147089
743.363	0.0147085
743.441	0.0145129
743.519	0.0144857
743.597	0.0145924
743.675	0.0146819
743.753	0.0146532
743.831	0.0146750
743.910	0.0145738
743.988	0.0146555
744.066	0.0146735
744.144	0.0145934
744.222	0.0146481
744.300	0.0145178
744.378	0.0145237
744.456	0.0144219
744.535	0.0142035
744.613	0.0143272
744.691	0.0142063
744.769	0.0141858
744.847	0.0140350
744.925	0.0141096
745.003	0.0138969
745.081	0.0140194
745.160	0.0139144
745.238	0.0137452
745.316	0.0135163
745.394	0.0137576
745.472	0.0137187
745.550	0.0136658
745.628	0.0138169
745.706	0.0136838
