05/03/2022	20:36:22	Ver.	4.1	UNKNOWN
Optical Delay	660.003261	Delta X		0.078125	Sweeps	1	Scan Rate	0/0
Coordinates	Axis 1	NaN	Axis 2	NaN	Axis 3	NaN	Axis 4	NaN	Axis 5	NaN	Axis 6	0.000000
TX Power	0.000000	RX Power	0.000000

660.003	0.0141973
660.081	0.0142632
660.160	0.0143483
660.238	0.0141789
660.316	0.0142682
660.394	0.0141830
660.472	0.0141793
660.550	0.0141209
660.628	0.0141883
660.706	0.0141756
660.785	0.0142274
660.863	0.0142691
660.941	0.0142226
661.019	0.0141850
661.097	0.0142520
661.175	0.0142941
661.253	0.0141805
661.331	0.0141257
661.410	0.0143185
661.488	0.0142013
661.566	0.0141891
661.644	0.0141921
661.722	0.0142633
661.800	0.0143771
661.878	0.0141177
661.956	0.0141813
662.035	0.0142074
662.113	0.0142236
662.191	0.0141039
662.269	0.0141502
662.347	0.0142538
662.425	0.0141619
662.503	0.0141979
662.581	0.0140854
662.660	0.0141938
662.738	0.0141646
662.816	0.0141236
662.894	0.0143861
662.972	0.0141858
663.050	0.0142315
663.128	0.0141366
663.206	0.0142638
663.285	0.0141557
663.363	0.0140397
663.441	0.0140208
663.519	0.0141418
663.597	0.0141392
663.675	0.0141992
663.753	0.0141477
663.831	0.0141222
663.910	0.0140952
663.988	0.0142036
664.066	0.0142802
664.144	0.0142168
664.222	0.0141570
664.300	0.0140396
664.378	0.0141444
664.456	0.0141813
664.535	0.0142500
664.613	0.0140820
664.691	0.0139989
664.769	0.0141405
664.847	0.0142932
664.925	0.0142386
665.003	0.0142171
665.081	0.0141259
665.160	0.0141070
665.238	0.0141756
665.316	0.0142316
665.394	0.0141910
665.472	0.0141805
665.550	0.0141148
665.628	0.0142586
665.706	0.0142615
665.785	0.0143010
665.863	0.0141670
665.941	0.0141100
666.019	0.0142139
666.097	0.0142212
666.175	0.0141166
666.253	0.0142477
666.331	0.0142625
666.410	0.0141478
666.488	0.0141468
666.566	0.0143127
666.644	0.0141743
666.722	0.0142934
666.800	0.0141796
666.878	0.0143368
666.956	0.0142839
667.035	0.0142937
667.113	0.0142475
667.191	0.0142849
667.269	0.0141605
667.347	0.0143065
667.425	0.0142982
667.503	0.0142953
667.581	0.0141068
667.660	0.0141904
667.738	0.0143761
667.816	0.0143917
667.894	0.0141541
667.972	0.0141612
668.050	0.0141449
668.128	0.0141102
668.206	0.0140379
668.285	0.0142947
668.363	0.0141042
668.441	0.0142651
668.519	0.0143140
668.597	0.0142452
668.675	0.0142319
668.753	0.0142917
668.831	0.0141306
668.910	0.0142813
668.988	0.0141985
669.066	0.0142526
669.144	0.0141275
669.222	0.0141656
669.300	0.0142605
669.378	0.0143382
669.456	0.0142213
669.535	0.0142068
669.613	0.0142685
669.691	0.0141543
669.769	0.0141631
669.847	0.0142728
669.925	0.0143177
670.003	0.0142830
670.081	0.0141942
670.160	0.0142956
670.238	0.0143778
670.316	0.0142964
670.394	0.0142812
670.472	0.0142288
670.550	0.0142516
670.628	0.0142656
670.706	0.0142216
670.785	0.0142747
670.863	0.0142366
670.941	0.0142696
671.019	0.0142885
671.097	0.0142366
671.175	0.0141888
671.253	0.0142204
671.331	0.0141098
671.410	0.0142285
671.488	0.0142674
671.566	0.0143272
671.644	0.0142334
671.722	0.0142639
671.800	0.0142098
671.878	0.0141740
671.956	0.0142231
672.035	0.0142429
672.113	0.0142051
672.191	0.0141834
672.269	0.0142220
672.347	0.0142277
672.425	0.0142235
672.503	0.0142377
672.581	0.0141393
672.660	0.0141383
672.738	0.0141698
672.816	0.0142207
672.894	0.0141964
672.972	0.0141759
673.050	0.0141847
673.128	0.0140686
673.206	0.0141310
673.285	0.0142557
673.363	0.0143307
673.441	0.0141956
673.519	0.0143229
673.597	0.0141582
673.675	0.0142484
673.753	0.0141850
673.831	0.0142459
673.910	0.0143372
673.988	0.0141579
674.066	0.0141974
674.144	0.0142900
674.222	0.0142743
674.300	0.0143270
674.378	0.0144562
674.456	0.0142898
674.535	0.0143037
674.613	0.0142461
674.691	0.0141918
674.769	0.0143073
674.847	0.0143922
674.925	0.0141901
675.003	0.0141688
675.081	0.0142422
675.160	0.0143420
675.238	0.0142451
675.316	0.0143949
675.394	0.0141306
675.472	0.0142745
675.550	0.0141550
675.628	0.0142616
675.706	0.0143655
675.785	0.0143530
675.863	0.0140913
675.941	0.0142277
676.019	0.0142687
676.097	0.0141766
676.175	0.0141699
676.253	0.0141951
676.331	0.0143405
676.410	0.0142616
676.488	0.0142803
676.566	0.0142396
676.644	0.0141679
676.722	0.0142723
676.800	0.0142645
676.878	0.0143166
676.956	0.0142269
677.035	0.0143138
677.113	0.0143652
677.191	0.0143334
677.269	0.0141793
677.347	0.0143511
677.425	0.0143259
677.503	0.0143335
677.581	0.0143582
677.660	0.0142723
677.738	0.0143103
677.816	0.0143883
677.894	0.0141748
677.972	0.0143856
678.050	0.0143629
678.128	0.0141622
678.206	0.0142991
678.285	0.0143687
678.363	0.0143198
678.441	0.0142299
678.519	0.0142594
678.597	0.0143153
678.675	0.0142918
678.753	0.0143223
678.831	0.0142309
678.910	0.0141300
678.988	0.0142464
679.066	0.0142196
679.144	0.0143318
679.222	0.0142529
679.300	0.0141675
679.378	0.0142741
679.456	0.0142548
679.535	0.0142420
679.613	0.0141550
679.691	0.0141278
679.769	0.0141231
679.847	0.0139703
679.925	0.0141874
680.003	0.0141935
680.081	0.0140763
680.160	0.0141058
680.238	0.0141857
680.316	0.0140620
680.394	0.0141233
680.472	0.0140339
680.550	0.0141198
680.628	0.0141209
680.706	0.0142503
680.785	0.0141494
680.863	0.0141287
680.941	0.0141447
681.019	0.0141673
681.097	0.0141309
681.175	0.0141895
681.253	0.0140808
681.331	0.0141512
681.410	0.0140387
681.488	0.0141416
681.566	0.0141695
681.644	0.0142187
681.722	0.0141879
681.800	0.0141055
681.878	0.0141031
681.956	0.0142043
682.035	0.0141637
682.113	0.0140571
682.191	0.0141790
682.269	0.0141812
682.347	0.0141492
682.425	0.0141931
682.503	0.0142178
682.581	0.0143593
682.660	0.0143867
682.738	0.0141991
682.816	0.0143935
682.894	0.0144500
682.972	0.0143118
683.050	0.0143636
683.128	0.0144357
683.206	0.0144627
683.285	0.0143660
683.363	0.0143210
683.441	0.0143629
683.519	0.0144804
683.597	0.0143277
683.675	0.0141842
683.753	0.0141920
683.831	0.0142646
683.910	0.0141064
683.988	0.0141646
684.066	0.0141797
684.144	0.0139709
684.222	0.0141511
684.300	0.0140442
684.378	0.0141177
684.456	0.0141582
684.535	0.0142062
684.613	0.0141390
684.691	0.0142371
684.769	0.0142216
684.847	0.0141746
684.925	0.0141679
685.003	0.0142155
685.081	0.0142296
685.160	0.0143635
685.238	0.0143634
685.316	0.0143014
685.394	0.0142597
685.472	0.0143682
685.550	0.0144666
685.628	0.0142878
685.706	0.0145298
685.785	0.0143822
685.863	0.0144789
685.941	0.0145170
686.019	0.0144031
686.097	0.0144042
686.175	0.0144399
686.253	0.0143942
686.331	0.0144528
686.410	0.0144651
686.488	0.0143813
686.566	0.0143428
686.644	0.0143027
686.722	0.0143543
686.800	0.0141886
686.878	0.0141151
686.956	0.0140415
687.035	0.0141190
687.113	0.0140659
687.191	0.0141308
687.269	0.0141190
687.347	0.0140532
687.425	0.0139449
687.503	0.0141422
687.581	0.0141175
687.660	0.0142339
687.738	0.0141643
687.816	0.0142336
687.894	0.0140297
687.972	0.0141786
688.050	0.0143922
688.128	0.0141875
688.206	0.0141905
688.285	0.0141973
688.363	0.0143230
688.441	0.0142754
688.519	0.0141404
688.597	0.0142385
688.675	0.0142142
688.753	0.0141963
688.831	0.0142445
688.910	0.0142038
688.988	0.0141340
689.066	0.0140972
689.144	0.0140739
689.222	0.0141628
689.300	0.0142498
689.378	0.0142263
689.456	0.0142809
689.535	0.0142485
689.613	0.0143787
689.691	0.0143861
689.769	0.0144069
689.847	0.0144964
689.925	0.0144065
690.003	0.0145490
690.081	0.0144955
690.160	0.0146090
690.238	0.0145464
690.316	0.0143944
690.394	0.0144493
690.472	0.0144560
690.550	0.0146285
690.628	0.0144744
690.706	0.0143455
690.785	0.0142711
690.863	0.0143486
690.941	0.0143978
691.019	0.0141434
691.097	0.0140407
691.175	0.0139986
691.253	0.0139992
691.331	0.0140427
691.410	0.0139934
691.488	0.0139967
691.566	0.0139931
691.644	0.0139046
691.722	0.0139730
691.800	0.0139594
691.878	0.0138702
691.956	0.0139931
692.035	0.0139613
692.113	0.0139921
692.191	0.0139847
692.269	0.0139713
692.347	0.0141001
692.425	0.0140143
692.503	0.0141991
692.581	0.0141826
692.660	0.0143110
692.738	0.0143214
692.816	0.0144112
692.894	0.0144329
692.972	0.0143420
693.050	0.0143954
693.128	0.0144096
693.206	0.0142681
693.285	0.0143283
693.363	0.0142910
693.441	0.0143351
693.519	0.0143849
693.597	0.0143060
693.675	0.0143834
693.753	0.0142453
693.831	0.0142870
693.910	0.0143870
693.988	0.0141786
694.066	0.0141550
694.144	0.0142316
694.222	0.0142836
694.300	0.0141466
694.378	0.0141168
694.456	0.0142097
694.535	0.0143110
694.613	0.0143595
694.691	0.0143294
694.769	0.0144260
694.847	0.0144854
694.925	0.0145889
695.003	0.0144183
695.081	0.0142900
695.160	0.0142966
695.238	0.0144514
695.316	0.0143355
695.394	0.0142653
695.472	0.0142535
695.550	0.0141486
695.628	0.0141572
695.706	0.0141922
695.785	0.0141878
695.863	0.0139391
695.941	0.0140610
696.019	0.0139952
696.097	0.0139037
696.175	0.0137949
696.253	0.0138258
696.331	0.0138727
696.410	0.0139055
696.488	0.0138100
696.566	0.0139163
696.644	0.0139769
696.722	0.0139926
696.800	0.0139812
696.878	0.0140984
696.956	0.0142645
697.035	0.0140512
697.113	0.0142396
697.191	0.0141842
697.269	0.0143421
697.347	0.0144009
697.425	0.0144650
697.503	0.0144647
697.581	0.0146323
697.660	0.0145577
697.738	0.0146478
697.816	0.0145775
697.894	0.0146278
697.972	0.0145889
698.050	0.0146049
698.128	0.0144313
698.206	0.0143592
698.285	0.0143792
698.363	0.0140004
698.441	0.0140575
698.519	0.0139920
698.597	0.0138415
698.675	0.0138013
698.753	0.0137073
698.831	0.0138714
698.910	0.0139854
698.988	0.0139156
699.066	0.0138774
699.144	0.0139973
699.222	0.0142023
699.300	0.0143776
699.378	0.0144780
699.456	0.0144504
699.535	0.0143941
699.613	0.0144991
699.691	0.0146609
699.769	0.0145962
699.847	0.0144595
699.925	0.0145337
700.003	0.0146587
700.081	0.0145113
700.160	0.0142648
700.238	0.0143472
700.316	0.0143171
700.394	0.0142467
700.472	0.0143410
700.550	0.0142566
700.628	0.0142660
700.706	0.0143287
700.785	0.0141572
700.863	0.0140778
700.941	0.0141382
701.019	0.0140221
701.097	0.0141114
701.175	0.0140701
701.253	0.0141316
701.331	0.0140407
701.410	0.0140668
701.488	0.0139836
701.566	0.0141290
701.644	0.0140838
701.722	0.0141061
701.800	0.0139247
701.878	0.0140312
701.956	0.0140369
702.035	0.0140265
702.113	0.0140947
702.191	0.0140035
702.269	0.0140080
702.347	0.0140556
702.425	0.0140328
702.503	0.0140303
702.581	0.0141246
702.660	0.0139685
702.738	0.0140817
702.816	0.0143101
702.894	0.0143064
702.972	0.0142104
703.050	0.0143388
703.128	0.0142605
703.206	0.0143791
703.285	0.0144297
703.363	0.0143751
703.441	0.0145248
703.519	0.0143700
703.597	0.0143849
703.675	0.0144791
703.753	0.0143690
703.831	0.0142516
703.910	0.0141114
703.988	0.0141025
704.066	0.0141170
704.144	0.0140897
704.222	0.0140770
704.300	0.0141332
704.378	0.0141489
704.456	0.0140867
704.535	0.0141679
704.613	0.0141312
704.691	0.0144207
704.769	0.0144073
704.847	0.0142901
704.925	0.0143862
705.003	0.0145771
705.081	0.0145091
705.160	0.0145110
705.238	0.0146198
705.316	0.0147019
705.394	0.0145367
705.472	0.0146429
705.550	0.0145277
705.628	0.0144045
705.706	0.0146173
705.785	0.0144038
705.863	0.0143577
705.941	0.0142829
706.019	0.0142437
706.097	0.0141211
706.175	0.0139754
706.253	0.0139902
706.331	0.0140150
706.410	0.0141586
706.488	0.0142014
706.566	0.0143236
706.644	0.0144347
706.722	0.0145757
706.800	0.0146339
706.878	0.0146278
706.956	0.0145735
707.035	0.0147314
707.113	0.0144918
707.191	0.0145622
707.269	0.0145178
707.347	0.0143710
707.425	0.0141412
707.503	0.0143276
707.581	0.0142268
707.660	0.0141159
707.738	0.0139376
707.816	0.0139575
707.894	0.0139804
707.972	0.0138462
708.050	0.0139455
708.128	0.0139002
708.206	0.0140433
708.285	0.0139103
708.363	0.0140686
708.441	0.0139921
708.519	0.0139646
708.597	0.0141929
708.675	0.0140707
708.753	0.0140701
708.831	0.0141559
708.910	0.0143690
708.988	0.0144534
709.066	0.0144501
709.144	0.0142848
709.222	0.0144429
709.300	0.0146057
709.378	0.0145374
709.456	0.0144641
709.535	0.0144398
709.613	0.0144921
709.691	0.0144297
709.769	0.0145567
709.847	0.0144661
709.925	0.0144363
710.003	0.0143357
710.081	0.0143004
710.160	0.0142559
710.238	0.0144547
710.316	0.0142850
710.394	0.0141353
710.472	0.0143011
710.550	0.0141737
710.628	0.0140809
710.706	0.0143383
710.785	0.0142035
710.863	0.0143011
710.941	0.0143736
711.019	0.0144124
711.097	0.0144649
711.175	0.0145150
711.253	0.0145738
711.331	0.0146306
711.410	0.0148121
711.488	0.0148026
711.566	0.0146958
711.644	0.0147060
711.722	0.0146375
711.800	0.0144270
711.878	0.0144523
711.956	0.0143706
712.035	0.0142284
712.113	0.0141512
712.191	0.0141051
712.269	0.0140708
712.347	0.0140438
712.425	0.0140343
712.503	0.0141120
712.581	0.0142401
712.660	0.0142139
712.738	0.0142359
712.816	0.0145780
712.894	0.0145866
712.972	0.0145187
713.050	0.0145036
713.128	0.0145781
713.206	0.0145216
713.285	0.0145199
713.363	0.0146348
713.441	0.0143403
713.519	0.0143112
713.597	0.0142658
713.675	0.0141303
713.753	0.0140556
713.831	0.0138553
713.910	0.0135254
713.988	0.0136930
714.066	0.0137621
714.144	0.0136646
714.222	0.0135769
714.300	0.0136232
714.378	0.0137686
714.456	0.0137565
714.535	0.0138134
714.613	0.0138853
714.691	0.0139328
714.769	0.0138795
714.847	0.0139191
714.925	0.0140146
715.003	0.0139652
715.081	0.0140475
715.160	0.0140250
715.238	0.0141130
715.316	0.0142414
715.394	0.0141711
715.472	0.0142110
715.550	0.0141261
715.628	0.0143602
715.706	0.0143600
715.785	0.0142385
715.863	0.0142146
715.941	0.0142814
716.019	0.0143737
716.097	0.0143948
716.175	0.0142750
716.253	0.0141345
716.331	0.0141558
716.410	0.0141810
716.488	0.0142380
716.566	0.0140350
716.644	0.0141145
716.722	0.0140362
716.800	0.0142413
716.878	0.0143439
716.956	0.0143755
717.035	0.0144751
717.113	0.0143450
717.191	0.0142305
717.269	0.0145734
717.347	0.0144852
717.425	0.0145470
717.503	0.0145995
717.581	0.0145719
717.660	0.0145589
717.738	0.0145683
717.816	0.0145741
717.894	0.0145883
717.972	0.0144145
718.050	0.0142944
718.128	0.0143524
718.206	0.0143475
718.285	0.0143987
718.363	0.0141712
718.441	0.0142002
718.519	0.0141022
718.597	0.0141366
718.675	0.0140778
718.753	0.0142239
718.831	0.0143519
718.910	0.0142501
718.988	0.0142538
719.066	0.0143740
719.144	0.0144196
719.222	0.0143996
719.300	0.0145487
719.378	0.0144487
719.456	0.0145195
719.535	0.0143318
719.613	0.0144016
719.691	0.0143077
719.769	0.0141626
719.847	0.0140116
719.925	0.0140259
720.003	0.0138652
720.081	0.0139564
720.160	0.0137934
720.238	0.0136372
720.316	0.0135249
720.394	0.0135799
720.472	0.0135516
720.550	0.0135368
720.628	0.0135065
720.706	0.0135813
720.785	0.0137104
720.863	0.0137226
720.941	0.0137542
721.019	0.0139400
721.097	0.0139400
721.175	0.0141026
721.253	0.0139332
721.331	0.0140105
721.410	0.0142944
721.488	0.0140985
721.566	0.0142011
721.644	0.0142039
721.722	0.0142799
721.800	0.0141903
721.878	0.0143622
721.956	0.0144708
722.035	0.0141538
722.113	0.0143511
722.191	0.0143391
722.269	0.0142158
722.347	0.0142547
722.425	0.0144073
722.503	0.0143311
722.581	0.0142654
722.660	0.0142522
722.738	0.0143275
722.816	0.0143520
722.894	0.0144355
722.972	0.0144707
723.050	0.0145217
723.128	0.0145779
723.206	0.0145132
723.285	0.0145794
723.363	0.0146857
723.441	0.0146298
723.519	0.0147011
723.597	0.0147739
723.675	0.0147711
723.753	0.0147672
723.831	0.0146750
723.910	0.0145853
723.988	0.0145128
724.066	0.0144630
724.144	0.0144788
724.222	0.0142388
724.300	0.0144283
724.378	0.0142712
724.456	0.0142242
724.535	0.0141787
724.613	0.0140694
724.691	0.0140363
724.769	0.0141124
724.847	0.0141920
724.925	0.0139897
725.003	0.0140076
725.081	0.0141286
725.160	0.0142951
725.238	0.0141409
725.316	0.0141936
725.394	0.0142267
725.472	0.0142281
725.550	0.0142747
725.628	0.0142475
725.706	0.0142594
725.785	0.0141758
725.863	0.0142145
725.941	0.0141580
726.019	0.0141505
726.097	0.0140738
726.175	0.0139909
726.253	0.0139613
726.331	0.0139645
726.410	0.0138614
726.488	0.0138852
726.566	0.0137279
726.644	0.0136256
726.722	0.0137133
726.800	0.0135584
726.878	0.0135963
726.956	0.0135381
727.035	0.0136446
727.113	0.0137162
727.191	0.0138200
727.269	0.0136928
727.347	0.0138120
727.425	0.0138495
727.503	0.0140929
727.581	0.0142107
727.660	0.0141753
727.738	0.0141906
727.816	0.0142484
727.894	0.0143256
727.972	0.0142796
728.050	0.0143796
728.128	0.0143504
728.206	0.0143806
728.285	0.0143594
728.363	0.0143044
728.441	0.0143771
728.519	0.0142630
728.597	0.0143993
728.675	0.0143095
728.753	0.0142870
728.831	0.0143591
728.910	0.0143683
728.988	0.0144995
729.066	0.0145664
729.144	0.0144938
729.222	0.0145081
729.300	0.0146432
729.378	0.0147553
729.456	0.0146618
729.535	0.0148866
729.613	0.0150789
729.691	0.0149207
729.769	0.0149028
729.847	0.0149889
729.925	0.0149624
730.003	0.0147875
730.081	0.0148798
730.160	0.0149234
730.238	0.0148764
730.316	0.0146409
730.394	0.0148113
730.472	0.0147186
730.550	0.0145916
730.628	0.0145523
730.706	0.0144343
730.785	0.0144594
730.863	0.0144699
730.941	0.0144517
731.019	0.0144325
731.097	0.0144294
731.175	0.0144118
731.253	0.0145328
731.331	0.0144282
731.410	0.0144911
731.488	0.0143533
731.566	0.0143899
731.644	0.0143788
731.722	0.0142162
731.800	0.0143985
731.878	0.0143069
731.956	0.0142198
732.035	0.0142060
732.113	0.0142635
732.191	0.0143050
732.269	0.0141589
732.347	0.0139304
732.425	0.0138968
732.503	0.0140279
732.581	0.0139201
732.660	0.0138653
732.738	0.0140134
732.816	0.0138342
732.894	0.0138065
732.972	0.0139116
733.050	0.0138029
733.128	0.0137725
733.206	0.0138235
733.285	0.0137624
733.363	0.0138821
733.441	0.0139238
733.519	0.0137453
733.597	0.0137833
733.675	0.0137828
733.753	0.0138708
733.831	0.0139057
733.910	0.0139815
733.988	0.0139458
734.066	0.0139901
734.144	0.0139719
734.222	0.0140284
734.300	0.0140919
734.378	0.0140972
734.456	0.0141573
734.535	0.0141912
734.613	0.0142173
734.691	0.0142898
734.769	0.0143499
734.847	0.0141415
734.925	0.0142625
735.003	0.0142294
735.081	0.0141386
735.160	0.0142275
735.238	0.0141862
735.316	0.0143288
735.394	0.0143806
735.472	0.0143542
735.550	0.0143904
735.628	0.0142828
735.706	0.0145460
735.785	0.0145863
735.863	0.0145850
735.941	0.0146694
736.019	0.0147522
736.097	0.0146870
736.175	0.0148128
736.253	0.0148071
736.331	0.0148975
736.410	0.0148655
736.488	0.0146587
736.566	0.0148100
736.644	0.0147386
736.722	0.0147463
736.800	0.0145959
736.878	0.0145137
736.956	0.0144797
737.035	0.0144598
737.113	0.0142728
737.191	0.0143551
737.269	0.0144062
737.347	0.0143172
737.425	0.0141883
737.503	0.0143748
737.581	0.0142874
737.660	0.0141728
737.738	0.0141650
737.816	0.0141938
737.894	0.0141592
737.972	0.0141642
738.050	0.0141469
738.128	0.0142332
738.206	0.0143005
738.285	0.0142036
738.363	0.0140636
738.441	0.0139114
738.519	0.0139792
738.597	0.0140837
738.675	0.0139334
738.753	0.0139522
738.831	0.0137001
738.910	0.0136776
738.988	0.0138721
739.066	0.0138232
739.144	0.0136944
739.222	0.0138054
739.300	0.0138052
739.378	0.0138246
739.456	0.0138121
739.535	0.0140014
739.613	0.0140320
739.691	0.0138602
739.769	0.0138383
739.847	0.0138728
739.925	0.0138687
740.003	0.0139274
740.081	0.0139140
740.160	0.0139251
740.238	0.0139707
740.316	0.0139195
740.394	0.0139305
740.472	0.0138963
740.550	0.0140004
740.628	0.0140279
740.706	0.0140939
740.785	0.0140590
740.863	0.0140617
740.941	0.0141066
741.019	0.0141113
741.097	0.0142493
741.175	0.0141313
741.253	0.0141343
741.331	0.0142142
741.410	0.0141946
741.488	0.0142410
741.566	0.0144061
741.644	0.0142918
741.722	0.0143597
741.800	0.0143530
741.878	0.0145210
741.956	0.0145141
742.035	0.0144544
742.113	0.0145547
742.191	0.0146513
742.269	0.0144887
742.347	0.0147771
742.425	0.0147107
742.503	0.0148106
742.581	0.0147427
742.660	0.0147144
742.738	0.0148112
742.816	0.0147917
742.894	0.0146610
742.972	0.0148407
743.050	0.0147288
743.128	0.0145621
743.206	0.0147144
743.285	0.0146849
743.363	0.0146358
743.441	0.0145636
743.519	0.0145090
743.597	0.0144611
743.675	0.0144251
743.753	0.0143775
743.831	0.0143221
743.910	0.0143514
743.988	0.0142826
744.066	0.0143717
744.144	0.0143584
744.222	0.0143118
744.300	0.0143459
744.378	0.0141567
744.456	0.0141819
744.535	0.0142694
744.613	0.0140926
744.691	0.0141039
744.769	0.0140189
744.847	0.0138975
744.925	0.0138924
745.003	0.0138264
745.081	0.0137131
745.160	0.0137023
745.238	0.0136651
745.316	0.0136571
745.394	0.0135962
745.472	0.0136306
745.550	0.0135854
745.628	0.0136787
745.706	0.0137473
