05/03/2022	20:37:37	Ver.	4.1	UNKNOWN
Optical Delay	660.003261	Delta X		0.078125	Sweeps	1	Scan Rate	0/0
Coordinates	Axis 1	NaN	Axis 2	NaN	Axis 3	NaN	Axis 4	NaN	Axis 5	NaN	Axis 6	0.000000
TX Power	0.000000	RX Power	0.000000

660.003	0.0140329
660.081	0.0140725
660.160	0.0140223
660.238	0.0140341
660.316	0.0140883
660.394	0.0140446
660.472	0.0139725
660.550	0.0139511
660.628	0.0139664
660.706	0.0140318
660.785	0.0140556
660.863	0.0140025
660.941	0.0140697
661.019	0.0141140
661.097	0.0139461
661.175	0.0141000
661.253	0.0140749
661.331	0.0140514
661.410	0.0140663
661.488	0.0141101
661.566	0.0139773
661.644	0.0139600
661.722	0.0140223
661.800	0.0141721
661.878	0.0139503
661.956	0.0140319
662.035	0.0140744
662.113	0.0140424
662.191	0.0141494
662.269	0.0140491
662.347	0.0139780
662.425	0.0141105
662.503	0.0141326
662.581	0.0140890
662.660	0.0141615
662.738	0.0139960
662.816	0.0141209
662.894	0.0141219
662.972	0.0139246
663.050	0.0140802
663.128	0.0141770
663.206	0.0142212
663.285	0.0140029
663.363	0.0140282
663.441	0.0139787
663.519	0.0140613
663.597	0.0140130
663.675	0.0140289
663.753	0.0139769
663.831	0.0139310
663.910	0.0140632
663.988	0.0138595
664.066	0.0138992
664.144	0.0139036
664.222	0.0138874
664.300	0.0138837
664.378	0.0140279
664.456	0.0140308
664.535	0.0139509
664.613	0.0138805
664.691	0.0139566
664.769	0.0139059
664.847	0.0139546
664.925	0.0139360
665.003	0.0138715
665.081	0.0137778
665.160	0.0139541
665.238	0.0138998
665.316	0.0138843
665.394	0.0140031
665.472	0.0140936
665.550	0.0140172
665.628	0.0139420
665.706	0.0139132
665.785	0.0139327
665.863	0.0138984
665.941	0.0138720
666.019	0.0139426
666.097	0.0139662
666.175	0.0137987
666.253	0.0140341
666.331	0.0140364
666.410	0.0140305
666.488	0.0139972
666.566	0.0139293
666.644	0.0138729
666.722	0.0140395
666.800	0.0139902
666.878	0.0140514
666.956	0.0140194
667.035	0.0140321
667.113	0.0140344
667.191	0.0140041
667.269	0.0139442
667.347	0.0139801
667.425	0.0140260
667.503	0.0139763
667.581	0.0138935
667.660	0.0139146
667.738	0.0139302
667.816	0.0139484
667.894	0.0139413
667.972	0.0140115
668.050	0.0139684
668.128	0.0140092
668.206	0.0139956
668.285	0.0139701
668.363	0.0139768
668.441	0.0140102
668.519	0.0139499
668.597	0.0141026
668.675	0.0139822
668.753	0.0141223
668.831	0.0139485
668.910	0.0139886
668.988	0.0139468
669.066	0.0138876
669.144	0.0139846
669.222	0.0141813
669.300	0.0140187
669.378	0.0138343
669.456	0.0138998
669.535	0.0141576
669.613	0.0141445
669.691	0.0140850
669.769	0.0140682
669.847	0.0140193
669.925	0.0141243
670.003	0.0141506
670.081	0.0140984
670.160	0.0140915
670.238	0.0140253
670.316	0.0139817
670.394	0.0141264
670.472	0.0141785
670.550	0.0140488
670.628	0.0141531
670.706	0.0141100
670.785	0.0140287
670.863	0.0141448
670.941	0.0140615
671.019	0.0140660
671.097	0.0141138
671.175	0.0140849
671.253	0.0140302
671.331	0.0140986
671.410	0.0140315
671.488	0.0141635
671.566	0.0140488
671.644	0.0140228
671.722	0.0140640
671.800	0.0139619
671.878	0.0140752
671.956	0.0141426
672.035	0.0140356
672.113	0.0140298
672.191	0.0140848
672.269	0.0141910
672.347	0.0140155
672.425	0.0139985
672.503	0.0140031
672.581	0.0141495
672.660	0.0141440
672.738	0.0139825
672.816	0.0139989
672.894	0.0140776
672.972	0.0140664
673.050	0.0139339
673.128	0.0140458
673.206	0.0140361
673.285	0.0140685
673.363	0.0140894
673.441	0.0140092
673.519	0.0140162
673.597	0.0140170
673.675	0.0140026
673.753	0.0141219
673.831	0.0140956
673.910	0.0139848
673.988	0.0141828
674.066	0.0141036
674.144	0.0140010
674.222	0.0140833
674.300	0.0140254
674.378	0.0140588
674.456	0.0140549
674.535	0.0141640
674.613	0.0142119
674.691	0.0140714
674.769	0.0141641
674.847	0.0141943
674.925	0.0140082
675.003	0.0140122
675.081	0.0142076
675.160	0.0141501
675.238	0.0141276
675.316	0.0140766
675.394	0.0142840
675.472	0.0142995
675.550	0.0141720
675.628	0.0141661
675.706	0.0141826
675.785	0.0141753
675.863	0.0141765
675.941	0.0140028
676.019	0.0141891
676.097	0.0141200
676.175	0.0139650
676.253	0.0141956
676.331	0.0141747
676.410	0.0142305
676.488	0.0142785
676.566	0.0143157
676.644	0.0142483
676.722	0.0141826
676.800	0.0140052
676.878	0.0142054
676.956	0.0142612
677.035	0.0141946
677.113	0.0142201
677.191	0.0141977
677.269	0.0142110
677.347	0.0141160
677.425	0.0142262
677.503	0.0142735
677.581	0.0141672
677.660	0.0140498
677.738	0.0141105
677.816	0.0141449
677.894	0.0141904
677.972	0.0141562
678.050	0.0142551
678.128	0.0141724
678.206	0.0140650
678.285	0.0141238
678.363	0.0141658
678.441	0.0141185
678.519	0.0141582
678.597	0.0141109
678.675	0.0142165
678.753	0.0142186
678.831	0.0140881
678.910	0.0140465
678.988	0.0140519
679.066	0.0140018
679.144	0.0140926
679.222	0.0142220
679.300	0.0140267
679.378	0.0139342
679.456	0.0141154
679.535	0.0140952
679.613	0.0142419
679.691	0.0141157
679.769	0.0141145
679.847	0.0140278
679.925	0.0140415
680.003	0.0141074
680.081	0.0140878
680.160	0.0140175
680.238	0.0139713
680.316	0.0140617
680.394	0.0140890
680.472	0.0140282
680.550	0.0140639
680.628	0.0139996
680.706	0.0141097
680.785	0.0140226
680.863	0.0140967
680.941	0.0141762
681.019	0.0140942
681.097	0.0138885
681.175	0.0140034
681.253	0.0140505
681.331	0.0142062
681.410	0.0141644
681.488	0.0142386
681.566	0.0140298
681.644	0.0140701
681.722	0.0140298
681.800	0.0141631
681.878	0.0141669
681.956	0.0139725
682.035	0.0139643
682.113	0.0140610
682.191	0.0138496
682.269	0.0138340
682.347	0.0140332
682.425	0.0138973
682.503	0.0138544
682.581	0.0139368
682.660	0.0137254
682.738	0.0138971
682.816	0.0138853
682.894	0.0139631
682.972	0.0138351
683.050	0.0137420
683.128	0.0138074
683.206	0.0139561
683.285	0.0139204
683.363	0.0139117
683.441	0.0138480
683.519	0.0138326
683.597	0.0140627
683.675	0.0138316
683.753	0.0139415
683.831	0.0140855
683.910	0.0140726
683.988	0.0139487
684.066	0.0139976
684.144	0.0140576
684.222	0.0140532
684.300	0.0140086
684.378	0.0140334
684.456	0.0140945
684.535	0.0140242
684.613	0.0139995
684.691	0.0140403
684.769	0.0140120
684.847	0.0139870
684.925	0.0138720
685.003	0.0138527
685.081	0.0138290
685.160	0.0137228
685.238	0.0139306
685.316	0.0137653
685.394	0.0136927
685.472	0.0137521
685.550	0.0137185
685.628	0.0136566
685.706	0.0136382
685.785	0.0137209
685.863	0.0137761
685.941	0.0137466
686.019	0.0138952
686.097	0.0136724
686.175	0.0138676
686.253	0.0139352
686.331	0.0138287
686.410	0.0138491
686.488	0.0139548
686.566	0.0140631
686.644	0.0140647
686.722	0.0139780
686.800	0.0139686
686.878	0.0138711
686.956	0.0139564
687.035	0.0140021
687.113	0.0140200
687.191	0.0139738
687.269	0.0139506
687.347	0.0138406
687.425	0.0139820
687.503	0.0139986
687.581	0.0139449
687.660	0.0139432
687.738	0.0138899
687.816	0.0139773
687.894	0.0140078
687.972	0.0140675
688.050	0.0140083
688.128	0.0139910
688.206	0.0141537
688.285	0.0139282
688.363	0.0140288
688.441	0.0141099
688.519	0.0141248
688.597	0.0141562
688.675	0.0142126
688.753	0.0140935
688.831	0.0140681
688.910	0.0141166
688.988	0.0140755
689.066	0.0140402
689.144	0.0140489
689.222	0.0139275
689.300	0.0140123
689.378	0.0138513
689.456	0.0137633
689.535	0.0136261
689.613	0.0138940
689.691	0.0139207
689.769	0.0138784
689.847	0.0137356
689.925	0.0138525
690.003	0.0137711
690.081	0.0138340
690.160	0.0138732
690.238	0.0138119
690.316	0.0138551
690.394	0.0138686
690.472	0.0138297
690.550	0.0138960
690.628	0.0137627
690.706	0.0140078
690.785	0.0139918
690.863	0.0139397
690.941	0.0140431
691.019	0.0140228
691.097	0.0140668
691.175	0.0142914
691.253	0.0141682
691.331	0.0140747
691.410	0.0141817
691.488	0.0141769
691.566	0.0142757
691.644	0.0142671
691.722	0.0142469
691.800	0.0142648
691.878	0.0141691
691.956	0.0141957
692.035	0.0141108
692.113	0.0141146
692.191	0.0142556
692.269	0.0140665
692.347	0.0141924
692.425	0.0141226
692.503	0.0140490
692.581	0.0142376
692.660	0.0141974
692.738	0.0141512
692.816	0.0140644
692.894	0.0140365
692.972	0.0141670
693.050	0.0142087
693.128	0.0143001
693.206	0.0140874
693.285	0.0141797
693.363	0.0142652
693.441	0.0140429
693.519	0.0141542
693.597	0.0142416
693.675	0.0141405
693.753	0.0140678
693.831	0.0141727
693.910	0.0140501
693.988	0.0140839
694.066	0.0140360
694.144	0.0140092
694.222	0.0138276
694.300	0.0139862
694.378	0.0138347
694.456	0.0139718
694.535	0.0137579
694.613	0.0137521
694.691	0.0138363
694.769	0.0138145
694.847	0.0138012
694.925	0.0138791
695.003	0.0138950
695.081	0.0138562
695.160	0.0138839
695.238	0.0140302
695.316	0.0139718
695.394	0.0139664
695.472	0.0141072
695.550	0.0140393
695.628	0.0141547
695.706	0.0141440
695.785	0.0142178
695.863	0.0142161
695.941	0.0142814
696.019	0.0143539
696.097	0.0141990
696.175	0.0143300
696.253	0.0144312
696.331	0.0142586
696.410	0.0142333
696.488	0.0141426
696.566	0.0141098
696.644	0.0141777
696.722	0.0140653
696.800	0.0140951
696.878	0.0140849
696.956	0.0139020
697.035	0.0138179
697.113	0.0140369
697.191	0.0139486
697.269	0.0139619
697.347	0.0139771
697.425	0.0140300
697.503	0.0140795
697.581	0.0141624
697.660	0.0140887
697.738	0.0142175
697.816	0.0143561
697.894	0.0143248
697.972	0.0142984
698.050	0.0142879
698.128	0.0145319
698.206	0.0144988
698.285	0.0142386
698.363	0.0142245
698.441	0.0143971
698.519	0.0142946
698.597	0.0142561
698.675	0.0142484
698.753	0.0142420
698.831	0.0142796
698.910	0.0141814
698.988	0.0142055
699.066	0.0142472
699.144	0.0141662
699.222	0.0141772
699.300	0.0141295
699.378	0.0140997
699.456	0.0140068
699.535	0.0142250
699.613	0.0141167
699.691	0.0141666
699.769	0.0140982
699.847	0.0139204
699.925	0.0139325
700.003	0.0138566
700.081	0.0138378
700.160	0.0137358
700.238	0.0137894
700.316	0.0137343
700.394	0.0137878
700.472	0.0137512
700.550	0.0139613
700.628	0.0139838
700.706	0.0139607
700.785	0.0139861
700.863	0.0139189
700.941	0.0138864
701.019	0.0140366
701.097	0.0140257
701.175	0.0140623
701.253	0.0140685
701.331	0.0141479
701.410	0.0142185
701.488	0.0141750
701.566	0.0143694
701.644	0.0143452
701.722	0.0142886
701.800	0.0142976
701.878	0.0142734
701.956	0.0143526
702.035	0.0140344
702.113	0.0140834
702.191	0.0141335
702.269	0.0139744
702.347	0.0139522
702.425	0.0139787
702.503	0.0138001
702.581	0.0138947
702.660	0.0139500
702.738	0.0138492
702.816	0.0138811
702.894	0.0138752
702.972	0.0140506
703.050	0.0140985
703.128	0.0140121
703.206	0.0141973
703.285	0.0141161
703.363	0.0142883
703.441	0.0143391
703.519	0.0142012
703.597	0.0144283
703.675	0.0142250
703.753	0.0143728
703.831	0.0143523
703.910	0.0142005
703.988	0.0144117
704.066	0.0143552
704.144	0.0141562
704.222	0.0140332
704.300	0.0139262
704.378	0.0138594
704.456	0.0138589
704.535	0.0136919
704.613	0.0137461
704.691	0.0137959
704.769	0.0139116
704.847	0.0139330
704.925	0.0140056
705.003	0.0139922
705.081	0.0140978
705.160	0.0141862
705.238	0.0142366
705.316	0.0143943
705.394	0.0142185
705.472	0.0141579
705.550	0.0143600
705.628	0.0141281
705.706	0.0140268
705.785	0.0140324
705.863	0.0140121
705.941	0.0138313
706.019	0.0136752
706.097	0.0136735
706.175	0.0136233
706.253	0.0135476
706.331	0.0137614
706.410	0.0137141
706.488	0.0136318
706.566	0.0136691
706.644	0.0135583
706.722	0.0135679
706.800	0.0137446
706.878	0.0139018
706.956	0.0137585
707.035	0.0137445
707.113	0.0139204
707.191	0.0138622
707.269	0.0137415
707.347	0.0137791
707.425	0.0138227
707.503	0.0138855
707.581	0.0139040
707.660	0.0139474
707.738	0.0139117
707.816	0.0138894
707.894	0.0140563
707.972	0.0140874
708.050	0.0139867
708.128	0.0141490
708.206	0.0141338
708.285	0.0141628
708.363	0.0142279
708.441	0.0140559
708.519	0.0139217
708.597	0.0140424
708.675	0.0139425
708.753	0.0141060
708.831	0.0139152
708.910	0.0138506
708.988	0.0140536
709.066	0.0139227
709.144	0.0139774
709.222	0.0137468
709.300	0.0137445
709.378	0.0140144
709.456	0.0140030
709.535	0.0138949
709.613	0.0140568
709.691	0.0140782
709.769	0.0143269
709.847	0.0143018
709.925	0.0141541
710.003	0.0142655
710.081	0.0142883
710.160	0.0142326
710.238	0.0140400
710.316	0.0140331
710.394	0.0140988
710.472	0.0139273
710.550	0.0138580
710.628	0.0137746
710.706	0.0138400
710.785	0.0139264
710.863	0.0137971
710.941	0.0139292
711.019	0.0139915
711.097	0.0140580
711.175	0.0139743
711.253	0.0142259
711.331	0.0143139
711.410	0.0142703
711.488	0.0142641
711.566	0.0142915
711.644	0.0142274
711.722	0.0141209
711.800	0.0141615
711.878	0.0139833
711.956	0.0141331
712.035	0.0140121
712.113	0.0137504
712.191	0.0136172
712.269	0.0137745
712.347	0.0137215
712.425	0.0136562
712.503	0.0137463
712.581	0.0135891
712.660	0.0135931
712.738	0.0136845
712.816	0.0137634
712.894	0.0138896
712.972	0.0138181
713.050	0.0137283
713.128	0.0138521
713.206	0.0137714
713.285	0.0138518
713.363	0.0139552
713.441	0.0140488
713.519	0.0137819
713.597	0.0136401
713.675	0.0139435
713.753	0.0139856
713.831	0.0139277
713.910	0.0141036
713.988	0.0139925
714.066	0.0140623
714.144	0.0140516
714.222	0.0142036
714.300	0.0142702
714.378	0.0143848
714.456	0.0142197
714.535	0.0141194
714.613	0.0143813
714.691	0.0142330
714.769	0.0141682
714.847	0.0142469
714.925	0.0140694
715.003	0.0139606
715.081	0.0139796
715.160	0.0140091
715.238	0.0141973
715.316	0.0140037
715.394	0.0140438
715.472	0.0142328
715.550	0.0141592
715.628	0.0141872
715.706	0.0142590
715.785	0.0142345
715.863	0.0143947
715.941	0.0143742
716.019	0.0145094
716.097	0.0143389
716.175	0.0143944
716.253	0.0143782
716.331	0.0142407
716.410	0.0143131
716.488	0.0142310
716.566	0.0140974
716.644	0.0139626
716.722	0.0139136
716.800	0.0138809
716.878	0.0136996
716.956	0.0138752
717.035	0.0137974
717.113	0.0138929
717.191	0.0138343
717.269	0.0137722
717.347	0.0139056
717.425	0.0140185
717.503	0.0141241
717.581	0.0141378
717.660	0.0141518
717.738	0.0141782
717.816	0.0141489
717.894	0.0141492
717.972	0.0142232
718.050	0.0141795
718.128	0.0141049
718.206	0.0140019
718.285	0.0139462
718.363	0.0137905
718.441	0.0138371
718.519	0.0137229
718.597	0.0136315
718.675	0.0134977
718.753	0.0134399
718.831	0.0136036
718.910	0.0135060
718.988	0.0134631
719.066	0.0134609
719.144	0.0134930
719.222	0.0135751
719.300	0.0134798
719.378	0.0137047
719.456	0.0136829
719.535	0.0136585
719.613	0.0136713
719.691	0.0136813
719.769	0.0136720
719.847	0.0139311
719.925	0.0137754
720.003	0.0137029
720.081	0.0138482
720.160	0.0138076
720.238	0.0138536
720.316	0.0138222
720.394	0.0138827
720.472	0.0140466
720.550	0.0141257
720.628	0.0140816
720.706	0.0138283
720.785	0.0141696
720.863	0.0141279
720.941	0.0141796
721.019	0.0141969
721.097	0.0141502
721.175	0.0142413
721.253	0.0140558
721.331	0.0141660
721.410	0.0141196
721.488	0.0141590
721.566	0.0140759
721.644	0.0141610
721.722	0.0143963
721.800	0.0144095
721.878	0.0142568
721.956	0.0141425
722.035	0.0144698
722.113	0.0144827
722.191	0.0146333
722.269	0.0146046
722.347	0.0144062
722.425	0.0145071
722.503	0.0144879
722.581	0.0144742
722.660	0.0144042
722.738	0.0143008
722.816	0.0143678
722.894	0.0142861
722.972	0.0142883
723.050	0.0142474
723.128	0.0141278
723.206	0.0141796
723.285	0.0140144
723.363	0.0139643
723.441	0.0140340
723.519	0.0139693
723.597	0.0141775
723.675	0.0141371
723.753	0.0140830
723.831	0.0141935
723.910	0.0141747
723.988	0.0142136
724.066	0.0142287
724.144	0.0141997
724.222	0.0141960
724.300	0.0142232
724.378	0.0142163
724.456	0.0142427
724.535	0.0142670
724.613	0.0143289
724.691	0.0141102
724.769	0.0140453
724.847	0.0141358
724.925	0.0139950
725.003	0.0139095
725.081	0.0137804
725.160	0.0138353
725.238	0.0136384
725.316	0.0136902
725.394	0.0136353
725.472	0.0136630
725.550	0.0134808
725.628	0.0134559
725.706	0.0135471
725.785	0.0135795
725.863	0.0136443
725.941	0.0135393
726.019	0.0136916
726.097	0.0137900
726.175	0.0137325
726.253	0.0138487
726.331	0.0138668
726.410	0.0139192
726.488	0.0139526
726.566	0.0139290
726.644	0.0139674
726.722	0.0139293
726.800	0.0138130
726.878	0.0139564
726.956	0.0139284
727.035	0.0139087
727.113	0.0140261
727.191	0.0139101
727.269	0.0140504
727.347	0.0141255
727.425	0.0140925
727.503	0.0140596
727.581	0.0141361
727.660	0.0141113
727.738	0.0140048
727.816	0.0141695
727.894	0.0140441
727.972	0.0142383
728.050	0.0142984
728.128	0.0142738
728.206	0.0142387
728.285	0.0143222
728.363	0.0143329
728.441	0.0143876
728.519	0.0144492
728.597	0.0143280
728.675	0.0143293
728.753	0.0143523
728.831	0.0144891
728.910	0.0143077
728.988	0.0143581
729.066	0.0145072
729.144	0.0143980
729.222	0.0142941
729.300	0.0141682
729.378	0.0141561
729.456	0.0141521
729.535	0.0140946
729.613	0.0140630
729.691	0.0139452
729.769	0.0140316
729.847	0.0141467
729.925	0.0140526
730.003	0.0139325
730.081	0.0139731
730.160	0.0140372
730.238	0.0139999
730.316	0.0140867
730.394	0.0140549
730.472	0.0140801
730.550	0.0140759
730.628	0.0140928
730.706	0.0140610
730.785	0.0140479
730.863	0.0140143
730.941	0.0139721
731.019	0.0140569
731.097	0.0140488
731.175	0.0140156
731.253	0.0139440
731.331	0.0139442
731.410	0.0139282
731.488	0.0139384
731.566	0.0137857
731.644	0.0138290
731.722	0.0136785
731.800	0.0136636
731.878	0.0136300
731.956	0.0136255
732.035	0.0136666
732.113	0.0135277
732.191	0.0135317
732.269	0.0137096
732.347	0.0136551
732.425	0.0136719
732.503	0.0138555
732.581	0.0137271
732.660	0.0138722
732.738	0.0138006
732.816	0.0137914
732.894	0.0138760
732.972	0.0139712
733.050	0.0140555
733.128	0.0139082
733.206	0.0140037
733.285	0.0139262
733.363	0.0138921
733.441	0.0139604
733.519	0.0138549
733.597	0.0138410
733.675	0.0139352
733.753	0.0138808
733.831	0.0139954
733.910	0.0139362
733.988	0.0139172
734.066	0.0139330
734.144	0.0140099
734.222	0.0140014
734.300	0.0141287
734.378	0.0142310
734.456	0.0142381
734.535	0.0142769
734.613	0.0143639
734.691	0.0143652
734.769	0.0143317
734.847	0.0144717
734.925	0.0145066
735.003	0.0145551
735.081	0.0145135
735.160	0.0146198
735.238	0.0144665
735.316	0.0144071
735.394	0.0144193
735.472	0.0144064
735.550	0.0143182
735.628	0.0143727
735.706	0.0143762
735.785	0.0142139
735.863	0.0141778
735.941	0.0141210
736.019	0.0141567
736.097	0.0141029
736.175	0.0139407
736.253	0.0139757
736.331	0.0138173
736.410	0.0138171
736.488	0.0140643
736.566	0.0139888
736.644	0.0138918
736.722	0.0138943
736.800	0.0139449
736.878	0.0140419
736.956	0.0139172
737.035	0.0138435
737.113	0.0140618
737.191	0.0140032
737.269	0.0139925
737.347	0.0139225
737.425	0.0138538
737.503	0.0138351
737.581	0.0137968
737.660	0.0138129
737.738	0.0137486
737.816	0.0137897
737.894	0.0137880
737.972	0.0137288
738.050	0.0136648
738.128	0.0136778
738.206	0.0136395
738.285	0.0137454
738.363	0.0136488
738.441	0.0136811
738.519	0.0136295
738.597	0.0137212
738.675	0.0136510
738.753	0.0136915
738.831	0.0136609
738.910	0.0137070
738.988	0.0137225
739.066	0.0136118
739.144	0.0136534
739.222	0.0137101
739.300	0.0135666
739.378	0.0137444
739.456	0.0136869
739.535	0.0136683
739.613	0.0137389
739.691	0.0137841
739.769	0.0138356
739.847	0.0138557
739.925	0.0139024
740.003	0.0136981
740.081	0.0138653
740.160	0.0138161
740.238	0.0139874
740.316	0.0139251
740.394	0.0137609
740.472	0.0139354
740.550	0.0140055
740.628	0.0139547
740.706	0.0140611
740.785	0.0141396
740.863	0.0142097
740.941	0.0141152
741.019	0.0142307
741.097	0.0140949
741.175	0.0143529
741.253	0.0143925
741.331	0.0143394
741.410	0.0144942
741.488	0.0145617
741.566	0.0144524
741.644	0.0145643
741.722	0.0145217
741.800	0.0146309
741.878	0.0145498
741.956	0.0145849
742.035	0.0147063
742.113	0.0145100
742.191	0.0143770
742.269	0.0144053
742.347	0.0145057
742.425	0.0143999
742.503	0.0142922
742.581	0.0142179
742.660	0.0141916
742.738	0.0141350
742.816	0.0140617
742.894	0.0140569
742.972	0.0139444
743.050	0.0139870
743.128	0.0136976
743.206	0.0137157
743.285	0.0138765
743.363	0.0139312
743.441	0.0137651
743.519	0.0139477
743.597	0.0137442
743.675	0.0138168
743.753	0.0138029
743.831	0.0138298
743.910	0.0137801
743.988	0.0137587
744.066	0.0137166
744.144	0.0136889
744.222	0.0137211
744.300	0.0135300
744.378	0.0136050
744.456	0.0136342
744.535	0.0136240
744.613	0.0135973
744.691	0.0134341
744.769	0.0137187
744.847	0.0135580
744.925	0.0136852
745.003	0.0138664
745.081	0.0137275
745.160	0.0137314
745.238	0.0138508
745.316	0.0137352
745.394	0.0137425
745.472	0.0139634
745.550	0.0138387
745.628	0.0138175
745.706	0.0138654
