05/03/2022	20:38:03	Ver.	4.1	UNKNOWN
Optical Delay	660.003261	Delta X		0.078125	Sweeps	1	Scan Rate	0/0
Coordinates	Axis 1	NaN	Axis 2	NaN	Axis 3	NaN	Axis 4	NaN	Axis 5	NaN	Axis 6	0.000000
TX Power	0.000000	RX Power	0.000000

660.003	0.0145170
660.081	0.0145122
660.160	0.0144752
660.238	0.0145042
660.316	0.0145613
660.394	0.0144891
660.472	0.0144359
660.550	0.0143612
660.628	0.0145914
660.706	0.0145415
660.785	0.0145106
660.863	0.0145427
660.941	0.0145154
661.019	0.0145544
661.097	0.0144952
661.175	0.0146024
661.253	0.0144900
661.331	0.0144759
661.410	0.0144870
661.488	0.0145688
661.566	0.0145870
661.644	0.0145004
661.722	0.0145287
661.800	0.0144624
661.878	0.0144208
661.956	0.0144106
662.035	0.0143830
662.113	0.0147195
662.191	0.0145818
662.269	0.0145343
662.347	0.0144659
662.425	0.0146442
662.503	0.0144749
662.581	0.0144328
662.660	0.0145008
662.738	0.0144920
662.816	0.0145354
662.894	0.0146331
662.972	0.0144633
663.050	0.0145398
663.128	0.0145190
663.206	0.0145643
663.285	0.0145370
663.363	0.0144720
663.441	0.0146786
663.519	0.0143799
663.597	0.0144522
663.675	0.0145682
663.753	0.0146660
663.831	0.0145291
663.910	0.0145056
663.988	0.0145840
664.066	0.0144555
664.144	0.0143656
664.222	0.0146680
664.300	0.0145802
664.378	0.0144501
664.456	0.0145736
664.535	0.0145457
664.613	0.0144823
664.691	0.0146127
664.769	0.0146585
664.847	0.0146169
664.925	0.0146242
665.003	0.0144660
665.081	0.0145579
665.160	0.0144514
665.238	0.0143786
665.316	0.0147074
665.394	0.0145747
665.472	0.0145313
665.550	0.0145541
665.628	0.0147580
665.706	0.0145660
665.785	0.0146076
665.863	0.0145782
665.941	0.0145472
666.019	0.0145456
666.097	0.0146331
666.175	0.0145008
666.253	0.0145065
666.331	0.0146025
666.410	0.0145172
666.488	0.0145773
666.566	0.0147169
666.644	0.0145518
666.722	0.0145811
666.800	0.0144936
666.878	0.0145451
666.956	0.0145905
667.035	0.0145569
667.113	0.0145962
667.191	0.0145811
667.269	0.0146052
667.347	0.0146149
667.425	0.0144986
667.503	0.0146744
667.581	0.0145878
667.660	0.0144982
667.738	0.0146504
667.816	0.0146382
667.894	0.0146382
667.972	0.0147208
668.050	0.0146735
668.128	0.0146450
668.206	0.0146929
668.285	0.0145596
668.363	0.0144082
668.441	0.0146021
668.519	0.0146622
668.597	0.0147071
668.675	0.0145504
668.753	0.0145883
668.831	0.0145848
668.910	0.0146345
668.988	0.0147511
669.066	0.0147755
669.144	0.0146641
669.222	0.0145863
669.300	0.0145576
669.378	0.0145866
669.456	0.0147205
669.535	0.0146416
669.613	0.0145981
669.691	0.0145509
669.769	0.0146671
669.847	0.0146967
669.925	0.0146301
670.003	0.0146413
670.081	0.0146901
670.160	0.0145145
670.238	0.0144997
670.316	0.0145351
670.394	0.0147286
670.472	0.0146672
670.550	0.0145355
670.628	0.0146581
670.706	0.0146069
670.785	0.0145883
670.863	0.0147760
670.941	0.0147060
671.019	0.0146559
671.097	0.0146165
671.175	0.0145845
671.253	0.0145535
671.331	0.0146655
671.410	0.0146675
671.488	0.0147163
671.566	0.0146050
671.644	0.0146356
671.722	0.0146507
671.800	0.0146804
671.878	0.0146546
671.956	0.0146233
672.035	0.0146460
672.113	0.0146898
672.191	0.0146074
672.269	0.0147388
672.347	0.0146473
672.425	0.0146201
672.503	0.0146561
672.581	0.0147035
672.660	0.0146894
672.738	0.0146405
672.816	0.0146751
672.894	0.0147832
672.972	0.0147440
673.050	0.0146632
673.128	0.0147194
673.206	0.0146702
673.285	0.0147491
673.363	0.0147613
673.441	0.0146205
673.519	0.0147561
673.597	0.0147697
673.675	0.0145766
673.753	0.0146563
673.831	0.0147578
673.910	0.0147128
673.988	0.0146959
674.066	0.0146696
674.144	0.0146303
674.222	0.0146117
674.300	0.0147169
674.378	0.0147429
674.456	0.0145519
674.535	0.0146249
674.613	0.0146948
674.691	0.0145541
674.769	0.0146520
674.847	0.0146586
674.925	0.0146622
675.003	0.0146986
675.081	0.0146643
675.160	0.0146964
675.238	0.0148081
675.316	0.0147474
675.394	0.0147565
675.472	0.0147935
675.550	0.0147205
675.628	0.0146502
675.706	0.0148859
675.785	0.0146259
675.863	0.0147265
675.941	0.0147771
676.019	0.0147688
676.097	0.0146571
676.175	0.0146037
676.253	0.0145683
676.331	0.0146873
676.410	0.0147594
676.488	0.0145959
676.566	0.0146145
676.644	0.0145391
676.722	0.0146012
676.800	0.0146923
676.878	0.0147009
676.956	0.0146428
677.035	0.0147871
677.113	0.0147204
677.191	0.0145927
677.269	0.0145289
677.347	0.0146442
677.425	0.0146994
677.503	0.0145387
677.581	0.0145085
677.660	0.0145488
677.738	0.0145410
677.816	0.0144540
677.894	0.0143851
677.972	0.0145617
678.050	0.0145438
678.128	0.0146265
678.206	0.0145313
678.285	0.0144890
678.363	0.0146119
678.441	0.0145847
678.519	0.0144447
678.597	0.0145304
678.675	0.0147109
678.753	0.0145241
678.831	0.0145391
678.910	0.0145724
678.988	0.0144331
679.066	0.0144801
679.144	0.0144806
679.222	0.0144896
679.300	0.0143174
679.378	0.0143904
679.456	0.0144207
679.535	0.0144398
679.613	0.0144166
679.691	0.0144527
679.769	0.0143575
679.847	0.0143618
679.925	0.0144208
680.003	0.0142780
680.081	0.0143495
680.160	0.0144643
680.238	0.0144183
680.316	0.0144468
680.394	0.0145287
680.472	0.0145895
680.550	0.0145963
680.628	0.0145683
680.706	0.0144746
680.785	0.0145210
680.863	0.0146595
680.941	0.0147060
681.019	0.0146746
681.097	0.0146458
681.175	0.0145699
681.253	0.0146240
681.331	0.0145298
681.410	0.0144787
681.488	0.0144829
681.566	0.0145013
681.644	0.0143658
681.722	0.0144603
681.800	0.0144210
681.878	0.0144887
681.956	0.0145238
682.035	0.0144286
682.113	0.0144363
682.191	0.0144578
682.269	0.0145039
682.347	0.0144098
682.425	0.0144679
682.503	0.0145335
682.581	0.0144658
682.660	0.0144373
682.738	0.0145432
682.816	0.0145956
682.894	0.0144793
682.972	0.0145564
683.050	0.0146171
683.128	0.0146492
683.206	0.0147102
683.285	0.0145517
683.363	0.0143732
683.441	0.0145926
683.519	0.0146577
683.597	0.0146924
683.675	0.0145068
683.753	0.0147070
683.831	0.0146700
683.910	0.0146375
683.988	0.0145744
684.066	0.0146352
684.144	0.0145466
684.222	0.0145061
684.300	0.0144202
684.378	0.0144668
684.456	0.0144611
684.535	0.0145650
684.613	0.0142866
684.691	0.0144341
684.769	0.0144582
684.847	0.0144655
684.925	0.0143469
685.003	0.0144646
685.081	0.0144814
685.160	0.0144170
685.238	0.0143909
685.316	0.0143995
685.394	0.0145309
685.472	0.0144841
685.550	0.0143875
685.628	0.0144680
685.706	0.0145277
685.785	0.0144425
685.863	0.0145579
685.941	0.0147552
686.019	0.0146212
686.097	0.0145939
686.175	0.0146164
686.253	0.0146632
686.331	0.0146922
686.410	0.0145804
686.488	0.0144883
686.566	0.0146426
686.644	0.0144785
686.722	0.0147089
686.800	0.0145477
686.878	0.0146043
686.956	0.0145603
687.035	0.0146042
687.113	0.0146156
687.191	0.0147004
687.269	0.0147390
687.347	0.0147717
687.425	0.0148363
687.503	0.0148067
687.581	0.0147688
687.660	0.0147199
687.738	0.0149955
687.816	0.0148917
687.894	0.0149160
687.972	0.0148150
688.050	0.0147606
688.128	0.0147364
688.206	0.0147787
688.285	0.0146558
688.363	0.0146406
688.441	0.0145940
688.519	0.0145354
688.597	0.0146076
688.675	0.0145142
688.753	0.0144888
688.831	0.0145193
688.910	0.0145719
688.988	0.0145729
689.066	0.0143918
689.144	0.0144877
689.222	0.0143932
689.300	0.0144297
689.378	0.0143172
689.456	0.0144865
689.535	0.0145727
689.613	0.0145702
689.691	0.0146010
689.769	0.0145013
689.847	0.0146358
689.925	0.0145090
690.003	0.0146752
690.081	0.0145419
690.160	0.0146059
690.238	0.0146165
690.316	0.0147048
690.394	0.0146722
690.472	0.0146751
690.550	0.0147822
690.628	0.0147961
690.706	0.0147094
690.785	0.0147572
690.863	0.0146868
690.941	0.0147971
691.019	0.0147988
691.097	0.0146543
691.175	0.0147819
691.253	0.0147775
691.331	0.0147890
691.410	0.0146944
691.488	0.0147240
691.566	0.0146168
691.644	0.0146701
691.722	0.0147708
691.800	0.0147424
691.878	0.0147620
691.956	0.0146303
692.035	0.0145879
692.113	0.0146786
692.191	0.0146909
692.269	0.0148096
692.347	0.0147540
692.425	0.0145550
692.503	0.0147723
692.581	0.0146988
692.660	0.0147349
692.738	0.0147350
692.816	0.0147009
692.894	0.0147688
692.972	0.0148048
693.050	0.0146476
693.128	0.0146530
693.206	0.0147021
693.285	0.0145892
693.363	0.0143497
693.441	0.0146245
693.519	0.0144662
693.597	0.0144228
693.675	0.0142670
693.753	0.0142268
693.831	0.0143054
693.910	0.0142307
693.988	0.0142308
694.066	0.0144370
694.144	0.0142937
694.222	0.0142654
694.300	0.0144862
694.378	0.0145560
694.456	0.0145048
694.535	0.0144592
694.613	0.0145084
694.691	0.0145461
694.769	0.0146540
694.847	0.0146842
694.925	0.0147410
695.003	0.0147841
695.081	0.0149256
695.160	0.0147319
695.238	0.0148246
695.316	0.0147585
695.394	0.0147477
695.472	0.0148714
695.550	0.0148589
695.628	0.0148567
695.706	0.0148348
695.785	0.0147546
695.863	0.0147634
695.941	0.0145945
696.019	0.0146949
696.097	0.0147585
696.175	0.0146201
696.253	0.0145399
696.331	0.0146177
696.410	0.0146073
696.488	0.0145902
696.566	0.0145668
696.644	0.0145847
696.722	0.0147417
696.800	0.0146006
696.878	0.0148466
696.956	0.0147891
697.035	0.0146861
697.113	0.0148508
697.191	0.0148992
697.269	0.0148736
697.347	0.0149233
697.425	0.0147540
697.503	0.0148149
697.581	0.0149444
697.660	0.0148761
697.738	0.0148698
697.816	0.0148187
697.894	0.0149094
697.972	0.0149394
698.050	0.0147536
698.128	0.0147434
698.206	0.0148399
698.285	0.0146713
698.363	0.0147025
698.441	0.0147691
698.519	0.0147929
698.597	0.0146070
698.675	0.0146767
698.753	0.0146643
698.831	0.0145587
698.910	0.0146452
698.988	0.0145850
699.066	0.0146028
699.144	0.0144678
699.222	0.0145446
699.300	0.0145244
699.378	0.0142593
699.456	0.0145267
699.535	0.0143514
699.613	0.0143359
699.691	0.0144403
699.769	0.0144317
699.847	0.0143307
699.925	0.0144398
700.003	0.0144641
700.081	0.0143922
700.160	0.0144659
700.238	0.0143994
700.316	0.0143816
700.394	0.0144350
700.472	0.0145442
700.550	0.0145416
700.628	0.0145499
700.706	0.0147477
700.785	0.0146980
700.863	0.0146278
700.941	0.0147205
701.019	0.0146788
701.097	0.0145871
701.175	0.0147070
701.253	0.0145959
701.331	0.0146233
701.410	0.0145677
701.488	0.0146035
701.566	0.0144839
701.644	0.0143721
701.722	0.0143171
701.800	0.0143165
701.878	0.0144330
701.956	0.0144566
702.035	0.0142896
702.113	0.0144457
702.191	0.0144729
702.269	0.0144647
702.347	0.0144914
702.425	0.0144824
702.503	0.0146716
702.581	0.0146883
702.660	0.0146834
702.738	0.0149605
702.816	0.0149923
702.894	0.0149250
702.972	0.0148643
703.050	0.0148634
703.128	0.0148439
703.206	0.0147310
703.285	0.0148310
703.363	0.0147263
703.441	0.0146304
703.519	0.0145659
703.597	0.0144225
703.675	0.0143952
703.753	0.0143193
703.831	0.0143007
703.910	0.0142979
703.988	0.0143004
704.066	0.0143382
704.144	0.0143436
704.222	0.0144724
704.300	0.0145699
704.378	0.0146138
704.456	0.0147111
704.535	0.0147302
704.613	0.0148517
704.691	0.0147401
704.769	0.0147061
704.847	0.0146897
704.925	0.0145554
705.003	0.0146868
705.081	0.0145934
705.160	0.0144612
705.238	0.0144452
705.316	0.0143497
705.394	0.0144122
705.472	0.0143354
705.550	0.0142767
705.628	0.0142300
705.706	0.0142163
705.785	0.0142505
705.863	0.0143794
705.941	0.0142594
706.019	0.0142445
706.097	0.0144014
706.175	0.0144906
706.253	0.0144595
706.331	0.0144439
706.410	0.0145158
706.488	0.0143551
706.566	0.0143597
706.644	0.0143233
706.722	0.0144366
706.800	0.0144558
706.878	0.0145810
706.956	0.0143499
707.035	0.0144676
707.113	0.0145567
707.191	0.0145705
707.269	0.0146341
707.347	0.0146532
707.425	0.0146687
707.503	0.0147052
707.581	0.0147558
707.660	0.0145674
707.738	0.0145235
707.816	0.0146275
707.894	0.0145829
707.972	0.0145761
708.050	0.0145512
708.128	0.0145694
708.206	0.0146001
708.285	0.0144858
708.363	0.0144156
708.441	0.0146048
708.519	0.0147097
708.597	0.0147310
708.675	0.0145194
708.753	0.0145905
708.831	0.0148019
708.910	0.0146859
708.988	0.0147694
709.066	0.0148083
709.144	0.0147900
709.222	0.0148943
709.300	0.0146925
709.378	0.0146588
709.456	0.0148288
709.535	0.0146596
709.613	0.0146207
709.691	0.0145560
709.769	0.0143829
709.847	0.0144479
709.925	0.0143931
710.003	0.0142623
710.081	0.0144015
710.160	0.0144337
710.238	0.0145953
710.316	0.0147569
710.394	0.0146452
710.472	0.0146718
710.550	0.0147404
710.628	0.0148660
710.706	0.0149567
710.785	0.0148257
710.863	0.0148448
710.941	0.0148270
711.019	0.0149014
711.097	0.0147076
711.175	0.0145645
711.253	0.0144559
711.331	0.0143958
711.410	0.0143052
711.488	0.0143383
711.566	0.0143672
711.644	0.0141144
711.722	0.0142529
711.800	0.0142437
711.878	0.0142318
711.956	0.0142815
712.035	0.0143285
712.113	0.0143868
712.191	0.0143068
712.269	0.0144409
712.347	0.0143626
712.425	0.0143694
712.503	0.0144123
712.581	0.0145133
712.660	0.0144733
712.738	0.0144026
712.816	0.0144993
712.894	0.0144177
712.972	0.0146217
713.050	0.0145392
713.128	0.0144913
713.206	0.0146256
713.285	0.0147465
713.363	0.0147514
713.441	0.0146371
713.519	0.0146523
713.597	0.0147370
713.675	0.0146645
713.753	0.0147018
713.831	0.0146502
713.910	0.0147731
713.988	0.0145656
714.066	0.0145971
714.144	0.0146020
714.222	0.0143947
714.300	0.0144903
714.378	0.0145332
714.456	0.0145383
714.535	0.0144791
714.613	0.0143804
714.691	0.0145031
714.769	0.0147346
714.847	0.0145634
714.925	0.0146175
715.003	0.0146613
715.081	0.0146755
715.160	0.0146548
715.238	0.0147427
715.316	0.0147915
715.394	0.0148546
715.472	0.0146555
715.550	0.0145233
715.628	0.0146693
715.706	0.0146209
715.785	0.0145142
715.863	0.0143932
715.941	0.0144310
716.019	0.0143610
716.097	0.0143422
716.175	0.0143453
716.253	0.0142746
716.331	0.0141483
716.410	0.0141476
716.488	0.0143127
716.566	0.0144291
716.644	0.0144629
716.722	0.0145387
716.800	0.0146478
716.878	0.0146993
716.956	0.0148757
717.035	0.0146474
717.113	0.0148085
717.191	0.0147286
717.269	0.0147108
717.347	0.0147770
717.425	0.0147600
717.503	0.0145923
717.581	0.0145517
717.660	0.0145175
717.738	0.0143894
717.816	0.0144479
717.894	0.0142631
717.972	0.0142009
718.050	0.0142263
718.128	0.0144964
718.206	0.0143034
718.285	0.0142651
718.363	0.0144150
718.441	0.0142534
718.519	0.0144135
718.597	0.0143362
718.675	0.0144612
718.753	0.0145647
718.831	0.0144602
718.910	0.0145351
718.988	0.0145949
719.066	0.0144633
719.144	0.0144026
719.222	0.0145580
719.300	0.0145970
719.378	0.0145346
719.456	0.0146510
719.535	0.0145290
719.613	0.0145570
719.691	0.0145495
719.769	0.0146541
719.847	0.0146792
719.925	0.0147444
720.003	0.0147814
720.081	0.0147509
720.160	0.0147086
720.238	0.0147674
720.316	0.0148480
720.394	0.0148327
720.472	0.0147666
720.550	0.0147507
720.628	0.0146904
720.706	0.0148214
720.785	0.0146748
720.863	0.0148634
720.941	0.0148665
721.019	0.0147052
721.097	0.0149221
721.175	0.0149204
721.253	0.0148377
721.331	0.0149200
721.410	0.0148955
721.488	0.0149059
721.566	0.0149150
721.644	0.0151361
721.722	0.0148219
721.800	0.0147567
721.878	0.0149220
721.956	0.0147501
722.035	0.0148000
722.113	0.0147361
722.191	0.0147295
722.269	0.0146529
722.347	0.0146307
722.425	0.0144802
722.503	0.0145472
722.581	0.0143773
722.660	0.0145610
722.738	0.0144678
722.816	0.0146192
722.894	0.0145376
722.972	0.0145609
723.050	0.0145134
723.128	0.0144448
723.206	0.0145515
723.285	0.0145307
723.363	0.0145608
723.441	0.0146701
723.519	0.0146583
723.597	0.0145931
723.675	0.0147635
723.753	0.0147041
723.831	0.0147753
723.910	0.0146625
723.988	0.0146436
724.066	0.0147342
724.144	0.0146448
724.222	0.0145482
724.300	0.0144557
724.378	0.0145517
724.456	0.0143983
724.535	0.0143167
724.613	0.0141346
724.691	0.0141835
724.769	0.0142588
724.847	0.0140034
724.925	0.0141959
725.003	0.0142033
725.081	0.0143510
725.160	0.0141457
725.238	0.0142545
725.316	0.0144092
725.394	0.0144298
725.472	0.0145380
725.550	0.0144618
725.628	0.0145711
725.706	0.0145922
725.785	0.0145070
725.863	0.0145329
725.941	0.0146503
726.019	0.0144792
726.097	0.0145820
726.175	0.0144495
726.253	0.0145547
726.331	0.0146748
726.410	0.0145823
726.488	0.0145592
726.566	0.0145956
726.644	0.0145441
726.722	0.0147148
726.800	0.0147379
726.878	0.0147253
726.956	0.0146779
727.035	0.0146136
727.113	0.0148689
727.191	0.0149869
727.269	0.0148515
727.347	0.0148188
727.425	0.0149187
727.503	0.0148598
727.581	0.0149013
727.660	0.0149619
727.738	0.0148315
727.816	0.0147522
727.894	0.0148116
727.972	0.0148260
728.050	0.0149162
728.128	0.0149912
728.206	0.0149744
728.285	0.0149763
728.363	0.0148574
728.441	0.0147806
728.519	0.0147158
728.597	0.0146947
728.675	0.0147467
728.753	0.0145495
728.831	0.0145346
728.910	0.0144904
728.988	0.0144019
729.066	0.0144971
729.144	0.0144917
729.222	0.0143649
729.300	0.0144305
729.378	0.0143272
729.456	0.0144572
729.535	0.0144019
729.613	0.0145570
729.691	0.0144904
729.769	0.0143778
729.847	0.0143033
729.925	0.0145608
730.003	0.0145895
730.081	0.0144099
730.160	0.0144199
730.238	0.0144796
730.316	0.0143796
730.394	0.0145396
730.472	0.0145425
730.550	0.0145273
730.628	0.0145703
730.706	0.0144056
730.785	0.0142770
730.863	0.0143580
730.941	0.0143060
731.019	0.0142866
731.097	0.0142241
731.175	0.0142034
731.253	0.0141515
731.331	0.0140510
731.410	0.0141396
731.488	0.0142583
731.566	0.0141601
731.644	0.0140974
731.722	0.0141764
731.800	0.0143292
731.878	0.0143044
731.956	0.0143129
732.035	0.0142763
732.113	0.0144149
732.191	0.0144113
732.269	0.0146422
732.347	0.0144390
732.425	0.0144948
732.503	0.0144662
732.581	0.0142870
732.660	0.0144501
732.738	0.0144497
732.816	0.0144723
732.894	0.0144036
732.972	0.0143750
733.050	0.0144485
733.128	0.0146584
733.206	0.0145547
733.285	0.0145867
733.363	0.0146930
733.441	0.0146103
733.519	0.0146822
733.597	0.0147749
733.675	0.0148027
733.753	0.0148984
733.831	0.0147067
733.910	0.0148455
733.988	0.0149187
734.066	0.0149196
734.144	0.0149979
734.222	0.0148927
734.300	0.0150558
734.378	0.0149707
734.456	0.0150526
734.535	0.0150475
734.613	0.0149525
734.691	0.0149772
734.769	0.0149982
734.847	0.0149126
734.925	0.0149931
735.003	0.0148609
735.081	0.0148296
735.160	0.0147533
735.238	0.0145013
735.316	0.0146286
735.394	0.0146528
735.472	0.0147311
735.550	0.0146216
735.628	0.0145086
735.706	0.0144068
735.785	0.0144739
735.863	0.0146311
735.941	0.0144391
736.019	0.0143653
736.097	0.0144707
736.175	0.0144437
736.253	0.0144614
736.331	0.0144972
736.410	0.0145018
736.488	0.0143761
736.566	0.0144622
736.644	0.0144496
736.722	0.0143668
736.800	0.0144366
736.878	0.0143130
736.956	0.0142356
737.035	0.0144149
737.113	0.0143530
737.191	0.0140763
737.269	0.0142422
737.347	0.0141816
737.425	0.0142434
737.503	0.0142045
737.581	0.0141699
737.660	0.0142466
737.738	0.0142392
737.816	0.0140556
737.894	0.0141254
737.972	0.0142672
738.050	0.0143153
738.128	0.0142789
738.206	0.0141661
738.285	0.0141570
738.363	0.0142819
738.441	0.0143014
738.519	0.0142184
738.597	0.0143281
738.675	0.0143073
738.753	0.0141502
738.831	0.0142920
738.910	0.0142579
738.988	0.0143301
739.066	0.0142994
739.144	0.0144226
739.222	0.0145092
739.300	0.0143908
739.378	0.0144809
739.456	0.0144579
739.535	0.0144269
739.613	0.0143478
739.691	0.0145240
739.769	0.0144500
739.847	0.0144318
739.925	0.0143829
740.003	0.0145200
740.081	0.0144553
740.160	0.0146954
740.238	0.0147671
740.316	0.0147832
740.394	0.0146859
740.472	0.0147423
740.550	0.0148726
740.628	0.0149541
740.706	0.0148675
740.785	0.0149346
740.863	0.0149244
740.941	0.0150315
741.019	0.0150394
741.097	0.0151620
741.175	0.0151824
741.253	0.0151172
741.331	0.0152841
741.410	0.0151492
741.488	0.0150472
741.566	0.0150412
741.644	0.0148339
741.722	0.0148330
741.800	0.0149242
741.878	0.0146301
741.956	0.0147729
742.035	0.0147636
742.113	0.0145831
742.191	0.0145648
742.269	0.0144968
742.347	0.0144032
742.425	0.0145197
742.503	0.0144978
742.581	0.0144199
742.660	0.0142946
742.738	0.0143443
742.816	0.0143387
742.894	0.0144137
742.972	0.0143390
743.050	0.0144357
743.128	0.0143187
743.206	0.0143589
743.285	0.0143594
743.363	0.0144275
743.441	0.0144587
743.519	0.0144004
743.597	0.0143675
743.675	0.0143092
743.753	0.0142562
743.831	0.0142355
743.910	0.0142102
743.988	0.0142917
744.066	0.0142915
744.144	0.0142912
744.222	0.0143414
744.300	0.0141666
744.378	0.0142779
744.456	0.0143619
744.535	0.0144901
744.613	0.0145295
744.691	0.0143816
744.769	0.0145539
744.847	0.0143882
744.925	0.0144042
745.003	0.0144260
745.081	0.0143584
745.160	0.0141711
745.238	0.0144810
745.316	0.0144091
745.394	0.0144127
745.472	0.0143982
745.550	0.0143603
745.628	0.0144066
745.706	0.0145901
