05/03/2022	20:00:31	Ver.	4.1	UNKNOWN
Optical Delay	660.003261	Delta X		0.078125	Sweeps	1	Scan Rate	0/0
Coordinates	Axis 1	NaN	Axis 2	NaN	Axis 3	NaN	Axis 4	NaN	Axis 5	NaN	Axis 6	0.000000
TX Power	0.000000	RX Power	0.000000

660.003	0.0140668
660.081	0.0141502
660.160	0.0141551
660.238	0.0139718
660.316	0.0140622
660.394	0.0140825
660.472	0.0141769
660.550	0.0140070
660.628	0.0140439
660.706	0.0141948
660.785	0.0140994
660.863	0.0141541
660.941	0.0139925
661.019	0.0141031
661.097	0.0141602
661.175	0.0140060
661.253	0.0140363
661.331	0.0141140
661.410	0.0140772
661.488	0.0139787
661.566	0.0139940
661.644	0.0138916
661.722	0.0140226
661.800	0.0140437
661.878	0.0141740
661.956	0.0141298
662.035	0.0139635
662.113	0.0140477
662.191	0.0142110
662.269	0.0140492
662.347	0.0138653
662.425	0.0139262
662.503	0.0140263
662.581	0.0140320
662.660	0.0140567
662.738	0.0140730
662.816	0.0140454
662.894	0.0141498
662.972	0.0139796
663.050	0.0138679
663.128	0.0139567
663.206	0.0141076
663.285	0.0141048
663.363	0.0140755
663.441	0.0140350
663.519	0.0140724
663.597	0.0139209
663.675	0.0140388
663.753	0.0140207
663.831	0.0140695
663.910	0.0141427
663.988	0.0140400
664.066	0.0140044
664.144	0.0140611
664.222	0.0140264
664.300	0.0141190
664.378	0.0140398
664.456	0.0139394
664.535	0.0139725
664.613	0.0140536
664.691	0.0141548
664.769	0.0141879
664.847	0.0140130
664.925	0.0140613
665.003	0.0140263
665.081	0.0140601
665.160	0.0141157
665.238	0.0139887
665.316	0.0141359
665.394	0.0141611
665.472	0.0141161
665.550	0.0140942
665.628	0.0139953
665.706	0.0139580
665.785	0.0140230
665.863	0.0140956
665.941	0.0141009
666.019	0.0141300
666.097	0.0140927
666.175	0.0140881
666.253	0.0140667
666.331	0.0141047
666.410	0.0141747
666.488	0.0140527
666.566	0.0139997
666.644	0.0140558
666.722	0.0140565
666.800	0.0141377
666.878	0.0140623
666.956	0.0141367
667.035	0.0140791
667.113	0.0140627
667.191	0.0139986
667.269	0.0139672
667.347	0.0140504
667.425	0.0141048
667.503	0.0141089
667.581	0.0141266
667.660	0.0139871
667.738	0.0139529
667.816	0.0140668
667.894	0.0142113
667.972	0.0141907
668.050	0.0141621
668.128	0.0140748
668.206	0.0141393
668.285	0.0140694
668.363	0.0140557
668.441	0.0140062
668.519	0.0140088
668.597	0.0141148
668.675	0.0140848
668.753	0.0140449
668.831	0.0139039
668.910	0.0140865
668.988	0.0142139
669.066	0.0141731
669.144	0.0139856
669.222	0.0141699
669.300	0.0141727
669.378	0.0138640
669.456	0.0140540
669.535	0.0141028
669.613	0.0141435
669.691	0.0140240
669.769	0.0140030
669.847	0.0139721
669.925	0.0141035
670.003	0.0139883
670.081	0.0140449
670.160	0.0140831
670.238	0.0140718
670.316	0.0140242
670.394	0.0140800
670.472	0.0142001
670.550	0.0141345
670.628	0.0141061
670.706	0.0139617
670.785	0.0140407
670.863	0.0140068
670.941	0.0140351
671.019	0.0141463
671.097	0.0140173
671.175	0.0141811
671.253	0.0141110
671.331	0.0141018
671.410	0.0141415
671.488	0.0141035
671.566	0.0140899
671.644	0.0140849
671.722	0.0141697
671.800	0.0141581
671.878	0.0139902
671.956	0.0141201
672.035	0.0140653
672.113	0.0138748
672.191	0.0141095
672.269	0.0139907
672.347	0.0140475
672.425	0.0139706
672.503	0.0141032
672.581	0.0141447
672.660	0.0140036
672.738	0.0140042
672.816	0.0139948
672.894	0.0140182
672.972	0.0141758
673.050	0.0142265
673.128	0.0140744
673.206	0.0140466
673.285	0.0140241
673.363	0.0140688
673.441	0.0140765
673.519	0.0142210
673.597	0.0140255
673.675	0.0139790
673.753	0.0140262
673.831	0.0140934
673.910	0.0139957
673.988	0.0139960
674.066	0.0140546
674.144	0.0139318
674.222	0.0140125
674.300	0.0141064
674.378	0.0139679
674.456	0.0141877
674.535	0.0141393
674.613	0.0140301
674.691	0.0141682
674.769	0.0139980
674.847	0.0140519
674.925	0.0141239
675.003	0.0140965
675.081	0.0141108
675.160	0.0140984
675.238	0.0141054
675.316	0.0140764
675.394	0.0141315
675.472	0.0141281
675.550	0.0140284
675.628	0.0140146
675.706	0.0140890
675.785	0.0140865
675.863	0.0139774
675.941	0.0140346
676.019	0.0140529
676.097	0.0139545
676.175	0.0140417
676.253	0.0140945
676.331	0.0140282
676.410	0.0140479
676.488	0.0140891
676.566	0.0140378
676.644	0.0141297
676.722	0.0139742
676.800	0.0139334
676.878	0.0139755
676.956	0.0140649
677.035	0.0141805
677.113	0.0140379
677.191	0.0141228
677.269	0.0140575
677.347	0.0140610
677.425	0.0140028
677.503	0.0139601
677.581	0.0140961
677.660	0.0141309
677.738	0.0140170
677.816	0.0139457
677.894	0.0140560
677.972	0.0140160
678.050	0.0140230
678.128	0.0140211
678.206	0.0140808
678.285	0.0138596
678.363	0.0141123
678.441	0.0140363
678.519	0.0139598
678.597	0.0139658
678.675	0.0139236
678.753	0.0140555
678.831	0.0140349
678.910	0.0141383
678.988	0.0140536
679.066	0.0141255
679.144	0.0141805
679.222	0.0140101
679.300	0.0140270
679.378	0.0140224
679.456	0.0139948
679.535	0.0139925
679.613	0.0140141
679.691	0.0140755
679.769	0.0140643
679.847	0.0140300
679.925	0.0140450
680.003	0.0140520
680.081	0.0140575
680.160	0.0140405
680.238	0.0141422
680.316	0.0140583
680.394	0.0140278
680.472	0.0141206
680.550	0.0140123
680.628	0.0140548
680.706	0.0139943
680.785	0.0141247
680.863	0.0141666
680.941	0.0140743
681.019	0.0141386
681.097	0.0140672
681.175	0.0140742
681.253	0.0140379
681.331	0.0139427
681.410	0.0140811
681.488	0.0141249
681.566	0.0140962
681.644	0.0141261
681.722	0.0139973
681.800	0.0139315
681.878	0.0141100
681.956	0.0139871
682.035	0.0138857
682.113	0.0140151
682.191	0.0140430
682.269	0.0141035
682.347	0.0140204
682.425	0.0140154
682.503	0.0139781
682.581	0.0140594
682.660	0.0140956
682.738	0.0140591
682.816	0.0140817
682.894	0.0141547
682.972	0.0141362
683.050	0.0140534
683.128	0.0140591
683.206	0.0140567
683.285	0.0140784
683.363	0.0141649
683.441	0.0141943
683.519	0.0141425
683.597	0.0140049
683.675	0.0140133
683.753	0.0140060
683.831	0.0140239
683.910	0.0141415
683.988	0.0140247
684.066	0.0142081
684.144	0.0140224
684.222	0.0139813
684.300	0.0140656
684.378	0.0140331
684.456	0.0141199
684.535	0.0140112
684.613	0.0140266
684.691	0.0141436
684.769	0.0140456
684.847	0.0139272
684.925	0.0140833
685.003	0.0142345
685.081	0.0139807
685.160	0.0140154
685.238	0.0139587
685.316	0.0141171
685.394	0.0140360
685.472	0.0140417
685.550	0.0140565
685.628	0.0140572
685.706	0.0140133
685.785	0.0141721
685.863	0.0141138
685.941	0.0140733
686.019	0.0141129
686.097	0.0141457
686.175	0.0140571
686.253	0.0140833
686.331	0.0140325
686.410	0.0141429
686.488	0.0140231
686.566	0.0141362
686.644	0.0141486
686.722	0.0141176
686.800	0.0141165
686.878	0.0140097
686.956	0.0140775
687.035	0.0142182
687.113	0.0140313
687.191	0.0141012
687.269	0.0139980
687.347	0.0139732
687.425	0.0141844
687.503	0.0140328
687.581	0.0141779
687.660	0.0140903
687.738	0.0140077
687.816	0.0140561
687.894	0.0142106
687.972	0.0140858
688.050	0.0140679
688.128	0.0141115
688.206	0.0140481
688.285	0.0140294
688.363	0.0140990
688.441	0.0141073
688.519	0.0140872
688.597	0.0139696
688.675	0.0141648
688.753	0.0143149
688.831	0.0141959
688.910	0.0141080
688.988	0.0140614
689.066	0.0140842
689.144	0.0140620
689.222	0.0140836
689.300	0.0140621
689.378	0.0140355
689.456	0.0140540
689.535	0.0140054
689.613	0.0140464
689.691	0.0140755
689.769	0.0141041
689.847	0.0139217
689.925	0.0141026
690.003	0.0141564
690.081	0.0141824
690.160	0.0139800
690.238	0.0140063
690.316	0.0140132
690.394	0.0139518
690.472	0.0139219
690.550	0.0140553
690.628	0.0140896
690.706	0.0141429
690.785	0.0141519
690.863	0.0139588
690.941	0.0139426
691.019	0.0140153
691.097	0.0140465
691.175	0.0141076
691.253	0.0141278
691.331	0.0141302
691.410	0.0139014
691.488	0.0141324
691.566	0.0141386
691.644	0.0141807
691.722	0.0140007
691.800	0.0140287
691.878	0.0140926
691.956	0.0141486
692.035	0.0140724
692.113	0.0139964
692.191	0.0141538
692.269	0.0140985
692.347	0.0140175
692.425	0.0140307
692.503	0.0140747
692.581	0.0141347
692.660	0.0139677
692.738	0.0140063
692.816	0.0141129
692.894	0.0142106
692.972	0.0140516
693.050	0.0140646
693.128	0.0141288
693.206	0.0139888
693.285	0.0139977
693.363	0.0141540
693.441	0.0141150
693.519	0.0141096
693.597	0.0141261
693.675	0.0140543
693.753	0.0138644
693.831	0.0141101
693.910	0.0141500
693.988	0.0141621
694.066	0.0141038
694.144	0.0140396
694.222	0.0141629
694.300	0.0141196
694.378	0.0141746
694.456	0.0140518
694.535	0.0140158
694.613	0.0140592
694.691	0.0140856
694.769	0.0141684
694.847	0.0139110
694.925	0.0139507
695.003	0.0140446
695.081	0.0140675
695.160	0.0139697
695.238	0.0140818
695.316	0.0140957
695.394	0.0140643
695.472	0.0139798
695.550	0.0139992
695.628	0.0139644
695.706	0.0140053
695.785	0.0141813
695.863	0.0142174
695.941	0.0140260
696.019	0.0139571
696.097	0.0139573
696.175	0.0140835
696.253	0.0140839
696.331	0.0140141
696.410	0.0141291
696.488	0.0140429
696.566	0.0141789
696.644	0.0141517
696.722	0.0140582
696.800	0.0141172
696.878	0.0140144
696.956	0.0139354
697.035	0.0141473
697.113	0.0140847
697.191	0.0140082
697.269	0.0140300
697.347	0.0139522
697.425	0.0140115
697.503	0.0140630
697.581	0.0140634
697.660	0.0139921
697.738	0.0139182
697.816	0.0141467
697.894	0.0138727
697.972	0.0140021
698.050	0.0139899
698.128	0.0140697
698.206	0.0140453
698.285	0.0139936
698.363	0.0139892
698.441	0.0139384
698.519	0.0140141
698.597	0.0140430
698.675	0.0140727
698.753	0.0140633
698.831	0.0141064
698.910	0.0140600
698.988	0.0138838
699.066	0.0140765
699.144	0.0140944
699.222	0.0139942
699.300	0.0140289
699.378	0.0141341
699.456	0.0140405
699.535	0.0140925
699.613	0.0140841
699.691	0.0139920
699.769	0.0140340
699.847	0.0141003
699.925	0.0139782
700.003	0.0140828
700.081	0.0140580
700.160	0.0140429
700.238	0.0140923
700.316	0.0139324
700.394	0.0139777
700.472	0.0140710
700.550	0.0140685
700.628	0.0140722
700.706	0.0141619
700.785	0.0140965
700.863	0.0140671
700.941	0.0140602
701.019	0.0139622
701.097	0.0140686
701.175	0.0141510
701.253	0.0140380
701.331	0.0141068
701.410	0.0139852
701.488	0.0141276
701.566	0.0140415
701.644	0.0139214
701.722	0.0139729
701.800	0.0139992
701.878	0.0139767
701.956	0.0140160
702.035	0.0140694
702.113	0.0139719
702.191	0.0139664
702.269	0.0139819
702.347	0.0140372
702.425	0.0139960
702.503	0.0139819
702.581	0.0140462
702.660	0.0140636
702.738	0.0140472
702.816	0.0140267
702.894	0.0140882
702.972	0.0141321
703.050	0.0140958
703.128	0.0141758
703.206	0.0140411
703.285	0.0139917
703.363	0.0141730
703.441	0.0140069
703.519	0.0139648
703.597	0.0141032
703.675	0.0141203
703.753	0.0140141
703.831	0.0141273
703.910	0.0140987
703.988	0.0140395
704.066	0.0140528
704.144	0.0138936
704.222	0.0141666
704.300	0.0142022
704.378	0.0139901
704.456	0.0140919
704.535	0.0141306
704.613	0.0140736
704.691	0.0139957
704.769	0.0140608
704.847	0.0142943
704.925	0.0143021
705.003	0.0141730
705.081	0.0141286
705.160	0.0140467
705.238	0.0141750
705.316	0.0141365
705.394	0.0141379
705.472	0.0139822
705.550	0.0140732
705.628	0.0140932
705.706	0.0140858
705.785	0.0140407
705.863	0.0140025
705.941	0.0140937
706.019	0.0140935
706.097	0.0140755
706.175	0.0140556
706.253	0.0141297
706.331	0.0142035
706.410	0.0143324
706.488	0.0143645
706.566	0.0143669
706.644	0.0143757
706.722	0.0143404
706.800	0.0142969
706.878	0.0142918
706.956	0.0143478
707.035	0.0145398
707.113	0.0142543
707.191	0.0144012
707.269	0.0145037
707.347	0.0143896
707.425	0.0141186
707.503	0.0141933
707.581	0.0143282
707.660	0.0141969
707.738	0.0141014
707.816	0.0139531
707.894	0.0140666
707.972	0.0140706
708.050	0.0140392
708.128	0.0139850
708.206	0.0139491
708.285	0.0137469
708.363	0.0136431
708.441	0.0136948
708.519	0.0135029
708.597	0.0134888
708.675	0.0136048
708.753	0.0134306
708.831	0.0133952
708.910	0.0131513
708.988	0.0132002
709.066	0.0130850
709.144	0.0127541
709.222	0.0125269
709.300	0.0125105
709.378	0.0124741
709.456	0.0122453
709.535	0.0122208
709.613	0.0123846
709.691	0.0128750
709.769	0.0132640
709.847	0.0139876
709.925	0.0146770
710.003	0.0151656
710.081	0.0154906
710.160	0.0159674
710.238	0.0161636
710.316	0.0159955
710.394	0.0157230
710.472	0.0151807
710.550	0.0145313
710.628	0.0139635
710.706	0.0135316
710.785	0.0132632
710.863	0.0129607
710.941	0.0130234
711.019	0.0133314
711.097	0.0133987
711.175	0.0139634
711.253	0.0144427
711.331	0.0149898
711.410	0.0152046
711.488	0.0158622
711.566	0.0161524
711.644	0.0164707
711.722	0.0167722
711.800	0.0169889
711.878	0.0170637
711.956	0.0170589
712.035	0.0170781
712.113	0.0167636
712.191	0.0164378
712.269	0.0160444
712.347	0.0154587
712.425	0.0148566
712.503	0.0141753
712.581	0.0135142
712.660	0.0131520
712.738	0.0126147
712.816	0.0123165
712.894	0.0123074
712.972	0.0123463
713.050	0.0121513
713.128	0.0121960
713.206	0.0119541
713.285	0.0115772
713.363	0.0112677
713.441	0.0108827
713.519	0.0104618
713.597	0.0102061
713.675	0.00999290
713.753	0.00977730
713.831	0.00979980
713.910	0.00990616
713.988	0.0102610
714.066	0.0107913
714.144	0.0114635
714.222	0.0123399
714.300	0.0136722
714.378	0.0147881
714.456	0.0158633
714.535	0.0171182
714.613	0.0180071
714.691	0.0188755
714.769	0.0196026
714.847	0.0200668
714.925	0.0202938
715.003	0.0199781
715.081	0.0197327
715.160	0.0194588
715.238	0.0188692
715.316	0.0182763
715.394	0.0173473
715.472	0.0165549
715.550	0.0157481
715.628	0.0149170
715.706	0.0142987
715.785	0.0136258
715.863	0.0127895
715.941	0.0122457
716.019	0.0118757
716.097	0.0114988
716.175	0.0111275
716.253	0.0110979
716.331	0.0109934
716.410	0.0108479
716.488	0.0108606
716.566	0.0107329
716.644	0.0107290
716.722	0.0109790
716.800	0.0109197
716.878	0.0110798
716.956	0.0112387
717.035	0.0115356
717.113	0.0118429
717.191	0.0120823
717.269	0.0125434
717.347	0.0129099
717.425	0.0132327
717.503	0.0137769
717.581	0.0142242
717.660	0.0144980
717.738	0.0151206
717.816	0.0154405
717.894	0.0158384
717.972	0.0161408
718.050	0.0164052
718.128	0.0164942
718.206	0.0168581
718.285	0.0169405
718.363	0.0168317
718.441	0.0169475
718.519	0.0169596
718.597	0.0169876
718.675	0.0171001
718.753	0.0171096
718.831	0.0169911
718.910	0.0167898
718.988	0.0165401
719.066	0.0165252
719.144	0.0162764
719.222	0.0158644
719.300	0.0155717
719.378	0.0151528
719.456	0.0146548
719.535	0.0142765
719.613	0.0138674
719.691	0.0134350
719.769	0.0128641
719.847	0.0125083
719.925	0.0122057
720.003	0.0118087
720.081	0.0115815
720.160	0.0110559
720.238	0.0108713
720.316	0.0107024
720.394	0.0106840
720.472	0.0104430
720.550	0.0105599
720.628	0.0105985
720.706	0.0107055
720.785	0.0108442
720.863	0.0110452
720.941	0.0112830
721.019	0.0117073
721.097	0.0118008
721.175	0.0118343
721.253	0.0121906
721.331	0.0123721
721.410	0.0128243
721.488	0.0130595
721.566	0.0135560
721.644	0.0138931
721.722	0.0141513
721.800	0.0145266
721.878	0.0149329
721.956	0.0152172
722.035	0.0155850
722.113	0.0156791
722.191	0.0159361
722.269	0.0161177
722.347	0.0162751
722.425	0.0165604
722.503	0.0167365
722.581	0.0167021
722.660	0.0167420
722.738	0.0167271
722.816	0.0167654
722.894	0.0165261
722.972	0.0165370
723.050	0.0163596
723.128	0.0164038
723.206	0.0163088
723.285	0.0160852
723.363	0.0160683
723.441	0.0160097
723.519	0.0157103
723.597	0.0153716
723.675	0.0153625
723.753	0.0150648
723.831	0.0148566
723.910	0.0145840
723.988	0.0141766
724.066	0.0138779
724.144	0.0136839
724.222	0.0131528
724.300	0.0130835
724.378	0.0127955
724.456	0.0124537
724.535	0.0120977
724.613	0.0121082
724.691	0.0118145
724.769	0.0118785
724.847	0.0115923
724.925	0.0116714
725.003	0.0115633
725.081	0.0116386
725.160	0.0116002
725.238	0.0116811
725.316	0.0116169
725.394	0.0117329
725.472	0.0117661
725.550	0.0119057
725.628	0.0121526
725.706	0.0122598
725.785	0.0122608
725.863	0.0124425
725.941	0.0127415
726.019	0.0129046
726.097	0.0129879
726.175	0.0133406
726.253	0.0134032
726.331	0.0137600
726.410	0.0140495
726.488	0.0141888
726.566	0.0144531
726.644	0.0146799
726.722	0.0148737
726.800	0.0150230
726.878	0.0152636
726.956	0.0155492
727.035	0.0157947
727.113	0.0157517
727.191	0.0158280
727.269	0.0158833
727.347	0.0159361
727.425	0.0158969
727.503	0.0158769
727.581	0.0158387
727.660	0.0157764
727.738	0.0158124
727.816	0.0159310
727.894	0.0158347
727.972	0.0159485
728.050	0.0160516
728.128	0.0160126
728.206	0.0160101
728.285	0.0160088
728.363	0.0157901
728.441	0.0158158
728.519	0.0157961
728.597	0.0156502
728.675	0.0155233
728.753	0.0154208
728.831	0.0150919
728.910	0.0150195
728.988	0.0149170
729.066	0.0145495
729.144	0.0144389
729.222	0.0141602
729.300	0.0141200
729.378	0.0138654
729.456	0.0136515
729.535	0.0135100
729.613	0.0134232
729.691	0.0131047
729.769	0.0128815
729.847	0.0126779
729.925	0.0124565
730.003	0.0123615
730.081	0.0122168
730.160	0.0119399
730.238	0.0118288
730.316	0.0118004
730.394	0.0117023
730.472	0.0115968
730.550	0.0117009
730.628	0.0116920
730.706	0.0115711
730.785	0.0116093
730.863	0.0117763
730.941	0.0118712
731.019	0.0118182
731.097	0.0118825
731.175	0.0120192
731.253	0.0122236
731.331	0.0122845
731.410	0.0124374
731.488	0.0126693
731.566	0.0129989
731.644	0.0130814
731.722	0.0132870
731.800	0.0135094
731.878	0.0138809
731.956	0.0141173
732.035	0.0144052
732.113	0.0146313
732.191	0.0150462
732.269	0.0154372
732.347	0.0157482
732.425	0.0158778
732.503	0.0159828
732.581	0.0162399
732.660	0.0162910
732.738	0.0162677
732.816	0.0162727
732.894	0.0161908
732.972	0.0164046
733.050	0.0164144
733.128	0.0164697
733.206	0.0164104
733.285	0.0162914
733.363	0.0163774
733.441	0.0161694
733.519	0.0160769
733.597	0.0159900
733.675	0.0157854
733.753	0.0156807
733.831	0.0156387
733.910	0.0155074
733.988	0.0153931
734.066	0.0151431
734.144	0.0150154
734.222	0.0148683
734.300	0.0147208
734.378	0.0146426
734.456	0.0142797
734.535	0.0140449
734.613	0.0140677
734.691	0.0137743
734.769	0.0137093
734.847	0.0135850
734.925	0.0132762
735.003	0.0130853
735.081	0.0129536
735.160	0.0128424
735.238	0.0126585
735.316	0.0125008
735.394	0.0125859
735.472	0.0125443
735.550	0.0124545
735.628	0.0124881
735.706	0.0125394
735.785	0.0125359
735.863	0.0125105
735.941	0.0125625
736.019	0.0126503
736.097	0.0125806
736.175	0.0125157
736.253	0.0126112
736.331	0.0126019
736.410	0.0124008
736.488	0.0124068
736.566	0.0127682
736.644	0.0128358
736.722	0.0127764
736.800	0.0127834
736.878	0.0128941
736.956	0.0130848
737.035	0.0132767
737.113	0.0133214
737.191	0.0134160
737.269	0.0136462
737.347	0.0137368
737.425	0.0137511
737.503	0.0140768
737.581	0.0143089
737.660	0.0142277
737.738	0.0144315
737.816	0.0144656
737.894	0.0146758
737.972	0.0147168
738.050	0.0149259
738.128	0.0148093
738.206	0.0149919
738.285	0.0149892
738.363	0.0151360
738.441	0.0151579
738.519	0.0151069
738.597	0.0151910
738.675	0.0153471
738.753	0.0154188
738.831	0.0153583
738.910	0.0153886
738.988	0.0152891
739.066	0.0153604
739.144	0.0154158
739.222	0.0153745
739.300	0.0153212
739.378	0.0152454
739.456	0.0152631
739.535	0.0151230
739.613	0.0151192
739.691	0.0150848
739.769	0.0148688
739.847	0.0148772
739.925	0.0148772
740.003	0.0147949
740.081	0.0147314
740.160	0.0146724
740.238	0.0145191
740.316	0.0144887
740.394	0.0143484
740.472	0.0142682
740.550	0.0142883
740.628	0.0142334
740.706	0.0140280
740.785	0.0139268
740.863	0.0138348
740.941	0.0137359
741.019	0.0136788
741.097	0.0136691
741.175	0.0133463
741.253	0.0132257
741.331	0.0132680
741.410	0.0131028
741.488	0.0129469
741.566	0.0130596
741.644	0.0128860
741.722	0.0128848
741.800	0.0128412
741.878	0.0126367
741.956	0.0127190
742.035	0.0126829
742.113	0.0128174
742.191	0.0128348
742.269	0.0126888
742.347	0.0127245
742.425	0.0126978
742.503	0.0128267
742.581	0.0128118
742.660	0.0127650
742.738	0.0128809
742.816	0.0128619
742.894	0.0130856
742.972	0.0130496
743.050	0.0130640
743.128	0.0129359
743.206	0.0131558
743.285	0.0131984
743.363	0.0131998
743.441	0.0131370
743.519	0.0134293
743.597	0.0132294
743.675	0.0134046
743.753	0.0135764
743.831	0.0137749
743.910	0.0138752
743.988	0.0139214
744.066	0.0138917
744.144	0.0141171
744.222	0.0143277
744.300	0.0144369
744.378	0.0144713
744.456	0.0145921
744.535	0.0148900
744.613	0.0149800
744.691	0.0150510
744.769	0.0151462
744.847	0.0151614
744.925	0.0152654
745.003	0.0155397
745.081	0.0156106
745.160	0.0154224
745.238	0.0156221
745.316	0.0155351
745.394	0.0156207
745.472	0.0155566
745.550	0.0153826
745.628	0.0153218
745.706	0.0152695
