05/03/2022	20:41:33	Ver.	4.1	UNKNOWN
Optical Delay	660.003261	Delta X		0.078125	Sweeps	1	Scan Rate	0/0
Coordinates	Axis 1	NaN	Axis 2	NaN	Axis 3	NaN	Axis 4	NaN	Axis 5	NaN	Axis 6	0.000000
TX Power	0.000000	RX Power	0.000000

660.003	0.0146571
660.081	0.0146396
660.160	0.0145264
660.238	0.0144790
660.316	0.0147182
660.394	0.0146635
660.472	0.0146725
660.550	0.0145691
660.628	0.0146841
660.706	0.0146452
660.785	0.0146371
660.863	0.0145602
660.941	0.0145625
661.019	0.0146677
661.097	0.0144881
661.175	0.0146233
661.253	0.0146525
661.331	0.0145135
661.410	0.0145104
661.488	0.0144091
661.566	0.0145408
661.644	0.0145419
661.722	0.0144070
661.800	0.0145889
661.878	0.0144477
661.956	0.0144644
662.035	0.0146519
662.113	0.0144828
662.191	0.0144616
662.269	0.0145737
662.347	0.0144576
662.425	0.0145039
662.503	0.0143488
662.581	0.0144036
662.660	0.0145008
662.738	0.0143771
662.816	0.0143435
662.894	0.0143964
662.972	0.0143676
663.050	0.0145750
663.128	0.0145367
663.206	0.0144576
663.285	0.0144707
663.363	0.0144371
663.441	0.0144337
663.519	0.0144621
663.597	0.0145165
663.675	0.0145571
663.753	0.0144690
663.831	0.0143803
663.910	0.0145660
663.988	0.0144239
664.066	0.0144444
664.144	0.0144569
664.222	0.0145162
664.300	0.0144155
664.378	0.0143302
664.456	0.0143992
664.535	0.0144938
664.613	0.0144798
664.691	0.0143103
664.769	0.0144646
664.847	0.0144639
664.925	0.0144083
665.003	0.0145606
665.081	0.0145494
665.160	0.0144969
665.238	0.0145479
665.316	0.0145103
665.394	0.0143482
665.472	0.0144357
665.550	0.0145128
665.628	0.0144521
665.706	0.0144675
665.785	0.0144855
665.863	0.0144604
665.941	0.0144212
666.019	0.0143476
666.097	0.0144048
666.175	0.0144562
666.253	0.0146242
666.331	0.0144302
666.410	0.0143799
666.488	0.0144038
666.566	0.0144795
666.644	0.0144643
666.722	0.0146286
666.800	0.0145358
666.878	0.0144745
666.956	0.0145403
667.035	0.0145692
667.113	0.0144494
667.191	0.0143216
667.269	0.0144979
667.347	0.0145190
667.425	0.0145190
667.503	0.0145956
667.581	0.0145301
667.660	0.0143971
667.738	0.0144528
667.816	0.0145663
667.894	0.0146471
667.972	0.0146556
668.050	0.0145371
668.128	0.0145115
668.206	0.0146037
668.285	0.0145618
668.363	0.0144730
668.441	0.0145245
668.519	0.0145497
668.597	0.0144239
668.675	0.0144353
668.753	0.0144757
668.831	0.0144280
668.910	0.0145763
668.988	0.0145949
669.066	0.0145341
669.144	0.0144746
669.222	0.0145071
669.300	0.0146196
669.378	0.0145496
669.456	0.0146436
669.535	0.0145817
669.613	0.0145276
669.691	0.0146351
669.769	0.0145943
669.847	0.0144781
669.925	0.0146156
670.003	0.0146708
670.081	0.0146777
670.160	0.0145632
670.238	0.0146578
670.316	0.0145376
670.394	0.0146770
670.472	0.0145623
670.550	0.0144717
670.628	0.0145030
670.706	0.0146968
670.785	0.0146693
670.863	0.0145024
670.941	0.0145824
671.019	0.0145771
671.097	0.0146344
671.175	0.0145894
671.253	0.0146281
671.331	0.0146882
671.410	0.0146996
671.488	0.0146135
671.566	0.0146879
671.644	0.0145784
671.722	0.0147220
671.800	0.0145837
671.878	0.0144242
671.956	0.0145026
672.035	0.0145880
672.113	0.0147207
672.191	0.0147002
672.269	0.0145519
672.347	0.0147392
672.425	0.0147550
672.503	0.0146210
672.581	0.0145982
672.660	0.0145304
672.738	0.0146597
672.816	0.0145921
672.894	0.0146667
672.972	0.0145441
673.050	0.0145798
673.128	0.0146893
673.206	0.0147337
673.285	0.0147028
673.363	0.0146695
673.441	0.0146641
673.519	0.0146629
673.597	0.0147562
673.675	0.0147285
673.753	0.0147040
673.831	0.0146392
673.910	0.0147372
673.988	0.0145655
674.066	0.0146937
674.144	0.0147560
674.222	0.0146066
674.300	0.0146455
674.378	0.0146707
674.456	0.0147231
674.535	0.0146364
674.613	0.0146029
674.691	0.0145969
674.769	0.0146124
674.847	0.0147858
674.925	0.0147513
675.003	0.0145948
675.081	0.0147324
675.160	0.0147113
675.238	0.0146107
675.316	0.0145187
675.394	0.0147134
675.472	0.0148221
675.550	0.0145464
675.628	0.0148082
675.706	0.0148836
675.785	0.0146577
675.863	0.0148331
675.941	0.0148263
676.019	0.0147634
676.097	0.0147285
676.175	0.0147250
676.253	0.0147711
676.331	0.0146236
676.410	0.0147215
676.488	0.0147592
676.566	0.0146767
676.644	0.0145761
676.722	0.0145909
676.800	0.0146154
676.878	0.0145373
676.956	0.0146490
677.035	0.0147136
677.113	0.0146124
677.191	0.0146814
677.269	0.0146338
677.347	0.0146154
677.425	0.0145888
677.503	0.0146452
677.581	0.0146004
677.660	0.0145629
677.738	0.0146004
677.816	0.0145493
677.894	0.0145566
677.972	0.0145971
678.050	0.0146630
678.128	0.0146319
678.206	0.0146966
678.285	0.0147004
678.363	0.0148157
678.441	0.0147739
678.519	0.0147119
678.597	0.0146026
678.675	0.0146706
678.753	0.0148769
678.831	0.0147953
678.910	0.0147555
678.988	0.0146972
679.066	0.0148171
679.144	0.0148328
679.222	0.0146895
679.300	0.0147672
679.378	0.0147667
679.456	0.0146889
679.535	0.0148110
679.613	0.0146982
679.691	0.0146546
679.769	0.0148084
679.847	0.0147337
679.925	0.0147073
680.003	0.0146895
680.081	0.0146869
680.160	0.0146400
680.238	0.0146607
680.316	0.0146297
680.394	0.0146666
680.472	0.0146658
680.550	0.0146107
680.628	0.0146944
680.706	0.0146478
680.785	0.0146864
680.863	0.0147457
680.941	0.0146833
681.019	0.0147404
681.097	0.0146519
681.175	0.0147551
681.253	0.0146915
681.331	0.0147661
681.410	0.0146223
681.488	0.0147568
681.566	0.0146624
681.644	0.0148586
681.722	0.0147121
681.800	0.0147370
681.878	0.0146447
681.956	0.0146793
682.035	0.0146803
682.113	0.0146730
682.191	0.0146837
682.269	0.0146613
682.347	0.0147330
682.425	0.0146584
682.503	0.0144884
682.581	0.0146599
682.660	0.0147305
682.738	0.0146587
682.816	0.0147345
682.894	0.0146912
682.972	0.0146272
683.050	0.0145708
683.128	0.0147035
683.206	0.0148300
683.285	0.0147994
683.363	0.0145796
683.441	0.0146291
683.519	0.0146709
683.597	0.0144936
683.675	0.0146988
683.753	0.0145861
683.831	0.0144550
683.910	0.0146159
683.988	0.0145086
684.066	0.0144595
684.144	0.0144193
684.222	0.0144447
684.300	0.0143686
684.378	0.0144402
684.456	0.0143709
684.535	0.0144865
684.613	0.0143422
684.691	0.0142446
684.769	0.0144261
684.847	0.0144592
684.925	0.0144203
685.003	0.0144186
685.081	0.0144120
685.160	0.0145303
685.238	0.0144651
685.316	0.0145409
685.394	0.0145707
685.472	0.0145451
685.550	0.0145042
685.628	0.0146510
685.706	0.0145093
685.785	0.0145767
685.863	0.0145557
685.941	0.0145401
686.019	0.0145816
686.097	0.0145954
686.175	0.0145897
686.253	0.0144347
686.331	0.0146455
686.410	0.0146003
686.488	0.0146742
686.566	0.0146770
686.644	0.0147493
686.722	0.0145805
686.800	0.0145750
686.878	0.0146104
686.956	0.0146575
687.035	0.0147051
687.113	0.0145863
687.191	0.0146647
687.269	0.0147293
687.347	0.0147249
687.425	0.0146101
687.503	0.0146022
687.581	0.0146471
687.660	0.0146115
687.738	0.0146758
687.816	0.0146281
687.894	0.0145134
687.972	0.0145707
688.050	0.0145990
688.128	0.0146140
688.206	0.0145618
688.285	0.0147910
688.363	0.0145276
688.441	0.0146359
688.519	0.0146160
688.597	0.0147269
688.675	0.0145057
688.753	0.0145166
688.831	0.0145865
688.910	0.0145225
688.988	0.0144666
689.066	0.0146219
689.144	0.0145638
689.222	0.0143353
689.300	0.0144292
689.378	0.0145145
689.456	0.0143402
689.535	0.0142793
689.613	0.0144244
689.691	0.0144147
689.769	0.0143567
689.847	0.0144437
689.925	0.0144193
690.003	0.0145946
690.081	0.0145695
690.160	0.0146206
690.238	0.0145716
690.316	0.0145927
690.394	0.0146866
690.472	0.0147672
690.550	0.0146092
690.628	0.0147067
690.706	0.0147272
690.785	0.0146985
690.863	0.0146613
690.941	0.0146664
691.019	0.0146829
691.097	0.0146152
691.175	0.0146513
691.253	0.0147028
691.331	0.0145270
691.410	0.0144565
691.488	0.0145841
691.566	0.0144504
691.644	0.0145252
691.722	0.0143731
691.800	0.0144460
691.878	0.0144646
691.956	0.0143716
692.035	0.0143980
692.113	0.0144618
692.191	0.0145244
692.269	0.0144903
692.347	0.0144234
692.425	0.0144621
692.503	0.0146278
692.581	0.0145492
692.660	0.0145560
692.738	0.0147064
692.816	0.0146970
692.894	0.0146066
692.972	0.0147007
693.050	0.0146682
693.128	0.0145373
693.206	0.0145196
693.285	0.0146501
693.363	0.0145601
693.441	0.0146101
693.519	0.0147945
693.597	0.0147904
693.675	0.0145956
693.753	0.0145630
693.831	0.0146175
693.910	0.0145956
693.988	0.0146118
694.066	0.0146681
694.144	0.0146340
694.222	0.0145540
694.300	0.0146129
694.378	0.0144776
694.456	0.0144852
694.535	0.0144793
694.613	0.0145350
694.691	0.0144679
694.769	0.0145101
694.847	0.0144633
694.925	0.0145145
695.003	0.0144422
695.081	0.0143404
695.160	0.0144730
695.238	0.0144193
695.316	0.0143190
695.394	0.0143623
695.472	0.0144565
695.550	0.0144986
695.628	0.0143333
695.706	0.0145235
695.785	0.0145342
695.863	0.0145575
695.941	0.0145519
696.019	0.0145359
696.097	0.0145403
696.175	0.0145650
696.253	0.0146517
696.331	0.0145897
696.410	0.0146761
696.488	0.0145388
696.566	0.0146617
696.644	0.0147112
696.722	0.0146133
696.800	0.0145320
696.878	0.0144828
696.956	0.0145172
697.035	0.0144772
697.113	0.0145718
697.191	0.0143723
697.269	0.0142986
697.347	0.0143811
697.425	0.0144698
697.503	0.0144395
697.581	0.0145303
697.660	0.0144532
697.738	0.0145459
697.816	0.0147248
697.894	0.0146530
697.972	0.0145710
698.050	0.0145394
698.128	0.0145650
698.206	0.0146774
698.285	0.0146056
698.363	0.0146647
698.441	0.0147192
698.519	0.0145942
698.597	0.0146478
698.675	0.0146805
698.753	0.0146012
698.831	0.0145541
698.910	0.0145860
698.988	0.0143208
699.066	0.0143695
699.144	0.0143681
699.222	0.0143356
699.300	0.0142577
699.378	0.0143915
699.456	0.0144087
699.535	0.0144153
699.613	0.0144165
699.691	0.0145061
699.769	0.0144541
699.847	0.0145974
699.925	0.0144911
700.003	0.0144702
700.081	0.0146100
700.160	0.0145222
700.238	0.0145695
700.316	0.0145679
700.394	0.0145164
700.472	0.0145664
700.550	0.0144207
700.628	0.0144834
700.706	0.0144375
700.785	0.0144498
700.863	0.0144966
700.941	0.0144028
701.019	0.0142818
701.097	0.0144828
701.175	0.0143455
701.253	0.0144080
701.331	0.0145337
701.410	0.0145819
701.488	0.0145638
701.566	0.0146239
701.644	0.0146702
701.722	0.0145676
701.800	0.0146898
701.878	0.0147187
701.956	0.0147574
702.035	0.0146868
702.113	0.0144981
702.191	0.0144886
702.269	0.0147372
702.347	0.0145801
702.425	0.0144514
702.503	0.0145813
702.581	0.0147809
702.660	0.0146805
702.738	0.0145194
702.816	0.0146799
702.894	0.0146584
702.972	0.0146705
703.050	0.0147133
703.128	0.0146443
703.206	0.0145892
703.285	0.0147069
703.363	0.0147693
703.441	0.0147147
703.519	0.0146983
703.597	0.0146134
703.675	0.0146620
703.753	0.0148177
703.831	0.0147602
703.910	0.0148462
703.988	0.0148532
704.066	0.0147489
704.144	0.0148238
704.222	0.0147158
704.300	0.0148791
704.378	0.0147782
704.456	0.0147401
704.535	0.0147883
704.613	0.0147176
704.691	0.0147588
704.769	0.0147713
704.847	0.0147426
704.925	0.0146918
705.003	0.0146948
705.081	0.0146851
705.160	0.0145763
705.238	0.0146866
705.316	0.0145345
705.394	0.0146130
705.472	0.0145337
705.550	0.0145953
705.628	0.0147221
705.706	0.0146268
705.785	0.0147324
705.863	0.0146893
705.941	0.0148165
706.019	0.0148406
706.097	0.0147585
706.175	0.0147924
706.253	0.0147880
706.331	0.0148364
706.410	0.0147266
706.488	0.0144993
706.566	0.0145535
706.644	0.0146609
706.722	0.0146951
706.800	0.0144491
706.878	0.0145342
706.956	0.0145329
707.035	0.0143632
707.113	0.0144196
707.191	0.0143283
707.269	0.0143686
707.347	0.0143755
707.425	0.0143546
707.503	0.0144267
707.581	0.0144510
707.660	0.0144888
707.738	0.0145329
707.816	0.0143880
707.894	0.0144879
707.972	0.0144733
708.050	0.0144810
708.128	0.0144115
708.206	0.0143821
708.285	0.0144435
708.363	0.0144317
708.441	0.0145123
708.519	0.0144479
708.597	0.0145927
708.675	0.0145274
708.753	0.0144267
708.831	0.0145374
708.910	0.0146095
708.988	0.0146540
709.066	0.0146825
709.144	0.0146695
709.222	0.0147301
709.300	0.0147359
709.378	0.0146790
709.456	0.0146059
709.535	0.0147428
709.613	0.0147634
709.691	0.0146368
709.769	0.0147121
709.847	0.0146661
709.925	0.0146279
710.003	0.0147218
710.081	0.0146544
710.160	0.0147343
710.238	0.0146676
710.316	0.0146496
710.394	0.0147680
710.472	0.0147155
710.550	0.0146475
710.628	0.0148318
710.706	0.0147723
710.785	0.0148513
710.863	0.0148907
710.941	0.0148222
711.019	0.0149438
711.097	0.0148263
711.175	0.0149001
711.253	0.0149087
711.331	0.0149534
711.410	0.0148186
711.488	0.0147623
711.566	0.0147422
711.644	0.0147767
711.722	0.0148293
711.800	0.0146687
711.878	0.0147768
711.956	0.0148299
712.035	0.0145877
712.113	0.0147949
712.191	0.0147381
712.269	0.0147534
712.347	0.0148911
712.425	0.0147836
712.503	0.0148097
712.581	0.0147939
712.660	0.0147608
712.738	0.0148822
712.816	0.0149424
712.894	0.0147498
712.972	0.0146839
713.050	0.0148307
713.128	0.0146055
713.206	0.0145273
713.285	0.0145791
713.363	0.0145695
713.441	0.0144139
713.519	0.0143495
713.597	0.0145361
713.675	0.0144396
713.753	0.0143357
713.831	0.0143808
713.910	0.0144924
713.988	0.0144680
714.066	0.0143589
714.144	0.0145269
714.222	0.0144878
714.300	0.0145522
714.378	0.0143564
714.456	0.0144453
714.535	0.0145555
714.613	0.0144836
714.691	0.0144823
714.769	0.0144043
714.847	0.0143910
714.925	0.0144682
715.003	0.0145557
715.081	0.0143666
715.160	0.0142464
715.238	0.0141518
715.316	0.0145063
715.394	0.0143282
715.472	0.0142954
715.550	0.0144434
715.628	0.0146774
715.706	0.0145253
715.785	0.0145715
715.863	0.0145124
715.941	0.0145063
716.019	0.0145103
716.097	0.0145483
716.175	0.0146963
716.253	0.0145912
716.331	0.0145644
716.410	0.0145509
716.488	0.0144992
716.566	0.0144672
716.644	0.0145551
716.722	0.0145110
716.800	0.0145428
716.878	0.0144411
716.956	0.0145573
717.035	0.0147031
717.113	0.0146278
717.191	0.0146619
717.269	0.0145633
717.347	0.0146880
717.425	0.0146143
717.503	0.0145605
717.581	0.0144415
717.660	0.0144927
717.738	0.0143948
717.816	0.0145324
717.894	0.0146270
717.972	0.0143984
718.050	0.0145206
718.128	0.0144852
718.206	0.0143624
718.285	0.0143803
718.363	0.0143161
718.441	0.0143845
718.519	0.0143375
718.597	0.0142243
718.675	0.0143069
718.753	0.0143480
718.831	0.0144016
718.910	0.0145456
718.988	0.0145473
719.066	0.0145506
719.144	0.0144723
719.222	0.0145862
719.300	0.0145386
719.378	0.0144269
719.456	0.0144919
719.535	0.0145990
719.613	0.0145168
719.691	0.0145061
719.769	0.0145196
719.847	0.0143587
719.925	0.0144275
720.003	0.0145058
720.081	0.0143462
720.160	0.0142960
720.238	0.0142926
720.316	0.0141768
720.394	0.0143382
720.472	0.0143398
720.550	0.0143328
720.628	0.0143087
720.706	0.0143610
720.785	0.0143521
720.863	0.0144372
720.941	0.0143706
721.019	0.0143325
721.097	0.0144368
721.175	0.0144038
721.253	0.0144861
721.331	0.0145512
721.410	0.0142271
721.488	0.0143943
721.566	0.0144745
721.644	0.0143705
721.722	0.0144794
721.800	0.0144367
721.878	0.0143517
721.956	0.0143963
722.035	0.0144305
722.113	0.0144928
722.191	0.0144891
722.269	0.0145710
722.347	0.0147077
722.425	0.0145370
722.503	0.0146974
722.581	0.0145250
722.660	0.0146313
722.738	0.0146878
722.816	0.0145831
722.894	0.0146245
722.972	0.0147054
723.050	0.0146912
723.128	0.0146310
723.206	0.0147028
723.285	0.0147045
723.363	0.0148650
723.441	0.0147076
723.519	0.0146575
723.597	0.0146712
723.675	0.0147594
723.753	0.0148927
723.831	0.0146682
723.910	0.0147176
723.988	0.0147816
724.066	0.0147084
724.144	0.0147475
724.222	0.0145993
724.300	0.0145813
724.378	0.0145684
724.456	0.0146159
724.535	0.0145612
724.613	0.0145231
724.691	0.0145409
724.769	0.0144420
724.847	0.0146236
724.925	0.0145351
725.003	0.0144955
725.081	0.0144916
725.160	0.0146713
725.238	0.0146308
725.316	0.0144376
725.394	0.0144632
725.472	0.0145933
725.550	0.0146011
725.628	0.0146537
725.706	0.0145759
725.785	0.0145018
725.863	0.0147060
725.941	0.0146391
726.019	0.0146437
726.097	0.0146749
726.175	0.0145973
726.253	0.0144535
726.331	0.0146280
726.410	0.0144327
726.488	0.0146328
726.566	0.0146487
726.644	0.0145914
726.722	0.0146140
726.800	0.0144138
726.878	0.0143696
726.956	0.0143988
727.035	0.0144217
727.113	0.0143221
727.191	0.0142510
727.269	0.0143883
727.347	0.0144097
727.425	0.0144555
727.503	0.0145450
727.581	0.0146208
727.660	0.0146777
727.738	0.0145394
727.816	0.0146317
727.894	0.0145309
727.972	0.0145658
728.050	0.0145811
728.128	0.0145403
728.206	0.0144444
728.285	0.0143492
728.363	0.0144244
728.441	0.0146141
728.519	0.0144070
728.597	0.0143941
728.675	0.0144273
728.753	0.0146429
728.831	0.0145390
728.910	0.0146271
728.988	0.0145156
729.066	0.0146431
729.144	0.0148191
729.222	0.0147472
729.300	0.0146375
729.378	0.0146410
729.456	0.0147301
729.535	0.0148045
729.613	0.0149651
729.691	0.0148596
729.769	0.0149117
729.847	0.0148904
729.925	0.0149588
730.003	0.0148092
730.081	0.0148402
730.160	0.0149178
730.238	0.0149204
730.316	0.0149194
730.394	0.0147853
730.472	0.0149792
730.550	0.0148942
730.628	0.0149226
730.706	0.0148830
730.785	0.0151092
730.863	0.0148772
730.941	0.0147652
731.019	0.0147666
731.097	0.0148338
731.175	0.0147024
731.253	0.0147227
731.331	0.0148127
731.410	0.0146513
731.488	0.0147390
731.566	0.0147280
731.644	0.0147455
731.722	0.0147792
731.800	0.0148258
731.878	0.0147118
731.956	0.0148113
732.035	0.0146482
732.113	0.0149309
732.191	0.0147120
732.269	0.0146073
732.347	0.0146210
732.425	0.0145743
732.503	0.0147295
732.581	0.0147475
732.660	0.0146305
732.738	0.0147308
732.816	0.0146149
732.894	0.0146841
732.972	0.0146516
733.050	0.0147093
733.128	0.0148535
733.206	0.0147533
733.285	0.0147129
733.363	0.0146220
733.441	0.0146729
733.519	0.0145937
733.597	0.0145565
733.675	0.0145658
733.753	0.0145044
733.831	0.0143320
733.910	0.0143578
733.988	0.0143922
734.066	0.0144388
734.144	0.0143631
734.222	0.0143918
734.300	0.0145641
734.378	0.0145272
734.456	0.0144615
734.535	0.0143628
734.613	0.0144969
734.691	0.0144704
734.769	0.0146627
734.847	0.0147195
734.925	0.0145196
735.003	0.0145316
735.081	0.0144965
735.160	0.0145609
735.238	0.0144283
735.316	0.0144103
735.394	0.0145157
735.472	0.0146452
735.550	0.0143405
735.628	0.0143913
735.706	0.0145366
735.785	0.0144593
735.863	0.0146816
735.941	0.0146307
736.019	0.0147870
736.097	0.0146655
736.175	0.0147033
736.253	0.0147359
736.331	0.0148418
736.410	0.0148843
736.488	0.0149168
736.566	0.0148798
736.644	0.0148109
736.722	0.0150165
736.800	0.0148727
736.878	0.0148335
736.956	0.0150291
737.035	0.0149491
737.113	0.0150280
737.191	0.0149287
737.269	0.0149432
737.347	0.0149055
737.425	0.0149805
737.503	0.0148669
737.581	0.0148057
737.660	0.0148515
737.738	0.0148158
737.816	0.0147414
737.894	0.0147129
737.972	0.0146374
738.050	0.0146136
738.128	0.0146040
738.206	0.0146205
738.285	0.0146494
738.363	0.0145718
738.441	0.0145937
738.519	0.0144942
738.597	0.0145177
738.675	0.0144281
738.753	0.0145368
738.831	0.0146316
738.910	0.0146046
738.988	0.0144753
739.066	0.0144518
739.144	0.0145969
739.222	0.0145074
739.300	0.0145020
739.378	0.0145256
739.456	0.0143615
739.535	0.0146127
739.613	0.0145985
739.691	0.0143555
739.769	0.0145081
739.847	0.0144371
739.925	0.0144023
740.003	0.0144791
740.081	0.0143418
740.160	0.0145267
740.238	0.0145431
740.316	0.0144807
740.394	0.0145833
740.472	0.0143748
740.550	0.0143378
740.628	0.0144582
740.706	0.0143552
740.785	0.0144170
740.863	0.0143289
740.941	0.0143826
741.019	0.0143539
741.097	0.0143388
741.175	0.0144089
741.253	0.0144379
741.331	0.0144263
741.410	0.0143878
741.488	0.0144821
741.566	0.0144549
741.644	0.0144123
741.722	0.0144276
741.800	0.0145059
741.878	0.0145690
741.956	0.0146178
742.035	0.0144455
742.113	0.0145406
742.191	0.0142917
742.269	0.0142369
742.347	0.0142832
742.425	0.0143457
742.503	0.0143857
742.581	0.0143252
742.660	0.0145488
742.738	0.0144288
742.816	0.0145068
742.894	0.0144601
742.972	0.0145937
743.050	0.0145363
743.128	0.0146699
743.206	0.0146188
743.285	0.0146814
743.363	0.0146015
743.441	0.0146987
743.519	0.0147601
743.597	0.0148978
743.675	0.0146538
743.753	0.0147073
743.831	0.0147376
743.910	0.0147489
743.988	0.0147998
744.066	0.0147873
744.144	0.0148963
744.222	0.0149629
744.300	0.0148465
744.378	0.0148203
744.456	0.0149212
744.535	0.0148765
744.613	0.0147104
744.691	0.0147198
744.769	0.0145573
744.847	0.0146799
744.925	0.0147043
745.003	0.0144306
745.081	0.0144818
745.160	0.0145720
745.238	0.0144842
745.316	0.0143739
745.394	0.0144741
745.472	0.0143449
745.550	0.0144547
745.628	0.0144562
745.706	0.0144997
