05/03/2022	20:44:18	Ver.	4.1	UNKNOWN
Optical Delay	660.003261	Delta X		0.078125	Sweeps	1	Scan Rate	0/0
Coordinates	Axis 1	NaN	Axis 2	NaN	Axis 3	NaN	Axis 4	NaN	Axis 5	NaN	Axis 6	0.000000
TX Power	0.000000	RX Power	0.000000

660.003	0.0140600
660.081	0.0138491
660.160	0.0138202
660.238	0.0139098
660.316	0.0140559
660.394	0.0139898
660.472	0.0139975
660.550	0.0140649
660.628	0.0140533
660.706	0.0138796
660.785	0.0140030
660.863	0.0140803
660.941	0.0141154
661.019	0.0141013
661.097	0.0140246
661.175	0.0139901
661.253	0.0139273
661.331	0.0140663
661.410	0.0139878
661.488	0.0140548
661.566	0.0141785
661.644	0.0140488
661.722	0.0139996
661.800	0.0141035
661.878	0.0140293
661.956	0.0139795
662.035	0.0142200
662.113	0.0141492
662.191	0.0140340
662.269	0.0140655
662.347	0.0140560
662.425	0.0141387
662.503	0.0140880
662.581	0.0141124
662.660	0.0140903
662.738	0.0141541
662.816	0.0140755
662.894	0.0140151
662.972	0.0139425
663.050	0.0141605
663.128	0.0140864
663.206	0.0141608
663.285	0.0142687
663.363	0.0141513
663.441	0.0139912
663.519	0.0141176
663.597	0.0141622
663.675	0.0141491
663.753	0.0141856
663.831	0.0141412
663.910	0.0140024
663.988	0.0138187
664.066	0.0141161
664.144	0.0141621
664.222	0.0141413
664.300	0.0140060
664.378	0.0141845
664.456	0.0140820
664.535	0.0140923
664.613	0.0141195
664.691	0.0140966
664.769	0.0141421
664.847	0.0141408
664.925	0.0140015
665.003	0.0139851
665.081	0.0140391
665.160	0.0140899
665.238	0.0141109
665.316	0.0140514
665.394	0.0140788
665.472	0.0140300
665.550	0.0141176
665.628	0.0141212
665.706	0.0140474
665.785	0.0139613
665.863	0.0140446
665.941	0.0139981
666.019	0.0139574
666.097	0.0140804
666.175	0.0141120
666.253	0.0140765
666.331	0.0140325
666.410	0.0139985
666.488	0.0141698
666.566	0.0139341
666.644	0.0140604
666.722	0.0140643
666.800	0.0141245
666.878	0.0141356
666.956	0.0142415
667.035	0.0141327
667.113	0.0140515
667.191	0.0141506
667.269	0.0140768
667.347	0.0141290
667.425	0.0140295
667.503	0.0141014
667.581	0.0141278
667.660	0.0140184
667.738	0.0140099
667.816	0.0139893
667.894	0.0140845
667.972	0.0140420
668.050	0.0139359
668.128	0.0139969
668.206	0.0140190
668.285	0.0140475
668.363	0.0141179
668.441	0.0140363
668.519	0.0141591
668.597	0.0141167
668.675	0.0139729
668.753	0.0139857
668.831	0.0139759
668.910	0.0140720
668.988	0.0139438
669.066	0.0139542
669.144	0.0140464
669.222	0.0140324
669.300	0.0141088
669.378	0.0140625
669.456	0.0141418
669.535	0.0141264
669.613	0.0141777
669.691	0.0140867
669.769	0.0139894
669.847	0.0141422
669.925	0.0139802
670.003	0.0139693
670.081	0.0140696
670.160	0.0141386
670.238	0.0139923
670.316	0.0140294
670.394	0.0139889
670.472	0.0140109
670.550	0.0140652
670.628	0.0141259
670.706	0.0139709
670.785	0.0139423
670.863	0.0141266
670.941	0.0140665
671.019	0.0138982
671.097	0.0139356
671.175	0.0140857
671.253	0.0140525
671.331	0.0139957
671.410	0.0140826
671.488	0.0140485
671.566	0.0140250
671.644	0.0139996
671.722	0.0141109
671.800	0.0141818
671.878	0.0140916
671.956	0.0140437
672.035	0.0140974
672.113	0.0141098
672.191	0.0141234
672.269	0.0139779
672.347	0.0139977
672.425	0.0141201
672.503	0.0138817
672.581	0.0140166
672.660	0.0140247
672.738	0.0140611
672.816	0.0139886
672.894	0.0138835
672.972	0.0139261
673.050	0.0140127
673.128	0.0138753
673.206	0.0140287
673.285	0.0139614
673.363	0.0139648
673.441	0.0137822
673.519	0.0137485
673.597	0.0139269
673.675	0.0139104
673.753	0.0140823
673.831	0.0139696
673.910	0.0140233
673.988	0.0138435
674.066	0.0139046
674.144	0.0139471
674.222	0.0140309
674.300	0.0139735
674.378	0.0139105
674.456	0.0139568
674.535	0.0142138
674.613	0.0139453
674.691	0.0138342
674.769	0.0141190
674.847	0.0139519
674.925	0.0139620
675.003	0.0139894
675.081	0.0140778
675.160	0.0140593
675.238	0.0141792
675.316	0.0140385
675.394	0.0139932
675.472	0.0140913
675.550	0.0141155
675.628	0.0140777
675.706	0.0140438
675.785	0.0140350
675.863	0.0140100
675.941	0.0139058
676.019	0.0139996
676.097	0.0140809
676.175	0.0140028
676.253	0.0138376
676.331	0.0141463
676.410	0.0140107
676.488	0.0139985
676.566	0.0138754
676.644	0.0138525
676.722	0.0140485
676.800	0.0140373
676.878	0.0139967
676.956	0.0139788
677.035	0.0139339
677.113	0.0139299
677.191	0.0140457
677.269	0.0139745
677.347	0.0139705
677.425	0.0140079
677.503	0.0139702
677.581	0.0138828
677.660	0.0140044
677.738	0.0139887
677.816	0.0140486
677.894	0.0140886
677.972	0.0138559
678.050	0.0141261
678.128	0.0139969
678.206	0.0140909
678.285	0.0140128
678.363	0.0139040
678.441	0.0141004
678.519	0.0141634
678.597	0.0139940
678.675	0.0139348
678.753	0.0140708
678.831	0.0140247
678.910	0.0140085
678.988	0.0139024
679.066	0.0141066
679.144	0.0140264
679.222	0.0139701
679.300	0.0140575
679.378	0.0141148
679.456	0.0141219
679.535	0.0140892
679.613	0.0140653
679.691	0.0141780
679.769	0.0140250
679.847	0.0140460
679.925	0.0140279
680.003	0.0140089
680.081	0.0140562
680.160	0.0139191
680.238	0.0140568
680.316	0.0141039
680.394	0.0139803
680.472	0.0140116
680.550	0.0140887
680.628	0.0140398
680.706	0.0140186
680.785	0.0140538
680.863	0.0139651
680.941	0.0137909
681.019	0.0140032
681.097	0.0140665
681.175	0.0141451
681.253	0.0140221
681.331	0.0140189
681.410	0.0140933
681.488	0.0139426
681.566	0.0141071
681.644	0.0139703
681.722	0.0139556
681.800	0.0139462
681.878	0.0140382
681.956	0.0141209
682.035	0.0140682
682.113	0.0139848
682.191	0.0140459
682.269	0.0140519
682.347	0.0141154
682.425	0.0141353
682.503	0.0139510
682.581	0.0140702
682.660	0.0141379
682.738	0.0141403
682.816	0.0140714
682.894	0.0141034
682.972	0.0139079
683.050	0.0140582
683.128	0.0140807
683.206	0.0142328
683.285	0.0141840
683.363	0.0140604
683.441	0.0140670
683.519	0.0141658
683.597	0.0141663
683.675	0.0141333
683.753	0.0140673
683.831	0.0142109
683.910	0.0141575
683.988	0.0140614
684.066	0.0142548
684.144	0.0140705
684.222	0.0141849
684.300	0.0141566
684.378	0.0140207
684.456	0.0140292
684.535	0.0140580
684.613	0.0139244
684.691	0.0140437
684.769	0.0140633
684.847	0.0140905
684.925	0.0140849
685.003	0.0140553
685.081	0.0139439
685.160	0.0139613
685.238	0.0140361
685.316	0.0141208
685.394	0.0140248
685.472	0.0140449
685.550	0.0140662
685.628	0.0138780
685.706	0.0140635
685.785	0.0140454
685.863	0.0140005
685.941	0.0139645
686.019	0.0139998
686.097	0.0138683
686.175	0.0139134
686.253	0.0140062
686.331	0.0139843
686.410	0.0140923
686.488	0.0139552
686.566	0.0140056
686.644	0.0140598
686.722	0.0140197
686.800	0.0140401
686.878	0.0141658
686.956	0.0140311
687.035	0.0143150
687.113	0.0141749
687.191	0.0141297
687.269	0.0141741
687.347	0.0142157
687.425	0.0141434
687.503	0.0141441
687.581	0.0139542
687.660	0.0141479
687.738	0.0139994
687.816	0.0141341
687.894	0.0139625
687.972	0.0139853
688.050	0.0140003
688.128	0.0140929
688.206	0.0140604
688.285	0.0139843
688.363	0.0139901
688.441	0.0140002
688.519	0.0140525
688.597	0.0140891
688.675	0.0140928
688.753	0.0140357
688.831	0.0140480
688.910	0.0141650
688.988	0.0142390
689.066	0.0143285
689.144	0.0140886
689.222	0.0141927
689.300	0.0142138
689.378	0.0140704
689.456	0.0141034
689.535	0.0140126
689.613	0.0140852
689.691	0.0141329
689.769	0.0141026
689.847	0.0140588
689.925	0.0141137
690.003	0.0139473
690.081	0.0140327
690.160	0.0140366
690.238	0.0139651
690.316	0.0141157
690.394	0.0141417
690.472	0.0140867
690.550	0.0140070
690.628	0.0141062
690.706	0.0140134
690.785	0.0140958
690.863	0.0140141
690.941	0.0139741
691.019	0.0139466
691.097	0.0139709
691.175	0.0140388
691.253	0.0138977
691.331	0.0140513
691.410	0.0140124
691.488	0.0139741
691.566	0.0138910
691.644	0.0138708
691.722	0.0139540
691.800	0.0138618
691.878	0.0139385
691.956	0.0140420
692.035	0.0138436
692.113	0.0139997
692.191	0.0140710
692.269	0.0140521
692.347	0.0140453
692.425	0.0140962
692.503	0.0140215
692.581	0.0140674
692.660	0.0141296
692.738	0.0140519
692.816	0.0140833
692.894	0.0141693
692.972	0.0142188
693.050	0.0141272
693.128	0.0140997
693.206	0.0140508
693.285	0.0140638
693.363	0.0140005
693.441	0.0139119
693.519	0.0139870
693.597	0.0139227
693.675	0.0138821
693.753	0.0138107
693.831	0.0137683
693.910	0.0138209
693.988	0.0139374
694.066	0.0136497
694.144	0.0139394
694.222	0.0141070
694.300	0.0141432
694.378	0.0138859
694.456	0.0139845
694.535	0.0140945
694.613	0.0139075
694.691	0.0141418
694.769	0.0141866
694.847	0.0141400
694.925	0.0141022
695.003	0.0140551
695.081	0.0138846
695.160	0.0139595
695.238	0.0139795
695.316	0.0139645
695.394	0.0138504
695.472	0.0138788
695.550	0.0138737
695.628	0.0139197
695.706	0.0138499
695.785	0.0138223
695.863	0.0137941
695.941	0.0137873
696.019	0.0138214
696.097	0.0137475
696.175	0.0137454
696.253	0.0139431
696.331	0.0139214
696.410	0.0138559
696.488	0.0137992
696.566	0.0138253
696.644	0.0139506
696.722	0.0137814
696.800	0.0138033
696.878	0.0139273
696.956	0.0138985
697.035	0.0138373
697.113	0.0139600
697.191	0.0137488
697.269	0.0138607
697.347	0.0139375
697.425	0.0139192
697.503	0.0140132
697.581	0.0139546
697.660	0.0140260
697.738	0.0139364
697.816	0.0139489
697.894	0.0139425
697.972	0.0139569
698.050	0.0139326
698.128	0.0140069
698.206	0.0140524
698.285	0.0140773
698.363	0.0140094
698.441	0.0140100
698.519	0.0140715
698.597	0.0139870
698.675	0.0141953
698.753	0.0140576
698.831	0.0140987
698.910	0.0141301
698.988	0.0142393
699.066	0.0141560
699.144	0.0141384
699.222	0.0141058
699.300	0.0140949
699.378	0.0142060
699.456	0.0142933
699.535	0.0140591
699.613	0.0140651
699.691	0.0140501
699.769	0.0141360
699.847	0.0141757
699.925	0.0141240
700.003	0.0139946
700.081	0.0139835
700.160	0.0140781
700.238	0.0141366
700.316	0.0142359
700.394	0.0142873
700.472	0.0142192
700.550	0.0141032
700.628	0.0141747
700.706	0.0141657
700.785	0.0142197
700.863	0.0142593
700.941	0.0142235
701.019	0.0142692
701.097	0.0142202
701.175	0.0141745
701.253	0.0142307
701.331	0.0142442
701.410	0.0143253
701.488	0.0140835
701.566	0.0139918
701.644	0.0141020
701.722	0.0140698
701.800	0.0140073
701.878	0.0138664
701.956	0.0141161
702.035	0.0140459
702.113	0.0139691
702.191	0.0140363
702.269	0.0141296
702.347	0.0140880
702.425	0.0141356
702.503	0.0140539
702.581	0.0141370
702.660	0.0140659
702.738	0.0141547
702.816	0.0140664
702.894	0.0142269
702.972	0.0140083
703.050	0.0140299
703.128	0.0140449
703.206	0.0140681
703.285	0.0140567
703.363	0.0138821
703.441	0.0137834
703.519	0.0138335
703.597	0.0137019
703.675	0.0138259
703.753	0.0139601
703.831	0.0139938
703.910	0.0137604
703.988	0.0138622
704.066	0.0138236
704.144	0.0138960
704.222	0.0139745
704.300	0.0140440
704.378	0.0140917
704.456	0.0140501
704.535	0.0138671
704.613	0.0139091
704.691	0.0139386
704.769	0.0140046
704.847	0.0140190
704.925	0.0139282
705.003	0.0139748
705.081	0.0139743
705.160	0.0140984
705.238	0.0139915
705.316	0.0138705
705.394	0.0139377
705.472	0.0139260
705.550	0.0139445
705.628	0.0139586
705.706	0.0140078
705.785	0.0139667
705.863	0.0141225
705.941	0.0140302
706.019	0.0140831
706.097	0.0140863
706.175	0.0140679
706.253	0.0141342
706.331	0.0141097
706.410	0.0140258
706.488	0.0140397
706.566	0.0139999
706.644	0.0140973
706.722	0.0140427
706.800	0.0141354
706.878	0.0140649
706.956	0.0140502
707.035	0.0139260
707.113	0.0138911
707.191	0.0140961
707.269	0.0140435
707.347	0.0141309
707.425	0.0140094
707.503	0.0141058
707.581	0.0139738
707.660	0.0140176
707.738	0.0141011
707.816	0.0140958
707.894	0.0141798
707.972	0.0141338
708.050	0.0140688
708.128	0.0140121
708.206	0.0140218
708.285	0.0140559
708.363	0.0140500
708.441	0.0140681
708.519	0.0141162
708.597	0.0141124
708.675	0.0139729
708.753	0.0140290
708.831	0.0140333
708.910	0.0141156
708.988	0.0139781
709.066	0.0140826
709.144	0.0140099
709.222	0.0141108
709.300	0.0141757
709.378	0.0140833
709.456	0.0142055
709.535	0.0140552
709.613	0.0139710
709.691	0.0140279
709.769	0.0140624
709.847	0.0139288
709.925	0.0139816
710.003	0.0140271
710.081	0.0138946
710.160	0.0138821
710.238	0.0139414
710.316	0.0139445
710.394	0.0138940
710.472	0.0138815
710.550	0.0138641
710.628	0.0139302
710.706	0.0138299
710.785	0.0139404
710.863	0.0138334
710.941	0.0137908
711.019	0.0139967
711.097	0.0139916
711.175	0.0139577
711.253	0.0140205
711.331	0.0139475
711.410	0.0140199
711.488	0.0139778
711.566	0.0139298
711.644	0.0139922
711.722	0.0139670
711.800	0.0139774
711.878	0.0139787
711.956	0.0140050
712.035	0.0139558
712.113	0.0139382
712.191	0.0138226
712.269	0.0140253
712.347	0.0139559
712.425	0.0139450
712.503	0.0141353
712.581	0.0141080
712.660	0.0140569
712.738	0.0140369
712.816	0.0141814
712.894	0.0141164
712.972	0.0141489
713.050	0.0140089
713.128	0.0140894
713.206	0.0140723
713.285	0.0141042
713.363	0.0139715
713.441	0.0141901
713.519	0.0140614
713.597	0.0141016
713.675	0.0142211
713.753	0.0140350
713.831	0.0141451
713.910	0.0140125
713.988	0.0140249
714.066	0.0141140
714.144	0.0140948
714.222	0.0140338
714.300	0.0141424
714.378	0.0140744
714.456	0.0139051
714.535	0.0140756
714.613	0.0139478
714.691	0.0138795
714.769	0.0139826
714.847	0.0140032
714.925	0.0139609
715.003	0.0137852
715.081	0.0139069
715.160	0.0138638
715.238	0.0138466
715.316	0.0139643
715.394	0.0140198
715.472	0.0138889
715.550	0.0139378
715.628	0.0139664
715.706	0.0138798
715.785	0.0138913
715.863	0.0139934
715.941	0.0139049
716.019	0.0140667
716.097	0.0140437
716.175	0.0140232
716.253	0.0140960
716.331	0.0139839
716.410	0.0141033
716.488	0.0140411
716.566	0.0140382
716.644	0.0139488
716.722	0.0137502
716.800	0.0140607
716.878	0.0140105
716.956	0.0137872
717.035	0.0138523
717.113	0.0138290
717.191	0.0140073
717.269	0.0139400
717.347	0.0139789
717.425	0.0139189
717.503	0.0139112
717.581	0.0140583
717.660	0.0140752
717.738	0.0140775
717.816	0.0141132
717.894	0.0139684
717.972	0.0141124
718.050	0.0140916
718.128	0.0140629
718.206	0.0140092
718.285	0.0140287
718.363	0.0138609
718.441	0.0137733
718.519	0.0140395
718.597	0.0139213
718.675	0.0139930
718.753	0.0140321
718.831	0.0140534
718.910	0.0141282
718.988	0.0139110
719.066	0.0141502
719.144	0.0141768
719.222	0.0139730
719.300	0.0141373
719.378	0.0142490
719.456	0.0141288
719.535	0.0143646
719.613	0.0142905
719.691	0.0141556
719.769	0.0141793
719.847	0.0141247
719.925	0.0142107
720.003	0.0142616
720.081	0.0142333
720.160	0.0141069
720.238	0.0143370
720.316	0.0142457
720.394	0.0141772
720.472	0.0142693
720.550	0.0141539
720.628	0.0142872
720.706	0.0141744
720.785	0.0142937
720.863	0.0141509
720.941	0.0141856
721.019	0.0142358
721.097	0.0141213
721.175	0.0141353
721.253	0.0140862
721.331	0.0141535
721.410	0.0140286
721.488	0.0141176
721.566	0.0140869
721.644	0.0141550
721.722	0.0142007
721.800	0.0139828
721.878	0.0139530
721.956	0.0141275
722.035	0.0140567
722.113	0.0141337
722.191	0.0141231
722.269	0.0141155
722.347	0.0141124
722.425	0.0141035
722.503	0.0141285
722.581	0.0141048
722.660	0.0141847
722.738	0.0141438
722.816	0.0141348
722.894	0.0140032
722.972	0.0141696
723.050	0.0141344
723.128	0.0141151
723.206	0.0141386
723.285	0.0141332
723.363	0.0139838
723.441	0.0139753
723.519	0.0139731
723.597	0.0139760
723.675	0.0140765
723.753	0.0140907
723.831	0.0140498
723.910	0.0138693
723.988	0.0140532
724.066	0.0140520
724.144	0.0139843
724.222	0.0140508
724.300	0.0140297
724.378	0.0141006
724.456	0.0141003
724.535	0.0140959
724.613	0.0140557
724.691	0.0141396
724.769	0.0140495
724.847	0.0140359
724.925	0.0141290
725.003	0.0140340
725.081	0.0139911
725.160	0.0139729
725.238	0.0138685
725.316	0.0139045
725.394	0.0140121
725.472	0.0140459
725.550	0.0139931
725.628	0.0139967
725.706	0.0139318
725.785	0.0139369
725.863	0.0140034
725.941	0.0142049
726.019	0.0141282
726.097	0.0141057
726.175	0.0140554
726.253	0.0140163
726.331	0.0141132
726.410	0.0140690
726.488	0.0141326
726.566	0.0140154
726.644	0.0141196
726.722	0.0141805
726.800	0.0142522
726.878	0.0142471
726.956	0.0141782
727.035	0.0140232
727.113	0.0141921
727.191	0.0142862
727.269	0.0142367
727.347	0.0143408
727.425	0.0140133
727.503	0.0142249
727.581	0.0142086
727.660	0.0140930
727.738	0.0142052
727.816	0.0141031
727.894	0.0140485
727.972	0.0140614
728.050	0.0138557
728.128	0.0139487
728.206	0.0141084
728.285	0.0141594
728.363	0.0141245
728.441	0.0139917
728.519	0.0138696
728.597	0.0139011
728.675	0.0139468
728.753	0.0140393
728.831	0.0141022
728.910	0.0139694
728.988	0.0141450
729.066	0.0139887
729.144	0.0140179
729.222	0.0138844
729.300	0.0139761
729.378	0.0140137
729.456	0.0140457
729.535	0.0140323
729.613	0.0140919
729.691	0.0139713
729.769	0.0139040
729.847	0.0139222
729.925	0.0141168
730.003	0.0138218
730.081	0.0140305
730.160	0.0139565
730.238	0.0138973
730.316	0.0138451
730.394	0.0139099
730.472	0.0138685
730.550	0.0139123
730.628	0.0137257
730.706	0.0137870
730.785	0.0139251
730.863	0.0138109
730.941	0.0138662
731.019	0.0138441
731.097	0.0137470
731.175	0.0138226
731.253	0.0137389
731.331	0.0139059
731.410	0.0139413
731.488	0.0139473
731.566	0.0137818
731.644	0.0137744
731.722	0.0138763
731.800	0.0137819
731.878	0.0137673
731.956	0.0136716
732.035	0.0136579
732.113	0.0138815
732.191	0.0138421
732.269	0.0138145
732.347	0.0138290
732.425	0.0138737
732.503	0.0138946
732.581	0.0139022
732.660	0.0139998
732.738	0.0137417
732.816	0.0139507
732.894	0.0141012
732.972	0.0138444
733.050	0.0139803
733.128	0.0138406
733.206	0.0139453
733.285	0.0139259
733.363	0.0139947
733.441	0.0141109
733.519	0.0141250
733.597	0.0141984
733.675	0.0140289
733.753	0.0140804
733.831	0.0141637
733.910	0.0142100
733.988	0.0141077
734.066	0.0142713
734.144	0.0141614
734.222	0.0141784
734.300	0.0142542
734.378	0.0142247
734.456	0.0141272
734.535	0.0142680
734.613	0.0142603
734.691	0.0142288
734.769	0.0141930
734.847	0.0141176
734.925	0.0140906
735.003	0.0140691
735.081	0.0140937
735.160	0.0140765
735.238	0.0141140
735.316	0.0139995
735.394	0.0140027
735.472	0.0140801
735.550	0.0140873
735.628	0.0141151
735.706	0.0139749
735.785	0.0139867
735.863	0.0139879
735.941	0.0141901
736.019	0.0141010
736.097	0.0140158
736.175	0.0141920
736.253	0.0140925
736.331	0.0139891
736.410	0.0140079
736.488	0.0141511
736.566	0.0140322
736.644	0.0139417
736.722	0.0139061
736.800	0.0140180
736.878	0.0139474
736.956	0.0138886
737.035	0.0139844
737.113	0.0140761
737.191	0.0140201
737.269	0.0141429
737.347	0.0140327
737.425	0.0139042
737.503	0.0139834
737.581	0.0139566
737.660	0.0140364
737.738	0.0140412
737.816	0.0140413
737.894	0.0139887
737.972	0.0139677
738.050	0.0140332
738.128	0.0140443
738.206	0.0137814
738.285	0.0138195
738.363	0.0139918
738.441	0.0139970
738.519	0.0140672
738.597	0.0140791
738.675	0.0139194
738.753	0.0140460
738.831	0.0140471
738.910	0.0140425
738.988	0.0139147
739.066	0.0140092
739.144	0.0140228
739.222	0.0138852
739.300	0.0138860
739.378	0.0140639
739.456	0.0140451
739.535	0.0139711
739.613	0.0138574
739.691	0.0139530
739.769	0.0140408
739.847	0.0140075
739.925	0.0140735
740.003	0.0140952
740.081	0.0139701
740.160	0.0140138
740.238	0.0142680
740.316	0.0141804
740.394	0.0140774
740.472	0.0141113
740.550	0.0141439
740.628	0.0142142
740.706	0.0143216
740.785	0.0141909
740.863	0.0143662
740.941	0.0142717
741.019	0.0142925
741.097	0.0142036
741.175	0.0143418
741.253	0.0143739
741.331	0.0143588
741.410	0.0143462
741.488	0.0143203
741.566	0.0142201
741.644	0.0142493
741.722	0.0143355
741.800	0.0141743
741.878	0.0142123
741.956	0.0142484
742.035	0.0141668
742.113	0.0140803
742.191	0.0141756
742.269	0.0141847
742.347	0.0141473
742.425	0.0141475
742.503	0.0139976
742.581	0.0142667
742.660	0.0141725
742.738	0.0142268
742.816	0.0140354
742.894	0.0140382
742.972	0.0141831
743.050	0.0140327
743.128	0.0141255
743.206	0.0141840
743.285	0.0140720
743.363	0.0140443
743.441	0.0140076
743.519	0.0140050
743.597	0.0140135
743.675	0.0141901
743.753	0.0143187
743.831	0.0140878
743.910	0.0140969
743.988	0.0140684
744.066	0.0142307
744.144	0.0141119
744.222	0.0141026
744.300	0.0140942
744.378	0.0141291
744.456	0.0141640
744.535	0.0141268
744.613	0.0139675
744.691	0.0142141
744.769	0.0141437
744.847	0.0139503
744.925	0.0140745
745.003	0.0140374
745.081	0.0140330
745.160	0.0141272
745.238	0.0140323
745.316	0.0140920
745.394	0.0140516
745.472	0.0139365
745.550	0.0140742
745.628	0.0140836
745.706	0.0140859
