05/03/2022	20:45:18	Ver.	4.1	UNKNOWN
Optical Delay	660.003261	Delta X		0.078125	Sweeps	1	Scan Rate	0/0
Coordinates	Axis 1	NaN	Axis 2	NaN	Axis 3	NaN	Axis 4	NaN	Axis 5	NaN	Axis 6	0.000000
TX Power	0.000000	RX Power	0.000000

660.003	0.0146082
660.081	0.0147441
660.160	0.0147649
660.238	0.0147298
660.316	0.0146743
660.394	0.0146458
660.472	0.0145473
660.550	0.0146175
660.628	0.0145536
660.706	0.0145659
660.785	0.0146672
660.863	0.0144756
660.941	0.0144164
661.019	0.0146149
661.097	0.0146966
661.175	0.0145891
661.253	0.0144288
661.331	0.0146500
661.410	0.0145952
661.488	0.0147156
661.566	0.0146722
661.644	0.0145954
661.722	0.0146723
661.800	0.0145100
661.878	0.0146989
661.956	0.0146495
662.035	0.0147054
662.113	0.0146172
662.191	0.0145411
662.269	0.0146397
662.347	0.0145473
662.425	0.0146626
662.503	0.0147457
662.581	0.0146317
662.660	0.0145751
662.738	0.0146312
662.816	0.0146140
662.894	0.0146741
662.972	0.0146878
663.050	0.0145982
663.128	0.0146351
663.206	0.0147563
663.285	0.0146019
663.363	0.0146687
663.441	0.0146278
663.519	0.0145274
663.597	0.0145746
663.675	0.0146447
663.753	0.0145983
663.831	0.0146455
663.910	0.0145811
663.988	0.0146474
664.066	0.0145058
664.144	0.0146094
664.222	0.0146863
664.300	0.0145061
664.378	0.0146570
664.456	0.0146355
664.535	0.0145486
664.613	0.0146149
664.691	0.0145991
664.769	0.0147803
664.847	0.0146960
664.925	0.0147394
665.003	0.0145930
665.081	0.0146684
665.160	0.0146852
665.238	0.0146806
665.316	0.0146158
665.394	0.0146407
665.472	0.0147118
665.550	0.0147883
665.628	0.0147762
665.706	0.0145891
665.785	0.0146806
665.863	0.0147742
665.941	0.0146422
666.019	0.0146144
666.097	0.0146552
666.175	0.0147182
666.253	0.0146007
666.331	0.0147319
666.410	0.0145795
666.488	0.0147003
666.566	0.0147637
666.644	0.0146819
666.722	0.0146899
666.800	0.0146531
666.878	0.0146967
666.956	0.0146248
667.035	0.0147025
667.113	0.0147345
667.191	0.0147742
667.269	0.0147325
667.347	0.0145857
667.425	0.0146985
667.503	0.0147429
667.581	0.0147910
667.660	0.0147683
667.738	0.0146839
667.816	0.0146935
667.894	0.0148663
667.972	0.0146096
668.050	0.0146172
668.128	0.0146726
668.206	0.0146559
668.285	0.0146972
668.363	0.0147337
668.441	0.0148151
668.519	0.0147213
668.597	0.0147517
668.675	0.0146494
668.753	0.0146513
668.831	0.0147806
668.910	0.0147261
668.988	0.0146747
669.066	0.0149468
669.144	0.0147736
669.222	0.0146554
669.300	0.0147001
669.378	0.0147067
669.456	0.0146907
669.535	0.0147536
669.613	0.0147038
669.691	0.0147659
669.769	0.0148191
669.847	0.0146584
669.925	0.0148039
670.003	0.0146804
670.081	0.0145817
670.160	0.0146975
670.238	0.0146904
670.316	0.0147846
670.394	0.0148115
670.472	0.0146654
670.550	0.0146139
670.628	0.0146081
670.706	0.0147748
670.785	0.0147861
670.863	0.0146760
670.941	0.0147236
671.019	0.0148896
671.097	0.0147418
671.175	0.0145535
671.253	0.0148149
671.331	0.0147020
671.410	0.0146434
671.488	0.0147294
671.566	0.0148925
671.644	0.0146978
671.722	0.0146596
671.800	0.0145908
671.878	0.0147410
671.956	0.0147607
672.035	0.0146581
672.113	0.0147375
672.191	0.0147939
672.269	0.0146497
672.347	0.0146952
672.425	0.0147350
672.503	0.0146558
672.581	0.0146670
672.660	0.0147242
672.738	0.0146283
672.816	0.0146597
672.894	0.0146429
672.972	0.0147005
673.050	0.0146835
673.128	0.0147904
673.206	0.0146282
673.285	0.0147514
673.363	0.0146788
673.441	0.0147356
673.519	0.0147318
673.597	0.0147572
673.675	0.0147626
673.753	0.0147285
673.831	0.0146449
673.910	0.0147104
673.988	0.0146863
674.066	0.0146347
674.144	0.0147561
674.222	0.0146784
674.300	0.0146243
674.378	0.0148466
674.456	0.0147946
674.535	0.0147168
674.613	0.0147767
674.691	0.0146913
674.769	0.0148003
674.847	0.0147345
674.925	0.0146706
675.003	0.0146928
675.081	0.0145500
675.160	0.0146313
675.238	0.0145612
675.316	0.0145938
675.394	0.0146156
675.472	0.0146181
675.550	0.0147277
675.628	0.0146370
675.706	0.0146972
675.785	0.0146289
675.863	0.0145865
675.941	0.0145892
676.019	0.0144855
676.097	0.0144653
676.175	0.0146732
676.253	0.0146523
676.331	0.0145532
676.410	0.0146376
676.488	0.0146017
676.566	0.0147218
676.644	0.0148006
676.722	0.0147313
676.800	0.0146427
676.878	0.0146783
676.956	0.0146111
677.035	0.0145570
677.113	0.0145676
677.191	0.0146979
677.269	0.0147552
677.347	0.0146313
677.425	0.0147209
677.503	0.0147996
677.581	0.0146249
677.660	0.0146066
677.738	0.0146563
677.816	0.0146893
677.894	0.0145973
677.972	0.0145692
678.050	0.0146358
678.128	0.0147093
678.206	0.0145908
678.285	0.0147202
678.363	0.0145241
678.441	0.0145494
678.519	0.0146705
678.597	0.0146275
678.675	0.0146937
678.753	0.0146899
678.831	0.0147229
678.910	0.0147696
678.988	0.0145912
679.066	0.0147045
679.144	0.0146188
679.222	0.0145818
679.300	0.0144769
679.378	0.0145493
679.456	0.0145113
679.535	0.0144699
679.613	0.0146105
679.691	0.0146653
679.769	0.0144939
679.847	0.0145414
679.925	0.0143900
680.003	0.0145206
680.081	0.0145548
680.160	0.0146045
680.238	0.0145212
680.316	0.0144947
680.394	0.0144788
680.472	0.0145344
680.550	0.0143695
680.628	0.0145851
680.706	0.0144956
680.785	0.0143996
680.863	0.0146586
680.941	0.0145613
681.019	0.0145481
681.097	0.0144754
681.175	0.0144543
681.253	0.0145449
681.331	0.0146671
681.410	0.0145594
681.488	0.0144856
681.566	0.0144888
681.644	0.0145105
681.722	0.0146086
681.800	0.0145824
681.878	0.0146543
681.956	0.0145779
682.035	0.0146523
682.113	0.0146320
682.191	0.0145941
682.269	0.0146223
682.347	0.0146259
682.425	0.0146230
682.503	0.0147203
682.581	0.0147215
682.660	0.0147370
682.738	0.0146265
682.816	0.0146645
682.894	0.0145720
682.972	0.0146854
683.050	0.0146989
683.128	0.0145411
683.206	0.0146960
683.285	0.0147053
683.363	0.0145636
683.441	0.0146136
683.519	0.0145806
683.597	0.0146767
683.675	0.0147202
683.753	0.0145398
683.831	0.0145567
683.910	0.0144897
683.988	0.0145880
684.066	0.0147007
684.144	0.0145546
684.222	0.0145583
684.300	0.0146184
684.378	0.0145556
684.456	0.0146497
684.535	0.0145087
684.613	0.0146313
684.691	0.0146067
684.769	0.0144604
684.847	0.0147134
684.925	0.0144585
685.003	0.0144966
685.081	0.0145448
685.160	0.0145521
685.238	0.0145175
685.316	0.0145692
685.394	0.0146813
685.472	0.0146189
685.550	0.0146716
685.628	0.0145103
685.706	0.0145536
685.785	0.0146963
685.863	0.0147214
685.941	0.0147782
686.019	0.0147200
686.097	0.0146879
686.175	0.0147355
686.253	0.0147868
686.331	0.0147383
686.410	0.0147926
686.488	0.0147703
686.566	0.0146309
686.644	0.0146832
686.722	0.0147958
686.800	0.0147397
686.878	0.0148194
686.956	0.0148434
687.035	0.0149052
687.113	0.0147363
687.191	0.0147575
687.269	0.0147437
687.347	0.0146593
687.425	0.0146889
687.503	0.0146822
687.581	0.0146618
687.660	0.0146932
687.738	0.0147699
687.816	0.0147823
687.894	0.0147141
687.972	0.0145876
688.050	0.0146857
688.128	0.0148267
688.206	0.0147796
688.285	0.0146432
688.363	0.0148196
688.441	0.0147916
688.519	0.0147354
688.597	0.0146995
688.675	0.0147329
688.753	0.0148631
688.831	0.0146735
688.910	0.0146368
688.988	0.0147198
689.066	0.0148118
689.144	0.0147038
689.222	0.0146937
689.300	0.0147518
689.378	0.0147309
689.456	0.0145849
689.535	0.0146532
689.613	0.0145861
689.691	0.0145666
689.769	0.0146613
689.847	0.0146379
689.925	0.0145757
690.003	0.0146027
690.081	0.0145865
690.160	0.0144450
690.238	0.0145777
690.316	0.0145290
690.394	0.0146391
690.472	0.0146002
690.550	0.0144520
690.628	0.0145811
690.706	0.0144782
690.785	0.0144906
690.863	0.0144872
690.941	0.0143913
691.019	0.0145764
691.097	0.0146474
691.175	0.0146298
691.253	0.0145647
691.331	0.0145191
691.410	0.0146751
691.488	0.0146861
691.566	0.0145876
691.644	0.0147675
691.722	0.0146266
691.800	0.0146293
691.878	0.0146674
691.956	0.0145927
692.035	0.0147013
692.113	0.0147331
692.191	0.0147211
692.269	0.0147859
692.347	0.0148028
692.425	0.0148010
692.503	0.0148518
692.581	0.0148434
692.660	0.0148108
692.738	0.0147067
692.816	0.0144532
692.894	0.0146839
692.972	0.0146418
693.050	0.0146601
693.128	0.0147075
693.206	0.0145971
693.285	0.0146344
693.363	0.0149117
693.441	0.0147167
693.519	0.0149042
693.597	0.0149384
693.675	0.0149920
693.753	0.0148583
693.831	0.0148376
693.910	0.0149273
693.988	0.0149657
694.066	0.0149413
694.144	0.0148523
694.222	0.0148597
694.300	0.0150851
694.378	0.0148283
694.456	0.0147880
694.535	0.0147599
694.613	0.0147376
694.691	0.0148130
694.769	0.0148654
694.847	0.0148047
694.925	0.0146362
695.003	0.0146616
695.081	0.0147661
695.160	0.0147764
695.238	0.0148685
695.316	0.0147383
695.394	0.0147858
695.472	0.0148083
695.550	0.0147870
695.628	0.0145822
695.706	0.0146228
695.785	0.0147813
695.863	0.0148402
695.941	0.0145959
696.019	0.0147511
696.097	0.0146950
696.175	0.0147272
696.253	0.0146628
696.331	0.0146983
696.410	0.0146333
696.488	0.0146879
696.566	0.0147746
696.644	0.0145866
696.722	0.0147231
696.800	0.0145330
696.878	0.0145771
696.956	0.0146631
697.035	0.0145672
697.113	0.0145547
697.191	0.0147086
697.269	0.0144680
697.347	0.0146835
697.425	0.0147402
697.503	0.0146372
697.581	0.0147000
697.660	0.0146838
697.738	0.0147025
697.816	0.0147249
697.894	0.0145649
697.972	0.0147000
698.050	0.0146715
698.128	0.0147158
698.206	0.0146912
698.285	0.0146873
698.363	0.0146121
698.441	0.0146921
698.519	0.0145852
698.597	0.0145707
698.675	0.0145768
698.753	0.0145586
698.831	0.0145634
698.910	0.0145376
698.988	0.0146249
699.066	0.0145681
699.144	0.0145448
699.222	0.0145808
699.300	0.0146145
699.378	0.0145702
699.456	0.0146985
699.535	0.0145393
699.613	0.0145000
699.691	0.0146407
699.769	0.0146664
699.847	0.0147723
699.925	0.0147449
700.003	0.0148497
700.081	0.0146935
700.160	0.0146825
700.238	0.0146461
700.316	0.0146859
700.394	0.0146535
700.472	0.0147765
700.550	0.0146498
700.628	0.0147068
700.706	0.0146106
700.785	0.0145683
700.863	0.0144926
700.941	0.0145444
701.019	0.0145087
701.097	0.0145347
701.175	0.0146351
701.253	0.0146164
701.331	0.0144232
701.410	0.0146925
701.488	0.0146422
701.566	0.0145448
701.644	0.0146242
701.722	0.0148087
701.800	0.0145782
701.878	0.0146008
701.956	0.0146080
702.035	0.0146952
702.113	0.0145742
702.191	0.0145625
702.269	0.0146446
702.347	0.0145287
702.425	0.0144433
702.503	0.0145454
702.581	0.0145195
702.660	0.0144964
702.738	0.0145801
702.816	0.0145157
702.894	0.0144397
702.972	0.0143550
703.050	0.0145388
703.128	0.0145750
703.206	0.0145446
703.285	0.0145798
703.363	0.0145823
703.441	0.0146608
703.519	0.0145106
703.597	0.0145181
703.675	0.0146043
703.753	0.0146318
703.831	0.0145078
703.910	0.0146699
703.988	0.0148550
704.066	0.0146837
704.144	0.0144571
704.222	0.0145229
704.300	0.0144968
704.378	0.0145654
704.456	0.0146645
704.535	0.0145287
704.613	0.0146235
704.691	0.0145922
704.769	0.0144471
704.847	0.0145873
704.925	0.0146913
705.003	0.0145073
705.081	0.0146509
705.160	0.0147832
705.238	0.0148265
705.316	0.0147863
705.394	0.0148555
705.472	0.0147225
705.550	0.0146906
705.628	0.0147594
705.706	0.0147318
705.785	0.0146989
705.863	0.0148632
705.941	0.0147526
706.019	0.0146348
706.097	0.0147733
706.175	0.0146727
706.253	0.0146688
706.331	0.0146592
706.410	0.0146202
706.488	0.0146805
706.566	0.0147466
706.644	0.0147683
706.722	0.0147298
706.800	0.0147369
706.878	0.0147607
706.956	0.0145959
707.035	0.0145477
707.113	0.0146355
707.191	0.0146180
707.269	0.0146420
707.347	0.0145448
707.425	0.0146685
707.503	0.0147920
707.581	0.0146741
707.660	0.0147675
707.738	0.0147308
707.816	0.0146745
707.894	0.0148035
707.972	0.0147286
708.050	0.0146733
708.128	0.0146043
708.206	0.0146248
708.285	0.0147331
708.363	0.0147925
708.441	0.0148139
708.519	0.0147342
708.597	0.0146371
708.675	0.0147934
708.753	0.0146721
708.831	0.0148317
708.910	0.0146301
708.988	0.0146171
709.066	0.0145313
709.144	0.0145219
709.222	0.0146698
709.300	0.0146374
709.378	0.0146190
709.456	0.0146377
709.535	0.0146607
709.613	0.0146577
709.691	0.0146933
709.769	0.0146876
709.847	0.0147758
709.925	0.0146805
710.003	0.0145766
710.081	0.0146292
710.160	0.0147522
710.238	0.0147255
710.316	0.0147000
710.394	0.0146426
710.472	0.0145382
710.550	0.0146617
710.628	0.0145515
710.706	0.0145877
710.785	0.0146761
710.863	0.0147282
710.941	0.0147781
711.019	0.0145292
711.097	0.0145038
711.175	0.0147247
711.253	0.0148903
711.331	0.0148659
711.410	0.0146755
711.488	0.0147843
711.566	0.0148214
711.644	0.0148456
711.722	0.0148022
711.800	0.0147533
711.878	0.0147569
711.956	0.0147003
712.035	0.0149202
712.113	0.0148450
712.191	0.0147960
712.269	0.0147322
712.347	0.0146314
712.425	0.0147858
712.503	0.0148509
712.581	0.0148262
712.660	0.0146294
712.738	0.0146896
712.816	0.0149427
712.894	0.0148469
712.972	0.0147718
713.050	0.0148343
713.128	0.0147068
713.206	0.0148328
713.285	0.0148669
713.363	0.0147281
713.441	0.0147566
713.519	0.0146977
713.597	0.0147543
713.675	0.0147977
713.753	0.0147134
713.831	0.0146468
713.910	0.0147957
713.988	0.0145825
714.066	0.0145612
714.144	0.0146890
714.222	0.0146868
714.300	0.0147359
714.378	0.0146561
714.456	0.0147065
714.535	0.0146104
714.613	0.0145458
714.691	0.0148310
714.769	0.0147057
714.847	0.0145919
714.925	0.0146754
715.003	0.0147849
715.081	0.0146446
715.160	0.0148184
715.238	0.0146468
715.316	0.0147753
715.394	0.0148051
715.472	0.0146423
715.550	0.0147822
715.628	0.0148424
715.706	0.0145416
715.785	0.0145432
715.863	0.0146724
715.941	0.0146699
716.019	0.0146346
716.097	0.0145909
716.175	0.0146938
716.253	0.0146074
716.331	0.0146366
716.410	0.0146423
716.488	0.0145340
716.566	0.0146421
716.644	0.0146062
716.722	0.0146361
716.800	0.0146972
716.878	0.0146432
716.956	0.0145998
717.035	0.0147664
717.113	0.0147009
717.191	0.0146301
717.269	0.0146950
717.347	0.0146041
717.425	0.0145920
717.503	0.0147254
717.581	0.0147373
717.660	0.0146775
717.738	0.0146735
717.816	0.0146667
717.894	0.0145976
717.972	0.0147845
718.050	0.0147646
718.128	0.0146958
718.206	0.0146999
718.285	0.0147129
718.363	0.0147713
718.441	0.0145872
718.519	0.0147682
718.597	0.0146867
718.675	0.0148228
718.753	0.0148378
718.831	0.0146494
718.910	0.0148938
718.988	0.0148462
719.066	0.0148515
719.144	0.0148125
719.222	0.0146223
719.300	0.0147519
719.378	0.0147845
719.456	0.0146994
719.535	0.0148187
719.613	0.0148080
719.691	0.0146638
719.769	0.0148112
719.847	0.0147835
719.925	0.0146787
720.003	0.0147156
720.081	0.0146622
720.160	0.0146696
720.238	0.0147356
720.316	0.0148092
720.394	0.0149038
720.472	0.0146361
720.550	0.0147520
720.628	0.0146426
720.706	0.0147443
720.785	0.0149094
720.863	0.0148764
720.941	0.0147375
721.019	0.0146576
721.097	0.0146696
721.175	0.0146915
721.253	0.0147086
721.331	0.0148997
721.410	0.0146340
721.488	0.0146745
721.566	0.0147013
721.644	0.0147143
721.722	0.0147041
721.800	0.0147983
721.878	0.0147452
721.956	0.0145647
722.035	0.0145961
722.113	0.0146266
722.191	0.0145490
722.269	0.0145963
722.347	0.0146562
722.425	0.0146159
722.503	0.0146069
722.581	0.0144808
722.660	0.0145354
722.738	0.0145756
722.816	0.0144394
722.894	0.0144038
722.972	0.0145362
723.050	0.0144224
723.128	0.0145510
723.206	0.0145088
723.285	0.0145731
723.363	0.0146734
723.441	0.0146263
723.519	0.0145550
723.597	0.0145177
723.675	0.0144938
723.753	0.0146301
723.831	0.0146583
723.910	0.0145358
723.988	0.0144228
724.066	0.0144963
724.144	0.0143767
724.222	0.0143229
724.300	0.0143256
724.378	0.0144483
724.456	0.0143855
724.535	0.0144189
724.613	0.0144160
724.691	0.0145525
724.769	0.0144541
724.847	0.0143831
724.925	0.0144867
725.003	0.0144880
725.081	0.0145554
725.160	0.0146620
725.238	0.0146280
725.316	0.0144953
725.394	0.0146058
725.472	0.0146872
725.550	0.0146334
725.628	0.0147844
725.706	0.0147319
725.785	0.0147128
725.863	0.0145704
725.941	0.0145863
726.019	0.0147271
726.097	0.0149340
726.175	0.0147960
726.253	0.0148720
726.331	0.0146677
726.410	0.0146612
726.488	0.0147615
726.566	0.0147260
726.644	0.0148746
726.722	0.0146903
726.800	0.0146767
726.878	0.0148253
726.956	0.0147756
727.035	0.0145654
727.113	0.0147572
727.191	0.0146431
727.269	0.0146703
727.347	0.0147514
727.425	0.0145132
727.503	0.0145525
727.581	0.0146883
727.660	0.0146399
727.738	0.0147890
727.816	0.0146923
727.894	0.0146909
727.972	0.0146812
728.050	0.0146741
728.128	0.0146123
728.206	0.0146910
728.285	0.0148326
728.363	0.0146788
728.441	0.0146614
728.519	0.0148177
728.597	0.0146178
728.675	0.0146936
728.753	0.0147290
728.831	0.0146673
728.910	0.0146940
728.988	0.0147189
729.066	0.0146341
729.144	0.0147351
729.222	0.0147226
729.300	0.0146712
729.378	0.0146108
729.456	0.0145217
729.535	0.0146663
729.613	0.0145209
729.691	0.0145791
729.769	0.0145486
729.847	0.0146718
729.925	0.0146696
730.003	0.0146057
730.081	0.0145528
730.160	0.0145601
730.238	0.0145920
730.316	0.0146190
730.394	0.0145701
730.472	0.0145694
730.550	0.0147673
730.628	0.0146491
730.706	0.0145937
730.785	0.0146483
730.863	0.0145872
730.941	0.0146241
731.019	0.0147829
731.097	0.0146333
731.175	0.0146138
731.253	0.0146516
731.331	0.0145843
731.410	0.0146347
731.488	0.0146252
731.566	0.0146748
731.644	0.0145486
731.722	0.0145048
731.800	0.0147456
731.878	0.0147188
731.956	0.0147017
732.035	0.0146776
732.113	0.0148110
732.191	0.0147759
732.269	0.0146720
732.347	0.0148405
732.425	0.0147622
732.503	0.0147175
732.581	0.0149079
732.660	0.0146920
732.738	0.0149712
732.816	0.0148760
732.894	0.0148742
732.972	0.0149544
733.050	0.0148860
733.128	0.0148607
733.206	0.0147906
733.285	0.0149391
733.363	0.0149334
733.441	0.0149442
733.519	0.0148442
733.597	0.0149101
733.675	0.0149757
733.753	0.0148483
733.831	0.0147454
733.910	0.0148512
733.988	0.0148473
734.066	0.0147762
734.144	0.0147417
734.222	0.0147710
734.300	0.0148780
734.378	0.0147067
734.456	0.0148103
734.535	0.0146371
734.613	0.0147371
734.691	0.0147348
734.769	0.0147730
734.847	0.0148154
734.925	0.0147987
735.003	0.0146986
735.081	0.0148898
735.160	0.0148342
735.238	0.0147184
735.316	0.0147112
735.394	0.0147299
735.472	0.0147018
735.550	0.0145920
735.628	0.0146186
735.706	0.0146953
735.785	0.0146626
735.863	0.0147044
735.941	0.0148193
736.019	0.0147744
736.097	0.0145947
736.175	0.0146103
736.253	0.0146924
736.331	0.0145669
736.410	0.0144572
736.488	0.0147022
736.566	0.0146384
736.644	0.0148586
736.722	0.0147484
736.800	0.0147469
736.878	0.0145779
736.956	0.0145760
737.035	0.0146896
737.113	0.0146952
737.191	0.0146487
737.269	0.0146650
737.347	0.0146439
737.425	0.0147269
737.503	0.0148091
737.581	0.0145603
737.660	0.0147703
737.738	0.0147461
737.816	0.0147624
737.894	0.0146275
737.972	0.0146048
738.050	0.0146811
738.128	0.0146673
738.206	0.0146977
738.285	0.0147318
738.363	0.0146300
738.441	0.0145702
738.519	0.0146683
738.597	0.0147446
738.675	0.0146216
738.753	0.0146348
738.831	0.0148241
738.910	0.0146065
738.988	0.0146514
739.066	0.0147086
739.144	0.0148090
739.222	0.0147108
739.300	0.0147408
739.378	0.0147256
739.456	0.0147292
739.535	0.0148127
739.613	0.0146774
739.691	0.0147340
739.769	0.0148869
739.847	0.0148940
739.925	0.0148366
740.003	0.0148824
740.081	0.0149047
740.160	0.0148631
740.238	0.0148552
740.316	0.0146835
740.394	0.0149542
740.472	0.0148681
740.550	0.0147783
740.628	0.0149100
740.706	0.0149587
740.785	0.0148193
740.863	0.0149194
740.941	0.0148677
741.019	0.0147050
741.097	0.0147643
741.175	0.0146717
741.253	0.0146745
741.331	0.0146338
741.410	0.0145834
741.488	0.0147914
741.566	0.0147543
741.644	0.0147223
741.722	0.0147350
741.800	0.0147559
741.878	0.0147314
741.956	0.0147071
742.035	0.0147729
742.113	0.0145637
742.191	0.0147761
742.269	0.0148085
742.347	0.0146684
742.425	0.0146659
742.503	0.0147552
742.581	0.0146699
742.660	0.0145317
742.738	0.0146181
742.816	0.0146465
742.894	0.0146918
742.972	0.0146799
743.050	0.0146222
743.128	0.0146306
743.206	0.0145614
743.285	0.0145987
743.363	0.0145868
743.441	0.0145084
743.519	0.0146574
743.597	0.0145082
743.675	0.0145168
743.753	0.0145613
743.831	0.0145161
743.910	0.0146385
743.988	0.0144629
744.066	0.0146055
744.144	0.0144850
744.222	0.0146635
744.300	0.0145585
744.378	0.0145523
744.456	0.0144511
744.535	0.0144897
744.613	0.0144823
744.691	0.0146858
744.769	0.0144732
744.847	0.0144876
744.925	0.0146431
745.003	0.0144473
745.081	0.0144456
745.160	0.0145447
745.238	0.0145287
745.316	0.0145156
745.394	0.0143912
745.472	0.0143325
745.550	0.0146256
745.628	0.0144425
745.706	0.0144785
