05/03/2022	20:46:38	Ver.	4.1	UNKNOWN
Optical Delay	660.003261	Delta X		0.078125	Sweeps	1	Scan Rate	0/0
Coordinates	Axis 1	NaN	Axis 2	NaN	Axis 3	NaN	Axis 4	NaN	Axis 5	NaN	Axis 6	0.000000
TX Power	0.000000	RX Power	0.000000

660.003	0.0141265
660.081	0.0140676
660.160	0.0140890
660.238	0.0140971
660.316	0.0141325
660.394	0.0142085
660.472	0.0142141
660.550	0.0142182
660.628	0.0140398
660.706	0.0139570
660.785	0.0141406
660.863	0.0140885
660.941	0.0140849
661.019	0.0140749
661.097	0.0140395
661.175	0.0140561
661.253	0.0140112
661.331	0.0141187
661.410	0.0140053
661.488	0.0141320
661.566	0.0140010
661.644	0.0140501
661.722	0.0140426
661.800	0.0139737
661.878	0.0140524
661.956	0.0139302
662.035	0.0139938
662.113	0.0141950
662.191	0.0141734
662.269	0.0141405
662.347	0.0140434
662.425	0.0140776
662.503	0.0140731
662.581	0.0140470
662.660	0.0141244
662.738	0.0139906
662.816	0.0141518
662.894	0.0141579
662.972	0.0142069
663.050	0.0140032
663.128	0.0140406
663.206	0.0141828
663.285	0.0141798
663.363	0.0140090
663.441	0.0138095
663.519	0.0140901
663.597	0.0141016
663.675	0.0139731
663.753	0.0140211
663.831	0.0141590
663.910	0.0139610
663.988	0.0139481
664.066	0.0140774
664.144	0.0140979
664.222	0.0140416
664.300	0.0141225
664.378	0.0139902
664.456	0.0140648
664.535	0.0140948
664.613	0.0140109
664.691	0.0140588
664.769	0.0138728
664.847	0.0141013
664.925	0.0140324
665.003	0.0140041
665.081	0.0140149
665.160	0.0140577
665.238	0.0140102
665.316	0.0139658
665.394	0.0140237
665.472	0.0140580
665.550	0.0139026
665.628	0.0140231
665.706	0.0141029
665.785	0.0141461
665.863	0.0139490
665.941	0.0138855
666.019	0.0140582
666.097	0.0140134
666.175	0.0140073
666.253	0.0141357
666.331	0.0139379
666.410	0.0140330
666.488	0.0139307
666.566	0.0140402
666.644	0.0141206
666.722	0.0140310
666.800	0.0141431
666.878	0.0139934
666.956	0.0140642
667.035	0.0140400
667.113	0.0140954
667.191	0.0141815
667.269	0.0139886
667.347	0.0140415
667.425	0.0141435
667.503	0.0140562
667.581	0.0140139
667.660	0.0140055
667.738	0.0141106
667.816	0.0140556
667.894	0.0140833
667.972	0.0140067
668.050	0.0140140
668.128	0.0140243
668.206	0.0140240
668.285	0.0141218
668.363	0.0141636
668.441	0.0141933
668.519	0.0139505
668.597	0.0140436
668.675	0.0143108
668.753	0.0141474
668.831	0.0141382
668.910	0.0141032
668.988	0.0139783
669.066	0.0142157
669.144	0.0140883
669.222	0.0138547
669.300	0.0141598
669.378	0.0140363
669.456	0.0139857
669.535	0.0140701
669.613	0.0140070
669.691	0.0140741
669.769	0.0140350
669.847	0.0140602
669.925	0.0141232
670.003	0.0141464
670.081	0.0140880
670.160	0.0139299
670.238	0.0140463
670.316	0.0140594
670.394	0.0140630
670.472	0.0141606
670.550	0.0139938
670.628	0.0140259
670.706	0.0141865
670.785	0.0141425
670.863	0.0138942
670.941	0.0140343
671.019	0.0141373
671.097	0.0141389
671.175	0.0141098
671.253	0.0140163
671.331	0.0140146
671.410	0.0140981
671.488	0.0141404
671.566	0.0141553
671.644	0.0141692
671.722	0.0140505
671.800	0.0140427
671.878	0.0139319
671.956	0.0139933
672.035	0.0141005
672.113	0.0140843
672.191	0.0139997
672.269	0.0140344
672.347	0.0141021
672.425	0.0139244
672.503	0.0139757
672.581	0.0139331
672.660	0.0139294
672.738	0.0139899
672.816	0.0140491
672.894	0.0139301
672.972	0.0140009
673.050	0.0139959
673.128	0.0138958
673.206	0.0140472
673.285	0.0138048
673.363	0.0139383
673.441	0.0140507
673.519	0.0139242
673.597	0.0139799
673.675	0.0139413
673.753	0.0137820
673.831	0.0139402
673.910	0.0141557
673.988	0.0139484
674.066	0.0140265
674.144	0.0140551
674.222	0.0140685
674.300	0.0139743
674.378	0.0140275
674.456	0.0141557
674.535	0.0140793
674.613	0.0140061
674.691	0.0140408
674.769	0.0141272
674.847	0.0141140
674.925	0.0140656
675.003	0.0141528
675.081	0.0142640
675.160	0.0141785
675.238	0.0140282
675.316	0.0140253
675.394	0.0140433
675.472	0.0141480
675.550	0.0141995
675.628	0.0142081
675.706	0.0142254
675.785	0.0142020
675.863	0.0141122
675.941	0.0142455
676.019	0.0141720
676.097	0.0141463
676.175	0.0141348
676.253	0.0141801
676.331	0.0139890
676.410	0.0140644
676.488	0.0140910
676.566	0.0141240
676.644	0.0142456
676.722	0.0141045
676.800	0.0140833
676.878	0.0140828
676.956	0.0141392
677.035	0.0141436
677.113	0.0141716
677.191	0.0140963
677.269	0.0141109
677.347	0.0142382
677.425	0.0139213
677.503	0.0140586
677.581	0.0140539
677.660	0.0139300
677.738	0.0142140
677.816	0.0139799
677.894	0.0141486
677.972	0.0139858
678.050	0.0140060
678.128	0.0140770
678.206	0.0139903
678.285	0.0140349
678.363	0.0141364
678.441	0.0142155
678.519	0.0141287
678.597	0.0140198
678.675	0.0141880
678.753	0.0140993
678.831	0.0139150
678.910	0.0140166
678.988	0.0140421
679.066	0.0140274
679.144	0.0140879
679.222	0.0140912
679.300	0.0141257
679.378	0.0140992
679.456	0.0140541
679.535	0.0141100
679.613	0.0140359
679.691	0.0140487
679.769	0.0141598
679.847	0.0140646
679.925	0.0140386
680.003	0.0140778
680.081	0.0140946
680.160	0.0140791
680.238	0.0141765
680.316	0.0140292
680.394	0.0140635
680.472	0.0139817
680.550	0.0140188
680.628	0.0140044
680.706	0.0140260
680.785	0.0142067
680.863	0.0142189
680.941	0.0140418
681.019	0.0141409
681.097	0.0140073
681.175	0.0141175
681.253	0.0140819
681.331	0.0141357
681.410	0.0141495
681.488	0.0140906
681.566	0.0139609
681.644	0.0140235
681.722	0.0140213
681.800	0.0141747
681.878	0.0140501
681.956	0.0138727
682.035	0.0138758
682.113	0.0139875
682.191	0.0138982
682.269	0.0139299
682.347	0.0138986
682.425	0.0140392
682.503	0.0139722
682.581	0.0138549
682.660	0.0137461
682.738	0.0139832
682.816	0.0139825
682.894	0.0139435
682.972	0.0140343
683.050	0.0140305
683.128	0.0139974
683.206	0.0141117
683.285	0.0140563
683.363	0.0142062
683.441	0.0142313
683.519	0.0142142
683.597	0.0140691
683.675	0.0141793
683.753	0.0141378
683.831	0.0140722
683.910	0.0140798
683.988	0.0142398
684.066	0.0141879
684.144	0.0141548
684.222	0.0140543
684.300	0.0141053
684.378	0.0141714
684.456	0.0141850
684.535	0.0140285
684.613	0.0141064
684.691	0.0140903
684.769	0.0142661
684.847	0.0140721
684.925	0.0141649
685.003	0.0140974
685.081	0.0141125
685.160	0.0141825
685.238	0.0141084
685.316	0.0142870
685.394	0.0142594
685.472	0.0140317
685.550	0.0141331
685.628	0.0142032
685.706	0.0141839
685.785	0.0143031
685.863	0.0143316
685.941	0.0142295
686.019	0.0142612
686.097	0.0141869
686.175	0.0143420
686.253	0.0141987
686.331	0.0142065
686.410	0.0142708
686.488	0.0141643
686.566	0.0141563
686.644	0.0142208
686.722	0.0141419
686.800	0.0141796
686.878	0.0142574
686.956	0.0142941
687.035	0.0140919
687.113	0.0141150
687.191	0.0142390
687.269	0.0142810
687.347	0.0142966
687.425	0.0142617
687.503	0.0142181
687.581	0.0142934
687.660	0.0141062
687.738	0.0142318
687.816	0.0140479
687.894	0.0141992
687.972	0.0141169
688.050	0.0141644
688.128	0.0140664
688.206	0.0139876
688.285	0.0141998
688.363	0.0139928
688.441	0.0139246
688.519	0.0139948
688.597	0.0139462
688.675	0.0141001
688.753	0.0141983
688.831	0.0141348
688.910	0.0141522
688.988	0.0141119
689.066	0.0141739
689.144	0.0141648
689.222	0.0142117
689.300	0.0141825
689.378	0.0140476
689.456	0.0140257
689.535	0.0141199
689.613	0.0140157
689.691	0.0140430
689.769	0.0139594
689.847	0.0140149
689.925	0.0140842
690.003	0.0139411
690.081	0.0140854
690.160	0.0141022
690.238	0.0140400
690.316	0.0140550
690.394	0.0140157
690.472	0.0140213
690.550	0.0139478
690.628	0.0139452
690.706	0.0141172
690.785	0.0140464
690.863	0.0139902
690.941	0.0141128
691.019	0.0140167
691.097	0.0140372
691.175	0.0141954
691.253	0.0140905
691.331	0.0142017
691.410	0.0141824
691.488	0.0141744
691.566	0.0141557
691.644	0.0141748
691.722	0.0140753
691.800	0.0140948
691.878	0.0141114
691.956	0.0141918
692.035	0.0139875
692.113	0.0137894
692.191	0.0140357
692.269	0.0140015
692.347	0.0140076
692.425	0.0140749
692.503	0.0141399
692.581	0.0139555
692.660	0.0142324
692.738	0.0142072
692.816	0.0140267
692.894	0.0139846
692.972	0.0139419
693.050	0.0140882
693.128	0.0140649
693.206	0.0140031
693.285	0.0140457
693.363	0.0139247
693.441	0.0139153
693.519	0.0139878
693.597	0.0139779
693.675	0.0140146
693.753	0.0140134
693.831	0.0140652
693.910	0.0140940
693.988	0.0139261
694.066	0.0138904
694.144	0.0139199
694.222	0.0141473
694.300	0.0140740
694.378	0.0141871
694.456	0.0141770
694.535	0.0140373
694.613	0.0140617
694.691	0.0140838
694.769	0.0141299
694.847	0.0140574
694.925	0.0140627
695.003	0.0141081
695.081	0.0140403
695.160	0.0141019
695.238	0.0139230
695.316	0.0139074
695.394	0.0140431
695.472	0.0141190
695.550	0.0141589
695.628	0.0140849
695.706	0.0140456
695.785	0.0141025
695.863	0.0141322
695.941	0.0140738
696.019	0.0141748
696.097	0.0140041
696.175	0.0141074
696.253	0.0140461
696.331	0.0140466
696.410	0.0141232
696.488	0.0141743
696.566	0.0141908
696.644	0.0140833
696.722	0.0140026
696.800	0.0139973
696.878	0.0140974
696.956	0.0141717
697.035	0.0140238
697.113	0.0140405
697.191	0.0142101
697.269	0.0142137
697.347	0.0140835
697.425	0.0141813
697.503	0.0142178
697.581	0.0142368
697.660	0.0142907
697.738	0.0140733
697.816	0.0142265
697.894	0.0142228
697.972	0.0140891
698.050	0.0141710
698.128	0.0141933
698.206	0.0141130
698.285	0.0140892
698.363	0.0140864
698.441	0.0141576
698.519	0.0140456
698.597	0.0140212
698.675	0.0142015
698.753	0.0140652
698.831	0.0140881
698.910	0.0142162
698.988	0.0141071
699.066	0.0141904
699.144	0.0141300
699.222	0.0141840
699.300	0.0140813
699.378	0.0141403
699.456	0.0141712
699.535	0.0140605
699.613	0.0140250
699.691	0.0140790
699.769	0.0142224
699.847	0.0141227
699.925	0.0139346
700.003	0.0140795
700.081	0.0140571
700.160	0.0138818
700.238	0.0139827
700.316	0.0139091
700.394	0.0137373
700.472	0.0138718
700.550	0.0139484
700.628	0.0140089
700.706	0.0139424
700.785	0.0139983
700.863	0.0140266
700.941	0.0139220
701.019	0.0140331
701.097	0.0140563
701.175	0.0139834
701.253	0.0141104
701.331	0.0139902
701.410	0.0139184
701.488	0.0139972
701.566	0.0141209
701.644	0.0138683
701.722	0.0139349
701.800	0.0139373
701.878	0.0139176
701.956	0.0140985
702.035	0.0139845
702.113	0.0139107
702.191	0.0139939
702.269	0.0138786
702.347	0.0139469
702.425	0.0139099
702.503	0.0142115
702.581	0.0141563
702.660	0.0139283
702.738	0.0139732
702.816	0.0139954
702.894	0.0139542
702.972	0.0140757
703.050	0.0142063
703.128	0.0140282
703.206	0.0138342
703.285	0.0141296
703.363	0.0140929
703.441	0.0140416
703.519	0.0140330
703.597	0.0142107
703.675	0.0140752
703.753	0.0140333
703.831	0.0141621
703.910	0.0140344
703.988	0.0141231
704.066	0.0140622
704.144	0.0140928
704.222	0.0142236
704.300	0.0141056
704.378	0.0141391
704.456	0.0142762
704.535	0.0141230
704.613	0.0141436
704.691	0.0141068
704.769	0.0141417
704.847	0.0141940
704.925	0.0141631
705.003	0.0140677
705.081	0.0139535
705.160	0.0140490
705.238	0.0140659
705.316	0.0140958
705.394	0.0141114
705.472	0.0140730
705.550	0.0141758
705.628	0.0141608
705.706	0.0140576
705.785	0.0141475
705.863	0.0142107
705.941	0.0141233
706.019	0.0141967
706.097	0.0142761
706.175	0.0140208
706.253	0.0140990
706.331	0.0140961
706.410	0.0140546
706.488	0.0139020
706.566	0.0140798
706.644	0.0139803
706.722	0.0140429
706.800	0.0141688
706.878	0.0139722
706.956	0.0139743
707.035	0.0140286
707.113	0.0139783
707.191	0.0142052
707.269	0.0140694
707.347	0.0140349
707.425	0.0141181
707.503	0.0140224
707.581	0.0139788
707.660	0.0140605
707.738	0.0139850
707.816	0.0140199
707.894	0.0140321
707.972	0.0140200
708.050	0.0141527
708.128	0.0139896
708.206	0.0139350
708.285	0.0138514
708.363	0.0140379
708.441	0.0140543
708.519	0.0139644
708.597	0.0139757
708.675	0.0140713
708.753	0.0141051
708.831	0.0139931
708.910	0.0141119
708.988	0.0140089
709.066	0.0140148
709.144	0.0141362
709.222	0.0141504
709.300	0.0141855
709.378	0.0142133
709.456	0.0141334
709.535	0.0141174
709.613	0.0141728
709.691	0.0141766
709.769	0.0142715
709.847	0.0140107
709.925	0.0141082
710.003	0.0140139
710.081	0.0142166
710.160	0.0141991
710.238	0.0141815
710.316	0.0141838
710.394	0.0141468
710.472	0.0140685
710.550	0.0140671
710.628	0.0141824
710.706	0.0143666
710.785	0.0141611
710.863	0.0142683
710.941	0.0143292
711.019	0.0142611
711.097	0.0141539
711.175	0.0141733
711.253	0.0143100
711.331	0.0142812
711.410	0.0140491
711.488	0.0142323
711.566	0.0142085
711.644	0.0141758
711.722	0.0141285
711.800	0.0141499
711.878	0.0140480
711.956	0.0140816
712.035	0.0141191
712.113	0.0141286
712.191	0.0141507
712.269	0.0141053
712.347	0.0142959
712.425	0.0143056
712.503	0.0141402
712.581	0.0142466
712.660	0.0143295
712.738	0.0142599
712.816	0.0141621
712.894	0.0142377
712.972	0.0141740
713.050	0.0141611
713.128	0.0141602
713.206	0.0141980
713.285	0.0142139
713.363	0.0141207
713.441	0.0142244
713.519	0.0141427
713.597	0.0140087
713.675	0.0140346
713.753	0.0141046
713.831	0.0142822
713.910	0.0142690
713.988	0.0141339
714.066	0.0141546
714.144	0.0141842
714.222	0.0140926
714.300	0.0142089
714.378	0.0140986
714.456	0.0141483
714.535	0.0142271
714.613	0.0142365
714.691	0.0141546
714.769	0.0140022
714.847	0.0142606
714.925	0.0142844
715.003	0.0141655
715.081	0.0141608
715.160	0.0140385
715.238	0.0141186
715.316	0.0142784
715.394	0.0142839
715.472	0.0142840
715.550	0.0142569
715.628	0.0142358
715.706	0.0140913
715.785	0.0141985
715.863	0.0143444
715.941	0.0142467
716.019	0.0142610
716.097	0.0142796
716.175	0.0143189
716.253	0.0142211
716.331	0.0142321
716.410	0.0142747
716.488	0.0142603
716.566	0.0143356
716.644	0.0143304
716.722	0.0142366
716.800	0.0141041
716.878	0.0143147
716.956	0.0143932
717.035	0.0143073
717.113	0.0141759
717.191	0.0142492
717.269	0.0142908
717.347	0.0142042
717.425	0.0141523
717.503	0.0142368
717.581	0.0141766
717.660	0.0142709
717.738	0.0141749
717.816	0.0140097
717.894	0.0141218
717.972	0.0141544
718.050	0.0141843
718.128	0.0141359
718.206	0.0140253
718.285	0.0142423
718.363	0.0141496
718.441	0.0140796
718.519	0.0140696
718.597	0.0140002
718.675	0.0140570
718.753	0.0141288
718.831	0.0142017
718.910	0.0139943
718.988	0.0142030
719.066	0.0141182
719.144	0.0139964
719.222	0.0140958
719.300	0.0141624
719.378	0.0140054
719.456	0.0140707
719.535	0.0140694
719.613	0.0140568
719.691	0.0139196
719.769	0.0140562
719.847	0.0138849
719.925	0.0138809
720.003	0.0139053
720.081	0.0140279
720.160	0.0139720
720.238	0.0140207
720.316	0.0139645
720.394	0.0140147
720.472	0.0140354
720.550	0.0139169
720.628	0.0140453
720.706	0.0141265
720.785	0.0140128
720.863	0.0141006
720.941	0.0140836
721.019	0.0141813
721.097	0.0139267
721.175	0.0142422
721.253	0.0141843
721.331	0.0139583
721.410	0.0140184
721.488	0.0141234
721.566	0.0141755
721.644	0.0140093
721.722	0.0139743
721.800	0.0139549
721.878	0.0138633
721.956	0.0139838
722.035	0.0139830
722.113	0.0141342
722.191	0.0139844
722.269	0.0140223
722.347	0.0140872
722.425	0.0140439
722.503	0.0139533
722.581	0.0140958
722.660	0.0141486
722.738	0.0140466
722.816	0.0140672
722.894	0.0141419
722.972	0.0140408
723.050	0.0142833
723.128	0.0141674
723.206	0.0142477
723.285	0.0141857
723.363	0.0141880
723.441	0.0141864
723.519	0.0141862
723.597	0.0141863
723.675	0.0141223
723.753	0.0141604
723.831	0.0142533
723.910	0.0142546
723.988	0.0140678
724.066	0.0142769
724.144	0.0142500
724.222	0.0141955
724.300	0.0142601
724.378	0.0141860
724.456	0.0141527
724.535	0.0142630
724.613	0.0140950
724.691	0.0141230
724.769	0.0140450
724.847	0.0143271
724.925	0.0143800
725.003	0.0143040
725.081	0.0141635
725.160	0.0142337
725.238	0.0141578
725.316	0.0140945
725.394	0.0141696
725.472	0.0141324
725.550	0.0142657
725.628	0.0141438
725.706	0.0141858
725.785	0.0142730
725.863	0.0141843
725.941	0.0142609
726.019	0.0142645
726.097	0.0141745
726.175	0.0142600
726.253	0.0141911
726.331	0.0141023
726.410	0.0141384
726.488	0.0142714
726.566	0.0141757
726.644	0.0142891
726.722	0.0140827
726.800	0.0140988
726.878	0.0141386
726.956	0.0140693
727.035	0.0141389
727.113	0.0141599
727.191	0.0139735
727.269	0.0141386
727.347	0.0142393
727.425	0.0140311
727.503	0.0140763
727.581	0.0141529
727.660	0.0140998
727.738	0.0140862
727.816	0.0140579
727.894	0.0140352
727.972	0.0141258
728.050	0.0141048
728.128	0.0139723
728.206	0.0140154
728.285	0.0139310
728.363	0.0140342
728.441	0.0140611
728.519	0.0141041
728.597	0.0139662
728.675	0.0138779
728.753	0.0140019
728.831	0.0139297
728.910	0.0140338
728.988	0.0140069
729.066	0.0139658
729.144	0.0140318
729.222	0.0139857
729.300	0.0140586
729.378	0.0140233
729.456	0.0138898
729.535	0.0139810
729.613	0.0140166
729.691	0.0141954
729.769	0.0140192
729.847	0.0138465
729.925	0.0140652
730.003	0.0140488
730.081	0.0140936
730.160	0.0140960
730.238	0.0140753
730.316	0.0140143
730.394	0.0140971
730.472	0.0141869
730.550	0.0141388
730.628	0.0140854
730.706	0.0141839
730.785	0.0141036
730.863	0.0141566
730.941	0.0141322
731.019	0.0140065
731.097	0.0142255
731.175	0.0141803
731.253	0.0141074
731.331	0.0141041
731.410	0.0140050
731.488	0.0141020
731.566	0.0141172
731.644	0.0139745
731.722	0.0140980
731.800	0.0140401
731.878	0.0138395
731.956	0.0140949
732.035	0.0139956
732.113	0.0139351
732.191	0.0140191
732.269	0.0140746
732.347	0.0141727
732.425	0.0139838
732.503	0.0139826
732.581	0.0138928
732.660	0.0141357
732.738	0.0141380
732.816	0.0138995
732.894	0.0141269
732.972	0.0141458
733.050	0.0141930
733.128	0.0141573
733.206	0.0139968
733.285	0.0141598
733.363	0.0142641
733.441	0.0142655
733.519	0.0139800
733.597	0.0140638
733.675	0.0139230
733.753	0.0140346
733.831	0.0141209
733.910	0.0141528
733.988	0.0139674
734.066	0.0139958
734.144	0.0139838
734.222	0.0141145
734.300	0.0142870
734.378	0.0141221
734.456	0.0139925
734.535	0.0140987
734.613	0.0141236
734.691	0.0140635
734.769	0.0140623
734.847	0.0141368
734.925	0.0140950
735.003	0.0140891
735.081	0.0139397
735.160	0.0141129
735.238	0.0141197
735.316	0.0140000
735.394	0.0141586
735.472	0.0141389
735.550	0.0138947
735.628	0.0140033
735.706	0.0141001
735.785	0.0139599
735.863	0.0140809
735.941	0.0139944
736.019	0.0140376
736.097	0.0140666
736.175	0.0140654
736.253	0.0139809
736.331	0.0140135
736.410	0.0139399
736.488	0.0140002
736.566	0.0140160
736.644	0.0139799
736.722	0.0140438
736.800	0.0141255
736.878	0.0141941
736.956	0.0140341
737.035	0.0140519
737.113	0.0141224
737.191	0.0140728
737.269	0.0141076
737.347	0.0140781
737.425	0.0141569
737.503	0.0142384
737.581	0.0142316
737.660	0.0141511
737.738	0.0142144
737.816	0.0141255
737.894	0.0143774
737.972	0.0144019
738.050	0.0142821
738.128	0.0142001
738.206	0.0141916
738.285	0.0142700
738.363	0.0142490
738.441	0.0142791
738.519	0.0141707
738.597	0.0141669
738.675	0.0141342
738.753	0.0142130
738.831	0.0142213
738.910	0.0142023
738.988	0.0142307
739.066	0.0140493
739.144	0.0139870
739.222	0.0142076
739.300	0.0141302
739.378	0.0141645
739.456	0.0141688
739.535	0.0141518
739.613	0.0141508
739.691	0.0142963
739.769	0.0141664
739.847	0.0142710
739.925	0.0140891
740.003	0.0140643
740.081	0.0141726
740.160	0.0142384
740.238	0.0140942
740.316	0.0141404
740.394	0.0141064
740.472	0.0141383
740.550	0.0140787
740.628	0.0140615
740.706	0.0140907
740.785	0.0140969
740.863	0.0140845
740.941	0.0139153
741.019	0.0140595
741.097	0.0142222
741.175	0.0141245
741.253	0.0139309
741.331	0.0141170
741.410	0.0140114
741.488	0.0140972
741.566	0.0140547
741.644	0.0140956
741.722	0.0139376
741.800	0.0140193
741.878	0.0140491
741.956	0.0140157
742.035	0.0139889
742.113	0.0141254
742.191	0.0141325
742.269	0.0140960
742.347	0.0141048
742.425	0.0142278
742.503	0.0140834
742.581	0.0140618
742.660	0.0141716
742.738	0.0142300
742.816	0.0140022
742.894	0.0139673
742.972	0.0141079
743.050	0.0142099
743.128	0.0140745
743.206	0.0141243
743.285	0.0140811
743.363	0.0139603
743.441	0.0139483
743.519	0.0141216
743.597	0.0140778
743.675	0.0140761
743.753	0.0140943
743.831	0.0142319
743.910	0.0142148
743.988	0.0141695
744.066	0.0142136
744.144	0.0143363
744.222	0.0142909
744.300	0.0142145
744.378	0.0142332
744.456	0.0143198
744.535	0.0141747
744.613	0.0142470
744.691	0.0143467
744.769	0.0143451
744.847	0.0142932
744.925	0.0141969
745.003	0.0142278
745.081	0.0143407
745.160	0.0141924
745.238	0.0142953
745.316	0.0142974
745.394	0.0143093
745.472	0.0142297
745.550	0.0143375
745.628	0.0143739
745.706	0.0142133
