05/03/2022	20:47:13	Ver.	4.1	UNKNOWN
Optical Delay	660.003261	Delta X		0.078125	Sweeps	1	Scan Rate	0/0
Coordinates	Axis 1	NaN	Axis 2	NaN	Axis 3	NaN	Axis 4	NaN	Axis 5	NaN	Axis 6	0.000000
TX Power	0.000000	RX Power	0.000000

660.003	0.0142573
660.081	0.0142844
660.160	0.0143019
660.238	0.0143551
660.316	0.0142283
660.394	0.0143308
660.472	0.0142886
660.550	0.0143571
660.628	0.0142444
660.706	0.0144015
660.785	0.0144415
660.863	0.0143249
660.941	0.0143615
661.019	0.0143861
661.097	0.0142201
661.175	0.0143665
661.253	0.0143384
661.331	0.0142103
661.410	0.0143139
661.488	0.0143176
661.566	0.0143449
661.644	0.0144013
661.722	0.0145195
661.800	0.0145356
661.878	0.0142921
661.956	0.0142792
662.035	0.0143102
662.113	0.0142810
662.191	0.0143266
662.269	0.0144143
662.347	0.0144090
662.425	0.0143472
662.503	0.0144234
662.581	0.0143757
662.660	0.0144763
662.738	0.0145156
662.816	0.0142742
662.894	0.0144222
662.972	0.0143965
663.050	0.0144507
663.128	0.0144231
663.206	0.0143921
663.285	0.0143794
663.363	0.0142105
663.441	0.0143985
663.519	0.0144843
663.597	0.0145039
663.675	0.0143935
663.753	0.0142868
663.831	0.0144479
663.910	0.0143939
663.988	0.0143050
664.066	0.0144144
664.144	0.0144380
664.222	0.0144781
664.300	0.0143407
664.378	0.0143394
664.456	0.0143208
664.535	0.0142980
664.613	0.0143674
664.691	0.0143196
664.769	0.0143156
664.847	0.0144102
664.925	0.0142764
665.003	0.0142323
665.081	0.0143330
665.160	0.0144071
665.238	0.0142902
665.316	0.0142418
665.394	0.0143315
665.472	0.0143788
665.550	0.0143390
665.628	0.0142245
665.706	0.0143264
665.785	0.0143296
665.863	0.0141856
665.941	0.0143678
666.019	0.0143803
666.097	0.0142126
666.175	0.0143093
666.253	0.0142419
666.331	0.0141749
666.410	0.0142451
666.488	0.0143700
666.566	0.0144092
666.644	0.0143054
666.722	0.0142533
666.800	0.0142151
666.878	0.0143222
666.956	0.0143009
667.035	0.0142765
667.113	0.0143294
667.191	0.0142790
667.269	0.0142904
667.347	0.0143207
667.425	0.0144008
667.503	0.0141652
667.581	0.0142702
667.660	0.0142338
667.738	0.0143752
667.816	0.0143030
667.894	0.0143311
667.972	0.0143144
668.050	0.0143544
668.128	0.0142517
668.206	0.0142233
668.285	0.0142377
668.363	0.0143516
668.441	0.0143186
668.519	0.0142889
668.597	0.0142789
668.675	0.0142131
668.753	0.0141651
668.831	0.0144094
668.910	0.0143604
668.988	0.0142950
669.066	0.0142909
669.144	0.0143614
669.222	0.0142525
669.300	0.0142647
669.378	0.0142952
669.456	0.0142268
669.535	0.0143054
669.613	0.0141917
669.691	0.0142836
669.769	0.0142871
669.847	0.0143438
669.925	0.0142672
670.003	0.0142277
670.081	0.0141261
670.160	0.0143668
670.238	0.0143354
670.316	0.0143706
670.394	0.0142951
670.472	0.0142663
670.550	0.0143199
670.628	0.0143629
670.706	0.0143383
670.785	0.0143391
670.863	0.0142389
670.941	0.0144209
671.019	0.0144503
671.097	0.0144337
671.175	0.0143541
671.253	0.0143075
671.331	0.0142182
671.410	0.0144977
671.488	0.0143600
671.566	0.0143103
671.644	0.0142950
671.722	0.0143015
671.800	0.0143711
671.878	0.0144318
671.956	0.0142979
672.035	0.0143887
672.113	0.0142306
672.191	0.0141766
672.269	0.0144485
672.347	0.0142143
672.425	0.0142338
672.503	0.0143147
672.581	0.0142715
672.660	0.0143491
672.738	0.0140282
672.816	0.0141177
672.894	0.0141805
672.972	0.0142359
673.050	0.0142201
673.128	0.0142385
673.206	0.0142912
673.285	0.0142139
673.363	0.0143587
673.441	0.0142953
673.519	0.0142506
673.597	0.0143223
673.675	0.0143557
673.753	0.0143552
673.831	0.0143781
673.910	0.0144072
673.988	0.0144118
674.066	0.0142844
674.144	0.0143295
674.222	0.0142041
674.300	0.0142406
674.378	0.0142770
674.456	0.0143336
674.535	0.0140508
674.613	0.0142915
674.691	0.0143941
674.769	0.0142706
674.847	0.0142622
674.925	0.0142731
675.003	0.0143506
675.081	0.0143607
675.160	0.0142276
675.238	0.0142722
675.316	0.0142692
675.394	0.0142848
675.472	0.0141637
675.550	0.0141760
675.628	0.0142376
675.706	0.0141642
675.785	0.0142168
675.863	0.0142461
675.941	0.0143253
676.019	0.0141638
676.097	0.0141821
676.175	0.0142420
676.253	0.0142303
676.331	0.0140750
676.410	0.0141464
676.488	0.0142755
676.566	0.0142347
676.644	0.0143234
676.722	0.0141645
676.800	0.0142359
676.878	0.0141188
676.956	0.0141518
677.035	0.0142088
677.113	0.0141135
677.191	0.0140583
677.269	0.0142406
677.347	0.0142783
677.425	0.0143439
677.503	0.0140660
677.581	0.0142492
677.660	0.0142376
677.738	0.0142114
677.816	0.0141274
677.894	0.0142508
677.972	0.0142352
678.050	0.0140904
678.128	0.0141669
678.206	0.0141468
678.285	0.0143109
678.363	0.0142613
678.441	0.0143590
678.519	0.0143829
678.597	0.0142821
678.675	0.0142963
678.753	0.0143963
678.831	0.0142923
678.910	0.0142883
678.988	0.0143208
679.066	0.0142799
679.144	0.0142516
679.222	0.0141390
679.300	0.0143986
679.378	0.0143623
679.456	0.0141925
679.535	0.0143048
679.613	0.0142606
679.691	0.0142834
679.769	0.0142418
679.847	0.0143557
679.925	0.0143171
680.003	0.0142541
680.081	0.0142093
680.160	0.0141022
680.238	0.0142661
680.316	0.0142127
680.394	0.0142624
680.472	0.0143592
680.550	0.0141801
680.628	0.0141591
680.706	0.0143227
680.785	0.0140421
680.863	0.0142267
680.941	0.0142825
681.019	0.0142441
681.097	0.0142630
681.175	0.0140961
681.253	0.0141540
681.331	0.0143018
681.410	0.0142384
681.488	0.0141486
681.566	0.0141024
681.644	0.0140844
681.722	0.0141792
681.800	0.0141774
681.878	0.0141173
681.956	0.0142028
682.035	0.0143263
682.113	0.0142764
682.191	0.0142401
682.269	0.0143790
682.347	0.0143828
682.425	0.0145617
682.503	0.0144305
682.581	0.0145951
682.660	0.0145158
682.738	0.0144467
682.816	0.0143622
682.894	0.0145058
682.972	0.0145332
683.050	0.0145785
683.128	0.0144907
683.206	0.0143256
683.285	0.0144046
683.363	0.0145276
683.441	0.0143811
683.519	0.0145942
683.597	0.0144093
683.675	0.0144669
683.753	0.0144183
683.831	0.0143582
683.910	0.0142538
683.988	0.0142960
684.066	0.0143810
684.144	0.0143850
684.222	0.0143633
684.300	0.0143740
684.378	0.0143632
684.456	0.0143867
684.535	0.0144725
684.613	0.0144109
684.691	0.0143546
684.769	0.0143558
684.847	0.0143990
684.925	0.0143665
685.003	0.0143810
685.081	0.0144316
685.160	0.0144395
685.238	0.0143107
685.316	0.0144163
685.394	0.0144648
685.472	0.0143449
685.550	0.0141822
685.628	0.0143890
685.706	0.0140807
685.785	0.0142146
685.863	0.0142858
685.941	0.0143855
686.019	0.0143777
686.097	0.0142895
686.175	0.0143416
686.253	0.0142376
686.331	0.0141991
686.410	0.0143376
686.488	0.0142609
686.566	0.0142832
686.644	0.0141992
686.722	0.0142513
686.800	0.0142394
686.878	0.0143520
686.956	0.0141187
687.035	0.0142887
687.113	0.0142223
687.191	0.0141634
687.269	0.0142594
687.347	0.0142000
687.425	0.0141374
687.503	0.0141991
687.581	0.0141600
687.660	0.0143019
687.738	0.0141595
687.816	0.0140992
687.894	0.0141612
687.972	0.0143693
688.050	0.0140765
688.128	0.0141634
688.206	0.0142922
688.285	0.0142981
688.363	0.0142582
688.441	0.0143600
688.519	0.0142345
688.597	0.0142921
688.675	0.0143475
688.753	0.0142246
688.831	0.0142226
688.910	0.0142390
688.988	0.0143740
689.066	0.0142425
689.144	0.0141160
689.222	0.0142303
689.300	0.0143208
689.378	0.0142313
689.456	0.0142052
689.535	0.0141045
689.613	0.0142976
689.691	0.0142729
689.769	0.0142625
689.847	0.0144314
689.925	0.0143303
690.003	0.0143571
690.081	0.0144250
690.160	0.0144540
690.238	0.0144142
690.316	0.0143493
690.394	0.0144608
690.472	0.0145247
690.550	0.0144196
690.628	0.0143536
690.706	0.0143625
690.785	0.0142496
690.863	0.0143028
690.941	0.0144643
691.019	0.0144131
691.097	0.0144209
691.175	0.0143306
691.253	0.0144471
691.331	0.0143848
691.410	0.0142991
691.488	0.0143240
691.566	0.0141518
691.644	0.0143011
691.722	0.0142409
691.800	0.0142730
691.878	0.0142054
691.956	0.0143926
692.035	0.0142780
692.113	0.0144204
692.191	0.0142401
692.269	0.0143153
692.347	0.0143067
692.425	0.0143707
692.503	0.0143019
692.581	0.0143387
692.660	0.0141689
692.738	0.0143829
692.816	0.0144285
692.894	0.0141996
692.972	0.0141967
693.050	0.0141344
693.128	0.0141281
693.206	0.0142184
693.285	0.0141501
693.363	0.0143181
693.441	0.0142308
693.519	0.0142500
693.597	0.0142300
693.675	0.0141851
693.753	0.0142218
693.831	0.0141028
693.910	0.0143433
693.988	0.0142700
694.066	0.0142817
694.144	0.0142991
694.222	0.0143177
694.300	0.0142295
694.378	0.0143161
694.456	0.0141693
694.535	0.0142356
694.613	0.0142316
694.691	0.0141519
694.769	0.0141808
694.847	0.0141877
694.925	0.0142889
695.003	0.0142307
695.081	0.0141068
695.160	0.0142889
695.238	0.0141695
695.316	0.0141364
695.394	0.0141576
695.472	0.0140781
695.550	0.0140405
695.628	0.0142155
695.706	0.0142537
695.785	0.0141309
695.863	0.0142488
695.941	0.0140640
696.019	0.0141273
696.097	0.0142633
696.175	0.0142751
696.253	0.0141451
696.331	0.0143258
696.410	0.0144011
696.488	0.0143020
696.566	0.0142752
696.644	0.0142576
696.722	0.0142416
696.800	0.0141994
696.878	0.0141213
696.956	0.0142932
697.035	0.0141866
697.113	0.0140794
697.191	0.0141537
697.269	0.0143295
697.347	0.0142762
697.425	0.0142392
697.503	0.0141175
697.581	0.0142933
697.660	0.0142103
697.738	0.0142918
697.816	0.0142279
697.894	0.0143131
697.972	0.0141278
698.050	0.0141415
698.128	0.0141491
698.206	0.0141776
698.285	0.0143437
698.363	0.0143036
698.441	0.0142271
698.519	0.0142741
698.597	0.0142889
698.675	0.0143635
698.753	0.0143362
698.831	0.0143217
698.910	0.0143217
698.988	0.0142538
699.066	0.0142716
699.144	0.0141489
699.222	0.0141668
699.300	0.0143025
699.378	0.0140619
699.456	0.0141881
699.535	0.0143748
699.613	0.0140976
699.691	0.0142537
699.769	0.0141821
699.847	0.0142269
699.925	0.0142776
700.003	0.0142352
700.081	0.0141046
700.160	0.0140694
700.238	0.0141896
700.316	0.0142278
700.394	0.0142241
700.472	0.0141568
700.550	0.0142036
700.628	0.0141769
700.706	0.0142781
700.785	0.0142271
700.863	0.0141743
700.941	0.0141367
701.019	0.0142800
701.097	0.0141948
701.175	0.0142056
701.253	0.0142069
701.331	0.0141584
701.410	0.0140470
701.488	0.0143397
701.566	0.0141554
701.644	0.0143032
701.722	0.0142622
701.800	0.0141950
701.878	0.0142242
701.956	0.0142297
702.035	0.0143854
702.113	0.0142893
702.191	0.0143484
702.269	0.0143966
702.347	0.0144397
702.425	0.0143089
702.503	0.0143504
702.581	0.0144057
702.660	0.0143162
702.738	0.0143427
702.816	0.0143417
702.894	0.0143178
702.972	0.0143389
703.050	0.0143676
703.128	0.0143329
703.206	0.0142667
703.285	0.0142200
703.363	0.0142795
703.441	0.0142245
703.519	0.0143690
703.597	0.0143133
703.675	0.0143513
703.753	0.0144713
703.831	0.0143575
703.910	0.0143468
703.988	0.0143089
704.066	0.0143348
704.144	0.0143953
704.222	0.0143941
704.300	0.0143327
704.378	0.0145166
704.456	0.0144492
704.535	0.0145390
704.613	0.0144176
704.691	0.0144330
704.769	0.0142596
704.847	0.0143907
704.925	0.0143534
705.003	0.0144241
705.081	0.0144353
705.160	0.0144332
705.238	0.0143736
705.316	0.0143349
705.394	0.0144063
705.472	0.0144032
705.550	0.0143922
705.628	0.0144985
705.706	0.0142664
705.785	0.0142542
705.863	0.0141892
705.941	0.0144092
706.019	0.0144495
706.097	0.0142376
706.175	0.0141392
706.253	0.0142155
706.331	0.0142622
706.410	0.0144157
706.488	0.0142564
706.566	0.0142731
706.644	0.0143238
706.722	0.0145480
706.800	0.0143202
706.878	0.0140981
706.956	0.0142540
707.035	0.0141631
707.113	0.0143185
707.191	0.0143496
707.269	0.0143492
707.347	0.0143240
707.425	0.0142722
707.503	0.0142297
707.581	0.0141341
707.660	0.0143316
707.738	0.0144541
707.816	0.0143507
707.894	0.0142255
707.972	0.0142852
708.050	0.0143996
708.128	0.0143139
708.206	0.0143047
708.285	0.0144034
708.363	0.0143108
708.441	0.0145341
708.519	0.0144555
708.597	0.0144867
708.675	0.0145389
708.753	0.0145486
708.831	0.0145346
708.910	0.0145254
708.988	0.0144608
709.066	0.0145856
709.144	0.0145017
709.222	0.0146744
709.300	0.0145743
709.378	0.0146785
709.456	0.0145924
709.535	0.0144107
709.613	0.0144656
709.691	0.0144399
709.769	0.0143859
709.847	0.0145266
709.925	0.0144727
710.003	0.0144828
710.081	0.0144810
710.160	0.0145428
710.238	0.0144447
710.316	0.0144671
710.394	0.0144279
710.472	0.0145047
710.550	0.0144821
710.628	0.0145025
710.706	0.0146236
710.785	0.0145364
710.863	0.0144789
710.941	0.0144793
711.019	0.0144621
711.097	0.0144768
711.175	0.0144820
711.253	0.0143752
711.331	0.0144237
711.410	0.0144511
711.488	0.0144086
711.566	0.0143844
711.644	0.0144153
711.722	0.0144730
711.800	0.0145498
711.878	0.0144634
711.956	0.0144216
712.035	0.0144077
712.113	0.0145237
712.191	0.0143976
712.269	0.0145417
712.347	0.0144946
712.425	0.0143035
712.503	0.0142290
712.581	0.0143427
712.660	0.0143659
712.738	0.0141646
712.816	0.0141898
712.894	0.0142851
712.972	0.0142692
713.050	0.0142429
713.128	0.0142767
713.206	0.0142899
713.285	0.0143391
713.363	0.0142878
713.441	0.0143565
713.519	0.0142841
713.597	0.0142622
713.675	0.0142227
713.753	0.0142883
713.831	0.0141981
713.910	0.0144112
713.988	0.0144348
714.066	0.0142523
714.144	0.0141558
714.222	0.0143295
714.300	0.0143347
714.378	0.0141239
714.456	0.0143008
714.535	0.0142245
714.613	0.0142618
714.691	0.0143658
714.769	0.0142780
714.847	0.0142051
714.925	0.0142229
715.003	0.0142977
715.081	0.0142755
715.160	0.0143242
715.238	0.0142802
715.316	0.0143361
715.394	0.0143620
715.472	0.0144406
715.550	0.0142825
715.628	0.0142635
715.706	0.0142955
715.785	0.0143274
715.863	0.0143108
715.941	0.0143153
716.019	0.0143213
716.097	0.0143174
716.175	0.0143584
716.253	0.0142535
716.331	0.0141989
716.410	0.0143108
716.488	0.0143202
716.566	0.0143809
716.644	0.0142348
716.722	0.0143050
716.800	0.0142809
716.878	0.0142633
716.956	0.0142139
717.035	0.0141796
717.113	0.0143436
717.191	0.0142815
717.269	0.0141882
717.347	0.0143712
717.425	0.0143264
717.503	0.0141994
717.581	0.0141833
717.660	0.0142277
717.738	0.0143491
717.816	0.0142657
717.894	0.0142937
717.972	0.0142255
718.050	0.0142239
718.128	0.0144554
718.206	0.0141837
718.285	0.0142858
718.363	0.0143083
718.441	0.0143754
718.519	0.0142758
718.597	0.0142021
718.675	0.0144800
718.753	0.0142300
718.831	0.0143572
718.910	0.0142917
718.988	0.0143140
719.066	0.0143608
719.144	0.0141289
719.222	0.0143044
719.300	0.0143507
719.378	0.0143499
719.456	0.0143640
719.535	0.0141584
719.613	0.0141001
719.691	0.0142632
719.769	0.0141692
719.847	0.0142913
719.925	0.0142715
720.003	0.0142565
720.081	0.0143028
720.160	0.0143978
720.238	0.0143359
720.316	0.0143318
720.394	0.0143684
720.472	0.0143121
720.550	0.0141947
720.628	0.0144273
720.706	0.0144852
720.785	0.0142859
720.863	0.0141286
720.941	0.0143935
721.019	0.0142884
721.097	0.0141122
721.175	0.0143496
721.253	0.0143729
721.331	0.0142811
721.410	0.0142622
721.488	0.0142013
721.566	0.0141901
721.644	0.0142100
721.722	0.0142653
721.800	0.0143361
721.878	0.0143958
721.956	0.0144506
722.035	0.0144090
722.113	0.0143146
722.191	0.0144582
722.269	0.0143208
722.347	0.0142539
722.425	0.0143642
722.503	0.0144451
722.581	0.0143968
722.660	0.0144510
722.738	0.0145427
722.816	0.0145302
722.894	0.0143618
722.972	0.0142487
723.050	0.0143600
723.128	0.0144183
723.206	0.0143647
723.285	0.0142876
723.363	0.0143549
723.441	0.0143761
723.519	0.0143374
723.597	0.0142844
723.675	0.0143092
723.753	0.0142706
723.831	0.0143287
723.910	0.0142175
723.988	0.0142910
724.066	0.0143666
724.144	0.0143375
724.222	0.0142941
724.300	0.0143586
724.378	0.0144153
724.456	0.0143390
724.535	0.0141421
724.613	0.0141416
724.691	0.0142708
724.769	0.0143937
724.847	0.0144342
724.925	0.0142685
725.003	0.0142834
725.081	0.0141804
725.160	0.0143064
725.238	0.0142899
725.316	0.0141663
725.394	0.0140977
725.472	0.0142606
725.550	0.0143996
725.628	0.0142600
725.706	0.0142970
725.785	0.0144200
725.863	0.0142249
725.941	0.0143045
726.019	0.0143369
726.097	0.0143666
726.175	0.0141920
726.253	0.0143159
726.331	0.0143176
726.410	0.0143223
726.488	0.0143246
726.566	0.0142944
726.644	0.0143009
726.722	0.0142268
726.800	0.0143086
726.878	0.0142984
726.956	0.0141953
727.035	0.0143102
727.113	0.0142801
727.191	0.0142901
727.269	0.0142603
727.347	0.0141934
727.425	0.0143962
727.503	0.0145585
727.581	0.0143305
727.660	0.0142517
727.738	0.0142603
727.816	0.0143542
727.894	0.0142494
727.972	0.0142205
728.050	0.0142458
728.128	0.0143359
728.206	0.0142854
728.285	0.0142956
728.363	0.0143183
728.441	0.0142533
728.519	0.0142542
728.597	0.0144606
728.675	0.0142677
728.753	0.0142551
728.831	0.0143600
728.910	0.0143185
728.988	0.0143018
729.066	0.0144429
729.144	0.0143328
729.222	0.0142262
729.300	0.0143969
729.378	0.0144170
729.456	0.0143279
729.535	0.0143732
729.613	0.0144812
729.691	0.0143594
729.769	0.0143304
729.847	0.0144035
729.925	0.0143281
730.003	0.0143219
730.081	0.0144965
730.160	0.0143629
730.238	0.0144713
730.316	0.0145084
730.394	0.0143873
730.472	0.0144379
730.550	0.0143253
730.628	0.0142346
730.706	0.0143570
730.785	0.0143624
730.863	0.0142490
730.941	0.0142712
731.019	0.0143671
731.097	0.0143347
731.175	0.0143674
731.253	0.0143382
731.331	0.0142967
731.410	0.0142995
731.488	0.0144243
731.566	0.0143044
731.644	0.0142400
731.722	0.0145007
731.800	0.0143659
731.878	0.0143225
731.956	0.0143246
732.035	0.0142137
732.113	0.0143420
732.191	0.0142294
732.269	0.0143156
732.347	0.0143445
732.425	0.0143045
732.503	0.0143951
732.581	0.0143005
732.660	0.0143107
732.738	0.0143902
732.816	0.0142971
732.894	0.0144449
732.972	0.0142957
733.050	0.0143066
733.128	0.0142532
733.206	0.0142739
733.285	0.0142391
733.363	0.0142571
733.441	0.0143611
733.519	0.0142667
733.597	0.0143430
733.675	0.0143665
733.753	0.0143719
733.831	0.0143154
733.910	0.0141421
733.988	0.0143323
734.066	0.0141792
734.144	0.0142554
734.222	0.0144930
734.300	0.0144607
734.378	0.0142374
734.456	0.0142488
734.535	0.0142503
734.613	0.0142915
734.691	0.0142177
734.769	0.0143153
734.847	0.0143330
734.925	0.0143378
735.003	0.0144518
735.081	0.0143969
735.160	0.0142521
735.238	0.0142823
735.316	0.0143398
735.394	0.0142542
735.472	0.0142639
735.550	0.0143592
735.628	0.0143241
735.706	0.0144792
735.785	0.0143958
735.863	0.0143906
735.941	0.0144341
736.019	0.0143410
736.097	0.0143247
736.175	0.0144785
736.253	0.0145480
736.331	0.0142459
736.410	0.0145355
736.488	0.0144949
736.566	0.0145338
736.644	0.0143231
736.722	0.0145174
736.800	0.0144865
736.878	0.0145515
736.956	0.0144204
737.035	0.0143731
737.113	0.0144249
737.191	0.0144408
737.269	0.0143548
737.347	0.0144730
737.425	0.0144103
737.503	0.0143089
737.581	0.0143449
737.660	0.0144163
737.738	0.0143315
737.816	0.0144600
737.894	0.0145306
737.972	0.0145560
738.050	0.0144264
738.128	0.0143353
738.206	0.0144925
738.285	0.0144144
738.363	0.0143598
738.441	0.0143881
738.519	0.0145055
738.597	0.0144040
738.675	0.0143681
738.753	0.0144137
738.831	0.0145069
738.910	0.0143462
738.988	0.0142915
739.066	0.0143670
739.144	0.0143583
739.222	0.0143741
739.300	0.0144286
739.378	0.0144632
739.456	0.0143926
739.535	0.0145244
739.613	0.0144500
739.691	0.0145412
739.769	0.0143761
739.847	0.0144438
739.925	0.0144506
740.003	0.0144661
740.081	0.0145604
740.160	0.0143695
740.238	0.0142930
740.316	0.0143070
740.394	0.0144735
740.472	0.0144768
740.550	0.0145043
740.628	0.0144521
740.706	0.0143868
740.785	0.0143500
740.863	0.0143122
740.941	0.0144095
741.019	0.0143925
741.097	0.0143182
741.175	0.0142737
741.253	0.0143532
741.331	0.0143813
741.410	0.0143353
741.488	0.0144126
741.566	0.0144379
741.644	0.0143719
741.722	0.0143128
741.800	0.0143049
741.878	0.0143223
741.956	0.0143499
742.035	0.0143092
742.113	0.0143887
742.191	0.0143090
742.269	0.0142133
742.347	0.0142979
742.425	0.0143584
742.503	0.0143007
742.581	0.0141705
742.660	0.0143140
742.738	0.0143650
742.816	0.0143833
742.894	0.0142365
742.972	0.0143202
743.050	0.0143739
743.128	0.0142684
743.206	0.0144046
743.285	0.0143092
743.363	0.0144125
743.441	0.0143991
743.519	0.0144169
743.597	0.0143625
743.675	0.0142698
743.753	0.0144746
743.831	0.0144916
743.910	0.0143861
743.988	0.0142995
744.066	0.0144190
744.144	0.0143508
744.222	0.0144376
744.300	0.0145418
744.378	0.0143215
744.456	0.0144186
744.535	0.0144311
744.613	0.0144560
744.691	0.0144566
744.769	0.0144292
744.847	0.0143571
744.925	0.0143310
745.003	0.0142835
745.081	0.0144414
745.160	0.0144041
745.238	0.0143372
745.316	0.0142950
745.394	0.0142950
745.472	0.0142915
745.550	0.0143146
745.628	0.0142139
745.706	0.0142561
