05/06/2022	18:37:23	Ver.	4.1	UNKNOWN
Optical Delay	600.021766	Delta X		0.078125	Sweeps	1	Scan Rate	0/0
Coordinates	Axis 1	NaN	Axis 2	NaN	Axis 3	NaN	Axis 4	NaN	Axis 5	NaN	Axis 6	0.000000
TX Power	0.000000	RX Power	0.000000

600.022	0.0130659
600.100	0.0129342
600.178	0.0130855
600.256	0.0132063
600.334	0.0130144
600.412	0.0129805
600.491	0.0130537
600.569	0.0130696
600.647	0.0130026
600.725	0.0129667
600.803	0.0130906
600.881	0.0130224
600.959	0.0129309
601.037	0.0130183
601.116	0.0129559
601.194	0.0131023
601.272	0.0130713
601.350	0.0130317
601.428	0.0131819
601.506	0.0129578
601.584	0.0131197
601.662	0.0131032
601.741	0.0131800
601.819	0.0129587
601.897	0.0129726
601.975	0.0131191
602.053	0.0130763
602.131	0.0130987
602.209	0.0129905
602.287	0.0131017
602.366	0.0131469
602.444	0.0130253
602.522	0.0129279
602.600	0.0132131
602.678	0.0132626
602.756	0.0131313
602.834	0.0129668
602.912	0.0129731
602.991	0.0130771
603.069	0.0130468
603.147	0.0129691
603.225	0.0130341
603.303	0.0131087
603.381	0.0130052
603.459	0.0131341
603.537	0.0130659
603.616	0.0130960
603.694	0.0130595
603.772	0.0130439
603.850	0.0130537
603.928	0.0130498
604.006	0.0130093
604.084	0.0130521
604.162	0.0129903
604.241	0.0130825
604.319	0.0130622
604.397	0.0131026
604.475	0.0130116
604.553	0.0131245
604.631	0.0131218
604.709	0.0131586
604.787	0.0130999
604.866	0.0132413
604.944	0.0130650
605.022	0.0131074
605.100	0.0129620
605.178	0.0130035
605.256	0.0130859
605.334	0.0131905
605.412	0.0130773
605.491	0.0131035
605.569	0.0130116
605.647	0.0130106
605.725	0.0130346
605.803	0.0132384
605.881	0.0130919
605.959	0.0130903
606.037	0.0130283
606.116	0.0130724
606.194	0.0130563
606.272	0.0129619
606.350	0.0130937
606.428	0.0130452
606.506	0.0130260
606.584	0.0130490
606.662	0.0130153
606.741	0.0130492
606.819	0.0130640
606.897	0.0130325
606.975	0.0132020
607.053	0.0131052
607.131	0.0129383
607.209	0.0130616
607.287	0.0130502
607.366	0.0130581
607.444	0.0128784
607.522	0.0131200
607.600	0.0131410
607.678	0.0129987
607.756	0.0131567
607.834	0.0132273
607.912	0.0129649
607.991	0.0130422
608.069	0.0130935
608.147	0.0130851
608.225	0.0131098
608.303	0.0131239
608.381	0.0130302
608.459	0.0131644
608.537	0.0130305
608.616	0.0130304
608.694	0.0129565
608.772	0.0130215
608.850	0.0129372
608.928	0.0130927
609.006	0.0129518
609.084	0.0131860
609.162	0.0129598
609.241	0.0129491
609.319	0.0131108
609.397	0.0130300
609.475	0.0131071
609.553	0.0130209
609.631	0.0130727
609.709	0.0130952
609.787	0.0131524
609.866	0.0130090
609.944	0.0129417
610.022	0.0130759
610.100	0.0129494
610.178	0.0130038
610.256	0.0129339
610.334	0.0130370
610.412	0.0129565
610.491	0.0130525
610.569	0.0130264
610.647	0.0129699
610.725	0.0130373
610.803	0.0131200
610.881	0.0130407
610.959	0.0128925
611.037	0.0130896
611.116	0.0130739
611.194	0.0130956
611.272	0.0131278
611.350	0.0129781
611.428	0.0130104
611.506	0.0130927
611.584	0.0131240
611.662	0.0129415
611.741	0.0131005
611.819	0.0130434
611.897	0.0130033
611.975	0.0130463
612.053	0.0131025
612.131	0.0130590
612.209	0.0129652
612.287	0.0130584
612.366	0.0129510
612.444	0.0131519
612.522	0.0132047
612.600	0.0130772
612.678	0.0130462
612.756	0.0130784
612.834	0.0131560
612.912	0.0132369
612.991	0.0129134
613.069	0.0129849
613.147	0.0130266
613.225	0.0131252
613.303	0.0130897
613.381	0.0130087
613.459	0.0130965
613.537	0.0130711
613.616	0.0129315
613.694	0.0129786
613.772	0.0130344
613.850	0.0130515
613.928	0.0129375
614.006	0.0130853
614.084	0.0129139
614.162	0.0129047
614.241	0.0130637
614.319	0.0130259
614.397	0.0129982
614.475	0.0129869
614.553	0.0130566
614.631	0.0131276
614.709	0.0130384
614.787	0.0131148
614.866	0.0130737
614.944	0.0130830
615.022	0.0129552
615.100	0.0129437
615.178	0.0129771
615.256	0.0130498
615.334	0.0131033
615.412	0.0130432
615.491	0.0131231
615.569	0.0130716
615.647	0.0129137
615.725	0.0131154
615.803	0.0131084
615.881	0.0128874
615.959	0.0129788
616.037	0.0129716
616.116	0.0130101
616.194	0.0130447
616.272	0.0129965
616.350	0.0129848
616.428	0.0130226
616.506	0.0130212
616.584	0.0129810
616.662	0.0131320
616.741	0.0131397
616.819	0.0130558
616.897	0.0129976
616.975	0.0129767
617.053	0.0130199
617.131	0.0130565
617.209	0.0130635
617.287	0.0129569
617.366	0.0129962
617.444	0.0129343
617.522	0.0130201
617.600	0.0129206
617.678	0.0130344
617.756	0.0131074
617.834	0.0130886
617.912	0.0130692
617.991	0.0130739
618.069	0.0130274
618.147	0.0130083
618.225	0.0130186
618.303	0.0131757
618.381	0.0131113
618.459	0.0129761
618.537	0.0131209
618.616	0.0130156
618.694	0.0130685
618.772	0.0130011
618.850	0.0129868
618.928	0.0131071
619.006	0.0130224
619.084	0.0130013
619.162	0.0130559
619.241	0.0130473
619.319	0.0130396
619.397	0.0130470
619.475	0.0130574
619.553	0.0130844
619.631	0.0131204
619.709	0.0130157
619.787	0.0130167
619.866	0.0129231
619.944	0.0129439
620.022	0.0130491
620.100	0.0129695
620.178	0.0132458
620.256	0.0130491
620.334	0.0131457
620.412	0.0130492
620.491	0.0129409
620.569	0.0130602
620.647	0.0129469
620.725	0.0129950
620.803	0.0130457
620.881	0.0129694
620.959	0.0130807
621.037	0.0130145
621.116	0.0129839
621.194	0.0129472
621.272	0.0130869
621.350	0.0129980
621.428	0.0130228
621.506	0.0130173
621.584	0.0129675
621.662	0.0128995
621.741	0.0130711
621.819	0.0131461
621.897	0.0130459
621.975	0.0130292
622.053	0.0130375
622.131	0.0130518
622.209	0.0131040
622.287	0.0130886
622.366	0.0130668
622.444	0.0129367
622.522	0.0129573
622.600	0.0129877
622.678	0.0130128
622.756	0.0130302
622.834	0.0130869
622.912	0.0131401
622.991	0.0130424
623.069	0.0130123
623.147	0.0129377
623.225	0.0130344
623.303	0.0130593
623.381	0.0129619
623.459	0.0129181
623.537	0.0130825
623.616	0.0130668
623.694	0.0131438
623.772	0.0130468
623.850	0.0131483
623.928	0.0130107
624.006	0.0130460
624.084	0.0131199
624.162	0.0130704
624.241	0.0130167
624.319	0.0129894
624.397	0.0130539
624.475	0.0129625
624.553	0.0129252
624.631	0.0129959
624.709	0.0131461
624.787	0.0130641
624.866	0.0130482
624.944	0.0129955
625.022	0.0129382
625.100	0.0130667
625.178	0.0131229
625.256	0.0129600
625.334	0.0130407
625.412	0.0130402
625.491	0.0130386
625.569	0.0130041
625.647	0.0130707
625.725	0.0130683
625.803	0.0130740
625.881	0.0129562
625.959	0.0129671
626.037	0.0129761
626.116	0.0129475
626.194	0.0131251
626.272	0.0130185
626.350	0.0130441
626.428	0.0129516
626.506	0.0130000
626.584	0.0130306
626.662	0.0130573
626.741	0.0130741
626.819	0.0130982
626.897	0.0129527
626.975	0.0129887
627.053	0.0131079
627.131	0.0131955
627.209	0.0131248
627.287	0.0130167
627.366	0.0130614
627.444	0.0130179
627.522	0.0129755
627.600	0.0130574
627.678	0.0130904
627.756	0.0131467
627.834	0.0130329
627.912	0.0129821
627.991	0.0129324
628.069	0.0130516
628.147	0.0130903
628.225	0.0131514
628.303	0.0130661
628.381	0.0130055
628.459	0.0131727
628.537	0.0131777
628.616	0.0130010
628.694	0.0131078
628.772	0.0130837
628.850	0.0129990
628.928	0.0131471
629.006	0.0131257
629.084	0.0131159
629.162	0.0130161
629.241	0.0129383
629.319	0.0128829
629.397	0.0130267
629.475	0.0130024
629.553	0.0130354
629.631	0.0130347
629.709	0.0130810
629.787	0.0129815
629.866	0.0130666
629.944	0.0130587
630.022	0.0130144
630.100	0.0128783
630.178	0.0130966
630.256	0.0130751
630.334	0.0131231
630.412	0.0130836
630.491	0.0130733
630.569	0.0129607
630.647	0.0130472
630.725	0.0130028
630.803	0.0130448
630.881	0.0130968
630.959	0.0130560
631.037	0.0129890
631.116	0.0129872
631.194	0.0129744
631.272	0.0130338
631.350	0.0130540
631.428	0.0130975
631.506	0.0131891
631.584	0.0130531
631.662	0.0130080
631.741	0.0129153
631.819	0.0130675
631.897	0.0131036
631.975	0.0129403
632.053	0.0130087
632.131	0.0129302
632.209	0.0129330
632.287	0.0131212
632.366	0.0130178
632.444	0.0130183
632.522	0.0129396
632.600	0.0130557
632.678	0.0131296
632.756	0.0129097
632.834	0.0129494
632.912	0.0129356
632.991	0.0131551
633.069	0.0129924
633.147	0.0130668
633.225	0.0131109
633.303	0.0129731
633.381	0.0130336
633.459	0.0129467
633.537	0.0130058
633.616	0.0129745
633.694	0.0130374
633.772	0.0130521
633.850	0.0129875
633.928	0.0129760
634.006	0.0129961
634.084	0.0130839
634.162	0.0131394
634.241	0.0129852
634.319	0.0130354
634.397	0.0130844
634.475	0.0130447
634.553	0.0132144
634.631	0.0132024
634.709	0.0131131
634.787	0.0129874
634.866	0.0131120
634.944	0.0130247
635.022	0.0130939
635.100	0.0130822
635.178	0.0130540
635.256	0.0129798
635.334	0.0132330
635.412	0.0131299
635.491	0.0131660
635.569	0.0131380
635.647	0.0130577
635.725	0.0131022
635.803	0.0131624
635.881	0.0130648
635.959	0.0130923
636.037	0.0130685
636.116	0.0130669
636.194	0.0131159
636.272	0.0130701
636.350	0.0130816
636.428	0.0130612
636.506	0.0130965
636.584	0.0129842
636.662	0.0130594
636.741	0.0130997
636.819	0.0130140
636.897	0.0131554
636.975	0.0131302
637.053	0.0130800
637.131	0.0129595
637.209	0.0130221
637.287	0.0131467
637.366	0.0131504
637.444	0.0131107
637.522	0.0130556
637.600	0.0131268
637.678	0.0130084
637.756	0.0130565
637.834	0.0131657
637.912	0.0130727
637.991	0.0130787
638.069	0.0129882
638.147	0.0132065
638.225	0.0130225
638.303	0.0129727
638.381	0.0129965
638.459	0.0131551
638.537	0.0131493
638.616	0.0131273
638.694	0.0130769
638.772	0.0130773
638.850	0.0130045
638.928	0.0130412
639.006	0.0130065
639.084	0.0130683
639.162	0.0129988
639.241	0.0129312
639.319	0.0130603
639.397	0.0130943
639.475	0.0130669
639.553	0.0129308
639.631	0.0131542
639.709	0.0130575
639.787	0.0130627
639.866	0.0130082
639.944	0.0131544
640.022	0.0130296
640.100	0.0131155
640.178	0.0129755
640.256	0.0129881
640.334	0.0131271
640.412	0.0131017
640.491	0.0130184
640.569	0.0130727
640.647	0.0130907
640.725	0.0130169
640.803	0.0131865
640.881	0.0130500
640.959	0.0130441
641.037	0.0130602
641.116	0.0131075
641.194	0.0130564
641.272	0.0131490
641.350	0.0130917
641.428	0.0130270
641.506	0.0129967
641.584	0.0129736
641.662	0.0132771
641.741	0.0130263
641.819	0.0130137
641.897	0.0130297
641.975	0.0132021
642.053	0.0130524
642.131	0.0130357
642.209	0.0131235
642.287	0.0130709
642.366	0.0131310
642.444	0.0129588
642.522	0.0130037
642.600	0.0130553
642.678	0.0130769
642.756	0.0131300
642.834	0.0129853
642.912	0.0130042
642.991	0.0130751
643.069	0.0130289
643.147	0.0129970
643.225	0.0129446
643.303	0.0129917
643.381	0.0130787
643.459	0.0130260
643.537	0.0130951
643.616	0.0131285
643.694	0.0129770
643.772	0.0129182
643.850	0.0129895
643.928	0.0130624
644.006	0.0129041
644.084	0.0128865
644.162	0.0130412
644.241	0.0128187
644.319	0.0129678
644.397	0.0130032
644.475	0.0130074
644.553	0.0129224
644.631	0.0131085
644.709	0.0130025
644.787	0.0130395
644.866	0.0130858
644.944	0.0129700
645.022	0.0129623
645.100	0.0130692
645.178	0.0130492
645.256	0.0130578
645.334	0.0129675
645.412	0.0129941
645.491	0.0130364
645.569	0.0129456
645.647	0.0131750
645.725	0.0132072
645.803	0.0130114
645.881	0.0129499
645.959	0.0130255
646.037	0.0130389
646.116	0.0130151
646.194	0.0130875
646.272	0.0130750
646.350	0.0131129
646.428	0.0130533
646.506	0.0129778
646.584	0.0129578
646.662	0.0131853
646.741	0.0131687
646.819	0.0129749
646.897	0.0130130
646.975	0.0130543
647.053	0.0129879
647.131	0.0130543
647.209	0.0131845
647.287	0.0131780
647.366	0.0130090
647.444	0.0129617
647.522	0.0130135
647.600	0.0130478
647.678	0.0129467
647.756	0.0129208
647.834	0.0129359
647.912	0.0130322
647.991	0.0131021
648.069	0.0132314
648.147	0.0130267
648.225	0.0131040
648.303	0.0129980
648.381	0.0129840
648.459	0.0128683
648.537	0.0130361
648.616	0.0131503
648.694	0.0130232
648.772	0.0130377
648.850	0.0131296
648.928	0.0130472
649.006	0.0129749
649.084	0.0130679
649.162	0.0131044
649.241	0.0130510
649.319	0.0130706
649.397	0.0130619
649.475	0.0130764
649.553	0.0129288
649.631	0.0129087
649.709	0.0129394
649.787	0.0131197
649.866	0.0131036
649.944	0.0130573
650.022	0.0129979
650.100	0.0130054
650.178	0.0129989
650.256	0.0129861
650.334	0.0131480
650.412	0.0131117
650.491	0.0130457
650.569	0.0129794
650.647	0.0130367
650.725	0.0130343
650.803	0.0129874
650.881	0.0130339
650.959	0.0130617
651.037	0.0130240
651.116	0.0130895
651.194	0.0129963
651.272	0.0130878
651.350	0.0130219
651.428	0.0129967
651.506	0.0130321
651.584	0.0131436
651.662	0.0130091
651.741	0.0131276
651.819	0.0131293
651.897	0.0129340
651.975	0.0130463
652.053	0.0130237
652.131	0.0129067
652.209	0.0129655
652.287	0.0130749
652.366	0.0130861
652.444	0.0130534
652.522	0.0130354
652.600	0.0129205
652.678	0.0129773
652.756	0.0130421
652.834	0.0129009
652.912	0.0130912
652.991	0.0131282
653.069	0.0130121
653.147	0.0130483
653.225	0.0129115
653.303	0.0129604
653.381	0.0132185
653.459	0.0131123
653.537	0.0130598
653.616	0.0130051
653.694	0.0130022
653.772	0.0130099
653.850	0.0129549
653.928	0.0129726
654.006	0.0131243
654.084	0.0129941
654.162	0.0129504
654.241	0.0130038
654.319	0.0129543
654.397	0.0131326
654.475	0.0130206
654.553	0.0130953
654.631	0.0129922
654.709	0.0129827
654.787	0.0129270
654.866	0.0130731
654.944	0.0130611
655.022	0.0130874
655.100	0.0130074
655.178	0.0130739
655.256	0.0130774
655.334	0.0130665
655.412	0.0132037
655.491	0.0131629
655.569	0.0130011
655.647	0.0131797
655.725	0.0129974
655.803	0.0130724
655.881	0.0131552
655.959	0.0131451
656.037	0.0129710
656.116	0.0129890
656.194	0.0131435
656.272	0.0131137
656.350	0.0130170
656.428	0.0130585
656.506	0.0130099
656.584	0.0128945
656.662	0.0130848
656.741	0.0129282
656.819	0.0131441
656.897	0.0129878
656.975	0.0129756
657.053	0.0131831
657.131	0.0130889
657.209	0.0130456
657.287	0.0130068
657.366	0.0130969
657.444	0.0130578
657.522	0.0129745
657.600	0.0130924
657.678	0.0129942
657.756	0.0130338
657.834	0.0130232
657.912	0.0129372
657.991	0.0132253
658.069	0.0128661
658.147	0.0130168
658.225	0.0130880
658.303	0.0130726
658.381	0.0131071
658.459	0.0130907
658.537	0.0131059
658.616	0.0130492
658.694	0.0131985
658.772	0.0131971
658.850	0.0130543
658.928	0.0130901
659.006	0.0130073
659.084	0.0129888
659.162	0.0131595
659.241	0.0131140
659.319	0.0131142
659.397	0.0129752
659.475	0.0130640
659.553	0.0131112
659.631	0.0129254
659.709	0.0130735
659.787	0.0130453
659.866	0.0131120
659.944	0.0129312
660.022	0.0129330
660.100	0.0130541
660.178	0.0130160
660.256	0.0131039
660.334	0.0130378
660.412	0.0129893
660.491	0.0130817
660.569	0.0130682
660.647	0.0129200
660.725	0.0130870
660.803	0.0130110
660.881	0.0128492
660.959	0.0131309
661.037	0.0131351
661.116	0.0130807
661.194	0.0129651
661.272	0.0130475
661.350	0.0130156
661.428	0.0132330
661.506	0.0130310
661.584	0.0130202
661.662	0.0131350
661.741	0.0129346
661.819	0.0129052
661.897	0.0130271
661.975	0.0131509
662.053	0.0131478
662.131	0.0130769
662.209	0.0130194
662.287	0.0131218
662.366	0.0130565
662.444	0.0129465
662.522	0.0130336
662.600	0.0129408
662.678	0.0131244
662.756	0.0130276
662.834	0.0130136
662.912	0.0129691
662.991	0.0129410
663.069	0.0131429
663.147	0.0131818
663.225	0.0130167
663.303	0.0130152
663.381	0.0130537
663.459	0.0130104
663.537	0.0131469
663.616	0.0130301
663.694	0.0130295
663.772	0.0130499
663.850	0.0129598
663.928	0.0130570
664.006	0.0130739
664.084	0.0130312
664.162	0.0130905
664.241	0.0129910
664.319	0.0130663
664.397	0.0130800
664.475	0.0131678
664.553	0.0130200
664.631	0.0130912
664.709	0.0131258
664.787	0.0131362
664.866	0.0130520
664.944	0.0131196
665.022	0.0130623
665.100	0.0130412
665.178	0.0131128
665.256	0.0130398
665.334	0.0131465
665.412	0.0131683
665.491	0.0129990
665.569	0.0130415
665.647	0.0131647
665.725	0.0130798
665.803	0.0129267
665.881	0.0129730
665.959	0.0130819
666.037	0.0131188
666.116	0.0130705
666.194	0.0130576
666.272	0.0129475
666.350	0.0131953
666.428	0.0130499
666.506	0.0130569
666.584	0.0130334
666.662	0.0129217
666.741	0.0130279
666.819	0.0131161
666.897	0.0130515
666.975	0.0131278
667.053	0.0131295
667.131	0.0131905
667.209	0.0131085
667.287	0.0130087
667.366	0.0131445
667.444	0.0131377
667.522	0.0129161
667.600	0.0130441
667.678	0.0132486
667.756	0.0131915
667.834	0.0130062
667.912	0.0129388
667.991	0.0129031
668.069	0.0130561
668.147	0.0132610
668.225	0.0131083
668.303	0.0131075
668.381	0.0130131
668.459	0.0129874
668.537	0.0130659
668.616	0.0130547
668.694	0.0131899
668.772	0.0129142
668.850	0.0130553
668.928	0.0131017
669.006	0.0130138
669.084	0.0130760
669.162	0.0129984
669.241	0.0130966
669.319	0.0131326
669.397	0.0130666
669.475	0.0129111
669.553	0.0129986
669.631	0.0129320
669.709	0.0128770
669.787	0.0130202
669.866	0.0129905
669.944	0.0129434
670.022	0.0129698
670.100	0.0129535
670.178	0.0128747
670.256	0.0128815
670.334	0.0129119
670.412	0.0129169
670.491	0.0130212
670.569	0.0128490
670.647	0.0129103
670.725	0.0130058
670.803	0.0129105
670.881	0.0130051
670.959	0.0129509
671.037	0.0129823
671.116	0.0129312
671.194	0.0129269
671.272	0.0128676
671.350	0.0129774
671.428	0.0127512
671.506	0.0127866
671.584	0.0129762
671.662	0.0128429
671.741	0.0129144
671.819	0.0128017
671.897	0.0128563
671.975	0.0128959
672.053	0.0128566
672.131	0.0128967
672.209	0.0128769
672.287	0.0129018
672.366	0.0128919
672.444	0.0128249
672.522	0.0127615
672.600	0.0128546
672.678	0.0128531
672.756	0.0128812
672.834	0.0128428
672.912	0.0128059
672.991	0.0127605
673.069	0.0127172
673.147	0.0128223
673.225	0.0128174
673.303	0.0128287
673.381	0.0127068
673.459	0.0127935
673.537	0.0128836
673.616	0.0129994
673.694	0.0127497
673.772	0.0127087
673.850	0.0127151
673.928	0.0127857
674.006	0.0128915
674.084	0.0127938
674.162	0.0129327
674.241	0.0128221
674.319	0.0128381
674.397	0.0129225
674.475	0.0129491
674.553	0.0128410
674.631	0.0128466
674.709	0.0130714
674.787	0.0129068
674.866	0.0129431
674.944	0.0130241
675.022	0.0128624
675.100	0.0128499
675.178	0.0129999
675.256	0.0129502
675.334	0.0130926
675.412	0.0130004
675.491	0.0129049
675.569	0.0131083
675.647	0.0131366
675.725	0.0130463
675.803	0.0130730
675.881	0.0131539
675.959	0.0130732
676.037	0.0130520
676.116	0.0130882
676.194	0.0130924
676.272	0.0130522
676.350	0.0131593
676.428	0.0129891
676.506	0.0131553
676.584	0.0131640
676.662	0.0131554
676.741	0.0131128
676.819	0.0131944
676.897	0.0132281
676.975	0.0130984
677.053	0.0132342
677.131	0.0132355
677.209	0.0131138
677.287	0.0131012
677.366	0.0132161
677.444	0.0133282
677.522	0.0133024
677.600	0.0132621
677.678	0.0130984
677.756	0.0132184
677.834	0.0133412
677.912	0.0132596
677.991	0.0132172
678.069	0.0132040
678.147	0.0132208
678.225	0.0132494
678.303	0.0133263
678.381	0.0132871
678.459	0.0131827
678.537	0.0131937
678.616	0.0131748
678.694	0.0133408
678.772	0.0132456
678.850	0.0132426
678.928	0.0131656
679.006	0.0133662
679.084	0.0130865
679.162	0.0131264
679.241	0.0132904
679.319	0.0132409
679.397	0.0131258
679.475	0.0131618
679.553	0.0133926
679.631	0.0132338
679.709	0.0132151
679.787	0.0131879
679.866	0.0131113
679.944	0.0132563
680.022	0.0132258
680.100	0.0131322
680.178	0.0130902
680.256	0.0131859
680.334	0.0132391
680.412	0.0130848
680.491	0.0130296
680.569	0.0131160
680.647	0.0131300
680.725	0.0132071
680.803	0.0131549
680.881	0.0132008
680.959	0.0130576
681.037	0.0130551
681.116	0.0130698
681.194	0.0130950
681.272	0.0130267
681.350	0.0129683
681.428	0.0130712
681.506	0.0131811
681.584	0.0130804
681.662	0.0130273
681.741	0.0129799
681.819	0.0131431
681.897	0.0130168
681.975	0.0130135
682.053	0.0129341
682.131	0.0129608
682.209	0.0130894
682.287	0.0129408
682.366	0.0129932
682.444	0.0130917
682.522	0.0130547
682.600	0.0130775
682.678	0.0129418
682.756	0.0130445
682.834	0.0129224
682.912	0.0130421
682.991	0.0130542
683.069	0.0130866
683.147	0.0130790
683.225	0.0130787
683.303	0.0131532
683.381	0.0130682
683.459	0.0129570
683.537	0.0130740
683.616	0.0130941
683.694	0.0129497
683.772	0.0131676
683.850	0.0130576
683.928	0.0129594
684.006	0.0130003
684.084	0.0130529
684.162	0.0129667
684.241	0.0129707
684.319	0.0130722
684.397	0.0131232
684.475	0.0130731
684.553	0.0128667
684.631	0.0128641
684.709	0.0130306
684.787	0.0131020
684.866	0.0130384
684.944	0.0130366
685.022	0.0130964
685.100	0.0129504
685.178	0.0131088
685.256	0.0131266
685.334	0.0131271
685.412	0.0130453
685.491	0.0128791
685.569	0.0130416
685.647	0.0130664
685.725	0.0131175
