05/06/2022	19:19:40	Ver.	4.1	UNKNOWN
Optical Delay	600.015094	Delta X		0.078125	Sweeps	1	Scan Rate	0/0
Coordinates	Axis 1	NaN	Axis 2	NaN	Axis 3	NaN	Axis 4	NaN	Axis 5	NaN	Axis 6	0.000000
TX Power	0.000000	RX Power	0.000000

600.015	0.0147616
600.093	0.0148193
600.171	0.0147720
600.249	0.0147972
600.328	0.0146837
600.406	0.0146136
600.484	0.0147221
600.562	0.0145911
600.640	0.0146043
600.718	0.0146808
600.796	0.0145717
600.874	0.0146389
600.953	0.0146275
601.031	0.0146879
601.109	0.0147099
601.187	0.0147163
601.265	0.0146056
601.343	0.0146976
601.421	0.0145917
601.499	0.0147639
601.578	0.0145917
601.656	0.0146668
601.734	0.0147174
601.812	0.0147717
601.890	0.0147151
601.968	0.0147219
602.046	0.0145867
602.124	0.0145027
602.203	0.0147648
602.281	0.0148816
602.359	0.0146089
602.437	0.0145876
602.515	0.0147646
602.593	0.0147009
602.671	0.0146713
602.749	0.0145709
602.828	0.0145130
602.906	0.0146568
602.984	0.0146653
603.062	0.0148226
603.140	0.0146442
603.218	0.0148418
603.296	0.0147367
603.374	0.0147438
603.453	0.0148640
603.531	0.0147289
603.609	0.0147752
603.687	0.0147466
603.765	0.0146764
603.843	0.0145847
603.921	0.0148215
603.999	0.0148250
604.078	0.0147416
604.156	0.0149237
604.234	0.0147942
604.312	0.0147552
604.390	0.0147301
604.468	0.0148820
604.546	0.0147930
604.624	0.0147841
604.703	0.0148035
604.781	0.0148212
604.859	0.0146849
604.937	0.0148722
605.015	0.0148444
605.093	0.0148473
605.171	0.0147530
605.249	0.0148975
605.328	0.0147839
605.406	0.0147305
605.484	0.0148580
605.562	0.0147441
605.640	0.0148623
605.718	0.0148148
605.796	0.0148873
605.874	0.0148344
605.953	0.0148206
606.031	0.0149056
606.109	0.0148246
606.187	0.0148502
606.265	0.0147523
606.343	0.0148135
606.421	0.0148746
606.499	0.0148850
606.578	0.0147194
606.656	0.0147137
606.734	0.0146422
606.812	0.0148054
606.890	0.0147167
606.968	0.0147621
607.046	0.0149010
607.124	0.0147394
607.203	0.0147467
607.281	0.0147037
607.359	0.0147878
607.437	0.0148182
607.515	0.0148544
607.593	0.0147182
607.671	0.0148347
607.749	0.0147707
607.828	0.0150056
607.906	0.0147857
607.984	0.0147509
608.062	0.0149068
608.140	0.0148594
608.218	0.0147970
608.296	0.0148027
608.374	0.0149612
608.453	0.0148507
608.531	0.0147216
608.609	0.0148911
608.687	0.0149679
608.765	0.0147234
608.843	0.0148662
608.921	0.0147767
608.999	0.0148677
609.078	0.0148026
609.156	0.0148531
609.234	0.0149554
609.312	0.0148030
609.390	0.0148022
609.468	0.0148681
609.546	0.0149194
609.624	0.0148115
609.703	0.0147185
609.781	0.0148697
609.859	0.0147331
609.937	0.0148647
610.015	0.0148117
610.093	0.0149161
610.171	0.0148683
610.249	0.0148026
610.328	0.0147732
610.406	0.0147849
610.484	0.0147411
610.562	0.0146915
610.640	0.0146694
610.718	0.0146766
610.796	0.0146762
610.874	0.0147387
610.953	0.0148096
611.031	0.0147404
611.109	0.0147985
611.187	0.0148690
611.265	0.0146904
611.343	0.0148031
611.421	0.0146814
611.499	0.0147920
611.578	0.0148273
611.656	0.0146835
611.734	0.0146803
611.812	0.0146622
611.890	0.0147305
611.968	0.0147840
612.046	0.0148427
612.124	0.0145160
612.203	0.0147292
612.281	0.0147196
612.359	0.0147367
612.437	0.0147233
612.515	0.0147794
612.593	0.0147498
612.671	0.0147749
612.749	0.0146648
612.828	0.0145815
612.906	0.0147626
612.984	0.0148254
613.062	0.0147181
613.140	0.0146479
613.218	0.0148757
613.296	0.0147241
613.374	0.0148735
613.453	0.0147530
613.531	0.0146841
613.609	0.0147691
613.687	0.0146721
613.765	0.0147054
613.843	0.0146795
613.921	0.0147731
613.999	0.0147150
614.078	0.0149095
614.156	0.0147691
614.234	0.0146330
614.312	0.0147211
614.390	0.0146822
614.468	0.0147708
614.546	0.0146703
614.624	0.0147648
614.703	0.0147013
614.781	0.0146835
614.859	0.0147397
614.937	0.0147279
615.015	0.0147769
615.093	0.0147305
615.171	0.0147161
615.249	0.0146937
615.328	0.0148466
615.406	0.0145852
615.484	0.0146057
615.562	0.0146629
615.640	0.0147427
615.718	0.0147606
615.796	0.0147849
615.874	0.0147325
615.953	0.0147789
616.031	0.0148592
616.109	0.0147442
616.187	0.0148920
616.265	0.0149638
616.343	0.0147020
616.421	0.0148540
616.499	0.0148721
616.578	0.0147522
616.656	0.0147427
616.734	0.0149499
616.812	0.0148003
616.890	0.0148594
616.968	0.0147754
617.046	0.0147186
617.124	0.0146192
617.203	0.0146356
617.281	0.0147742
617.359	0.0148985
617.437	0.0147858
617.515	0.0148615
617.593	0.0147728
617.671	0.0148344
617.749	0.0149039
617.828	0.0146809
617.906	0.0148862
617.984	0.0147523
618.062	0.0148731
618.140	0.0148868
618.218	0.0147527
618.296	0.0147354
618.374	0.0145952
618.453	0.0148466
618.531	0.0148100
618.609	0.0146771
618.687	0.0147686
618.765	0.0148867
618.843	0.0148326
618.921	0.0147799
618.999	0.0148699
619.078	0.0148017
619.156	0.0146748
619.234	0.0147929
619.312	0.0148150
619.390	0.0149242
619.468	0.0146338
619.546	0.0145897
619.624	0.0147630
619.703	0.0147443
619.781	0.0148249
619.859	0.0148511
619.937	0.0149426
620.015	0.0147170
620.093	0.0148314
620.171	0.0147627
620.249	0.0147856
620.328	0.0147382
620.406	0.0149452
620.484	0.0148819
620.562	0.0147902
620.640	0.0147203
620.718	0.0147895
620.796	0.0148626
620.874	0.0147215
620.953	0.0146419
621.031	0.0147314
621.109	0.0148141
621.187	0.0148239
621.265	0.0146566
621.343	0.0146851
621.421	0.0147230
621.499	0.0146389
621.578	0.0146875
621.656	0.0148621
621.734	0.0147052
621.812	0.0148209
621.890	0.0148739
621.968	0.0147090
622.046	0.0148394
622.124	0.0147853
622.203	0.0149425
622.281	0.0148083
622.359	0.0148266
622.437	0.0148151
622.515	0.0149423
622.593	0.0148682
622.671	0.0149925
622.749	0.0148060
622.828	0.0148075
622.906	0.0147828
622.984	0.0148414
623.062	0.0147768
623.140	0.0147104
623.218	0.0147553
623.296	0.0147369
623.374	0.0147607
623.453	0.0147829
623.531	0.0145541
623.609	0.0147129
623.687	0.0147460
623.765	0.0146832
623.843	0.0147218
623.921	0.0147334
623.999	0.0148154
624.078	0.0148792
624.156	0.0150132
624.234	0.0147952
624.312	0.0148610
624.390	0.0148333
624.468	0.0148547
624.546	0.0148833
624.624	0.0147657
624.703	0.0148066
624.781	0.0149643
624.859	0.0147479
624.937	0.0147546
625.015	0.0149202
625.093	0.0147963
625.171	0.0149049
625.249	0.0148497
625.328	0.0148539
625.406	0.0148833
625.484	0.0148775
625.562	0.0149575
625.640	0.0149189
625.718	0.0148660
625.796	0.0149378
625.874	0.0147305
625.953	0.0147162
626.031	0.0148515
626.109	0.0148548
626.187	0.0148917
626.265	0.0149406
626.343	0.0148392
626.421	0.0148640
626.499	0.0148245
626.578	0.0147498
626.656	0.0146903
626.734	0.0147973
626.812	0.0149363
626.890	0.0148409
626.968	0.0147729
627.046	0.0146647
627.124	0.0147523
627.203	0.0148339
627.281	0.0147513
627.359	0.0147387
627.437	0.0146469
627.515	0.0147188
627.593	0.0147137
627.671	0.0147136
627.749	0.0146636
627.828	0.0147377
627.906	0.0148674
627.984	0.0148837
628.062	0.0146577
628.140	0.0148175
628.218	0.0147198
628.296	0.0147552
628.374	0.0147472
628.453	0.0148421
628.531	0.0146685
628.609	0.0147449
628.687	0.0148526
628.765	0.0145929
628.843	0.0147090
628.921	0.0147649
628.999	0.0147726
629.078	0.0146999
629.156	0.0147066
629.234	0.0148744
629.312	0.0145789
629.390	0.0148367
629.468	0.0149163
629.546	0.0148956
629.624	0.0148599
629.703	0.0147945
629.781	0.0148065
629.859	0.0147544
629.937	0.0150333
630.015	0.0147861
630.093	0.0146481
630.171	0.0148109
630.249	0.0146925
630.328	0.0146455
630.406	0.0146338
630.484	0.0148013
630.562	0.0147885
630.640	0.0147510
630.718	0.0147402
630.796	0.0147743
630.874	0.0148495
630.953	0.0147779
631.031	0.0147894
631.109	0.0147602
631.187	0.0148223
631.265	0.0147559
631.343	0.0146979
631.421	0.0148322
631.499	0.0147569
631.578	0.0149258
631.656	0.0148108
631.734	0.0148071
631.812	0.0147800
631.890	0.0147236
631.968	0.0148540
632.046	0.0148679
632.124	0.0149163
632.203	0.0148103
632.281	0.0148141
632.359	0.0148976
632.437	0.0149918
632.515	0.0148359
632.593	0.0148799
632.671	0.0149045
632.749	0.0149908
632.828	0.0149348
632.906	0.0148141
632.984	0.0147632
633.062	0.0148363
633.140	0.0149562
633.218	0.0147490
633.296	0.0146256
633.374	0.0147923
633.453	0.0147292
633.531	0.0146935
633.609	0.0146954
633.687	0.0147334
633.765	0.0146088
633.843	0.0146314
633.921	0.0147219
633.999	0.0148438
634.078	0.0146915
634.156	0.0145086
634.234	0.0145107
634.312	0.0146014
634.390	0.0145141
634.468	0.0146129
634.546	0.0146192
634.624	0.0146580
634.703	0.0146297
634.781	0.0146440
634.859	0.0147247
634.937	0.0148221
635.015	0.0148920
635.093	0.0149173
635.171	0.0148763
635.249	0.0148780
635.328	0.0151089
635.406	0.0150252
635.484	0.0150041
635.562	0.0150424
635.640	0.0150362
635.718	0.0149310
635.796	0.0149490
635.874	0.0149227
635.953	0.0148927
636.031	0.0149317
636.109	0.0150324
636.187	0.0148622
636.265	0.0148664
636.343	0.0147674
636.421	0.0148533
636.499	0.0146877
636.578	0.0147110
636.656	0.0145963
636.734	0.0145867
636.812	0.0145429
636.890	0.0144582
636.968	0.0145720
637.046	0.0146229
637.124	0.0144087
637.203	0.0144875
637.281	0.0145902
637.359	0.0146011
637.437	0.0145418
637.515	0.0145546
637.593	0.0146252
637.671	0.0146053
637.749	0.0147013
637.828	0.0147182
637.906	0.0147655
637.984	0.0148244
638.062	0.0147372
638.140	0.0149038
638.218	0.0148792
638.296	0.0149538
638.374	0.0150504
638.453	0.0150312
638.531	0.0151157
638.609	0.0151929
638.687	0.0150376
638.765	0.0150953
638.843	0.0152238
638.921	0.0151633
638.999	0.0151525
639.078	0.0151675
639.156	0.0151532
639.234	0.0151770
639.312	0.0149924
639.390	0.0149785
639.468	0.0150198
639.546	0.0148907
639.624	0.0148296
639.703	0.0146944
639.781	0.0145883
639.859	0.0146674
639.937	0.0146202
640.015	0.0144507
640.093	0.0145388
640.171	0.0143314
640.249	0.0144064
640.328	0.0143977
640.406	0.0144218
640.484	0.0142897
640.562	0.0143811
640.640	0.0142699
640.718	0.0142633
640.796	0.0143969
640.874	0.0143700
640.953	0.0145071
641.031	0.0146111
641.109	0.0145741
641.187	0.0147250
641.265	0.0147971
641.343	0.0148289
641.421	0.0148121
641.499	0.0149714
641.578	0.0151543
641.656	0.0152436
641.734	0.0152242
641.812	0.0152350
641.890	0.0153374
641.968	0.0153397
642.046	0.0152273
642.124	0.0152204
642.203	0.0152985
642.281	0.0153822
642.359	0.0152875
642.437	0.0152244
642.515	0.0152322
642.593	0.0152367
642.671	0.0151126
642.749	0.0151290
642.828	0.0149782
642.906	0.0149517
642.984	0.0148463
643.062	0.0148009
643.140	0.0146954
643.218	0.0147095
643.296	0.0143948
643.374	0.0145110
643.453	0.0145262
643.531	0.0145026
643.609	0.0144008
643.687	0.0142123
643.765	0.0142604
643.843	0.0143100
643.921	0.0142426
643.999	0.0141367
644.078	0.0140935
644.156	0.0141647
644.234	0.0140856
644.312	0.0141008
644.390	0.0142467
644.468	0.0142130
644.546	0.0142209
644.624	0.0143009
644.703	0.0143670
644.781	0.0145311
644.859	0.0145816
644.937	0.0146461
645.015	0.0147323
645.093	0.0149511
645.171	0.0151216
645.249	0.0152232
645.328	0.0152353
645.406	0.0151289
645.484	0.0154702
645.562	0.0156691
645.640	0.0155967
645.718	0.0156179
645.796	0.0156298
645.874	0.0155812
645.953	0.0156000
646.031	0.0155950
646.109	0.0154677
646.187	0.0154554
646.265	0.0153993
646.343	0.0151595
646.421	0.0153491
646.499	0.0152132
646.578	0.0151777
646.656	0.0151833
646.734	0.0149872
646.812	0.0150339
646.890	0.0148903
646.968	0.0147208
647.046	0.0146771
647.124	0.0146110
647.203	0.0143096
647.281	0.0145195
647.359	0.0141748
647.437	0.0141929
647.515	0.0140662
647.593	0.0142306
647.671	0.0141039
647.749	0.0139332
647.828	0.0137651
647.906	0.0138246
647.984	0.0139138
648.062	0.0140204
648.140	0.0140150
648.218	0.0140230
648.296	0.0140599
648.374	0.0142651
648.453	0.0144817
648.531	0.0144296
648.609	0.0146296
648.687	0.0146572
648.765	0.0148140
648.843	0.0149236
648.921	0.0149728
648.999	0.0151735
649.078	0.0151449
649.156	0.0153820
649.234	0.0154626
649.312	0.0154926
649.390	0.0154684
649.468	0.0155703
649.546	0.0156693
649.624	0.0156116
649.703	0.0155033
649.781	0.0155830
649.859	0.0155493
649.937	0.0154868
650.015	0.0155002
650.093	0.0155345
650.171	0.0153760
650.249	0.0152717
650.328	0.0151292
650.406	0.0150838
650.484	0.0149365
650.562	0.0148174
650.640	0.0148267
650.718	0.0147665
650.796	0.0146478
650.874	0.0143783
650.953	0.0144202
651.031	0.0140733
651.109	0.0140642
651.187	0.0141326
651.265	0.0139648
651.343	0.0139722
651.421	0.0140158
651.499	0.0138323
651.578	0.0137961
651.656	0.0137915
651.734	0.0139236
651.812	0.0140945
651.890	0.0139543
651.968	0.0140542
652.046	0.0142701
652.124	0.0142967
652.203	0.0143568
652.281	0.0144131
652.359	0.0145493
652.437	0.0147336
652.515	0.0147330
652.593	0.0149677
652.671	0.0149467
652.749	0.0149948
652.828	0.0153195
652.906	0.0151469
652.984	0.0151427
653.062	0.0152178
653.140	0.0152254
653.218	0.0152056
653.296	0.0150673
653.374	0.0153320
653.453	0.0153781
653.531	0.0152699
653.609	0.0151212
653.687	0.0150546
653.765	0.0152230
653.843	0.0151200
653.921	0.0150051
653.999	0.0148588
654.078	0.0148154
654.156	0.0149501
654.234	0.0146723
654.312	0.0148260
654.390	0.0147743
654.468	0.0145930
654.546	0.0145912
654.624	0.0146582
654.703	0.0146627
654.781	0.0145198
654.859	0.0145565
654.937	0.0144778
655.015	0.0145520
655.093	0.0145813
655.171	0.0145891
655.249	0.0146381
655.328	0.0147294
655.406	0.0146463
655.484	0.0147585
655.562	0.0147893
655.640	0.0147120
655.718	0.0147778
655.796	0.0147777
655.874	0.0148928
655.953	0.0148962
656.031	0.0148175
656.109	0.0147856
656.187	0.0148896
656.265	0.0148796
656.343	0.0149277
656.421	0.0148592
656.499	0.0147326
656.578	0.0147774
656.656	0.0146545
656.734	0.0147404
656.812	0.0145222
656.890	0.0145991
656.968	0.0145619
657.046	0.0145889
657.124	0.0144112
657.203	0.0144246
657.281	0.0144796
657.359	0.0145311
657.437	0.0144637
657.515	0.0146204
657.593	0.0145802
657.671	0.0146784
657.749	0.0145826
657.828	0.0148190
657.906	0.0147404
657.984	0.0148633
658.062	0.0147846
658.140	0.0149732
658.218	0.0148823
658.296	0.0150137
658.374	0.0149944
658.453	0.0149081
658.531	0.0148997
658.609	0.0150977
658.687	0.0149713
658.765	0.0150940
658.843	0.0150815
658.921	0.0150057
658.999	0.0150143
659.078	0.0149738
659.156	0.0149741
659.234	0.0151044
659.312	0.0150682
659.390	0.0150312
659.468	0.0149740
659.546	0.0150534
659.624	0.0150418
659.703	0.0149838
659.781	0.0149160
659.859	0.0148652
659.937	0.0148064
660.015	0.0149080
660.093	0.0146719
660.171	0.0147442
660.249	0.0147081
660.328	0.0145036
660.406	0.0144486
660.484	0.0144520
660.562	0.0144485
660.640	0.0143191
660.718	0.0144372
660.796	0.0143760
660.874	0.0143126
660.953	0.0143259
661.031	0.0143368
661.109	0.0143555
661.187	0.0142720
661.265	0.0142748
661.343	0.0145053
661.421	0.0145437
661.499	0.0145219
661.578	0.0147581
661.656	0.0145964
661.734	0.0146837
661.812	0.0147590
661.890	0.0147240
661.968	0.0147139
662.046	0.0148209
662.124	0.0148757
662.203	0.0150379
662.281	0.0148190
662.359	0.0149435
662.437	0.0151281
662.515	0.0150747
662.593	0.0150504
662.671	0.0151305
662.749	0.0151006
662.828	0.0152051
662.906	0.0151740
662.984	0.0151788
663.062	0.0151816
663.140	0.0149819
663.218	0.0152529
663.296	0.0151696
663.374	0.0151428
663.453	0.0151368
663.531	0.0150167
663.609	0.0150553
663.687	0.0151273
663.765	0.0150678
663.843	0.0150377
663.921	0.0149261
663.999	0.0148477
664.078	0.0149337
664.156	0.0147636
664.234	0.0147682
664.312	0.0146431
664.390	0.0146310
664.468	0.0147012
664.546	0.0145810
664.624	0.0144094
664.703	0.0144535
664.781	0.0144908
664.859	0.0145284
664.937	0.0145335
665.015	0.0144692
665.093	0.0146072
665.171	0.0145811
665.249	0.0145815
665.328	0.0146677
665.406	0.0147292
665.484	0.0146874
665.562	0.0145683
665.640	0.0146776
665.718	0.0147282
665.796	0.0146330
665.874	0.0146384
665.953	0.0146665
666.031	0.0145183
666.109	0.0147065
666.187	0.0148367
666.265	0.0147448
666.343	0.0146987
666.421	0.0146933
666.499	0.0147089
666.578	0.0146260
666.656	0.0147450
666.734	0.0148563
666.812	0.0148949
666.890	0.0149409
666.968	0.0148856
667.046	0.0150088
667.124	0.0148727
667.203	0.0148188
667.281	0.0149326
667.359	0.0149360
667.437	0.0148692
667.515	0.0149552
667.593	0.0148895
667.671	0.0149386
667.749	0.0149644
667.828	0.0148125
667.906	0.0149799
667.984	0.0150729
668.062	0.0149503
668.140	0.0149581
668.218	0.0148290
668.296	0.0147745
668.374	0.0149065
668.453	0.0149020
668.531	0.0148257
668.609	0.0148243
668.687	0.0148509
668.765	0.0148744
668.843	0.0149535
668.921	0.0147853
668.999	0.0150076
669.078	0.0148291
669.156	0.0148853
669.234	0.0148650
669.312	0.0148180
669.390	0.0148686
669.468	0.0148507
669.546	0.0148966
669.624	0.0148026
669.703	0.0146656
669.781	0.0146553
669.859	0.0146365
669.937	0.0145731
670.015	0.0143791
670.093	0.0145300
670.171	0.0145465
670.249	0.0146187
670.328	0.0143362
670.406	0.0143597
670.484	0.0145010
670.562	0.0145620
670.640	0.0144730
670.718	0.0145624
670.796	0.0145728
670.874	0.0145800
670.953	0.0145061
671.031	0.0146503
671.109	0.0146133
671.187	0.0146645
671.265	0.0147352
671.343	0.0148650
671.421	0.0147459
671.499	0.0148370
671.578	0.0149979
671.656	0.0150517
671.734	0.0150401
671.812	0.0148944
671.890	0.0150246
671.968	0.0151008
672.046	0.0150391
672.124	0.0150240
672.203	0.0147525
672.281	0.0148109
672.359	0.0148281
672.437	0.0147410
672.515	0.0148256
672.593	0.0149741
672.671	0.0147902
672.749	0.0146851
672.828	0.0148180
672.906	0.0147275
672.984	0.0146246
673.062	0.0147392
673.140	0.0147415
673.218	0.0147887
673.296	0.0146553
673.374	0.0147031
673.453	0.0146880
673.531	0.0146537
673.609	0.0146463
673.687	0.0146980
673.765	0.0147984
673.843	0.0147774
673.921	0.0147977
673.999	0.0147006
674.078	0.0146650
674.156	0.0146491
674.234	0.0149108
674.312	0.0147590
674.390	0.0147536
674.468	0.0147440
674.546	0.0147590
674.624	0.0148138
674.703	0.0145969
674.781	0.0146505
674.859	0.0147399
674.937	0.0145621
675.015	0.0146062
675.093	0.0146153
675.171	0.0147030
675.249	0.0146504
675.328	0.0145413
675.406	0.0146475
675.484	0.0147745
675.562	0.0146893
675.640	0.0148055
675.718	0.0146509
675.796	0.0148135
675.874	0.0148742
675.953	0.0148914
676.031	0.0149149
676.109	0.0148234
676.187	0.0148522
676.265	0.0147813
676.343	0.0147755
676.421	0.0147575
676.499	0.0146644
676.578	0.0147223
676.656	0.0147470
676.734	0.0147913
676.812	0.0148556
676.890	0.0147615
676.968	0.0147575
677.046	0.0148660
677.124	0.0147141
677.203	0.0148224
677.281	0.0149229
677.359	0.0148568
677.437	0.0148689
677.515	0.0148549
677.593	0.0147410
677.671	0.0148142
677.749	0.0147871
677.828	0.0148071
677.906	0.0148087
677.984	0.0147518
678.062	0.0148436
678.140	0.0147533
678.218	0.0146547
678.296	0.0146072
678.374	0.0147231
678.453	0.0146607
678.531	0.0146465
678.609	0.0147232
678.687	0.0146451
678.765	0.0146408
678.843	0.0146874
678.921	0.0146355
678.999	0.0146740
679.078	0.0148112
679.156	0.0148125
679.234	0.0148918
679.312	0.0149126
679.390	0.0149387
679.468	0.0146931
679.546	0.0149510
679.624	0.0149486
679.703	0.0149950
679.781	0.0150147
679.859	0.0149747
679.937	0.0149223
680.015	0.0148677
680.093	0.0147599
680.171	0.0147739
680.249	0.0147903
680.328	0.0146968
680.406	0.0149002
680.484	0.0149737
680.562	0.0147710
680.640	0.0149134
680.718	0.0150172
680.796	0.0149594
680.874	0.0149683
680.953	0.0150246
681.031	0.0149813
681.109	0.0149918
681.187	0.0150890
681.265	0.0150575
681.343	0.0149950
681.421	0.0149345
681.499	0.0149463
681.578	0.0149152
681.656	0.0147527
681.734	0.0148389
681.812	0.0148746
681.890	0.0146526
681.968	0.0146637
682.046	0.0147195
682.124	0.0147983
682.203	0.0147531
682.281	0.0146529
682.359	0.0147054
682.437	0.0147829
682.515	0.0148148
682.593	0.0149646
682.671	0.0148338
682.749	0.0148670
682.828	0.0149278
682.906	0.0149481
682.984	0.0148402
683.062	0.0149988
683.140	0.0149380
683.218	0.0148754
683.296	0.0149135
683.374	0.0148724
683.453	0.0147857
683.531	0.0148371
683.609	0.0148997
683.687	0.0146635
683.765	0.0147656
683.843	0.0148218
683.921	0.0146693
683.999	0.0147074
684.078	0.0146899
684.156	0.0148360
684.234	0.0149587
684.312	0.0147422
684.390	0.0148787
684.468	0.0148618
684.546	0.0148371
684.624	0.0149553
684.703	0.0149490
684.781	0.0148986
684.859	0.0149172
684.937	0.0148908
685.015	0.0147735
685.093	0.0146746
685.171	0.0146985
685.249	0.0146307
685.328	0.0148615
685.406	0.0148077
685.484	0.0147549
685.562	0.0147968
685.640	0.0147038
685.718	0.0146128
