05/06/2022	18:42:08	Ver.	4.1	UNKNOWN
Optical Delay	600.021766	Delta X		0.078125	Sweeps	1	Scan Rate	0/0
Coordinates	Axis 1	NaN	Axis 2	NaN	Axis 3	NaN	Axis 4	NaN	Axis 5	NaN	Axis 6	0.000000
TX Power	0.000000	RX Power	0.000000

600.022	0.0130124
600.100	0.0130738
600.178	0.0129996
600.256	0.0129638
600.334	0.0130502
600.412	0.0131070
600.491	0.0131327
600.569	0.0130720
600.647	0.0129392
600.725	0.0130853
600.803	0.0129742
600.881	0.0131024
600.959	0.0127876
601.037	0.0129904
601.116	0.0130739
601.194	0.0130217
601.272	0.0129829
601.350	0.0130121
601.428	0.0130713
601.506	0.0129313
601.584	0.0130229
601.662	0.0131862
601.741	0.0129347
601.819	0.0129372
601.897	0.0130070
601.975	0.0130953
602.053	0.0128775
602.131	0.0129668
602.209	0.0130569
602.287	0.0130588
602.366	0.0130592
602.444	0.0130117
602.522	0.0131487
602.600	0.0130135
602.678	0.0130125
602.756	0.0129824
602.834	0.0129742
602.912	0.0131592
602.991	0.0130734
603.069	0.0131687
603.147	0.0131326
603.225	0.0130389
603.303	0.0130129
603.381	0.0131670
603.459	0.0131496
603.537	0.0130978
603.616	0.0130981
603.694	0.0130984
603.772	0.0130531
603.850	0.0130494
603.928	0.0130424
604.006	0.0129809
604.084	0.0131866
604.162	0.0131844
604.241	0.0129833
604.319	0.0129926
604.397	0.0130638
604.475	0.0130821
604.553	0.0129298
604.631	0.0129115
604.709	0.0128956
604.787	0.0130450
604.866	0.0130776
604.944	0.0130402
605.022	0.0130104
605.100	0.0130544
605.178	0.0129505
605.256	0.0131300
605.334	0.0130029
605.412	0.0130049
605.491	0.0130717
605.569	0.0129686
605.647	0.0130287
605.725	0.0130520
605.803	0.0130766
605.881	0.0130392
605.959	0.0130184
606.037	0.0130793
606.116	0.0131389
606.194	0.0131126
606.272	0.0130576
606.350	0.0130250
606.428	0.0131124
606.506	0.0131037
606.584	0.0131487
606.662	0.0131137
606.741	0.0130346
606.819	0.0130819
606.897	0.0130971
606.975	0.0131175
607.053	0.0130663
607.131	0.0130986
607.209	0.0131240
607.287	0.0131241
607.366	0.0129782
607.444	0.0130202
607.522	0.0129329
607.600	0.0129595
607.678	0.0130277
607.756	0.0130436
607.834	0.0130054
607.912	0.0131214
607.991	0.0132872
608.069	0.0129788
608.147	0.0129563
608.225	0.0130452
608.303	0.0128275
608.381	0.0129490
608.459	0.0130494
608.537	0.0130980
608.616	0.0129420
608.694	0.0129892
608.772	0.0130058
608.850	0.0131078
608.928	0.0130215
609.006	0.0129614
609.084	0.0129847
609.162	0.0129929
609.241	0.0130743
609.319	0.0130437
609.397	0.0131344
609.475	0.0129379
609.553	0.0129838
609.631	0.0129361
609.709	0.0130251
609.787	0.0129565
609.866	0.0129012
609.944	0.0130676
610.022	0.0130731
610.100	0.0129937
610.178	0.0129968
610.256	0.0129249
610.334	0.0129690
610.412	0.0130019
610.491	0.0130238
610.569	0.0130938
610.647	0.0130259
610.725	0.0131314
610.803	0.0130165
610.881	0.0128986
610.959	0.0130093
611.037	0.0129891
611.116	0.0130467
611.194	0.0130299
611.272	0.0130613
611.350	0.0129324
611.428	0.0130441
611.506	0.0129952
611.584	0.0130106
611.662	0.0131270
611.741	0.0130712
611.819	0.0130237
611.897	0.0130051
611.975	0.0130015
612.053	0.0129697
612.131	0.0129964
612.209	0.0130004
612.287	0.0130038
612.366	0.0128577
612.444	0.0129543
612.522	0.0130251
612.600	0.0129087
612.678	0.0129870
612.756	0.0130220
612.834	0.0130838
612.912	0.0129704
612.991	0.0130282
613.069	0.0129906
613.147	0.0130599
613.225	0.0130579
613.303	0.0131100
613.381	0.0130626
613.459	0.0129427
613.537	0.0129890
613.616	0.0129691
613.694	0.0130209
613.772	0.0129897
613.850	0.0129519
613.928	0.0130048
614.006	0.0130285
614.084	0.0131348
614.162	0.0129926
614.241	0.0130508
614.319	0.0130640
614.397	0.0129606
614.475	0.0130558
614.553	0.0129789
614.631	0.0130875
614.709	0.0130757
614.787	0.0129474
614.866	0.0130313
614.944	0.0130666
615.022	0.0129503
615.100	0.0129842
615.178	0.0129659
615.256	0.0131512
615.334	0.0130379
615.412	0.0130122
615.491	0.0130317
615.569	0.0129035
615.647	0.0129981
615.725	0.0130485
615.803	0.0130407
615.881	0.0129725
615.959	0.0129684
616.037	0.0130754
616.116	0.0129694
616.194	0.0131440
616.272	0.0131123
616.350	0.0128468
616.428	0.0129565
616.506	0.0130193
616.584	0.0129806
616.662	0.0129792
616.741	0.0129764
616.819	0.0131345
616.897	0.0130392
616.975	0.0129959
617.053	0.0129740
617.131	0.0131110
617.209	0.0129955
617.287	0.0129737
617.366	0.0129816
617.444	0.0129643
617.522	0.0130018
617.600	0.0130826
617.678	0.0130718
617.756	0.0131193
617.834	0.0131864
617.912	0.0130761
617.991	0.0130190
618.069	0.0130081
618.147	0.0129849
618.225	0.0130552
618.303	0.0129265
618.381	0.0130140
618.459	0.0129951
618.537	0.0130585
618.616	0.0130788
618.694	0.0131216
618.772	0.0128906
618.850	0.0130225
618.928	0.0130697
619.006	0.0130475
619.084	0.0129837
619.162	0.0129880
619.241	0.0130072
619.319	0.0131028
619.397	0.0131030
619.475	0.0131615
619.553	0.0131062
619.631	0.0130056
619.709	0.0128745
619.787	0.0131006
619.866	0.0130311
619.944	0.0129970
620.022	0.0130775
620.100	0.0131702
620.178	0.0129977
620.256	0.0129669
620.334	0.0130018
620.412	0.0130076
620.491	0.0130579
620.569	0.0130502
620.647	0.0132001
620.725	0.0131469
620.803	0.0130556
620.881	0.0130686
620.959	0.0129681
621.037	0.0129446
621.116	0.0128267
621.194	0.0130521
621.272	0.0130894
621.350	0.0131070
621.428	0.0129921
621.506	0.0130235
621.584	0.0130096
621.662	0.0130854
621.741	0.0131352
621.819	0.0129367
621.897	0.0129783
621.975	0.0130150
622.053	0.0130757
622.131	0.0129695
622.209	0.0129187
622.287	0.0130104
622.366	0.0130824
622.444	0.0130365
622.522	0.0130456
622.600	0.0129269
622.678	0.0130778
622.756	0.0130219
622.834	0.0129598
622.912	0.0129021
622.991	0.0129781
623.069	0.0129784
623.147	0.0130531
623.225	0.0130759
623.303	0.0131750
623.381	0.0130350
623.459	0.0130591
623.537	0.0129820
623.616	0.0129841
623.694	0.0130742
623.772	0.0130464
623.850	0.0131384
623.928	0.0129610
624.006	0.0129136
624.084	0.0130647
624.162	0.0130120
624.241	0.0130264
624.319	0.0131631
624.397	0.0130903
624.475	0.0130665
624.553	0.0129555
624.631	0.0130739
624.709	0.0130403
624.787	0.0130984
624.866	0.0130996
624.944	0.0130977
625.022	0.0130447
625.100	0.0131593
625.178	0.0131828
625.256	0.0130179
625.334	0.0130413
625.412	0.0129834
625.491	0.0129845
625.569	0.0130504
625.647	0.0129888
625.725	0.0130550
625.803	0.0131297
625.881	0.0130602
625.959	0.0129960
626.037	0.0130246
626.116	0.0129241
626.194	0.0130432
626.272	0.0130390
626.350	0.0131312
626.428	0.0131393
626.506	0.0128577
626.584	0.0129193
626.662	0.0129491
626.741	0.0130991
626.819	0.0130870
626.897	0.0130195
626.975	0.0131069
627.053	0.0130928
627.131	0.0130609
627.209	0.0131118
627.287	0.0130526
627.366	0.0130320
627.444	0.0130439
627.522	0.0129998
627.600	0.0130595
627.678	0.0130927
627.756	0.0130093
627.834	0.0131155
627.912	0.0129556
627.991	0.0130429
628.069	0.0130630
628.147	0.0129417
628.225	0.0130041
628.303	0.0129588
628.381	0.0131215
628.459	0.0130730
628.537	0.0131411
628.616	0.0129795
628.694	0.0130946
628.772	0.0131293
628.850	0.0130585
628.928	0.0130653
629.006	0.0130069
629.084	0.0130682
629.162	0.0130093
629.241	0.0128993
629.319	0.0130173
629.397	0.0131819
629.475	0.0130714
629.553	0.0130298
629.631	0.0130721
629.709	0.0131001
629.787	0.0130093
629.866	0.0129985
629.944	0.0130770
630.022	0.0129958
630.100	0.0130592
630.178	0.0132205
630.256	0.0130413
630.334	0.0130654
630.412	0.0131419
630.491	0.0131065
630.569	0.0129993
630.647	0.0131143
630.725	0.0130163
630.803	0.0130331
630.881	0.0130657
630.959	0.0131235
631.037	0.0130385
631.116	0.0130502
631.194	0.0129520
631.272	0.0129005
631.350	0.0130178
631.428	0.0130291
631.506	0.0131325
631.584	0.0131333
631.662	0.0130584
631.741	0.0130231
631.819	0.0130467
631.897	0.0131440
631.975	0.0130701
632.053	0.0130476
632.131	0.0130257
632.209	0.0131019
632.287	0.0131084
632.366	0.0130289
632.444	0.0131632
632.522	0.0131157
632.600	0.0129559
632.678	0.0130033
632.756	0.0130141
632.834	0.0129874
632.912	0.0130811
632.991	0.0129108
633.069	0.0130106
633.147	0.0130017
633.225	0.0132072
633.303	0.0131322
633.381	0.0130070
633.459	0.0130125
633.537	0.0131998
633.616	0.0130415
633.694	0.0130104
633.772	0.0130524
633.850	0.0129929
633.928	0.0130425
634.006	0.0129961
634.084	0.0130783
634.162	0.0130871
634.241	0.0129343
634.319	0.0129941
634.397	0.0128898
634.475	0.0130051
634.553	0.0131651
634.631	0.0130412
634.709	0.0130148
634.787	0.0129647
634.866	0.0129683
634.944	0.0131055
635.022	0.0129843
635.100	0.0130278
635.178	0.0129535
635.256	0.0131233
635.334	0.0130184
635.412	0.0130349
635.491	0.0130621
635.569	0.0130333
635.647	0.0130056
635.725	0.0130427
635.803	0.0129666
635.881	0.0130249
635.959	0.0130701
636.037	0.0131519
636.116	0.0131355
636.194	0.0130766
636.272	0.0131791
636.350	0.0130072
636.428	0.0129690
636.506	0.0129916
636.584	0.0130711
636.662	0.0129265
636.741	0.0129853
636.819	0.0131230
636.897	0.0130898
636.975	0.0129354
637.053	0.0129072
637.131	0.0130651
637.209	0.0129601
637.287	0.0132221
637.366	0.0130663
637.444	0.0129980
637.522	0.0130442
637.600	0.0129134
637.678	0.0130507
637.756	0.0130647
637.834	0.0130479
637.912	0.0129823
637.991	0.0131254
638.069	0.0130454
638.147	0.0129328
638.225	0.0131273
638.303	0.0129676
638.381	0.0130490
638.459	0.0131186
638.537	0.0131774
638.616	0.0131970
638.694	0.0131207
638.772	0.0129578
638.850	0.0131059
638.928	0.0129945
639.006	0.0129477
639.084	0.0129280
639.162	0.0131052
639.241	0.0131106
639.319	0.0130238
639.397	0.0130157
639.475	0.0130378
639.553	0.0129601
639.631	0.0130711
639.709	0.0129626
639.787	0.0128786
639.866	0.0129917
639.944	0.0130463
640.022	0.0130739
640.100	0.0130140
640.178	0.0131728
640.256	0.0129761
640.334	0.0130708
640.412	0.0131467
640.491	0.0129891
640.569	0.0130064
640.647	0.0129520
640.725	0.0130445
640.803	0.0129859
640.881	0.0129714
640.959	0.0129549
641.037	0.0131226
641.116	0.0131775
641.194	0.0130360
641.272	0.0131033
641.350	0.0131749
641.428	0.0130406
641.506	0.0129211
641.584	0.0129899
641.662	0.0128470
641.741	0.0129665
641.819	0.0131049
641.897	0.0130392
641.975	0.0130592
642.053	0.0130462
642.131	0.0130301
642.209	0.0130233
642.287	0.0130233
642.366	0.0130318
642.444	0.0130265
642.522	0.0131715
642.600	0.0130670
642.678	0.0130358
642.756	0.0130399
642.834	0.0129993
642.912	0.0130087
642.991	0.0130018
643.069	0.0130422
643.147	0.0130260
643.225	0.0130144
643.303	0.0130283
643.381	0.0129719
643.459	0.0129987
643.537	0.0129862
643.616	0.0131895
643.694	0.0129961
643.772	0.0130106
643.850	0.0129874
643.928	0.0129520
644.006	0.0129926
644.084	0.0129955
644.162	0.0131106
644.241	0.0129446
644.319	0.0128669
644.397	0.0129498
644.475	0.0130453
644.553	0.0131290
644.631	0.0130148
644.709	0.0130150
644.787	0.0131940
644.866	0.0129927
644.944	0.0131086
645.022	0.0129256
645.100	0.0128574
645.178	0.0130392
645.256	0.0130685
645.334	0.0129411
645.412	0.0129314
645.491	0.0130427
645.569	0.0130492
645.647	0.0129326
645.725	0.0131342
645.803	0.0130027
645.881	0.0130575
645.959	0.0130682
646.037	0.0131399
646.116	0.0129906
646.194	0.0131461
646.272	0.0130701
646.350	0.0129896
646.428	0.0130339
646.506	0.0129990
646.584	0.0129627
646.662	0.0131601
646.741	0.0129836
646.819	0.0129876
646.897	0.0131303
646.975	0.0130054
647.053	0.0129415
647.131	0.0130617
647.209	0.0129774
647.287	0.0130666
647.366	0.0130563
647.444	0.0130115
647.522	0.0129842
647.600	0.0128936
647.678	0.0129132
647.756	0.0130589
647.834	0.0130038
647.912	0.0129656
647.991	0.0130136
648.069	0.0130119
648.147	0.0129865
648.225	0.0130260
648.303	0.0130426
648.381	0.0129959
648.459	0.0129507
648.537	0.0130338
648.616	0.0130378
648.694	0.0130206
648.772	0.0128901
648.850	0.0131168
648.928	0.0130390
649.006	0.0130255
649.084	0.0130373
649.162	0.0130214
649.241	0.0129424
649.319	0.0130035
649.397	0.0131508
649.475	0.0131074
649.553	0.0130719
649.631	0.0130563
649.709	0.0129478
649.787	0.0129748
649.866	0.0130789
649.944	0.0130507
650.022	0.0130062
650.100	0.0128995
650.178	0.0129462
650.256	0.0131387
650.334	0.0131379
650.412	0.0129926
650.491	0.0129774
650.569	0.0130117
650.647	0.0132350
650.725	0.0130045
650.803	0.0131451
650.881	0.0130141
650.959	0.0129848
651.037	0.0130499
651.116	0.0130642
651.194	0.0131413
651.272	0.0131190
651.350	0.0130630
651.428	0.0130257
651.506	0.0131798
651.584	0.0131534
651.662	0.0129779
651.741	0.0130221
651.819	0.0130872
651.897	0.0130482
651.975	0.0129387
652.053	0.0128967
652.131	0.0130843
652.209	0.0131402
652.287	0.0130386
652.366	0.0130440
652.444	0.0130042
652.522	0.0130212
652.600	0.0131094
652.678	0.0130649
652.756	0.0130026
652.834	0.0131165
652.912	0.0131823
652.991	0.0130418
653.069	0.0129414
653.147	0.0129939
653.225	0.0130161
653.303	0.0129843
653.381	0.0129648
653.459	0.0129736
653.537	0.0131085
653.616	0.0130101
653.694	0.0130527
653.772	0.0131274
653.850	0.0130103
653.928	0.0131263
654.006	0.0131720
654.084	0.0130615
654.162	0.0130524
654.241	0.0130157
654.319	0.0132347
654.397	0.0128989
654.475	0.0129652
654.553	0.0130267
654.631	0.0130272
654.709	0.0132019
654.787	0.0131656
654.866	0.0130543
654.944	0.0130625
655.022	0.0131630
655.100	0.0129588
655.178	0.0130669
655.256	0.0130734
655.334	0.0130408
655.412	0.0129881
655.491	0.0130858
655.569	0.0131467
655.647	0.0130970
655.725	0.0131438
655.803	0.0131747
655.881	0.0132230
655.959	0.0130155
656.037	0.0130217
656.116	0.0130771
656.194	0.0131385
656.272	0.0131295
656.350	0.0129723
656.428	0.0131406
656.506	0.0131883
656.584	0.0130509
656.662	0.0130753
656.741	0.0129975
656.819	0.0131858
656.897	0.0131103
656.975	0.0132061
657.053	0.0131024
657.131	0.0131335
657.209	0.0130412
657.287	0.0130785
657.366	0.0129864
657.444	0.0129546
657.522	0.0130232
657.600	0.0130913
657.678	0.0131447
657.756	0.0130259
657.834	0.0131299
657.912	0.0129905
657.991	0.0130452
658.069	0.0131371
658.147	0.0130814
658.225	0.0129922
658.303	0.0128901
658.381	0.0131234
658.459	0.0129987
658.537	0.0129929
658.616	0.0129441
658.694	0.0130286
658.772	0.0130439
658.850	0.0130608
658.928	0.0129785
659.006	0.0129735
659.084	0.0129946
659.162	0.0130637
659.241	0.0131174
659.319	0.0130145
659.397	0.0129266
659.475	0.0130045
659.553	0.0130650
659.631	0.0130962
659.709	0.0130404
659.787	0.0129378
659.866	0.0129800
659.944	0.0129303
660.022	0.0131456
660.100	0.0130602
660.178	0.0130579
660.256	0.0131388
660.334	0.0130954
660.412	0.0129626
660.491	0.0129797
660.569	0.0130303
660.647	0.0130712
660.725	0.0130186
660.803	0.0129268
660.881	0.0130662
660.959	0.0129877
661.037	0.0130981
661.116	0.0130533
661.194	0.0129102
661.272	0.0130674
661.350	0.0130686
661.428	0.0130996
661.506	0.0131390
661.584	0.0129809
661.662	0.0130347
661.741	0.0129831
661.819	0.0129094
661.897	0.0129316
661.975	0.0129041
662.053	0.0129988
662.131	0.0130983
662.209	0.0130087
662.287	0.0129758
662.366	0.0130902
662.444	0.0131213
662.522	0.0129003
662.600	0.0129285
662.678	0.0130585
662.756	0.0130846
662.834	0.0129815
662.912	0.0129094
662.991	0.0130473
663.069	0.0128698
663.147	0.0129254
663.225	0.0130814
663.303	0.0130756
663.381	0.0130107
663.459	0.0129791
663.537	0.0130785
663.616	0.0130312
663.694	0.0129885
663.772	0.0130921
663.850	0.0130409
663.928	0.0127647
664.006	0.0129937
664.084	0.0130035
664.162	0.0130031
664.241	0.0128785
664.319	0.0129720
664.397	0.0128875
664.475	0.0129517
664.553	0.0129495
664.631	0.0129836
664.709	0.0129705
664.787	0.0128951
664.866	0.0129398
664.944	0.0129996
665.022	0.0129623
665.100	0.0129183
665.178	0.0128584
665.256	0.0130376
665.334	0.0129383
665.412	0.0129428
665.491	0.0131426
665.569	0.0128854
665.647	0.0129949
665.725	0.0129946
665.803	0.0130251
665.881	0.0129485
665.959	0.0129534
666.037	0.0128995
666.116	0.0130260
666.194	0.0129677
666.272	0.0130866
666.350	0.0130650
666.428	0.0130132
666.506	0.0130061
666.584	0.0128346
666.662	0.0129523
666.741	0.0130668
666.819	0.0129581
666.897	0.0130965
666.975	0.0130550
667.053	0.0129174
667.131	0.0130062
667.209	0.0129336
667.287	0.0130242
667.366	0.0129517
667.444	0.0128729
667.522	0.0129131
667.600	0.0128741
667.678	0.0128846
667.756	0.0130737
667.834	0.0130308
667.912	0.0129584
667.991	0.0130536
668.069	0.0130370
668.147	0.0129800
668.225	0.0131135
668.303	0.0130275
668.381	0.0128824
668.459	0.0129017
668.537	0.0129511
668.616	0.0130406
668.694	0.0128747
668.772	0.0129136
668.850	0.0130753
668.928	0.0130677
669.006	0.0129401
669.084	0.0130245
669.162	0.0129519
669.241	0.0129882
669.319	0.0130231
669.397	0.0130311
669.475	0.0130415
669.553	0.0130618
669.631	0.0130301
669.709	0.0129706
669.787	0.0128659
669.866	0.0128707
669.944	0.0131181
670.022	0.0131089
670.100	0.0130198
670.178	0.0129437
670.256	0.0129440
670.334	0.0129322
670.412	0.0129391
670.491	0.0129079
670.569	0.0129778
670.647	0.0129999
670.725	0.0131012
670.803	0.0130671
670.881	0.0130671
670.959	0.0130875
671.037	0.0130766
671.116	0.0129138
671.194	0.0129807
671.272	0.0130534
671.350	0.0131038
671.428	0.0131061
671.506	0.0130074
671.584	0.0131066
671.662	0.0130007
671.741	0.0130350
671.819	0.0130922
671.897	0.0130748
671.975	0.0130856
672.053	0.0130378
672.131	0.0130096
672.209	0.0130809
672.287	0.0132995
672.366	0.0130453
672.444	0.0131026
672.522	0.0129935
672.600	0.0131557
672.678	0.0131101
672.756	0.0130777
672.834	0.0130314
672.912	0.0130909
672.991	0.0130437
673.069	0.0131080
673.147	0.0132201
673.225	0.0130650
673.303	0.0131736
673.381	0.0131533
673.459	0.0130723
673.537	0.0131116
673.616	0.0132302
673.694	0.0131101
673.772	0.0131510
673.850	0.0131815
673.928	0.0129836
674.006	0.0130563
674.084	0.0132258
674.162	0.0130856
674.241	0.0129874
674.319	0.0130798
674.397	0.0131475
674.475	0.0131688
674.553	0.0131281
674.631	0.0130454
674.709	0.0129997
674.787	0.0130365
674.866	0.0131100
674.944	0.0132152
675.022	0.0131190
675.100	0.0130782
675.178	0.0130483
675.256	0.0130816
675.334	0.0130434
675.412	0.0130717
675.491	0.0130273
675.569	0.0132494
675.647	0.0131856
675.725	0.0129994
675.803	0.0130694
675.881	0.0130724
675.959	0.0132024
676.037	0.0132117
676.116	0.0131203
676.194	0.0130576
676.272	0.0132201
676.350	0.0131224
676.428	0.0131226
676.506	0.0130724
676.584	0.0128573
676.662	0.0130730
676.741	0.0131126
676.819	0.0131546
676.897	0.0131454
676.975	0.0130797
677.053	0.0131050
677.131	0.0131374
677.209	0.0130413
677.287	0.0131242
677.366	0.0131825
677.444	0.0131392
677.522	0.0131310
677.600	0.0130209
677.678	0.0129787
677.756	0.0129932
677.834	0.0130967
677.912	0.0131396
677.991	0.0131075
678.069	0.0130386
678.147	0.0130590
678.225	0.0130468
678.303	0.0131909
678.381	0.0132501
678.459	0.0131157
678.537	0.0128909
678.616	0.0128926
678.694	0.0130366
678.772	0.0129195
678.850	0.0131499
678.928	0.0130485
679.006	0.0129822
679.084	0.0128631
679.162	0.0130833
679.241	0.0129923
679.319	0.0129741
679.397	0.0129900
679.475	0.0129219
679.553	0.0129028
679.631	0.0130479
679.709	0.0129620
679.787	0.0130090
679.866	0.0129283
679.944	0.0130286
680.022	0.0129130
680.100	0.0130186
680.178	0.0130028
680.256	0.0130589
680.334	0.0128632
680.412	0.0129207
680.491	0.0130151
680.569	0.0129426
680.647	0.0129598
680.725	0.0130007
680.803	0.0129521
680.881	0.0129997
680.959	0.0129552
681.037	0.0129358
681.116	0.0131133
681.194	0.0130782
681.272	0.0130956
681.350	0.0130240
681.428	0.0130762
681.506	0.0131054
681.584	0.0129663
681.662	0.0129455
681.741	0.0130377
681.819	0.0130444
681.897	0.0129623
681.975	0.0130407
682.053	0.0128940
682.131	0.0129031
682.209	0.0128889
682.287	0.0130715
682.366	0.0129987
682.444	0.0130660
682.522	0.0130059
682.600	0.0129142
682.678	0.0129926
682.756	0.0130454
682.834	0.0130070
682.912	0.0129073
682.991	0.0130631
683.069	0.0130475
683.147	0.0129787
683.225	0.0130638
683.303	0.0130633
683.381	0.0130046
683.459	0.0129840
683.537	0.0131841
683.616	0.0129881
683.694	0.0129964
683.772	0.0130862
683.850	0.0130647
683.928	0.0130803
684.006	0.0129609
684.084	0.0130743
684.162	0.0130447
684.241	0.0130594
684.319	0.0130062
684.397	0.0129859
684.475	0.0130552
684.553	0.0130505
684.631	0.0130096
684.709	0.0130599
684.787	0.0130504
684.866	0.0130901
684.944	0.0130810
685.022	0.0130950
685.100	0.0130000
685.178	0.0129119
685.256	0.0128687
685.334	0.0129782
685.412	0.0130943
685.491	0.0129754
685.569	0.0129825
685.647	0.0130309
685.725	0.0130553
