05/06/2022	19:34:21	Ver.	4.1	UNKNOWN
Optical Delay	600.015094	Delta X		0.078125	Sweeps	1	Scan Rate	0/0
Coordinates	Axis 1	NaN	Axis 2	NaN	Axis 3	NaN	Axis 4	NaN	Axis 5	NaN	Axis 6	0.000000
TX Power	0.000000	RX Power	0.000000

600.015	0.0148743
600.093	0.0149269
600.171	0.0147478
600.249	0.0147550
600.328	0.0148187
600.406	0.0149589
600.484	0.0148055
600.562	0.0146738
600.640	0.0146975
600.718	0.0147735
600.796	0.0147589
600.874	0.0147329
600.953	0.0147626
601.031	0.0148283
601.109	0.0147665
601.187	0.0147926
601.265	0.0146410
601.343	0.0147588
601.421	0.0147871
601.499	0.0147012
601.578	0.0147330
601.656	0.0147781
601.734	0.0147826
601.812	0.0146841
601.890	0.0147669
601.968	0.0146671
602.046	0.0146879
602.124	0.0148312
602.203	0.0148448
602.281	0.0147284
602.359	0.0146793
602.437	0.0146957
602.515	0.0147911
602.593	0.0147691
602.671	0.0145914
602.749	0.0146278
602.828	0.0146254
602.906	0.0148741
602.984	0.0147912
603.062	0.0147199
603.140	0.0147475
603.218	0.0146720
603.296	0.0147964
603.374	0.0148296
603.453	0.0147724
603.531	0.0147697
603.609	0.0148398
603.687	0.0147530
603.765	0.0148010
603.843	0.0147656
603.921	0.0146677
603.999	0.0148307
604.078	0.0147807
604.156	0.0147292
604.234	0.0147787
604.312	0.0146968
604.390	0.0148164
604.468	0.0148810
604.546	0.0146548
604.624	0.0146388
604.703	0.0145306
604.781	0.0147292
604.859	0.0146732
604.937	0.0147011
605.015	0.0148058
605.093	0.0148329
605.171	0.0148397
605.249	0.0147469
605.328	0.0146358
605.406	0.0147514
605.484	0.0148596
605.562	0.0148074
605.640	0.0149241
605.718	0.0148040
605.796	0.0148337
605.874	0.0150215
605.953	0.0148161
606.031	0.0147684
606.109	0.0149163
606.187	0.0149450
606.265	0.0148315
606.343	0.0149245
606.421	0.0149312
606.499	0.0150879
606.578	0.0148987
606.656	0.0147887
606.734	0.0148962
606.812	0.0147914
606.890	0.0148999
606.968	0.0147782
607.046	0.0147277
607.124	0.0147191
607.203	0.0147993
607.281	0.0146353
607.359	0.0146607
607.437	0.0145712
607.515	0.0146882
607.593	0.0146604
607.671	0.0146747
607.749	0.0147443
607.828	0.0146846
607.906	0.0146826
607.984	0.0147079
608.062	0.0147722
608.140	0.0147328
608.218	0.0147758
608.296	0.0147482
608.374	0.0146661
608.453	0.0148173
608.531	0.0149377
608.609	0.0148026
608.687	0.0148025
608.765	0.0150197
608.843	0.0150258
608.921	0.0149175
608.999	0.0149799
609.078	0.0147891
609.156	0.0149015
609.234	0.0150529
609.312	0.0149055
609.390	0.0149940
609.468	0.0150510
609.546	0.0148885
609.624	0.0150816
609.703	0.0150869
609.781	0.0150114
609.859	0.0150279
609.937	0.0148530
610.015	0.0150507
610.093	0.0149538
610.171	0.0148420
610.249	0.0147486
610.328	0.0146549
610.406	0.0146450
610.484	0.0146056
610.562	0.0146165
610.640	0.0146511
610.718	0.0145912
610.796	0.0145512
610.874	0.0144423
610.953	0.0145788
611.031	0.0145436
611.109	0.0146026
611.187	0.0145304
611.265	0.0146082
611.343	0.0147450
611.421	0.0146697
611.499	0.0147900
611.578	0.0147355
611.656	0.0150229
611.734	0.0150741
611.812	0.0150433
611.890	0.0151158
611.968	0.0151603
612.046	0.0149976
612.124	0.0149606
612.203	0.0151482
612.281	0.0149481
612.359	0.0151160
612.437	0.0149358
612.515	0.0151019
612.593	0.0151675
612.671	0.0150102
612.749	0.0150574
612.828	0.0148619
612.906	0.0150864
612.984	0.0150173
613.062	0.0148634
613.140	0.0149603
613.218	0.0150644
613.296	0.0148480
613.374	0.0150001
613.453	0.0148199
613.531	0.0148857
613.609	0.0148969
613.687	0.0148696
613.765	0.0148662
613.843	0.0148659
613.921	0.0148535
613.999	0.0147569
614.078	0.0146991
614.156	0.0146472
614.234	0.0147115
614.312	0.0148264
614.390	0.0147304
614.468	0.0148383
614.546	0.0148015
614.624	0.0147544
614.703	0.0147491
614.781	0.0149268
614.859	0.0149463
614.937	0.0149290
615.015	0.0149583
615.093	0.0150827
615.171	0.0151185
615.249	0.0151460
615.328	0.0149755
615.406	0.0151145
615.484	0.0151947
615.562	0.0151678
615.640	0.0149748
615.718	0.0151549
615.796	0.0150539
615.874	0.0149873
615.953	0.0150882
616.031	0.0149191
616.109	0.0148403
616.187	0.0147110
616.265	0.0147544
616.343	0.0147858
616.421	0.0148858
616.499	0.0146956
616.578	0.0147295
616.656	0.0148895
616.734	0.0147263
616.812	0.0146341
616.890	0.0147181
616.968	0.0147861
617.046	0.0148820
617.124	0.0148656
617.203	0.0147382
617.281	0.0151380
617.359	0.0150211
617.437	0.0148842
617.515	0.0151144
617.593	0.0149907
617.671	0.0148885
617.749	0.0148914
617.828	0.0149596
617.906	0.0149332
617.984	0.0149168
618.062	0.0149413
618.140	0.0148938
618.218	0.0149445
618.296	0.0149043
618.374	0.0149207
618.453	0.0149769
618.531	0.0149500
618.609	0.0149988
618.687	0.0148765
618.765	0.0149825
618.843	0.0148516
618.921	0.0149551
618.999	0.0150669
619.078	0.0149154
619.156	0.0148652
619.234	0.0148623
619.312	0.0148343
619.390	0.0149809
619.468	0.0149123
619.546	0.0148588
619.624	0.0149325
619.703	0.0148721
619.781	0.0147681
619.859	0.0147165
619.937	0.0146687
620.015	0.0148444
620.093	0.0146508
620.171	0.0147157
620.249	0.0147109
620.328	0.0147514
620.406	0.0147547
620.484	0.0148156
620.562	0.0147234
620.640	0.0146234
620.718	0.0149297
620.796	0.0147817
620.874	0.0148917
620.953	0.0148444
621.031	0.0147191
621.109	0.0147152
621.187	0.0146997
621.265	0.0148263
621.343	0.0148959
621.421	0.0146427
621.499	0.0147269
621.578	0.0148092
621.656	0.0148644
621.734	0.0147778
621.812	0.0149483
621.890	0.0148622
621.968	0.0149180
622.046	0.0149318
622.124	0.0149624
622.203	0.0150054
622.281	0.0149479
622.359	0.0148722
622.437	0.0150812
622.515	0.0150564
622.593	0.0150443
622.671	0.0149635
622.749	0.0149164
622.828	0.0149262
622.906	0.0149171
622.984	0.0149205
623.062	0.0148097
623.140	0.0147562
623.218	0.0146342
623.296	0.0148044
623.374	0.0148187
623.453	0.0147888
623.531	0.0148347
623.609	0.0147965
623.687	0.0147444
623.765	0.0150275
623.843	0.0151058
623.921	0.0151219
623.999	0.0152700
624.078	0.0151672
624.156	0.0152485
624.234	0.0153590
624.312	0.0153451
624.390	0.0153236
624.468	0.0152165
624.546	0.0151746
624.624	0.0152774
624.703	0.0153628
624.781	0.0151853
624.859	0.0151054
624.937	0.0150793
625.015	0.0150553
625.093	0.0150391
625.171	0.0149123
625.249	0.0149433
625.328	0.0147820
625.406	0.0147874
625.484	0.0146779
625.562	0.0147283
625.640	0.0145866
625.718	0.0144595
625.796	0.0143792
625.874	0.0145208
625.953	0.0145332
626.031	0.0145372
626.109	0.0144338
626.187	0.0144543
626.265	0.0145885
626.343	0.0145116
626.421	0.0145443
626.499	0.0145604
626.578	0.0144717
626.656	0.0147141
626.734	0.0146924
626.812	0.0147890
626.890	0.0149664
626.968	0.0150605
627.046	0.0150008
627.124	0.0150774
627.203	0.0150717
627.281	0.0151997
627.359	0.0152711
627.437	0.0153068
627.515	0.0153365
627.593	0.0154130
627.671	0.0155119
627.749	0.0154319
627.828	0.0153329
627.906	0.0154274
627.984	0.0153773
628.062	0.0154659
628.140	0.0153487
628.218	0.0152266
628.296	0.0152251
628.374	0.0150742
628.453	0.0150052
628.531	0.0152231
628.609	0.0149224
628.687	0.0149311
628.765	0.0148277
628.843	0.0146687
628.921	0.0148061
628.999	0.0149068
629.078	0.0146207
629.156	0.0146723
629.234	0.0144322
629.312	0.0145236
629.390	0.0143839
629.468	0.0145745
629.546	0.0144537
629.624	0.0145267
629.703	0.0143768
629.781	0.0143816
629.859	0.0142836
629.937	0.0144038
630.015	0.0145576
630.093	0.0144694
630.171	0.0145638
630.249	0.0145773
630.328	0.0146375
630.406	0.0146170
630.484	0.0146291
630.562	0.0147577
630.640	0.0146409
630.718	0.0147430
630.796	0.0147931
630.874	0.0148269
630.953	0.0148286
631.031	0.0147572
631.109	0.0147901
631.187	0.0148027
631.265	0.0147403
631.343	0.0149082
631.421	0.0148413
631.499	0.0148510
631.578	0.0150130
631.656	0.0150240
631.734	0.0150054
631.812	0.0150566
631.890	0.0150517
631.968	0.0151195
632.046	0.0151094
632.124	0.0152654
632.203	0.0150040
632.281	0.0151660
632.359	0.0152983
632.437	0.0152369
632.515	0.0152081
632.593	0.0151769
632.671	0.0152186
632.749	0.0151645
632.828	0.0152618
632.906	0.0151686
632.984	0.0151752
633.062	0.0150507
633.140	0.0150175
633.218	0.0149899
633.296	0.0148455
633.374	0.0148061
633.453	0.0148350
633.531	0.0147460
633.609	0.0145914
633.687	0.0146417
633.765	0.0144239
633.843	0.0144089
633.921	0.0142863
633.999	0.0144315
634.078	0.0144620
634.156	0.0142895
634.234	0.0141456
634.312	0.0143655
634.390	0.0143102
634.468	0.0143803
634.546	0.0144125
634.624	0.0144166
634.703	0.0144196
634.781	0.0144681
634.859	0.0146542
634.937	0.0148138
635.015	0.0148367
635.093	0.0148605
635.171	0.0151025
635.249	0.0150265
635.328	0.0151786
635.406	0.0153168
635.484	0.0153059
635.562	0.0154237
635.640	0.0153283
635.718	0.0154462
635.796	0.0154002
635.874	0.0154260
635.953	0.0154395
636.031	0.0153304
636.109	0.0153609
636.187	0.0153477
636.265	0.0152328
636.343	0.0152618
636.421	0.0152819
636.499	0.0152629
636.578	0.0150951
636.656	0.0149220
636.734	0.0150640
636.812	0.0149773
636.890	0.0148127
636.968	0.0148421
637.046	0.0149335
637.124	0.0148460
637.203	0.0147226
637.281	0.0147029
637.359	0.0147140
637.437	0.0146682
637.515	0.0146584
637.593	0.0146968
637.671	0.0147031
637.749	0.0146026
637.828	0.0145821
637.906	0.0147385
637.984	0.0146012
638.062	0.0145759
638.140	0.0146763
638.218	0.0147706
638.296	0.0145934
638.374	0.0145259
638.453	0.0145821
638.531	0.0144342
638.609	0.0145673
638.687	0.0146496
638.765	0.0146510
638.843	0.0147595
638.921	0.0147221
638.999	0.0147176
639.078	0.0146871
639.156	0.0147478
639.234	0.0149790
639.312	0.0149182
639.390	0.0149975
639.468	0.0148542
639.546	0.0150460
639.624	0.0151778
639.703	0.0149730
639.781	0.0151693
639.859	0.0152142
639.937	0.0152776
640.015	0.0152248
640.093	0.0153082
640.171	0.0152979
640.249	0.0154785
640.328	0.0153700
640.406	0.0151486
640.484	0.0153177
640.562	0.0153027
640.640	0.0153311
640.718	0.0153246
640.796	0.0152505
640.874	0.0153337
640.953	0.0153094
641.031	0.0152931
641.109	0.0153720
641.187	0.0150212
641.265	0.0151051
641.343	0.0151050
641.421	0.0150407
641.499	0.0149802
641.578	0.0150802
641.656	0.0147850
641.734	0.0146778
641.812	0.0148117
641.890	0.0148643
641.968	0.0146466
642.046	0.0145515
642.124	0.0145663
642.203	0.0145065
642.281	0.0143237
642.359	0.0143796
642.437	0.0143977
642.515	0.0144003
642.593	0.0145666
642.671	0.0145253
642.749	0.0144202
642.828	0.0146017
642.906	0.0146687
642.984	0.0146380
643.062	0.0146339
643.140	0.0146886
643.218	0.0147134
643.296	0.0147691
643.374	0.0147803
643.453	0.0147044
643.531	0.0149674
643.609	0.0149207
643.687	0.0149321
643.765	0.0150014
643.843	0.0150075
643.921	0.0151113
643.999	0.0152898
644.078	0.0152197
644.156	0.0152857
644.234	0.0153257
644.312	0.0153568
644.390	0.0152719
644.468	0.0153362
644.546	0.0153028
644.624	0.0151801
644.703	0.0153014
644.781	0.0151839
644.859	0.0152385
644.937	0.0150201
645.015	0.0151659
645.093	0.0151691
645.171	0.0151849
645.249	0.0150895
645.328	0.0150314
645.406	0.0149937
645.484	0.0150451
645.562	0.0149550
645.640	0.0148062
645.718	0.0150871
645.796	0.0150043
645.874	0.0149715
645.953	0.0150543
646.031	0.0151184
646.109	0.0150356
646.187	0.0151360
646.265	0.0150346
646.343	0.0150204
646.421	0.0150542
646.499	0.0151137
646.578	0.0150691
646.656	0.0150201
646.734	0.0149745
646.812	0.0150150
646.890	0.0149807
646.968	0.0148996
647.046	0.0147949
647.124	0.0147086
647.203	0.0146304
647.281	0.0145541
647.359	0.0143921
647.437	0.0145690
647.515	0.0144761
647.593	0.0143415
647.671	0.0142525
647.749	0.0142189
647.828	0.0142554
647.906	0.0142738
647.984	0.0143436
648.062	0.0145217
648.140	0.0145887
648.218	0.0144718
648.296	0.0147494
648.374	0.0147853
648.453	0.0148723
648.531	0.0148609
648.609	0.0149905
648.687	0.0150634
648.765	0.0149162
648.843	0.0149840
648.921	0.0150365
648.999	0.0151834
649.078	0.0152649
649.156	0.0151555
649.234	0.0151546
649.312	0.0153041
649.390	0.0152691
649.468	0.0152498
649.546	0.0153016
649.624	0.0152112
649.703	0.0152884
649.781	0.0152360
649.859	0.0152691
649.937	0.0152193
650.015	0.0151202
650.093	0.0150683
650.171	0.0151015
650.249	0.0149291
650.328	0.0148852
650.406	0.0149609
650.484	0.0150533
650.562	0.0149101
650.640	0.0149062
650.718	0.0149889
650.796	0.0149332
650.874	0.0151071
650.953	0.0150543
651.031	0.0149096
651.109	0.0151093
651.187	0.0150794
651.265	0.0151028
651.343	0.0150598
651.421	0.0148740
651.499	0.0149739
651.578	0.0151035
651.656	0.0150309
651.734	0.0149542
651.812	0.0149834
651.890	0.0146592
651.968	0.0146709
652.046	0.0147179
652.124	0.0146207
652.203	0.0146104
652.281	0.0145728
652.359	0.0146501
652.437	0.0143605
652.515	0.0143640
652.593	0.0142460
652.671	0.0144682
652.749	0.0144006
652.828	0.0143987
652.906	0.0143703
652.984	0.0143475
653.062	0.0144818
653.140	0.0144157
653.218	0.0146324
653.296	0.0144929
653.374	0.0146969
653.453	0.0148195
653.531	0.0148218
653.609	0.0149181
653.687	0.0150725
653.765	0.0151694
653.843	0.0151026
653.921	0.0152134
653.999	0.0153651
654.078	0.0154881
654.156	0.0153961
654.234	0.0155099
654.312	0.0154462
654.390	0.0152309
654.468	0.0153655
654.546	0.0154283
654.624	0.0153355
654.703	0.0153498
654.781	0.0152692
654.859	0.0151205
654.937	0.0151262
655.015	0.0151089
655.093	0.0149457
655.171	0.0149903
655.249	0.0151058
655.328	0.0148924
655.406	0.0148844
655.484	0.0149831
655.562	0.0149476
655.640	0.0148858
655.718	0.0150072
655.796	0.0149249
655.874	0.0148264
655.953	0.0149372
656.031	0.0148398
656.109	0.0148180
656.187	0.0148768
656.265	0.0148055
656.343	0.0147279
656.421	0.0146182
656.499	0.0147596
656.578	0.0146305
656.656	0.0146365
656.734	0.0145678
656.812	0.0144374
656.890	0.0144279
656.968	0.0143924
657.046	0.0143897
657.124	0.0145361
657.203	0.0143916
657.281	0.0143858
657.359	0.0141953
657.437	0.0142271
657.515	0.0145322
657.593	0.0145653
657.671	0.0145092
657.749	0.0145979
657.828	0.0144663
657.906	0.0147026
657.984	0.0146017
658.062	0.0147353
658.140	0.0147305
658.218	0.0149031
658.296	0.0150391
658.374	0.0150322
658.453	0.0150619
658.531	0.0151343
658.609	0.0152686
658.687	0.0152721
658.765	0.0153036
658.843	0.0152931
658.921	0.0153554
658.999	0.0152892
659.078	0.0153473
659.156	0.0151482
659.234	0.0153883
659.312	0.0152335
659.390	0.0152753
659.468	0.0152610
659.546	0.0151192
659.624	0.0152386
659.703	0.0151672
659.781	0.0149648
659.859	0.0149437
659.937	0.0149716
660.015	0.0149326
660.093	0.0148341
660.171	0.0149051
660.249	0.0148104
660.328	0.0148299
660.406	0.0148681
660.484	0.0148582
660.562	0.0147977
660.640	0.0148841
660.718	0.0146987
660.796	0.0147932
660.874	0.0147034
660.953	0.0147433
661.031	0.0148655
661.109	0.0147140
661.187	0.0147871
661.265	0.0147920
661.343	0.0147746
661.421	0.0147123
661.499	0.0145626
661.578	0.0146340
661.656	0.0146434
661.734	0.0146041
661.812	0.0146411
661.890	0.0147866
661.968	0.0147063
662.046	0.0146478
662.124	0.0147288
662.203	0.0147575
662.281	0.0148201
662.359	0.0148743
662.437	0.0147947
662.515	0.0148333
662.593	0.0147352
662.671	0.0148643
662.749	0.0149883
662.828	0.0149058
662.906	0.0148800
662.984	0.0148921
663.062	0.0149500
663.140	0.0149797
663.218	0.0148858
663.296	0.0148788
663.374	0.0150876
663.453	0.0150961
663.531	0.0150246
663.609	0.0151173
663.687	0.0149763
663.765	0.0150345
663.843	0.0150059
663.921	0.0151834
663.999	0.0151645
664.078	0.0151794
664.156	0.0152084
664.234	0.0151937
664.312	0.0152694
664.390	0.0151604
664.468	0.0152405
664.546	0.0150262
664.624	0.0152270
664.703	0.0151873
664.781	0.0151417
664.859	0.0151047
664.937	0.0152145
665.015	0.0152565
665.093	0.0149213
665.171	0.0148477
665.249	0.0149612
665.328	0.0150098
665.406	0.0149312
665.484	0.0148708
665.562	0.0149644
665.640	0.0148146
665.718	0.0147650
665.796	0.0147963
665.874	0.0147247
665.953	0.0149319
666.031	0.0147347
666.109	0.0148749
666.187	0.0148579
666.265	0.0148447
666.343	0.0148822
666.421	0.0149534
666.499	0.0148719
666.578	0.0148432
666.656	0.0148724
666.734	0.0150028
666.812	0.0148462
666.890	0.0147403
666.968	0.0148155
667.046	0.0149038
667.124	0.0148662
667.203	0.0148972
667.281	0.0148470
667.359	0.0149969
667.437	0.0148891
667.515	0.0149267
667.593	0.0149681
667.671	0.0150880
667.749	0.0150587
667.828	0.0150698
667.906	0.0151376
667.984	0.0151978
668.062	0.0150526
668.140	0.0151506
668.218	0.0151257
668.296	0.0150082
668.374	0.0149191
668.453	0.0149818
668.531	0.0150293
668.609	0.0150302
668.687	0.0149833
668.765	0.0150273
668.843	0.0149913
668.921	0.0149973
668.999	0.0150010
669.078	0.0150830
669.156	0.0150151
669.234	0.0149969
669.312	0.0150813
669.390	0.0150556
669.468	0.0151186
669.546	0.0151340
669.624	0.0150945
669.703	0.0150845
669.781	0.0151617
669.859	0.0152913
669.937	0.0151971
670.015	0.0151819
670.093	0.0152362
670.171	0.0149415
670.249	0.0150149
670.328	0.0149918
670.406	0.0148783
670.484	0.0149831
670.562	0.0147099
670.640	0.0147572
670.718	0.0145773
670.796	0.0145297
670.874	0.0145580
670.953	0.0145738
671.031	0.0143571
671.109	0.0143983
671.187	0.0144584
671.265	0.0143523
671.343	0.0143264
671.421	0.0143491
671.499	0.0143958
671.578	0.0145218
671.656	0.0147311
671.734	0.0147150
671.812	0.0146919
671.890	0.0148075
671.968	0.0148492
672.046	0.0149714
672.124	0.0150048
672.203	0.0150426
672.281	0.0152761
672.359	0.0151964
672.437	0.0151846
672.515	0.0151918
672.593	0.0152193
672.671	0.0151508
672.749	0.0152021
672.828	0.0150722
672.906	0.0152203
672.984	0.0151359
673.062	0.0152119
673.140	0.0150912
673.218	0.0150474
673.296	0.0148935
673.374	0.0150910
673.453	0.0150565
673.531	0.0150239
673.609	0.0151431
673.687	0.0149789
673.765	0.0151022
673.843	0.0152127
673.921	0.0151190
673.999	0.0150417
674.078	0.0150857
674.156	0.0150321
674.234	0.0149821
674.312	0.0148396
674.390	0.0148051
674.468	0.0148814
674.546	0.0150470
674.624	0.0150065
674.703	0.0148440
674.781	0.0148347
674.859	0.0148854
674.937	0.0148930
675.015	0.0147281
675.093	0.0149243
675.171	0.0148105
675.249	0.0146921
675.328	0.0145870
675.406	0.0147341
675.484	0.0144582
675.562	0.0146380
675.640	0.0146697
675.718	0.0144938
675.796	0.0144623
675.874	0.0145198
675.953	0.0144297
676.031	0.0143244
676.109	0.0143053
676.187	0.0142677
676.265	0.0144625
676.343	0.0144180
676.421	0.0143919
676.499	0.0143948
676.578	0.0143987
676.656	0.0144862
676.734	0.0144277
676.812	0.0145823
676.890	0.0147497
676.968	0.0148042
677.046	0.0147206
677.124	0.0148181
677.203	0.0150552
677.281	0.0149730
677.359	0.0150178
677.437	0.0150842
677.515	0.0150377
677.593	0.0151679
677.671	0.0152448
677.749	0.0151657
677.828	0.0151368
677.906	0.0151526
677.984	0.0150777
678.062	0.0150275
678.140	0.0149786
678.218	0.0150807
678.296	0.0150671
678.374	0.0150985
678.453	0.0150451
678.531	0.0151359
678.609	0.0148959
678.687	0.0148523
678.765	0.0148223
678.843	0.0148789
678.921	0.0147575
678.999	0.0149413
679.078	0.0149078
679.156	0.0149527
679.234	0.0147466
679.312	0.0146813
679.390	0.0149747
679.468	0.0146519
679.546	0.0148540
679.624	0.0149336
679.703	0.0147942
679.781	0.0147299
679.859	0.0147150
679.937	0.0148401
680.015	0.0148003
680.093	0.0147353
680.171	0.0146146
680.249	0.0146049
680.328	0.0145310
680.406	0.0145846
680.484	0.0146876
680.562	0.0145950
680.640	0.0145767
680.718	0.0146504
680.796	0.0145571
680.874	0.0145094
680.953	0.0145547
681.031	0.0144187
681.109	0.0145455
681.187	0.0144518
681.265	0.0143471
681.343	0.0145348
681.421	0.0144092
681.499	0.0144788
681.578	0.0145264
681.656	0.0145460
681.734	0.0145792
681.812	0.0146638
681.890	0.0145896
681.968	0.0147428
682.046	0.0148140
682.124	0.0147802
682.203	0.0148773
682.281	0.0148625
682.359	0.0150012
682.437	0.0150836
682.515	0.0151906
682.593	0.0151962
682.671	0.0151038
682.749	0.0150343
682.828	0.0151794
682.906	0.0151876
682.984	0.0152466
683.062	0.0152839
683.140	0.0152662
683.218	0.0151688
683.296	0.0152003
683.374	0.0151855
683.453	0.0151397
683.531	0.0150723
683.609	0.0150372
683.687	0.0149554
683.765	0.0148546
683.843	0.0148778
683.921	0.0147031
683.999	0.0146150
684.078	0.0147183
684.156	0.0146986
684.234	0.0147265
684.312	0.0146726
684.390	0.0146828
684.468	0.0147070
684.546	0.0146654
684.624	0.0146990
684.703	0.0147089
684.781	0.0147113
684.859	0.0147945
684.937	0.0147932
685.015	0.0146901
685.093	0.0147282
685.171	0.0147176
685.249	0.0145967
685.328	0.0146563
685.406	0.0145905
685.484	0.0145141
685.562	0.0146106
685.640	0.0146622
685.718	0.0145332
