05/06/2022	18:43:18	Ver.	4.1	UNKNOWN
Optical Delay	600.015094	Delta X		0.078125	Sweeps	1	Scan Rate	0/0
Coordinates	Axis 1	NaN	Axis 2	NaN	Axis 3	NaN	Axis 4	NaN	Axis 5	NaN	Axis 6	0.000000
TX Power	0.000000	RX Power	0.000000

600.015	0.0127461
600.093	0.0127430
600.171	0.0128174
600.249	0.0127303
600.328	0.0127563
600.406	0.0127563
600.484	0.0126195
600.562	0.0127991
600.640	0.0128040
600.718	0.0127217
600.796	0.0128786
600.874	0.0128708
600.953	0.0127509
601.031	0.0127311
601.109	0.0126563
601.187	0.0126702
601.265	0.0128548
601.343	0.0127493
601.421	0.0128597
601.499	0.0128160
601.578	0.0127949
601.656	0.0126543
601.734	0.0127575
601.812	0.0127052
601.890	0.0128499
601.968	0.0127645
602.046	0.0128229
602.124	0.0127998
602.203	0.0128225
602.281	0.0128426
602.359	0.0127877
602.437	0.0127905
602.515	0.0127396
602.593	0.0126288
602.671	0.0127415
602.749	0.0127224
602.828	0.0128671
602.906	0.0126783
602.984	0.0127620
603.062	0.0127361
603.140	0.0128043
603.218	0.0126820
603.296	0.0127191
603.374	0.0127175
603.453	0.0127061
603.531	0.0126849
603.609	0.0127567
603.687	0.0127286
603.765	0.0126936
603.843	0.0128709
603.921	0.0127428
603.999	0.0126788
604.078	0.0127219
604.156	0.0128336
604.234	0.0127335
604.312	0.0128123
604.390	0.0127122
604.468	0.0128664
604.546	0.0128310
604.624	0.0127297
604.703	0.0127559
604.781	0.0127307
604.859	0.0126928
604.937	0.0127318
605.015	0.0128700
605.093	0.0126871
605.171	0.0126958
605.249	0.0127121
605.328	0.0127682
605.406	0.0126555
605.484	0.0125967
605.562	0.0128464
605.640	0.0126892
605.718	0.0127428
605.796	0.0127170
605.874	0.0127880
605.953	0.0128251
606.031	0.0127680
606.109	0.0128674
606.187	0.0128729
606.265	0.0128365
606.343	0.0127341
606.421	0.0126221
606.499	0.0127271
606.578	0.0128087
606.656	0.0127048
606.734	0.0127455
606.812	0.0127325
606.890	0.0128168
606.968	0.0127840
607.046	0.0127872
607.124	0.0127142
607.203	0.0128176
607.281	0.0127323
607.359	0.0127390
607.437	0.0127218
607.515	0.0126866
607.593	0.0127340
607.671	0.0127267
607.749	0.0128043
607.828	0.0127694
607.906	0.0128460
607.984	0.0127435
608.062	0.0128317
608.140	0.0127232
608.218	0.0126780
608.296	0.0128719
608.374	0.0127493
608.453	0.0128088
608.531	0.0126720
608.609	0.0126058
608.687	0.0128026
608.765	0.0128429
608.843	0.0126466
608.921	0.0127446
608.999	0.0127644
609.078	0.0126722
609.156	0.0128381
609.234	0.0127343
609.312	0.0126897
609.390	0.0127361
609.468	0.0128533
609.546	0.0126883
609.624	0.0127631
609.703	0.0127518
609.781	0.0128497
609.859	0.0126868
609.937	0.0126730
610.015	0.0126212
610.093	0.0127683
610.171	0.0127231
610.249	0.0126716
610.328	0.0126657
610.406	0.0127766
610.484	0.0127194
610.562	0.0126532
610.640	0.0126891
610.718	0.0126563
610.796	0.0127108
610.874	0.0127361
610.953	0.0128647
611.031	0.0127213
611.109	0.0126752
611.187	0.0127512
611.265	0.0128421
611.343	0.0128331
611.421	0.0127190
611.499	0.0128499
611.578	0.0128368
611.656	0.0127497
611.734	0.0127930
611.812	0.0128638
611.890	0.0127917
611.968	0.0128101
612.046	0.0126936
612.124	0.0128291
612.203	0.0127869
612.281	0.0127532
612.359	0.0126699
612.437	0.0125936
612.515	0.0127361
612.593	0.0128185
612.671	0.0128226
612.749	0.0127721
612.828	0.0127070
612.906	0.0128058
612.984	0.0127273
613.062	0.0127917
613.140	0.0128364
613.218	0.0127435
613.296	0.0127548
613.374	0.0127486
613.453	0.0127244
613.531	0.0128543
613.609	0.0127992
613.687	0.0128413
613.765	0.0127457
613.843	0.0127239
613.921	0.0127297
613.999	0.0126837
614.078	0.0128623
614.156	0.0127053
614.234	0.0128159
614.312	0.0126231
614.390	0.0127936
614.468	0.0126939
614.546	0.0127882
614.624	0.0127358
614.703	0.0127734
614.781	0.0128521
614.859	0.0127409
614.937	0.0128042
615.015	0.0128664
615.093	0.0127975
615.171	0.0128329
615.249	0.0127729
615.328	0.0128377
615.406	0.0128718
615.484	0.0127942
615.562	0.0127879
615.640	0.0127483
615.718	0.0128792
615.796	0.0127052
615.874	0.0126218
615.953	0.0127682
616.031	0.0127585
616.109	0.0128419
616.187	0.0128172
616.265	0.0128297
616.343	0.0126701
616.421	0.0126553
616.499	0.0128563
616.578	0.0128419
616.656	0.0126616
616.734	0.0126063
616.812	0.0127682
616.890	0.0126835
616.968	0.0127511
617.046	0.0128011
617.124	0.0127961
617.203	0.0128629
617.281	0.0127956
617.359	0.0126797
617.437	0.0128683
617.515	0.0127309
617.593	0.0128417
617.671	0.0126501
617.749	0.0127554
617.828	0.0128533
617.906	0.0127036
617.984	0.0127329
618.062	0.0127199
618.140	0.0127981
618.218	0.0127998
618.296	0.0127351
618.374	0.0127557
618.453	0.0127036
618.531	0.0126299
618.609	0.0127425
618.687	0.0127898
618.765	0.0128508
618.843	0.0127737
618.921	0.0127476
618.999	0.0129934
619.078	0.0128380
619.156	0.0127957
619.234	0.0127290
619.312	0.0128343
619.390	0.0127113
619.468	0.0127757
619.546	0.0128334
619.624	0.0126811
619.703	0.0126786
619.781	0.0129061
619.859	0.0128400
619.937	0.0127744
620.015	0.0128163
620.093	0.0128635
620.171	0.0127845
620.249	0.0127242
620.328	0.0128188
620.406	0.0128147
620.484	0.0127309
620.562	0.0127954
620.640	0.0127614
620.718	0.0128256
620.796	0.0128990
620.874	0.0128113
620.953	0.0127475
621.031	0.0128191
621.109	0.0126332
621.187	0.0127609
621.265	0.0127403
621.343	0.0127601
621.421	0.0128471
621.499	0.0127567
621.578	0.0127896
621.656	0.0126819
621.734	0.0127072
621.812	0.0127811
621.890	0.0128303
621.968	0.0128036
622.046	0.0127936
622.124	0.0128187
622.203	0.0128275
622.281	0.0126530
622.359	0.0126947
622.437	0.0127556
622.515	0.0127913
622.593	0.0128026
622.671	0.0128384
622.749	0.0127888
622.828	0.0128101
622.906	0.0126884
622.984	0.0126840
623.062	0.0127038
623.140	0.0127023
623.218	0.0126810
623.296	0.0128229
623.374	0.0127345
623.453	0.0127948
623.531	0.0128017
623.609	0.0127917
623.687	0.0127299
623.765	0.0126746
623.843	0.0128003
623.921	0.0126264
623.999	0.0126882
624.078	0.0126703
624.156	0.0127113
624.234	0.0128220
624.312	0.0126171
624.390	0.0126934
624.468	0.0127387
624.546	0.0127142
624.624	0.0127280
624.703	0.0127023
624.781	0.0127545
624.859	0.0128221
624.937	0.0127871
625.015	0.0127728
625.093	0.0127055
625.171	0.0128443
625.249	0.0128136
625.328	0.0127433
625.406	0.0126417
625.484	0.0128732
625.562	0.0127176
625.640	0.0127468
625.718	0.0128433
625.796	0.0128642
625.874	0.0127158
625.953	0.0126601
626.031	0.0127676
626.109	0.0128882
626.187	0.0128574
626.265	0.0128727
626.343	0.0126327
626.421	0.0127910
626.499	0.0128968
626.578	0.0128341
626.656	0.0128819
626.734	0.0128824
626.812	0.0128176
626.890	0.0127505
626.968	0.0126870
627.046	0.0126412
627.124	0.0127810
627.203	0.0127414
627.281	0.0127438
627.359	0.0127827
627.437	0.0128336
627.515	0.0126937
627.593	0.0126329
627.671	0.0128561
627.749	0.0126915
627.828	0.0127477
627.906	0.0128317
627.984	0.0125961
628.062	0.0127732
628.140	0.0128596
628.218	0.0127753
628.296	0.0127071
628.374	0.0128954
628.453	0.0128306
628.531	0.0126351
628.609	0.0126171
628.687	0.0129040
628.765	0.0127406
628.843	0.0126807
628.921	0.0128389
628.999	0.0128229
629.078	0.0126327
629.156	0.0127611
629.234	0.0128883
629.312	0.0128133
629.390	0.0127562
629.468	0.0127470
629.546	0.0127664
629.624	0.0127477
629.703	0.0127722
629.781	0.0127791
629.859	0.0126804
629.937	0.0127471
630.015	0.0128087
630.093	0.0127717
630.171	0.0127801
630.249	0.0127485
630.328	0.0127459
630.406	0.0128083
630.484	0.0128346
630.562	0.0128411
630.640	0.0127203
630.718	0.0127977
630.796	0.0127954
630.874	0.0128291
630.953	0.0127168
631.031	0.0127432
631.109	0.0126834
631.187	0.0126344
631.265	0.0128141
631.343	0.0126141
631.421	0.0126672
631.499	0.0128661
631.578	0.0127576
631.656	0.0126756
631.734	0.0127409
631.812	0.0128323
631.890	0.0128996
631.968	0.0126895
632.046	0.0126862
632.124	0.0126873
632.203	0.0126468
632.281	0.0128651
632.359	0.0128606
632.437	0.0127158
632.515	0.0128023
632.593	0.0127134
632.671	0.0128677
632.749	0.0127626
632.828	0.0127158
632.906	0.0128084
632.984	0.0126740
633.062	0.0127629
633.140	0.0127168
633.218	0.0127287
633.296	0.0126885
633.374	0.0126822
633.453	0.0127895
633.531	0.0127031
633.609	0.0127023
633.687	0.0127364
633.765	0.0126506
633.843	0.0127534
633.921	0.0127868
633.999	0.0127685
634.078	0.0127635
634.156	0.0127091
634.234	0.0128260
634.312	0.0127605
634.390	0.0126019
634.468	0.0127399
634.546	0.0127390
634.624	0.0128010
634.703	0.0126748
634.781	0.0126613
634.859	0.0128644
634.937	0.0128301
635.015	0.0126325
635.093	0.0127415
635.171	0.0128171
635.249	0.0128241
635.328	0.0128108
635.406	0.0128182
635.484	0.0128921
635.562	0.0127883
635.640	0.0126411
635.718	0.0127025
635.796	0.0128434
635.874	0.0128414
635.953	0.0127114
636.031	0.0128332
636.109	0.0127215
636.187	0.0126948
636.265	0.0127192
636.343	0.0129283
636.421	0.0128374
636.499	0.0127101
636.578	0.0128568
636.656	0.0127540
636.734	0.0126891
636.812	0.0127872
636.890	0.0128400
636.968	0.0127852
637.046	0.0127179
637.124	0.0128252
637.203	0.0127998
637.281	0.0126662
637.359	0.0127349
637.437	0.0126168
637.515	0.0127899
637.593	0.0127274
637.671	0.0127044
637.749	0.0128420
637.828	0.0127673
637.906	0.0127653
637.984	0.0127332
638.062	0.0126720
638.140	0.0127772
638.218	0.0127675
638.296	0.0126865
638.374	0.0127748
638.453	0.0128207
638.531	0.0126637
638.609	0.0127554
638.687	0.0127951
638.765	0.0126567
638.843	0.0127219
638.921	0.0126920
638.999	0.0128311
639.078	0.0126466
639.156	0.0127044
639.234	0.0126632
639.312	0.0127168
639.390	0.0126870
639.468	0.0128285
639.546	0.0127747
639.624	0.0127706
639.703	0.0128928
639.781	0.0127295
639.859	0.0127586
639.937	0.0127078
640.015	0.0126627
640.093	0.0127118
640.171	0.0127312
640.249	0.0126457
640.328	0.0125327
640.406	0.0127529
640.484	0.0126940
640.562	0.0126054
640.640	0.0127042
640.718	0.0127444
640.796	0.0128876
640.874	0.0128311
640.953	0.0127309
641.031	0.0127741
641.109	0.0127405
641.187	0.0127020
641.265	0.0127589
641.343	0.0128078
641.421	0.0127153
641.499	0.0127260
641.578	0.0127348
641.656	0.0128226
641.734	0.0127299
641.812	0.0127725
641.890	0.0127195
641.968	0.0127962
642.046	0.0125462
642.124	0.0127612
642.203	0.0127119
642.281	0.0127519
642.359	0.0126884
642.437	0.0127541
642.515	0.0127561
642.593	0.0127229
642.671	0.0127155
642.749	0.0128391
642.828	0.0127116
642.906	0.0126479
642.984	0.0127718
643.062	0.0127387
643.140	0.0127963
643.218	0.0127622
643.296	0.0127268
643.374	0.0128298
643.453	0.0127425
643.531	0.0128304
643.609	0.0127776
643.687	0.0128068
643.765	0.0128056
643.843	0.0128378
643.921	0.0126936
643.999	0.0125851
644.078	0.0127197
644.156	0.0128532
644.234	0.0127540
644.312	0.0127124
644.390	0.0126891
644.468	0.0127249
644.546	0.0127347
644.624	0.0127871
644.703	0.0128175
644.781	0.0127268
644.859	0.0126089
644.937	0.0126783
645.015	0.0128088
645.093	0.0126147
645.171	0.0126195
645.249	0.0128761
645.328	0.0129429
645.406	0.0127515
645.484	0.0127910
645.562	0.0125903
645.640	0.0125919
645.718	0.0128036
645.796	0.0128395
645.874	0.0127164
645.953	0.0127144
646.031	0.0126878
646.109	0.0126360
646.187	0.0128016
646.265	0.0127258
646.343	0.0127542
646.421	0.0127492
646.499	0.0128358
646.578	0.0127195
646.656	0.0127638
646.734	0.0128891
646.812	0.0127312
646.890	0.0127463
646.968	0.0127218
647.046	0.0127232
647.124	0.0127967
647.203	0.0126894
647.281	0.0127879
647.359	0.0127161
647.437	0.0126870
647.515	0.0128063
647.593	0.0127309
647.671	0.0127904
647.749	0.0127533
647.828	0.0127728
647.906	0.0128236
647.984	0.0126694
648.062	0.0127937
648.140	0.0127365
648.218	0.0127596
648.296	0.0126709
648.374	0.0127670
648.453	0.0128833
648.531	0.0127707
648.609	0.0128516
648.687	0.0127434
648.765	0.0126222
648.843	0.0126980
648.921	0.0127985
648.999	0.0127361
649.078	0.0127971
649.156	0.0128703
649.234	0.0126610
649.312	0.0129358
649.390	0.0127755
649.468	0.0127963
649.546	0.0128136
649.624	0.0127782
649.703	0.0128754
649.781	0.0128087
649.859	0.0128000
649.937	0.0126740
650.015	0.0126502
650.093	0.0128042
650.171	0.0127171
650.249	0.0127888
650.328	0.0128627
650.406	0.0127145
650.484	0.0128410
650.562	0.0127563
650.640	0.0127221
650.718	0.0126804
650.796	0.0127570
650.874	0.0127954
650.953	0.0127881
651.031	0.0127887
651.109	0.0127346
651.187	0.0126785
651.265	0.0127156
651.343	0.0127432
651.421	0.0127473
651.499	0.0126210
651.578	0.0127464
651.656	0.0128349
651.734	0.0128454
651.812	0.0128680
651.890	0.0126409
651.968	0.0127654
652.046	0.0128771
652.124	0.0128273
652.203	0.0127767
652.281	0.0126689
652.359	0.0128840
652.437	0.0127290
652.515	0.0128091
652.593	0.0128113
652.671	0.0128435
652.749	0.0128252
652.828	0.0126346
652.906	0.0126556
652.984	0.0128388
653.062	0.0127389
653.140	0.0126608
653.218	0.0126674
653.296	0.0127683
653.374	0.0127688
653.453	0.0127269
653.531	0.0127518
653.609	0.0127593
653.687	0.0128433
653.765	0.0127724
653.843	0.0127333
653.921	0.0127750
653.999	0.0127757
654.078	0.0129013
654.156	0.0127477
654.234	0.0128092
654.312	0.0126805
654.390	0.0126020
654.468	0.0126855
654.546	0.0126830
654.624	0.0127361
654.703	0.0126418
654.781	0.0127993
654.859	0.0128690
654.937	0.0128426
655.015	0.0126848
655.093	0.0127013
655.171	0.0128135
655.249	0.0129025
655.328	0.0127318
655.406	0.0127763
655.484	0.0126499
655.562	0.0126895
655.640	0.0127840
655.718	0.0127142
655.796	0.0125597
655.874	0.0127985
655.953	0.0128799
656.031	0.0126519
656.109	0.0128366
656.187	0.0128228
656.265	0.0127187
656.343	0.0127182
656.421	0.0127279
656.499	0.0128061
656.578	0.0127339
656.656	0.0126524
656.734	0.0126250
656.812	0.0127342
656.890	0.0126673
656.968	0.0127321
657.046	0.0128074
657.124	0.0127132
657.203	0.0127023
657.281	0.0127641
657.359	0.0127430
657.437	0.0127677
657.515	0.0128065
657.593	0.0128059
657.671	0.0127400
657.749	0.0127862
657.828	0.0127012
657.906	0.0127567
657.984	0.0127539
658.062	0.0128318
658.140	0.0127723
658.218	0.0127515
658.296	0.0128146
658.374	0.0127189
658.453	0.0127953
658.531	0.0126459
658.609	0.0125793
658.687	0.0125671
658.765	0.0127433
658.843	0.0128107
658.921	0.0126643
658.999	0.0128249
659.078	0.0126370
659.156	0.0127328
659.234	0.0127173
659.312	0.0128443
659.390	0.0127338
659.468	0.0127118
659.546	0.0127113
659.624	0.0128182
659.703	0.0126682
659.781	0.0125428
659.859	0.0126221
659.937	0.0129061
660.015	0.0128319
660.093	0.0126214
660.171	0.0126524
660.249	0.0128078
660.328	0.0128744
660.406	0.0126721
660.484	0.0127541
660.562	0.0127463
660.640	0.0128305
660.718	0.0127563
660.796	0.0128055
660.874	0.0126365
660.953	0.0128073
661.031	0.0127381
661.109	0.0127055
661.187	0.0127369
661.265	0.0127468
661.343	0.0126849
661.421	0.0127516
661.499	0.0126128
661.578	0.0129034
661.656	0.0128329
661.734	0.0127242
661.812	0.0128343
661.890	0.0126567
661.968	0.0127642
662.046	0.0128192
662.124	0.0127196
662.203	0.0127171
662.281	0.0127825
662.359	0.0127223
662.437	0.0127377
662.515	0.0128378
662.593	0.0127113
662.671	0.0125806
662.749	0.0127582
662.828	0.0127863
662.906	0.0127011
662.984	0.0126962
663.062	0.0128601
663.140	0.0128251
663.218	0.0127540
663.296	0.0126374
663.374	0.0127551
663.453	0.0127962
663.531	0.0128104
663.609	0.0128249
663.687	0.0127979
663.765	0.0127811
663.843	0.0127856
663.921	0.0126558
663.999	0.0126963
664.078	0.0126952
664.156	0.0127529
664.234	0.0127412
664.312	0.0127581
664.390	0.0127692
664.468	0.0127076
664.546	0.0127716
664.624	0.0127906
664.703	0.0128791
664.781	0.0126893
664.859	0.0126829
664.937	0.0128211
665.015	0.0128268
665.093	0.0127031
665.171	0.0127106
665.249	0.0127649
665.328	0.0128471
665.406	0.0128119
665.484	0.0127905
665.562	0.0126646
665.640	0.0125994
665.718	0.0127338
665.796	0.0126030
665.874	0.0127374
665.953	0.0126115
666.031	0.0126683
666.109	0.0126657
666.187	0.0126600
666.265	0.0126585
666.343	0.0128496
666.421	0.0128033
666.499	0.0126665
666.578	0.0126929
666.656	0.0126376
666.734	0.0127366
666.812	0.0125991
666.890	0.0126745
666.968	0.0126495
667.046	0.0127441
667.124	0.0127065
667.203	0.0127452
667.281	0.0126715
667.359	0.0126846
667.437	0.0127041
667.515	0.0127376
667.593	0.0127621
667.671	0.0127584
667.749	0.0126141
667.828	0.0127912
667.906	0.0128021
667.984	0.0127038
668.062	0.0128629
668.140	0.0126806
668.218	0.0127284
668.296	0.0128018
668.374	0.0127444
668.453	0.0127636
668.531	0.0127275
668.609	0.0127372
668.687	0.0127712
668.765	0.0127877
668.843	0.0127509
668.921	0.0126987
668.999	0.0126834
669.078	0.0127496
669.156	0.0128397
669.234	0.0127815
669.312	0.0127832
669.390	0.0128185
669.468	0.0127442
669.546	0.0127258
669.624	0.0127169
669.703	0.0127650
669.781	0.0128249
669.859	0.0127602
669.937	0.0128116
670.015	0.0127344
670.093	0.0128372
670.171	0.0127280
670.249	0.0126921
670.328	0.0127591
670.406	0.0127814
670.484	0.0128905
670.562	0.0128806
670.640	0.0127216
670.718	0.0127667
670.796	0.0128642
670.874	0.0128208
670.953	0.0127574
671.031	0.0128506
671.109	0.0128955
671.187	0.0129084
671.265	0.0128415
671.343	0.0127797
671.421	0.0127533
671.499	0.0128390
671.578	0.0128883
671.656	0.0129925
671.734	0.0125675
671.812	0.0128275
671.890	0.0129379
671.968	0.0128622
672.046	0.0127934
672.124	0.0129804
672.203	0.0128508
672.281	0.0128628
672.359	0.0128918
672.437	0.0127642
672.515	0.0128637
672.593	0.0129042
672.671	0.0128062
672.749	0.0128042
672.828	0.0128376
672.906	0.0127580
672.984	0.0128087
673.062	0.0128529
673.140	0.0128830
673.218	0.0128568
673.296	0.0127605
673.374	0.0127847
673.453	0.0128648
673.531	0.0128612
673.609	0.0127517
673.687	0.0127652
673.765	0.0129228
673.843	0.0128461
673.921	0.0127695
673.999	0.0128439
674.078	0.0128803
674.156	0.0127471
674.234	0.0129444
674.312	0.0128866
674.390	0.0128848
674.468	0.0128588
674.546	0.0128136
674.624	0.0127805
674.703	0.0129122
674.781	0.0128526
674.859	0.0126587
674.937	0.0129025
675.015	0.0128910
675.093	0.0127465
675.171	0.0128442
675.249	0.0128910
675.328	0.0127433
675.406	0.0129319
675.484	0.0128265
675.562	0.0127901
675.640	0.0127804
675.718	0.0127506
675.796	0.0128708
675.874	0.0128682
675.953	0.0127688
676.031	0.0128487
676.109	0.0128518
676.187	0.0129250
676.265	0.0128513
676.343	0.0128155
676.421	0.0128494
676.499	0.0126927
676.578	0.0128323
676.656	0.0128599
676.734	0.0128356
676.812	0.0128558
676.890	0.0126720
676.968	0.0126766
677.046	0.0127541
677.124	0.0128067
677.203	0.0129305
677.281	0.0128824
677.359	0.0127943
677.437	0.0127916
677.515	0.0127736
677.593	0.0126859
677.671	0.0127392
677.749	0.0127201
677.828	0.0128118
677.906	0.0125854
677.984	0.0127700
678.062	0.0127314
678.140	0.0128269
678.218	0.0126480
678.296	0.0126703
678.374	0.0127798
678.453	0.0126528
678.531	0.0126942
678.609	0.0125792
678.687	0.0126205
678.765	0.0127962
678.843	0.0127361
678.921	0.0126663
678.999	0.0127610
679.078	0.0128380
679.156	0.0127702
679.234	0.0127138
679.312	0.0126525
679.390	0.0125880
679.468	0.0126698
679.546	0.0126845
679.624	0.0126480
679.703	0.0127438
679.781	0.0127789
679.859	0.0127103
679.937	0.0127052
680.015	0.0127870
680.093	0.0126747
680.171	0.0126816
680.249	0.0127319
680.328	0.0127709
680.406	0.0127805
680.484	0.0127100
680.562	0.0126895
680.640	0.0127940
680.718	0.0126838
680.796	0.0127316
680.874	0.0127171
680.953	0.0127519
681.031	0.0126644
681.109	0.0126096
681.187	0.0127151
681.265	0.0126960
681.343	0.0126665
681.421	0.0126794
681.499	0.0125976
681.578	0.0127159
681.656	0.0126244
681.734	0.0127371
681.812	0.0127229
681.890	0.0127058
681.968	0.0127857
682.046	0.0126624
682.124	0.0126051
682.203	0.0126870
682.281	0.0128199
682.359	0.0127780
682.437	0.0126270
682.515	0.0127505
682.593	0.0125752
682.671	0.0126018
682.749	0.0126347
682.828	0.0127567
682.906	0.0127365
682.984	0.0127929
683.062	0.0127099
683.140	0.0127502
683.218	0.0128004
683.296	0.0127444
683.374	0.0127173
683.453	0.0127050
683.531	0.0128101
683.609	0.0126867
683.687	0.0126411
683.765	0.0127578
683.843	0.0126942
683.921	0.0126383
683.999	0.0126733
684.078	0.0127470
684.156	0.0126149
684.234	0.0128002
684.312	0.0127081
684.390	0.0126862
684.468	0.0128487
684.546	0.0127419
684.624	0.0126628
684.703	0.0127637
684.781	0.0129173
684.859	0.0129158
684.937	0.0130485
685.015	0.0128858
685.093	0.0128386
685.171	0.0128033
685.249	0.0128384
685.328	0.0126182
685.406	0.0124960
685.484	0.0122346
685.562	0.0123260
685.640	0.0121230
685.718	0.0120570
