05/06/2022	18:44:48	Ver.	4.1	UNKNOWN
Optical Delay	600.015094	Delta X		0.078125	Sweeps	1	Scan Rate	0/0
Coordinates	Axis 1	NaN	Axis 2	NaN	Axis 3	NaN	Axis 4	NaN	Axis 5	NaN	Axis 6	0.000000
TX Power	0.000000	RX Power	0.000000

600.015	0.0128014
600.093	0.0128264
600.171	0.0128709
600.249	0.0128198
600.328	0.0127785
600.406	0.0127641
600.484	0.0127956
600.562	0.0127248
600.640	0.0128058
600.718	0.0128281
600.796	0.0127911
600.874	0.0128185
600.953	0.0126769
601.031	0.0127866
601.109	0.0128897
601.187	0.0128821
601.265	0.0126633
601.343	0.0126945
601.421	0.0127522
601.499	0.0128048
601.578	0.0129271
601.656	0.0127804
601.734	0.0128623
601.812	0.0128001
601.890	0.0128002
601.968	0.0128451
602.046	0.0128755
602.124	0.0127744
602.203	0.0128284
602.281	0.0128395
602.359	0.0127797
602.437	0.0127110
602.515	0.0127630
602.593	0.0128933
602.671	0.0127588
602.749	0.0127792
602.828	0.0129260
602.906	0.0127999
602.984	0.0128399
603.062	0.0127251
603.140	0.0127454
603.218	0.0128407
603.296	0.0128183
603.374	0.0128253
603.453	0.0128936
603.531	0.0128104
603.609	0.0128020
603.687	0.0129240
603.765	0.0126492
603.843	0.0127138
603.921	0.0127968
603.999	0.0127538
604.078	0.0127737
604.156	0.0128181
604.234	0.0128828
604.312	0.0127508
604.390	0.0128873
604.468	0.0128096
604.546	0.0126919
604.624	0.0127821
604.703	0.0128201
604.781	0.0127802
604.859	0.0128133
604.937	0.0129341
605.015	0.0127731
605.093	0.0127554
605.171	0.0129217
605.249	0.0128307
605.328	0.0126357
605.406	0.0126959
605.484	0.0129248
605.562	0.0126357
605.640	0.0127081
605.718	0.0129214
605.796	0.0127012
605.874	0.0127275
605.953	0.0126398
606.031	0.0128311
606.109	0.0129517
606.187	0.0126964
606.265	0.0128371
606.343	0.0127315
606.421	0.0127650
606.499	0.0128392
606.578	0.0127910
606.656	0.0128059
606.734	0.0127818
606.812	0.0127854
606.890	0.0127072
606.968	0.0128052
607.046	0.0128077
607.124	0.0127737
607.203	0.0127055
607.281	0.0126908
607.359	0.0127532
607.437	0.0128217
607.515	0.0127572
607.593	0.0128355
607.671	0.0127814
607.749	0.0127071
607.828	0.0127368
607.906	0.0127607
607.984	0.0127383
608.062	0.0126940
608.140	0.0128517
608.218	0.0128925
608.296	0.0127406
608.374	0.0127030
608.453	0.0127205
608.531	0.0127449
608.609	0.0128632
608.687	0.0128281
608.765	0.0127395
608.843	0.0130450
608.921	0.0127630
608.999	0.0127344
609.078	0.0128587
609.156	0.0128252
609.234	0.0128565
609.312	0.0127789
609.390	0.0125899
609.468	0.0127016
609.546	0.0127795
609.624	0.0129283
609.703	0.0127465
609.781	0.0128099
609.859	0.0127131
609.937	0.0128008
610.015	0.0128484
610.093	0.0127612
610.171	0.0128022
610.249	0.0126656
610.328	0.0128110
610.406	0.0128807
610.484	0.0128085
610.562	0.0129247
610.640	0.0127758
610.718	0.0127811
610.796	0.0127987
610.874	0.0127583
610.953	0.0126985
611.031	0.0126867
611.109	0.0128204
611.187	0.0128542
611.265	0.0127788
611.343	0.0126762
611.421	0.0127625
611.499	0.0127138
611.578	0.0127863
611.656	0.0127910
611.734	0.0127850
611.812	0.0126879
611.890	0.0127071
611.968	0.0127583
612.046	0.0127692
612.124	0.0127588
612.203	0.0127823
612.281	0.0128298
612.359	0.0127832
612.437	0.0128047
612.515	0.0129015
612.593	0.0128045
612.671	0.0127219
612.749	0.0127882
612.828	0.0128867
612.906	0.0129031
612.984	0.0126688
613.062	0.0127709
613.140	0.0128135
613.218	0.0127326
613.296	0.0127161
613.374	0.0127612
613.453	0.0128303
613.531	0.0127212
613.609	0.0127502
613.687	0.0128775
613.765	0.0128097
613.843	0.0128168
613.921	0.0127747
613.999	0.0127995
614.078	0.0126414
614.156	0.0128819
614.234	0.0128665
614.312	0.0127072
614.390	0.0126247
614.468	0.0127911
614.546	0.0129182
614.624	0.0127661
614.703	0.0127010
614.781	0.0127937
614.859	0.0127824
614.937	0.0126905
615.015	0.0127367
615.093	0.0127609
615.171	0.0129319
615.249	0.0127142
615.328	0.0128203
615.406	0.0127811
615.484	0.0127864
615.562	0.0128766
615.640	0.0127760
615.718	0.0128407
615.796	0.0128276
615.874	0.0128485
615.953	0.0128844
616.031	0.0127710
616.109	0.0129482
616.187	0.0128566
616.265	0.0127729
616.343	0.0128319
616.421	0.0128677
616.499	0.0128494
616.578	0.0128747
616.656	0.0125728
616.734	0.0127705
616.812	0.0129384
616.890	0.0128547
616.968	0.0126872
617.046	0.0127869
617.124	0.0129079
617.203	0.0128046
617.281	0.0127113
617.359	0.0127901
617.437	0.0128144
617.515	0.0128401
617.593	0.0127869
617.671	0.0128029
617.749	0.0128008
617.828	0.0128311
617.906	0.0128057
617.984	0.0128474
618.062	0.0127778
618.140	0.0127511
618.218	0.0127850
618.296	0.0128807
618.374	0.0128570
618.453	0.0128121
618.531	0.0128127
618.609	0.0126952
618.687	0.0127946
618.765	0.0128916
618.843	0.0127447
618.921	0.0126756
618.999	0.0127317
619.078	0.0128602
619.156	0.0127121
619.234	0.0127649
619.312	0.0128937
619.390	0.0128192
619.468	0.0128343
619.546	0.0126049
619.624	0.0128230
619.703	0.0128550
619.781	0.0126970
619.859	0.0128648
619.937	0.0128942
620.015	0.0127550
620.093	0.0128069
620.171	0.0128437
620.249	0.0126466
620.328	0.0128570
620.406	0.0127620
620.484	0.0127293
620.562	0.0127349
620.640	0.0128298
620.718	0.0127929
620.796	0.0128799
620.874	0.0128313
620.953	0.0128760
621.031	0.0128088
621.109	0.0127200
621.187	0.0128729
621.265	0.0127616
621.343	0.0127742
621.421	0.0127815
621.499	0.0128938
621.578	0.0127724
621.656	0.0127152
621.734	0.0126968
621.812	0.0127317
621.890	0.0127152
621.968	0.0128237
622.046	0.0126624
622.124	0.0128281
622.203	0.0127015
622.281	0.0127290
622.359	0.0127641
622.437	0.0128223
622.515	0.0127885
622.593	0.0128312
622.671	0.0128416
622.749	0.0127737
622.828	0.0128708
622.906	0.0127632
622.984	0.0127885
623.062	0.0127963
623.140	0.0127740
623.218	0.0128153
623.296	0.0127700
623.374	0.0128566
623.453	0.0127231
623.531	0.0127548
623.609	0.0128686
623.687	0.0127754
623.765	0.0126950
623.843	0.0127869
623.921	0.0128315
623.999	0.0127286
624.078	0.0127995
624.156	0.0128109
624.234	0.0127238
624.312	0.0127403
624.390	0.0127021
624.468	0.0127399
624.546	0.0127795
624.624	0.0128249
624.703	0.0127611
624.781	0.0128072
624.859	0.0128030
624.937	0.0128168
625.015	0.0128107
625.093	0.0128753
625.171	0.0128479
625.249	0.0126989
625.328	0.0127335
625.406	0.0128336
625.484	0.0127944
625.562	0.0126524
625.640	0.0128418
625.718	0.0127998
625.796	0.0129489
625.874	0.0129282
625.953	0.0126419
626.031	0.0128188
626.109	0.0128991
626.187	0.0128474
626.265	0.0129243
626.343	0.0127914
626.421	0.0128735
626.499	0.0129002
626.578	0.0128928
626.656	0.0128915
626.734	0.0128165
626.812	0.0127166
626.890	0.0126814
626.968	0.0127306
627.046	0.0127161
627.124	0.0127496
627.203	0.0127976
627.281	0.0127951
627.359	0.0127625
627.437	0.0129125
627.515	0.0128223
627.593	0.0127880
627.671	0.0126689
627.749	0.0127942
627.828	0.0128397
627.906	0.0128699
627.984	0.0129070
628.062	0.0128008
628.140	0.0127964
628.218	0.0128645
628.296	0.0127483
628.374	0.0128384
628.453	0.0129990
628.531	0.0128905
628.609	0.0128831
628.687	0.0128035
628.765	0.0128295
628.843	0.0128510
628.921	0.0128056
628.999	0.0128159
629.078	0.0129389
629.156	0.0128496
629.234	0.0129302
629.312	0.0128394
629.390	0.0128865
629.468	0.0128127
629.546	0.0128898
629.624	0.0128994
629.703	0.0127232
629.781	0.0128396
629.859	0.0128041
629.937	0.0127863
630.015	0.0128133
630.093	0.0128818
630.171	0.0127631
630.249	0.0126569
630.328	0.0127300
630.406	0.0129696
630.484	0.0128355
630.562	0.0127198
630.640	0.0128025
630.718	0.0128558
630.796	0.0128307
630.874	0.0129922
630.953	0.0128412
631.031	0.0126653
631.109	0.0126901
631.187	0.0128618
631.265	0.0127786
631.343	0.0128526
631.421	0.0127141
631.499	0.0128162
631.578	0.0128069
631.656	0.0127793
631.734	0.0128285
631.812	0.0128713
631.890	0.0128136
631.968	0.0127926
632.046	0.0128470
632.124	0.0127721
632.203	0.0127211
632.281	0.0128763
632.359	0.0126977
632.437	0.0128001
632.515	0.0127630
632.593	0.0128553
632.671	0.0128343
632.749	0.0128532
632.828	0.0128007
632.906	0.0127587
632.984	0.0128365
633.062	0.0127895
633.140	0.0127970
633.218	0.0127121
633.296	0.0128036
633.374	0.0126955
633.453	0.0129226
633.531	0.0128017
633.609	0.0128422
633.687	0.0128224
633.765	0.0127956
633.843	0.0128112
633.921	0.0126923
633.999	0.0128221
634.078	0.0127583
634.156	0.0127498
634.234	0.0128043
634.312	0.0127204
634.390	0.0127898
634.468	0.0128052
634.546	0.0129048
634.624	0.0127589
634.703	0.0126794
634.781	0.0128572
634.859	0.0127322
634.937	0.0128202
635.015	0.0127112
635.093	0.0127772
635.171	0.0128338
635.249	0.0126410
635.328	0.0127462
635.406	0.0127229
635.484	0.0126790
635.562	0.0128439
635.640	0.0126945
635.718	0.0127983
635.796	0.0126449
635.874	0.0128225
635.953	0.0128703
636.031	0.0127527
636.109	0.0128043
636.187	0.0128036
636.265	0.0127697
636.343	0.0128834
636.421	0.0127512
636.499	0.0127058
636.578	0.0129020
636.656	0.0129037
636.734	0.0126833
636.812	0.0126949
636.890	0.0127908
636.968	0.0127215
637.046	0.0128579
637.124	0.0127807
637.203	0.0126550
637.281	0.0128252
637.359	0.0127299
637.437	0.0128486
637.515	0.0127959
637.593	0.0129223
637.671	0.0127359
637.749	0.0127478
637.828	0.0128035
637.906	0.0128492
637.984	0.0128839
638.062	0.0129532
638.140	0.0127406
638.218	0.0127718
638.296	0.0126543
638.374	0.0127752
638.453	0.0128770
638.531	0.0127621
638.609	0.0127077
638.687	0.0127536
638.765	0.0128157
638.843	0.0128981
638.921	0.0127577
638.999	0.0127209
639.078	0.0127245
639.156	0.0126533
639.234	0.0127750
639.312	0.0129670
639.390	0.0128764
639.468	0.0126221
639.546	0.0127737
639.624	0.0129206
639.703	0.0128539
639.781	0.0129609
639.859	0.0128601
639.937	0.0126193
640.015	0.0128587
640.093	0.0127129
640.171	0.0127097
640.249	0.0128181
640.328	0.0128283
640.406	0.0127653
640.484	0.0128502
640.562	0.0128018
640.640	0.0128391
640.718	0.0127927
640.796	0.0127382
640.874	0.0127916
640.953	0.0128014
641.031	0.0128917
641.109	0.0128026
641.187	0.0126848
641.265	0.0127509
641.343	0.0127110
641.421	0.0127969
641.499	0.0127377
641.578	0.0127661
641.656	0.0127936
641.734	0.0129176
641.812	0.0127254
641.890	0.0127837
641.968	0.0127164
642.046	0.0128355
642.124	0.0127324
642.203	0.0128698
642.281	0.0128712
642.359	0.0128496
642.437	0.0127381
642.515	0.0126913
642.593	0.0129311
642.671	0.0126492
642.749	0.0127689
642.828	0.0127612
642.906	0.0127184
642.984	0.0128484
643.062	0.0127953
643.140	0.0128210
643.218	0.0128030
643.296	0.0127715
643.374	0.0128822
643.453	0.0127758
643.531	0.0127457
643.609	0.0128778
643.687	0.0127970
643.765	0.0127271
643.843	0.0127499
643.921	0.0127415
643.999	0.0126730
644.078	0.0129736
644.156	0.0128001
644.234	0.0128721
644.312	0.0126355
644.390	0.0127334
644.468	0.0128171
644.546	0.0127863
644.624	0.0127808
644.703	0.0127173
644.781	0.0127325
644.859	0.0128709
644.937	0.0129324
645.015	0.0128750
645.093	0.0126669
645.171	0.0128580
645.249	0.0128711
645.328	0.0128453
645.406	0.0128340
645.484	0.0127605
645.562	0.0128536
645.640	0.0129420
645.718	0.0129118
645.796	0.0127560
645.874	0.0127912
645.953	0.0127630
646.031	0.0127363
646.109	0.0127931
646.187	0.0127802
646.265	0.0127879
646.343	0.0128795
646.421	0.0127207
646.499	0.0127208
646.578	0.0128219
646.656	0.0127851
646.734	0.0127637
646.812	0.0128465
646.890	0.0127905
646.968	0.0127791
647.046	0.0127789
647.124	0.0127409
647.203	0.0127399
647.281	0.0126274
647.359	0.0127365
647.437	0.0128268
647.515	0.0127417
647.593	0.0127553
647.671	0.0127780
647.749	0.0127556
647.828	0.0128629
647.906	0.0128210
647.984	0.0129197
648.062	0.0127975
648.140	0.0127962
648.218	0.0128427
648.296	0.0128046
648.374	0.0128751
648.453	0.0127489
648.531	0.0128358
648.609	0.0127823
648.687	0.0128178
648.765	0.0127390
648.843	0.0128611
648.921	0.0127242
648.999	0.0126420
649.078	0.0127652
649.156	0.0129146
649.234	0.0128160
649.312	0.0126734
649.390	0.0128138
649.468	0.0128230
649.546	0.0127928
649.624	0.0125578
649.703	0.0128354
649.781	0.0127540
649.859	0.0127010
649.937	0.0128561
650.015	0.0127880
650.093	0.0127570
650.171	0.0128334
650.249	0.0128558
650.328	0.0127682
650.406	0.0127451
650.484	0.0128014
650.562	0.0126210
650.640	0.0127219
650.718	0.0128456
650.796	0.0127583
650.874	0.0127669
650.953	0.0128209
651.031	0.0126899
651.109	0.0127101
651.187	0.0128481
651.265	0.0128893
651.343	0.0127657
651.421	0.0127858
651.499	0.0127024
651.578	0.0127367
651.656	0.0127232
651.734	0.0127415
651.812	0.0128192
651.890	0.0128480
651.968	0.0127890
652.046	0.0127011
652.124	0.0127702
652.203	0.0127582
652.281	0.0127370
652.359	0.0127293
652.437	0.0128199
652.515	0.0127845
652.593	0.0129015
652.671	0.0126706
652.749	0.0126984
652.828	0.0128160
652.906	0.0126803
652.984	0.0127402
653.062	0.0128505
653.140	0.0126319
653.218	0.0127640
653.296	0.0129025
653.374	0.0126303
653.453	0.0127798
653.531	0.0127129
653.609	0.0127331
653.687	0.0128335
653.765	0.0127171
653.843	0.0127039
653.921	0.0128929
653.999	0.0129083
654.078	0.0126801
654.156	0.0126912
654.234	0.0127050
654.312	0.0127927
654.390	0.0128369
654.468	0.0128410
654.546	0.0127009
654.624	0.0127760
654.703	0.0129400
654.781	0.0126601
654.859	0.0127135
654.937	0.0128210
655.015	0.0127383
655.093	0.0128062
655.171	0.0127737
655.249	0.0128364
655.328	0.0128331
655.406	0.0128692
655.484	0.0127319
655.562	0.0126414
655.640	0.0127267
655.718	0.0128331
655.796	0.0128365
655.874	0.0128997
655.953	0.0128523
656.031	0.0127647
656.109	0.0128855
656.187	0.0127386
656.265	0.0129754
656.343	0.0128154
656.421	0.0126305
656.499	0.0128202
656.578	0.0128999
656.656	0.0128059
656.734	0.0127794
656.812	0.0128545
656.890	0.0127948
656.968	0.0128825
657.046	0.0127683
657.124	0.0127821
657.203	0.0129002
657.281	0.0127807
657.359	0.0126603
657.437	0.0128455
657.515	0.0128356
657.593	0.0128819
657.671	0.0127893
657.749	0.0128013
657.828	0.0127831
657.906	0.0127656
657.984	0.0128689
658.062	0.0127461
658.140	0.0127662
658.218	0.0127908
658.296	0.0128195
658.374	0.0128293
658.453	0.0127441
658.531	0.0128510
658.609	0.0127972
658.687	0.0127608
658.765	0.0127332
658.843	0.0127315
658.921	0.0129447
658.999	0.0128075
659.078	0.0128365
659.156	0.0128929
659.234	0.0127650
659.312	0.0127980
659.390	0.0127666
659.468	0.0128153
659.546	0.0127293
659.624	0.0127980
659.703	0.0128050
659.781	0.0128512
659.859	0.0129134
659.937	0.0125650
660.015	0.0127405
660.093	0.0128474
660.171	0.0127134
660.249	0.0128002
660.328	0.0127859
660.406	0.0128124
660.484	0.0129609
660.562	0.0128152
660.640	0.0126311
660.718	0.0127827
660.796	0.0128758
660.874	0.0128532
660.953	0.0128562
661.031	0.0128348
661.109	0.0128584
661.187	0.0128707
661.265	0.0129035
661.343	0.0127121
661.421	0.0129128
661.499	0.0129417
661.578	0.0128059
661.656	0.0128704
661.734	0.0127254
661.812	0.0128278
661.890	0.0128490
661.968	0.0128888
662.046	0.0128129
662.124	0.0128804
662.203	0.0128870
662.281	0.0128031
662.359	0.0128127
662.437	0.0127348
662.515	0.0128004
662.593	0.0129430
662.671	0.0127987
662.749	0.0128346
662.828	0.0127621
662.906	0.0128235
662.984	0.0129028
663.062	0.0127319
663.140	0.0128669
663.218	0.0128385
663.296	0.0126144
663.374	0.0128119
663.453	0.0127209
663.531	0.0127978
663.609	0.0129121
663.687	0.0128531
663.765	0.0128375
663.843	0.0127405
663.921	0.0128323
663.999	0.0128992
664.078	0.0127840
664.156	0.0128773
664.234	0.0128287
664.312	0.0127783
664.390	0.0129247
664.468	0.0127171
664.546	0.0126969
664.624	0.0127560
664.703	0.0128063
664.781	0.0127535
664.859	0.0126860
664.937	0.0128371
665.015	0.0129670
665.093	0.0128961
665.171	0.0128620
665.249	0.0128615
665.328	0.0128136
665.406	0.0128754
665.484	0.0128381
665.562	0.0128165
665.640	0.0127040
665.718	0.0127335
665.796	0.0128616
665.874	0.0127122
665.953	0.0127949
666.031	0.0127322
666.109	0.0129104
666.187	0.0128915
666.265	0.0129147
666.343	0.0128677
666.421	0.0126138
666.499	0.0127663
666.578	0.0127464
666.656	0.0127140
666.734	0.0128113
666.812	0.0128403
666.890	0.0127018
666.968	0.0127541
667.046	0.0128609
667.124	0.0126811
667.203	0.0129578
667.281	0.0126723
667.359	0.0127235
667.437	0.0126187
667.515	0.0128146
667.593	0.0127975
667.671	0.0127746
667.749	0.0127452
667.828	0.0128041
667.906	0.0128145
667.984	0.0126649
668.062	0.0128120
668.140	0.0129433
668.218	0.0129894
668.296	0.0127681
668.374	0.0128322
668.453	0.0128826
668.531	0.0127624
668.609	0.0129539
668.687	0.0129214
668.765	0.0127367
668.843	0.0128913
668.921	0.0129053
668.999	0.0128206
669.078	0.0129031
669.156	0.0129002
669.234	0.0128564
669.312	0.0126485
669.390	0.0129024
669.468	0.0129292
669.546	0.0127670
669.624	0.0128287
669.703	0.0128993
669.781	0.0128629
669.859	0.0128753
669.937	0.0127486
670.015	0.0127766
670.093	0.0128985
670.171	0.0129646
670.249	0.0129160
670.328	0.0128869
670.406	0.0128941
670.484	0.0128227
670.562	0.0127271
670.640	0.0128262
670.718	0.0128231
670.796	0.0129383
670.874	0.0128442
670.953	0.0129116
671.031	0.0127475
671.109	0.0127473
671.187	0.0128816
671.265	0.0128326
671.343	0.0127917
671.421	0.0129124
671.499	0.0128449
671.578	0.0127738
671.656	0.0127583
671.734	0.0129996
671.812	0.0128758
671.890	0.0128118
671.968	0.0129497
672.046	0.0129175
672.124	0.0127931
672.203	0.0129369
672.281	0.0128804
672.359	0.0129338
672.437	0.0128658
672.515	0.0129165
672.593	0.0129295
672.671	0.0128375
672.749	0.0126811
672.828	0.0128075
672.906	0.0129627
672.984	0.0128883
673.062	0.0128054
673.140	0.0128974
673.218	0.0128316
673.296	0.0128353
673.374	0.0129589
673.453	0.0128319
673.531	0.0127000
673.609	0.0128891
673.687	0.0128407
673.765	0.0127366
673.843	0.0127908
673.921	0.0128296
673.999	0.0128992
674.078	0.0128115
674.156	0.0127588
674.234	0.0128922
674.312	0.0128828
674.390	0.0126426
674.468	0.0128155
674.546	0.0127370
674.624	0.0128298
674.703	0.0128011
674.781	0.0129453
674.859	0.0129527
674.937	0.0126931
675.015	0.0127852
675.093	0.0128211
675.171	0.0127345
675.249	0.0127183
675.328	0.0128149
675.406	0.0128465
675.484	0.0126263
675.562	0.0127780
675.640	0.0129100
675.718	0.0127280
675.796	0.0128893
675.874	0.0127493
675.953	0.0128463
676.031	0.0126886
676.109	0.0128790
676.187	0.0127443
676.265	0.0128414
676.343	0.0128899
676.421	0.0127612
676.499	0.0128318
676.578	0.0127728
676.656	0.0127726
676.734	0.0129228
676.812	0.0128128
676.890	0.0128798
676.968	0.0126082
677.046	0.0127876
677.124	0.0127111
677.203	0.0126542
677.281	0.0128191
677.359	0.0127242
677.437	0.0128715
677.515	0.0128233
677.593	0.0127825
677.671	0.0127134
677.749	0.0126862
677.828	0.0128489
677.906	0.0129269
677.984	0.0127921
678.062	0.0127921
678.140	0.0127865
678.218	0.0128063
678.296	0.0128435
678.374	0.0129100
678.453	0.0127690
678.531	0.0128471
678.609	0.0129033
678.687	0.0128189
678.765	0.0128442
678.843	0.0127391
678.921	0.0128392
678.999	0.0127205
679.078	0.0127672
679.156	0.0127739
679.234	0.0127139
679.312	0.0128259
679.390	0.0128673
679.468	0.0128303
679.546	0.0127068
679.624	0.0128383
679.703	0.0127588
679.781	0.0127339
679.859	0.0128394
679.937	0.0126955
680.015	0.0127951
680.093	0.0127489
680.171	0.0126825
680.249	0.0128146
680.328	0.0128621
680.406	0.0128117
680.484	0.0127553
680.562	0.0127603
680.640	0.0128638
680.718	0.0128602
680.796	0.0128302
680.874	0.0127859
680.953	0.0127908
681.031	0.0128384
681.109	0.0128570
681.187	0.0128297
681.265	0.0129401
681.343	0.0127030
681.421	0.0128362
681.499	0.0126891
681.578	0.0127300
681.656	0.0127341
681.734	0.0126590
681.812	0.0126870
681.890	0.0127251
681.968	0.0127862
682.046	0.0127148
682.124	0.0126994
682.203	0.0127931
682.281	0.0127525
682.359	0.0129087
682.437	0.0127308
682.515	0.0127950
682.593	0.0128852
682.671	0.0129685
682.749	0.0128338
682.828	0.0129583
682.906	0.0128237
682.984	0.0127493
683.062	0.0128699
683.140	0.0127647
683.218	0.0127596
683.296	0.0126865
683.374	0.0125784
683.453	0.0125551
683.531	0.0125381
683.609	0.0124711
683.687	0.0123553
683.765	0.0124559
683.843	0.0124220
683.921	0.0125021
683.999	0.0127237
684.078	0.0125121
684.156	0.0126720
684.234	0.0128716
684.312	0.0129775
684.390	0.0131528
684.468	0.0133132
684.546	0.0134429
684.624	0.0136289
684.703	0.0136044
684.781	0.0136419
684.859	0.0136523
684.937	0.0134664
685.015	0.0133591
685.093	0.0132652
685.171	0.0131242
685.249	0.0126483
685.328	0.0124874
685.406	0.0123594
685.484	0.0121564
685.562	0.0119324
685.640	0.0116084
685.718	0.0115447
