05/06/2022	18:39:53	Ver.	4.1	UNKNOWN
Optical Delay	600.021766	Delta X		0.078125	Sweeps	1	Scan Rate	0/0
Coordinates	Axis 1	NaN	Axis 2	NaN	Axis 3	NaN	Axis 4	NaN	Axis 5	NaN	Axis 6	0.000000
TX Power	0.000000	RX Power	0.000000

600.022	0.0130477
600.100	0.0130662
600.178	0.0130880
600.256	0.0130412
600.334	0.0130676
600.412	0.0131041
600.491	0.0131081
600.569	0.0128530
600.647	0.0130435
600.725	0.0130389
600.803	0.0130932
600.881	0.0131416
600.959	0.0130446
601.037	0.0130782
601.116	0.0131475
601.194	0.0131123
601.272	0.0131280
601.350	0.0131251
601.428	0.0130672
601.506	0.0129474
601.584	0.0130275
601.662	0.0130015
601.741	0.0130608
601.819	0.0131403
601.897	0.0131271
601.975	0.0131376
602.053	0.0130917
602.131	0.0131052
602.209	0.0130322
602.287	0.0130535
602.366	0.0129652
602.444	0.0130505
602.522	0.0129951
602.600	0.0129868
602.678	0.0130569
602.756	0.0131068
602.834	0.0130132
602.912	0.0130460
602.991	0.0129599
603.069	0.0130875
603.147	0.0131388
603.225	0.0130669
603.303	0.0130097
603.381	0.0130821
603.459	0.0129511
603.537	0.0131557
603.616	0.0129879
603.694	0.0131091
603.772	0.0131178
603.850	0.0130354
603.928	0.0129847
604.006	0.0129917
604.084	0.0131097
604.162	0.0132164
604.241	0.0130914
604.319	0.0129691
604.397	0.0129990
604.475	0.0130637
604.553	0.0130213
604.631	0.0130177
604.709	0.0129805
604.787	0.0131285
604.866	0.0131015
604.944	0.0131052
605.022	0.0129949
605.100	0.0132014
605.178	0.0131608
605.256	0.0130856
605.334	0.0132088
605.412	0.0130033
605.491	0.0131540
605.569	0.0131303
605.647	0.0130253
605.725	0.0129920
605.803	0.0130160
605.881	0.0129488
605.959	0.0130129
606.037	0.0129845
606.116	0.0132426
606.194	0.0131149
606.272	0.0129589
606.350	0.0131111
606.428	0.0129228
606.506	0.0129361
606.584	0.0130682
606.662	0.0131272
606.741	0.0131223
606.819	0.0130556
606.897	0.0131227
606.975	0.0129746
607.053	0.0130937
607.131	0.0129980
607.209	0.0130843
607.287	0.0129493
607.366	0.0131893
607.444	0.0129788
607.522	0.0130298
607.600	0.0130490
607.678	0.0130978
607.756	0.0129542
607.834	0.0129042
607.912	0.0130338
607.991	0.0131887
608.069	0.0130466
608.147	0.0130695
608.225	0.0131766
608.303	0.0130757
608.381	0.0130501
608.459	0.0130565
608.537	0.0130659
608.616	0.0130620
608.694	0.0130336
608.772	0.0131618
608.850	0.0130131
608.928	0.0130792
609.006	0.0131215
609.084	0.0130563
609.162	0.0130910
609.241	0.0129922
609.319	0.0130026
609.397	0.0130505
609.475	0.0131175
609.553	0.0130280
609.631	0.0130224
609.709	0.0130637
609.787	0.0131021
609.866	0.0130414
609.944	0.0130359
610.022	0.0130304
610.100	0.0130960
610.178	0.0130776
610.256	0.0132012
610.334	0.0131068
610.412	0.0132529
610.491	0.0129826
610.569	0.0129008
610.647	0.0130916
610.725	0.0129860
610.803	0.0130824
610.881	0.0132313
610.959	0.0130728
611.037	0.0130457
611.116	0.0129874
611.194	0.0129900
611.272	0.0132061
611.350	0.0131627
611.428	0.0129658
611.506	0.0130011
611.584	0.0130302
611.662	0.0130480
611.741	0.0131277
611.819	0.0131165
611.897	0.0130470
611.975	0.0129324
612.053	0.0130650
612.131	0.0130130
612.209	0.0131617
612.287	0.0130016
612.366	0.0130054
612.444	0.0129860
612.522	0.0130730
612.600	0.0130872
612.678	0.0129369
612.756	0.0130358
612.834	0.0129008
612.912	0.0129916
612.991	0.0130700
613.069	0.0130996
613.147	0.0131810
613.225	0.0131628
613.303	0.0131000
613.381	0.0130205
613.459	0.0130040
613.537	0.0130656
613.616	0.0130607
613.694	0.0129704
613.772	0.0131055
613.850	0.0130406
613.928	0.0128600
614.006	0.0129839
614.084	0.0131143
614.162	0.0131224
614.241	0.0130901
614.319	0.0130727
614.397	0.0131464
614.475	0.0129441
614.553	0.0130782
614.631	0.0130386
614.709	0.0129925
614.787	0.0131362
614.866	0.0130428
614.944	0.0130756
615.022	0.0131267
615.100	0.0130621
615.178	0.0130060
615.256	0.0130849
615.334	0.0130566
615.412	0.0130523
615.491	0.0130788
615.569	0.0132149
615.647	0.0131590
615.725	0.0130659
615.803	0.0131081
615.881	0.0130701
615.959	0.0129223
616.037	0.0130720
616.116	0.0129914
616.194	0.0130398
616.272	0.0131435
616.350	0.0130499
616.428	0.0131404
616.506	0.0130587
616.584	0.0130869
616.662	0.0132122
616.741	0.0131469
616.819	0.0130841
616.897	0.0130816
616.975	0.0130611
617.053	0.0130006
617.131	0.0131378
617.209	0.0130354
617.287	0.0130173
617.366	0.0129736
617.444	0.0130328
617.522	0.0129821
617.600	0.0130428
617.678	0.0131375
617.756	0.0131905
617.834	0.0130832
617.912	0.0130527
617.991	0.0130022
618.069	0.0131194
618.147	0.0131086
618.225	0.0131708
618.303	0.0130856
618.381	0.0131830
618.459	0.0131556
618.537	0.0131090
618.616	0.0130828
618.694	0.0130051
618.772	0.0131744
618.850	0.0129973
618.928	0.0130669
619.006	0.0129145
619.084	0.0130619
619.162	0.0130725
619.241	0.0130711
619.319	0.0129980
619.397	0.0129256
619.475	0.0130534
619.553	0.0131120
619.631	0.0129551
619.709	0.0131195
619.787	0.0129403
619.866	0.0130632
619.944	0.0130358
620.022	0.0129729
620.100	0.0130852
620.178	0.0130435
620.256	0.0129823
620.334	0.0131946
620.412	0.0131783
620.491	0.0130730
620.569	0.0129950
620.647	0.0130254
620.725	0.0130402
620.803	0.0129644
620.881	0.0131538
620.959	0.0130615
621.037	0.0131336
621.116	0.0130996
621.194	0.0130594
621.272	0.0130523
621.350	0.0131264
621.428	0.0130418
621.506	0.0131264
621.584	0.0131290
621.662	0.0129273
621.741	0.0131625
621.819	0.0129756
621.897	0.0129059
621.975	0.0129539
622.053	0.0130840
622.131	0.0130804
622.209	0.0130985
622.287	0.0131128
622.366	0.0131730
622.444	0.0130315
622.522	0.0130511
622.600	0.0130219
622.678	0.0132258
622.756	0.0131237
622.834	0.0130157
622.912	0.0131080
622.991	0.0129932
623.069	0.0131349
623.147	0.0131263
623.225	0.0130231
623.303	0.0131249
623.381	0.0130414
623.459	0.0130792
623.537	0.0129855
623.616	0.0130582
623.694	0.0132404
623.772	0.0130534
623.850	0.0131112
623.928	0.0130549
624.006	0.0132262
624.084	0.0130363
624.162	0.0130787
624.241	0.0130636
624.319	0.0131832
624.397	0.0131276
624.475	0.0130279
624.553	0.0131090
624.631	0.0131073
624.709	0.0131155
624.787	0.0131206
624.866	0.0130822
624.944	0.0131041
625.022	0.0131348
625.100	0.0131397
625.178	0.0129366
625.256	0.0130381
625.334	0.0132237
625.412	0.0128974
625.491	0.0130833
625.569	0.0131764
625.647	0.0132184
625.725	0.0129568
625.803	0.0130116
625.881	0.0131425
625.959	0.0131158
626.037	0.0129562
626.116	0.0130286
626.194	0.0131811
626.272	0.0131316
626.350	0.0130402
626.428	0.0131283
626.506	0.0130879
626.584	0.0130219
626.662	0.0131164
626.741	0.0129798
626.819	0.0131237
626.897	0.0132226
626.975	0.0131510
627.053	0.0129773
627.131	0.0131767
627.209	0.0131735
627.287	0.0130012
627.366	0.0130916
627.444	0.0131127
627.522	0.0131407
627.600	0.0130982
627.678	0.0131153
627.756	0.0130807
627.834	0.0130412
627.912	0.0131926
627.991	0.0130579
628.069	0.0129623
628.147	0.0130274
628.225	0.0130463
628.303	0.0130219
628.381	0.0130912
628.459	0.0132653
628.537	0.0131007
628.616	0.0131239
628.694	0.0131398
628.772	0.0130476
628.850	0.0130654
628.928	0.0130151
629.006	0.0130389
629.084	0.0130231
629.162	0.0131670
629.241	0.0131356
629.319	0.0131080
629.397	0.0130206
629.475	0.0131278
629.553	0.0129514
629.631	0.0131334
629.709	0.0130613
629.787	0.0129670
629.866	0.0131579
629.944	0.0130132
630.022	0.0130012
630.100	0.0131214
630.178	0.0130173
630.256	0.0129340
630.334	0.0130784
630.412	0.0131812
630.491	0.0131330
630.569	0.0129913
630.647	0.0130012
630.725	0.0130799
630.803	0.0130668
630.881	0.0130709
630.959	0.0130241
631.037	0.0130978
631.116	0.0130563
631.194	0.0130675
631.272	0.0131054
631.350	0.0131145
631.428	0.0130926
631.506	0.0130333
631.584	0.0130681
631.662	0.0130300
631.741	0.0131062
631.819	0.0131123
631.897	0.0130845
631.975	0.0130763
632.053	0.0132333
632.131	0.0130909
632.209	0.0131316
632.287	0.0130874
632.366	0.0130928
632.444	0.0131082
632.522	0.0130037
632.600	0.0131461
632.678	0.0132325
632.756	0.0130329
632.834	0.0131684
632.912	0.0130849
632.991	0.0129356
633.069	0.0130379
633.147	0.0130718
633.225	0.0131116
633.303	0.0130707
633.381	0.0130830
633.459	0.0131999
633.537	0.0130011
633.616	0.0129944
633.694	0.0130914
633.772	0.0130125
633.850	0.0129979
633.928	0.0130651
634.006	0.0130657
634.084	0.0131491
634.162	0.0130428
634.241	0.0128949
634.319	0.0130958
634.397	0.0129243
634.475	0.0129524
634.553	0.0131094
634.631	0.0132251
634.709	0.0132001
634.787	0.0131716
634.866	0.0129738
634.944	0.0130521
635.022	0.0131666
635.100	0.0131426
635.178	0.0129271
635.256	0.0130016
635.334	0.0132074
635.412	0.0131553
635.491	0.0130503
635.569	0.0129485
635.647	0.0129335
635.725	0.0130840
635.803	0.0130289
635.881	0.0130994
635.959	0.0130491
636.037	0.0130382
636.116	0.0129869
636.194	0.0130223
636.272	0.0131061
636.350	0.0131003
636.428	0.0130405
636.506	0.0131077
636.584	0.0131405
636.662	0.0129636
636.741	0.0131336
636.819	0.0131305
636.897	0.0130921
636.975	0.0131357
637.053	0.0129823
637.131	0.0131392
637.209	0.0130861
637.287	0.0129897
637.366	0.0129571
637.444	0.0130847
637.522	0.0130824
637.600	0.0130459
637.678	0.0129442
637.756	0.0130963
637.834	0.0129829
637.912	0.0130832
637.991	0.0132453
638.069	0.0131668
638.147	0.0131181
638.225	0.0130209
638.303	0.0129584
638.381	0.0130425
638.459	0.0130128
638.537	0.0131242
638.616	0.0129362
638.694	0.0131342
638.772	0.0130031
638.850	0.0129525
638.928	0.0130441
639.006	0.0130016
639.084	0.0130035
639.162	0.0130471
639.241	0.0131132
639.319	0.0130867
639.397	0.0130367
639.475	0.0128619
639.553	0.0129914
639.631	0.0132101
639.709	0.0131815
639.787	0.0131150
639.866	0.0131377
639.944	0.0130535
640.022	0.0130762
640.100	0.0131120
640.178	0.0130768
640.256	0.0131146
640.334	0.0131140
640.412	0.0130654
640.491	0.0130692
640.569	0.0131042
640.647	0.0130257
640.725	0.0130302
640.803	0.0130433
640.881	0.0131100
640.959	0.0131081
641.037	0.0131197
641.116	0.0129897
641.194	0.0129810
641.272	0.0130922
641.350	0.0131143
641.428	0.0131585
641.506	0.0130991
641.584	0.0130450
641.662	0.0131499
641.741	0.0130173
641.819	0.0130088
641.897	0.0131150
641.975	0.0130096
642.053	0.0131264
642.131	0.0131365
642.209	0.0130560
642.287	0.0128197
642.366	0.0129777
642.444	0.0130733
642.522	0.0130550
642.600	0.0130905
642.678	0.0131152
642.756	0.0130682
642.834	0.0130378
642.912	0.0129447
642.991	0.0130244
643.069	0.0130229
643.147	0.0130530
643.225	0.0130563
643.303	0.0131348
643.381	0.0129678
643.459	0.0131702
643.537	0.0130057
643.616	0.0131355
643.694	0.0130704
643.772	0.0130977
643.850	0.0131487
643.928	0.0130811
644.006	0.0130148
644.084	0.0131041
644.162	0.0129765
644.241	0.0130359
644.319	0.0131108
644.397	0.0129429
644.475	0.0130534
644.553	0.0131119
644.631	0.0130891
644.709	0.0130856
644.787	0.0130731
644.866	0.0131312
644.944	0.0130492
645.022	0.0130962
645.100	0.0129499
645.178	0.0130597
645.256	0.0131548
645.334	0.0130252
645.412	0.0130733
645.491	0.0131773
645.569	0.0131429
645.647	0.0130794
645.725	0.0129472
645.803	0.0131158
645.881	0.0131398
645.959	0.0131693
646.037	0.0131181
646.116	0.0130212
646.194	0.0129145
646.272	0.0131257
646.350	0.0130266
646.428	0.0130470
646.506	0.0129951
646.584	0.0130558
646.662	0.0130925
646.741	0.0132232
646.819	0.0131924
646.897	0.0131139
646.975	0.0130584
647.053	0.0131583
647.131	0.0130936
647.209	0.0129951
647.287	0.0130314
647.366	0.0130434
647.444	0.0129877
647.522	0.0130789
647.600	0.0131366
647.678	0.0130017
647.756	0.0131276
647.834	0.0130397
647.912	0.0131253
647.991	0.0131342
648.069	0.0131230
648.147	0.0130141
648.225	0.0130220
648.303	0.0131464
648.381	0.0130631
648.459	0.0129366
648.537	0.0129044
648.616	0.0130984
648.694	0.0130466
648.772	0.0130685
648.850	0.0130614
648.928	0.0129736
649.006	0.0131048
649.084	0.0130310
649.162	0.0130116
649.241	0.0129905
649.319	0.0130582
649.397	0.0129987
649.475	0.0129887
649.553	0.0130591
649.631	0.0131179
649.709	0.0131158
649.787	0.0130288
649.866	0.0130628
649.944	0.0130470
650.022	0.0130494
650.100	0.0130447
650.178	0.0130993
650.256	0.0130724
650.334	0.0130753
650.412	0.0129973
650.491	0.0130816
650.569	0.0130617
650.647	0.0129641
650.725	0.0130779
650.803	0.0130927
650.881	0.0130486
650.959	0.0131368
651.037	0.0130356
651.116	0.0130991
651.194	0.0130106
651.272	0.0130110
651.350	0.0130917
651.428	0.0130642
651.506	0.0131224
651.584	0.0131503
651.662	0.0132590
651.741	0.0131075
651.819	0.0130825
651.897	0.0131474
651.975	0.0130386
652.053	0.0130384
652.131	0.0130225
652.209	0.0130738
652.287	0.0129729
652.366	0.0131448
652.444	0.0130563
652.522	0.0130500
652.600	0.0131348
652.678	0.0130503
652.756	0.0131193
652.834	0.0130294
652.912	0.0129704
652.991	0.0131889
653.069	0.0130248
653.147	0.0130492
653.225	0.0129931
653.303	0.0129157
653.381	0.0131745
653.459	0.0129275
653.537	0.0131458
653.616	0.0131466
653.694	0.0130740
653.772	0.0130981
653.850	0.0131743
653.928	0.0132097
654.006	0.0131415
654.084	0.0130648
654.162	0.0130453
654.241	0.0130332
654.319	0.0130782
654.397	0.0131289
654.475	0.0130627
654.553	0.0131313
654.631	0.0130428
654.709	0.0130405
654.787	0.0131282
654.866	0.0130390
654.944	0.0130527
655.022	0.0130724
655.100	0.0131287
655.178	0.0130492
655.256	0.0130057
655.334	0.0129204
655.412	0.0130482
655.491	0.0130177
655.569	0.0130511
655.647	0.0129956
655.725	0.0131797
655.803	0.0130628
655.881	0.0130700
655.959	0.0131139
656.037	0.0130770
656.116	0.0131208
656.194	0.0129801
656.272	0.0130248
656.350	0.0131191
656.428	0.0130559
656.506	0.0130376
656.584	0.0131492
656.662	0.0130948
656.741	0.0129745
656.819	0.0130361
656.897	0.0130248
656.975	0.0131726
657.053	0.0130424
657.131	0.0129166
657.209	0.0130286
657.287	0.0130225
657.366	0.0130251
657.444	0.0129887
657.522	0.0130152
657.600	0.0131397
657.678	0.0131048
657.756	0.0130053
657.834	0.0131234
657.912	0.0129272
657.991	0.0130542
658.069	0.0130839
658.147	0.0129212
658.225	0.0130943
658.303	0.0129408
658.381	0.0129218
658.459	0.0130039
658.537	0.0131313
658.616	0.0131116
658.694	0.0129679
658.772	0.0129570
658.850	0.0130531
658.928	0.0130639
659.006	0.0130561
659.084	0.0131902
659.162	0.0130470
659.241	0.0131004
659.319	0.0131862
659.397	0.0131538
659.475	0.0130602
659.553	0.0129945
659.631	0.0131628
659.709	0.0130461
659.787	0.0129819
659.866	0.0132011
659.944	0.0130404
660.022	0.0130965
660.100	0.0131823
660.178	0.0131807
660.256	0.0132433
660.334	0.0130611
660.412	0.0130938
660.491	0.0130067
660.569	0.0130515
660.647	0.0130515
660.725	0.0131618
660.803	0.0131258
660.881	0.0129556
660.959	0.0130334
661.037	0.0131503
661.116	0.0131119
661.194	0.0130394
661.272	0.0130175
661.350	0.0131826
661.428	0.0131086
661.506	0.0130174
661.584	0.0132392
661.662	0.0129323
661.741	0.0129801
661.819	0.0130494
661.897	0.0132259
661.975	0.0131135
662.053	0.0131493
662.131	0.0131496
662.209	0.0132366
662.287	0.0131588
662.366	0.0130785
662.444	0.0131742
662.522	0.0130703
662.600	0.0130843
662.678	0.0129510
662.756	0.0131180
662.834	0.0128593
662.912	0.0130521
662.991	0.0130605
663.069	0.0132008
663.147	0.0131907
663.225	0.0130740
663.303	0.0131390
663.381	0.0131667
663.459	0.0130675
663.537	0.0130954
663.616	0.0131361
663.694	0.0128539
663.772	0.0129356
663.850	0.0131389
663.928	0.0130524
664.006	0.0130080
664.084	0.0130578
664.162	0.0130835
664.241	0.0130065
664.319	0.0132111
664.397	0.0132196
664.475	0.0130448
664.553	0.0129993
664.631	0.0131229
664.709	0.0131173
664.787	0.0131538
664.866	0.0131174
664.944	0.0130443
665.022	0.0129720
665.100	0.0131123
665.178	0.0131178
665.256	0.0130122
665.334	0.0130043
665.412	0.0130671
665.491	0.0130965
665.569	0.0130788
665.647	0.0131594
665.725	0.0130386
665.803	0.0129475
665.881	0.0130247
665.959	0.0130910
666.037	0.0131700
666.116	0.0130688
666.194	0.0130261
666.272	0.0131374
666.350	0.0132013
666.428	0.0132406
666.506	0.0130408
666.584	0.0130817
666.662	0.0131936
666.741	0.0131482
666.819	0.0130986
666.897	0.0131385
666.975	0.0131216
667.053	0.0132100
667.131	0.0131263
667.209	0.0131460
667.287	0.0130775
667.366	0.0130799
667.444	0.0131824
667.522	0.0132021
667.600	0.0130658
667.678	0.0129381
667.756	0.0130916
667.834	0.0132288
667.912	0.0130489
667.991	0.0131677
668.069	0.0132424
668.147	0.0129633
668.225	0.0132156
668.303	0.0131060
668.381	0.0130164
668.459	0.0130331
668.537	0.0129900
668.616	0.0130565
668.694	0.0132040
668.772	0.0132283
668.850	0.0131733
668.928	0.0132694
669.006	0.0131038
669.084	0.0131710
669.162	0.0131372
669.241	0.0131155
669.319	0.0131669
669.397	0.0132072
669.475	0.0131463
669.553	0.0130138
669.631	0.0129521
669.709	0.0129639
669.787	0.0131185
669.866	0.0131727
669.944	0.0131177
670.022	0.0130881
670.100	0.0131338
670.178	0.0131364
670.256	0.0130395
670.334	0.0131618
670.412	0.0130180
670.491	0.0130047
670.569	0.0130723
670.647	0.0131707
670.725	0.0130382
670.803	0.0130563
670.881	0.0130016
670.959	0.0130388
671.037	0.0129208
671.116	0.0129784
671.194	0.0129306
671.272	0.0128944
671.350	0.0129947
671.428	0.0130006
671.506	0.0128659
671.584	0.0130471
671.662	0.0129512
671.741	0.0128575
671.819	0.0129365
671.897	0.0129001
671.975	0.0130321
672.053	0.0130622
672.131	0.0128934
672.209	0.0128716
672.287	0.0128996
672.366	0.0129758
672.444	0.0129797
672.522	0.0129279
672.600	0.0129362
672.678	0.0129474
672.756	0.0128873
672.834	0.0128692
672.912	0.0127310
672.991	0.0128207
673.069	0.0129396
673.147	0.0130485
673.225	0.0128372
673.303	0.0128169
673.381	0.0128732
673.459	0.0129810
673.537	0.0128749
673.616	0.0127263
673.694	0.0128690
673.772	0.0129013
673.850	0.0126675
673.928	0.0127798
674.006	0.0128088
674.084	0.0127406
674.162	0.0128636
674.241	0.0129076
674.319	0.0129298
674.397	0.0126065
674.475	0.0127718
674.553	0.0127824
674.631	0.0128035
674.709	0.0129111
674.787	0.0128238
674.866	0.0128860
674.944	0.0127838
675.022	0.0129005
675.100	0.0128400
675.178	0.0127548
675.256	0.0127967
675.334	0.0127719
675.412	0.0127914
675.491	0.0127743
675.569	0.0127991
675.647	0.0128568
675.725	0.0128065
675.803	0.0128355
675.881	0.0129122
675.959	0.0129189
676.037	0.0127094
676.116	0.0128947
676.194	0.0128697
676.272	0.0130423
676.350	0.0129340
676.428	0.0127236
676.506	0.0128381
676.584	0.0129298
676.662	0.0129576
676.741	0.0129914
676.819	0.0128390
676.897	0.0130083
676.975	0.0129469
677.053	0.0131260
677.131	0.0132505
677.209	0.0130280
677.287	0.0130602
677.366	0.0131200
677.444	0.0132106
677.522	0.0131110
677.600	0.0130755
677.678	0.0132512
677.756	0.0133109
677.834	0.0132636
677.912	0.0132431
677.991	0.0131560
678.069	0.0132898
678.147	0.0134026
678.225	0.0133370
678.303	0.0134013
678.381	0.0133508
678.459	0.0133208
678.537	0.0134254
678.616	0.0132416
678.694	0.0133432
678.772	0.0133252
678.850	0.0132633
678.928	0.0133131
679.006	0.0133525
679.084	0.0133404
679.162	0.0133120
679.241	0.0133036
679.319	0.0132360
679.397	0.0132717
679.475	0.0133109
679.553	0.0132936
679.631	0.0131892
679.709	0.0133791
679.787	0.0133428
679.866	0.0134379
679.944	0.0132632
680.022	0.0133710
680.100	0.0132048
680.178	0.0132600
680.256	0.0133527
680.334	0.0133572
680.412	0.0131857
680.491	0.0133042
680.569	0.0131776
680.647	0.0134844
680.725	0.0133630
680.803	0.0133900
680.881	0.0133852
680.959	0.0132986
681.037	0.0133089
681.116	0.0131976
681.194	0.0132266
681.272	0.0132819
681.350	0.0132431
681.428	0.0133744
681.506	0.0132642
681.584	0.0132392
681.662	0.0133684
681.741	0.0132052
681.819	0.0131867
681.897	0.0132703
681.975	0.0134183
682.053	0.0133427
682.131	0.0131636
682.209	0.0131469
682.287	0.0133220
682.366	0.0132963
682.444	0.0131416
682.522	0.0132066
682.600	0.0131485
682.678	0.0130928
682.756	0.0130927
682.834	0.0131889
682.912	0.0131390
682.991	0.0131850
683.069	0.0130125
683.147	0.0131197
683.225	0.0130810
683.303	0.0130936
683.381	0.0131627
683.459	0.0131246
683.537	0.0130474
683.616	0.0130785
683.694	0.0131742
683.772	0.0132236
683.850	0.0130737
683.928	0.0129820
684.006	0.0130736
684.084	0.0130416
684.162	0.0129588
684.241	0.0130142
684.319	0.0129613
684.397	0.0131196
684.475	0.0130200
684.553	0.0129543
684.631	0.0129950
684.709	0.0130260
684.787	0.0130127
684.866	0.0130327
684.944	0.0130696
685.022	0.0130524
685.100	0.0130112
685.178	0.0129034
685.256	0.0129385
685.334	0.0129411
685.412	0.0131025
685.491	0.0130857
685.569	0.0129544
685.647	0.0129602
685.725	0.0131502
