05/06/2022	18:56:24	Ver.	4.1	UNKNOWN
Optical Delay	600.015094	Delta X		0.078125	Sweeps	1	Scan Rate	0/0
Coordinates	Axis 1	NaN	Axis 2	NaN	Axis 3	NaN	Axis 4	NaN	Axis 5	NaN	Axis 6	0.000000
TX Power	0.000000	RX Power	0.000000

600.015	0.0149010
600.093	0.0148879
600.171	0.0149039
600.249	0.0149036
600.328	0.0148740
600.406	0.0148634
600.484	0.0148962
600.562	0.0148511
600.640	0.0148990
600.718	0.0149342
600.796	0.0150854
600.874	0.0148644
600.953	0.0149104
601.031	0.0148119
601.109	0.0148795
601.187	0.0149097
601.265	0.0148515
601.343	0.0148411
601.421	0.0147874
601.499	0.0148394
601.578	0.0149514
601.656	0.0147287
601.734	0.0149126
601.812	0.0149512
601.890	0.0150199
601.968	0.0148380
602.046	0.0148001
602.124	0.0148407
602.203	0.0148938
602.281	0.0149113
602.359	0.0148106
602.437	0.0148726
602.515	0.0148475
602.593	0.0149606
602.671	0.0149068
602.749	0.0148068
602.828	0.0148727
602.906	0.0150020
602.984	0.0148964
603.062	0.0149314
603.140	0.0149349
603.218	0.0148381
603.296	0.0148885
603.374	0.0148782
603.453	0.0149328
603.531	0.0149261
603.609	0.0147494
603.687	0.0149464
603.765	0.0147006
603.843	0.0148256
603.921	0.0148589
603.999	0.0149088
604.078	0.0150911
604.156	0.0148368
604.234	0.0149175
604.312	0.0148399
604.390	0.0148991
604.468	0.0148905
604.546	0.0148980
604.624	0.0148839
604.703	0.0147729
604.781	0.0148948
604.859	0.0149056
604.937	0.0149445
605.015	0.0148294
605.093	0.0148534
605.171	0.0147776
605.249	0.0150036
605.328	0.0149915
605.406	0.0147650
605.484	0.0148701
605.562	0.0149811
605.640	0.0149583
605.718	0.0149091
605.796	0.0148523
605.874	0.0147670
605.953	0.0149537
606.031	0.0150233
606.109	0.0148346
606.187	0.0149207
606.265	0.0147636
606.343	0.0148123
606.421	0.0149825
606.499	0.0149158
606.578	0.0148780
606.656	0.0149461
606.734	0.0149144
606.812	0.0148176
606.890	0.0148726
606.968	0.0148888
607.046	0.0148521
607.124	0.0148764
607.203	0.0149657
607.281	0.0149873
607.359	0.0148958
607.437	0.0148477
607.515	0.0149282
607.593	0.0148630
607.671	0.0147961
607.749	0.0148791
607.828	0.0147587
607.906	0.0149017
607.984	0.0148975
608.062	0.0148324
608.140	0.0148993
608.218	0.0147911
608.296	0.0148829
608.374	0.0148689
608.453	0.0147726
608.531	0.0148063
608.609	0.0147884
608.687	0.0148025
608.765	0.0147568
608.843	0.0149478
608.921	0.0148909
608.999	0.0148950
609.078	0.0148196
609.156	0.0148901
609.234	0.0149429
609.312	0.0148540
609.390	0.0149470
609.468	0.0147297
609.546	0.0149004
609.624	0.0149337
609.703	0.0148632
609.781	0.0149578
609.859	0.0149069
609.937	0.0148267
610.015	0.0149776
610.093	0.0148279
610.171	0.0148409
610.249	0.0149371
610.328	0.0149194
610.406	0.0148584
610.484	0.0148407
610.562	0.0148915
610.640	0.0147750
610.718	0.0148988
610.796	0.0148557
610.874	0.0149671
610.953	0.0149849
611.031	0.0149446
611.109	0.0149207
611.187	0.0148621
611.265	0.0150230
611.343	0.0149171
611.421	0.0149544
611.499	0.0148433
611.578	0.0149842
611.656	0.0147997
611.734	0.0150697
611.812	0.0148064
611.890	0.0150037
611.968	0.0150983
612.046	0.0147826
612.124	0.0148555
612.203	0.0150804
612.281	0.0149546
612.359	0.0147916
612.437	0.0148683
612.515	0.0147704
612.593	0.0149379
612.671	0.0149613
612.749	0.0149186
612.828	0.0149693
612.906	0.0149467
612.984	0.0149041
613.062	0.0148370
613.140	0.0147701
613.218	0.0148503
613.296	0.0148676
613.374	0.0149912
613.453	0.0149665
613.531	0.0148634
613.609	0.0146966
613.687	0.0149025
613.765	0.0148696
613.843	0.0148934
613.921	0.0149455
613.999	0.0147154
614.078	0.0148828
614.156	0.0149236
614.234	0.0147807
614.312	0.0147659
614.390	0.0147633
614.468	0.0149301
614.546	0.0149704
614.624	0.0147801
614.703	0.0147307
614.781	0.0148756
614.859	0.0151444
614.937	0.0148792
615.015	0.0147610
615.093	0.0148479
615.171	0.0148265
615.249	0.0149124
615.328	0.0148737
615.406	0.0147876
615.484	0.0147305
615.562	0.0148773
615.640	0.0148968
615.718	0.0149117
615.796	0.0148726
615.874	0.0147138
615.953	0.0149357
616.031	0.0148000
616.109	0.0148685
616.187	0.0147900
616.265	0.0147643
616.343	0.0148400
616.421	0.0149096
616.499	0.0149620
616.578	0.0147463
616.656	0.0147778
616.734	0.0148936
616.812	0.0148953
616.890	0.0146996
616.968	0.0147446
617.046	0.0148598
617.124	0.0149189
617.203	0.0147290
617.281	0.0147807
617.359	0.0148849
617.437	0.0149336
617.515	0.0148670
617.593	0.0147128
617.671	0.0148966
617.749	0.0148077
617.828	0.0148778
617.906	0.0148530
617.984	0.0149895
618.062	0.0149139
618.140	0.0148324
618.218	0.0148527
618.296	0.0147450
618.374	0.0148037
618.453	0.0148322
618.531	0.0148299
618.609	0.0148015
618.687	0.0147712
618.765	0.0147847
618.843	0.0149414
618.921	0.0149877
618.999	0.0148650
619.078	0.0147723
619.156	0.0148768
619.234	0.0147240
619.312	0.0148743
619.390	0.0148120
619.468	0.0147360
619.546	0.0149062
619.624	0.0149066
619.703	0.0149006
619.781	0.0148414
619.859	0.0147952
619.937	0.0148711
620.015	0.0148843
620.093	0.0148139
620.171	0.0149538
620.249	0.0148122
620.328	0.0147879
620.406	0.0149354
620.484	0.0148308
620.562	0.0148603
620.640	0.0147234
620.718	0.0147127
620.796	0.0148589
620.874	0.0147602
620.953	0.0147538
621.031	0.0148595
621.109	0.0147800
621.187	0.0147230
621.265	0.0148095
621.343	0.0147960
621.421	0.0148397
621.499	0.0148209
621.578	0.0149293
621.656	0.0148960
621.734	0.0148747
621.812	0.0148736
621.890	0.0147263
621.968	0.0148080
622.046	0.0148261
622.124	0.0147965
622.203	0.0147232
622.281	0.0148684
622.359	0.0149196
622.437	0.0147577
622.515	0.0147890
622.593	0.0147189
622.671	0.0148470
622.749	0.0148875
622.828	0.0148315
622.906	0.0148466
622.984	0.0147321
623.062	0.0148831
623.140	0.0149337
623.218	0.0148772
623.296	0.0147949
623.374	0.0148013
623.453	0.0148260
623.531	0.0148598
623.609	0.0149479
623.687	0.0148647
623.765	0.0148672
623.843	0.0150109
623.921	0.0149229
623.999	0.0147505
624.078	0.0148238
624.156	0.0147710
624.234	0.0147913
624.312	0.0149496
624.390	0.0149370
624.468	0.0147933
624.546	0.0147997
624.624	0.0149457
624.703	0.0149006
624.781	0.0150300
624.859	0.0147442
624.937	0.0148734
625.015	0.0149563
625.093	0.0148168
625.171	0.0150124
625.249	0.0148513
625.328	0.0148460
625.406	0.0150294
625.484	0.0149004
625.562	0.0148768
625.640	0.0149757
625.718	0.0147701
625.796	0.0148713
625.874	0.0148773
625.953	0.0147921
626.031	0.0149148
626.109	0.0148080
626.187	0.0149065
626.265	0.0149236
626.343	0.0148253
626.421	0.0149814
626.499	0.0150182
626.578	0.0148301
626.656	0.0149407
626.734	0.0149974
626.812	0.0147918
626.890	0.0148507
626.968	0.0150426
627.046	0.0149483
627.124	0.0148343
627.203	0.0148862
627.281	0.0149597
627.359	0.0148977
627.437	0.0148705
627.515	0.0149713
627.593	0.0149111
627.671	0.0148598
627.749	0.0148938
627.828	0.0148876
627.906	0.0150202
627.984	0.0149382
628.062	0.0148283
628.140	0.0148638
628.218	0.0149392
628.296	0.0148901
628.374	0.0148167
628.453	0.0148824
628.531	0.0149318
628.609	0.0148756
628.687	0.0149226
628.765	0.0148893
628.843	0.0149960
628.921	0.0149578
628.999	0.0148637
629.078	0.0149905
629.156	0.0149386
629.234	0.0148319
629.312	0.0149409
629.390	0.0150430
629.468	0.0148662
629.546	0.0150305
629.624	0.0150026
629.703	0.0148605
629.781	0.0148283
629.859	0.0150025
629.937	0.0149689
630.015	0.0149346
630.093	0.0149975
630.171	0.0149456
630.249	0.0147462
630.328	0.0148168
630.406	0.0148905
630.484	0.0149728
630.562	0.0148064
630.640	0.0148411
630.718	0.0149092
630.796	0.0148976
630.874	0.0149611
630.953	0.0148126
631.031	0.0149084
631.109	0.0149495
631.187	0.0149294
631.265	0.0149261
631.343	0.0148298
631.421	0.0148161
631.499	0.0147960
631.578	0.0148850
631.656	0.0149347
631.734	0.0147863
631.812	0.0149704
631.890	0.0149478
631.968	0.0148253
632.046	0.0148279
632.124	0.0148638
632.203	0.0148349
632.281	0.0149778
632.359	0.0150670
632.437	0.0147931
632.515	0.0147971
632.593	0.0148631
632.671	0.0148967
632.749	0.0148780
632.828	0.0148425
632.906	0.0149657
632.984	0.0147840
633.062	0.0148450
633.140	0.0148681
633.218	0.0148567
633.296	0.0148707
633.374	0.0148059
633.453	0.0148074
633.531	0.0148709
633.609	0.0148733
633.687	0.0148233
633.765	0.0148190
633.843	0.0147643
633.921	0.0148588
633.999	0.0148081
634.078	0.0148562
634.156	0.0149108
634.234	0.0148770
634.312	0.0148336
634.390	0.0148709
634.468	0.0148453
634.546	0.0148219
634.624	0.0149205
634.703	0.0147965
634.781	0.0148269
634.859	0.0149255
634.937	0.0147059
635.015	0.0146690
635.093	0.0147408
635.171	0.0149831
635.249	0.0148923
635.328	0.0147041
635.406	0.0148145
635.484	0.0147542
635.562	0.0148350
635.640	0.0149731
635.718	0.0148476
635.796	0.0148794
635.874	0.0149621
635.953	0.0149277
636.031	0.0148389
636.109	0.0148725
636.187	0.0148843
636.265	0.0149822
636.343	0.0149155
636.421	0.0149324
636.499	0.0148701
636.578	0.0148831
636.656	0.0148371
636.734	0.0148110
636.812	0.0149574
636.890	0.0148681
636.968	0.0148415
637.046	0.0147627
637.124	0.0149030
637.203	0.0148066
637.281	0.0148151
637.359	0.0148757
637.437	0.0149178
637.515	0.0148763
637.593	0.0148527
637.671	0.0148809
637.749	0.0148438
637.828	0.0150081
637.906	0.0149477
637.984	0.0149245
638.062	0.0149047
638.140	0.0147309
638.218	0.0148837
638.296	0.0149550
638.374	0.0149029
638.453	0.0148085
638.531	0.0148359
638.609	0.0148667
638.687	0.0150755
638.765	0.0149135
638.843	0.0148946
638.921	0.0150253
638.999	0.0150201
639.078	0.0149422
639.156	0.0147741
639.234	0.0148877
639.312	0.0149187
639.390	0.0147853
639.468	0.0148703
639.546	0.0149960
639.624	0.0148932
639.703	0.0148861
639.781	0.0147479
639.859	0.0149823
639.937	0.0150140
640.015	0.0149048
640.093	0.0148072
640.171	0.0149628
640.249	0.0149654
640.328	0.0149107
640.406	0.0149601
640.484	0.0149639
640.562	0.0148160
640.640	0.0149680
640.718	0.0150047
640.796	0.0149661
640.874	0.0149326
640.953	0.0149540
641.031	0.0150160
641.109	0.0147850
641.187	0.0149330
641.265	0.0148958
641.343	0.0147487
641.421	0.0148826
641.499	0.0149054
641.578	0.0149863
641.656	0.0149130
641.734	0.0148775
641.812	0.0149228
641.890	0.0148460
641.968	0.0148107
642.046	0.0148955
642.124	0.0149240
642.203	0.0149259
642.281	0.0148544
642.359	0.0149488
642.437	0.0149446
642.515	0.0148059
642.593	0.0148909
642.671	0.0148730
642.749	0.0148325
642.828	0.0147435
642.906	0.0146278
642.984	0.0149670
643.062	0.0149756
643.140	0.0148937
643.218	0.0147157
643.296	0.0148192
643.374	0.0149397
643.453	0.0148367
643.531	0.0149299
643.609	0.0148920
643.687	0.0148547
643.765	0.0149337
643.843	0.0149389
643.921	0.0148612
643.999	0.0147845
644.078	0.0148093
644.156	0.0149228
644.234	0.0148216
644.312	0.0147051
644.390	0.0147639
644.468	0.0148768
644.546	0.0149971
644.624	0.0148483
644.703	0.0147731
644.781	0.0149395
644.859	0.0148675
644.937	0.0148601
645.015	0.0149238
645.093	0.0149781
645.171	0.0148310
645.249	0.0148549
645.328	0.0149312
645.406	0.0148866
645.484	0.0148956
645.562	0.0149281
645.640	0.0148788
645.718	0.0148383
645.796	0.0148680
645.874	0.0149613
645.953	0.0149342
646.031	0.0148270
646.109	0.0148431
646.187	0.0149245
646.265	0.0148457
646.343	0.0148565
646.421	0.0148328
646.499	0.0149113
646.578	0.0148439
646.656	0.0149807
646.734	0.0150273
646.812	0.0148155
646.890	0.0148180
646.968	0.0149698
647.046	0.0149281
647.124	0.0148701
647.203	0.0149318
647.281	0.0146821
647.359	0.0148125
647.437	0.0149744
647.515	0.0148029
647.593	0.0148507
647.671	0.0148507
647.749	0.0148644
647.828	0.0149038
647.906	0.0149727
647.984	0.0149870
648.062	0.0149069
648.140	0.0149500
648.218	0.0149986
648.296	0.0149446
648.374	0.0149046
648.453	0.0148062
648.531	0.0148399
648.609	0.0149436
648.687	0.0147903
648.765	0.0147002
648.843	0.0148383
648.921	0.0147517
648.999	0.0148262
649.078	0.0147833
649.156	0.0147817
649.234	0.0148214
649.312	0.0149271
649.390	0.0150384
649.468	0.0149882
649.546	0.0149289
649.624	0.0151035
649.703	0.0151861
649.781	0.0150215
649.859	0.0149979
649.937	0.0151487
650.015	0.0149500
650.093	0.0148800
650.171	0.0148788
650.249	0.0148038
650.328	0.0148564
650.406	0.0146854
650.484	0.0147639
650.562	0.0147816
650.640	0.0148080
650.718	0.0147141
650.796	0.0146574
650.874	0.0148273
650.953	0.0147755
651.031	0.0148901
651.109	0.0150826
651.187	0.0147636
651.265	0.0149215
651.343	0.0150555
651.421	0.0150218
651.499	0.0149889
651.578	0.0149597
651.656	0.0148117
651.734	0.0150227
651.812	0.0148551
651.890	0.0147755
651.968	0.0148379
652.046	0.0148443
652.124	0.0149058
652.203	0.0149170
652.281	0.0147678
652.359	0.0146770
652.437	0.0147747
652.515	0.0147225
652.593	0.0146101
652.671	0.0148510
652.749	0.0147544
652.828	0.0148253
652.906	0.0148525
652.984	0.0147552
653.062	0.0149120
653.140	0.0147626
653.218	0.0148009
653.296	0.0148870
653.374	0.0149640
653.453	0.0148937
653.531	0.0147034
653.609	0.0149261
653.687	0.0148292
653.765	0.0148495
653.843	0.0149716
653.921	0.0148452
653.999	0.0149223
654.078	0.0149496
654.156	0.0147641
654.234	0.0148126
654.312	0.0148795
654.390	0.0148064
654.468	0.0147701
654.546	0.0146987
654.624	0.0147672
654.703	0.0147965
654.781	0.0146591
654.859	0.0147908
654.937	0.0148115
655.015	0.0148116
655.093	0.0147642
655.171	0.0148074
655.249	0.0147298
655.328	0.0147909
655.406	0.0148551
655.484	0.0148376
655.562	0.0148344
655.640	0.0148312
655.718	0.0148196
655.796	0.0149284
655.874	0.0149138
655.953	0.0147188
656.031	0.0149363
656.109	0.0148608
656.187	0.0149240
656.265	0.0149704
656.343	0.0147823
656.421	0.0147080
656.499	0.0146836
656.578	0.0146592
656.656	0.0148037
656.734	0.0146113
656.812	0.0147816
656.890	0.0148572
656.968	0.0148881
657.046	0.0148087
657.124	0.0146613
657.203	0.0148000
657.281	0.0147269
657.359	0.0147855
657.437	0.0149133
657.515	0.0147920
657.593	0.0150521
657.671	0.0149374
657.749	0.0150051
657.828	0.0148828
657.906	0.0149609
657.984	0.0149736
658.062	0.0148666
658.140	0.0148501
658.218	0.0148906
658.296	0.0147710
658.374	0.0147655
658.453	0.0148038
658.531	0.0148260
658.609	0.0147787
658.687	0.0147591
658.765	0.0147765
658.843	0.0148560
658.921	0.0148586
658.999	0.0148535
659.078	0.0148498
659.156	0.0149089
659.234	0.0149108
659.312	0.0149219
659.390	0.0148299
659.468	0.0149756
659.546	0.0148807
659.624	0.0149166
659.703	0.0149558
659.781	0.0151572
659.859	0.0148158
659.937	0.0148672
660.015	0.0149483
660.093	0.0149094
660.171	0.0149791
660.249	0.0149052
660.328	0.0148575
660.406	0.0150519
660.484	0.0150147
660.562	0.0149790
660.640	0.0149270
660.718	0.0149161
660.796	0.0150175
660.874	0.0149543
660.953	0.0148554
661.031	0.0147990
661.109	0.0148042
661.187	0.0147402
661.265	0.0147504
661.343	0.0147472
661.421	0.0146587
661.499	0.0149379
661.578	0.0149429
661.656	0.0149142
661.734	0.0148902
661.812	0.0148106
661.890	0.0149406
661.968	0.0149012
662.046	0.0149554
662.124	0.0150301
662.203	0.0150147
662.281	0.0149374
662.359	0.0150040
662.437	0.0150385
662.515	0.0149743
662.593	0.0148019
662.671	0.0149609
662.749	0.0149308
662.828	0.0148328
662.906	0.0148386
662.984	0.0148926
663.062	0.0149591
663.140	0.0148901
663.218	0.0148828
663.296	0.0149377
663.374	0.0148949
663.453	0.0149281
663.531	0.0149100
663.609	0.0147860
663.687	0.0147865
663.765	0.0148541
663.843	0.0147608
663.921	0.0149023
663.999	0.0148638
664.078	0.0147632
664.156	0.0149186
664.234	0.0148857
664.312	0.0148755
664.390	0.0150568
664.468	0.0150080
664.546	0.0148771
664.624	0.0148801
664.703	0.0148750
664.781	0.0149219
664.859	0.0149107
664.937	0.0148091
665.015	0.0148842
665.093	0.0148051
665.171	0.0148225
665.249	0.0148997
665.328	0.0147692
665.406	0.0148640
665.484	0.0149952
665.562	0.0148891
665.640	0.0148840
665.718	0.0150484
665.796	0.0148853
665.874	0.0149660
665.953	0.0149050
666.031	0.0149229
666.109	0.0149482
666.187	0.0147690
666.265	0.0147829
666.343	0.0146161
666.421	0.0146996
666.499	0.0146399
666.578	0.0146856
666.656	0.0147366
666.734	0.0147325
666.812	0.0147575
666.890	0.0147492
666.968	0.0148092
667.046	0.0149016
667.124	0.0148972
667.203	0.0149506
667.281	0.0148143
667.359	0.0149326
667.437	0.0150162
667.515	0.0148841
667.593	0.0149001
667.671	0.0149318
667.749	0.0148505
667.828	0.0148679
667.906	0.0148657
667.984	0.0148148
668.062	0.0148270
668.140	0.0149625
668.218	0.0149800
668.296	0.0147926
668.374	0.0149655
668.453	0.0147863
668.531	0.0148720
668.609	0.0149136
668.687	0.0149248
668.765	0.0149744
668.843	0.0149458
668.921	0.0147717
668.999	0.0150001
669.078	0.0149744
669.156	0.0147733
669.234	0.0147854
669.312	0.0148678
669.390	0.0145113
669.468	0.0146220
669.546	0.0147002
669.624	0.0148103
669.703	0.0147472
669.781	0.0149919
669.859	0.0148262
669.937	0.0149207
670.015	0.0150108
670.093	0.0149586
670.171	0.0148572
670.249	0.0149603
670.328	0.0150346
670.406	0.0150148
670.484	0.0149690
670.562	0.0149280
670.640	0.0150008
670.718	0.0150112
670.796	0.0149562
670.874	0.0147302
670.953	0.0148239
671.031	0.0145821
671.109	0.0147662
671.187	0.0147477
671.265	0.0147227
671.343	0.0146320
671.421	0.0145303
671.499	0.0145920
671.578	0.0146255
671.656	0.0146444
671.734	0.0147255
671.812	0.0145533
671.890	0.0146842
671.968	0.0146590
672.046	0.0147301
672.124	0.0147717
672.203	0.0147901
672.281	0.0149095
672.359	0.0148485
672.437	0.0149095
672.515	0.0149449
672.593	0.0151049
672.671	0.0152495
672.749	0.0151466
672.828	0.0152176
672.906	0.0152729
672.984	0.0152416
673.062	0.0149916
673.140	0.0151884
673.218	0.0150542
673.296	0.0151176
673.374	0.0148366
673.453	0.0149131
673.531	0.0148213
673.609	0.0147710
673.687	0.0147636
673.765	0.0148323
673.843	0.0147049
673.921	0.0147128
673.999	0.0146064
674.078	0.0148813
674.156	0.0150168
674.234	0.0149968
674.312	0.0149789
674.390	0.0150131
674.468	0.0151305
674.546	0.0150404
674.624	0.0151407
674.703	0.0151110
674.781	0.0151651
674.859	0.0150248
674.937	0.0149234
675.015	0.0146906
675.093	0.0147610
675.171	0.0145968
675.249	0.0145886
675.328	0.0146288
675.406	0.0146206
675.484	0.0146202
675.562	0.0146598
675.640	0.0146718
675.718	0.0147341
675.796	0.0147321
675.874	0.0148928
675.953	0.0149797
676.031	0.0147945
676.109	0.0148454
676.187	0.0147195
676.265	0.0145470
676.343	0.0145986
676.421	0.0146212
676.499	0.0145287
676.578	0.0144584
676.656	0.0144614
676.734	0.0144814
676.812	0.0146478
676.890	0.0146511
676.968	0.0149112
677.046	0.0149038
677.124	0.0149166
677.203	0.0151154
677.281	0.0153410
677.359	0.0150977
677.437	0.0152454
677.515	0.0151426
677.593	0.0150976
677.671	0.0153342
677.749	0.0151369
677.828	0.0149184
677.906	0.0149022
677.984	0.0148398
678.062	0.0150943
678.140	0.0150038
678.218	0.0150349
678.296	0.0152780
678.374	0.0152161
678.453	0.0151855
678.531	0.0154705
678.609	0.0153831
678.687	0.0153368
678.765	0.0153263
678.843	0.0152335
678.921	0.0151221
678.999	0.0146972
679.078	0.0146906
679.156	0.0146646
679.234	0.0144238
679.312	0.0143333
679.390	0.0143092
679.468	0.0142046
679.546	0.0141999
679.624	0.0142200
679.703	0.0143376
679.781	0.0142271
679.859	0.0144650
679.937	0.0145918
680.015	0.0147375
680.093	0.0147124
680.171	0.0149104
680.249	0.0149105
680.328	0.0149613
680.406	0.0148205
680.484	0.0149944
680.562	0.0149199
680.640	0.0149112
680.718	0.0147593
680.796	0.0148086
680.874	0.0147012
680.953	0.0148696
681.031	0.0146423
681.109	0.0148348
681.187	0.0148280
681.265	0.0150043
681.343	0.0150502
681.421	0.0151449
681.499	0.0150921
681.578	0.0150189
681.656	0.0151083
681.734	0.0151366
681.812	0.0149379
681.890	0.0149082
681.968	0.0148336
682.046	0.0147750
682.124	0.0145689
682.203	0.0145200
682.281	0.0145655
682.359	0.0145548
682.437	0.0145679
682.515	0.0146493
682.593	0.0144872
682.671	0.0145863
682.749	0.0148028
682.828	0.0148751
682.906	0.0150181
682.984	0.0150919
683.062	0.0151890
683.140	0.0152626
683.218	0.0152345
683.296	0.0152964
683.374	0.0152296
683.453	0.0151787
683.531	0.0150301
683.609	0.0150010
683.687	0.0150244
683.765	0.0149529
683.843	0.0150033
683.921	0.0149471
683.999	0.0150686
684.078	0.0149382
684.156	0.0148906
684.234	0.0148147
684.312	0.0149182
684.390	0.0147820
684.468	0.0147883
684.546	0.0148467
684.624	0.0148272
684.703	0.0148441
684.781	0.0147021
684.859	0.0146815
684.937	0.0147701
685.015	0.0146857
685.093	0.0146595
685.171	0.0145914
685.249	0.0145871
685.328	0.0145192
685.406	0.0145760
685.484	0.0146570
685.562	0.0146971
685.640	0.0146525
685.718	0.0146321
