05/06/2022	19:09:15	Ver.	4.1	UNKNOWN
Optical Delay	600.015094	Delta X		0.078125	Sweeps	1	Scan Rate	0/0
Coordinates	Axis 1	NaN	Axis 2	NaN	Axis 3	NaN	Axis 4	NaN	Axis 5	NaN	Axis 6	0.000000
TX Power	0.000000	RX Power	0.000000

600.015	0.0142389
600.093	0.0142664
600.171	0.0142645
600.249	0.0141648
600.328	0.0142728
600.406	0.0142844
600.484	0.0143216
600.562	0.0141695
600.640	0.0141939
600.718	0.0141631
600.796	0.0141908
600.874	0.0142177
600.953	0.0142226
601.031	0.0142215
601.109	0.0142527
601.187	0.0141423
601.265	0.0140633
601.343	0.0140688
601.421	0.0141842
601.499	0.0141077
601.578	0.0142387
601.656	0.0141055
601.734	0.0141447
601.812	0.0142491
601.890	0.0143215
601.968	0.0142092
602.046	0.0140985
602.124	0.0141893
602.203	0.0141322
602.281	0.0142271
602.359	0.0142690
602.437	0.0141737
602.515	0.0142592
602.593	0.0142134
602.671	0.0142116
602.749	0.0141949
602.828	0.0140633
602.906	0.0141325
602.984	0.0142975
603.062	0.0141831
603.140	0.0140479
603.218	0.0140679
603.296	0.0142456
603.374	0.0142733
603.453	0.0142503
603.531	0.0142551
603.609	0.0142123
603.687	0.0141740
603.765	0.0141395
603.843	0.0142046
603.921	0.0140903
603.999	0.0142009
604.078	0.0141810
604.156	0.0141011
604.234	0.0140643
604.312	0.0140957
604.390	0.0143158
604.468	0.0142990
604.546	0.0141457
604.624	0.0140854
604.703	0.0140731
604.781	0.0141955
604.859	0.0139117
604.937	0.0142619
605.015	0.0142123
605.093	0.0142718
605.171	0.0142687
605.249	0.0141002
605.328	0.0141838
605.406	0.0141326
605.484	0.0141361
605.562	0.0141472
605.640	0.0141537
605.718	0.0141878
605.796	0.0143085
605.874	0.0143129
605.953	0.0141348
606.031	0.0142080
606.109	0.0141190
606.187	0.0141261
606.265	0.0140498
606.343	0.0141412
606.421	0.0142113
606.499	0.0141866
606.578	0.0141969
606.656	0.0142343
606.734	0.0141026
606.812	0.0142104
606.890	0.0141548
606.968	0.0141303
607.046	0.0142259
607.124	0.0141870
607.203	0.0141474
607.281	0.0142365
607.359	0.0142434
607.437	0.0142644
607.515	0.0142932
607.593	0.0141680
607.671	0.0140760
607.749	0.0140341
607.828	0.0141869
607.906	0.0141324
607.984	0.0141181
608.062	0.0142546
608.140	0.0142356
608.218	0.0141953
608.296	0.0140742
608.374	0.0141847
608.453	0.0141306
608.531	0.0141714
608.609	0.0141103
608.687	0.0142896
608.765	0.0140758
608.843	0.0140758
608.921	0.0142612
608.999	0.0142923
609.078	0.0141005
609.156	0.0141538
609.234	0.0142624
609.312	0.0143346
609.390	0.0141383
609.468	0.0142326
609.546	0.0142393
609.624	0.0141199
609.703	0.0142831
609.781	0.0142133
609.859	0.0142992
609.937	0.0141019
610.015	0.0140251
610.093	0.0141869
610.171	0.0143077
610.249	0.0142204
610.328	0.0141719
610.406	0.0142102
610.484	0.0143867
610.562	0.0141830
610.640	0.0141599
610.718	0.0142847
610.796	0.0142924
610.874	0.0142073
610.953	0.0142561
611.031	0.0142238
611.109	0.0141905
611.187	0.0142912
611.265	0.0142150
611.343	0.0141569
611.421	0.0141743
611.499	0.0143407
611.578	0.0142457
611.656	0.0142483
611.734	0.0140951
611.812	0.0140503
611.890	0.0141821
611.968	0.0142610
612.046	0.0141666
612.124	0.0141912
612.203	0.0142682
612.281	0.0141882
612.359	0.0142744
612.437	0.0143132
612.515	0.0142188
612.593	0.0141390
612.671	0.0141396
612.749	0.0143534
612.828	0.0141541
612.906	0.0140439
612.984	0.0141347
613.062	0.0141818
613.140	0.0141704
613.218	0.0140488
613.296	0.0141363
613.374	0.0141760
613.453	0.0141508
613.531	0.0142660
613.609	0.0141055
613.687	0.0139952
613.765	0.0141167
613.843	0.0141899
613.921	0.0142786
613.999	0.0142815
614.078	0.0142002
614.156	0.0141416
614.234	0.0141088
614.312	0.0141970
614.390	0.0140758
614.468	0.0143105
614.546	0.0141984
614.624	0.0143238
614.703	0.0143232
614.781	0.0143162
614.859	0.0141862
614.937	0.0142205
615.015	0.0141496
615.093	0.0144407
615.171	0.0142110
615.249	0.0142704
615.328	0.0142065
615.406	0.0143340
615.484	0.0142516
615.562	0.0142443
615.640	0.0142245
615.718	0.0139907
615.796	0.0141833
615.874	0.0142748
615.953	0.0142494
616.031	0.0141770
616.109	0.0139925
616.187	0.0141082
616.265	0.0142058
616.343	0.0142485
616.421	0.0141927
616.499	0.0142088
616.578	0.0140496
616.656	0.0141746
616.734	0.0142705
616.812	0.0143483
616.890	0.0142792
616.968	0.0143100
617.046	0.0141422
617.124	0.0142352
617.203	0.0143729
617.281	0.0142071
617.359	0.0143701
617.437	0.0141912
617.515	0.0142683
617.593	0.0141764
617.671	0.0142237
617.749	0.0141639
617.828	0.0142019
617.906	0.0142480
617.984	0.0142173
618.062	0.0142791
618.140	0.0142843
618.218	0.0142528
618.296	0.0143082
618.374	0.0142978
618.453	0.0143391
618.531	0.0143233
618.609	0.0143637
618.687	0.0141930
618.765	0.0142359
618.843	0.0142593
618.921	0.0143472
618.999	0.0142942
619.078	0.0143451
619.156	0.0141679
619.234	0.0141759
619.312	0.0142755
619.390	0.0142358
619.468	0.0143024
619.546	0.0142347
619.624	0.0142332
619.703	0.0141634
619.781	0.0142834
619.859	0.0141584
619.937	0.0142596
620.015	0.0141577
620.093	0.0140919
620.171	0.0141558
620.249	0.0141954
620.328	0.0142628
620.406	0.0141202
620.484	0.0143240
620.562	0.0143484
620.640	0.0141654
620.718	0.0140269
620.796	0.0139875
620.874	0.0141335
620.953	0.0142612
621.031	0.0142369
621.109	0.0141739
621.187	0.0141116
621.265	0.0141799
621.343	0.0139658
621.421	0.0142703
621.499	0.0141832
621.578	0.0141359
621.656	0.0142203
621.734	0.0141761
621.812	0.0140930
621.890	0.0141947
621.968	0.0141272
622.046	0.0142393
622.124	0.0142555
622.203	0.0143916
622.281	0.0142720
622.359	0.0142372
622.437	0.0139383
622.515	0.0142487
622.593	0.0142473
622.671	0.0141344
622.749	0.0141187
622.828	0.0141471
622.906	0.0140626
622.984	0.0140361
623.062	0.0142439
623.140	0.0142493
623.218	0.0142012
623.296	0.0142248
623.374	0.0141354
623.453	0.0140554
623.531	0.0140870
623.609	0.0140899
623.687	0.0140984
623.765	0.0141409
623.843	0.0141299
623.921	0.0140968
623.999	0.0142334
624.078	0.0141807
624.156	0.0141345
624.234	0.0141458
624.312	0.0140841
624.390	0.0142426
624.468	0.0140142
624.546	0.0140867
624.624	0.0141879
624.703	0.0141759
624.781	0.0141881
624.859	0.0141821
624.937	0.0140421
625.015	0.0140968
625.093	0.0141453
625.171	0.0140807
625.249	0.0141432
625.328	0.0141402
625.406	0.0141374
625.484	0.0141312
625.562	0.0141449
625.640	0.0142155
625.718	0.0140195
625.796	0.0141210
625.874	0.0141099
625.953	0.0142807
626.031	0.0141239
626.109	0.0140474
626.187	0.0142592
626.265	0.0141913
626.343	0.0142224
626.421	0.0141919
626.499	0.0142223
626.578	0.0142582
626.656	0.0142852
626.734	0.0142197
626.812	0.0141601
626.890	0.0142003
626.968	0.0142064
627.046	0.0142030
627.124	0.0141871
627.203	0.0141515
627.281	0.0141454
627.359	0.0141187
627.437	0.0140144
627.515	0.0141244
627.593	0.0141229
627.671	0.0141862
627.749	0.0141261
627.828	0.0141409
627.906	0.0141130
627.984	0.0142043
628.062	0.0141640
628.140	0.0142248
628.218	0.0140276
628.296	0.0141996
628.374	0.0141467
628.453	0.0140874
628.531	0.0142146
628.609	0.0142668
628.687	0.0142617
628.765	0.0142770
628.843	0.0141947
628.921	0.0141276
628.999	0.0141592
629.078	0.0141830
629.156	0.0141215
629.234	0.0141592
629.312	0.0142790
629.390	0.0141668
629.468	0.0141694
629.546	0.0142619
629.624	0.0141461
629.703	0.0142023
629.781	0.0142805
629.859	0.0140955
629.937	0.0141048
630.015	0.0142120
630.093	0.0141785
630.171	0.0141180
630.249	0.0141080
630.328	0.0142006
630.406	0.0142761
630.484	0.0142246
630.562	0.0142678
630.640	0.0141879
630.718	0.0141808
630.796	0.0141835
630.874	0.0142223
630.953	0.0142843
631.031	0.0142416
631.109	0.0142384
631.187	0.0141962
631.265	0.0141559
631.343	0.0139657
631.421	0.0143287
631.499	0.0141972
631.578	0.0140047
631.656	0.0141353
631.734	0.0141207
631.812	0.0142097
631.890	0.0141373
631.968	0.0141235
632.046	0.0142569
632.124	0.0142030
632.203	0.0141692
632.281	0.0141898
632.359	0.0142408
632.437	0.0142467
632.515	0.0142828
632.593	0.0143100
632.671	0.0142634
632.749	0.0143027
632.828	0.0142310
632.906	0.0142680
632.984	0.0143318
633.062	0.0143615
633.140	0.0143731
633.218	0.0142445
633.296	0.0143362
633.374	0.0144302
633.453	0.0142862
633.531	0.0142766
633.609	0.0143153
633.687	0.0143992
633.765	0.0144813
633.843	0.0142604
633.921	0.0143172
633.999	0.0142620
634.078	0.0143085
634.156	0.0142556
634.234	0.0143766
634.312	0.0141844
634.390	0.0141608
634.468	0.0141596
634.546	0.0141578
634.624	0.0141995
634.703	0.0141853
634.781	0.0141327
634.859	0.0142863
634.937	0.0143732
635.015	0.0142758
635.093	0.0141716
635.171	0.0141838
635.249	0.0141877
635.328	0.0141465
635.406	0.0140891
635.484	0.0142543
635.562	0.0141890
635.640	0.0142246
635.718	0.0143029
635.796	0.0141004
635.874	0.0140611
635.953	0.0141953
636.031	0.0141622
636.109	0.0140965
636.187	0.0141583
636.265	0.0142560
636.343	0.0143039
636.421	0.0142587
636.499	0.0143275
636.578	0.0141836
636.656	0.0142278
636.734	0.0142532
636.812	0.0142803
636.890	0.0142822
636.968	0.0142086
637.046	0.0143126
637.124	0.0142504
637.203	0.0141322
637.281	0.0143422
637.359	0.0142132
637.437	0.0141010
637.515	0.0142416
637.593	0.0142035
637.671	0.0142461
637.749	0.0142413
637.828	0.0141093
637.906	0.0141365
637.984	0.0142396
638.062	0.0142178
638.140	0.0140527
638.218	0.0140994
638.296	0.0142185
638.374	0.0140562
638.453	0.0142316
638.531	0.0142009
638.609	0.0142648
638.687	0.0142062
638.765	0.0142876
638.843	0.0143102
638.921	0.0144190
638.999	0.0142310
639.078	0.0142295
639.156	0.0144006
639.234	0.0143353
639.312	0.0142788
639.390	0.0142166
639.468	0.0143099
639.546	0.0143134
639.624	0.0143579
639.703	0.0142207
639.781	0.0141782
639.859	0.0142148
639.937	0.0143118
640.015	0.0141901
640.093	0.0140951
640.171	0.0142249
640.249	0.0141211
640.328	0.0143056
640.406	0.0141474
640.484	0.0141103
640.562	0.0142761
640.640	0.0143589
640.718	0.0141596
640.796	0.0142229
640.874	0.0143621
640.953	0.0143435
641.031	0.0143151
641.109	0.0141579
641.187	0.0142425
641.265	0.0142066
641.343	0.0142104
641.421	0.0141341
641.499	0.0140163
641.578	0.0140038
641.656	0.0139884
641.734	0.0140553
641.812	0.0141005
641.890	0.0139662
641.968	0.0140693
642.046	0.0142091
642.124	0.0141385
642.203	0.0139651
642.281	0.0140411
642.359	0.0140659
642.437	0.0141850
642.515	0.0140782
642.593	0.0142198
642.671	0.0141181
642.749	0.0141604
642.828	0.0140288
642.906	0.0140536
642.984	0.0140491
643.062	0.0142706
643.140	0.0142534
643.218	0.0142276
643.296	0.0141530
643.374	0.0141667
643.453	0.0141495
643.531	0.0141118
643.609	0.0141239
643.687	0.0142883
643.765	0.0143201
643.843	0.0140837
643.921	0.0143085
643.999	0.0141512
644.078	0.0141684
644.156	0.0140336
644.234	0.0141389
644.312	0.0140665
644.390	0.0140495
644.468	0.0141624
644.546	0.0141303
644.624	0.0140225
644.703	0.0140166
644.781	0.0140604
644.859	0.0142455
644.937	0.0142284
645.015	0.0141376
645.093	0.0142400
645.171	0.0141699
645.249	0.0142673
645.328	0.0143654
645.406	0.0144042
645.484	0.0142641
645.562	0.0143053
645.640	0.0143645
645.718	0.0143379
645.796	0.0143752
645.874	0.0144881
645.953	0.0144881
646.031	0.0143230
646.109	0.0143952
646.187	0.0144810
646.265	0.0142776
646.343	0.0141723
646.421	0.0141904
646.499	0.0141319
646.578	0.0141376
646.656	0.0142139
646.734	0.0142226
646.812	0.0140813
646.890	0.0141387
646.968	0.0139518
647.046	0.0141644
647.124	0.0140447
647.203	0.0142335
647.281	0.0141739
647.359	0.0139855
647.437	0.0141311
647.515	0.0142748
647.593	0.0143208
647.671	0.0143346
647.749	0.0143348
647.828	0.0143420
647.906	0.0142911
647.984	0.0142653
648.062	0.0144379
648.140	0.0144003
648.218	0.0143463
648.296	0.0144763
648.374	0.0144577
648.453	0.0146472
648.531	0.0145053
648.609	0.0144582
648.687	0.0144632
648.765	0.0144066
648.843	0.0143560
648.921	0.0143279
648.999	0.0143353
649.078	0.0143130
649.156	0.0143111
649.234	0.0143065
649.312	0.0143097
649.390	0.0141474
649.468	0.0141804
649.546	0.0142257
649.624	0.0140286
649.703	0.0141368
649.781	0.0142654
649.859	0.0139906
649.937	0.0140587
650.015	0.0140769
650.093	0.0141773
650.171	0.0141733
650.249	0.0141171
650.328	0.0143718
650.406	0.0142888
650.484	0.0143261
650.562	0.0142437
650.640	0.0143137
650.718	0.0144394
650.796	0.0144791
650.874	0.0146869
650.953	0.0146661
651.031	0.0147411
651.109	0.0146514
651.187	0.0146314
651.265	0.0145905
651.343	0.0146185
651.421	0.0146720
651.499	0.0146906
651.578	0.0144934
651.656	0.0145229
651.734	0.0145761
651.812	0.0145065
651.890	0.0143636
651.968	0.0144148
652.046	0.0141791
652.124	0.0142863
652.203	0.0143518
652.281	0.0140802
652.359	0.0140892
652.437	0.0142216
652.515	0.0140901
652.593	0.0139835
652.671	0.0139693
652.749	0.0139623
652.828	0.0141270
652.906	0.0140685
652.984	0.0139423
653.062	0.0141185
653.140	0.0140292
653.218	0.0140567
653.296	0.0141172
653.374	0.0141756
653.453	0.0142046
653.531	0.0142829
653.609	0.0142920
653.687	0.0142933
653.765	0.0143794
653.843	0.0144135
653.921	0.0143974
653.999	0.0145268
654.078	0.0146049
654.156	0.0145467
654.234	0.0145563
654.312	0.0146326
654.390	0.0145972
654.468	0.0145150
654.546	0.0145868
654.624	0.0145181
654.703	0.0144199
654.781	0.0143687
654.859	0.0142342
654.937	0.0143550
655.015	0.0140948
655.093	0.0139816
655.171	0.0139169
655.249	0.0139455
655.328	0.0138736
655.406	0.0138000
655.484	0.0138345
655.562	0.0137659
655.640	0.0137476
655.718	0.0137924
655.796	0.0138373
655.874	0.0139909
655.953	0.0139201
656.031	0.0141171
656.109	0.0143014
656.187	0.0143072
656.265	0.0143595
656.343	0.0145486
656.421	0.0146598
656.499	0.0145313
656.578	0.0144672
656.656	0.0144679
656.734	0.0145333
656.812	0.0143130
656.890	0.0144244
656.968	0.0142292
657.046	0.0142364
657.124	0.0141981
657.203	0.0140969
657.281	0.0138580
657.359	0.0139117
657.437	0.0139317
657.515	0.0137801
657.593	0.0137969
657.671	0.0138918
657.749	0.0136486
657.828	0.0136393
657.906	0.0136475
657.984	0.0138160
658.062	0.0139967
658.140	0.0138586
658.218	0.0140305
658.296	0.0140907
658.374	0.0142776
658.453	0.0143711
658.531	0.0145345
658.609	0.0145493
658.687	0.0145727
658.765	0.0144560
658.843	0.0146609
658.921	0.0146680
658.999	0.0146510
659.078	0.0146078
659.156	0.0146091
659.234	0.0146289
659.312	0.0144994
659.390	0.0146006
659.468	0.0145478
659.546	0.0144119
659.624	0.0143697
659.703	0.0141975
659.781	0.0142182
659.859	0.0142614
659.937	0.0142276
660.015	0.0141953
660.093	0.0140607
660.171	0.0140622
660.249	0.0139379
660.328	0.0141316
660.406	0.0141233
660.484	0.0140923
660.562	0.0140913
660.640	0.0141722
660.718	0.0142139
660.796	0.0141389
660.874	0.0142973
660.953	0.0141944
661.031	0.0141926
661.109	0.0142453
661.187	0.0144073
661.265	0.0142547
661.343	0.0141583
661.421	0.0143069
661.499	0.0143267
661.578	0.0142929
661.656	0.0142667
661.734	0.0141312
661.812	0.0141051
661.890	0.0140971
661.968	0.0140533
662.046	0.0140991
662.124	0.0140308
662.203	0.0139482
662.281	0.0139830
662.359	0.0139087
662.437	0.0139733
662.515	0.0140318
662.593	0.0139645
662.671	0.0139368
662.749	0.0142597
662.828	0.0142188
662.906	0.0142432
662.984	0.0143800
663.062	0.0143960
663.140	0.0144589
663.218	0.0144416
663.296	0.0145715
663.374	0.0145967
663.453	0.0144671
663.531	0.0144298
663.609	0.0143861
663.687	0.0143333
663.765	0.0143647
663.843	0.0143037
663.921	0.0142524
663.999	0.0142254
664.078	0.0142288
664.156	0.0141685
664.234	0.0140619
664.312	0.0141695
664.390	0.0141669
664.468	0.0140933
664.546	0.0141438
664.624	0.0140780
664.703	0.0141854
664.781	0.0142055
664.859	0.0141315
664.937	0.0142002
665.015	0.0140939
665.093	0.0142773
665.171	0.0141080
665.249	0.0142120
665.328	0.0140514
665.406	0.0139172
665.484	0.0140225
665.562	0.0139253
665.640	0.0138674
665.718	0.0138432
665.796	0.0138927
665.874	0.0138831
665.953	0.0138882
666.031	0.0139153
666.109	0.0139088
666.187	0.0138863
666.265	0.0140367
666.343	0.0141693
666.421	0.0142706
666.499	0.0143120
666.578	0.0144131
666.656	0.0144350
666.734	0.0146095
666.812	0.0145937
666.890	0.0146323
666.968	0.0145187
667.046	0.0145044
667.124	0.0145614
667.203	0.0146466
667.281	0.0145303
667.359	0.0145325
667.437	0.0143585
667.515	0.0143640
667.593	0.0144286
667.671	0.0145590
667.749	0.0144660
667.828	0.0142540
667.906	0.0141763
667.984	0.0141423
668.062	0.0139394
668.140	0.0141322
668.218	0.0140124
668.296	0.0140218
668.374	0.0139241
668.453	0.0139758
668.531	0.0142390
668.609	0.0140374
668.687	0.0141422
668.765	0.0140876
668.843	0.0141712
668.921	0.0143079
668.999	0.0142277
669.078	0.0142820
669.156	0.0141702
669.234	0.0142856
669.312	0.0144981
669.390	0.0144563
669.468	0.0145538
669.546	0.0146243
669.624	0.0144846
669.703	0.0147649
669.781	0.0146159
669.859	0.0145960
669.937	0.0145805
670.015	0.0143916
670.093	0.0144786
670.171	0.0145101
670.249	0.0143040
670.328	0.0141554
670.406	0.0142199
670.484	0.0139945
670.562	0.0138708
670.640	0.0138413
670.718	0.0139423
670.796	0.0136622
670.874	0.0138285
670.953	0.0138732
671.031	0.0139008
671.109	0.0139478
671.187	0.0139644
671.265	0.0141750
671.343	0.0143021
671.421	0.0143414
671.499	0.0145411
671.578	0.0146143
671.656	0.0146938
671.734	0.0149053
671.812	0.0148417
671.890	0.0150169
671.968	0.0149702
672.046	0.0150104
672.124	0.0149744
672.203	0.0148273
672.281	0.0147981
672.359	0.0146597
672.437	0.0145655
672.515	0.0143457
672.593	0.0142673
672.671	0.0140598
672.749	0.0139336
672.828	0.0137305
672.906	0.0136930
672.984	0.0135249
673.062	0.0134250
673.140	0.0133875
673.218	0.0133091
673.296	0.0134843
673.374	0.0135954
673.453	0.0134692
673.531	0.0136761
673.609	0.0136913
673.687	0.0137664
673.765	0.0139730
673.843	0.0140543
673.921	0.0142249
673.999	0.0142583
674.078	0.0142670
674.156	0.0144907
674.234	0.0144292
674.312	0.0145855
674.390	0.0146214
674.468	0.0144382
674.546	0.0146301
674.624	0.0145511
674.703	0.0144546
674.781	0.0143839
674.859	0.0142731
674.937	0.0141432
675.015	0.0142090
675.093	0.0142780
675.171	0.0142956
675.249	0.0141806
675.328	0.0139665
675.406	0.0142080
675.484	0.0142069
675.562	0.0142207
675.640	0.0142135
675.718	0.0141711
675.796	0.0142344
675.874	0.0142582
675.953	0.0142130
676.031	0.0142487
676.109	0.0142154
676.187	0.0142706
676.265	0.0143613
676.343	0.0144080
676.421	0.0143570
676.499	0.0142924
676.578	0.0144932
676.656	0.0143408
676.734	0.0143653
676.812	0.0142255
676.890	0.0143483
676.968	0.0143657
677.046	0.0143404
677.124	0.0142474
677.203	0.0143261
677.281	0.0141280
677.359	0.0141312
677.437	0.0139463
677.515	0.0139820
677.593	0.0138741
677.671	0.0139301
677.749	0.0139463
677.828	0.0138173
677.906	0.0138837
677.984	0.0139120
678.062	0.0140707
678.140	0.0139031
678.218	0.0139832
678.296	0.0140702
678.374	0.0140825
678.453	0.0142065
678.531	0.0142793
678.609	0.0141919
678.687	0.0142941
678.765	0.0143137
678.843	0.0142854
678.921	0.0143602
678.999	0.0142681
679.078	0.0140808
679.156	0.0141504
679.234	0.0141946
679.312	0.0141428
679.390	0.0140855
679.468	0.0140314
679.546	0.0141184
679.624	0.0141364
679.703	0.0141801
679.781	0.0142179
679.859	0.0142005
679.937	0.0143179
680.015	0.0144272
680.093	0.0143887
680.171	0.0144099
680.249	0.0146722
680.328	0.0145861
680.406	0.0146036
680.484	0.0146149
680.562	0.0145337
680.640	0.0144592
680.718	0.0145753
680.796	0.0144317
680.874	0.0143913
680.953	0.0143001
681.031	0.0141786
681.109	0.0140789
681.187	0.0141773
681.265	0.0141995
681.343	0.0140301
681.421	0.0138566
681.499	0.0139767
681.578	0.0140292
681.656	0.0139249
681.734	0.0141808
681.812	0.0139905
681.890	0.0140333
681.968	0.0142425
682.046	0.0142651
682.124	0.0143866
682.203	0.0143826
682.281	0.0144608
682.359	0.0145612
682.437	0.0145525
682.515	0.0144003
682.593	0.0144834
682.671	0.0145914
682.749	0.0144508
682.828	0.0143340
682.906	0.0142960
682.984	0.0141994
683.062	0.0143246
683.140	0.0141812
683.218	0.0141967
683.296	0.0142254
683.374	0.0141779
683.453	0.0141470
683.531	0.0140614
683.609	0.0141358
683.687	0.0141524
683.765	0.0141110
683.843	0.0141560
683.921	0.0139703
683.999	0.0141290
684.078	0.0142947
684.156	0.0142542
684.234	0.0141531
684.312	0.0142519
684.390	0.0141915
684.468	0.0143055
684.546	0.0143353
684.624	0.0143710
684.703	0.0143945
684.781	0.0143201
684.859	0.0143959
684.937	0.0145345
685.015	0.0143875
685.093	0.0142648
685.171	0.0143135
685.249	0.0144034
685.328	0.0143854
685.406	0.0143092
685.484	0.0142870
685.562	0.0142162
685.640	0.0141476
685.718	0.0140046
