05/08/2022	19:35:34	Ver.	4.1	UNKNOWN
Optical Delay	649.989667	Delta X		0.078125	Sweeps	1	Scan Rate	0/0
Coordinates	Axis 1	NaN	Axis 2	NaN	Axis 3	NaN	Axis 4	NaN	Axis 5	NaN	Axis 6	0.000000
TX Power	0.000000	RX Power	0.000000

649.990	0.0143766
650.068	0.0143438
650.146	0.0144751
650.224	0.0143456
650.302	0.0144572
650.380	0.0143935
650.458	0.0143280
650.537	0.0142550
650.615	0.0143819
650.693	0.0143546
650.771	0.0143660
650.849	0.0141727
650.927	0.0143813
651.005	0.0145361
651.083	0.0143737
651.162	0.0144006
651.240	0.0143378
651.318	0.0144231
651.396	0.0143856
651.474	0.0144078
651.552	0.0144661
651.630	0.0144687
651.708	0.0144348
651.787	0.0143761
651.865	0.0143556
651.943	0.0144064
652.021	0.0142871
652.099	0.0142401
652.177	0.0144650
652.255	0.0143872
652.333	0.0143564
652.412	0.0143617
652.490	0.0144923
652.568	0.0143527
652.646	0.0143833
652.724	0.0142886
652.802	0.0144141
652.880	0.0144529
652.958	0.0142003
653.037	0.0143674
653.115	0.0144174
653.193	0.0144431
653.271	0.0143147
653.349	0.0142155
653.427	0.0143140
653.505	0.0144838
653.583	0.0143185
653.662	0.0143994
653.740	0.0143240
653.818	0.0143974
653.896	0.0144745
653.974	0.0142699
654.052	0.0143340
654.130	0.0143294
654.208	0.0142799
654.287	0.0146032
654.365	0.0143647
654.443	0.0143611
654.521	0.0143715
654.599	0.0142294
654.677	0.0143407
654.755	0.0143673
654.833	0.0142939
654.912	0.0143269
654.990	0.0143649
655.068	0.0142777
655.146	0.0142249
655.224	0.0142979
655.302	0.0143002
655.380	0.0143439
655.458	0.0143568
655.537	0.0142310
655.615	0.0144358
655.693	0.0143623
655.771	0.0144012
655.849	0.0144362
655.927	0.0143678
656.005	0.0143273
656.083	0.0143766
656.162	0.0143936
656.240	0.0144027
656.318	0.0144068
656.396	0.0143389
656.474	0.0144566
656.552	0.0144379
656.630	0.0142680
656.708	0.0143358
656.787	0.0144010
656.865	0.0143614
656.943	0.0143581
657.021	0.0143809
657.099	0.0144333
657.177	0.0144035
657.255	0.0143630
657.333	0.0143256
657.412	0.0143488
657.490	0.0143933
657.568	0.0144169
657.646	0.0143311
657.724	0.0143135
657.802	0.0144151
657.880	0.0144479
657.958	0.0143346
658.037	0.0142991
658.115	0.0142572
658.193	0.0143520
658.271	0.0142767
658.349	0.0144759
658.427	0.0144256
658.505	0.0143217
658.583	0.0142610
658.662	0.0142033
658.740	0.0143032
658.818	0.0144209
658.896	0.0143731
658.974	0.0143904
659.052	0.0142801
659.130	0.0143620
659.208	0.0143565
659.287	0.0143250
659.365	0.0143019
659.443	0.0143030
659.521	0.0142951
659.599	0.0143764
659.677	0.0143639
659.755	0.0144507
659.833	0.0144261
659.912	0.0143123
659.990	0.0143449
660.068	0.0144260
660.146	0.0143370
660.224	0.0144468
660.302	0.0143887
660.380	0.0143717
660.458	0.0143574
660.537	0.0142448
660.615	0.0143866
660.693	0.0143126
660.771	0.0143641
660.849	0.0143700
660.927	0.0141041
661.005	0.0142236
661.083	0.0143283
661.162	0.0143714
661.240	0.0144049
661.318	0.0143052
661.396	0.0144164
661.474	0.0143747
661.552	0.0142788
661.630	0.0143286
661.708	0.0142503
661.787	0.0143653
661.865	0.0143116
661.943	0.0143490
662.021	0.0143836
662.099	0.0144039
662.177	0.0143902
662.255	0.0142302
662.333	0.0144286
662.412	0.0144133
662.490	0.0143060
662.568	0.0142950
662.646	0.0142854
662.724	0.0143001
662.802	0.0143620
662.880	0.0142849
662.958	0.0143582
663.037	0.0142767
663.115	0.0142650
663.193	0.0142799
663.271	0.0143198
663.349	0.0143852
663.427	0.0143215
663.505	0.0143009
663.583	0.0143116
663.662	0.0144611
663.740	0.0142429
663.818	0.0142801
663.896	0.0144011
663.974	0.0142979
664.052	0.0142636
664.130	0.0144281
664.208	0.0143072
664.287	0.0143025
664.365	0.0143708
664.443	0.0143231
664.521	0.0144008
664.599	0.0143587
664.677	0.0143475
664.755	0.0142474
664.833	0.0141988
664.912	0.0143291
664.990	0.0144302
665.068	0.0143224
665.146	0.0143316
665.224	0.0142553
665.302	0.0145181
665.380	0.0144170
665.458	0.0142464
665.537	0.0144111
665.615	0.0143387
665.693	0.0142950
665.771	0.0145251
665.849	0.0144283
665.927	0.0143317
666.005	0.0143692
666.083	0.0143761
666.162	0.0144076
666.240	0.0143799
666.318	0.0142732
666.396	0.0142898
666.474	0.0142480
666.552	0.0144514
666.630	0.0145381
666.708	0.0142970
666.787	0.0143970
666.865	0.0143737
666.943	0.0143848
667.021	0.0143005
667.099	0.0144199
667.177	0.0145428
667.255	0.0144178
667.333	0.0142975
667.412	0.0143034
667.490	0.0143204
667.568	0.0145286
667.646	0.0144118
667.724	0.0143118
667.802	0.0144020
667.880	0.0145631
667.958	0.0143804
668.037	0.0143199
668.115	0.0144468
668.193	0.0145271
668.271	0.0145185
668.349	0.0144491
668.427	0.0144553
668.505	0.0143033
668.583	0.0142918
668.662	0.0143445
668.740	0.0144634
668.818	0.0144231
668.896	0.0143540
668.974	0.0144076
669.052	0.0143795
669.130	0.0145319
669.208	0.0144653
669.287	0.0144938
669.365	0.0144382
669.443	0.0143622
669.521	0.0143708
669.599	0.0144498
669.677	0.0144198
669.755	0.0145911
669.833	0.0144745
669.912	0.0145332
669.990	0.0144585
670.068	0.0145696
670.146	0.0145115
670.224	0.0144837
670.302	0.0144484
670.380	0.0145803
670.458	0.0144192
670.537	0.0144258
670.615	0.0144370
670.693	0.0145522
670.771	0.0146585
670.849	0.0145296
670.927	0.0144568
671.005	0.0144372
671.083	0.0144955
671.162	0.0145466
671.240	0.0144151
671.318	0.0145669
671.396	0.0145889
671.474	0.0145486
671.552	0.0144345
671.630	0.0144237
671.708	0.0145845
671.787	0.0144931
671.865	0.0144505
671.943	0.0144624
672.021	0.0145777
672.099	0.0144935
672.177	0.0145210
672.255	0.0144849
672.333	0.0144322
672.412	0.0144128
672.490	0.0144806
672.568	0.0143369
672.646	0.0145295
672.724	0.0144480
672.802	0.0144121
672.880	0.0144923
672.958	0.0145635
673.037	0.0144850
673.115	0.0145014
673.193	0.0143296
673.271	0.0143984
673.349	0.0145565
673.427	0.0145066
673.505	0.0143447
673.583	0.0143338
673.662	0.0143507
673.740	0.0145018
673.818	0.0144556
673.896	0.0143596
673.974	0.0142697
674.052	0.0143319
674.130	0.0143346
674.208	0.0144112
674.287	0.0144149
674.365	0.0144827
674.443	0.0142754
674.521	0.0143871
674.599	0.0143350
674.677	0.0144372
674.755	0.0144933
674.833	0.0142800
674.912	0.0143134
674.990	0.0142944
675.068	0.0144223
675.146	0.0142786
675.224	0.0143448
675.302	0.0143721
675.380	0.0143508
675.458	0.0142585
675.537	0.0143122
675.615	0.0143408
675.693	0.0144200
675.771	0.0143382
675.849	0.0142854
675.927	0.0143665
676.005	0.0143732
676.083	0.0143946
676.162	0.0143924
676.240	0.0143427
676.318	0.0142911
676.396	0.0143068
676.474	0.0142953
676.552	0.0143931
676.630	0.0144131
676.708	0.0143633
676.787	0.0143520
676.865	0.0142597
676.943	0.0142577
677.021	0.0142509
677.099	0.0143864
677.177	0.0144460
677.255	0.0142189
677.333	0.0143172
677.412	0.0144936
677.490	0.0143880
677.568	0.0143047
677.646	0.0141430
677.724	0.0142794
677.802	0.0143366
677.880	0.0144367
677.958	0.0142676
678.037	0.0143124
678.115	0.0142984
678.193	0.0143871
678.271	0.0144504
678.349	0.0143202
678.427	0.0143399
678.505	0.0142847
678.583	0.0143422
678.662	0.0144504
678.740	0.0145488
678.818	0.0143427
678.896	0.0143504
678.974	0.0143778
679.052	0.0143037
679.130	0.0143475
679.208	0.0143282
679.287	0.0143980
679.365	0.0143829
679.443	0.0143687
679.521	0.0143505
679.599	0.0142751
679.677	0.0143541
679.755	0.0144781
679.833	0.0143396
679.912	0.0144483
679.990	0.0144447
680.068	0.0143691
680.146	0.0144787
680.224	0.0144627
680.302	0.0144011
680.380	0.0145178
680.458	0.0144256
680.537	0.0143572
680.615	0.0143023
680.693	0.0143212
680.771	0.0143869
680.849	0.0143672
680.927	0.0143094
681.005	0.0141629
681.083	0.0142080
681.162	0.0144169
681.240	0.0144250
681.318	0.0144129
681.396	0.0145518
681.474	0.0148762
681.552	0.0148138
681.630	0.0148801
681.708	0.0147667
681.787	0.0147801
681.865	0.0146252
681.943	0.0143787
682.021	0.0143805
682.099	0.0142062
682.177	0.0139671
682.255	0.0138216
682.333	0.0137387
682.412	0.0136405
682.490	0.0135096
682.568	0.0137443
682.646	0.0139442
682.724	0.0140451
682.802	0.0142603
682.880	0.0146325
682.958	0.0149171
683.037	0.0154291
683.115	0.0157077
683.193	0.0159799
683.271	0.0162614
683.349	0.0163027
683.427	0.0161223
683.505	0.0157658
683.583	0.0154367
683.662	0.0146611
683.740	0.0138385
683.818	0.0131033
683.896	0.0122734
683.974	0.0118338
684.052	0.0112354
684.130	0.0112192
684.208	0.0113818
684.287	0.0117384
684.365	0.0123627
684.443	0.0130773
684.521	0.0140944
684.599	0.0150686
684.677	0.0159230
684.755	0.0167960
684.833	0.0175117
684.912	0.0179297
684.990	0.0181131
685.068	0.0181615
685.146	0.0177708
685.224	0.0172139
685.302	0.0165305
685.380	0.0157670
685.458	0.0147919
685.537	0.0139241
685.615	0.0129977
685.693	0.0123779
685.771	0.0117005
685.849	0.0112910
685.927	0.0111748
686.005	0.0111111
686.083	0.0114737
686.162	0.0121638
686.240	0.0125955
686.318	0.0132011
686.396	0.0138696
686.474	0.0143890
686.552	0.0149194
686.630	0.0153130
686.708	0.0155259
686.787	0.0155593
686.865	0.0156932
686.943	0.0155262
687.021	0.0153722
687.099	0.0152301
687.177	0.0150391
687.255	0.0150770
687.333	0.0149796
687.412	0.0149313
687.490	0.0150808
687.568	0.0149487
687.646	0.0150912
687.724	0.0150930
687.802	0.0149323
687.880	0.0149595
687.958	0.0148628
688.037	0.0145000
688.115	0.0145441
688.193	0.0142173
688.271	0.0140639
688.349	0.0138376
688.427	0.0135342
688.505	0.0135775
688.583	0.0134079
688.662	0.0134025
688.740	0.0133427
688.818	0.0134924
688.896	0.0134083
688.974	0.0137117
689.052	0.0136858
689.130	0.0137589
689.208	0.0137637
689.287	0.0140121
689.365	0.0140230
689.443	0.0139372
689.521	0.0142376
689.599	0.0143952
689.677	0.0144678
689.755	0.0143955
689.833	0.0145564
689.912	0.0145982
689.990	0.0146008
690.068	0.0146930
690.146	0.0147325
690.224	0.0145462
690.302	0.0145400
690.380	0.0143989
690.458	0.0145236
690.537	0.0145266
690.615	0.0144099
690.693	0.0145321
690.771	0.0148653
690.849	0.0148152
690.927	0.0150876
691.005	0.0152317
691.083	0.0152968
691.162	0.0153761
691.240	0.0154017
691.318	0.0153548
691.396	0.0151447
691.474	0.0151264
691.552	0.0148146
691.630	0.0145702
691.708	0.0144069
691.787	0.0138656
691.865	0.0134647
691.943	0.0133284
692.021	0.0129664
692.099	0.0128381
692.177	0.0127373
692.255	0.0126530
692.333	0.0128026
692.412	0.0129707
692.490	0.0131115
692.568	0.0134232
692.646	0.0137811
692.724	0.0142507
692.802	0.0145241
692.880	0.0149799
692.958	0.0153297
693.037	0.0156261
693.115	0.0158645
693.193	0.0159003
693.271	0.0159258
693.349	0.0156643
693.427	0.0154665
693.505	0.0152303
693.583	0.0149418
693.662	0.0145991
693.740	0.0141724
693.818	0.0135779
693.896	0.0133201
693.974	0.0131702
694.052	0.0127991
694.130	0.0125665
694.208	0.0124210
694.287	0.0125740
694.365	0.0126418
694.443	0.0129841
694.521	0.0131144
694.599	0.0137238
694.677	0.0141598
694.755	0.0147748
694.833	0.0151173
694.912	0.0158828
694.990	0.0163524
695.068	0.0167825
695.146	0.0170980
695.224	0.0173193
695.302	0.0176134
695.380	0.0173678
695.458	0.0172355
695.537	0.0168700
695.615	0.0165263
695.693	0.0161440
695.771	0.0154996
695.849	0.0148549
695.927	0.0144649
696.005	0.0137157
696.083	0.0131032
696.162	0.0126374
696.240	0.0121568
696.318	0.0120605
696.396	0.0118071
696.474	0.0115596
696.552	0.0115186
696.630	0.0116921
696.708	0.0120040
696.787	0.0123428
696.865	0.0123633
696.943	0.0127307
697.021	0.0130780
697.099	0.0135078
697.177	0.0138280
697.255	0.0140411
697.333	0.0143259
697.412	0.0147874
697.490	0.0149334
697.568	0.0151411
697.646	0.0151151
697.724	0.0153458
697.802	0.0156391
697.880	0.0154204
697.958	0.0153748
698.037	0.0154150
698.115	0.0153082
698.193	0.0153267
698.271	0.0152271
698.349	0.0149784
698.427	0.0150085
698.505	0.0150876
698.583	0.0149917
698.662	0.0149081
698.740	0.0148538
698.818	0.0148620
698.896	0.0148016
698.974	0.0151179
699.052	0.0152606
699.130	0.0153917
699.208	0.0155547
699.287	0.0156689
699.365	0.0157433
699.443	0.0156895
699.521	0.0156715
699.599	0.0157613
699.677	0.0155199
699.755	0.0153579
699.833	0.0152017
699.912	0.0149107
699.990	0.0145394
700.068	0.0144608
700.146	0.0140259
700.224	0.0136552
700.302	0.0132986
700.380	0.0130557
700.458	0.0126582
700.537	0.0124945
700.615	0.0121969
700.693	0.0120607
700.771	0.0118520
700.849	0.0117420
700.927	0.0117492
701.005	0.0118571
701.083	0.0119592
701.162	0.0122751
701.240	0.0125958
701.318	0.0126691
701.396	0.0131686
701.474	0.0133368
701.552	0.0137856
701.630	0.0141718
701.708	0.0144133
701.787	0.0146863
701.865	0.0149858
701.943	0.0151226
702.021	0.0152144
702.099	0.0153284
702.177	0.0155548
702.255	0.0156565
702.333	0.0156866
702.412	0.0157639
702.490	0.0157886
702.568	0.0157756
702.646	0.0158617
702.724	0.0158016
702.802	0.0157684
702.880	0.0157603
702.958	0.0156847
703.037	0.0156056
703.115	0.0154925
703.193	0.0156482
703.271	0.0154822
703.349	0.0155575
703.427	0.0154182
703.505	0.0153846
703.583	0.0153406
703.662	0.0153578
703.740	0.0153360
703.818	0.0151881
703.896	0.0151029
703.974	0.0149721
704.052	0.0148853
704.130	0.0145263
704.208	0.0143544
704.287	0.0140527
704.365	0.0138786
704.443	0.0133102
704.521	0.0129919
704.599	0.0128014
704.677	0.0124668
704.755	0.0123835
704.833	0.0121337
704.912	0.0121266
704.990	0.0119854
705.068	0.0118806
705.146	0.0119393
705.224	0.0121119
705.302	0.0122739
705.380	0.0126397
705.458	0.0126521
705.537	0.0127631
705.615	0.0129350
705.693	0.0134104
705.771	0.0136701
705.849	0.0139539
705.927	0.0140985
706.005	0.0143845
706.083	0.0146837
706.162	0.0149639
706.240	0.0151770
706.318	0.0156065
706.396	0.0156698
706.474	0.0160091
706.552	0.0164379
706.630	0.0162553
706.708	0.0164271
706.787	0.0164822
706.865	0.0165563
706.943	0.0163568
707.021	0.0161523
707.099	0.0160124
707.177	0.0158346
707.255	0.0156534
707.333	0.0154634
707.412	0.0152305
707.490	0.0148515
707.568	0.0148419
707.646	0.0146523
707.724	0.0145191
707.802	0.0145148
707.880	0.0143356
707.958	0.0144057
708.037	0.0143237
708.115	0.0143631
708.193	0.0144658
708.271	0.0143851
708.349	0.0144341
708.427	0.0143652
708.505	0.0144034
708.583	0.0144090
708.662	0.0145629
708.740	0.0143189
708.818	0.0145493
708.896	0.0142962
708.974	0.0142017
709.052	0.0141978
709.130	0.0140391
709.208	0.0137775
709.287	0.0137677
709.365	0.0135773
709.443	0.0133643
709.521	0.0131917
709.599	0.0132072
709.677	0.0131210
709.755	0.0130087
709.833	0.0131326
709.912	0.0132209
709.990	0.0132604
710.068	0.0132034
710.146	0.0134059
710.224	0.0134292
710.302	0.0135283
710.380	0.0137975
710.458	0.0141639
710.537	0.0141919
710.615	0.0144451
710.693	0.0149323
710.771	0.0149591
710.849	0.0151175
710.927	0.0154351
711.005	0.0156444
711.083	0.0156907
711.162	0.0157690
711.240	0.0157682
711.318	0.0156950
711.396	0.0155290
711.474	0.0154985
711.552	0.0152671
711.630	0.0151498
711.708	0.0148910
711.787	0.0146909
711.865	0.0146452
711.943	0.0142979
712.021	0.0142924
712.099	0.0142400
712.177	0.0140705
712.255	0.0140868
712.333	0.0140675
712.412	0.0141525
712.490	0.0143763
712.568	0.0142242
712.646	0.0141482
712.724	0.0142590
712.802	0.0142930
712.880	0.0142620
712.958	0.0143425
713.037	0.0143396
713.115	0.0142352
713.193	0.0141732
713.271	0.0140616
713.349	0.0142113
713.427	0.0142628
713.505	0.0140952
713.583	0.0143742
713.662	0.0143315
713.740	0.0143952
713.818	0.0145409
713.896	0.0144553
713.974	0.0144247
714.052	0.0144122
714.130	0.0146191
714.208	0.0145487
714.287	0.0144702
714.365	0.0143497
714.443	0.0143062
714.521	0.0143107
714.599	0.0141560
714.677	0.0140369
714.755	0.0139868
714.833	0.0137794
714.912	0.0138165
714.990	0.0138440
715.068	0.0137119
715.146	0.0136186
715.224	0.0136112
715.302	0.0136934
715.380	0.0135880
715.458	0.0137639
715.537	0.0137245
715.615	0.0138160
715.693	0.0139935
715.771	0.0140655
715.849	0.0141808
715.927	0.0141892
716.005	0.0143426
716.083	0.0143757
716.162	0.0142961
716.240	0.0144892
716.318	0.0143719
716.396	0.0144781
716.474	0.0144654
716.552	0.0146114
716.630	0.0146120
716.708	0.0146059
716.787	0.0145955
716.865	0.0145027
716.943	0.0146162
717.021	0.0146032
717.099	0.0146808
717.177	0.0147514
717.255	0.0147717
717.333	0.0147816
717.412	0.0146733
717.490	0.0147072
717.568	0.0148955
717.646	0.0148512
717.724	0.0146695
717.802	0.0146232
717.880	0.0147318
717.958	0.0148277
718.037	0.0144741
718.115	0.0145628
718.193	0.0143987
718.271	0.0143982
718.349	0.0142587
718.427	0.0142945
718.505	0.0143206
718.583	0.0142641
718.662	0.0143894
718.740	0.0143052
718.818	0.0143394
718.896	0.0142812
718.974	0.0142419
719.052	0.0142514
719.130	0.0144090
719.208	0.0143850
719.287	0.0144423
719.365	0.0144875
719.443	0.0143871
719.521	0.0143815
719.599	0.0142897
719.677	0.0143366
719.755	0.0142668
719.833	0.0143018
719.912	0.0141976
719.990	0.0141476
720.068	0.0142246
720.146	0.0139910
720.224	0.0140274
720.302	0.0141809
720.380	0.0140090
720.458	0.0139406
720.537	0.0139355
720.615	0.0139154
720.693	0.0137217
720.771	0.0137251
720.849	0.0139462
720.927	0.0138749
721.005	0.0138853
721.083	0.0139857
721.162	0.0139806
721.240	0.0141209
721.318	0.0143220
721.396	0.0142964
721.474	0.0143958
721.552	0.0144208
721.630	0.0144210
721.708	0.0144267
721.787	0.0144417
721.865	0.0148189
721.943	0.0145899
722.021	0.0146218
722.099	0.0147520
722.177	0.0147947
722.255	0.0147536
722.333	0.0148460
722.412	0.0148698
722.490	0.0146922
722.568	0.0148914
722.646	0.0150273
722.724	0.0149477
722.802	0.0146881
722.880	0.0147033
722.958	0.0147075
723.037	0.0145822
723.115	0.0144530
723.193	0.0144530
723.271	0.0142535
723.349	0.0144032
723.427	0.0142781
723.505	0.0140791
723.583	0.0141026
723.662	0.0141802
723.740	0.0140906
723.818	0.0141318
723.896	0.0141035
723.974	0.0139723
724.052	0.0140573
724.130	0.0141367
724.208	0.0141341
724.287	0.0141824
724.365	0.0141780
724.443	0.0143285
724.521	0.0143119
724.599	0.0142741
724.677	0.0144736
724.755	0.0145867
724.833	0.0145542
724.912	0.0144743
724.990	0.0147118
725.068	0.0147836
725.146	0.0146976
725.224	0.0147358
725.302	0.0147470
725.380	0.0146017
725.458	0.0144936
725.537	0.0144031
725.615	0.0144973
725.693	0.0143580
725.771	0.0142486
725.849	0.0143275
725.927	0.0142393
726.005	0.0141765
726.083	0.0142741
726.162	0.0139472
726.240	0.0140160
726.318	0.0140915
726.396	0.0140853
726.474	0.0140913
726.552	0.0141172
726.630	0.0138662
726.708	0.0139586
726.787	0.0140892
726.865	0.0141364
726.943	0.0140231
727.021	0.0139343
727.099	0.0140621
727.177	0.0140287
727.255	0.0140900
727.333	0.0140797
727.412	0.0141881
727.490	0.0140945
727.568	0.0140839
727.646	0.0141183
727.724	0.0140589
727.802	0.0142143
727.880	0.0144164
727.958	0.0143574
728.037	0.0142267
728.115	0.0144405
728.193	0.0145741
728.271	0.0145037
728.349	0.0145108
728.427	0.0146859
728.505	0.0147516
728.583	0.0147997
728.662	0.0148121
728.740	0.0147267
728.818	0.0147726
728.896	0.0147377
728.974	0.0145615
729.052	0.0145716
729.130	0.0144494
729.208	0.0144966
729.287	0.0143722
729.365	0.0144341
729.443	0.0143786
729.521	0.0142962
729.599	0.0142529
729.677	0.0144048
729.755	0.0144054
729.833	0.0144607
729.912	0.0143025
729.990	0.0143697
730.068	0.0144215
730.146	0.0144796
730.224	0.0144817
730.302	0.0145853
730.380	0.0145563
730.458	0.0146084
730.537	0.0147140
730.615	0.0145193
730.693	0.0145512
730.771	0.0145708
730.849	0.0144708
730.927	0.0145682
731.005	0.0146645
731.083	0.0145616
731.162	0.0145139
731.240	0.0144927
731.318	0.0144686
731.396	0.0145091
731.474	0.0145311
731.552	0.0144537
731.630	0.0144292
731.708	0.0143646
731.787	0.0144978
731.865	0.0144064
731.943	0.0142435
732.021	0.0144066
732.099	0.0142323
732.177	0.0142098
732.255	0.0141453
732.333	0.0141418
732.412	0.0142620
732.490	0.0141441
732.568	0.0142924
732.646	0.0140764
732.724	0.0140067
732.802	0.0140148
732.880	0.0141283
732.958	0.0139462
733.037	0.0140498
733.115	0.0142155
733.193	0.0140642
733.271	0.0140220
733.349	0.0139719
733.427	0.0139566
733.505	0.0140851
733.583	0.0139381
733.662	0.0140042
733.740	0.0140958
733.818	0.0140549
733.896	0.0141821
733.974	0.0143044
734.052	0.0142433
734.130	0.0143182
734.208	0.0144303
734.287	0.0146591
734.365	0.0146450
734.443	0.0144090
734.521	0.0146105
734.599	0.0145583
734.677	0.0145035
734.755	0.0143985
734.833	0.0144629
734.912	0.0145863
734.990	0.0145750
735.068	0.0144915
735.146	0.0145072
735.224	0.0146263
735.302	0.0145458
735.380	0.0147179
735.458	0.0146878
735.537	0.0147356
735.615	0.0147038
735.693	0.0148405
