05/08/2022	19:40:45	Ver.	4.1	UNKNOWN
Optical Delay	649.989667	Delta X		0.078125	Sweeps	1	Scan Rate	0/0
Coordinates	Axis 1	NaN	Axis 2	NaN	Axis 3	NaN	Axis 4	NaN	Axis 5	NaN	Axis 6	0.000000
TX Power	0.000000	RX Power	0.000000

649.990	0.0144241
650.068	0.0144075
650.146	0.0143643
650.224	0.0143739
650.302	0.0143399
650.380	0.0144120
650.458	0.0144773
650.537	0.0143917
650.615	0.0143781
650.693	0.0143615
650.771	0.0144083
650.849	0.0145138
650.927	0.0144778
651.005	0.0143595
651.083	0.0144183
651.162	0.0143916
651.240	0.0144660
651.318	0.0144058
651.396	0.0145141
651.474	0.0145433
651.552	0.0144617
651.630	0.0145371
651.708	0.0144598
651.787	0.0144180
651.865	0.0144073
651.943	0.0144001
652.021	0.0144863
652.099	0.0144644
652.177	0.0143966
652.255	0.0143988
652.333	0.0145739
652.412	0.0145345
652.490	0.0145589
652.568	0.0145751
652.646	0.0145304
652.724	0.0145226
652.802	0.0143155
652.880	0.0144763
652.958	0.0143397
653.037	0.0144669
653.115	0.0145053
653.193	0.0145301
653.271	0.0144597
653.349	0.0144913
653.427	0.0145178
653.505	0.0144535
653.583	0.0143384
653.662	0.0143118
653.740	0.0145206
653.818	0.0145048
653.896	0.0144377
653.974	0.0145145
654.052	0.0145135
654.130	0.0144180
654.208	0.0144283
654.287	0.0143478
654.365	0.0142957
654.443	0.0144720
654.521	0.0144143
654.599	0.0144708
654.677	0.0144294
654.755	0.0144061
654.833	0.0143356
654.912	0.0145802
654.990	0.0145435
655.068	0.0144772
655.146	0.0144008
655.224	0.0144292
655.302	0.0144437
655.380	0.0145637
655.458	0.0144947
655.537	0.0144114
655.615	0.0143957
655.693	0.0143296
655.771	0.0143394
655.849	0.0142897
655.927	0.0144483
656.005	0.0143608
656.083	0.0145259
656.162	0.0144798
656.240	0.0144558
656.318	0.0144479
656.396	0.0145380
656.474	0.0145055
656.552	0.0144357
656.630	0.0144699
656.708	0.0145218
656.787	0.0144453
656.865	0.0144487
656.943	0.0145241
657.021	0.0143483
657.099	0.0144207
657.177	0.0145020
657.255	0.0143984
657.333	0.0144539
657.412	0.0144264
657.490	0.0143582
657.568	0.0144165
657.646	0.0142576
657.724	0.0143992
657.802	0.0144927
657.880	0.0144685
657.958	0.0144608
658.037	0.0143764
658.115	0.0143694
658.193	0.0146377
658.271	0.0144917
658.349	0.0143900
658.427	0.0144559
658.505	0.0144884
658.583	0.0144949
658.662	0.0144983
658.740	0.0144238
658.818	0.0144875
658.896	0.0143983
658.974	0.0145697
659.052	0.0144592
659.130	0.0144432
659.208	0.0144733
659.287	0.0144130
659.365	0.0142628
659.443	0.0143742
659.521	0.0143360
659.599	0.0143268
659.677	0.0143944
659.755	0.0144669
659.833	0.0143802
659.912	0.0142097
659.990	0.0143126
660.068	0.0143721
660.146	0.0145366
660.224	0.0144610
660.302	0.0144303
660.380	0.0143681
660.458	0.0143038
660.537	0.0142471
660.615	0.0142560
660.693	0.0144462
660.771	0.0143740
660.849	0.0143900
660.927	0.0143249
661.005	0.0143475
661.083	0.0143310
661.162	0.0144551
661.240	0.0143897
661.318	0.0144024
661.396	0.0143077
661.474	0.0143772
661.552	0.0143518
661.630	0.0144772
661.708	0.0144286
661.787	0.0143810
661.865	0.0143994
661.943	0.0144979
662.021	0.0143066
662.099	0.0143201
662.177	0.0142606
662.255	0.0144349
662.333	0.0143731
662.412	0.0144254
662.490	0.0144715
662.568	0.0144657
662.646	0.0144553
662.724	0.0143792
662.802	0.0144695
662.880	0.0144880
662.958	0.0145474
663.037	0.0143818
663.115	0.0144460
663.193	0.0144084
663.271	0.0143054
663.349	0.0142580
663.427	0.0144626
663.505	0.0145171
663.583	0.0145793
663.662	0.0143974
663.740	0.0144925
663.818	0.0143444
663.896	0.0144185
663.974	0.0143552
664.052	0.0146090
664.130	0.0144509
664.208	0.0145709
664.287	0.0144705
664.365	0.0143854
664.443	0.0145501
664.521	0.0144946
664.599	0.0144087
664.677	0.0145004
664.755	0.0145142
664.833	0.0144234
664.912	0.0144247
664.990	0.0144665
665.068	0.0145837
665.146	0.0146263
665.224	0.0145454
665.302	0.0144585
665.380	0.0144382
665.458	0.0144719
665.537	0.0146649
665.615	0.0144644
665.693	0.0144660
665.771	0.0144707
665.849	0.0145364
665.927	0.0145515
666.005	0.0144870
666.083	0.0144096
666.162	0.0144622
666.240	0.0146229
666.318	0.0145926
666.396	0.0145362
666.474	0.0145187
666.552	0.0145755
666.630	0.0145251
666.708	0.0144706
666.787	0.0146325
666.865	0.0145885
666.943	0.0144874
667.021	0.0146431
667.099	0.0145575
667.177	0.0143910
667.255	0.0144791
667.333	0.0144712
667.412	0.0145051
667.490	0.0146158
667.568	0.0146298
667.646	0.0145226
667.724	0.0145472
667.802	0.0144342
667.880	0.0144854
667.958	0.0144738
668.037	0.0145705
668.115	0.0145933
668.193	0.0143752
668.271	0.0144880
668.349	0.0146045
668.427	0.0144455
668.505	0.0145796
668.583	0.0145367
668.662	0.0145647
668.740	0.0144720
668.818	0.0144556
668.896	0.0145181
668.974	0.0145457
669.052	0.0144774
669.130	0.0145616
669.208	0.0144610
669.287	0.0143953
669.365	0.0146141
669.443	0.0145476
669.521	0.0145713
669.599	0.0144604
669.677	0.0144144
669.755	0.0144164
669.833	0.0143961
669.912	0.0144878
669.990	0.0144801
670.068	0.0145122
670.146	0.0144855
670.224	0.0143898
670.302	0.0143588
670.380	0.0145380
670.458	0.0145069
670.537	0.0144057
670.615	0.0144497
670.693	0.0144492
670.771	0.0143556
670.849	0.0143459
670.927	0.0144061
671.005	0.0142442
671.083	0.0143805
671.162	0.0143481
671.240	0.0143275
671.318	0.0144669
671.396	0.0142197
671.474	0.0143811
671.552	0.0143047
671.630	0.0144033
671.708	0.0144873
671.787	0.0142903
671.865	0.0144014
671.943	0.0143531
672.021	0.0143445
672.099	0.0143748
672.177	0.0144164
672.255	0.0142781
672.333	0.0141913
672.412	0.0142597
672.490	0.0144020
672.568	0.0143569
672.646	0.0142162
672.724	0.0144119
672.802	0.0142746
672.880	0.0143534
672.958	0.0144368
673.037	0.0143783
673.115	0.0143430
673.193	0.0143073
673.271	0.0144700
673.349	0.0144069
673.427	0.0143192
673.505	0.0143474
673.583	0.0144347
673.662	0.0144913
673.740	0.0145396
673.818	0.0143546
673.896	0.0143256
673.974	0.0144133
674.052	0.0143092
674.130	0.0142769
674.208	0.0143925
674.287	0.0144148
674.365	0.0144524
674.443	0.0143301
674.521	0.0142771
674.599	0.0144407
674.677	0.0145716
674.755	0.0143830
674.833	0.0142438
674.912	0.0143495
674.990	0.0142589
675.068	0.0144361
675.146	0.0143774
675.224	0.0143702
675.302	0.0144266
675.380	0.0143781
675.458	0.0142838
675.537	0.0142454
675.615	0.0143848
675.693	0.0142829
675.771	0.0143163
675.849	0.0143795
675.927	0.0144357
676.005	0.0143355
676.083	0.0144119
676.162	0.0143530
676.240	0.0143415
676.318	0.0143298
676.396	0.0145092
676.474	0.0145028
676.552	0.0144038
676.630	0.0144251
676.708	0.0143437
676.787	0.0142979
676.865	0.0143358
676.943	0.0144509
677.021	0.0144243
677.099	0.0143794
677.177	0.0144555
677.255	0.0144521
677.333	0.0144555
677.412	0.0143594
677.490	0.0143866
677.568	0.0144950
677.646	0.0144033
677.724	0.0144731
677.802	0.0144714
677.880	0.0144608
677.958	0.0145686
678.037	0.0144476
678.115	0.0146333
678.193	0.0145828
678.271	0.0144305
678.349	0.0144253
678.427	0.0145659
678.505	0.0143928
678.583	0.0143694
678.662	0.0142906
678.740	0.0143398
678.818	0.0144364
678.896	0.0144906
678.974	0.0146410
679.052	0.0145863
679.130	0.0147144
679.208	0.0147485
679.287	0.0146698
679.365	0.0146286
679.443	0.0146464
679.521	0.0143581
679.599	0.0141984
679.677	0.0141035
679.755	0.0141192
679.833	0.0140103
679.912	0.0139722
679.990	0.0137893
680.068	0.0140820
680.146	0.0141135
680.224	0.0142225
680.302	0.0142821
680.380	0.0145235
680.458	0.0148846
680.537	0.0147851
680.615	0.0149400
680.693	0.0152039
680.771	0.0152333
680.849	0.0154009
680.927	0.0153519
681.005	0.0154012
681.083	0.0153596
681.162	0.0149798
681.240	0.0147882
681.318	0.0145934
681.396	0.0142369
681.474	0.0137762
681.552	0.0133651
681.630	0.0132519
681.708	0.0128333
681.787	0.0126430
681.865	0.0127399
681.943	0.0128444
682.021	0.0130154
682.099	0.0130881
682.177	0.0135220
682.255	0.0138708
682.333	0.0142616
682.412	0.0147141
682.490	0.0152100
682.568	0.0154624
682.646	0.0156738
682.724	0.0157970
682.802	0.0158007
682.880	0.0159904
682.958	0.0160748
683.037	0.0160023
683.115	0.0160757
683.193	0.0160836
683.271	0.0162351
683.349	0.0160286
683.427	0.0158791
683.505	0.0156854
683.583	0.0154176
683.662	0.0149169
683.740	0.0145557
683.818	0.0138506
683.896	0.0132679
683.974	0.0126227
684.052	0.0117794
684.130	0.0111053
684.208	0.0104798
684.287	0.00999397
684.365	0.00988342
684.443	0.00992554
684.521	0.0102497
684.599	0.0109987
684.677	0.0120232
684.755	0.0131116
684.833	0.0142980
684.912	0.0154764
684.990	0.0166877
685.068	0.0177979
685.146	0.0182456
685.224	0.0187248
685.302	0.0190858
685.380	0.0190486
685.458	0.0188803
685.537	0.0185637
685.615	0.0181187
685.693	0.0175958
685.771	0.0170213
685.849	0.0164410
685.927	0.0158760
686.005	0.0154474
686.083	0.0149537
686.162	0.0144769
686.240	0.0139394
686.318	0.0132507
686.396	0.0125348
686.474	0.0118138
686.552	0.0110638
686.630	0.0104406
686.708	0.00978340
686.787	0.00941872
686.865	0.00918251
686.943	0.00925613
687.021	0.00959930
687.099	0.0101056
687.177	0.0109553
687.255	0.0119810
687.333	0.0129227
687.412	0.0140098
687.490	0.0148375
687.568	0.0156259
687.646	0.0164739
687.724	0.0170702
687.802	0.0173474
687.880	0.0175475
687.958	0.0176128
688.037	0.0176440
688.115	0.0175029
688.193	0.0175362
688.271	0.0174442
688.349	0.0175091
688.427	0.0178089
688.505	0.0180856
688.583	0.0181150
688.662	0.0181780
688.740	0.0182557
688.818	0.0179805
688.896	0.0176492
688.974	0.0170283
689.052	0.0161597
689.130	0.0153349
689.208	0.0142462
689.287	0.0131020
689.365	0.0119400
689.443	0.0108297
689.521	0.00978157
689.599	0.00889694
689.677	0.00839203
689.755	0.00803802
689.833	0.00797256
689.912	0.00790520
689.990	0.00840439
690.068	0.00896332
690.146	0.00978142
690.224	0.0106626
690.302	0.0117445
690.380	0.0128833
690.458	0.0138408
690.537	0.0148890
690.615	0.0158511
690.693	0.0166816
690.771	0.0176894
690.849	0.0181973
690.927	0.0187975
691.005	0.0193700
691.083	0.0197631
691.162	0.0199525
691.240	0.0199356
691.318	0.0197393
691.396	0.0193571
691.474	0.0187523
691.552	0.0182660
691.630	0.0173999
691.708	0.0164454
691.787	0.0154334
691.865	0.0146300
691.943	0.0136833
692.021	0.0127820
692.099	0.0120751
692.177	0.0115574
692.255	0.0109698
692.333	0.0106853
692.412	0.0106998
692.490	0.0107256
692.568	0.0107743
692.646	0.0110031
692.724	0.0114432
692.802	0.0117326
692.880	0.0122221
692.958	0.0126900
693.037	0.0132127
693.115	0.0138805
693.193	0.0142780
693.271	0.0148880
693.349	0.0153302
693.427	0.0158463
693.505	0.0161396
693.583	0.0166589
693.662	0.0168967
693.740	0.0170145
693.818	0.0171802
693.896	0.0170396
693.974	0.0169339
694.052	0.0165769
694.130	0.0163673
694.208	0.0157486
694.287	0.0153308
694.365	0.0147281
694.443	0.0141079
694.521	0.0138743
694.599	0.0133242
694.677	0.0131723
694.755	0.0128141
694.833	0.0125013
694.912	0.0123285
694.990	0.0122834
695.068	0.0124347
695.146	0.0125593
695.224	0.0127840
695.302	0.0130339
695.380	0.0133232
695.458	0.0135960
695.537	0.0138685
695.615	0.0141332
695.693	0.0142696
695.771	0.0143764
695.849	0.0145387
695.927	0.0146618
696.005	0.0149115
696.083	0.0150104
696.162	0.0151082
696.240	0.0152476
696.318	0.0154002
696.396	0.0153773
696.474	0.0155935
696.552	0.0154755
696.630	0.0154170
696.708	0.0154272
696.787	0.0154150
696.865	0.0154476
696.943	0.0153535
697.021	0.0154251
697.099	0.0153748
697.177	0.0153630
697.255	0.0152308
697.333	0.0153622
697.412	0.0153945
697.490	0.0153786
697.568	0.0153011
697.646	0.0153510
697.724	0.0154408
697.802	0.0153255
697.880	0.0150285
697.958	0.0148186
698.037	0.0145174
698.115	0.0142144
698.193	0.0138136
698.271	0.0132508
698.349	0.0128728
698.427	0.0125172
698.505	0.0121182
698.583	0.0118860
698.662	0.0116853
698.740	0.0116761
698.818	0.0117192
698.896	0.0116796
698.974	0.0120134
699.052	0.0121484
699.130	0.0124097
699.208	0.0128173
699.287	0.0132854
699.365	0.0135608
699.443	0.0141547
699.521	0.0145175
699.599	0.0150385
699.677	0.0153386
699.755	0.0155859
699.833	0.0159489
699.912	0.0161318
699.990	0.0161891
700.068	0.0163623
700.146	0.0163821
700.224	0.0163816
700.302	0.0160482
700.380	0.0158436
700.458	0.0154137
700.537	0.0151921
700.615	0.0148737
700.693	0.0145101
700.771	0.0142280
700.849	0.0141502
700.927	0.0140596
701.005	0.0139614
701.083	0.0139821
701.162	0.0140871
701.240	0.0142759
701.318	0.0145307
701.396	0.0148705
701.474	0.0152478
701.552	0.0156205
701.630	0.0158108
701.708	0.0161479
701.787	0.0162622
701.865	0.0162437
701.943	0.0162473
702.021	0.0160751
702.099	0.0159580
702.177	0.0156641
702.255	0.0154510
702.333	0.0151885
702.412	0.0148475
702.490	0.0145772
702.568	0.0144936
702.646	0.0139408
702.724	0.0135809
702.802	0.0132733
702.880	0.0129333
702.958	0.0125438
703.037	0.0121485
703.115	0.0117259
703.193	0.0115365
703.271	0.0111677
703.349	0.0109607
703.427	0.0107967
703.505	0.0106628
703.583	0.0107176
703.662	0.0108629
703.740	0.0109828
703.818	0.0115482
703.896	0.0120184
703.974	0.0126647
704.052	0.0132062
704.130	0.0141325
704.208	0.0147267
704.287	0.0154145
704.365	0.0161300
704.443	0.0168560
704.521	0.0170811
704.599	0.0175029
704.677	0.0179560
704.755	0.0180347
704.833	0.0179787
704.912	0.0178963
704.990	0.0175610
705.068	0.0172944
705.146	0.0171434
705.224	0.0167606
705.302	0.0163393
705.380	0.0161099
705.458	0.0157195
705.537	0.0154491
705.615	0.0151148
705.693	0.0148280
705.771	0.0147679
705.849	0.0144256
705.927	0.0144218
706.005	0.0141320
706.083	0.0140635
706.162	0.0140302
706.240	0.0141832
706.318	0.0142221
706.396	0.0142819
706.474	0.0142028
706.552	0.0143794
706.630	0.0143102
706.708	0.0142161
706.787	0.0140998
706.865	0.0140501
706.943	0.0140159
707.021	0.0137514
707.099	0.0136646
707.177	0.0134446
707.255	0.0132897
707.333	0.0129302
707.412	0.0127370
707.490	0.0126224
707.568	0.0123972
707.646	0.0122729
707.724	0.0121101
707.802	0.0121316
707.880	0.0120671
707.958	0.0120923
708.037	0.0122044
708.115	0.0123001
708.193	0.0125098
708.271	0.0127267
708.349	0.0129514
708.427	0.0134516
708.505	0.0138065
708.583	0.0140112
708.662	0.0144183
708.740	0.0147684
708.818	0.0152145
708.896	0.0154555
708.974	0.0158388
709.052	0.0160701
709.130	0.0162639
709.208	0.0164252
709.287	0.0166290
709.365	0.0167138
709.443	0.0168940
709.521	0.0167062
709.599	0.0165263
709.677	0.0165253
709.755	0.0163206
709.833	0.0160733
709.912	0.0160355
709.990	0.0156362
710.068	0.0154546
710.146	0.0152133
710.224	0.0149205
710.302	0.0146358
710.380	0.0144868
710.458	0.0142798
710.537	0.0141151
710.615	0.0139708
710.693	0.0138247
710.771	0.0138029
710.849	0.0138266
710.927	0.0138548
711.005	0.0138208
711.083	0.0137511
711.162	0.0137871
711.240	0.0138393
711.318	0.0136865
711.396	0.0137505
711.474	0.0138195
711.552	0.0138012
711.630	0.0136612
711.708	0.0138866
711.787	0.0138399
711.865	0.0136736
711.943	0.0137339
712.021	0.0136245
712.099	0.0135883
712.177	0.0136246
712.255	0.0135265
712.333	0.0135962
712.412	0.0137145
712.490	0.0137843
712.568	0.0138196
712.646	0.0139633
712.724	0.0140187
712.802	0.0141940
712.880	0.0141589
712.958	0.0142674
713.037	0.0143655
713.115	0.0143864
713.193	0.0143350
713.271	0.0143911
713.349	0.0145415
713.427	0.0143080
713.505	0.0143019
713.583	0.0144598
713.662	0.0146191
713.740	0.0146622
713.818	0.0145045
713.896	0.0145714
713.974	0.0147160
714.052	0.0145732
714.130	0.0147685
714.208	0.0145782
714.287	0.0147552
714.365	0.0148321
714.443	0.0150109
714.521	0.0148587
714.599	0.0148229
714.677	0.0149625
714.755	0.0147717
714.833	0.0146027
714.912	0.0146104
714.990	0.0147085
715.068	0.0146693
715.146	0.0145465
715.224	0.0145629
715.302	0.0147346
715.380	0.0147218
715.458	0.0146625
715.537	0.0146492
715.615	0.0145849
715.693	0.0147227
715.771	0.0147235
715.849	0.0145258
715.927	0.0145376
716.005	0.0146487
716.083	0.0146609
716.162	0.0145414
716.240	0.0145477
716.318	0.0144682
716.396	0.0144051
716.474	0.0146102
716.552	0.0145948
716.630	0.0146055
716.708	0.0145937
716.787	0.0146700
716.865	0.0144907
716.943	0.0144846
717.021	0.0144998
717.099	0.0145802
717.177	0.0145132
717.255	0.0142461
717.333	0.0142934
717.412	0.0142898
717.490	0.0143329
717.568	0.0141895
717.646	0.0141403
717.724	0.0142542
717.802	0.0142065
717.880	0.0141427
717.958	0.0141883
718.037	0.0140353
718.115	0.0139816
718.193	0.0138976
718.271	0.0139616
718.349	0.0138011
718.427	0.0137312
718.505	0.0137481
718.583	0.0138512
718.662	0.0137165
718.740	0.0137509
718.818	0.0138604
718.896	0.0139175
718.974	0.0140553
719.052	0.0141039
719.130	0.0142562
719.208	0.0142752
719.287	0.0142381
719.365	0.0145101
719.443	0.0143282
719.521	0.0145175
719.599	0.0144627
719.677	0.0144574
719.755	0.0146793
719.833	0.0148399
719.912	0.0148312
719.990	0.0148217
720.068	0.0149608
720.146	0.0150679
720.224	0.0152089
720.302	0.0150607
720.380	0.0151993
720.458	0.0151881
720.537	0.0151688
720.615	0.0152991
720.693	0.0152232
720.771	0.0150465
720.849	0.0150909
720.927	0.0149957
721.005	0.0149143
721.083	0.0147717
721.162	0.0145270
721.240	0.0145708
721.318	0.0144382
721.396	0.0143490
721.474	0.0144247
721.552	0.0142777
721.630	0.0142921
721.708	0.0141442
721.787	0.0142646
721.865	0.0141476
721.943	0.0140804
722.021	0.0140678
722.099	0.0140597
722.177	0.0141196
722.255	0.0141217
722.333	0.0142530
722.412	0.0142382
722.490	0.0142669
722.568	0.0144024
722.646	0.0144311
722.724	0.0144596
722.802	0.0144069
722.880	0.0145356
722.958	0.0145383
723.037	0.0144450
723.115	0.0144738
723.193	0.0144617
723.271	0.0143220
723.349	0.0144712
723.427	0.0143710
723.505	0.0141965
723.583	0.0141464
723.662	0.0141437
723.740	0.0140672
723.818	0.0141356
723.896	0.0141351
723.974	0.0140134
724.052	0.0141282
724.130	0.0139927
724.208	0.0140902
724.287	0.0141503
724.365	0.0143462
724.443	0.0144471
724.521	0.0145811
724.599	0.0146023
724.677	0.0146570
724.755	0.0146993
724.833	0.0146949
724.912	0.0146019
724.990	0.0145272
725.068	0.0143750
725.146	0.0144254
725.224	0.0142471
725.302	0.0141940
725.380	0.0140739
725.458	0.0140390
725.537	0.0138889
725.615	0.0140936
725.693	0.0140501
725.771	0.0141015
725.849	0.0141335
725.927	0.0142362
726.005	0.0144164
726.083	0.0144145
726.162	0.0146346
726.240	0.0145187
726.318	0.0146468
726.396	0.0146809
726.474	0.0147993
726.552	0.0148207
726.630	0.0147581
726.708	0.0148044
726.787	0.0147788
726.865	0.0147620
726.943	0.0146877
727.021	0.0146808
727.099	0.0147324
727.177	0.0145741
727.255	0.0144513
727.333	0.0146651
727.412	0.0145052
727.490	0.0144332
727.568	0.0145119
727.646	0.0142799
727.724	0.0143314
727.802	0.0143423
727.880	0.0143039
727.958	0.0141605
728.037	0.0142008
728.115	0.0142433
728.193	0.0141470
728.271	0.0140923
728.349	0.0141918
728.427	0.0141428
728.505	0.0142242
728.583	0.0141971
728.662	0.0142251
728.740	0.0143755
728.818	0.0144700
728.896	0.0145408
728.974	0.0145425
729.052	0.0147258
729.130	0.0147796
729.208	0.0149625
729.287	0.0147906
729.365	0.0148573
729.443	0.0149297
729.521	0.0147929
729.599	0.0147601
729.677	0.0145665
729.755	0.0146210
729.833	0.0145671
729.912	0.0144991
729.990	0.0144820
730.068	0.0143331
730.146	0.0143051
730.224	0.0143118
730.302	0.0141302
730.380	0.0140736
730.458	0.0141258
730.537	0.0140587
730.615	0.0139105
730.693	0.0138433
730.771	0.0138009
730.849	0.0136533
730.927	0.0136320
731.005	0.0136401
731.083	0.0136528
731.162	0.0137121
731.240	0.0136253
731.318	0.0137684
731.396	0.0137110
731.474	0.0137696
731.552	0.0140630
731.630	0.0141939
731.708	0.0143308
731.787	0.0144309
731.865	0.0148177
731.943	0.0146909
732.021	0.0147860
732.099	0.0151260
732.177	0.0151434
732.255	0.0151626
732.333	0.0150796
732.412	0.0150750
732.490	0.0149516
732.568	0.0150912
732.646	0.0149410
732.724	0.0147856
732.802	0.0147271
732.880	0.0146970
732.958	0.0144966
733.037	0.0145189
733.115	0.0146339
733.193	0.0145532
733.271	0.0141919
733.349	0.0143337
733.427	0.0143588
733.505	0.0142892
733.583	0.0144776
733.662	0.0144343
733.740	0.0143327
733.818	0.0144840
733.896	0.0144901
733.974	0.0145186
734.052	0.0145192
734.130	0.0145015
734.208	0.0145097
734.287	0.0145586
734.365	0.0145005
734.443	0.0144655
734.521	0.0146252
734.599	0.0147002
734.677	0.0146819
734.755	0.0146882
734.833	0.0145295
734.912	0.0144051
734.990	0.0146452
735.068	0.0145485
735.146	0.0143645
735.224	0.0143363
735.302	0.0143372
735.380	0.0143167
735.458	0.0141273
735.537	0.0141079
735.615	0.0140241
