05/08/2022	19:43:25	Ver.	4.1	UNKNOWN
Optical Delay	649.989667	Delta X		0.078125	Sweeps	1	Scan Rate	0/0
Coordinates	Axis 1	NaN	Axis 2	NaN	Axis 3	NaN	Axis 4	NaN	Axis 5	NaN	Axis 6	0.000000
TX Power	0.000000	RX Power	0.000000

649.990	0.0142850
650.068	0.0143459
650.146	0.0142052
650.224	0.0143261
650.302	0.0143099
650.380	0.0142686
650.458	0.0142466
650.537	0.0142342
650.615	0.0144441
650.693	0.0142180
650.771	0.0142326
650.849	0.0143886
650.927	0.0143508
651.005	0.0143153
651.083	0.0143508
651.162	0.0141877
651.240	0.0143781
651.318	0.0142185
651.396	0.0144062
651.474	0.0142353
651.552	0.0142137
651.630	0.0143338
651.708	0.0142292
651.787	0.0143530
651.865	0.0143858
651.943	0.0143008
652.021	0.0144267
652.099	0.0143820
652.177	0.0144575
652.255	0.0143926
652.333	0.0142620
652.412	0.0143694
652.490	0.0141984
652.568	0.0142247
652.646	0.0143932
652.724	0.0142629
652.802	0.0143958
652.880	0.0143073
652.958	0.0142939
653.037	0.0143482
653.115	0.0142567
653.193	0.0142525
653.271	0.0142920
653.349	0.0141790
653.427	0.0141570
653.505	0.0144170
653.583	0.0142076
653.662	0.0142015
653.740	0.0143521
653.818	0.0142894
653.896	0.0142363
653.974	0.0143351
654.052	0.0143013
654.130	0.0143734
654.208	0.0143465
654.287	0.0142257
654.365	0.0142116
654.443	0.0142686
654.521	0.0143340
654.599	0.0142561
654.677	0.0143002
654.755	0.0142841
654.833	0.0141869
654.912	0.0140814
654.990	0.0142381
655.068	0.0143050
655.146	0.0143069
655.224	0.0143034
655.302	0.0142948
655.380	0.0144846
655.458	0.0142887
655.537	0.0142652
655.615	0.0143163
655.693	0.0142552
655.771	0.0142825
655.849	0.0142573
655.927	0.0143694
656.005	0.0143009
656.083	0.0142284
656.162	0.0144487
656.240	0.0141924
656.318	0.0141621
656.396	0.0143260
656.474	0.0143919
656.552	0.0142546
656.630	0.0143295
656.708	0.0144516
656.787	0.0143446
656.865	0.0143079
656.943	0.0142271
657.021	0.0142611
657.099	0.0143259
657.177	0.0143207
657.255	0.0142387
657.333	0.0143468
657.412	0.0143566
657.490	0.0142320
657.568	0.0143240
657.646	0.0144657
657.724	0.0143913
657.802	0.0142297
657.880	0.0143430
657.958	0.0143053
658.037	0.0141824
658.115	0.0143098
658.193	0.0143075
658.271	0.0141399
658.349	0.0142310
658.427	0.0143684
658.505	0.0142638
658.583	0.0142273
658.662	0.0142377
658.740	0.0143729
658.818	0.0142113
658.896	0.0143541
658.974	0.0143673
659.052	0.0143386
659.130	0.0141032
659.208	0.0140946
659.287	0.0143599
659.365	0.0142449
659.443	0.0143801
659.521	0.0143704
659.599	0.0143535
659.677	0.0142772
659.755	0.0143398
659.833	0.0143774
659.912	0.0142667
659.990	0.0144229
660.068	0.0142022
660.146	0.0142941
660.224	0.0141740
660.302	0.0142285
660.380	0.0143421
660.458	0.0142179
660.537	0.0143089
660.615	0.0143418
660.693	0.0143952
660.771	0.0143772
660.849	0.0142340
660.927	0.0142326
661.005	0.0143707
661.083	0.0143533
661.162	0.0142836
661.240	0.0143546
661.318	0.0142721
661.396	0.0142735
661.474	0.0142816
661.552	0.0143675
661.630	0.0141820
661.708	0.0142616
661.787	0.0143848
661.865	0.0143924
661.943	0.0143719
662.021	0.0142355
662.099	0.0142132
662.177	0.0142438
662.255	0.0142966
662.333	0.0142216
662.412	0.0143942
662.490	0.0144797
662.568	0.0143243
662.646	0.0144526
662.724	0.0144607
662.802	0.0142267
662.880	0.0143556
662.958	0.0142516
663.037	0.0143430
663.115	0.0144516
663.193	0.0141806
663.271	0.0142661
663.349	0.0144071
663.427	0.0144192
663.505	0.0142563
663.583	0.0142758
663.662	0.0143435
663.740	0.0142760
663.818	0.0143391
663.896	0.0143182
663.974	0.0143201
664.052	0.0142637
664.130	0.0143330
664.208	0.0143017
664.287	0.0143055
664.365	0.0142928
664.443	0.0144539
664.521	0.0143130
664.599	0.0142770
664.677	0.0143523
664.755	0.0143975
664.833	0.0143557
664.912	0.0143330
664.990	0.0144580
665.068	0.0142616
665.146	0.0144274
665.224	0.0143783
665.302	0.0142419
665.380	0.0143253
665.458	0.0145016
665.537	0.0143920
665.615	0.0143024
665.693	0.0143300
665.771	0.0144318
665.849	0.0142163
665.927	0.0141899
666.005	0.0144071
666.083	0.0143377
666.162	0.0143864
666.240	0.0142936
666.318	0.0142554
666.396	0.0143513
666.474	0.0143033
666.552	0.0143855
666.630	0.0144378
666.708	0.0144000
666.787	0.0142783
666.865	0.0144112
666.943	0.0142032
667.021	0.0142509
667.099	0.0143471
667.177	0.0142770
667.255	0.0142995
667.333	0.0143095
667.412	0.0143768
667.490	0.0142989
667.568	0.0143484
667.646	0.0143873
667.724	0.0142484
667.802	0.0142327
667.880	0.0143526
667.958	0.0143719
668.037	0.0144100
668.115	0.0144076
668.193	0.0142771
668.271	0.0142081
668.349	0.0143287
668.427	0.0142863
668.505	0.0142007
668.583	0.0142155
668.662	0.0144428
668.740	0.0142467
668.818	0.0142601
668.896	0.0142194
668.974	0.0142930
669.052	0.0142638
669.130	0.0141870
669.208	0.0143050
669.287	0.0142552
669.365	0.0142874
669.443	0.0142548
669.521	0.0141289
669.599	0.0141963
669.677	0.0143066
669.755	0.0141958
669.833	0.0142532
669.912	0.0142548
669.990	0.0143336
670.068	0.0142081
670.146	0.0142770
670.224	0.0141379
670.302	0.0142657
670.380	0.0141769
670.458	0.0143326
670.537	0.0142284
670.615	0.0141319
670.693	0.0142445
670.771	0.0143336
670.849	0.0142145
670.927	0.0142361
671.005	0.0142737
671.083	0.0143084
671.162	0.0142621
671.240	0.0142046
671.318	0.0142005
671.396	0.0142924
671.474	0.0142711
671.552	0.0142467
671.630	0.0141984
671.708	0.0142410
671.787	0.0141930
671.865	0.0141935
671.943	0.0141444
672.021	0.0142905
672.099	0.0142461
672.177	0.0141466
672.255	0.0141022
672.333	0.0142678
672.412	0.0142294
672.490	0.0143920
672.568	0.0142327
672.646	0.0141851
672.724	0.0142701
672.802	0.0142820
672.880	0.0142731
672.958	0.0141515
673.037	0.0143688
673.115	0.0142712
673.193	0.0141754
673.271	0.0142403
673.349	0.0141852
673.427	0.0142210
673.505	0.0141872
673.583	0.0141287
673.662	0.0142303
673.740	0.0141757
673.818	0.0141501
673.896	0.0141122
673.974	0.0141541
674.052	0.0141759
674.130	0.0143580
674.208	0.0143438
674.287	0.0141406
674.365	0.0142114
674.443	0.0142829
674.521	0.0141994
674.599	0.0141911
674.677	0.0143167
674.755	0.0141273
674.833	0.0141744
674.912	0.0141679
674.990	0.0142373
675.068	0.0143053
675.146	0.0142631
675.224	0.0142838
675.302	0.0142329
675.380	0.0142143
675.458	0.0142705
675.537	0.0143628
675.615	0.0143264
675.693	0.0142391
675.771	0.0144355
675.849	0.0144370
675.927	0.0142929
676.005	0.0141846
676.083	0.0142556
676.162	0.0143054
676.240	0.0142361
676.318	0.0142889
676.396	0.0142784
676.474	0.0143599
676.552	0.0142503
676.630	0.0143159
676.708	0.0142417
676.787	0.0142875
676.865	0.0142666
676.943	0.0143324
677.021	0.0143257
677.099	0.0143356
677.177	0.0144431
677.255	0.0142592
677.333	0.0142811
677.412	0.0143104
677.490	0.0143092
677.568	0.0142699
677.646	0.0142907
677.724	0.0141641
677.802	0.0141592
677.880	0.0140911
677.958	0.0142461
678.037	0.0144338
678.115	0.0143616
678.193	0.0144060
678.271	0.0145652
678.349	0.0146937
678.427	0.0145762
678.505	0.0144048
678.583	0.0145682
678.662	0.0142706
678.740	0.0141042
678.818	0.0139816
678.896	0.0138940
678.974	0.0136910
679.052	0.0136632
679.130	0.0139954
679.208	0.0139272
679.287	0.0140465
679.365	0.0141475
679.443	0.0143352
679.521	0.0143312
679.599	0.0146642
679.677	0.0146206
679.755	0.0146719
679.833	0.0148010
679.912	0.0149626
679.990	0.0148549
680.068	0.0150815
680.146	0.0151368
680.224	0.0151015
680.302	0.0149875
680.380	0.0150830
680.458	0.0146406
680.537	0.0142599
680.615	0.0139959
680.693	0.0135202
680.771	0.0133575
680.849	0.0128963
680.927	0.0126330
681.005	0.0123473
681.083	0.0124237
681.162	0.0126470
681.240	0.0129139
681.318	0.0132519
681.396	0.0136471
681.474	0.0142216
681.552	0.0147665
681.630	0.0152098
681.708	0.0154156
681.787	0.0157099
681.865	0.0158101
681.943	0.0158266
682.021	0.0156705
682.099	0.0153484
682.177	0.0153786
682.255	0.0152401
682.333	0.0152464
682.412	0.0153178
682.490	0.0150185
682.568	0.0151427
682.646	0.0152607
682.724	0.0151768
682.802	0.0150976
682.880	0.0148943
682.958	0.0146337
683.037	0.0144840
683.115	0.0141990
683.193	0.0138560
683.271	0.0132191
683.349	0.0127135
683.427	0.0122257
683.505	0.0116029
683.583	0.0110812
683.662	0.0107644
683.740	0.0103462
683.818	0.0103880
683.896	0.0106628
683.974	0.0111768
684.052	0.0118753
684.130	0.0129845
684.208	0.0138694
684.287	0.0151949
684.365	0.0162234
684.443	0.0172845
684.521	0.0180596
684.599	0.0185971
684.677	0.0188570
684.755	0.0189116
684.833	0.0187258
684.912	0.0185887
684.990	0.0181139
685.068	0.0176855
685.146	0.0171178
685.224	0.0167117
685.302	0.0162101
685.380	0.0156868
685.458	0.0151824
685.537	0.0146310
685.615	0.0139606
685.693	0.0135078
685.771	0.0126923
685.849	0.0119016
685.927	0.0111937
686.005	0.0105110
686.083	0.00962997
686.162	0.00903709
686.240	0.00846481
686.318	0.00819450
686.396	0.00798210
686.474	0.00825577
686.552	0.00884018
686.630	0.00959274
686.708	0.0104819
686.787	0.0118917
686.865	0.0131458
686.943	0.0146277
687.021	0.0158747
687.099	0.0170965
687.177	0.0180500
687.255	0.0187500
687.333	0.0192760
687.412	0.0196017
687.490	0.0196551
687.568	0.0196725
687.646	0.0196722
687.724	0.0197115
687.802	0.0194160
687.880	0.0193275
687.958	0.0192472
688.037	0.0189964
688.115	0.0187473
688.193	0.0180733
688.271	0.0175790
688.349	0.0169163
688.427	0.0160719
688.505	0.0149886
688.583	0.0135401
688.662	0.0123740
688.740	0.0111716
688.818	0.00970299
688.896	0.00831551
688.974	0.00713463
689.052	0.00637894
689.130	0.00566910
689.208	0.00526825
689.287	0.00536636
689.365	0.00572426
689.443	0.00635818
689.521	0.00737457
689.599	0.00885277
689.677	0.0102985
689.755	0.0118395
689.833	0.0134563
689.912	0.0152183
689.990	0.0168516
690.068	0.0181268
690.146	0.0193358
690.224	0.0201839
690.302	0.0208926
690.380	0.0213501
690.458	0.0214643
690.537	0.0215733
690.615	0.0213860
690.693	0.0208503
690.771	0.0203289
690.849	0.0196281
690.927	0.0186757
691.005	0.0178545
691.083	0.0171281
691.162	0.0161272
691.240	0.0152940
691.318	0.0144296
691.396	0.0136340
691.474	0.0128309
691.552	0.0122228
691.630	0.0116177
691.708	0.0111820
691.787	0.0107196
691.865	0.0105545
691.943	0.0101664
692.021	0.0101623
692.099	0.0100153
692.177	0.0101261
692.255	0.0102528
692.333	0.0102945
692.412	0.0106031
692.490	0.0111740
692.568	0.0115420
692.646	0.0120670
692.724	0.0128451
692.802	0.0135079
692.880	0.0140997
692.958	0.0148467
693.037	0.0154108
693.115	0.0160400
693.193	0.0166895
693.271	0.0171690
693.349	0.0174407
693.427	0.0178471
693.505	0.0178226
693.583	0.0177612
693.662	0.0175052
693.740	0.0173377
693.818	0.0167902
693.896	0.0162023
693.974	0.0157996
694.052	0.0152523
694.130	0.0147321
694.208	0.0142281
694.287	0.0136971
694.365	0.0133486
694.443	0.0130569
694.521	0.0126488
694.599	0.0126003
694.677	0.0125739
694.755	0.0121993
694.833	0.0121945
694.912	0.0124141
694.990	0.0124966
695.068	0.0127570
695.146	0.0128238
695.224	0.0132183
695.302	0.0134486
695.380	0.0137050
695.458	0.0140732
695.537	0.0142805
695.615	0.0146167
695.693	0.0148429
695.771	0.0150092
695.849	0.0151257
695.927	0.0154612
696.005	0.0153899
696.083	0.0154236
696.162	0.0155869
696.240	0.0155094
696.318	0.0156225
696.396	0.0156427
696.474	0.0156401
696.552	0.0154709
696.630	0.0156765
696.708	0.0156004
696.787	0.0153898
696.865	0.0154421
696.943	0.0154066
697.021	0.0151882
697.099	0.0149930
697.177	0.0145983
697.255	0.0143095
697.333	0.0139770
697.412	0.0136158
697.490	0.0132142
697.568	0.0127530
697.646	0.0123610
697.724	0.0120033
697.802	0.0117033
697.880	0.0116186
697.958	0.0114964
698.037	0.0115767
698.115	0.0118106
698.193	0.0120286
698.271	0.0122505
698.349	0.0124662
698.427	0.0131805
698.505	0.0135650
698.583	0.0139769
698.662	0.0144732
698.740	0.0148914
698.818	0.0151386
698.896	0.0153555
698.974	0.0156665
699.052	0.0157016
699.130	0.0160520
699.208	0.0161845
699.287	0.0161282
699.365	0.0162886
699.443	0.0160738
699.521	0.0159686
699.599	0.0157594
699.677	0.0155909
699.755	0.0150402
699.833	0.0148185
699.912	0.0142258
699.990	0.0139865
700.068	0.0137896
700.146	0.0134322
700.224	0.0132986
700.302	0.0130283
700.380	0.0129617
700.458	0.0131493
700.537	0.0132207
700.615	0.0134966
700.693	0.0137275
700.771	0.0142336
700.849	0.0147125
700.927	0.0149586
701.005	0.0153278
701.083	0.0158131
701.162	0.0162096
701.240	0.0162302
701.318	0.0163048
701.396	0.0164018
701.474	0.0163065
701.552	0.0163075
701.630	0.0160189
701.708	0.0156966
701.787	0.0154507
701.865	0.0151065
701.943	0.0147077
702.021	0.0142788
702.099	0.0139083
702.177	0.0135547
702.255	0.0131121
702.333	0.0126567
702.412	0.0124067
702.490	0.0118560
702.568	0.0117262
702.646	0.0113201
702.724	0.0109461
702.802	0.0108430
702.880	0.0106963
702.958	0.0105473
703.037	0.0105249
703.115	0.0108777
703.193	0.0110040
703.271	0.0113673
703.349	0.0118143
703.427	0.0125378
703.505	0.0131516
703.583	0.0137309
703.662	0.0145470
703.740	0.0152052
703.818	0.0160045
703.896	0.0165829
703.974	0.0169824
704.052	0.0173713
704.130	0.0176621
704.208	0.0178300
704.287	0.0178457
704.365	0.0177741
704.443	0.0175757
704.521	0.0172761
704.599	0.0170479
704.677	0.0168804
704.755	0.0165285
704.833	0.0160643
704.912	0.0157247
704.990	0.0155511
705.068	0.0152640
705.146	0.0148730
705.224	0.0147269
705.302	0.0146896
705.380	0.0144051
705.458	0.0143033
705.537	0.0142609
705.615	0.0142797
705.693	0.0142758
705.771	0.0142196
705.849	0.0139884
705.927	0.0139240
706.005	0.0138725
706.083	0.0137136
706.162	0.0135464
706.240	0.0133487
706.318	0.0131883
706.396	0.0129661
706.474	0.0129730
706.552	0.0129357
706.630	0.0128173
706.708	0.0128464
706.787	0.0126644
706.865	0.0124447
706.943	0.0122843
707.021	0.0122051
707.099	0.0121788
707.177	0.0119804
707.255	0.0118067
707.333	0.0119537
707.412	0.0118412
707.490	0.0119362
707.568	0.0121282
707.646	0.0122653
707.724	0.0127132
707.802	0.0129410
707.880	0.0131762
707.958	0.0135900
708.037	0.0140298
708.115	0.0144325
708.193	0.0149413
708.271	0.0153523
708.349	0.0156487
708.427	0.0157594
708.505	0.0161244
708.583	0.0162897
708.662	0.0165113
708.740	0.0167627
708.818	0.0168098
708.896	0.0167666
708.974	0.0169160
709.052	0.0170138
709.130	0.0168609
709.208	0.0166326
709.287	0.0164842
709.365	0.0162958
709.443	0.0160984
709.521	0.0159243
709.599	0.0156483
709.677	0.0152200
709.755	0.0149674
709.833	0.0146973
709.912	0.0145168
709.990	0.0141246
710.068	0.0138789
710.146	0.0135612
710.224	0.0134954
710.302	0.0133104
710.380	0.0132651
710.458	0.0131754
710.537	0.0131591
710.615	0.0130508
710.693	0.0129237
710.771	0.0129285
710.849	0.0129313
710.927	0.0130010
711.005	0.0129105
711.083	0.0131398
711.162	0.0131155
711.240	0.0130560
711.318	0.0131537
711.396	0.0132301
711.474	0.0132798
711.552	0.0133630
711.630	0.0135766
711.708	0.0133437
711.787	0.0135207
711.865	0.0136246
711.943	0.0137476
712.021	0.0138285
712.099	0.0139355
712.177	0.0141967
712.255	0.0142543
712.333	0.0142311
712.412	0.0142328
712.490	0.0144441
712.568	0.0146377
712.646	0.0146822
712.724	0.0146799
712.802	0.0145944
712.880	0.0148434
712.958	0.0149531
713.037	0.0145913
713.115	0.0148577
713.193	0.0148500
713.271	0.0147613
713.349	0.0147501
713.427	0.0147555
713.505	0.0148371
713.583	0.0146869
713.662	0.0147802
713.740	0.0147195
713.818	0.0147028
713.896	0.0147057
713.974	0.0148577
714.052	0.0146200
714.130	0.0147209
714.208	0.0145554
714.287	0.0146334
714.365	0.0146308
714.443	0.0146239
714.521	0.0146948
714.599	0.0146154
714.677	0.0145608
714.755	0.0145538
714.833	0.0146763
714.912	0.0146972
714.990	0.0144437
715.068	0.0144221
715.146	0.0145909
715.224	0.0143315
715.302	0.0142135
715.380	0.0142853
715.458	0.0143063
715.537	0.0143215
715.615	0.0142995
715.693	0.0143545
715.771	0.0143761
715.849	0.0144108
715.927	0.0144308
716.005	0.0145522
716.083	0.0144942
716.162	0.0144923
716.240	0.0143904
716.318	0.0143492
716.396	0.0143893
716.474	0.0143761
716.552	0.0143549
716.630	0.0144518
716.708	0.0141923
716.787	0.0143383
716.865	0.0143240
716.943	0.0142532
717.021	0.0143716
717.099	0.0142726
717.177	0.0141032
717.255	0.0139698
717.333	0.0139755
717.412	0.0139292
717.490	0.0137353
717.568	0.0135124
717.646	0.0136559
717.724	0.0136118
717.802	0.0134126
717.880	0.0135218
717.958	0.0136094
718.037	0.0135291
718.115	0.0136172
718.193	0.0138291
718.271	0.0136901
718.349	0.0138725
718.427	0.0139699
718.505	0.0140737
718.583	0.0141507
718.662	0.0143347
718.740	0.0142802
718.818	0.0143885
718.896	0.0143990
718.974	0.0144373
719.052	0.0144675
719.130	0.0144619
719.208	0.0146464
719.287	0.0148370
719.365	0.0149003
719.443	0.0150358
719.521	0.0149251
719.599	0.0151612
719.677	0.0151443
719.755	0.0149883
719.833	0.0151558
719.912	0.0151122
719.990	0.0151146
720.068	0.0150050
720.146	0.0149832
720.224	0.0148559
720.302	0.0149188
720.380	0.0147173
720.458	0.0147928
720.537	0.0147050
720.615	0.0145016
720.693	0.0145030
720.771	0.0143976
720.849	0.0143844
720.927	0.0143064
721.005	0.0142738
721.083	0.0141207
721.162	0.0141573
721.240	0.0141217
721.318	0.0141949
721.396	0.0142407
721.474	0.0142410
721.552	0.0142198
721.630	0.0141956
721.708	0.0142236
721.787	0.0142197
721.865	0.0142317
721.943	0.0143698
722.021	0.0141737
722.099	0.0141488
722.177	0.0143022
722.255	0.0142657
722.333	0.0141613
722.412	0.0141288
722.490	0.0142428
722.568	0.0141130
722.646	0.0141185
722.724	0.0139736
722.802	0.0141081
722.880	0.0140376
722.958	0.0139581
723.037	0.0138721
723.115	0.0138694
723.193	0.0136563
723.271	0.0137083
723.349	0.0138669
723.427	0.0138829
723.505	0.0138087
723.583	0.0139029
723.662	0.0141941
723.740	0.0141557
723.818	0.0141907
723.896	0.0143770
723.974	0.0144070
724.052	0.0145835
724.130	0.0144863
724.208	0.0146697
724.287	0.0145402
724.365	0.0144622
724.443	0.0146838
724.521	0.0144160
724.599	0.0145449
724.677	0.0143723
724.755	0.0143533
724.833	0.0142380
724.912	0.0143716
724.990	0.0143255
725.068	0.0142363
725.146	0.0143931
725.224	0.0143608
725.302	0.0144293
725.380	0.0144909
725.458	0.0145274
725.537	0.0145569
725.615	0.0146449
725.693	0.0146105
725.771	0.0147887
725.849	0.0145755
725.927	0.0146631
726.005	0.0148453
726.083	0.0145992
726.162	0.0146043
726.240	0.0145524
726.318	0.0146613
726.396	0.0146334
726.474	0.0146389
726.552	0.0146493
726.630	0.0146626
726.708	0.0145567
726.787	0.0143862
726.865	0.0143217
726.943	0.0143702
727.021	0.0143472
727.099	0.0142255
727.177	0.0141335
727.255	0.0140353
727.333	0.0140469
727.412	0.0140559
727.490	0.0139464
727.568	0.0138976
727.646	0.0137946
727.724	0.0137280
727.802	0.0138663
727.880	0.0139080
727.958	0.0141015
728.037	0.0143082
728.115	0.0142354
728.193	0.0141582
728.271	0.0143596
728.349	0.0143933
728.427	0.0144925
728.505	0.0144638
728.583	0.0144979
728.662	0.0145682
728.740	0.0146758
728.818	0.0144402
728.896	0.0145545
728.974	0.0146790
729.052	0.0146282
729.130	0.0146936
729.208	0.0145908
729.287	0.0145896
729.365	0.0145602
729.443	0.0146375
729.521	0.0143812
729.599	0.0143034
729.677	0.0142288
729.755	0.0141179
729.833	0.0141267
729.912	0.0139187
729.990	0.0139935
730.068	0.0136426
730.146	0.0134605
730.224	0.0135848
730.302	0.0136622
730.380	0.0134821
730.458	0.0135390
730.537	0.0134843
730.615	0.0134929
730.693	0.0133913
730.771	0.0135503
730.849	0.0136721
730.927	0.0138512
731.005	0.0138221
731.083	0.0141759
731.162	0.0142835
731.240	0.0146198
731.318	0.0146635
731.396	0.0147519
731.474	0.0149237
731.552	0.0150532
731.630	0.0150656
731.708	0.0151521
731.787	0.0152823
731.865	0.0151048
731.943	0.0149637
732.021	0.0148983
732.099	0.0148072
732.177	0.0146863
732.255	0.0144454
732.333	0.0145025
732.412	0.0145575
732.490	0.0141994
732.568	0.0141851
732.646	0.0141669
732.724	0.0141764
732.802	0.0140327
732.880	0.0140421
732.958	0.0138573
733.037	0.0139526
733.115	0.0139510
733.193	0.0139004
733.271	0.0140069
733.349	0.0140889
733.427	0.0139508
733.505	0.0140446
733.583	0.0141754
733.662	0.0142123
733.740	0.0142606
733.818	0.0143448
733.896	0.0142742
733.974	0.0144384
734.052	0.0145942
734.130	0.0146657
734.208	0.0146225
734.287	0.0146518
734.365	0.0147681
734.443	0.0147411
734.521	0.0146329
734.599	0.0144635
734.677	0.0143225
734.755	0.0142484
734.833	0.0140877
734.912	0.0140961
734.990	0.0139073
735.068	0.0137260
735.146	0.0137671
735.224	0.0136643
735.302	0.0135522
735.380	0.0136489
735.458	0.0136288
735.537	0.0136161
735.615	0.0136434
