05/08/2022	19:46:25	Ver.	4.1	UNKNOWN
Optical Delay	649.989667	Delta X		0.078125	Sweeps	1	Scan Rate	0/0
Coordinates	Axis 1	NaN	Axis 2	NaN	Axis 3	NaN	Axis 4	NaN	Axis 5	NaN	Axis 6	0.000000
TX Power	0.000000	RX Power	0.000000

649.990	0.0142850
650.068	0.0142249
650.146	0.0142753
650.224	0.0142948
650.302	0.0142984
650.380	0.0142383
650.458	0.0142489
650.537	0.0143198
650.615	0.0143208
650.693	0.0142781
650.771	0.0143116
650.849	0.0142451
650.927	0.0143053
651.005	0.0142674
651.083	0.0143055
651.162	0.0143127
651.240	0.0143751
651.318	0.0142297
651.396	0.0142208
651.474	0.0144077
651.552	0.0143507
651.630	0.0141812
651.708	0.0143331
651.787	0.0142154
651.865	0.0142415
651.943	0.0142207
652.021	0.0143958
652.099	0.0143263
652.177	0.0142916
652.255	0.0141033
652.333	0.0142070
652.412	0.0143044
652.490	0.0141357
652.568	0.0143536
652.646	0.0142502
652.724	0.0142694
652.802	0.0143642
652.880	0.0143495
652.958	0.0142781
653.037	0.0143488
653.115	0.0142216
653.193	0.0143000
653.271	0.0143726
653.349	0.0142982
653.427	0.0142693
653.505	0.0141476
653.583	0.0143200
653.662	0.0145116
653.740	0.0142687
653.818	0.0141298
653.896	0.0143984
653.974	0.0142381
654.052	0.0143066
654.130	0.0142175
654.208	0.0143157
654.287	0.0144338
654.365	0.0142538
654.443	0.0142152
654.521	0.0143075
654.599	0.0142622
654.677	0.0142941
654.755	0.0142101
654.833	0.0141019
654.912	0.0143179
654.990	0.0141833
655.068	0.0142381
655.146	0.0143320
655.224	0.0142609
655.302	0.0142474
655.380	0.0143006
655.458	0.0143620
655.537	0.0142198
655.615	0.0142972
655.693	0.0144119
655.771	0.0142676
655.849	0.0143750
655.927	0.0142628
656.005	0.0143333
656.083	0.0142901
656.162	0.0143012
656.240	0.0141354
656.318	0.0143635
656.396	0.0143424
656.474	0.0143112
656.552	0.0142014
656.630	0.0142100
656.708	0.0142725
656.787	0.0142265
656.865	0.0143659
656.943	0.0141354
657.021	0.0143062
657.099	0.0141938
657.177	0.0142850
657.255	0.0143012
657.333	0.0142905
657.412	0.0142996
657.490	0.0143043
657.568	0.0142563
657.646	0.0143307
657.724	0.0143739
657.802	0.0141454
657.880	0.0143426
657.958	0.0143140
658.037	0.0142826
658.115	0.0143732
658.193	0.0143350
658.271	0.0142581
658.349	0.0142920
658.427	0.0142253
658.505	0.0143229
658.583	0.0143279
658.662	0.0142690
658.740	0.0142397
658.818	0.0142671
658.896	0.0143953
658.974	0.0143846
659.052	0.0143392
659.130	0.0141985
659.208	0.0143241
659.287	0.0142931
659.365	0.0143038
659.443	0.0141639
659.521	0.0142836
659.599	0.0143680
659.677	0.0142172
659.755	0.0142810
659.833	0.0143223
659.912	0.0144348
659.990	0.0143986
660.068	0.0144596
660.146	0.0141676
660.224	0.0143488
660.302	0.0144057
660.380	0.0142816
660.458	0.0142419
660.537	0.0143834
660.615	0.0142445
660.693	0.0142641
660.771	0.0143086
660.849	0.0141760
660.927	0.0142626
661.005	0.0143008
661.083	0.0142843
661.162	0.0143467
661.240	0.0143040
661.318	0.0143181
661.396	0.0143363
661.474	0.0142764
661.552	0.0142893
661.630	0.0142313
661.708	0.0141808
661.787	0.0143472
661.865	0.0143281
661.943	0.0142242
662.021	0.0141158
662.099	0.0141647
662.177	0.0143465
662.255	0.0142392
662.333	0.0142657
662.412	0.0142207
662.490	0.0144540
662.568	0.0142590
662.646	0.0141382
662.724	0.0143022
662.802	0.0142313
662.880	0.0142672
662.958	0.0143503
663.037	0.0144241
663.115	0.0144576
663.193	0.0142408
663.271	0.0142790
663.349	0.0142938
663.427	0.0143743
663.505	0.0143143
663.583	0.0143407
663.662	0.0142673
663.740	0.0141865
663.818	0.0142042
663.896	0.0143030
663.974	0.0143981
664.052	0.0142727
664.130	0.0143598
664.208	0.0143024
664.287	0.0143079
664.365	0.0142758
664.443	0.0142223
664.521	0.0141570
664.599	0.0143871
664.677	0.0143108
664.755	0.0143387
664.833	0.0142307
664.912	0.0140522
664.990	0.0143644
665.068	0.0143259
665.146	0.0143213
665.224	0.0142926
665.302	0.0142053
665.380	0.0142417
665.458	0.0142949
665.537	0.0142525
665.615	0.0142278
665.693	0.0141556
665.771	0.0142416
665.849	0.0142761
665.927	0.0142564
666.005	0.0142410
666.083	0.0143021
666.162	0.0142615
666.240	0.0142873
666.318	0.0142348
666.396	0.0142131
666.474	0.0141979
666.552	0.0142962
666.630	0.0143021
666.708	0.0143102
666.787	0.0143564
666.865	0.0144775
666.943	0.0142682
667.021	0.0142201
667.099	0.0141802
667.177	0.0143948
667.255	0.0144053
667.333	0.0142553
667.412	0.0142036
667.490	0.0142870
667.568	0.0142574
667.646	0.0142865
667.724	0.0142995
667.802	0.0142857
667.880	0.0143150
667.958	0.0141670
668.037	0.0142873
668.115	0.0143017
668.193	0.0142056
668.271	0.0142310
668.349	0.0142107
668.427	0.0142581
668.505	0.0142198
668.583	0.0142873
668.662	0.0142495
668.740	0.0142501
668.818	0.0142572
668.896	0.0142989
668.974	0.0143142
669.052	0.0142513
669.130	0.0142493
669.208	0.0142701
669.287	0.0141914
669.365	0.0142323
669.443	0.0143481
669.521	0.0142390
669.599	0.0142653
669.677	0.0143324
669.755	0.0141905
669.833	0.0141885
669.912	0.0142377
669.990	0.0143379
670.068	0.0142068
670.146	0.0140732
670.224	0.0143311
670.302	0.0144497
670.380	0.0143116
670.458	0.0142581
670.537	0.0143433
670.615	0.0142356
670.693	0.0143672
670.771	0.0143318
670.849	0.0142930
670.927	0.0143687
671.005	0.0142175
671.083	0.0143244
671.162	0.0141818
671.240	0.0142188
671.318	0.0143723
671.396	0.0142341
671.474	0.0141930
671.552	0.0142267
671.630	0.0141967
671.708	0.0143200
671.787	0.0143934
671.865	0.0142058
671.943	0.0143986
672.021	0.0143712
672.099	0.0143105
672.177	0.0142913
672.255	0.0142624
672.333	0.0142780
672.412	0.0142663
672.490	0.0142130
672.568	0.0141930
672.646	0.0143079
672.724	0.0144874
672.802	0.0144048
672.880	0.0143407
672.958	0.0144659
673.037	0.0143568
673.115	0.0143572
673.193	0.0143047
673.271	0.0143601
673.349	0.0142027
673.427	0.0141521
673.505	0.0141243
673.583	0.0140073
673.662	0.0140736
673.740	0.0140221
673.818	0.0139544
673.896	0.0139463
673.974	0.0140543
674.052	0.0139474
674.130	0.0140630
674.208	0.0142682
674.287	0.0144820
674.365	0.0145708
674.443	0.0148578
674.521	0.0147881
674.599	0.0150444
674.677	0.0152299
674.755	0.0152267
674.833	0.0151767
674.912	0.0151900
674.990	0.0150077
675.068	0.0147306
675.146	0.0144467
675.224	0.0141366
675.302	0.0137319
675.380	0.0135242
675.458	0.0132888
675.537	0.0132014
675.615	0.0129362
675.693	0.0129398
675.771	0.0128294
675.849	0.0131063
675.927	0.0134749
676.005	0.0135200
676.083	0.0139018
676.162	0.0142643
676.240	0.0145309
676.318	0.0150240
676.396	0.0152200
676.474	0.0154938
676.552	0.0155952
676.630	0.0155286
676.708	0.0153584
676.787	0.0154478
676.865	0.0152119
676.943	0.0150679
677.021	0.0150165
677.099	0.0147652
677.177	0.0145642
677.255	0.0145181
677.333	0.0143829
677.412	0.0141283
677.490	0.0141424
677.568	0.0140514
677.646	0.0140569
677.724	0.0139402
677.802	0.0139889
677.880	0.0137353
677.958	0.0135844
678.037	0.0135061
678.115	0.0134138
678.193	0.0133836
678.271	0.0131503
678.349	0.0128197
678.427	0.0127794
678.505	0.0127367
678.583	0.0127610
678.662	0.0127866
678.740	0.0130692
678.818	0.0134560
678.896	0.0138046
678.974	0.0143062
679.052	0.0149526
679.130	0.0153510
679.208	0.0156504
679.287	0.0163085
679.365	0.0164605
679.443	0.0164274
679.521	0.0163533
679.599	0.0162631
679.677	0.0160899
679.755	0.0158061
679.833	0.0155973
679.912	0.0152964
679.990	0.0148514
680.068	0.0148840
680.146	0.0146844
680.224	0.0146645
680.302	0.0146873
680.380	0.0146555
680.458	0.0144830
680.537	0.0143884
680.615	0.0143160
680.693	0.0140052
680.771	0.0137025
680.849	0.0133770
680.927	0.0131204
681.005	0.0126297
681.083	0.0122285
681.162	0.0121003
681.240	0.0117237
681.318	0.0115052
681.396	0.0113034
681.474	0.0113181
681.552	0.0114724
681.630	0.0114189
681.708	0.0117762
681.787	0.0120409
681.865	0.0122675
681.943	0.0127522
682.021	0.0131782
682.099	0.0138829
682.177	0.0145721
682.255	0.0153071
682.333	0.0160873
682.412	0.0168630
682.490	0.0174747
682.568	0.0180687
682.646	0.0184035
682.724	0.0184525
682.802	0.0186263
682.880	0.0186258
682.958	0.0183353
683.037	0.0181288
683.115	0.0178203
683.193	0.0174495
683.271	0.0169951
683.349	0.0163905
683.427	0.0159109
683.505	0.0153569
683.583	0.0146933
683.662	0.0141631
683.740	0.0136097
683.818	0.0128283
683.896	0.0122419
683.974	0.0116839
684.052	0.0111050
684.130	0.0107011
684.208	0.0102679
684.287	0.0101767
684.365	0.00985397
684.443	0.00994225
684.521	0.0100665
684.599	0.0103790
684.677	0.0107574
684.755	0.0113030
684.833	0.0118624
684.912	0.0125037
684.990	0.0130206
685.068	0.0135899
685.146	0.0138834
685.224	0.0142691
685.302	0.0145621
685.380	0.0149194
685.458	0.0148539
685.537	0.0149477
685.615	0.0149942
685.693	0.0151212
685.771	0.0150757
685.849	0.0152337
685.927	0.0154865
686.005	0.0157452
686.083	0.0161667
686.162	0.0166944
686.240	0.0171582
686.318	0.0174902
686.396	0.0180017
686.474	0.0182989
686.552	0.0185224
686.630	0.0186752
686.708	0.0187370
686.787	0.0187402
686.865	0.0184661
686.943	0.0182493
687.021	0.0176971
687.099	0.0171017
687.177	0.0163426
687.255	0.0156024
687.333	0.0148431
687.412	0.0138658
687.490	0.0132077
687.568	0.0124274
687.646	0.0116245
687.724	0.0110581
687.802	0.0105714
687.880	0.0102783
687.958	0.00972694
688.037	0.00942886
688.115	0.00909241
688.193	0.00896233
688.271	0.00883331
688.349	0.00886185
688.427	0.00927536
688.505	0.00965607
688.583	0.0104139
688.662	0.0112160
688.740	0.0120800
688.818	0.0130079
688.896	0.0140244
688.974	0.0147770
689.052	0.0154941
689.130	0.0159417
689.208	0.0163102
689.287	0.0164986
689.365	0.0165125
689.443	0.0163577
689.521	0.0162429
689.599	0.0157208
689.677	0.0153144
689.755	0.0148288
689.833	0.0144096
689.912	0.0140050
689.990	0.0137918
690.068	0.0138277
690.146	0.0140491
690.224	0.0145677
690.302	0.0150776
690.380	0.0156508
690.458	0.0164386
690.537	0.0171375
690.615	0.0177974
690.693	0.0186604
690.771	0.0190786
690.849	0.0194259
690.927	0.0197968
691.005	0.0200869
691.083	0.0201603
691.162	0.0198232
691.240	0.0194815
691.318	0.0188909
691.396	0.0181526
691.474	0.0172427
691.552	0.0162222
691.630	0.0152736
691.708	0.0141593
691.787	0.0131420
691.865	0.0122874
691.943	0.0111717
692.021	0.0101878
692.099	0.00922546
692.177	0.00830528
692.255	0.00765564
692.333	0.00704613
692.412	0.00634781
692.490	0.00600548
692.568	0.00580498
692.646	0.00577034
692.724	0.00609558
692.802	0.00636009
692.880	0.00703384
692.958	0.00778015
693.037	0.00871635
693.115	0.00972656
693.193	0.0110940
693.271	0.0122861
693.349	0.0134315
693.427	0.0144975
693.505	0.0154685
693.583	0.0163803
693.662	0.0169893
693.740	0.0175870
693.818	0.0180224
693.896	0.0184367
693.974	0.0185401
694.052	0.0190588
694.130	0.0193474
694.208	0.0198177
694.287	0.0202144
694.365	0.0206481
694.443	0.0213370
694.521	0.0217619
694.599	0.0219566
694.677	0.0222085
694.755	0.0222346
694.833	0.0220750
694.912	0.0216585
694.990	0.0210752
695.068	0.0203673
695.146	0.0193343
695.224	0.0182305
695.302	0.0170992
695.380	0.0156329
695.458	0.0140877
695.537	0.0127556
695.615	0.0115557
695.693	0.0103166
695.771	0.00939606
695.849	0.00861275
695.927	0.00812325
696.005	0.00777405
696.083	0.00730766
696.162	0.00726288
696.240	0.00720848
696.318	0.00713432
696.396	0.00729012
696.474	0.00749886
696.552	0.00764023
696.630	0.00799614
696.708	0.00868370
696.787	0.00934830
696.865	0.00992355
696.943	0.0106027
697.021	0.0113114
697.099	0.0121049
697.177	0.0128694
697.255	0.0134934
697.333	0.0140491
697.412	0.0145936
697.490	0.0149886
697.568	0.0152142
697.646	0.0154334
697.724	0.0154522
697.802	0.0153056
697.880	0.0152256
697.958	0.0153079
698.037	0.0155528
698.115	0.0157622
698.193	0.0161257
698.271	0.0167306
698.349	0.0175504
698.427	0.0185251
698.505	0.0191216
698.583	0.0199025
698.662	0.0206548
698.740	0.0212083
698.818	0.0214199
698.896	0.0214841
698.974	0.0213046
699.052	0.0207732
699.130	0.0201591
699.208	0.0194922
699.287	0.0186926
699.365	0.0176069
699.443	0.0165404
699.521	0.0155682
699.599	0.0145234
699.677	0.0135134
699.755	0.0127835
699.833	0.0123910
699.912	0.0120003
699.990	0.0114878
700.068	0.0112077
700.146	0.0109489
700.224	0.0107495
700.302	0.0104304
700.380	0.0101627
700.458	0.0101593
700.537	0.00985733
700.615	0.00964912
700.693	0.00938805
700.771	0.00938011
700.849	0.00946480
700.927	0.00960869
701.005	0.00957031
701.083	0.00978806
701.162	0.0101336
701.240	0.0106256
701.318	0.0110899
701.396	0.0115970
701.474	0.0121290
701.552	0.0127549
701.630	0.0134990
701.708	0.0139266
701.787	0.0144618
701.865	0.0150146
701.943	0.0156855
702.021	0.0159844
702.099	0.0163555
702.177	0.0165080
702.255	0.0169905
702.333	0.0171272
702.412	0.0172587
702.490	0.0174813
702.568	0.0176099
702.646	0.0176955
702.724	0.0177499
702.802	0.0176728
702.880	0.0176075
702.958	0.0172462
703.037	0.0171338
703.115	0.0169975
703.193	0.0165022
703.271	0.0161976
703.349	0.0157380
703.427	0.0153252
703.505	0.0152109
703.583	0.0150494
703.662	0.0146941
703.740	0.0146967
703.818	0.0144895
703.896	0.0144062
703.974	0.0142661
704.052	0.0142141
704.130	0.0141139
704.208	0.0141623
704.287	0.0139901
704.365	0.0138274
704.443	0.0137409
704.521	0.0135108
704.599	0.0133624
704.677	0.0132080
704.755	0.0129054
704.833	0.0127481
704.912	0.0125622
704.990	0.0124451
705.068	0.0123500
705.146	0.0122029
705.224	0.0121779
705.302	0.0125870
705.380	0.0128376
705.458	0.0130078
705.537	0.0131938
705.615	0.0134305
705.693	0.0138444
705.771	0.0141306
705.849	0.0142294
705.927	0.0142361
706.005	0.0142063
706.083	0.0142372
706.162	0.0139445
706.240	0.0138319
706.318	0.0135093
706.396	0.0134553
706.474	0.0132378
706.552	0.0132970
706.630	0.0135481
706.708	0.0135150
706.787	0.0136715
706.865	0.0137661
706.943	0.0139457
707.021	0.0143092
707.099	0.0149339
707.177	0.0150984
707.255	0.0154340
707.333	0.0157669
707.412	0.0160100
707.490	0.0161099
707.568	0.0161436
707.646	0.0161543
707.724	0.0161378
707.802	0.0159611
707.880	0.0156732
707.958	0.0154097
708.037	0.0154429
708.115	0.0149737
708.193	0.0147197
708.271	0.0144875
708.349	0.0144274
708.427	0.0144178
708.505	0.0143745
708.583	0.0143037
708.662	0.0141585
708.740	0.0140114
708.818	0.0138467
708.896	0.0138046
708.974	0.0136391
709.052	0.0135413
709.130	0.0135960
709.208	0.0137115
709.287	0.0134752
709.365	0.0136768
709.443	0.0136578
709.521	0.0135980
709.599	0.0137687
709.677	0.0140362
709.755	0.0140063
709.833	0.0142315
709.912	0.0143491
709.990	0.0144303
710.068	0.0143535
710.146	0.0144949
710.224	0.0148524
710.302	0.0149316
710.380	0.0150587
710.458	0.0151669
710.537	0.0151952
710.615	0.0152567
710.693	0.0152735
710.771	0.0152021
710.849	0.0150859
710.927	0.0149497
711.005	0.0149396
711.083	0.0148588
711.162	0.0145781
711.240	0.0141463
711.318	0.0139779
711.396	0.0136340
711.474	0.0134596
711.552	0.0132172
711.630	0.0129722
711.708	0.0127960
711.787	0.0126122
711.865	0.0127264
711.943	0.0127229
712.021	0.0127277
712.099	0.0128467
712.177	0.0131021
712.255	0.0132212
712.333	0.0136681
712.412	0.0138303
712.490	0.0141978
712.568	0.0143948
712.646	0.0147014
712.724	0.0149877
712.802	0.0153546
712.880	0.0153654
712.958	0.0155293
713.037	0.0157853
713.115	0.0159917
713.193	0.0159620
713.271	0.0158979
713.349	0.0158390
713.427	0.0157666
713.505	0.0156167
713.583	0.0155473
713.662	0.0153946
713.740	0.0151133
713.818	0.0149896
713.896	0.0147439
713.974	0.0145047
714.052	0.0143208
714.130	0.0140928
714.208	0.0139046
714.287	0.0136366
714.365	0.0133713
714.443	0.0132037
714.521	0.0130624
714.599	0.0130521
714.677	0.0128449
714.755	0.0128185
714.833	0.0129214
714.912	0.0129057
714.990	0.0131244
715.068	0.0130779
715.146	0.0132108
715.224	0.0136932
715.302	0.0139230
715.380	0.0140609
715.458	0.0143797
715.537	0.0144501
715.615	0.0147411
715.693	0.0148184
715.771	0.0148976
715.849	0.0150026
715.927	0.0151487
716.005	0.0151188
716.083	0.0150907
716.162	0.0150758
716.240	0.0149783
716.318	0.0149062
716.396	0.0148822
716.474	0.0148166
716.552	0.0147430
716.630	0.0146992
716.708	0.0147797
716.787	0.0144975
716.865	0.0145772
716.943	0.0145494
717.021	0.0144938
717.099	0.0143990
717.177	0.0145128
717.255	0.0144852
717.333	0.0145902
717.412	0.0144607
717.490	0.0143105
717.568	0.0142686
717.646	0.0142162
717.724	0.0140778
717.802	0.0139001
717.880	0.0138438
717.958	0.0135970
718.037	0.0134084
718.115	0.0133042
718.193	0.0134271
718.271	0.0134230
718.349	0.0133126
718.427	0.0132496
718.505	0.0137457
718.583	0.0137292
718.662	0.0140102
718.740	0.0142987
718.818	0.0145939
718.896	0.0148947
718.974	0.0149117
719.052	0.0151915
719.130	0.0153551
719.208	0.0153298
719.287	0.0153111
719.365	0.0152704
719.443	0.0150641
719.521	0.0149728
719.599	0.0147030
719.677	0.0143344
719.755	0.0140881
719.833	0.0136523
719.912	0.0136047
719.990	0.0133022
720.068	0.0129610
720.146	0.0127325
720.224	0.0126299
720.302	0.0124638
720.380	0.0124355
720.458	0.0122739
720.537	0.0123729
720.615	0.0125101
720.693	0.0128204
720.771	0.0130600
720.849	0.0132571
720.927	0.0136392
721.005	0.0140013
721.083	0.0142664
721.162	0.0144675
721.240	0.0147902
721.318	0.0151289
721.396	0.0153872
721.474	0.0156290
721.552	0.0156802
721.630	0.0159201
721.708	0.0161178
721.787	0.0160683
721.865	0.0160194
721.943	0.0160506
722.021	0.0159535
722.099	0.0159555
722.177	0.0158784
722.255	0.0158154
722.333	0.0155783
722.412	0.0156059
722.490	0.0153159
722.568	0.0152455
722.646	0.0148327
722.724	0.0148048
722.802	0.0145811
722.880	0.0144582
722.958	0.0143503
723.037	0.0139714
723.115	0.0140018
723.193	0.0138499
723.271	0.0134554
723.349	0.0133133
723.427	0.0132574
723.505	0.0130921
723.583	0.0128585
723.662	0.0128176
723.740	0.0127703
723.818	0.0129266
723.896	0.0128811
723.974	0.0129922
724.052	0.0131931
724.130	0.0133252
724.208	0.0135451
724.287	0.0136032
724.365	0.0137398
724.443	0.0139155
724.521	0.0140977
724.599	0.0141782
724.677	0.0142882
724.755	0.0143847
724.833	0.0144958
724.912	0.0144448
724.990	0.0141923
725.068	0.0140028
725.146	0.0138907
725.224	0.0137416
725.302	0.0136235
725.380	0.0135616
725.458	0.0136223
725.537	0.0134702
725.615	0.0136319
725.693	0.0137244
725.771	0.0137874
725.849	0.0136968
725.927	0.0140630
726.005	0.0140991
726.083	0.0142461
726.162	0.0144564
726.240	0.0145919
726.318	0.0146426
726.396	0.0148260
726.474	0.0148714
726.552	0.0150175
726.630	0.0149731
726.708	0.0151782
726.787	0.0151772
726.865	0.0153029
726.943	0.0152505
727.021	0.0154200
727.099	0.0155389
727.177	0.0154792
727.255	0.0153056
727.333	0.0154079
727.412	0.0154495
727.490	0.0155131
727.568	0.0154256
727.646	0.0153530
727.724	0.0151443
727.802	0.0151119
727.880	0.0151020
727.958	0.0150445
728.037	0.0148481
728.115	0.0146085
728.193	0.0143660
728.271	0.0143442
728.349	0.0141982
728.427	0.0139445
728.505	0.0138293
728.583	0.0136295
728.662	0.0135606
728.740	0.0133837
728.818	0.0133171
728.896	0.0133813
728.974	0.0131333
729.052	0.0132349
729.130	0.0131596
729.208	0.0132644
729.287	0.0135216
729.365	0.0133733
729.443	0.0135138
729.521	0.0134650
729.599	0.0134775
729.677	0.0136197
729.755	0.0135382
729.833	0.0137116
729.912	0.0138257
729.990	0.0140136
730.068	0.0140741
730.146	0.0140244
730.224	0.0141903
730.302	0.0143207
730.380	0.0143756
730.458	0.0144944
730.537	0.0146331
730.615	0.0147163
730.693	0.0147103
730.771	0.0145345
730.849	0.0146586
730.927	0.0147510
731.005	0.0148109
731.083	0.0145528
731.162	0.0144895
731.240	0.0144457
731.318	0.0144254
731.396	0.0142276
731.474	0.0143327
731.552	0.0142916
731.630	0.0142103
731.708	0.0142224
731.787	0.0141097
731.865	0.0141356
731.943	0.0141010
732.021	0.0141465
732.099	0.0141572
732.177	0.0141640
732.255	0.0142732
732.333	0.0141333
732.412	0.0143473
732.490	0.0143878
732.568	0.0144012
732.646	0.0145343
732.724	0.0145654
732.802	0.0147832
732.880	0.0148841
732.958	0.0148545
733.037	0.0149325
733.115	0.0149407
733.193	0.0152231
733.271	0.0150542
733.349	0.0151477
733.427	0.0151978
733.505	0.0151326
733.583	0.0150675
733.662	0.0150838
733.740	0.0150397
733.818	0.0148573
733.896	0.0148370
733.974	0.0148370
734.052	0.0145833
734.130	0.0144524
734.208	0.0143205
734.287	0.0142142
734.365	0.0141698
734.443	0.0141142
734.521	0.0142224
734.599	0.0141629
734.677	0.0139746
734.755	0.0139342
734.833	0.0141135
734.912	0.0140554
734.990	0.0138926
735.068	0.0140616
735.146	0.0139564
735.224	0.0140044
735.302	0.0141409
735.380	0.0139764
735.458	0.0140854
735.537	0.0139265
