05/08/2022	19:31:44	Ver.	4.1	UNKNOWN
Optical Delay	649.989667	Delta X		0.078125	Sweeps	1	Scan Rate	0/0
Coordinates	Axis 1	NaN	Axis 2	NaN	Axis 3	NaN	Axis 4	NaN	Axis 5	NaN	Axis 6	0.000000
TX Power	0.000000	RX Power	0.000000

649.990	0.0142882
650.068	0.0142256
650.146	0.0143360
650.224	0.0142776
650.302	0.0141902
650.380	0.0144286
650.458	0.0143172
650.537	0.0142149
650.615	0.0142723
650.693	0.0144123
650.771	0.0143468
650.849	0.0142643
650.927	0.0142856
651.005	0.0142146
651.083	0.0143504
651.162	0.0142937
651.240	0.0143353
651.318	0.0143032
651.396	0.0142842
651.474	0.0144024
651.552	0.0142796
651.630	0.0143824
651.708	0.0142848
651.787	0.0142567
651.865	0.0143513
651.943	0.0143080
652.021	0.0142030
652.099	0.0142685
652.177	0.0143361
652.255	0.0143500
652.333	0.0142904
652.412	0.0143725
652.490	0.0143919
652.568	0.0142468
652.646	0.0142680
652.724	0.0143446
652.802	0.0143052
652.880	0.0143917
652.958	0.0141931
653.037	0.0142647
653.115	0.0143726
653.193	0.0143684
653.271	0.0143169
653.349	0.0143240
653.427	0.0143245
653.505	0.0142981
653.583	0.0143250
653.662	0.0142377
653.740	0.0141814
653.818	0.0143363
653.896	0.0143070
653.974	0.0143343
654.052	0.0142723
654.130	0.0141365
654.208	0.0142611
654.287	0.0142875
654.365	0.0143491
654.443	0.0141975
654.521	0.0142841
654.599	0.0143915
654.677	0.0142767
654.755	0.0142597
654.833	0.0143217
654.912	0.0144115
654.990	0.0142628
655.068	0.0142726
655.146	0.0144034
655.224	0.0143746
655.302	0.0144912
655.380	0.0143217
655.458	0.0142677
655.537	0.0142304
655.615	0.0142934
655.693	0.0142968
655.771	0.0143089
655.849	0.0142293
655.927	0.0142548
656.005	0.0142638
656.083	0.0142622
656.162	0.0144428
656.240	0.0142221
656.318	0.0142322
656.396	0.0142392
656.474	0.0142335
656.552	0.0142915
656.630	0.0142976
656.708	0.0142202
656.787	0.0142827
656.865	0.0142737
656.943	0.0143464
657.021	0.0143163
657.099	0.0143028
657.177	0.0142918
657.255	0.0142464
657.333	0.0142352
657.412	0.0143095
657.490	0.0141664
657.568	0.0142411
657.646	0.0142392
657.724	0.0143995
657.802	0.0142501
657.880	0.0143275
657.958	0.0142453
658.037	0.0142136
658.115	0.0142159
658.193	0.0143243
658.271	0.0143534
658.349	0.0142799
658.427	0.0142612
658.505	0.0142631
658.583	0.0142496
658.662	0.0142876
658.740	0.0143474
658.818	0.0142010
658.896	0.0142860
658.974	0.0143941
659.052	0.0142931
659.130	0.0141601
659.208	0.0144039
659.287	0.0143620
659.365	0.0142138
659.443	0.0142199
659.521	0.0143604
659.599	0.0143423
659.677	0.0143658
659.755	0.0142460
659.833	0.0142226
659.912	0.0143386
659.990	0.0142775
660.068	0.0142741
660.146	0.0142170
660.224	0.0142284
660.302	0.0142850
660.380	0.0142989
660.458	0.0143436
660.537	0.0142509
660.615	0.0143383
660.693	0.0143433
660.771	0.0142442
660.849	0.0143277
660.927	0.0143396
661.005	0.0142107
661.083	0.0142445
661.162	0.0143080
661.240	0.0142703
661.318	0.0141625
661.396	0.0143761
661.474	0.0142091
661.552	0.0142426
661.630	0.0142853
661.708	0.0144160
661.787	0.0143051
661.865	0.0142308
661.943	0.0142820
662.021	0.0143285
662.099	0.0142551
662.177	0.0141840
662.255	0.0143446
662.333	0.0142657
662.412	0.0143145
662.490	0.0144180
662.568	0.0142719
662.646	0.0140755
662.724	0.0144328
662.802	0.0142569
662.880	0.0142117
662.958	0.0143235
663.037	0.0142326
663.115	0.0143984
663.193	0.0142564
663.271	0.0141966
663.349	0.0144434
663.427	0.0143636
663.505	0.0142505
663.583	0.0143813
663.662	0.0143369
663.740	0.0143293
663.818	0.0142696
663.896	0.0142409
663.974	0.0143246
664.052	0.0143216
664.130	0.0143175
664.208	0.0144021
664.287	0.0144713
664.365	0.0142538
664.443	0.0141019
664.521	0.0143582
664.599	0.0143311
664.677	0.0142081
664.755	0.0141728
664.833	0.0144070
664.912	0.0144698
664.990	0.0142671
665.068	0.0143546
665.146	0.0142435
665.224	0.0143659
665.302	0.0144214
665.380	0.0142549
665.458	0.0143221
665.537	0.0143474
665.615	0.0142988
665.693	0.0142487
665.771	0.0142240
665.849	0.0143455
665.927	0.0142706
666.005	0.0142532
666.083	0.0143427
666.162	0.0143169
666.240	0.0143434
666.318	0.0142811
666.396	0.0144517
666.474	0.0142494
666.552	0.0143831
666.630	0.0144021
666.708	0.0142983
666.787	0.0143742
666.865	0.0144189
666.943	0.0144480
667.021	0.0143478
667.099	0.0143204
667.177	0.0143787
667.255	0.0142976
667.333	0.0143028
667.412	0.0144016
667.490	0.0143903
667.568	0.0143171
667.646	0.0143822
667.724	0.0144428
667.802	0.0142804
667.880	0.0141371
667.958	0.0143417
668.037	0.0142961
668.115	0.0143578
668.193	0.0143144
668.271	0.0143741
668.349	0.0142123
668.427	0.0143674
668.505	0.0143339
668.583	0.0143178
668.662	0.0143478
668.740	0.0142974
668.818	0.0142561
668.896	0.0143474
668.974	0.0142677
669.052	0.0142500
669.130	0.0143443
669.208	0.0142582
669.287	0.0142383
669.365	0.0141894
669.443	0.0143871
669.521	0.0141898
669.599	0.0143263
669.677	0.0142932
669.755	0.0142344
669.833	0.0142612
669.912	0.0143609
669.990	0.0142130
670.068	0.0142513
670.146	0.0141523
670.224	0.0141361
670.302	0.0142515
670.380	0.0141219
670.458	0.0141293
670.537	0.0142223
670.615	0.0140972
670.693	0.0141790
670.771	0.0141651
670.849	0.0141576
670.927	0.0140767
671.005	0.0141473
671.083	0.0139986
671.162	0.0141052
671.240	0.0141108
671.318	0.0141881
671.396	0.0140034
671.474	0.0141961
671.552	0.0141245
671.630	0.0140890
671.708	0.0140054
671.787	0.0140649
671.865	0.0140917
671.943	0.0139715
672.021	0.0140919
672.099	0.0140403
672.177	0.0140649
672.255	0.0141058
672.333	0.0141424
672.412	0.0139391
672.490	0.0140225
672.568	0.0140623
672.646	0.0141091
672.724	0.0140697
672.802	0.0141555
672.880	0.0140847
672.958	0.0140874
673.037	0.0141184
673.115	0.0140472
673.193	0.0140938
673.271	0.0140949
673.349	0.0140541
673.427	0.0141918
673.505	0.0141315
673.583	0.0140656
673.662	0.0141174
673.740	0.0140809
673.818	0.0141688
673.896	0.0139846
673.974	0.0140540
674.052	0.0141480
674.130	0.0140702
674.208	0.0140717
674.287	0.0140083
674.365	0.0141841
674.443	0.0141075
674.521	0.0139845
674.599	0.0141811
674.677	0.0141891
674.755	0.0141308
674.833	0.0140665
674.912	0.0141204
674.990	0.0140611
675.068	0.0141438
675.146	0.0141407
675.224	0.0142593
675.302	0.0144164
675.380	0.0141897
675.458	0.0143734
675.537	0.0142746
675.615	0.0141331
675.693	0.0142826
675.771	0.0143869
675.849	0.0142416
675.927	0.0142342
676.005	0.0142941
676.083	0.0143472
676.162	0.0142870
676.240	0.0144821
676.318	0.0143428
676.396	0.0144809
676.474	0.0143335
676.552	0.0144111
676.630	0.0144077
676.708	0.0143684
676.787	0.0145377
676.865	0.0144723
676.943	0.0145264
677.021	0.0145856
677.099	0.0143166
677.177	0.0144597
677.255	0.0144446
677.333	0.0145242
677.412	0.0145953
677.490	0.0145692
677.568	0.0144698
677.646	0.0144513
677.724	0.0145930
677.802	0.0145677
677.880	0.0146101
677.958	0.0146153
678.037	0.0146060
678.115	0.0145124
678.193	0.0145498
678.271	0.0145252
678.349	0.0145039
678.427	0.0144124
678.505	0.0144485
678.583	0.0145043
678.662	0.0145354
678.740	0.0145880
678.818	0.0144989
678.896	0.0144687
678.974	0.0145232
679.052	0.0143897
679.130	0.0144993
679.208	0.0145230
679.287	0.0145490
679.365	0.0144460
679.443	0.0144759
679.521	0.0144704
679.599	0.0145851
679.677	0.0144688
679.755	0.0143717
679.833	0.0145906
679.912	0.0146127
679.990	0.0145338
680.068	0.0143914
680.146	0.0143842
680.224	0.0146030
680.302	0.0146095
680.380	0.0144292
680.458	0.0145749
680.537	0.0144987
680.615	0.0144675
680.693	0.0146206
680.771	0.0144056
680.849	0.0144368
680.927	0.0145551
681.005	0.0144775
681.083	0.0144337
681.162	0.0144769
681.240	0.0144395
681.318	0.0143544
681.396	0.0144596
681.474	0.0144769
681.552	0.0144379
681.630	0.0142991
681.708	0.0143983
681.787	0.0143264
681.865	0.0142447
681.943	0.0143451
682.021	0.0142397
682.099	0.0142204
682.177	0.0144852
682.255	0.0142979
682.333	0.0142937
682.412	0.0144185
682.490	0.0142233
682.568	0.0142374
682.646	0.0142329
682.724	0.0141070
682.802	0.0141666
682.880	0.0142459
682.958	0.0141737
683.037	0.0142716
683.115	0.0142953
683.193	0.0142542
683.271	0.0142297
683.349	0.0143442
683.427	0.0142294
683.505	0.0141777
683.583	0.0142774
683.662	0.0142667
683.740	0.0140826
683.818	0.0143064
683.896	0.0142971
683.974	0.0141687
684.052	0.0142210
684.130	0.0142078
684.208	0.0143044
684.287	0.0143494
684.365	0.0142119
684.443	0.0140288
684.521	0.0141599
684.599	0.0140432
684.677	0.0140887
684.755	0.0142328
684.833	0.0142061
684.912	0.0142384
684.990	0.0141396
685.068	0.0142396
685.146	0.0142110
685.224	0.0141760
685.302	0.0141219
685.380	0.0141051
685.458	0.0141919
685.537	0.0142670
685.615	0.0141303
685.693	0.0141106
685.771	0.0141543
685.849	0.0143906
685.927	0.0141972
686.005	0.0143104
686.083	0.0142580
686.162	0.0143223
686.240	0.0142226
686.318	0.0142246
686.396	0.0143043
686.474	0.0142504
686.552	0.0142152
686.630	0.0141354
686.708	0.0141525
686.787	0.0142834
686.865	0.0142290
686.943	0.0141460
687.021	0.0143948
687.099	0.0144189
687.177	0.0142863
687.255	0.0142999
687.333	0.0143873
687.412	0.0142327
687.490	0.0143204
687.568	0.0143655
687.646	0.0143873
687.724	0.0142971
687.802	0.0143192
687.880	0.0143081
687.958	0.0141508
688.037	0.0141911
688.115	0.0143044
688.193	0.0144215
688.271	0.0141671
688.349	0.0142290
688.427	0.0142935
688.505	0.0142255
688.583	0.0142252
688.662	0.0143612
688.740	0.0143539
688.818	0.0143456
688.896	0.0144309
688.974	0.0144892
689.052	0.0144424
689.130	0.0143566
689.208	0.0142736
689.287	0.0142298
689.365	0.0143237
689.443	0.0141492
689.521	0.0142678
689.599	0.0142986
689.677	0.0142953
689.755	0.0142741
689.833	0.0143528
689.912	0.0142669
689.990	0.0144888
690.068	0.0144183
690.146	0.0143672
690.224	0.0143015
690.302	0.0145672
690.380	0.0144209
690.458	0.0144082
690.537	0.0144108
690.615	0.0144014
690.693	0.0145036
690.771	0.0144936
690.849	0.0143998
690.927	0.0143050
691.005	0.0143313
691.083	0.0143299
691.162	0.0142456
691.240	0.0142188
691.318	0.0140778
691.396	0.0141225
691.474	0.0141730
691.552	0.0141438
691.630	0.0138656
691.708	0.0139697
691.787	0.0139017
691.865	0.0140910
691.943	0.0139376
692.021	0.0140829
692.099	0.0141724
692.177	0.0140867
692.255	0.0142722
692.333	0.0143535
692.412	0.0143977
692.490	0.0145056
692.568	0.0144617
692.646	0.0146094
692.724	0.0145074
692.802	0.0147280
692.880	0.0147012
692.958	0.0145082
693.037	0.0145783
693.115	0.0145689
693.193	0.0145754
693.271	0.0145213
693.349	0.0144884
693.427	0.0141950
693.505	0.0141348
693.583	0.0141602
693.662	0.0139604
693.740	0.0139971
693.818	0.0140293
693.896	0.0140935
693.974	0.0139171
694.052	0.0140724
694.130	0.0139561
694.208	0.0140598
694.287	0.0139877
694.365	0.0141642
694.443	0.0141631
694.521	0.0142531
694.599	0.0140999
694.677	0.0140277
694.755	0.0142869
694.833	0.0141219
694.912	0.0139634
694.990	0.0140252
695.068	0.0139959
695.146	0.0140092
695.224	0.0138123
695.302	0.0140138
695.380	0.0140327
695.458	0.0140736
695.537	0.0141914
695.615	0.0142672
695.693	0.0144398
695.771	0.0145654
695.849	0.0146163
695.927	0.0146311
696.005	0.0146833
696.083	0.0146491
696.162	0.0148757
696.240	0.0148841
696.318	0.0147955
696.396	0.0146629
696.474	0.0146563
696.552	0.0146749
696.630	0.0146151
696.708	0.0144136
696.787	0.0142701
696.865	0.0141978
696.943	0.0142270
697.021	0.0141688
697.099	0.0139806
697.177	0.0139715
697.255	0.0136122
697.333	0.0137677
697.412	0.0138378
697.490	0.0136404
697.568	0.0137933
697.646	0.0138483
697.724	0.0137374
697.802	0.0137482
697.880	0.0138903
697.958	0.0138473
698.037	0.0136980
698.115	0.0139384
698.193	0.0139828
698.271	0.0139482
698.349	0.0140573
698.427	0.0140972
698.505	0.0140133
698.583	0.0140936
698.662	0.0141953
698.740	0.0141466
698.818	0.0142498
698.896	0.0143656
698.974	0.0141421
699.052	0.0142625
699.130	0.0142924
699.208	0.0143908
699.287	0.0143259
699.365	0.0145480
699.443	0.0146541
699.521	0.0146302
699.599	0.0146169
699.677	0.0146893
699.755	0.0144801
699.833	0.0146498
699.912	0.0144664
699.990	0.0144950
700.068	0.0146416
700.146	0.0146294
700.224	0.0144357
700.302	0.0143797
700.380	0.0142339
700.458	0.0143561
700.537	0.0142260
700.615	0.0140435
700.693	0.0139800
700.771	0.0140694
700.849	0.0138509
700.927	0.0139350
701.005	0.0138359
701.083	0.0139429
701.162	0.0139048
701.240	0.0138551
701.318	0.0138628
701.396	0.0139608
701.474	0.0140157
701.552	0.0139010
701.630	0.0140718
701.708	0.0139320
701.787	0.0140381
701.865	0.0140481
701.943	0.0140138
702.021	0.0139472
702.099	0.0141282
702.177	0.0142220
702.255	0.0143349
702.333	0.0141505
702.412	0.0141733
702.490	0.0141610
702.568	0.0142457
702.646	0.0142488
702.724	0.0143343
702.802	0.0143655
702.880	0.0143546
702.958	0.0144174
703.037	0.0142957
703.115	0.0144994
703.193	0.0145194
703.271	0.0145367
703.349	0.0145790
703.427	0.0145354
703.505	0.0146896
703.583	0.0146848
703.662	0.0146848
703.740	0.0146175
703.818	0.0146329
703.896	0.0146138
703.974	0.0146555
704.052	0.0146116
704.130	0.0147549
704.208	0.0147034
704.287	0.0145638
704.365	0.0144904
704.443	0.0145592
704.521	0.0145035
704.599	0.0144234
704.677	0.0142682
704.755	0.0142409
704.833	0.0144226
704.912	0.0142730
704.990	0.0143348
705.068	0.0143551
705.146	0.0143966
705.224	0.0143765
705.302	0.0142196
705.380	0.0142006
705.458	0.0142825
705.537	0.0142465
705.615	0.0141598
705.693	0.0142491
705.771	0.0142981
705.849	0.0142770
705.927	0.0143174
706.005	0.0143002
706.083	0.0142262
706.162	0.0143165
706.240	0.0143407
706.318	0.0143836
706.396	0.0144480
706.474	0.0145068
706.552	0.0144843
706.630	0.0145480
706.708	0.0144662
706.787	0.0145114
706.865	0.0146332
706.943	0.0146791
707.021	0.0145705
707.099	0.0145886
707.177	0.0145915
707.255	0.0147357
707.333	0.0146080
707.412	0.0146188
707.490	0.0146834
707.568	0.0146055
707.646	0.0145657
707.724	0.0146502
707.802	0.0146209
707.880	0.0145502
707.958	0.0145451
708.037	0.0144231
708.115	0.0143616
708.193	0.0143266
708.271	0.0143829
708.349	0.0142914
708.427	0.0142587
708.505	0.0142035
708.583	0.0142163
708.662	0.0141001
708.740	0.0141076
708.818	0.0140156
708.896	0.0139057
708.974	0.0140164
709.052	0.0138892
709.130	0.0138670
709.208	0.0138642
709.287	0.0139543
709.365	0.0141346
709.443	0.0140340
709.521	0.0140341
709.599	0.0139332
709.677	0.0140252
709.755	0.0139616
709.833	0.0140123
709.912	0.0139987
709.990	0.0141143
710.068	0.0141216
710.146	0.0142472
710.224	0.0141301
710.302	0.0142417
710.380	0.0142292
710.458	0.0143153
710.537	0.0142751
710.615	0.0143763
710.693	0.0144070
710.771	0.0144746
710.849	0.0144531
710.927	0.0144550
711.005	0.0144762
711.083	0.0143726
711.162	0.0143376
711.240	0.0144140
711.318	0.0146157
711.396	0.0144194
711.474	0.0145334
711.552	0.0143283
711.630	0.0144601
711.708	0.0143605
711.787	0.0141955
711.865	0.0143178
711.943	0.0143642
712.021	0.0144796
712.099	0.0142962
712.177	0.0142343
712.255	0.0143747
712.333	0.0142936
712.412	0.0142754
712.490	0.0141885
712.568	0.0142924
712.646	0.0141612
712.724	0.0142065
712.802	0.0142368
712.880	0.0141940
712.958	0.0142992
713.037	0.0142503
713.115	0.0141856
713.193	0.0143190
713.271	0.0143261
713.349	0.0142723
713.427	0.0142860
713.505	0.0144022
713.583	0.0143808
713.662	0.0143935
713.740	0.0144213
713.818	0.0144263
713.896	0.0143490
713.974	0.0143948
714.052	0.0142006
714.130	0.0143679
714.208	0.0144160
714.287	0.0144347
714.365	0.0142789
714.443	0.0144234
714.521	0.0143156
714.599	0.0143353
714.677	0.0141329
714.755	0.0142317
714.833	0.0142840
714.912	0.0144543
714.990	0.0142502
715.068	0.0142593
715.146	0.0142907
715.224	0.0143559
715.302	0.0144067
715.380	0.0143620
715.458	0.0142799
715.537	0.0143913
715.615	0.0143144
715.693	0.0142362
715.771	0.0142226
715.849	0.0143243
715.927	0.0142515
716.005	0.0143195
716.083	0.0143171
716.162	0.0142268
716.240	0.0143240
716.318	0.0142558
716.396	0.0142820
716.474	0.0143829
716.552	0.0143140
716.630	0.0141362
716.708	0.0142088
716.787	0.0142062
716.865	0.0141583
716.943	0.0140526
717.021	0.0141046
717.099	0.0140927
717.177	0.0142069
717.255	0.0141836
717.333	0.0140855
717.412	0.0140646
717.490	0.0141539
717.568	0.0144001
717.646	0.0142857
717.724	0.0142386
717.802	0.0142155
717.880	0.0143456
717.958	0.0143945
718.037	0.0144989
718.115	0.0143652
718.193	0.0145410
718.271	0.0146678
718.349	0.0145773
718.427	0.0145577
718.505	0.0145068
718.583	0.0145066
718.662	0.0144498
718.740	0.0145030
718.818	0.0144638
718.896	0.0146158
718.974	0.0143839
719.052	0.0144078
719.130	0.0143464
719.208	0.0144044
719.287	0.0143152
719.365	0.0143076
719.443	0.0142147
719.521	0.0142123
719.599	0.0141113
719.677	0.0142521
719.755	0.0143600
719.833	0.0142240
719.912	0.0141029
719.990	0.0141219
720.068	0.0142527
720.146	0.0141652
720.224	0.0142465
720.302	0.0141003
720.380	0.0140958
720.458	0.0141082
720.537	0.0142893
720.615	0.0142708
720.693	0.0142197
720.771	0.0139664
720.849	0.0140876
720.927	0.0143473
721.005	0.0143024
721.083	0.0142701
721.162	0.0143084
721.240	0.0142200
721.318	0.0143300
721.396	0.0142204
721.474	0.0143111
721.552	0.0142919
721.630	0.0142854
721.708	0.0142362
721.787	0.0142756
721.865	0.0142310
721.943	0.0142567
722.021	0.0143134
722.099	0.0141991
722.177	0.0143485
722.255	0.0142271
722.333	0.0141814
722.412	0.0141961
722.490	0.0142395
722.568	0.0143428
722.646	0.0141366
722.724	0.0141677
722.802	0.0141508
722.880	0.0140201
722.958	0.0142611
723.037	0.0142472
723.115	0.0141921
723.193	0.0142104
723.271	0.0141637
723.349	0.0141046
723.427	0.0140931
723.505	0.0142005
723.583	0.0142319
723.662	0.0142505
723.740	0.0143584
723.818	0.0142372
723.896	0.0142905
723.974	0.0142107
724.052	0.0144152
724.130	0.0142381
724.208	0.0141743
724.287	0.0141474
724.365	0.0141858
724.443	0.0142041
724.521	0.0141639
724.599	0.0143588
724.677	0.0142214
724.755	0.0141529
724.833	0.0141825
724.912	0.0141047
724.990	0.0141129
725.068	0.0140905
725.146	0.0140649
725.224	0.0140842
725.302	0.0140458
725.380	0.0141653
725.458	0.0140824
725.537	0.0141496
725.615	0.0141975
725.693	0.0142763
725.771	0.0140215
725.849	0.0141168
725.927	0.0142242
726.005	0.0141385
726.083	0.0142297
726.162	0.0142873
726.240	0.0142873
726.318	0.0142425
726.396	0.0141751
726.474	0.0140610
726.552	0.0142404
726.630	0.0142738
726.708	0.0141960
726.787	0.0144463
726.865	0.0142142
726.943	0.0142244
727.021	0.0141795
727.099	0.0142287
727.177	0.0142220
727.255	0.0141853
727.333	0.0144215
727.412	0.0142245
727.490	0.0142309
727.568	0.0143163
727.646	0.0142295
727.724	0.0141675
727.802	0.0143140
727.880	0.0142966
727.958	0.0143820
728.037	0.0143746
728.115	0.0143406
728.193	0.0142208
728.271	0.0142696
728.349	0.0142866
728.427	0.0142166
728.505	0.0143431
728.583	0.0143633
728.662	0.0143407
728.740	0.0143294
728.818	0.0141920
728.896	0.0142369
728.974	0.0144225
729.052	0.0143538
729.130	0.0144531
729.208	0.0143319
729.287	0.0143948
729.365	0.0144641
729.443	0.0144106
729.521	0.0145184
729.599	0.0145544
729.677	0.0144909
729.755	0.0144260
729.833	0.0144753
729.912	0.0144268
729.990	0.0144495
730.068	0.0144456
730.146	0.0144138
730.224	0.0143835
730.302	0.0143931
730.380	0.0143906
730.458	0.0143348
730.537	0.0143291
730.615	0.0143932
730.693	0.0143960
730.771	0.0142619
730.849	0.0141782
730.927	0.0142192
731.005	0.0142405
731.083	0.0141569
731.162	0.0141022
731.240	0.0143075
731.318	0.0142860
731.396	0.0140927
731.474	0.0141637
731.552	0.0141482
731.630	0.0141454
731.708	0.0141090
731.787	0.0141230
731.865	0.0140882
731.943	0.0140956
732.021	0.0142773
732.099	0.0142384
732.177	0.0141158
732.255	0.0142890
732.333	0.0141631
732.412	0.0139841
732.490	0.0142592
732.568	0.0143021
732.646	0.0142159
732.724	0.0142126
732.802	0.0141058
732.880	0.0142548
732.958	0.0142756
733.037	0.0141279
733.115	0.0141159
733.193	0.0143038
733.271	0.0141935
733.349	0.0142562
733.427	0.0142440
733.505	0.0142668
733.583	0.0142802
733.662	0.0142633
733.740	0.0143040
733.818	0.0141645
733.896	0.0143518
733.974	0.0142829
734.052	0.0142969
734.130	0.0143784
734.208	0.0143911
734.287	0.0142716
734.365	0.0142136
734.443	0.0142879
734.521	0.0144475
734.599	0.0143708
734.677	0.0144773
734.755	0.0142743
734.833	0.0143958
734.912	0.0143364
734.990	0.0142299
735.068	0.0142480
735.146	0.0143360
735.224	0.0144171
735.302	0.0144059
735.380	0.0142908
735.458	0.0140418
735.537	0.0143354
735.615	0.0141179
735.693	0.0142377
