05/08/2022	19:49:35	Ver.	4.1	UNKNOWN
Optical Delay	649.989667	Delta X		0.078125	Sweeps	1	Scan Rate	0/0
Coordinates	Axis 1	NaN	Axis 2	NaN	Axis 3	NaN	Axis 4	NaN	Axis 5	NaN	Axis 6	0.000000
TX Power	0.000000	RX Power	0.000000

649.990	0.0128986
650.068	0.0129323
650.146	0.0128630
650.224	0.0127326
650.302	0.0127123
650.380	0.0128197
650.458	0.0128660
650.537	0.0129141
650.615	0.0129118
650.693	0.0127843
650.771	0.0128888
650.849	0.0128922
650.927	0.0129730
651.005	0.0127831
651.083	0.0127462
651.162	0.0128329
651.240	0.0129561
651.318	0.0127914
651.396	0.0129252
651.474	0.0129664
651.552	0.0128115
651.630	0.0129461
651.708	0.0128739
651.787	0.0128265
651.865	0.0128726
651.943	0.0128856
652.021	0.0129170
652.099	0.0128130
652.177	0.0128375
652.255	0.0130450
652.333	0.0130484
652.412	0.0128748
652.490	0.0128474
652.568	0.0128808
652.646	0.0128474
652.724	0.0129332
652.802	0.0128934
652.880	0.0128999
652.958	0.0128764
653.037	0.0129680
653.115	0.0127415
653.193	0.0131064
653.271	0.0128918
653.349	0.0128487
653.427	0.0129191
653.505	0.0127916
653.583	0.0127909
653.662	0.0128159
653.740	0.0127264
653.818	0.0128149
653.896	0.0130250
653.974	0.0128518
654.052	0.0129035
654.130	0.0128994
654.208	0.0127927
654.287	0.0128699
654.365	0.0129736
654.443	0.0128507
654.521	0.0129190
654.599	0.0129150
654.677	0.0127537
654.755	0.0128674
654.833	0.0127771
654.912	0.0128733
654.990	0.0129975
655.068	0.0129803
655.146	0.0129469
655.224	0.0128337
655.302	0.0128098
655.380	0.0127961
655.458	0.0129597
655.537	0.0128471
655.615	0.0129626
655.693	0.0128461
655.771	0.0128829
655.849	0.0127277
655.927	0.0127529
656.005	0.0128455
656.083	0.0128324
656.162	0.0127520
656.240	0.0128205
656.318	0.0128329
656.396	0.0127208
656.474	0.0128465
656.552	0.0129386
656.630	0.0128312
656.708	0.0128606
656.787	0.0130212
656.865	0.0128569
656.943	0.0128106
657.021	0.0128815
657.099	0.0128324
657.177	0.0127158
657.255	0.0128268
657.333	0.0130262
657.412	0.0128661
657.490	0.0128049
657.568	0.0128344
657.646	0.0129065
657.724	0.0129463
657.802	0.0127626
657.880	0.0128289
657.958	0.0127633
658.037	0.0129025
658.115	0.0129551
658.193	0.0129405
658.271	0.0127705
658.349	0.0128524
658.427	0.0128107
658.505	0.0129073
658.583	0.0129019
658.662	0.0129230
658.740	0.0129036
658.818	0.0127842
658.896	0.0128549
658.974	0.0128855
659.052	0.0128409
659.130	0.0127588
659.208	0.0127917
659.287	0.0127269
659.365	0.0128989
659.443	0.0129179
659.521	0.0129555
659.599	0.0129546
659.677	0.0128943
659.755	0.0129041
659.833	0.0128677
659.912	0.0128183
659.990	0.0129964
660.068	0.0128749
660.146	0.0129924
660.224	0.0129761
660.302	0.0128062
660.380	0.0128808
660.458	0.0129271
660.537	0.0127293
660.615	0.0128811
660.693	0.0129368
660.771	0.0128239
660.849	0.0129878
660.927	0.0128620
661.005	0.0128648
661.083	0.0129113
661.162	0.0129073
661.240	0.0128564
661.318	0.0129166
661.396	0.0129320
661.474	0.0128793
661.552	0.0128098
661.630	0.0128508
661.708	0.0128919
661.787	0.0129397
661.865	0.0128415
661.943	0.0129202
662.021	0.0130141
662.099	0.0128019
662.177	0.0129078
662.255	0.0129240
662.333	0.0128882
662.412	0.0129823
662.490	0.0129829
662.568	0.0128125
662.646	0.0128574
662.724	0.0127776
662.802	0.0128355
662.880	0.0130113
662.958	0.0129639
663.037	0.0129672
663.115	0.0128979
663.193	0.0129549
663.271	0.0129447
663.349	0.0127975
663.427	0.0128439
663.505	0.0130183
663.583	0.0128197
663.662	0.0129504
663.740	0.0128631
663.818	0.0129352
663.896	0.0129881
663.974	0.0128755
664.052	0.0129244
664.130	0.0130170
664.208	0.0128508
664.287	0.0129034
664.365	0.0127831
664.443	0.0128550
664.521	0.0128083
664.599	0.0128513
664.677	0.0129030
664.755	0.0128001
664.833	0.0128880
664.912	0.0129638
664.990	0.0129988
665.068	0.0129016
665.146	0.0129304
665.224	0.0128445
665.302	0.0129354
665.380	0.0129657
665.458	0.0128233
665.537	0.0129474
665.615	0.0129047
665.693	0.0129719
665.771	0.0129462
665.849	0.0127537
665.927	0.0128449
666.005	0.0129442
666.083	0.0128091
666.162	0.0128011
666.240	0.0129000
666.318	0.0127909
666.396	0.0128437
666.474	0.0127644
666.552	0.0130378
666.630	0.0130316
666.708	0.0131003
666.787	0.0130750
666.865	0.0131131
666.943	0.0129725
667.021	0.0130089
667.099	0.0129049
667.177	0.0128802
667.255	0.0127081
667.333	0.0125373
667.412	0.0125097
667.490	0.0124307
667.568	0.0124947
667.646	0.0125787
667.724	0.0127336
667.802	0.0128074
667.880	0.0129829
667.958	0.0131994
668.037	0.0131586
668.115	0.0133589
668.193	0.0132519
668.271	0.0132978
668.349	0.0133639
668.427	0.0132130
668.505	0.0132117
668.583	0.0131132
668.662	0.0131354
668.740	0.0128001
668.818	0.0127675
668.896	0.0128744
668.974	0.0128227
669.052	0.0125725
669.130	0.0124966
669.208	0.0124357
669.287	0.0123488
669.365	0.0123502
669.443	0.0123795
669.521	0.0123064
669.599	0.0125151
669.677	0.0126996
669.755	0.0126141
669.833	0.0128542
669.912	0.0130724
669.990	0.0131924
670.068	0.0130816
670.146	0.0131416
670.224	0.0131294
670.302	0.0130945
670.380	0.0130821
670.458	0.0128498
670.537	0.0129938
670.615	0.0128925
670.693	0.0128734
670.771	0.0131071
670.849	0.0132553
670.927	0.0132253
671.005	0.0134035
671.083	0.0133391
671.162	0.0134732
671.240	0.0134363
671.318	0.0134074
671.396	0.0134583
671.474	0.0134237
671.552	0.0130739
671.630	0.0129342
671.708	0.0127486
671.787	0.0125414
671.865	0.0124416
671.943	0.0122433
672.021	0.0122907
672.099	0.0122315
672.177	0.0122254
672.255	0.0119289
672.333	0.0120740
672.412	0.0121256
672.490	0.0120736
672.568	0.0119897
672.646	0.0120963
672.724	0.0120971
672.802	0.0122375
672.880	0.0122837
672.958	0.0125279
673.037	0.0126454
673.115	0.0129230
673.193	0.0133517
673.271	0.0135223
673.349	0.0136579
673.427	0.0137746
673.505	0.0139563
673.583	0.0140786
673.662	0.0141503
673.740	0.0141634
673.818	0.0141833
673.896	0.0140701
673.974	0.0139577
674.052	0.0138991
674.130	0.0137406
674.208	0.0135091
674.287	0.0133997
674.365	0.0131631
674.443	0.0130602
674.521	0.0128019
674.599	0.0128619
674.677	0.0128809
674.755	0.0126609
674.833	0.0126749
674.912	0.0125388
674.990	0.0122525
675.068	0.0121596
675.146	0.0118803
675.224	0.0113939
675.302	0.0114485
675.380	0.0113139
675.458	0.0108737
675.537	0.0108717
675.615	0.0106995
675.693	0.0107110
675.771	0.0109220
675.849	0.0110693
675.927	0.0110670
676.005	0.0112788
676.083	0.0115594
676.162	0.0119289
676.240	0.0121823
676.318	0.0125801
676.396	0.0130212
676.474	0.0135223
676.552	0.0140347
676.630	0.0144363
676.708	0.0147141
676.787	0.0149786
676.865	0.0152255
676.943	0.0154900
677.021	0.0156899
677.099	0.0157133
677.177	0.0158929
677.255	0.0158995
677.333	0.0156976
677.412	0.0155699
677.490	0.0154137
677.568	0.0151632
677.646	0.0148611
677.724	0.0144022
677.802	0.0140402
677.880	0.0134852
677.958	0.0128816
678.037	0.0124029
678.115	0.0119301
678.193	0.0114494
678.271	0.0109345
678.349	0.0104825
678.427	0.00991638
678.505	0.00935219
678.583	0.00897812
678.662	0.00885147
678.740	0.00870064
678.818	0.00845230
678.896	0.00845078
678.974	0.00837189
679.052	0.00885651
679.130	0.00911118
679.208	0.00944237
679.287	0.0100546
679.365	0.0107501
679.443	0.0113406
679.521	0.0119807
679.599	0.0125692
679.677	0.0131970
679.755	0.0138219
679.833	0.0143798
679.912	0.0148292
679.990	0.0150245
680.068	0.0153544
680.146	0.0156389
680.224	0.0157452
680.302	0.0160191
680.380	0.0163322
680.458	0.0167511
680.537	0.0172853
680.615	0.0174905
680.693	0.0178078
680.771	0.0182916
680.849	0.0184007
680.927	0.0183035
681.005	0.0181879
681.083	0.0174991
681.162	0.0167659
681.240	0.0157742
681.318	0.0144653
681.396	0.0136353
681.474	0.0122757
681.552	0.0112682
681.630	0.0103996
681.708	0.00963501
681.787	0.00877518
681.865	0.00812622
681.943	0.00792374
682.021	0.00752670
682.099	0.00749214
682.177	0.00731392
682.255	0.00714783
682.333	0.00727791
682.412	0.00744591
682.490	0.00750259
682.568	0.00747116
682.646	0.00777908
682.724	0.00819061
682.802	0.00866577
682.880	0.00930054
682.958	0.0102116
683.037	0.0111035
683.115	0.0121791
683.193	0.0132763
683.271	0.0143434
683.349	0.0155053
683.427	0.0164959
683.505	0.0173151
683.583	0.0179378
683.662	0.0183433
683.740	0.0183609
683.818	0.0182571
683.896	0.0180775
683.974	0.0175494
684.052	0.0171931
684.130	0.0165900
684.208	0.0159555
684.287	0.0154384
684.365	0.0147536
684.443	0.0141580
684.521	0.0137545
684.599	0.0132703
684.677	0.0130683
684.755	0.0128722
684.833	0.0126712
684.912	0.0124438
684.990	0.0125204
685.068	0.0125155
685.146	0.0124018
685.224	0.0126986
685.302	0.0129092
685.380	0.0129737
685.458	0.0129061
685.537	0.0132363
685.615	0.0132949
685.693	0.0132681
685.771	0.0130983
685.849	0.0131162
685.927	0.0128374
686.005	0.0124395
686.083	0.0121764
686.162	0.0120892
686.240	0.0116817
686.318	0.0116064
686.396	0.0112502
686.474	0.0108810
686.552	0.0110105
686.630	0.0108380
686.708	0.0104494
686.787	0.0103390
686.865	0.0102491
686.943	0.00983376
687.021	0.00983681
687.099	0.00977310
687.177	0.00947754
687.255	0.00952332
687.333	0.00968925
687.412	0.00989716
687.490	0.0104901
687.568	0.0109177
687.646	0.0113992
687.724	0.0123746
687.802	0.0131734
687.880	0.0138034
687.958	0.0144209
688.037	0.0152055
688.115	0.0155677
688.193	0.0159647
688.271	0.0162849
688.349	0.0163981
688.427	0.0162565
688.505	0.0161423
688.583	0.0160036
688.662	0.0156658
688.740	0.0155842
688.818	0.0153142
688.896	0.0151788
688.974	0.0148174
689.052	0.0148412
689.130	0.0147418
689.208	0.0143993
689.287	0.0144694
689.365	0.0143722
689.443	0.0143103
689.521	0.0141399
689.599	0.0138857
689.677	0.0135697
689.755	0.0133411
689.833	0.0131222
689.912	0.0127259
689.990	0.0128365
690.068	0.0125613
690.146	0.0124601
690.224	0.0123264
690.302	0.0122992
690.380	0.0120732
690.458	0.0121629
690.537	0.0121986
690.615	0.0122355
690.693	0.0121507
690.771	0.0120794
690.849	0.0120960
690.927	0.0119239
691.005	0.0117645
691.083	0.0117133
691.162	0.0115580
691.240	0.0113371
691.318	0.0109493
691.396	0.0106992
691.474	0.0102868
691.552	0.0100069
691.630	0.00971558
691.708	0.00936440
691.787	0.00922913
691.865	0.00914604
691.943	0.00915154
692.021	0.00941116
692.099	0.00954750
692.177	0.0101956
692.255	0.0106475
692.333	0.0112098
692.412	0.0118398
692.490	0.0124736
692.568	0.0129996
692.646	0.0133892
692.724	0.0137672
692.802	0.0141925
692.880	0.0145821
692.958	0.0148680
693.037	0.0153544
693.115	0.0156113
693.193	0.0157616
693.271	0.0160075
693.349	0.0160326
693.427	0.0161498
693.505	0.0162663
693.583	0.0163656
693.662	0.0165247
693.740	0.0162894
693.818	0.0165234
693.896	0.0164720
693.974	0.0162488
694.052	0.0161824
694.130	0.0160706
694.208	0.0158390
694.287	0.0154050
694.365	0.0149512
694.443	0.0145794
694.521	0.0142419
694.599	0.0139587
694.677	0.0133455
694.755	0.0128528
694.833	0.0126863
694.912	0.0122600
694.990	0.0119276
695.068	0.0116481
695.146	0.0114809
695.224	0.0110551
695.302	0.0105556
695.380	0.0103493
695.458	0.0101312
695.537	0.00994118
695.615	0.00962250
695.693	0.00964233
695.771	0.00966133
695.849	0.00986038
695.927	0.0101523
696.005	0.0104346
696.083	0.0107164
696.162	0.0111619
696.240	0.0114346
696.318	0.0115157
696.396	0.0116951
696.474	0.0117943
696.552	0.0119529
696.630	0.0118207
696.708	0.0116279
696.787	0.0111449
696.865	0.0109740
696.943	0.0105787
697.021	0.0105005
697.099	0.0104150
697.177	0.0104240
697.255	0.0105607
697.333	0.0108981
697.412	0.0113308
697.490	0.0119827
697.568	0.0125085
697.646	0.0130393
697.724	0.0136196
697.802	0.0143819
697.880	0.0147166
697.958	0.0152180
698.037	0.0156390
698.115	0.0160938
698.193	0.0162583
698.271	0.0164483
698.349	0.0166522
698.427	0.0169669
698.505	0.0169270
698.583	0.0170672
698.662	0.0169910
698.740	0.0165649
698.818	0.0165765
698.896	0.0163043
698.974	0.0161649
699.052	0.0158330
699.130	0.0156682
699.208	0.0152629
699.287	0.0150288
699.365	0.0146121
699.443	0.0143509
699.521	0.0138240
699.599	0.0134679
699.677	0.0129462
699.755	0.0124889
699.833	0.0118929
699.912	0.0115580
699.990	0.0108830
700.068	0.0103671
700.146	0.0100132
700.224	0.00956261
700.302	0.00925797
700.380	0.00887444
700.458	0.00850510
700.537	0.00822441
700.615	0.00803581
700.693	0.00806747
700.771	0.00826416
700.849	0.00864594
700.927	0.00919922
701.005	0.00982613
701.083	0.0103717
701.162	0.0112735
701.240	0.0119772
701.318	0.0126810
701.396	0.0135811
701.474	0.0143336
701.552	0.0148111
701.630	0.0152937
701.708	0.0155579
701.787	0.0156854
701.865	0.0157590
701.943	0.0156670
702.021	0.0153411
702.099	0.0150740
702.177	0.0145200
702.255	0.0140192
702.333	0.0132922
702.412	0.0126102
702.490	0.0119434
702.568	0.0113988
702.646	0.0111272
702.724	0.0107283
702.802	0.0106010
702.880	0.0105763
702.958	0.0105588
703.037	0.0107688
703.115	0.0109085
703.193	0.0112984
703.271	0.0118272
703.349	0.0124062
703.427	0.0127907
703.505	0.0131020
703.583	0.0135766
703.662	0.0139385
703.740	0.0143063
703.818	0.0146910
703.896	0.0149284
703.974	0.0153506
704.052	0.0154887
704.130	0.0155560
704.208	0.0156897
704.287	0.0156765
704.365	0.0157700
704.443	0.0156609
704.521	0.0157479
704.599	0.0157697
704.677	0.0155957
704.755	0.0155850
704.833	0.0153607
704.912	0.0150999
704.990	0.0148393
705.068	0.0146177
705.146	0.0144511
705.224	0.0140224
705.302	0.0136665
705.380	0.0133295
705.458	0.0127729
705.537	0.0122927
705.615	0.0117838
705.693	0.0112697
705.771	0.0108756
705.849	0.0104211
705.927	0.00994652
706.005	0.00947998
706.083	0.00932289
706.162	0.00908829
706.240	0.00906578
706.318	0.00923027
706.396	0.00940628
706.474	0.00983826
706.552	0.0101627
706.630	0.0106766
706.708	0.0112157
706.787	0.0117503
706.865	0.0122108
706.943	0.0126936
707.021	0.0132647
707.099	0.0134441
707.177	0.0137402
707.255	0.0139876
707.333	0.0137967
707.412	0.0139261
707.490	0.0138163
707.568	0.0134248
707.646	0.0129536
707.724	0.0126178
707.802	0.0123187
707.880	0.0116686
707.958	0.0114725
708.037	0.0112772
708.115	0.0109808
708.193	0.0106819
708.271	0.0108371
708.349	0.0108761
708.427	0.0108186
708.505	0.0110641
708.583	0.0114706
708.662	0.0120432
708.740	0.0123830
708.818	0.0129533
708.896	0.0134181
708.974	0.0139714
709.052	0.0144876
709.130	0.0151941
709.208	0.0154620
709.287	0.0160503
709.365	0.0163428
709.443	0.0165425
709.521	0.0168635
709.599	0.0169177
709.677	0.0170421
709.755	0.0170035
709.833	0.0168452
709.912	0.0166356
709.990	0.0165500
710.068	0.0162290
710.146	0.0160547
710.224	0.0155482
710.302	0.0151655
710.380	0.0150261
710.458	0.0143009
710.537	0.0139008
710.615	0.0135224
710.693	0.0129574
710.771	0.0126234
710.849	0.0120599
710.927	0.0116153
711.005	0.0111652
711.083	0.0106712
711.162	0.0101649
711.240	0.00980568
711.318	0.00941803
711.396	0.00920433
711.474	0.00892303
711.552	0.00887207
711.630	0.00904373
711.708	0.00901398
711.787	0.00924423
711.865	0.00973030
711.943	0.0101130
712.021	0.0104201
712.099	0.0108106
712.177	0.0112813
712.255	0.0116911
712.333	0.0120628
712.412	0.0124970
712.490	0.0125737
712.568	0.0128678
712.646	0.0130358
712.724	0.0132153
712.802	0.0129552
712.880	0.0128261
712.958	0.0128429
713.037	0.0124289
713.115	0.0123769
713.193	0.0122318
713.271	0.0119987
713.349	0.0119298
713.427	0.0119678
713.505	0.0122442
713.583	0.0123698
713.662	0.0124733
713.740	0.0128585
713.818	0.0130032
713.896	0.0135103
713.974	0.0137128
714.052	0.0141022
714.130	0.0143975
714.208	0.0146324
714.287	0.0147993
714.365	0.0150710
714.443	0.0150481
714.521	0.0151111
714.599	0.0151453
714.677	0.0151643
714.755	0.0151835
714.833	0.0149600
714.912	0.0147992
714.990	0.0147997
715.068	0.0144326
715.146	0.0143729
715.224	0.0141202
715.302	0.0138178
715.380	0.0136771
715.458	0.0134442
715.537	0.0133749
715.615	0.0130982
715.693	0.0129543
715.771	0.0130219
715.849	0.0129874
715.927	0.0129048
716.005	0.0131336
716.083	0.0131386
716.162	0.0131902
716.240	0.0132790
716.318	0.0133872
716.396	0.0132692
716.474	0.0131395
716.552	0.0129723
716.630	0.0127789
716.708	0.0125692
716.787	0.0124128
716.865	0.0118640
716.943	0.0116105
717.021	0.0114141
717.099	0.0110744
717.177	0.0110185
717.255	0.0110636
717.333	0.0109702
717.412	0.0110390
717.490	0.0112617
717.568	0.0112212
717.646	0.0116679
717.724	0.0118252
717.802	0.0119717
717.880	0.0121391
717.958	0.0124582
718.037	0.0125275
718.115	0.0124985
718.193	0.0123155
718.271	0.0121227
718.349	0.0120765
718.427	0.0117542
718.505	0.0114555
718.583	0.0112589
718.662	0.0110433
718.740	0.0109426
718.818	0.0109827
718.896	0.0109460
718.974	0.0110019
719.052	0.0111674
719.130	0.0114782
719.208	0.0117091
719.287	0.0118122
719.365	0.0124538
719.443	0.0128645
719.521	0.0132959
719.599	0.0136800
719.677	0.0141730
719.755	0.0146040
719.833	0.0149557
719.912	0.0151395
719.990	0.0154440
720.068	0.0155192
720.146	0.0153712
720.224	0.0153622
720.302	0.0153273
720.380	0.0151783
720.458	0.0151398
720.537	0.0149524
720.615	0.0149745
720.693	0.0147176
720.771	0.0147334
720.849	0.0146561
720.927	0.0146791
721.005	0.0145663
721.083	0.0145650
721.162	0.0143909
721.240	0.0141767
721.318	0.0138913
721.396	0.0136906
721.474	0.0133480
721.552	0.0130268
721.630	0.0127111
721.708	0.0124982
721.787	0.0121201
721.865	0.0118993
721.943	0.0115310
722.021	0.0113430
722.099	0.0111009
722.177	0.0112051
722.255	0.0110243
722.333	0.0110209
722.412	0.0110434
722.490	0.0111962
722.568	0.0113667
722.646	0.0112092
722.724	0.0115950
722.802	0.0118426
722.880	0.0119820
722.958	0.0120968
723.037	0.0123183
723.115	0.0125101
723.193	0.0126660
723.271	0.0127730
723.349	0.0127670
723.427	0.0129783
723.505	0.0127329
723.583	0.0127028
723.662	0.0124224
723.740	0.0122051
723.818	0.0119249
723.896	0.0116534
723.974	0.0113498
724.052	0.0111208
724.130	0.0111349
724.208	0.0108823
724.287	0.0108927
724.365	0.0108072
724.443	0.0108862
724.521	0.0110283
724.599	0.0114913
724.677	0.0114955
724.755	0.0119107
724.833	0.0122347
724.912	0.0125219
724.990	0.0129982
725.068	0.0132785
725.146	0.0137150
725.224	0.0139164
725.302	0.0141434
725.380	0.0143666
725.458	0.0146922
725.537	0.0149129
725.615	0.0148664
725.693	0.0149046
725.771	0.0151801
725.849	0.0151936
725.927	0.0151202
726.005	0.0153690
726.083	0.0152579
726.162	0.0152080
726.240	0.0149433
726.318	0.0148631
726.396	0.0146525
726.474	0.0144473
726.552	0.0143272
726.630	0.0141730
726.708	0.0138868
726.787	0.0138354
726.865	0.0132961
726.943	0.0131763
727.021	0.0130223
727.099	0.0127861
727.177	0.0123135
727.255	0.0121095
727.333	0.0119059
727.412	0.0116795
727.490	0.0115332
727.568	0.0112803
727.646	0.0111877
727.724	0.0110270
727.802	0.0109892
727.880	0.0110551
727.958	0.0109877
728.037	0.0113252
728.115	0.0114468
728.193	0.0116548
728.271	0.0118774
728.349	0.0121072
728.427	0.0121833
728.505	0.0125265
728.583	0.0126645
728.662	0.0129787
728.740	0.0130617
728.818	0.0130312
728.896	0.0129346
728.974	0.0130498
729.052	0.0129832
729.130	0.0130153
729.208	0.0129537
729.287	0.0129683
729.365	0.0127526
729.443	0.0127894
729.521	0.0128967
729.599	0.0127080
729.677	0.0127099
729.755	0.0126971
729.833	0.0126756
729.912	0.0127930
729.990	0.0126037
730.068	0.0126493
730.146	0.0126736
730.224	0.0125695
730.302	0.0124579
730.380	0.0125466
730.458	0.0125307
730.537	0.0126055
730.615	0.0124564
730.693	0.0124712
730.771	0.0123788
730.849	0.0124949
730.927	0.0124477
731.005	0.0125603
731.083	0.0127030
731.162	0.0128209
731.240	0.0128646
731.318	0.0129651
731.396	0.0129440
731.474	0.0132560
731.552	0.0134299
731.630	0.0134684
731.708	0.0134492
731.787	0.0135542
731.865	0.0136864
731.943	0.0137469
732.021	0.0137241
732.099	0.0135529
732.177	0.0136504
732.255	0.0136426
732.333	0.0136758
732.412	0.0135708
732.490	0.0134249
732.568	0.0135805
732.646	0.0135155
732.724	0.0136015
732.802	0.0135234
732.880	0.0134315
732.958	0.0133843
733.037	0.0134116
733.115	0.0133181
733.193	0.0133138
733.271	0.0132809
733.349	0.0132378
733.427	0.0131011
733.505	0.0130421
733.583	0.0130257
733.662	0.0128369
733.740	0.0128759
733.818	0.0128825
733.896	0.0126094
733.974	0.0127055
734.052	0.0126434
734.130	0.0126202
734.208	0.0125463
734.287	0.0125121
734.365	0.0124747
734.443	0.0123439
734.521	0.0123745
734.599	0.0123820
734.677	0.0121884
734.755	0.0120383
734.833	0.0120325
734.912	0.0119680
734.990	0.0119879
735.068	0.0121646
735.146	0.0120609
735.224	0.0120229
735.302	0.0121672
735.380	0.0123371
