05/08/2022	19:49:50	Ver.	4.1	UNKNOWN
Optical Delay	649.989667	Delta X		0.078125	Sweeps	1	Scan Rate	0/0
Coordinates	Axis 1	NaN	Axis 2	NaN	Axis 3	NaN	Axis 4	NaN	Axis 5	NaN	Axis 6	0.000000
TX Power	0.000000	RX Power	0.000000

649.990	0.0127236
650.068	0.0127917
650.146	0.0125972
650.224	0.0127566
650.302	0.0127261
650.380	0.0126118
650.458	0.0126650
650.537	0.0127488
650.615	0.0127334
650.693	0.0125801
650.771	0.0127292
650.849	0.0128352
650.927	0.0127305
651.005	0.0127284
651.083	0.0127435
651.162	0.0126212
651.240	0.0128252
651.318	0.0127522
651.396	0.0125704
651.474	0.0126157
651.552	0.0127352
651.630	0.0125636
651.708	0.0126353
651.787	0.0127562
651.865	0.0127348
651.943	0.0127648
652.021	0.0126839
652.099	0.0125721
652.177	0.0126762
652.255	0.0127317
652.333	0.0125668
652.412	0.0127422
652.490	0.0127760
652.568	0.0127056
652.646	0.0125478
652.724	0.0128440
652.802	0.0127719
652.880	0.0127016
652.958	0.0126347
653.037	0.0126517
653.115	0.0126797
653.193	0.0126327
653.271	0.0126647
653.349	0.0127316
653.427	0.0125993
653.505	0.0126539
653.583	0.0127400
653.662	0.0126723
653.740	0.0126389
653.818	0.0128030
653.896	0.0127408
653.974	0.0127186
654.052	0.0127605
654.130	0.0128516
654.208	0.0128330
654.287	0.0126260
654.365	0.0127440
654.443	0.0127946
654.521	0.0126791
654.599	0.0127466
654.677	0.0126577
654.755	0.0127319
654.833	0.0126587
654.912	0.0126516
654.990	0.0125402
655.068	0.0128073
655.146	0.0126642
655.224	0.0126772
655.302	0.0127287
655.380	0.0125634
655.458	0.0126758
655.537	0.0128356
655.615	0.0128622
655.693	0.0127552
655.771	0.0126731
655.849	0.0125922
655.927	0.0127112
656.005	0.0126818
656.083	0.0127672
656.162	0.0126282
656.240	0.0127873
656.318	0.0127702
656.396	0.0126984
656.474	0.0127116
656.552	0.0128615
656.630	0.0125696
656.708	0.0126444
656.787	0.0127959
656.865	0.0126924
656.943	0.0127309
657.021	0.0126791
657.099	0.0127852
657.177	0.0126952
657.255	0.0127555
657.333	0.0127738
657.412	0.0127769
657.490	0.0127039
657.568	0.0127312
657.646	0.0127232
657.724	0.0125917
657.802	0.0127541
657.880	0.0128390
657.958	0.0126938
658.037	0.0128610
658.115	0.0128259
658.193	0.0127224
658.271	0.0126258
658.349	0.0126398
658.427	0.0127914
658.505	0.0127077
658.583	0.0126830
658.662	0.0126813
658.740	0.0127446
658.818	0.0127492
658.896	0.0126823
658.974	0.0128432
659.052	0.0129137
659.130	0.0127173
659.208	0.0127347
659.287	0.0128259
659.365	0.0126794
659.443	0.0128274
659.521	0.0127795
659.599	0.0128139
659.677	0.0127573
659.755	0.0127412
659.833	0.0128199
659.912	0.0126480
659.990	0.0128002
660.068	0.0128348
660.146	0.0127827
660.224	0.0127448
660.302	0.0126587
660.380	0.0127382
660.458	0.0128017
660.537	0.0127251
660.615	0.0127909
660.693	0.0128127
660.771	0.0127911
660.849	0.0126551
660.927	0.0127087
661.005	0.0127950
661.083	0.0128596
661.162	0.0127659
661.240	0.0127718
661.318	0.0127334
661.396	0.0127604
661.474	0.0128652
661.552	0.0128607
661.630	0.0126797
661.708	0.0127869
661.787	0.0127026
661.865	0.0128275
661.943	0.0127629
662.021	0.0127399
662.099	0.0128118
662.177	0.0127496
662.255	0.0127758
662.333	0.0128590
662.412	0.0126197
662.490	0.0127906
662.568	0.0126064
662.646	0.0127301
662.724	0.0126408
662.802	0.0127371
662.880	0.0128705
662.958	0.0128004
663.037	0.0127269
663.115	0.0127776
663.193	0.0128652
663.271	0.0126914
663.349	0.0127860
663.427	0.0127078
663.505	0.0126313
663.583	0.0127711
663.662	0.0126537
663.740	0.0126151
663.818	0.0126777
663.896	0.0127225
663.974	0.0125505
664.052	0.0126722
664.130	0.0127691
664.208	0.0127232
664.287	0.0127504
664.365	0.0125896
664.443	0.0127374
664.521	0.0126588
664.599	0.0126881
664.677	0.0126773
664.755	0.0126691
664.833	0.0126147
664.912	0.0128849
664.990	0.0127805
665.068	0.0126909
665.146	0.0126073
665.224	0.0126687
665.302	0.0126959
665.380	0.0125366
665.458	0.0126704
665.537	0.0128127
665.615	0.0126105
665.693	0.0126333
665.771	0.0127252
665.849	0.0126832
665.927	0.0127949
666.005	0.0127943
666.083	0.0128334
666.162	0.0128179
666.240	0.0128693
666.318	0.0128551
666.396	0.0127916
666.474	0.0129517
666.552	0.0128815
666.630	0.0126830
666.708	0.0125272
666.787	0.0125758
666.865	0.0125169
666.943	0.0123189
667.021	0.0123707
667.099	0.0123936
667.177	0.0123691
667.255	0.0125083
667.333	0.0126312
667.412	0.0127578
667.490	0.0129610
667.568	0.0131267
667.646	0.0131157
667.724	0.0131335
667.802	0.0132805
667.880	0.0130856
667.958	0.0131784
668.037	0.0130182
668.115	0.0128912
668.193	0.0128362
668.271	0.0128018
668.349	0.0125872
668.427	0.0125705
668.505	0.0124715
668.583	0.0124766
668.662	0.0122684
668.740	0.0121740
668.818	0.0122192
668.896	0.0121841
668.974	0.0122504
669.052	0.0121436
669.130	0.0121922
669.208	0.0123057
669.287	0.0126109
669.365	0.0127396
669.443	0.0129577
669.521	0.0131435
669.599	0.0131461
669.677	0.0131310
669.755	0.0130953
669.833	0.0130600
669.912	0.0129981
669.990	0.0128359
670.068	0.0126840
670.146	0.0127788
670.224	0.0127238
670.302	0.0128664
670.380	0.0128864
670.458	0.0130238
670.537	0.0131216
670.615	0.0132613
670.693	0.0133233
670.771	0.0131971
670.849	0.0132162
670.927	0.0131435
671.005	0.0129565
671.083	0.0128485
671.162	0.0126962
671.240	0.0124926
671.318	0.0123071
671.396	0.0123618
671.474	0.0121147
671.552	0.0118320
671.630	0.0120686
671.708	0.0121278
671.787	0.0121880
671.865	0.0122173
671.943	0.0123465
672.021	0.0124400
672.099	0.0123630
672.177	0.0124495
672.255	0.0124252
672.333	0.0123610
672.412	0.0123695
672.490	0.0123361
672.568	0.0122031
672.646	0.0123087
672.724	0.0125191
672.802	0.0127453
672.880	0.0129681
672.958	0.0131178
673.037	0.0134306
673.115	0.0137635
673.193	0.0139756
673.271	0.0141489
673.349	0.0143678
673.427	0.0144614
673.505	0.0143929
673.583	0.0140100
673.662	0.0139886
673.740	0.0135683
673.818	0.0132130
673.896	0.0129681
673.974	0.0126515
674.052	0.0123462
674.130	0.0120887
674.208	0.0119403
674.287	0.0120657
674.365	0.0120863
674.443	0.0122507
674.521	0.0121240
674.599	0.0121452
674.677	0.0120526
674.755	0.0119444
674.833	0.0118188
674.912	0.0117205
674.990	0.0114850
675.068	0.0111372
675.146	0.0109077
675.224	0.0110434
675.302	0.0108234
675.380	0.0107738
675.458	0.0110251
675.537	0.0111669
675.615	0.0114113
675.693	0.0117707
675.771	0.0121471
675.849	0.0126028
675.927	0.0128921
676.005	0.0133576
676.083	0.0137413
676.162	0.0141138
676.240	0.0145390
676.318	0.0149509
676.396	0.0151326
676.474	0.0153188
676.552	0.0155811
676.630	0.0157767
676.708	0.0157680
676.787	0.0156467
676.865	0.0155077
676.943	0.0153998
677.021	0.0148907
677.099	0.0146535
677.177	0.0142957
677.255	0.0137379
677.333	0.0132518
677.412	0.0128318
677.490	0.0124921
677.568	0.0119926
677.646	0.0117185
677.724	0.0116077
677.802	0.0113769
677.880	0.0111982
677.958	0.0112466
678.037	0.0110631
678.115	0.0105984
678.193	0.0105108
678.271	0.0104110
678.349	0.0100469
678.427	0.00957542
678.505	0.00956192
678.583	0.00929764
678.662	0.00898621
678.740	0.00908730
678.818	0.00913795
678.896	0.00928322
678.974	0.00955536
679.052	0.0101231
679.130	0.0107213
679.208	0.0112129
679.287	0.0120209
679.365	0.0129514
679.443	0.0136811
679.521	0.0142596
679.599	0.0150146
679.677	0.0155980
679.755	0.0159513
679.833	0.0161512
679.912	0.0162672
679.990	0.0164400
680.068	0.0167805
680.146	0.0168800
680.224	0.0169427
680.302	0.0172733
680.380	0.0174761
680.458	0.0176489
680.537	0.0178143
680.615	0.0179123
680.693	0.0176167
680.771	0.0174628
680.849	0.0168883
680.927	0.0161892
681.005	0.0152762
681.083	0.0142688
681.162	0.0128949
681.240	0.0114437
681.318	0.0100452
681.396	0.00846466
681.474	0.00730156
681.552	0.00627052
681.630	0.00554108
681.708	0.00511292
681.787	0.00489944
681.865	0.00523796
681.943	0.00553772
682.021	0.00614052
682.099	0.00678734
682.177	0.00763062
682.255	0.00830551
682.333	0.00905235
682.412	0.00969917
682.490	0.0102777
682.568	0.0109620
682.646	0.0118359
682.724	0.0126074
682.802	0.0132381
682.880	0.0140421
682.958	0.0149012
683.037	0.0155677
683.115	0.0164119
683.193	0.0170209
683.271	0.0176287
683.349	0.0180679
683.427	0.0183522
683.505	0.0183579
683.583	0.0182392
683.662	0.0179175
683.740	0.0176638
683.818	0.0168476
683.896	0.0162669
683.974	0.0155548
684.052	0.0149803
684.130	0.0143353
684.208	0.0137895
684.287	0.0132798
684.365	0.0128996
684.443	0.0127293
684.521	0.0128629
684.599	0.0127928
684.677	0.0125253
684.755	0.0125938
684.833	0.0127110
684.912	0.0127685
684.990	0.0126511
685.068	0.0125114
685.146	0.0125577
685.224	0.0123002
685.302	0.0119705
685.380	0.0120321
685.458	0.0116958
685.537	0.0113902
685.615	0.0113256
685.693	0.0110495
685.771	0.0107504
685.849	0.0106248
685.927	0.0103886
686.005	0.0100723
686.083	0.00979034
686.162	0.00964241
686.240	0.00956665
686.318	0.00934761
686.396	0.00943336
686.474	0.00965080
686.552	0.00960114
686.630	0.00981987
686.708	0.0101000
686.787	0.0105840
686.865	0.0110583
686.943	0.0114320
687.021	0.0120448
687.099	0.0125394
687.177	0.0130602
687.255	0.0135683
687.333	0.0141570
687.412	0.0145928
687.490	0.0149689
687.568	0.0151049
687.646	0.0154533
687.724	0.0156387
687.802	0.0156721
687.880	0.0156358
687.958	0.0156570
688.037	0.0156375
688.115	0.0156894
688.193	0.0155048
688.271	0.0153270
688.349	0.0152386
688.427	0.0150410
688.505	0.0147617
688.583	0.0144114
688.662	0.0141471
688.740	0.0138904
688.818	0.0136236
688.896	0.0133051
688.974	0.0130247
689.052	0.0127450
689.130	0.0125507
689.208	0.0123138
689.287	0.0121019
689.365	0.0120038
689.443	0.0119817
689.521	0.0119377
689.599	0.0120026
689.677	0.0123292
689.755	0.0124957
689.833	0.0126989
689.912	0.0127895
689.990	0.0130514
690.068	0.0129076
690.146	0.0128325
690.224	0.0127721
690.302	0.0127521
690.380	0.0123643
690.458	0.0121490
690.537	0.0119308
690.615	0.0117139
690.693	0.0115464
690.771	0.0111275
690.849	0.0108483
690.927	0.0107495
691.005	0.0104793
691.083	0.0101710
691.162	0.00985809
691.240	0.00967392
691.318	0.00962547
691.396	0.00950966
691.474	0.00947617
691.552	0.00960449
691.630	0.00966362
691.708	0.00987633
691.787	0.0102353
691.865	0.0105893
691.943	0.0110966
692.021	0.0116091
692.099	0.0123376
692.177	0.0129996
692.255	0.0138181
692.333	0.0145070
692.412	0.0149786
692.490	0.0154391
692.568	0.0157464
692.646	0.0159978
692.724	0.0160003
692.802	0.0159726
692.880	0.0156706
692.958	0.0153614
693.037	0.0150918
693.115	0.0147787
693.193	0.0146475
693.271	0.0145502
693.349	0.0145023
693.427	0.0146806
693.505	0.0146987
693.583	0.0149741
693.662	0.0152425
693.740	0.0153077
693.818	0.0153100
693.896	0.0152094
693.974	0.0149049
694.052	0.0145631
694.130	0.0142255
694.208	0.0136880
694.287	0.0131654
694.365	0.0126844
694.443	0.0122939
694.521	0.0119270
694.599	0.0115903
694.677	0.0114545
694.755	0.0111636
694.833	0.0108580
694.912	0.0107877
694.990	0.0109253
695.068	0.0107162
695.146	0.0106897
695.224	0.0107381
695.302	0.0106326
695.380	0.0107925
695.458	0.0108992
695.537	0.0106304
695.615	0.0109648
695.693	0.0111985
695.771	0.0114496
695.849	0.0116277
695.927	0.0118033
696.005	0.0120894
696.083	0.0122073
696.162	0.0122686
696.240	0.0119974
696.318	0.0117178
696.396	0.0113602
696.474	0.0109660
696.552	0.0102996
696.630	0.00981567
696.708	0.00942703
696.787	0.00903748
696.865	0.00876839
696.943	0.00898041
697.021	0.00929031
697.099	0.00986771
697.177	0.0102803
697.255	0.0112475
697.333	0.0120913
697.412	0.0129253
697.490	0.0139808
697.568	0.0145430
697.646	0.0153574
697.724	0.0162385
697.802	0.0169293
697.880	0.0174650
697.958	0.0177910
698.037	0.0180633
698.115	0.0182609
698.193	0.0182221
698.271	0.0181497
698.349	0.0178735
698.427	0.0177028
698.505	0.0176242
698.583	0.0170430
698.662	0.0166637
698.740	0.0163728
698.818	0.0159388
698.896	0.0154432
698.974	0.0147920
699.052	0.0142642
699.130	0.0137402
699.208	0.0131563
699.287	0.0127148
699.365	0.0121886
699.443	0.0114108
699.521	0.0109898
699.599	0.0104637
699.677	0.00983673
699.755	0.00939949
699.833	0.00895592
699.912	0.00865471
699.990	0.00798256
700.068	0.00769485
700.146	0.00753922
700.224	0.00738350
700.302	0.00730804
700.380	0.00735466
700.458	0.00772293
700.537	0.00823524
700.615	0.00890205
700.693	0.00950386
700.771	0.0103778
700.849	0.0112490
700.927	0.0121176
701.005	0.0129530
701.083	0.0137418
701.162	0.0144633
701.240	0.0150455
701.318	0.0154213
701.396	0.0157411
701.474	0.0156650
701.552	0.0159202
701.630	0.0157927
701.708	0.0154814
701.787	0.0150430
701.865	0.0144469
701.943	0.0137810
702.021	0.0132832
702.099	0.0127298
702.177	0.0120570
702.255	0.0114507
702.333	0.0109913
702.412	0.0109355
702.490	0.0106599
702.568	0.0107957
702.646	0.0109771
702.724	0.0109827
702.802	0.0114098
702.880	0.0118820
702.958	0.0121531
703.037	0.0126012
703.115	0.0131412
703.193	0.0135828
703.271	0.0141677
703.349	0.0146365
703.427	0.0150817
703.505	0.0154078
703.583	0.0157094
703.662	0.0159812
703.740	0.0160178
703.818	0.0160189
703.896	0.0159072
703.974	0.0155812
704.052	0.0152883
704.130	0.0149043
704.208	0.0145579
704.287	0.0141343
704.365	0.0137888
704.443	0.0134019
704.521	0.0131859
704.599	0.0129014
704.677	0.0127200
704.755	0.0127449
704.833	0.0126280
704.912	0.0124154
704.990	0.0126356
705.068	0.0124966
705.146	0.0121886
705.224	0.0119691
705.302	0.0117519
705.380	0.0115670
705.458	0.0112851
705.537	0.0106670
705.615	0.0102464
705.693	0.0102183
705.771	0.00967728
705.849	0.00956047
705.927	0.00957016
706.005	0.00948990
706.083	0.00980438
706.162	0.0101575
706.240	0.0102527
706.318	0.0106731
706.396	0.0112618
706.474	0.0117301
706.552	0.0124584
706.630	0.0128185
706.708	0.0131691
706.787	0.0138233
706.865	0.0142054
706.943	0.0145448
707.021	0.0147775
707.099	0.0148219
707.177	0.0148958
707.255	0.0147359
707.333	0.0144529
707.412	0.0139671
707.490	0.0135556
707.568	0.0130922
707.646	0.0124306
707.724	0.0120068
707.802	0.0113081
707.880	0.0107997
707.958	0.0105394
708.037	0.0101764
708.115	0.00989029
708.193	0.0100156
708.271	0.0102619
708.349	0.0104954
708.427	0.0107641
708.505	0.0112811
708.583	0.0119360
708.662	0.0126067
708.740	0.0130273
708.818	0.0135170
708.896	0.0140414
708.974	0.0146032
709.052	0.0148442
709.130	0.0153406
709.208	0.0156001
709.287	0.0158968
709.365	0.0162134
709.443	0.0165269
709.521	0.0166638
709.599	0.0166018
709.677	0.0165801
709.755	0.0167479
709.833	0.0165858
709.912	0.0162581
709.990	0.0160171
710.068	0.0158123
710.146	0.0152549
710.224	0.0149295
710.302	0.0143613
710.380	0.0138605
710.458	0.0133849
710.537	0.0128433
710.615	0.0124158
710.693	0.0118369
710.771	0.0112666
710.849	0.0109843
710.927	0.0103233
711.005	0.00970337
711.083	0.00940002
711.162	0.00896584
711.240	0.00847534
711.318	0.00830383
711.396	0.00818039
711.474	0.00817970
711.552	0.00831528
711.630	0.00874115
711.708	0.00907646
711.787	0.00952133
711.865	0.0101633
711.943	0.0106776
712.021	0.0110610
712.099	0.0118652
712.177	0.0125110
712.255	0.0130127
712.333	0.0133540
712.412	0.0136362
712.490	0.0139525
712.568	0.0140517
712.646	0.0142725
712.724	0.0140059
712.802	0.0138966
712.880	0.0138015
712.958	0.0135258
713.037	0.0132581
713.115	0.0130985
713.193	0.0125653
713.271	0.0125072
713.349	0.0123169
713.427	0.0122146
713.505	0.0121095
713.583	0.0120214
713.662	0.0120794
713.740	0.0121427
713.818	0.0119346
713.896	0.0123188
713.974	0.0125674
714.052	0.0126363
714.130	0.0129797
714.208	0.0132256
714.287	0.0136668
714.365	0.0139941
714.443	0.0143202
714.521	0.0146390
714.599	0.0150249
714.677	0.0152782
714.755	0.0152654
714.833	0.0155518
714.912	0.0154140
714.990	0.0151492
715.068	0.0150706
715.146	0.0148494
715.224	0.0145580
715.302	0.0143829
715.380	0.0142028
715.458	0.0140397
715.537	0.0138033
715.615	0.0136977
715.693	0.0136263
715.771	0.0133296
715.849	0.0133964
715.927	0.0132471
716.005	0.0132928
716.083	0.0131819
716.162	0.0131185
716.240	0.0129450
716.318	0.0125579
716.396	0.0122675
716.474	0.0118659
716.552	0.0113375
716.630	0.0111274
716.708	0.0106844
716.787	0.0104725
716.865	0.0101589
716.943	0.0100581
717.021	0.00994881
717.099	0.0100214
717.177	0.00989235
717.255	0.0102192
717.333	0.0106079
717.412	0.0108865
717.490	0.0111288
717.568	0.0113313
717.646	0.0115991
717.724	0.0119679
717.802	0.0121586
717.880	0.0125046
717.958	0.0126334
718.037	0.0128874
718.115	0.0129710
718.193	0.0128820
718.271	0.0127748
718.349	0.0126696
718.427	0.0125229
718.505	0.0124297
718.583	0.0121622
718.662	0.0118224
718.740	0.0115684
718.818	0.0114124
718.896	0.0113697
718.974	0.0112228
719.052	0.0113903
719.130	0.0114840
719.208	0.0118196
719.287	0.0120782
719.365	0.0124164
719.443	0.0129758
719.521	0.0134692
719.599	0.0137622
719.677	0.0140771
719.755	0.0144867
719.833	0.0148961
719.912	0.0151067
719.990	0.0152456
720.068	0.0154647
720.146	0.0154774
720.224	0.0154152
720.302	0.0155685
720.380	0.0153623
720.458	0.0152971
720.537	0.0153465
720.615	0.0149914
720.693	0.0149738
720.771	0.0146828
720.849	0.0144305
720.927	0.0141764
721.005	0.0139423
721.083	0.0137953
721.162	0.0136034
721.240	0.0132566
721.318	0.0128245
721.396	0.0126369
721.474	0.0124931
721.552	0.0121545
721.630	0.0120339
721.708	0.0120126
721.787	0.0117462
721.865	0.0117660
721.943	0.0115947
722.021	0.0115924
722.099	0.0112651
722.177	0.0111964
722.255	0.0111841
722.333	0.0111487
722.412	0.0112116
722.490	0.0109839
722.568	0.0110146
722.646	0.0112000
722.724	0.0112135
722.802	0.0113493
722.880	0.0113528
722.958	0.0114852
723.037	0.0118416
723.115	0.0121973
723.193	0.0124046
723.271	0.0126059
723.349	0.0126512
723.427	0.0126609
723.505	0.0128784
723.583	0.0126308
723.662	0.0124485
723.740	0.0123495
723.818	0.0119404
723.896	0.0116603
723.974	0.0113688
724.052	0.0111101
724.130	0.0110202
724.208	0.0107927
724.287	0.0107560
724.365	0.0106912
724.443	0.0105903
724.521	0.0107644
724.599	0.0110518
724.677	0.0114173
724.755	0.0116671
724.833	0.0121812
724.912	0.0124076
724.990	0.0130031
725.068	0.0135789
725.146	0.0138758
725.224	0.0143559
725.302	0.0145934
725.380	0.0151263
725.458	0.0154642
725.537	0.0157110
725.615	0.0158230
725.693	0.0158600
725.771	0.0158228
725.849	0.0157880
725.927	0.0156095
726.005	0.0154475
726.083	0.0153015
726.162	0.0148554
726.240	0.0145746
726.318	0.0143124
726.396	0.0140857
726.474	0.0137306
726.552	0.0134062
726.630	0.0131433
726.708	0.0130860
726.787	0.0128082
726.865	0.0124543
726.943	0.0123567
727.021	0.0121600
727.099	0.0119515
727.177	0.0118766
727.255	0.0114265
727.333	0.0112635
727.412	0.0111081
727.490	0.0109249
727.568	0.0108097
727.646	0.0108494
727.724	0.0108737
727.802	0.0109308
727.880	0.0109441
727.958	0.0111301
728.037	0.0113828
728.115	0.0116109
728.193	0.0117467
728.271	0.0119437
728.349	0.0121888
728.427	0.0125286
728.505	0.0127137
728.583	0.0128419
728.662	0.0129952
728.740	0.0131134
728.818	0.0133575
728.896	0.0131329
728.974	0.0131190
729.052	0.0131399
729.130	0.0129514
729.208	0.0130296
729.287	0.0129016
729.365	0.0127079
729.443	0.0124622
729.521	0.0123254
729.599	0.0123184
729.677	0.0120201
729.755	0.0119305
729.833	0.0118346
729.912	0.0118726
729.990	0.0118270
730.068	0.0118348
730.146	0.0118270
730.224	0.0118545
730.302	0.0119064
730.380	0.0121047
730.458	0.0123053
730.537	0.0123225
730.615	0.0124974
730.693	0.0125249
730.771	0.0127003
730.849	0.0128360
730.927	0.0130650
731.005	0.0132272
731.083	0.0133484
731.162	0.0133740
731.240	0.0134883
731.318	0.0137139
731.396	0.0136787
731.474	0.0136926
731.552	0.0139044
731.630	0.0138302
731.708	0.0139033
731.787	0.0138969
731.865	0.0137846
731.943	0.0137802
732.021	0.0137314
732.099	0.0136160
732.177	0.0135056
732.255	0.0133794
732.333	0.0134247
732.412	0.0133075
732.490	0.0132671
732.568	0.0131120
732.646	0.0132623
732.724	0.0132353
732.802	0.0132527
732.880	0.0131521
732.958	0.0132462
733.037	0.0132040
733.115	0.0131017
733.193	0.0131153
733.271	0.0130273
733.349	0.0127634
733.427	0.0126640
733.505	0.0125847
733.583	0.0124525
733.662	0.0126268
733.740	0.0122682
733.818	0.0122469
733.896	0.0121605
733.974	0.0121587
734.052	0.0120885
734.130	0.0121441
734.208	0.0121181
734.287	0.0121073
734.365	0.0119064
734.443	0.0119361
734.521	0.0117877
734.599	0.0118036
734.677	0.0119672
734.755	0.0118848
734.833	0.0117390
734.912	0.0117940
734.990	0.0120678
735.068	0.0120692
735.146	0.0121521
735.224	0.0122358
735.302	0.0123846
735.380	0.0124618
