05/08/2022	19:50:10	Ver.	4.1	UNKNOWN
Optical Delay	649.989667	Delta X		0.078125	Sweeps	1	Scan Rate	0/0
Coordinates	Axis 1	NaN	Axis 2	NaN	Axis 3	NaN	Axis 4	NaN	Axis 5	NaN	Axis 6	0.000000
TX Power	0.000000	RX Power	0.000000

649.990	0.0125005
650.068	0.0125616
650.146	0.0126087
650.224	0.0125879
650.302	0.0125513
650.380	0.0124924
650.458	0.0125130
650.537	0.0124506
650.615	0.0126202
650.693	0.0125271
650.771	0.0126043
650.849	0.0126754
650.927	0.0125378
651.005	0.0125404
651.083	0.0126673
651.162	0.0126437
651.240	0.0126258
651.318	0.0125516
651.396	0.0127280
651.474	0.0125702
651.552	0.0126000
651.630	0.0125717
651.708	0.0125259
651.787	0.0125726
651.865	0.0126527
651.943	0.0126472
652.021	0.0125198
652.099	0.0124697
652.177	0.0126349
652.255	0.0126318
652.333	0.0124916
652.412	0.0125806
652.490	0.0125220
652.568	0.0124586
652.646	0.0126170
652.724	0.0125496
652.802	0.0125839
652.880	0.0126007
652.958	0.0126290
653.037	0.0126615
653.115	0.0126136
653.193	0.0123904
653.271	0.0126109
653.349	0.0127203
653.427	0.0124216
653.505	0.0124806
653.583	0.0125574
653.662	0.0125743
653.740	0.0126236
653.818	0.0125994
653.896	0.0125712
653.974	0.0125073
654.052	0.0125098
654.130	0.0124168
654.208	0.0125607
654.287	0.0124896
654.365	0.0125388
654.443	0.0126144
654.521	0.0125650
654.599	0.0124578
654.677	0.0124325
654.755	0.0125852
654.833	0.0125032
654.912	0.0125591
654.990	0.0125185
655.068	0.0127093
655.146	0.0125552
655.224	0.0125166
655.302	0.0126369
655.380	0.0125832
655.458	0.0125790
655.537	0.0125521
655.615	0.0126450
655.693	0.0125434
655.771	0.0125872
655.849	0.0125832
655.927	0.0125900
656.005	0.0126457
656.083	0.0125073
656.162	0.0127173
656.240	0.0126505
656.318	0.0125719
656.396	0.0126263
656.474	0.0126350
656.552	0.0125704
656.630	0.0126696
656.708	0.0126302
656.787	0.0125511
656.865	0.0126750
656.943	0.0125908
657.021	0.0126062
657.099	0.0126216
657.177	0.0125748
657.255	0.0125469
657.333	0.0124309
657.412	0.0125866
657.490	0.0126430
657.568	0.0126089
657.646	0.0125337
657.724	0.0125409
657.802	0.0125537
657.880	0.0125433
657.958	0.0125672
658.037	0.0127361
658.115	0.0125506
658.193	0.0126375
658.271	0.0126575
658.349	0.0125620
658.427	0.0124849
658.505	0.0126804
658.583	0.0127013
658.662	0.0126821
658.740	0.0125472
658.818	0.0125551
658.896	0.0124741
658.974	0.0126424
659.052	0.0125660
659.130	0.0124723
659.208	0.0125960
659.287	0.0126195
659.365	0.0125824
659.443	0.0126936
659.521	0.0125718
659.599	0.0125300
659.677	0.0125834
659.755	0.0125443
659.833	0.0125011
659.912	0.0125662
659.990	0.0124996
660.068	0.0125767
660.146	0.0124957
660.224	0.0124788
660.302	0.0125915
660.380	0.0125708
660.458	0.0125946
660.537	0.0124609
660.615	0.0124718
660.693	0.0126322
660.771	0.0125801
660.849	0.0124621
660.927	0.0126095
661.005	0.0125491
661.083	0.0124138
661.162	0.0124464
661.240	0.0126251
661.318	0.0125227
661.396	0.0126527
661.474	0.0125718
661.552	0.0124932
661.630	0.0126267
661.708	0.0125155
661.787	0.0125352
661.865	0.0125540
661.943	0.0125985
662.021	0.0126852
662.099	0.0124329
662.177	0.0125083
662.255	0.0124847
662.333	0.0124728
662.412	0.0126152
662.490	0.0126989
662.568	0.0125665
662.646	0.0124627
662.724	0.0126207
662.802	0.0124641
662.880	0.0126019
662.958	0.0125307
663.037	0.0125140
663.115	0.0126260
663.193	0.0124979
663.271	0.0126301
663.349	0.0125947
663.427	0.0126668
663.505	0.0125780
663.583	0.0124225
663.662	0.0125982
663.740	0.0126995
663.818	0.0125175
663.896	0.0126461
663.974	0.0126817
664.052	0.0126026
664.130	0.0126030
664.208	0.0126556
664.287	0.0125857
664.365	0.0125600
664.443	0.0126015
664.521	0.0125125
664.599	0.0126258
664.677	0.0125231
664.755	0.0123912
664.833	0.0125382
664.912	0.0125932
664.990	0.0124153
665.068	0.0125896
665.146	0.0125438
665.224	0.0125308
665.302	0.0126312
665.380	0.0126004
665.458	0.0125412
665.537	0.0126145
665.615	0.0127286
665.693	0.0126337
665.771	0.0126155
665.849	0.0123737
665.927	0.0122556
666.005	0.0122285
666.083	0.0122701
666.162	0.0120586
666.240	0.0121680
666.318	0.0122070
666.396	0.0122741
666.474	0.0125681
666.552	0.0125616
666.630	0.0127477
666.708	0.0129536
666.787	0.0129606
666.865	0.0128908
666.943	0.0129844
667.021	0.0131286
667.099	0.0129182
667.177	0.0128482
667.255	0.0127411
667.333	0.0126531
667.412	0.0125283
667.490	0.0124033
667.568	0.0124225
667.646	0.0121859
667.724	0.0122215
667.802	0.0120797
667.880	0.0119707
667.958	0.0119653
668.037	0.0118737
668.115	0.0119665
668.193	0.0119644
668.271	0.0121149
668.349	0.0122013
668.427	0.0124077
668.505	0.0125478
668.583	0.0128907
668.662	0.0128883
668.740	0.0129868
668.818	0.0130212
668.896	0.0129207
668.974	0.0129178
669.052	0.0126948
669.130	0.0125890
669.208	0.0124892
669.287	0.0124545
669.365	0.0123994
669.443	0.0123940
669.521	0.0125549
669.599	0.0126867
669.677	0.0128902
669.755	0.0129275
669.833	0.0131544
669.912	0.0132442
669.990	0.0130379
670.068	0.0130995
670.146	0.0128664
670.224	0.0126409
670.302	0.0122890
670.380	0.0120319
670.458	0.0120391
670.537	0.0117801
670.615	0.0116383
670.693	0.0117302
670.771	0.0116428
670.849	0.0117516
670.927	0.0118264
671.005	0.0119530
671.083	0.0121892
671.162	0.0122299
671.240	0.0125928
671.318	0.0128077
671.396	0.0126496
671.474	0.0126080
671.552	0.0127081
671.630	0.0124265
671.708	0.0122819
671.787	0.0121324
671.865	0.0120708
671.943	0.0119981
672.021	0.0121501
672.099	0.0122385
672.177	0.0124994
672.255	0.0128288
672.333	0.0132330
672.412	0.0135737
672.490	0.0139175
672.568	0.0141978
672.646	0.0143176
672.724	0.0142695
672.802	0.0142783
672.880	0.0141236
672.958	0.0137973
673.037	0.0134779
673.115	0.0129106
673.193	0.0123152
673.271	0.0119864
673.349	0.0117290
673.427	0.0114741
673.505	0.0112884
673.583	0.0114575
673.662	0.0115810
673.740	0.0115369
673.818	0.0116270
673.896	0.0116299
673.974	0.0116929
674.052	0.0116241
674.130	0.0115034
674.208	0.0114758
674.287	0.0113499
674.365	0.0111986
674.443	0.0109991
674.521	0.0111983
674.599	0.0111497
674.677	0.0112928
674.755	0.0113747
674.833	0.0117178
674.912	0.0121162
674.990	0.0123996
675.068	0.0126736
675.146	0.0129666
675.224	0.0132486
675.302	0.0135964
675.380	0.0138714
675.458	0.0140250
675.537	0.0142989
675.615	0.0145663
675.693	0.0148144
675.771	0.0151244
675.849	0.0153759
675.927	0.0153862
676.005	0.0154472
676.083	0.0154420
676.162	0.0152499
676.240	0.0149066
676.318	0.0142037
676.396	0.0137521
676.474	0.0132812
676.552	0.0125951
676.630	0.0120296
676.708	0.0114553
676.787	0.0109262
676.865	0.0105015
676.943	0.0104846
677.021	0.0103973
677.099	0.0103309
677.177	0.0105447
677.255	0.0107886
677.333	0.0110122
677.412	0.0111387
677.490	0.0112309
677.568	0.0111086
677.646	0.0109843
677.724	0.0108386
677.802	0.0105161
677.880	0.0101974
677.958	0.00987228
678.037	0.00955948
678.115	0.00962112
678.193	0.00945900
678.271	0.00953445
678.349	0.00988495
678.427	0.0102955
678.505	0.0110117
678.583	0.0116737
678.662	0.0123770
678.740	0.0135198
678.818	0.0142561
678.896	0.0150396
678.974	0.0156400
679.052	0.0161658
679.130	0.0165815
679.208	0.0169221
679.287	0.0171162
679.365	0.0172453
679.443	0.0171207
679.521	0.0173473
679.599	0.0173215
679.677	0.0171546
679.755	0.0171555
679.833	0.0170687
679.912	0.0168224
679.990	0.0164814
680.068	0.0161272
680.146	0.0158054
680.224	0.0152705
680.302	0.0144839
680.380	0.0136580
680.458	0.0127438
680.537	0.0115278
680.615	0.0102567
680.693	0.00886063
680.771	0.00751785
680.849	0.00619713
680.927	0.00528801
681.005	0.00446709
681.083	0.00418167
681.162	0.00387520
681.240	0.00407188
681.318	0.00464836
681.396	0.00534882
681.474	0.00644096
681.552	0.00738586
681.630	0.00857262
681.708	0.00979362
681.787	0.0109034
681.865	0.0122108
681.943	0.0131174
682.021	0.0141656
682.099	0.0148960
682.177	0.0155483
682.255	0.0163387
682.333	0.0167015
682.412	0.0171041
682.490	0.0175806
682.568	0.0178619
682.646	0.0178570
682.724	0.0179702
682.802	0.0178594
682.880	0.0176527
682.958	0.0173737
683.037	0.0170698
683.115	0.0165108
683.193	0.0159868
683.271	0.0153674
683.349	0.0148727
683.427	0.0142657
683.505	0.0139559
683.583	0.0134097
683.662	0.0129443
683.740	0.0127299
683.818	0.0123995
683.896	0.0122182
683.974	0.0121497
684.052	0.0121488
684.130	0.0121118
684.208	0.0121035
684.287	0.0120792
684.365	0.0120857
684.443	0.0118540
684.521	0.0114796
684.599	0.0110439
684.677	0.0108823
684.755	0.0104877
684.833	0.0101601
684.912	0.0100070
684.990	0.00951134
685.068	0.00942467
685.146	0.00920830
685.224	0.00927444
685.302	0.00889877
685.380	0.00894218
685.458	0.00887222
685.537	0.00903458
685.615	0.00906448
685.693	0.00896111
685.771	0.00934486
685.849	0.00961472
685.927	0.00978470
686.005	0.0104427
686.083	0.0108911
686.162	0.0115319
686.240	0.0122851
686.318	0.0131852
686.396	0.0139959
686.474	0.0149438
686.552	0.0156148
686.630	0.0161716
686.708	0.0164320
686.787	0.0168073
686.865	0.0168624
686.943	0.0165801
687.021	0.0162724
687.099	0.0161275
687.177	0.0156867
687.255	0.0151258
687.333	0.0148533
687.412	0.0147694
687.490	0.0145448
687.568	0.0141273
687.646	0.0141262
687.724	0.0138696
687.802	0.0137566
687.880	0.0135467
687.958	0.0134068
688.037	0.0131187
688.115	0.0126927
688.193	0.0124674
688.271	0.0121646
688.349	0.0118908
688.427	0.0114932
688.505	0.0111785
688.583	0.0108949
688.662	0.0108637
688.740	0.0111191
688.818	0.0111060
688.896	0.0111137
688.974	0.0113670
689.052	0.0116974
689.130	0.0118700
689.208	0.0123299
689.287	0.0124086
689.365	0.0127137
689.443	0.0128586
689.521	0.0127583
689.599	0.0126502
689.677	0.0124009
689.755	0.0122630
689.833	0.0120455
689.912	0.0116523
689.990	0.0114307
690.068	0.0110558
690.146	0.0108283
690.224	0.0103408
690.302	0.0101192
690.380	0.00990311
690.458	0.00974594
690.537	0.00963943
690.615	0.00967903
690.693	0.00994316
690.771	0.0101411
690.849	0.0104593
690.927	0.0105711
691.005	0.0109053
691.083	0.0112695
691.162	0.0116296
691.240	0.0122477
691.318	0.0125217
691.396	0.0129415
691.474	0.0134711
691.552	0.0138553
691.630	0.0145151
691.708	0.0149919
691.787	0.0152872
691.865	0.0153709
691.943	0.0155923
692.021	0.0156088
692.099	0.0154700
692.177	0.0151684
692.255	0.0149944
692.333	0.0146767
692.412	0.0143276
692.490	0.0142687
692.568	0.0141340
692.646	0.0141122
692.724	0.0139754
692.802	0.0142409
692.880	0.0142290
692.958	0.0141965
693.037	0.0143281
693.115	0.0142435
693.193	0.0142078
693.271	0.0139572
693.349	0.0136208
693.427	0.0134412
693.505	0.0129745
693.583	0.0124976
693.662	0.0121655
693.740	0.0116488
693.818	0.0112508
693.896	0.0109168
693.974	0.0108633
694.052	0.0106892
694.130	0.0105933
694.208	0.0106199
694.287	0.0107478
694.365	0.0108330
694.443	0.0108089
694.521	0.0110010
694.599	0.0112293
694.677	0.0113055
694.755	0.0114022
694.833	0.0118728
694.912	0.0119182
694.990	0.0118681
695.068	0.0119697
695.146	0.0120498
695.224	0.0120503
695.302	0.0122135
695.380	0.0119819
695.458	0.0119646
695.537	0.0116963
695.615	0.0114420
695.693	0.0111909
695.771	0.0107314
695.849	0.0103822
695.927	0.0100746
696.005	0.00965752
696.083	0.00947838
696.162	0.00946327
696.240	0.00935501
696.318	0.00959045
696.396	0.00978355
696.474	0.0100896
696.552	0.0104790
696.630	0.0111716
696.708	0.0119633
696.787	0.0126721
696.865	0.0134044
696.943	0.0143691
697.021	0.0151288
697.099	0.0159584
697.177	0.0165241
697.255	0.0174210
697.333	0.0178501
697.412	0.0183920
697.490	0.0185217
697.568	0.0185882
697.646	0.0186315
697.724	0.0185729
697.802	0.0182510
697.880	0.0178516
697.958	0.0175613
698.037	0.0170811
698.115	0.0164706
698.193	0.0157956
698.271	0.0149854
698.349	0.0142815
698.427	0.0135169
698.505	0.0126374
698.583	0.0117301
698.662	0.0109593
698.740	0.0103889
698.818	0.00997719
698.896	0.00912682
698.974	0.00874443
699.052	0.00836861
699.130	0.00791626
699.208	0.00761787
699.287	0.00746452
699.365	0.00726700
699.443	0.00720665
699.521	0.00725151
699.599	0.00748962
699.677	0.00764168
699.755	0.00820511
699.833	0.00886642
699.912	0.00951088
699.990	0.0100741
700.068	0.0107854
700.146	0.0116999
700.224	0.0123872
700.302	0.0129135
700.380	0.0136684
700.458	0.0141571
700.537	0.0146911
700.615	0.0148104
700.693	0.0149240
700.771	0.0151302
700.849	0.0149947
700.927	0.0148045
701.005	0.0145435
701.083	0.0141473
701.162	0.0136465
701.240	0.0132129
701.318	0.0126971
701.396	0.0123698
701.474	0.0120886
701.552	0.0117234
701.630	0.0115286
701.708	0.0114275
701.787	0.0113982
701.865	0.0115490
701.943	0.0116444
702.021	0.0117377
702.099	0.0119962
702.177	0.0121358
702.255	0.0125015
702.333	0.0129862
702.412	0.0132792
702.490	0.0136255
702.568	0.0142092
702.646	0.0147943
702.724	0.0152154
702.802	0.0157600
702.880	0.0159880
702.958	0.0162343
703.037	0.0164545
703.115	0.0163834
703.193	0.0162499
703.271	0.0159610
703.349	0.0152910
703.427	0.0148263
703.505	0.0141581
703.583	0.0135741
703.662	0.0129411
703.740	0.0124574
703.818	0.0120989
703.896	0.0116325
703.974	0.0113925
704.052	0.0111227
704.130	0.0110924
704.208	0.0111211
704.287	0.0111650
704.365	0.0110818
704.443	0.0108713
704.521	0.0109127
704.599	0.0107262
704.677	0.0107078
704.755	0.0104670
704.833	0.0103599
704.912	0.0102510
704.990	0.00994164
705.068	0.00993172
705.146	0.0100024
705.224	0.00989761
705.302	0.00998329
705.380	0.0102814
705.458	0.0103220
705.537	0.0105262
705.615	0.0109152
705.693	0.0113368
705.771	0.0117141
705.849	0.0123159
705.927	0.0127701
706.005	0.0134229
706.083	0.0138167
706.162	0.0141105
706.240	0.0147707
706.318	0.0150220
706.396	0.0150227
706.474	0.0154597
706.552	0.0152007
706.630	0.0149447
706.708	0.0146964
706.787	0.0142088
706.865	0.0136686
706.943	0.0129979
707.021	0.0122720
707.099	0.0116586
707.177	0.0109532
707.255	0.0104350
707.333	0.0101550
707.412	0.00995544
707.490	0.0100246
707.568	0.0100367
707.646	0.0102249
707.724	0.0106735
707.802	0.0108891
707.880	0.0112082
707.958	0.0118438
708.037	0.0122027
708.115	0.0125726
708.193	0.0130887
708.271	0.0137163
708.349	0.0140738
708.427	0.0145200
708.505	0.0148270
708.583	0.0150095
708.662	0.0152631
708.740	0.0154024
708.818	0.0157693
708.896	0.0159708
708.974	0.0160046
709.052	0.0160400
709.130	0.0158332
709.208	0.0157867
709.287	0.0157663
709.365	0.0154044
709.443	0.0150591
709.521	0.0146976
709.599	0.0143069
709.677	0.0139931
709.755	0.0134777
709.833	0.0129263
709.912	0.0125584
709.990	0.0119851
710.068	0.0115400
710.146	0.0109939
710.224	0.0107262
710.302	0.0100458
710.380	0.00960373
710.458	0.00933411
710.537	0.00887276
710.615	0.00847099
710.693	0.00827286
710.771	0.00818863
710.849	0.00821426
710.927	0.00844055
711.005	0.00857826
711.083	0.00905586
711.162	0.00937874
711.240	0.0100090
711.318	0.0105915
711.396	0.0111791
711.474	0.0119123
711.552	0.0124478
711.630	0.0130845
711.708	0.0135255
711.787	0.0136890
711.865	0.0141384
711.943	0.0144655
712.021	0.0145988
712.099	0.0146661
712.177	0.0145988
712.255	0.0144028
712.333	0.0141203
712.412	0.0139410
712.490	0.0135186
712.568	0.0131079
712.646	0.0126234
712.724	0.0122458
712.802	0.0117833
712.880	0.0114639
712.958	0.0112105
713.037	0.0108841
713.115	0.0108478
713.193	0.0108852
713.271	0.0110397
713.349	0.0110960
713.427	0.0114965
713.505	0.0118781
713.583	0.0122874
713.662	0.0126754
713.740	0.0133190
713.818	0.0136948
713.896	0.0142073
713.974	0.0146657
714.052	0.0148907
714.130	0.0151072
714.208	0.0152840
714.287	0.0153553
714.365	0.0156002
714.443	0.0154125
714.521	0.0152279
714.599	0.0151369
714.677	0.0150800
714.755	0.0148128
714.833	0.0146986
714.912	0.0145924
714.990	0.0141979
715.068	0.0140897
715.146	0.0140276
715.224	0.0137125
715.302	0.0134734
715.380	0.0132747
715.458	0.0129583
715.537	0.0126241
715.615	0.0122760
715.693	0.0119380
715.771	0.0113339
715.849	0.0107596
715.927	0.0102779
716.005	0.0101551
716.083	0.00978302
716.162	0.00960533
716.240	0.00933784
716.318	0.00929016
716.396	0.00939835
716.474	0.00942360
716.552	0.00964027
716.630	0.00974411
716.708	0.00997841
716.787	0.0102029
716.865	0.0106449
716.943	0.0110088
717.021	0.0112514
717.099	0.0116737
717.177	0.0119217
717.255	0.0123117
717.333	0.0127110
717.412	0.0130002
717.490	0.0132066
717.568	0.0134882
717.646	0.0136004
717.724	0.0136742
717.802	0.0135305
717.880	0.0135547
717.958	0.0131552
718.037	0.0130768
718.115	0.0127152
718.193	0.0121655
718.271	0.0118893
718.349	0.0116194
718.427	0.0112897
718.505	0.0111900
718.583	0.0111959
718.662	0.0113479
718.740	0.0114917
718.818	0.0116616
718.896	0.0120113
718.974	0.0123869
719.052	0.0127718
719.130	0.0132081
719.208	0.0135891
719.287	0.0140369
719.365	0.0145914
719.443	0.0149281
719.521	0.0152089
719.599	0.0153237
719.677	0.0154237
719.755	0.0155378
719.833	0.0154279
719.912	0.0152522
719.990	0.0151614
720.068	0.0150742
720.146	0.0147721
720.224	0.0143744
720.302	0.0142302
720.380	0.0139746
720.458	0.0135982
720.537	0.0132011
720.615	0.0128398
720.693	0.0126759
720.771	0.0125673
720.849	0.0122637
720.927	0.0123502
721.005	0.0120733
721.083	0.0118872
721.162	0.0119633
721.240	0.0119258
721.318	0.0118689
721.396	0.0117588
721.474	0.0116998
721.552	0.0116585
721.630	0.0113599
721.708	0.0112141
721.787	0.0109186
721.865	0.0108331
721.943	0.0107203
722.021	0.0105267
722.099	0.0106243
722.177	0.0105833
722.255	0.0106651
722.333	0.0109466
722.412	0.0111853
722.490	0.0113473
722.568	0.0116359
722.646	0.0117847
722.724	0.0119656
722.802	0.0120728
722.880	0.0123135
722.958	0.0124586
723.037	0.0124693
723.115	0.0124469
723.193	0.0122661
723.271	0.0121359
723.349	0.0121751
723.427	0.0119293
723.505	0.0118022
723.583	0.0115049
723.662	0.0115041
723.740	0.0112965
723.818	0.0111555
723.896	0.0109615
723.974	0.0109908
724.052	0.0110344
724.130	0.0111813
724.208	0.0114056
724.287	0.0115796
724.365	0.0120292
724.443	0.0124787
724.521	0.0128336
724.599	0.0133926
724.677	0.0139223
724.755	0.0144090
724.833	0.0148473
724.912	0.0150677
724.990	0.0154391
725.068	0.0159373
725.146	0.0159966
725.224	0.0160425
725.302	0.0158799
725.380	0.0156965
725.458	0.0155390
725.537	0.0153702
725.615	0.0147437
725.693	0.0145856
725.771	0.0143262
725.849	0.0138928
725.927	0.0136441
726.005	0.0133224
726.083	0.0129588
726.162	0.0126972
726.240	0.0124322
726.318	0.0122757
726.396	0.0120750
726.474	0.0116765
726.552	0.0114413
726.630	0.0113706
726.708	0.0114150
726.787	0.0111592
726.865	0.0111246
726.943	0.0110996
727.021	0.0109667
727.099	0.0108170
727.177	0.0109302
727.255	0.0110585
727.333	0.0110236
727.412	0.0111009
727.490	0.0112739
727.568	0.0114365
727.646	0.0115031
727.724	0.0115015
727.802	0.0117156
727.880	0.0120113
727.958	0.0120760
728.037	0.0124895
728.115	0.0126299
728.193	0.0125520
728.271	0.0128216
728.349	0.0128974
728.427	0.0128770
728.505	0.0129752
728.583	0.0128489
728.662	0.0128507
728.740	0.0126926
728.818	0.0124857
728.896	0.0124023
728.974	0.0122880
729.052	0.0121039
729.130	0.0119360
729.208	0.0117767
729.287	0.0118114
729.365	0.0115513
729.443	0.0113484
729.521	0.0112624
729.599	0.0112149
729.677	0.0114567
729.755	0.0114217
729.833	0.0114544
729.912	0.0115923
729.990	0.0119708
730.068	0.0121992
730.146	0.0124187
730.224	0.0125896
730.302	0.0129835
730.380	0.0130603
730.458	0.0133772
730.537	0.0135719
730.615	0.0137218
730.693	0.0139288
730.771	0.0141788
730.849	0.0141222
730.927	0.0141878
731.005	0.0141875
731.083	0.0141044
731.162	0.0140666
731.240	0.0138530
731.318	0.0137691
731.396	0.0137511
731.474	0.0135560
731.552	0.0133113
731.630	0.0132870
731.708	0.0132588
731.787	0.0131770
731.865	0.0130402
731.943	0.0129874
732.021	0.0130508
732.099	0.0129532
732.177	0.0129985
732.255	0.0129705
732.333	0.0129668
732.412	0.0128572
732.490	0.0128976
732.568	0.0128107
732.646	0.0127111
732.724	0.0126744
732.802	0.0126602
732.880	0.0124007
732.958	0.0122855
733.037	0.0119646
733.115	0.0120375
733.193	0.0118853
733.271	0.0117715
733.349	0.0115211
733.427	0.0114352
733.505	0.0115736
733.583	0.0116502
733.662	0.0117348
733.740	0.0115808
733.818	0.0117356
733.896	0.0118795
733.974	0.0118034
734.052	0.0118406
734.130	0.0117902
734.208	0.0118388
734.287	0.0119751
734.365	0.0121163
734.443	0.0120692
734.521	0.0120495
734.599	0.0121795
734.677	0.0122907
734.755	0.0123689
734.833	0.0123598
734.912	0.0123122
734.990	0.0124028
735.068	0.0124473
735.146	0.0125242
735.224	0.0122001
735.302	0.0122485
735.380	0.0123491
