05/08/2022	19:57:01	Ver.	4.1	UNKNOWN
Optical Delay	649.989667	Delta X		0.078125	Sweeps	1	Scan Rate	0/0
Coordinates	Axis 1	NaN	Axis 2	NaN	Axis 3	NaN	Axis 4	NaN	Axis 5	NaN	Axis 6	0.000000
TX Power	0.000000	RX Power	0.000000

649.990	0.0142002
650.068	0.0142153
650.146	0.0141617
650.224	0.0142208
650.302	0.0140952
650.380	0.0142652
650.458	0.0141573
650.537	0.0140355
650.615	0.0142036
650.693	0.0142584
650.771	0.0142351
650.849	0.0142915
650.927	0.0142470
651.005	0.0142876
651.083	0.0141443
651.162	0.0141287
651.240	0.0142303
651.318	0.0141489
651.396	0.0141536
651.474	0.0141956
651.552	0.0141357
651.630	0.0141611
651.708	0.0141927
651.787	0.0141631
651.865	0.0142049
651.943	0.0141042
652.021	0.0141246
652.099	0.0141269
652.177	0.0142180
652.255	0.0143753
652.333	0.0142369
652.412	0.0141802
652.490	0.0142207
652.568	0.0142798
652.646	0.0142480
652.724	0.0140604
652.802	0.0142738
652.880	0.0141131
652.958	0.0141556
653.037	0.0141170
653.115	0.0140714
653.193	0.0140752
653.271	0.0140214
653.349	0.0140717
653.427	0.0141399
653.505	0.0140845
653.583	0.0141354
653.662	0.0142030
653.740	0.0141876
653.818	0.0141240
653.896	0.0140176
653.974	0.0141592
654.052	0.0141607
654.130	0.0141619
654.208	0.0142209
654.287	0.0141700
654.365	0.0141439
654.443	0.0140282
654.521	0.0140981
654.599	0.0140369
654.677	0.0140881
654.755	0.0140983
654.833	0.0140723
654.912	0.0140939
654.990	0.0141411
655.068	0.0140769
655.146	0.0139995
655.224	0.0140335
655.302	0.0140089
655.380	0.0140360
655.458	0.0140173
655.537	0.0140370
655.615	0.0139977
655.693	0.0140366
655.771	0.0141031
655.849	0.0140453
655.927	0.0139391
656.005	0.0138491
656.083	0.0139838
656.162	0.0139754
656.240	0.0139714
656.318	0.0139425
656.396	0.0140749
656.474	0.0140659
656.552	0.0142328
656.630	0.0143500
656.708	0.0143478
656.787	0.0145110
656.865	0.0145671
656.943	0.0146063
657.021	0.0146480
657.099	0.0146037
657.177	0.0146529
657.255	0.0146500
657.333	0.0144917
657.412	0.0142605
657.490	0.0141685
657.568	0.0141829
657.646	0.0142566
657.724	0.0141763
657.802	0.0140931
657.880	0.0141053
657.958	0.0140023
658.037	0.0138739
658.115	0.0138493
658.193	0.0136329
658.271	0.0136981
658.349	0.0136385
658.427	0.0135414
658.505	0.0136822
658.583	0.0135375
658.662	0.0134274
658.740	0.0134689
658.818	0.0135224
658.896	0.0136485
658.974	0.0137109
659.052	0.0137305
659.130	0.0139550
659.208	0.0139947
659.287	0.0143926
659.365	0.0145736
659.443	0.0147507
659.521	0.0149232
659.599	0.0151469
659.677	0.0153174
659.755	0.0155675
659.833	0.0157243
659.912	0.0156360
659.990	0.0154919
660.068	0.0154299
660.146	0.0153487
660.224	0.0151982
660.302	0.0149402
660.380	0.0150117
660.458	0.0146291
660.537	0.0144587
660.615	0.0142543
660.693	0.0139919
660.771	0.0138581
660.849	0.0135668
660.927	0.0134751
661.005	0.0132622
661.083	0.0129263
661.162	0.0126840
661.240	0.0125287
661.318	0.0125282
661.396	0.0122866
661.474	0.0121595
661.552	0.0121198
661.630	0.0121736
661.708	0.0122683
661.787	0.0123089
661.865	0.0126162
661.943	0.0129488
662.021	0.0134152
662.099	0.0138134
662.177	0.0142553
662.255	0.0146609
662.333	0.0152200
662.412	0.0155244
662.490	0.0160787
662.568	0.0162919
662.646	0.0163824
662.724	0.0166611
662.802	0.0169581
662.880	0.0170287
662.958	0.0170510
663.037	0.0169488
663.115	0.0168139
663.193	0.0166046
663.271	0.0164935
663.349	0.0161717
663.427	0.0157195
663.505	0.0155633
663.583	0.0150519
663.662	0.0147480
663.740	0.0142461
663.818	0.0138850
663.896	0.0133821
663.974	0.0128080
664.052	0.0123869
664.130	0.0120182
664.208	0.0115336
664.287	0.0113220
664.365	0.0111237
664.443	0.0108420
664.521	0.0106175
664.599	0.0107259
664.677	0.0109038
664.755	0.0110049
664.833	0.0110988
664.912	0.0114983
664.990	0.0119077
665.068	0.0123222
665.146	0.0128120
665.224	0.0134007
665.302	0.0139304
665.380	0.0146492
665.458	0.0151122
665.537	0.0156797
665.615	0.0161773
665.693	0.0166180
665.771	0.0169321
665.849	0.0173189
665.927	0.0175660
666.005	0.0175091
666.083	0.0174072
666.162	0.0174464
666.240	0.0173376
666.318	0.0171125
666.396	0.0168604
666.474	0.0166527
666.552	0.0161635
666.630	0.0158203
666.708	0.0154243
666.787	0.0149725
666.865	0.0146328
666.943	0.0142553
667.021	0.0139349
667.099	0.0135182
667.177	0.0130069
667.255	0.0127775
667.333	0.0124738
667.412	0.0123773
667.490	0.0122980
667.568	0.0121139
667.646	0.0119664
667.724	0.0120705
667.802	0.0119357
667.880	0.0120885
667.958	0.0121853
668.037	0.0122421
668.115	0.0124608
668.193	0.0125666
668.271	0.0127193
668.349	0.0127959
668.427	0.0130645
668.505	0.0131239
668.583	0.0135375
668.662	0.0135343
668.740	0.0138027
668.818	0.0142828
668.896	0.0144091
668.974	0.0146270
669.052	0.0148510
669.130	0.0150798
669.208	0.0153503
669.287	0.0154099
669.365	0.0155447
669.443	0.0155402
669.521	0.0156007
669.599	0.0154965
669.677	0.0154612
669.755	0.0152019
669.833	0.0150310
669.912	0.0150118
669.990	0.0147666
670.068	0.0144487
670.146	0.0143781
670.224	0.0141944
670.302	0.0140015
670.380	0.0139432
670.458	0.0139661
670.537	0.0140414
670.615	0.0141527
670.693	0.0142217
670.771	0.0141011
670.849	0.0141876
670.927	0.0145366
671.005	0.0145164
671.083	0.0145729
671.162	0.0147149
671.240	0.0145671
671.318	0.0144961
671.396	0.0143761
671.474	0.0144127
671.552	0.0144402
671.630	0.0144537
671.708	0.0142896
671.787	0.0140340
671.865	0.0141531
671.943	0.0140703
672.021	0.0141012
672.099	0.0139818
672.177	0.0138448
672.255	0.0138201
672.333	0.0136249
672.412	0.0134427
672.490	0.0131300
672.568	0.0129613
672.646	0.0128556
672.724	0.0126013
672.802	0.0123746
672.880	0.0124786
672.958	0.0121916
673.037	0.0122465
673.115	0.0121452
673.193	0.0124583
673.271	0.0126032
673.349	0.0126971
673.427	0.0129834
673.505	0.0131815
673.583	0.0135361
673.662	0.0137901
673.740	0.0141042
673.818	0.0145316
673.896	0.0148714
673.974	0.0153029
674.052	0.0155936
674.130	0.0159438
674.208	0.0161407
674.287	0.0165036
674.365	0.0166039
674.443	0.0167274
674.521	0.0168565
674.599	0.0169276
674.677	0.0168639
674.755	0.0165704
674.833	0.0162141
674.912	0.0159548
674.990	0.0156784
675.068	0.0151678
675.146	0.0147353
675.224	0.0144112
675.302	0.0140536
675.380	0.0134758
675.458	0.0132158
675.537	0.0128735
675.615	0.0124887
675.693	0.0123660
675.771	0.0121659
675.849	0.0121696
675.927	0.0119999
676.005	0.0121085
676.083	0.0121396
676.162	0.0123222
676.240	0.0123403
676.318	0.0124228
676.396	0.0126836
676.474	0.0128831
676.552	0.0131463
676.630	0.0133938
676.708	0.0138561
676.787	0.0140249
676.865	0.0143725
676.943	0.0146593
677.021	0.0149773
677.099	0.0150665
677.177	0.0153286
677.255	0.0154438
677.333	0.0154178
677.412	0.0154578
677.490	0.0153706
677.568	0.0152131
677.646	0.0150516
677.724	0.0148383
677.802	0.0146920
677.880	0.0144485
677.958	0.0143413
678.037	0.0143173
678.115	0.0141212
678.193	0.0139558
678.271	0.0139027
678.349	0.0139127
678.427	0.0137895
678.505	0.0138158
678.583	0.0138076
678.662	0.0138703
678.740	0.0138067
678.818	0.0137498
678.896	0.0137462
678.974	0.0138113
679.052	0.0137295
679.130	0.0136256
679.208	0.0137005
679.287	0.0136130
679.365	0.0134631
679.443	0.0133630
679.521	0.0134567
679.599	0.0132099
679.677	0.0131423
679.755	0.0132031
679.833	0.0132496
679.912	0.0134312
679.990	0.0134990
680.068	0.0136923
680.146	0.0137893
680.224	0.0140914
680.302	0.0143515
680.380	0.0146692
680.458	0.0149650
680.537	0.0151530
680.615	0.0155536
680.693	0.0156485
680.771	0.0159541
680.849	0.0161866
680.927	0.0162225
681.005	0.0161872
681.083	0.0160237
681.162	0.0159286
681.240	0.0156959
681.318	0.0156914
681.396	0.0155914
681.474	0.0151481
681.552	0.0149705
681.630	0.0146173
681.708	0.0143122
681.787	0.0142607
681.865	0.0140494
681.943	0.0137953
682.021	0.0137854
682.099	0.0136598
682.177	0.0136869
682.255	0.0135719
682.333	0.0133556
682.412	0.0133767
682.490	0.0135552
682.568	0.0132274
682.646	0.0133453
682.724	0.0132378
682.802	0.0130496
682.880	0.0130177
682.958	0.0130449
683.037	0.0128775
683.115	0.0128336
683.193	0.0127810
683.271	0.0126624
683.349	0.0127467
683.427	0.0127435
683.505	0.0128380
683.583	0.0128983
683.662	0.0130337
683.740	0.0132672
683.818	0.0134772
683.896	0.0138768
683.974	0.0140974
684.052	0.0142770
684.130	0.0145172
684.208	0.0146140
684.287	0.0148128
684.365	0.0148329
684.443	0.0151084
684.521	0.0150713
684.599	0.0149879
684.677	0.0149283
684.755	0.0149968
684.833	0.0149986
684.912	0.0150666
684.990	0.0150003
685.068	0.0150881
685.146	0.0151117
685.224	0.0150779
685.302	0.0152118
685.380	0.0152088
685.458	0.0152300
685.537	0.0152795
685.615	0.0152044
685.693	0.0152510
685.771	0.0152168
685.849	0.0150751
685.927	0.0149506
686.005	0.0149203
686.083	0.0147984
686.162	0.0145319
686.240	0.0142742
686.318	0.0141817
686.396	0.0138174
686.474	0.0135709
686.552	0.0134924
686.630	0.0132841
686.708	0.0130399
686.787	0.0129710
686.865	0.0128982
686.943	0.0130341
687.021	0.0129979
687.099	0.0130330
687.177	0.0133519
687.255	0.0135246
687.333	0.0139053
687.412	0.0141193
687.490	0.0143284
687.568	0.0144947
687.646	0.0146541
687.724	0.0149056
687.802	0.0150706
687.880	0.0150909
687.958	0.0149387
688.037	0.0148826
688.115	0.0148463
688.193	0.0146355
688.271	0.0145750
688.349	0.0142909
688.427	0.0139935
688.505	0.0136964
688.583	0.0134399
688.662	0.0133569
688.740	0.0129745
688.818	0.0129459
688.896	0.0125899
688.974	0.0122369
689.052	0.0121473
689.130	0.0120081
689.208	0.0118418
689.287	0.0118178
689.365	0.0119160
689.443	0.0120420
689.521	0.0122813
689.599	0.0124928
689.677	0.0127607
689.755	0.0132846
689.833	0.0135397
689.912	0.0140685
689.990	0.0144533
690.068	0.0149470
690.146	0.0154166
690.224	0.0158543
690.302	0.0159949
690.380	0.0160979
690.458	0.0161917
690.537	0.0161910
690.615	0.0163475
690.693	0.0163767
690.771	0.0159602
690.849	0.0159416
690.927	0.0157600
691.005	0.0156982
691.083	0.0153988
691.162	0.0152246
691.240	0.0149399
691.318	0.0151453
691.396	0.0149760
691.474	0.0148918
691.552	0.0148892
691.630	0.0149106
691.708	0.0148957
691.787	0.0147765
691.865	0.0146430
691.943	0.0148205
692.021	0.0147066
692.099	0.0145843
692.177	0.0143892
692.255	0.0142818
692.333	0.0141148
692.412	0.0139812
692.490	0.0137339
692.568	0.0134615
692.646	0.0133695
692.724	0.0131885
692.802	0.0130377
692.880	0.0129582
692.958	0.0128578
693.037	0.0125460
693.115	0.0124624
693.193	0.0124214
693.271	0.0123054
693.349	0.0122835
693.427	0.0121858
693.505	0.0123536
693.583	0.0124376
693.662	0.0125288
693.740	0.0127156
693.818	0.0129814
693.896	0.0131367
693.974	0.0135191
694.052	0.0136603
694.130	0.0138862
694.208	0.0139207
694.287	0.0140487
694.365	0.0141669
694.443	0.0142290
694.521	0.0141869
694.599	0.0141749
694.677	0.0143784
694.755	0.0142549
694.833	0.0143998
694.912	0.0145016
694.990	0.0147190
695.068	0.0147311
695.146	0.0147353
695.224	0.0149070
695.302	0.0150556
695.380	0.0152412
695.458	0.0151233
695.537	0.0152009
695.615	0.0153085
695.693	0.0152859
695.771	0.0151437
695.849	0.0149589
695.927	0.0148119
696.005	0.0146896
696.083	0.0145492
696.162	0.0142825
696.240	0.0144402
696.318	0.0142443
696.396	0.0140975
696.474	0.0141792
696.552	0.0141046
696.630	0.0140034
696.708	0.0141444
696.787	0.0142481
696.865	0.0140916
696.943	0.0139448
697.021	0.0140158
697.099	0.0140847
697.177	0.0139716
697.255	0.0140539
697.333	0.0140673
697.412	0.0141567
697.490	0.0141063
697.568	0.0141582
697.646	0.0142368
697.724	0.0143807
697.802	0.0144584
697.880	0.0144057
697.958	0.0143536
698.037	0.0142445
698.115	0.0141977
698.193	0.0141516
698.271	0.0141308
698.349	0.0140000
698.427	0.0140993
698.505	0.0138607
698.583	0.0137656
698.662	0.0137403
698.740	0.0136726
698.818	0.0138245
698.896	0.0137368
698.974	0.0138103
699.052	0.0137040
699.130	0.0136197
699.208	0.0137465
699.287	0.0136327
699.365	0.0136362
699.443	0.0135467
699.521	0.0134921
699.599	0.0134169
699.677	0.0136161
699.755	0.0134881
699.833	0.0136949
699.912	0.0135637
699.990	0.0136305
700.068	0.0136119
700.146	0.0137432
700.224	0.0138050
700.302	0.0138284
700.380	0.0139294
700.458	0.0140916
700.537	0.0140462
700.615	0.0140126
700.693	0.0142337
700.771	0.0143113
700.849	0.0144374
700.927	0.0144491
701.005	0.0146838
701.083	0.0148119
701.162	0.0148861
701.240	0.0148325
701.318	0.0150375
701.396	0.0151410
701.474	0.0150092
701.552	0.0149850
701.630	0.0148767
701.708	0.0147586
701.787	0.0145363
701.865	0.0143658
701.943	0.0141528
702.021	0.0140290
702.099	0.0137891
702.177	0.0136990
702.255	0.0136343
702.333	0.0135854
702.412	0.0135543
702.490	0.0134229
702.568	0.0135089
702.646	0.0135807
702.724	0.0135781
702.802	0.0136761
702.880	0.0137966
702.958	0.0140498
703.037	0.0141347
703.115	0.0142786
703.193	0.0143784
703.271	0.0145619
703.349	0.0147693
703.427	0.0149065
703.505	0.0149214
703.583	0.0151009
703.662	0.0152854
703.740	0.0154623
703.818	0.0154080
703.896	0.0154390
703.974	0.0152637
704.052	0.0154118
704.130	0.0154845
704.208	0.0154210
704.287	0.0151814
704.365	0.0151482
704.443	0.0149836
704.521	0.0148146
704.599	0.0147082
704.677	0.0145398
704.755	0.0143336
704.833	0.0142168
704.912	0.0139814
704.990	0.0138980
705.068	0.0137185
705.146	0.0132867
705.224	0.0131097
705.302	0.0130912
705.380	0.0130231
705.458	0.0127967
705.537	0.0127581
705.615	0.0125848
705.693	0.0125766
705.771	0.0126940
705.849	0.0126904
705.927	0.0127148
706.005	0.0129518
706.083	0.0130366
706.162	0.0131448
706.240	0.0132202
706.318	0.0134478
706.396	0.0135685
706.474	0.0136012
706.552	0.0138079
706.630	0.0138798
706.708	0.0139548
706.787	0.0139446
706.865	0.0139221
706.943	0.0140379
707.021	0.0140811
707.099	0.0140067
707.177	0.0139967
707.255	0.0140067
707.333	0.0140792
707.412	0.0141327
707.490	0.0141101
707.568	0.0143389
707.646	0.0144578
707.724	0.0144232
707.802	0.0147914
707.880	0.0148582
707.958	0.0146882
708.037	0.0148795
708.115	0.0150282
708.193	0.0151390
708.271	0.0150997
708.349	0.0151484
708.427	0.0150554
708.505	0.0151040
708.583	0.0152388
708.662	0.0152898
708.740	0.0152711
708.818	0.0152591
708.896	0.0154352
708.974	0.0155269
709.052	0.0155248
709.130	0.0156235
709.208	0.0156121
709.287	0.0154784
709.365	0.0154782
709.443	0.0152245
709.521	0.0152314
709.599	0.0151086
709.677	0.0149371
709.755	0.0148215
709.833	0.0147164
709.912	0.0145230
709.990	0.0144814
710.068	0.0143035
710.146	0.0140742
710.224	0.0139844
710.302	0.0139000
710.380	0.0136911
710.458	0.0135378
710.537	0.0133838
710.615	0.0132099
710.693	0.0131348
710.771	0.0128101
710.849	0.0124996
710.927	0.0124297
711.005	0.0121570
711.083	0.0120240
711.162	0.0119595
711.240	0.0118209
711.318	0.0117670
711.396	0.0117016
711.474	0.0117767
711.552	0.0117345
711.630	0.0119958
711.708	0.0121469
711.787	0.0122477
711.865	0.0125671
711.943	0.0128647
712.021	0.0129399
712.099	0.0132435
712.177	0.0136617
712.255	0.0139705
712.333	0.0143426
712.412	0.0147169
712.490	0.0148275
712.568	0.0151347
712.646	0.0151517
712.724	0.0152727
712.802	0.0155484
712.880	0.0156959
712.958	0.0157761
713.037	0.0159270
713.115	0.0158951
713.193	0.0159324
713.271	0.0159631
713.349	0.0159136
713.427	0.0159486
713.505	0.0159584
713.583	0.0157182
713.662	0.0155962
713.740	0.0155634
713.818	0.0153499
713.896	0.0152257
713.974	0.0151300
714.052	0.0150187
714.130	0.0147104
714.208	0.0144774
714.287	0.0142468
714.365	0.0140987
714.443	0.0140625
714.521	0.0138852
714.599	0.0136128
714.677	0.0135872
714.755	0.0133508
714.833	0.0133405
714.912	0.0133436
714.990	0.0132271
715.068	0.0133366
715.146	0.0131805
715.224	0.0133366
715.302	0.0133916
715.380	0.0134429
715.458	0.0134737
715.537	0.0135773
715.615	0.0135049
715.693	0.0136503
715.771	0.0136652
715.849	0.0135552
715.927	0.0137657
716.005	0.0138254
716.083	0.0139579
716.162	0.0139930
716.240	0.0141262
716.318	0.0142068
716.396	0.0141521
716.474	0.0143702
716.552	0.0144563
716.630	0.0146297
716.708	0.0146436
716.787	0.0147412
716.865	0.0147815
716.943	0.0147472
717.021	0.0146664
717.099	0.0147294
717.177	0.0147160
717.255	0.0144351
717.333	0.0143430
717.412	0.0140772
717.490	0.0139457
717.568	0.0138445
717.646	0.0135712
717.724	0.0133960
717.802	0.0132625
717.880	0.0131824
717.958	0.0131217
718.037	0.0130087
718.115	0.0129866
718.193	0.0130773
718.271	0.0130964
718.349	0.0132804
718.427	0.0132237
718.505	0.0133272
718.583	0.0134805
718.662	0.0136045
718.740	0.0134889
718.818	0.0136536
718.896	0.0138000
718.974	0.0137499
719.052	0.0139156
719.130	0.0139845
719.208	0.0140981
719.287	0.0140849
719.365	0.0140912
719.443	0.0143594
719.521	0.0144850
719.599	0.0147451
719.677	0.0147298
719.755	0.0148724
719.833	0.0151228
719.912	0.0153427
719.990	0.0153484
720.068	0.0156271
720.146	0.0156952
720.224	0.0157368
720.302	0.0157137
720.380	0.0157064
720.458	0.0156861
720.537	0.0156505
720.615	0.0156118
720.693	0.0154630
720.771	0.0153952
720.849	0.0151485
720.927	0.0149662
721.005	0.0146117
721.083	0.0145284
721.162	0.0143155
721.240	0.0141714
721.318	0.0140219
721.396	0.0137209
721.474	0.0136155
721.552	0.0135058
721.630	0.0132461
721.708	0.0132812
721.787	0.0132381
721.865	0.0134840
721.943	0.0135197
722.021	0.0135051
722.099	0.0135885
722.177	0.0136507
722.255	0.0137544
722.333	0.0137946
722.412	0.0138928
722.490	0.0139803
722.568	0.0140409
722.646	0.0141254
722.724	0.0142025
722.802	0.0140490
722.880	0.0142246
722.958	0.0141216
723.037	0.0141553
723.115	0.0139902
723.193	0.0138889
723.271	0.0140986
723.349	0.0139444
723.427	0.0138297
723.505	0.0139126
723.583	0.0137419
723.662	0.0137415
723.740	0.0136777
723.818	0.0137359
723.896	0.0135333
723.974	0.0136420
724.052	0.0135802
724.130	0.0136507
724.208	0.0136362
724.287	0.0137955
724.365	0.0138168
724.443	0.0139685
724.521	0.0143289
724.599	0.0143983
724.677	0.0143743
724.755	0.0144022
724.833	0.0145710
724.912	0.0145457
724.990	0.0145877
725.068	0.0146099
725.146	0.0146429
725.224	0.0144892
725.302	0.0145960
725.380	0.0144356
725.458	0.0145784
725.537	0.0145683
725.615	0.0143410
725.693	0.0144612
725.771	0.0144111
725.849	0.0144736
725.927	0.0144192
726.005	0.0145519
726.083	0.0145750
726.162	0.0146066
726.240	0.0146969
726.318	0.0146078
726.396	0.0148624
726.474	0.0148036
726.552	0.0146587
726.630	0.0146788
726.708	0.0145206
726.787	0.0146358
726.865	0.0145765
726.943	0.0143560
727.021	0.0142306
727.099	0.0141502
727.177	0.0141285
727.255	0.0140780
727.333	0.0139373
727.412	0.0138835
727.490	0.0137840
727.568	0.0137736
727.646	0.0137923
727.724	0.0137766
727.802	0.0139915
727.880	0.0138564
727.958	0.0139945
728.037	0.0141709
728.115	0.0142199
728.193	0.0140832
728.271	0.0142577
728.349	0.0143243
728.427	0.0144432
728.505	0.0143401
728.583	0.0145033
728.662	0.0145834
728.740	0.0144511
728.818	0.0143097
728.896	0.0142862
728.974	0.0142851
729.052	0.0141627
729.130	0.0141241
729.208	0.0140051
729.287	0.0139488
729.365	0.0137359
729.443	0.0136440
729.521	0.0134948
729.599	0.0135748
729.677	0.0136182
729.755	0.0136259
729.833	0.0135831
729.912	0.0137538
729.990	0.0138712
730.068	0.0139328
730.146	0.0139231
730.224	0.0140033
730.302	0.0140576
730.380	0.0140097
730.458	0.0141508
730.537	0.0143044
730.615	0.0142326
730.693	0.0141483
730.771	0.0142449
730.849	0.0142888
730.927	0.0140785
731.005	0.0141695
731.083	0.0142529
731.162	0.0139831
731.240	0.0139695
731.318	0.0137382
731.396	0.0136882
731.474	0.0135996
731.552	0.0136962
731.630	0.0137175
731.708	0.0137482
731.787	0.0137505
731.865	0.0139399
731.943	0.0140694
732.021	0.0141468
732.099	0.0144105
732.177	0.0144338
732.255	0.0145786
732.333	0.0145994
732.412	0.0147012
732.490	0.0146848
732.568	0.0148685
732.646	0.0147624
732.724	0.0145344
732.802	0.0144569
732.880	0.0144579
732.958	0.0142990
733.037	0.0143030
733.115	0.0142561
733.193	0.0143130
733.271	0.0142648
733.349	0.0141685
733.427	0.0143012
733.505	0.0145296
733.583	0.0143465
733.662	0.0144173
733.740	0.0146209
733.818	0.0146311
733.896	0.0148125
733.974	0.0145988
734.052	0.0145142
734.130	0.0144272
734.208	0.0144305
734.287	0.0144415
734.365	0.0142587
734.443	0.0140849
734.521	0.0139074
734.599	0.0136572
734.677	0.0134585
734.755	0.0134013
734.833	0.0133121
734.912	0.0130998
734.990	0.0130634
735.068	0.0128120
735.146	0.0129186
735.224	0.0129481
735.302	0.0130336
735.380	0.0130727
735.458	0.0132995
735.537	0.0134967
735.615	0.0136648
735.693	0.0138120
