05/08/2022	20:03:51	Ver.	4.1	UNKNOWN
Optical Delay	649.982996	Delta X		0.078125	Sweeps	1	Scan Rate	0/0
Coordinates	Axis 1	NaN	Axis 2	NaN	Axis 3	NaN	Axis 4	NaN	Axis 5	NaN	Axis 6	0.000000
TX Power	0.000000	RX Power	0.000000

649.983	0.0132622
650.061	0.0133656
650.139	0.0134007
650.217	0.0132706
650.295	0.0132091
650.374	0.0132227
650.452	0.0131069
650.530	0.0131146
650.608	0.0131236
650.686	0.0130907
650.764	0.0131221
650.842	0.0130324
650.920	0.0130145
650.999	0.0130650
651.077	0.0131541
651.155	0.0131134
651.233	0.0130587
651.311	0.0132490
651.389	0.0133025
651.467	0.0131683
651.545	0.0133421
651.624	0.0133286
651.702	0.0133085
651.780	0.0133422
651.858	0.0133040
651.936	0.0130862
652.014	0.0131166
652.092	0.0131392
652.170	0.0131207
652.249	0.0131295
652.327	0.0130003
652.405	0.0130598
652.483	0.0129957
652.561	0.0130145
652.639	0.0130846
652.717	0.0130961
652.795	0.0132552
652.874	0.0132449
652.952	0.0133508
653.030	0.0135001
653.108	0.0135095
653.186	0.0134110
653.264	0.0136303
653.342	0.0135870
653.420	0.0135525
653.499	0.0135305
653.577	0.0134248
653.655	0.0133521
653.733	0.0131377
653.811	0.0131072
653.889	0.0131462
653.967	0.0131257
654.045	0.0128784
654.124	0.0129997
654.202	0.0129073
654.280	0.0129640
654.358	0.0128697
654.436	0.0129034
654.514	0.0128759
654.592	0.0129404
654.670	0.0129163
654.749	0.0129195
654.827	0.0130861
654.905	0.0129659
654.983	0.0130659
655.061	0.0130161
655.139	0.0131425
655.217	0.0130564
655.295	0.0130273
655.374	0.0131477
655.452	0.0131938
655.530	0.0133807
655.608	0.0136773
655.686	0.0136844
655.764	0.0136435
655.842	0.0137724
655.920	0.0140111
655.999	0.0140121
656.077	0.0141202
656.155	0.0141352
656.233	0.0140819
656.311	0.0140528
656.389	0.0140269
656.467	0.0139915
656.545	0.0138582
656.624	0.0138156
656.702	0.0134940
656.780	0.0132413
656.858	0.0131149
656.936	0.0129156
657.014	0.0125681
657.092	0.0125199
657.170	0.0123505
657.249	0.0121429
657.327	0.0119968
657.405	0.0118842
657.483	0.0118764
657.561	0.0116737
657.639	0.0118066
657.717	0.0119068
657.795	0.0119571
657.874	0.0121128
657.952	0.0120683
658.030	0.0123750
658.108	0.0124525
658.186	0.0126714
658.264	0.0128249
658.342	0.0130523
658.420	0.0131336
658.499	0.0134668
658.577	0.0137000
658.655	0.0136407
658.733	0.0140179
658.811	0.0143372
658.889	0.0144810
658.967	0.0146162
659.045	0.0149355
659.124	0.0150852
659.202	0.0151639
659.280	0.0152843
659.358	0.0152280
659.436	0.0152872
659.514	0.0152953
659.592	0.0152037
659.670	0.0147880
659.749	0.0145275
659.827	0.0143208
659.905	0.0140440
659.983	0.0136340
660.061	0.0132557
660.139	0.0128319
660.217	0.0124082
660.295	0.0119105
660.374	0.0116811
660.452	0.0113208
660.530	0.0110989
660.608	0.0107639
660.686	0.0104324
660.764	0.0105391
660.842	0.0102060
660.920	0.0101737
660.999	0.0102834
661.077	0.0101937
661.155	0.0101420
661.233	0.0105363
661.311	0.0107893
661.389	0.0111897
661.467	0.0114056
661.545	0.0117777
661.624	0.0123071
661.702	0.0127768
661.780	0.0133331
661.858	0.0136768
661.936	0.0143212
662.014	0.0147881
662.092	0.0151417
662.170	0.0154735
662.249	0.0158744
662.327	0.0161258
662.405	0.0162858
662.483	0.0165204
662.561	0.0165504
662.639	0.0166464
662.717	0.0166138
662.795	0.0165604
662.874	0.0164463
662.952	0.0161200
663.030	0.0159069
663.108	0.0155744
663.186	0.0153862
663.264	0.0150843
663.342	0.0145404
663.420	0.0141295
663.499	0.0135348
663.577	0.0130848
663.655	0.0126333
663.733	0.0120293
663.811	0.0113934
663.889	0.0111181
663.967	0.0106908
664.045	0.0101196
664.124	0.00973480
664.202	0.00951378
664.280	0.00933037
664.358	0.00927139
664.436	0.00915672
664.514	0.00931427
664.592	0.00932899
664.670	0.00950104
664.749	0.00989502
664.827	0.0102904
664.905	0.0106994
664.983	0.0110802
665.061	0.0114565
665.139	0.0120482
665.217	0.0124680
665.295	0.0129993
665.374	0.0134658
665.452	0.0139876
665.530	0.0143752
665.608	0.0149261
665.686	0.0154179
665.764	0.0158176
665.842	0.0160918
665.920	0.0163876
665.999	0.0165009
666.077	0.0168314
666.155	0.0168996
666.233	0.0167262
666.311	0.0166419
666.389	0.0166935
666.467	0.0164343
666.545	0.0161414
666.624	0.0157231
666.702	0.0155437
666.780	0.0151466
666.858	0.0149504
666.936	0.0143884
667.014	0.0140838
667.092	0.0137083
667.170	0.0133132
667.249	0.0128347
667.327	0.0125059
667.405	0.0121431
667.483	0.0120035
667.561	0.0117007
667.639	0.0115237
667.717	0.0111916
667.795	0.0110915
667.874	0.0109460
667.952	0.0108642
668.030	0.0108338
668.108	0.0107018
668.186	0.0108397
668.264	0.0107523
668.342	0.0109027
668.420	0.0109045
668.499	0.0110635
668.577	0.0113539
668.655	0.0114693
668.733	0.0117867
668.811	0.0118785
668.889	0.0121416
668.967	0.0124644
669.045	0.0125285
669.124	0.0128124
669.202	0.0129510
669.280	0.0133179
669.358	0.0133775
669.436	0.0134583
669.514	0.0134620
669.592	0.0138871
669.670	0.0137163
669.749	0.0139626
669.827	0.0140053
669.905	0.0142805
669.983	0.0145738
670.061	0.0145967
670.139	0.0148320
670.217	0.0149130
670.295	0.0149512
670.374	0.0148941
670.452	0.0151316
670.530	0.0151340
670.608	0.0149879
670.686	0.0148050
670.764	0.0148071
670.842	0.0146455
670.920	0.0144405
670.999	0.0141334
671.077	0.0140969
671.155	0.0138064
671.233	0.0136747
671.311	0.0136191
671.389	0.0134576
671.467	0.0132044
671.545	0.0131497
671.624	0.0131226
671.702	0.0130271
671.780	0.0129288
671.858	0.0128413
671.936	0.0126812
672.014	0.0124920
672.092	0.0125935
672.170	0.0123905
672.249	0.0121593
672.327	0.0122531
672.405	0.0121021
672.483	0.0121140
672.561	0.0121880
672.639	0.0121665
672.717	0.0121238
672.795	0.0121040
672.874	0.0123260
672.952	0.0124086
673.030	0.0126584
673.108	0.0128708
673.186	0.0131105
673.264	0.0130999
673.342	0.0132944
673.420	0.0133898
673.499	0.0132616
673.577	0.0132355
673.655	0.0131849
673.733	0.0131387
673.811	0.0130983
673.889	0.0128500
673.967	0.0126503
674.045	0.0125311
674.124	0.0125219
674.202	0.0124202
674.280	0.0124977
674.358	0.0123306
674.436	0.0124664
674.514	0.0126244
674.592	0.0125824
674.670	0.0129037
674.749	0.0131361
674.827	0.0133983
674.905	0.0134501
674.983	0.0135178
675.061	0.0134976
675.139	0.0135960
675.217	0.0135600
675.295	0.0134886
675.374	0.0135124
675.452	0.0136837
675.530	0.0136972
675.608	0.0138782
675.686	0.0139566
675.764	0.0139993
675.842	0.0142230
675.920	0.0145830
675.999	0.0148977
676.077	0.0150195
676.155	0.0153454
676.233	0.0155643
676.311	0.0156374
676.389	0.0156291
676.467	0.0154876
676.545	0.0154620
676.624	0.0153642
676.702	0.0151836
676.780	0.0149673
676.858	0.0145395
676.936	0.0140437
677.014	0.0135512
677.092	0.0130558
677.170	0.0126329
677.249	0.0121503
677.327	0.0114256
677.405	0.0111129
677.483	0.0107391
677.561	0.0103397
677.639	0.00999535
677.717	0.00999069
677.795	0.00984749
677.874	0.00999260
677.952	0.00994438
678.030	0.0101504
678.108	0.0103349
678.186	0.0104334
678.264	0.0108006
678.342	0.0111292
678.420	0.0113567
678.499	0.0114622
678.577	0.0118369
678.655	0.0121353
678.733	0.0125606
678.811	0.0128154
678.889	0.0130103
678.967	0.0132456
679.045	0.0136530
679.124	0.0139120
679.202	0.0142046
679.280	0.0145361
679.358	0.0147748
679.436	0.0151376
679.514	0.0152241
679.592	0.0154153
679.670	0.0154632
679.749	0.0156479
679.827	0.0156406
679.905	0.0156579
679.983	0.0157047
680.061	0.0157310
680.139	0.0155663
680.217	0.0154627
680.295	0.0154567
680.374	0.0154059
680.452	0.0152759
680.530	0.0150092
680.608	0.0147668
680.686	0.0145078
680.764	0.0142115
680.842	0.0140239
680.920	0.0135299
680.999	0.0130055
681.077	0.0128634
681.155	0.0125906
681.233	0.0121291
681.311	0.0121059
681.389	0.0119166
681.467	0.0116788
681.545	0.0115304
681.624	0.0116778
681.702	0.0114204
681.780	0.0113360
681.858	0.0113216
681.936	0.0110706
682.014	0.0108482
682.092	0.0108710
682.170	0.0105412
682.249	0.0104276
682.327	0.0103851
682.405	0.0101459
682.483	0.0102143
682.561	0.0105405
682.639	0.0106681
682.717	0.0108986
682.795	0.0113725
682.874	0.0118719
682.952	0.0123857
683.030	0.0129558
683.108	0.0135023
683.186	0.0140186
683.264	0.0147130
683.342	0.0152985
683.420	0.0156207
683.499	0.0159221
683.577	0.0162300
683.655	0.0164099
683.733	0.0165172
683.811	0.0166763
683.889	0.0166644
683.967	0.0166365
684.045	0.0166283
684.124	0.0163236
684.202	0.0161223
684.280	0.0159974
684.358	0.0158807
684.436	0.0154266
684.514	0.0150095
684.592	0.0146134
684.670	0.0142169
684.749	0.0138464
684.827	0.0134025
684.905	0.0132388
684.983	0.0126615
685.061	0.0121414
685.139	0.0118183
685.217	0.0114954
685.295	0.0112952
685.374	0.0110489
685.452	0.0107956
685.530	0.0106470
685.608	0.0104733
685.686	0.0104474
685.764	0.0105310
685.842	0.0106002
685.920	0.0106504
685.999	0.0107722
686.077	0.0109556
686.155	0.0111196
686.233	0.0112521
686.311	0.0116400
686.389	0.0119003
686.467	0.0121667
686.545	0.0123883
686.624	0.0126443
686.702	0.0126831
686.780	0.0130980
686.858	0.0132043
686.936	0.0134249
687.014	0.0136256
687.092	0.0138538
687.170	0.0141299
687.249	0.0143707
687.327	0.0145360
687.405	0.0148209
687.483	0.0151524
687.561	0.0151450
687.639	0.0152583
687.717	0.0155038
687.795	0.0156100
687.874	0.0157885
687.952	0.0157684
688.030	0.0156967
688.108	0.0155802
688.186	0.0155303
688.264	0.0153743
688.342	0.0152634
688.420	0.0150024
688.499	0.0150041
688.577	0.0148442
688.655	0.0145430
688.733	0.0143091
688.811	0.0140618
688.889	0.0137049
688.967	0.0132529
689.045	0.0129350
689.124	0.0126386
689.202	0.0121874
689.280	0.0118478
689.358	0.0115346
689.436	0.0113206
689.514	0.0109629
689.592	0.0108865
689.670	0.0108062
689.749	0.0107247
689.827	0.0109474
689.905	0.0112347
689.983	0.0112463
690.061	0.0112286
690.139	0.0113734
690.217	0.0116338
690.295	0.0119434
690.374	0.0119650
690.452	0.0119833
690.530	0.0121143
690.608	0.0122968
690.686	0.0123376
690.764	0.0123734
690.842	0.0124813
690.920	0.0125402
690.999	0.0125823
691.077	0.0127437
691.155	0.0128602
691.233	0.0130064
691.311	0.0132326
691.389	0.0132983
691.467	0.0135954
691.545	0.0136974
691.624	0.0136800
691.702	0.0138775
691.780	0.0141494
691.858	0.0140153
691.936	0.0143806
692.014	0.0145275
692.092	0.0146178
692.170	0.0148049
692.249	0.0149197
692.327	0.0150404
692.405	0.0150968
692.483	0.0150237
692.561	0.0151260
692.639	0.0150971
692.717	0.0151008
692.795	0.0150462
692.874	0.0146743
692.952	0.0146481
693.030	0.0142854
693.108	0.0139996
693.186	0.0136384
693.264	0.0134636
693.342	0.0131105
693.420	0.0128320
693.499	0.0125571
693.577	0.0123660
693.655	0.0123065
693.733	0.0124559
693.811	0.0123496
693.889	0.0126158
693.967	0.0126996
694.045	0.0127768
694.124	0.0130539
694.202	0.0133143
694.280	0.0134184
694.358	0.0135246
694.436	0.0136671
694.514	0.0135783
694.592	0.0133012
694.670	0.0134187
694.749	0.0132982
694.827	0.0132288
694.905	0.0129471
694.983	0.0128478
695.061	0.0126424
695.139	0.0125131
695.217	0.0124784
695.295	0.0124207
695.374	0.0123112
695.452	0.0122539
695.530	0.0122309
695.608	0.0121886
695.686	0.0121687
695.764	0.0122231
695.842	0.0121110
695.920	0.0120560
695.999	0.0120373
696.077	0.0121355
696.155	0.0121758
696.233	0.0121978
696.311	0.0123183
696.389	0.0125120
696.467	0.0125819
696.545	0.0129392
696.624	0.0130389
696.702	0.0132268
696.780	0.0134106
696.858	0.0135519
696.936	0.0136578
697.014	0.0137865
697.092	0.0137001
697.170	0.0137022
697.249	0.0136996
697.327	0.0136327
697.405	0.0134992
697.483	0.0134143
697.561	0.0131907
697.639	0.0130827
697.717	0.0131009
697.795	0.0133298
697.874	0.0133336
697.952	0.0131754
698.030	0.0133437
698.108	0.0133204
698.186	0.0135116
698.264	0.0135754
698.342	0.0138337
698.420	0.0141191
698.499	0.0141891
698.577	0.0143642
698.655	0.0146648
698.733	0.0148942
698.811	0.0148544
698.889	0.0150600
698.967	0.0152624
699.045	0.0151833
699.124	0.0152568
699.202	0.0151808
699.280	0.0150565
699.358	0.0147269
699.436	0.0147624
699.514	0.0144088
699.592	0.0140512
699.670	0.0135843
699.749	0.0133057
699.827	0.0127200
699.905	0.0124593
699.983	0.0121433
700.061	0.0119291
700.139	0.0117310
700.217	0.0117187
700.295	0.0114924
700.374	0.0113634
700.452	0.0113457
700.530	0.0111921
700.608	0.0111881
700.686	0.0111234
700.764	0.0111273
700.842	0.0111813
700.920	0.0113571
700.999	0.0113417
701.077	0.0113390
701.155	0.0114222
701.233	0.0116325
701.311	0.0117463
701.389	0.0116977
701.467	0.0119385
701.545	0.0119122
701.624	0.0122122
701.702	0.0126165
701.780	0.0128503
701.858	0.0129787
701.936	0.0134660
702.014	0.0137277
702.092	0.0138072
702.170	0.0141411
702.249	0.0146015
702.327	0.0147922
702.405	0.0148470
702.483	0.0150915
702.561	0.0150960
702.639	0.0150636
702.717	0.0151012
702.795	0.0150523
702.874	0.0148221
702.952	0.0144815
703.030	0.0144418
703.108	0.0141943
703.186	0.0139970
703.264	0.0139094
703.342	0.0137932
703.420	0.0135244
703.499	0.0137755
703.577	0.0137559
703.655	0.0137908
703.733	0.0137234
703.811	0.0136240
703.889	0.0137234
703.967	0.0135168
704.045	0.0134282
704.124	0.0134459
704.202	0.0132114
704.280	0.0131304
704.358	0.0130501
704.436	0.0129564
704.514	0.0130374
704.592	0.0127402
704.670	0.0127673
704.749	0.0127995
704.827	0.0127342
704.905	0.0128417
704.983	0.0127712
705.061	0.0127739
705.139	0.0128387
705.217	0.0128362
705.295	0.0130158
705.374	0.0130090
705.452	0.0128644
705.530	0.0130244
705.608	0.0131470
705.686	0.0130622
705.764	0.0130824
705.842	0.0131049
705.920	0.0131728
705.999	0.0130154
706.077	0.0130882
706.155	0.0130837
706.233	0.0129028
706.311	0.0129150
706.389	0.0128514
706.467	0.0127042
706.545	0.0127136
706.624	0.0125889
706.702	0.0123072
706.780	0.0125143
706.858	0.0124416
706.936	0.0123002
707.014	0.0123215
707.092	0.0124281
707.170	0.0124674
707.249	0.0126376
707.327	0.0127694
707.405	0.0130465
707.483	0.0131219
707.561	0.0132452
707.639	0.0134286
707.717	0.0134748
707.795	0.0137012
707.874	0.0138179
707.952	0.0139639
708.030	0.0138618
708.108	0.0139774
708.186	0.0140653
708.264	0.0139516
708.342	0.0141919
708.420	0.0141102
708.499	0.0140604
708.577	0.0140920
708.655	0.0139729
708.733	0.0139664
708.811	0.0137955
708.889	0.0136796
708.967	0.0136169
709.045	0.0134698
709.124	0.0131348
709.202	0.0130231
709.280	0.0129790
709.358	0.0127737
709.436	0.0126479
709.514	0.0127076
709.592	0.0127505
709.670	0.0126824
709.749	0.0127819
709.827	0.0131211
709.905	0.0132682
709.983	0.0133420
710.061	0.0133488
710.139	0.0134734
710.217	0.0136694
710.295	0.0136281
710.374	0.0135777
710.452	0.0135403
710.530	0.0134571
710.608	0.0132967
710.686	0.0133199
710.764	0.0133456
710.842	0.0131231
710.920	0.0131275
710.999	0.0129626
711.077	0.0130453
711.155	0.0130404
711.233	0.0130550
711.311	0.0131497
711.389	0.0130826
711.467	0.0130849
711.545	0.0132456
711.624	0.0133753
711.702	0.0131643
711.780	0.0131156
711.858	0.0130158
711.936	0.0129813
712.014	0.0127731
712.092	0.0126318
712.170	0.0125888
712.249	0.0124397
712.327	0.0123263
712.405	0.0123186
712.483	0.0122489
712.561	0.0121826
712.639	0.0120871
712.717	0.0122707
712.795	0.0123579
712.874	0.0124297
712.952	0.0127565
713.030	0.0127654
713.108	0.0130039
713.186	0.0131913
713.264	0.0134052
713.342	0.0136697
713.420	0.0142313
713.499	0.0142969
713.577	0.0144270
713.655	0.0146770
713.733	0.0147337
713.811	0.0147434
713.889	0.0145896
713.967	0.0145783
714.045	0.0144236
714.124	0.0143987
714.202	0.0141550
714.280	0.0139684
714.358	0.0139961
714.436	0.0138778
714.514	0.0135186
714.592	0.0135024
714.670	0.0132673
714.749	0.0132575
714.827	0.0132208
714.905	0.0129716
714.983	0.0129269
715.061	0.0130041
715.139	0.0127016
715.217	0.0126380
715.295	0.0127178
715.374	0.0125307
715.452	0.0125047
715.530	0.0127027
715.608	0.0122895
715.686	0.0122930
715.764	0.0124529
715.842	0.0124744
715.920	0.0126642
715.999	0.0126682
716.077	0.0127365
716.155	0.0128613
716.233	0.0129007
716.311	0.0128908
716.389	0.0130435
716.467	0.0131860
716.545	0.0132761
716.624	0.0134086
716.702	0.0134629
716.780	0.0133568
716.858	0.0134412
716.936	0.0135316
717.014	0.0133257
717.092	0.0133369
717.170	0.0133645
717.249	0.0134538
717.327	0.0133406
717.405	0.0133797
717.483	0.0133074
717.561	0.0131798
717.639	0.0131931
717.717	0.0133148
717.795	0.0129926
717.874	0.0132320
717.952	0.0132346
718.030	0.0132059
718.108	0.0132679
718.186	0.0132644
718.264	0.0133569
718.342	0.0133023
718.420	0.0132241
718.499	0.0132260
718.577	0.0133323
718.655	0.0132967
718.733	0.0132973
718.811	0.0133077
718.889	0.0133047
718.967	0.0133314
719.045	0.0134502
719.124	0.0134534
719.202	0.0134695
719.280	0.0135571
719.358	0.0136388
719.436	0.0134613
719.514	0.0135210
719.592	0.0135042
719.670	0.0134969
719.749	0.0134379
719.827	0.0131337
719.905	0.0132872
719.983	0.0131451
720.061	0.0131406
720.139	0.0127853
720.217	0.0128749
720.295	0.0128639
720.374	0.0128114
720.452	0.0126425
720.530	0.0128417
720.608	0.0127205
720.686	0.0125341
720.764	0.0126239
720.842	0.0127098
720.920	0.0127924
720.999	0.0128542
721.077	0.0128625
721.155	0.0128314
721.233	0.0129167
721.311	0.0131290
721.389	0.0131468
721.467	0.0131136
721.545	0.0131306
721.624	0.0131406
721.702	0.0131753
721.780	0.0131021
721.858	0.0131301
721.936	0.0131052
722.014	0.0131911
722.092	0.0132204
722.170	0.0132545
722.249	0.0132758
722.327	0.0134000
722.405	0.0133152
722.483	0.0134426
722.561	0.0134988
722.639	0.0136497
722.717	0.0136757
722.795	0.0135947
722.874	0.0137318
722.952	0.0136009
723.030	0.0133132
723.108	0.0135902
723.186	0.0132829
723.264	0.0131000
723.342	0.0129895
723.420	0.0127692
723.499	0.0127538
723.577	0.0127113
723.655	0.0127073
723.733	0.0125176
723.811	0.0125694
723.889	0.0126742
723.967	0.0127598
724.045	0.0128603
724.124	0.0129860
724.202	0.0133074
724.280	0.0134032
724.358	0.0135835
724.436	0.0137209
724.514	0.0138879
724.592	0.0139642
724.670	0.0137518
724.749	0.0138431
724.827	0.0139639
724.905	0.0140536
724.983	0.0139242
725.061	0.0139877
725.139	0.0139731
725.217	0.0138663
725.295	0.0137470
725.374	0.0136269
725.452	0.0136236
725.530	0.0135947
725.608	0.0134802
725.686	0.0134032
725.764	0.0134268
725.842	0.0134372
725.920	0.0133776
725.999	0.0133855
726.077	0.0134133
726.155	0.0132987
726.233	0.0133844
726.311	0.0134346
726.389	0.0133833
726.467	0.0133028
726.545	0.0130798
726.624	0.0128784
726.702	0.0128446
726.780	0.0127286
726.858	0.0125235
726.936	0.0125370
727.014	0.0122060
727.092	0.0121201
727.170	0.0120990
727.249	0.0119769
727.327	0.0120482
727.405	0.0120646
727.483	0.0120265
727.561	0.0121780
727.639	0.0123808
727.717	0.0123728
727.795	0.0125141
727.874	0.0124885
727.952	0.0125375
728.030	0.0126733
728.108	0.0128136
728.186	0.0128651
728.264	0.0128710
728.342	0.0130094
728.420	0.0131332
728.499	0.0128973
728.577	0.0130189
728.655	0.0131914
728.733	0.0132309
728.811	0.0134115
728.889	0.0135641
728.967	0.0135844
729.045	0.0137733
729.124	0.0139521
729.202	0.0142695
729.280	0.0141644
729.358	0.0144739
729.436	0.0144318
729.514	0.0144477
729.592	0.0143974
729.670	0.0145530
729.749	0.0143333
729.827	0.0142472
729.905	0.0140996
729.983	0.0139116
730.061	0.0137485
730.139	0.0135612
730.217	0.0134801
730.295	0.0133864
730.374	0.0133201
730.452	0.0132096
730.530	0.0131490
730.608	0.0130441
730.686	0.0130251
730.764	0.0132787
730.842	0.0131161
730.920	0.0129832
730.999	0.0129659
731.077	0.0129997
731.155	0.0129401
731.233	0.0128300
731.311	0.0128353
731.389	0.0128873
731.467	0.0128391
731.545	0.0127834
731.624	0.0126625
731.702	0.0128312
731.780	0.0129586
731.858	0.0127872
731.936	0.0128938
732.014	0.0130045
732.092	0.0129471
732.170	0.0131348
732.249	0.0131664
732.327	0.0130396
732.405	0.0131498
732.483	0.0132306
732.561	0.0131947
732.639	0.0132584
732.717	0.0132703
732.795	0.0133701
732.874	0.0132096
732.952	0.0132154
733.030	0.0130898
733.108	0.0130511
733.186	0.0132481
733.264	0.0130760
733.342	0.0131863
733.420	0.0131264
733.499	0.0131214
733.577	0.0131651
733.655	0.0131754
733.733	0.0130574
733.811	0.0129449
733.889	0.0131583
733.967	0.0131539
734.045	0.0130256
734.124	0.0130853
734.202	0.0130724
734.280	0.0130219
734.358	0.0130872
734.436	0.0129446
734.514	0.0128600
734.592	0.0128616
734.670	0.0129842
734.749	0.0128220
734.827	0.0129212
734.905	0.0128311
734.983	0.0129100
735.061	0.0128615
735.139	0.0128350
735.217	0.0128554
735.295	0.0128731
735.374	0.0128643
735.452	0.0130247
735.530	0.0130061
735.608	0.0131029
