06/13/2022	14:26:57	Ver.	4.1	UNKNOWN
Optical Delay	599.968395	Delta X		0.078125	Sweeps	1	Scan Rate	0/0
Coordinates	Axis 1	NaN	Axis 2	NaN	Axis 3	NaN	Axis 4	NaN	Axis 5	NaN	Axis 6	0.000000
TX Power	0.000000	RX Power	0.000000

599.968	0.0156947
600.047	0.0155947
600.125	0.0158342
600.203	0.0157070
600.281	0.0156625
600.359	0.0157597
600.437	0.0157772
600.515	0.0156194
600.593	0.0156641
600.672	0.0157818
600.750	0.0157272
600.828	0.0155761
600.906	0.0155573
600.984	0.0157551
601.062	0.0157419
601.140	0.0155803
601.218	0.0156048
601.297	0.0156216
601.375	0.0156275
601.453	0.0157422
601.531	0.0157583
601.609	0.0157373
601.687	0.0157496
601.765	0.0156257
601.843	0.0156425
601.922	0.0156606
602.000	0.0157522
602.078	0.0157292
602.156	0.0155612
602.234	0.0156728
602.312	0.0157756
602.390	0.0156222
602.468	0.0156362
602.547	0.0155656
602.625	0.0157291
602.703	0.0158080
602.781	0.0156554
602.859	0.0157537
602.937	0.0157137
603.015	0.0155355
603.093	0.0156860
603.172	0.0158085
603.250	0.0157715
603.328	0.0156200
603.406	0.0155793
603.484	0.0156536
603.562	0.0157919
603.640	0.0157194
603.718	0.0156825
603.797	0.0156612
603.875	0.0157849
603.953	0.0157451
604.031	0.0157585
604.109	0.0155590
604.187	0.0156908
604.265	0.0157628
604.343	0.0155752
604.422	0.0155906
604.500	0.0157909
604.578	0.0157147
604.656	0.0158214
604.734	0.0157449
604.812	0.0156643
604.890	0.0157398
604.968	0.0156544
605.047	0.0155790
605.125	0.0156277
605.203	0.0157880
605.281	0.0157359
605.359	0.0157932
605.437	0.0156355
605.515	0.0156411
605.593	0.0158112
605.672	0.0157748
605.750	0.0157385
605.828	0.0156746
605.906	0.0157419
605.984	0.0156004
606.062	0.0157410
606.140	0.0157886
606.218	0.0156912
606.297	0.0157343
606.375	0.0157727
606.453	0.0156658
606.531	0.0156051
606.609	0.0157342
606.687	0.0156824
606.765	0.0156877
606.843	0.0156734
606.922	0.0157418
607.000	0.0158506
607.078	0.0156735
607.156	0.0158940
607.234	0.0157599
607.312	0.0156379
607.390	0.0157790
607.468	0.0156535
607.547	0.0156590
607.625	0.0158290
607.703	0.0156622
607.781	0.0157458
607.859	0.0156340
607.937	0.0156561
608.015	0.0156387
608.093	0.0157001
608.172	0.0157597
608.250	0.0157172
608.328	0.0157390
608.406	0.0156660
608.484	0.0156393
608.562	0.0156628
608.640	0.0156535
608.718	0.0157551
608.797	0.0156051
608.875	0.0155671
608.953	0.0157549
609.031	0.0156694
609.109	0.0156973
609.187	0.0158034
609.265	0.0156509
609.343	0.0156897
609.422	0.0156739
609.500	0.0157072
609.578	0.0159093
609.656	0.0156861
609.734	0.0157948
609.812	0.0156934
609.890	0.0157005
609.968	0.0157323
610.047	0.0157475
610.125	0.0155551
610.203	0.0157760
610.281	0.0156918
610.359	0.0157470
610.437	0.0157520
610.515	0.0157602
610.593	0.0156786
610.672	0.0157967
610.750	0.0157681
610.828	0.0156520
610.906	0.0158067
610.984	0.0156824
611.062	0.0157169
611.140	0.0157429
611.218	0.0156523
611.297	0.0156170
611.375	0.0157151
611.453	0.0158952
611.531	0.0157740
611.609	0.0155708
611.687	0.0157537
611.765	0.0156417
611.843	0.0157310
611.922	0.0157192
612.000	0.0157998
612.078	0.0157307
612.156	0.0157568
612.234	0.0157077
612.312	0.0155764
612.390	0.0155760
612.468	0.0158169
612.547	0.0157975
612.625	0.0156413
612.703	0.0157495
612.781	0.0156434
612.859	0.0157659
612.937	0.0157874
613.015	0.0156895
613.093	0.0156768
613.172	0.0154607
613.250	0.0156568
613.328	0.0157489
613.406	0.0157870
613.484	0.0156736
613.562	0.0156035
613.640	0.0156519
613.718	0.0157015
613.797	0.0157899
613.875	0.0156767
613.953	0.0153881
614.031	0.0156233
614.109	0.0156900
614.187	0.0156922
614.265	0.0157601
614.343	0.0157334
614.422	0.0157334
614.500	0.0157037
614.578	0.0157706
614.656	0.0156551
614.734	0.0156395
614.812	0.0157838
614.890	0.0156651
614.968	0.0157546
615.047	0.0157764
615.125	0.0155275
615.203	0.0158606
615.281	0.0157566
615.359	0.0156836
615.437	0.0156846
615.515	0.0158356
615.593	0.0157943
615.672	0.0157248
615.750	0.0157201
615.828	0.0157410
615.906	0.0157127
615.984	0.0158031
616.062	0.0156679
616.140	0.0156850
616.218	0.0158276
616.297	0.0157484
616.375	0.0156684
616.453	0.0156656
616.531	0.0157722
616.609	0.0157267
616.687	0.0156770
616.765	0.0156185
616.843	0.0157381
616.922	0.0156454
617.000	0.0157901
617.078	0.0158212
617.156	0.0158023
617.234	0.0157088
617.312	0.0155212
617.390	0.0158198
617.468	0.0156642
617.547	0.0155778
617.625	0.0158188
617.703	0.0157223
617.781	0.0157484
617.859	0.0157704
617.937	0.0155753
618.015	0.0156805
618.093	0.0156366
618.172	0.0158590
618.250	0.0157464
618.328	0.0157487
618.406	0.0156556
618.484	0.0156173
618.562	0.0158084
618.640	0.0157092
618.718	0.0155498
618.797	0.0158602
618.875	0.0157923
618.953	0.0156815
619.031	0.0156551
619.109	0.0156307
619.187	0.0156302
619.265	0.0157258
619.343	0.0156761
619.422	0.0156930
619.500	0.0157249
619.578	0.0156291
619.656	0.0155678
619.734	0.0158419
619.812	0.0156654
619.890	0.0156796
619.968	0.0156432
620.047	0.0155783
620.125	0.0158341
620.203	0.0157647
620.281	0.0156504
620.359	0.0158771
620.437	0.0156792
620.515	0.0156609
620.593	0.0157722
620.672	0.0156966
620.750	0.0156970
620.828	0.0157412
620.906	0.0158209
620.984	0.0155801
621.062	0.0156790
621.140	0.0156356
621.218	0.0155811
621.297	0.0156660
621.375	0.0155711
621.453	0.0156251
621.531	0.0157742
621.609	0.0157229
621.687	0.0155685
621.765	0.0156626
621.843	0.0156063
621.922	0.0156396
622.000	0.0158125
622.078	0.0157504
622.156	0.0156357
622.234	0.0156831
622.312	0.0157400
622.390	0.0156532
622.468	0.0156291
622.547	0.0157008
622.625	0.0157063
622.703	0.0157771
622.781	0.0156687
622.859	0.0156971
622.937	0.0158008
623.015	0.0156667
623.093	0.0155349
623.172	0.0156939
623.250	0.0157829
623.328	0.0155589
623.406	0.0156994
623.484	0.0156454
623.562	0.0156555
623.640	0.0156556
623.718	0.0157095
623.797	0.0157227
623.875	0.0155773
623.953	0.0157803
624.031	0.0156640
624.109	0.0156499
624.187	0.0156673
624.265	0.0155817
624.343	0.0158484
624.422	0.0157010
624.500	0.0156992
624.578	0.0157217
624.656	0.0156525
624.734	0.0158346
624.812	0.0156375
624.890	0.0155350
624.968	0.0157597
625.047	0.0155874
625.125	0.0157256
625.203	0.0157236
625.281	0.0157642
625.359	0.0156808
625.437	0.0156539
625.515	0.0155006
625.593	0.0156630
625.672	0.0157289
625.750	0.0156475
625.828	0.0156358
625.906	0.0156442
625.984	0.0155885
626.062	0.0156858
626.140	0.0157288
626.218	0.0157197
626.297	0.0156820
626.375	0.0158254
626.453	0.0156748
626.531	0.0155864
626.609	0.0156607
626.687	0.0156847
626.765	0.0158595
626.843	0.0156299
626.922	0.0157500
627.000	0.0156470
627.078	0.0157275
627.156	0.0157042
627.234	0.0157542
627.312	0.0157241
627.390	0.0155922
627.468	0.0156921
627.547	0.0157493
627.625	0.0157175
627.703	0.0156956
627.781	0.0157437
627.859	0.0156756
627.937	0.0156867
628.015	0.0158370
628.093	0.0155823
628.172	0.0156245
628.250	0.0154733
628.328	0.0155692
628.406	0.0157406
628.484	0.0156843
628.562	0.0156761
628.640	0.0156030
628.718	0.0156049
628.797	0.0157327
628.875	0.0157668
628.953	0.0156895
629.031	0.0155884
629.109	0.0157574
629.187	0.0157601
629.265	0.0157211
629.343	0.0156064
629.422	0.0156104
629.500	0.0157563
629.578	0.0157065
629.656	0.0157452
629.734	0.0156414
629.812	0.0157198
629.890	0.0157235
629.968	0.0156925
630.047	0.0156670
630.125	0.0156712
630.203	0.0155623
630.281	0.0157755
630.359	0.0157277
630.437	0.0156947
630.515	0.0156949
630.593	0.0157250
630.672	0.0157876
630.750	0.0157599
630.828	0.0157541
630.906	0.0157307
630.984	0.0156448
631.062	0.0156409
631.140	0.0157355
631.218	0.0156503
631.297	0.0156783
631.375	0.0156875
631.453	0.0156796
631.531	0.0157030
631.609	0.0156276
631.687	0.0156170
631.765	0.0156959
631.843	0.0157880
631.922	0.0156915
632.000	0.0156229
632.078	0.0157659
632.156	0.0157273
632.234	0.0156436
632.312	0.0158343
632.390	0.0156012
632.468	0.0156870
632.547	0.0156007
632.625	0.0155444
632.703	0.0157125
632.781	0.0156740
632.859	0.0157758
632.937	0.0156868
633.015	0.0158234
633.093	0.0157764
633.172	0.0156005
633.250	0.0157543
633.328	0.0156863
633.406	0.0158627
633.484	0.0157489
633.562	0.0158119
633.640	0.0156915
633.718	0.0155726
633.797	0.0156274
633.875	0.0156813
633.953	0.0157330
634.031	0.0158016
634.109	0.0156834
634.187	0.0157170
634.265	0.0156653
634.343	0.0156211
634.422	0.0158304
634.500	0.0157877
634.578	0.0156932
634.656	0.0158015
634.734	0.0155505
634.812	0.0157678
634.890	0.0157068
634.968	0.0157397
635.047	0.0157345
635.125	0.0157205
635.203	0.0156659
635.281	0.0158328
635.359	0.0156753
635.437	0.0157024
635.515	0.0156194
635.593	0.0156674
635.672	0.0157109
635.750	0.0157069
635.828	0.0157732
635.906	0.0157232
635.984	0.0157655
636.062	0.0156528
636.140	0.0158216
636.218	0.0156510
636.297	0.0155836
636.375	0.0156651
636.453	0.0156978
636.531	0.0156979
636.609	0.0156266
636.687	0.0157639
636.765	0.0158163
636.843	0.0158942
636.922	0.0158089
637.000	0.0157040
637.078	0.0157621
637.156	0.0157972
637.234	0.0156451
637.312	0.0156793
637.390	0.0157574
637.468	0.0157561
637.547	0.0158292
637.625	0.0156834
637.703	0.0156708
637.781	0.0156863
637.859	0.0158360
637.937	0.0158842
638.015	0.0157543
638.093	0.0156702
638.172	0.0157957
638.250	0.0156098
638.328	0.0157175
638.406	0.0156846
638.484	0.0155954
638.562	0.0156618
638.640	0.0157046
638.718	0.0158010
638.797	0.0157462
638.875	0.0154932
638.953	0.0156744
639.031	0.0156058
639.109	0.0157513
639.187	0.0157349
639.265	0.0156361
639.343	0.0156638
639.422	0.0156167
639.500	0.0158556
639.578	0.0156409
639.656	0.0156604
639.734	0.0156590
639.812	0.0156899
639.890	0.0156875
639.968	0.0157094
640.047	0.0156944
640.125	0.0157017
640.203	0.0158649
640.281	0.0157729
640.359	0.0156697
640.437	0.0155924
640.515	0.0157241
640.593	0.0156478
640.672	0.0157529
640.750	0.0157332
640.828	0.0157189
640.906	0.0156960
640.984	0.0157199
641.062	0.0157613
641.140	0.0157653
641.218	0.0157505
641.297	0.0157487
641.375	0.0157120
641.453	0.0157291
641.531	0.0156737
641.609	0.0157810
641.687	0.0157067
641.765	0.0157665
641.843	0.0157698
641.922	0.0158196
642.000	0.0156623
642.078	0.0158134
642.156	0.0157857
642.234	0.0156435
642.312	0.0156485
642.390	0.0156919
642.468	0.0157581
642.547	0.0157742
642.625	0.0156725
642.703	0.0157061
642.781	0.0156612
642.859	0.0156619
642.937	0.0156903
643.015	0.0158161
643.093	0.0157162
643.172	0.0156510
643.250	0.0157348
643.328	0.0156785
643.406	0.0156190
643.484	0.0157249
643.562	0.0156715
643.640	0.0156854
643.718	0.0156111
643.797	0.0157269
643.875	0.0156857
643.953	0.0157326
644.031	0.0156571
644.109	0.0157626
644.187	0.0157211
644.265	0.0156073
644.343	0.0156749
644.422	0.0157335
644.500	0.0156509
644.578	0.0157457
644.656	0.0158321
644.734	0.0157417
644.812	0.0158102
644.890	0.0156686
644.968	0.0157938
645.047	0.0157965
645.125	0.0157777
645.203	0.0156671
645.281	0.0156300
645.359	0.0157574
645.437	0.0156551
645.515	0.0157163
645.593	0.0157368
645.672	0.0157391
645.750	0.0155523
645.828	0.0156822
645.906	0.0156719
645.984	0.0156685
646.062	0.0157948
646.140	0.0158215
646.218	0.0156870
646.297	0.0158090
646.375	0.0155627
646.453	0.0156966
646.531	0.0155902
646.609	0.0156895
646.687	0.0157735
646.765	0.0157373
646.843	0.0156792
646.922	0.0157967
647.000	0.0156722
647.078	0.0157190
647.156	0.0157388
647.234	0.0155682
647.312	0.0157333
647.390	0.0156879
647.468	0.0158327
647.547	0.0158775
647.625	0.0158092
647.703	0.0156009
647.781	0.0158008
647.859	0.0157277
647.937	0.0158124
648.015	0.0155703
648.093	0.0157103
648.172	0.0158011
648.250	0.0158123
648.328	0.0158514
648.406	0.0156622
648.484	0.0156454
648.562	0.0156770
648.640	0.0157957
648.718	0.0156480
648.797	0.0158160
648.875	0.0156898
648.953	0.0156892
649.031	0.0159236
649.109	0.0156779
649.187	0.0156980
649.265	0.0155820
649.343	0.0157775
649.422	0.0156253
649.500	0.0157547
649.578	0.0156944
649.656	0.0157639
649.734	0.0158257
649.812	0.0157544
649.890	0.0156911
649.968	0.0157370
650.047	0.0156503
650.125	0.0157283
650.203	0.0157211
650.281	0.0158195
650.359	0.0157146
650.437	0.0157334
650.515	0.0156626
650.593	0.0157240
650.672	0.0157853
650.750	0.0157529
650.828	0.0157869
650.906	0.0157523
650.984	0.0156899
651.062	0.0158020
651.140	0.0158670
651.218	0.0157076
651.297	0.0157085
651.375	0.0156937
651.453	0.0156213
651.531	0.0158032
651.609	0.0155917
651.687	0.0156041
651.765	0.0156361
651.843	0.0156841
651.922	0.0157109
652.000	0.0156988
652.078	0.0156596
652.156	0.0158282
652.234	0.0157272
652.312	0.0155948
652.390	0.0158263
652.468	0.0157221
652.547	0.0156601
652.625	0.0155804
652.703	0.0157674
652.781	0.0159052
652.859	0.0157505
652.937	0.0157518
653.015	0.0157404
653.093	0.0155987
653.172	0.0158300
653.250	0.0156481
653.328	0.0157616
653.406	0.0156598
653.484	0.0155693
653.562	0.0156915
653.640	0.0156062
653.718	0.0155437
653.797	0.0157594
653.875	0.0157008
653.953	0.0154934
654.031	0.0156262
654.109	0.0157574
654.187	0.0158046
654.265	0.0157288
654.343	0.0157339
654.422	0.0157846
654.500	0.0156301
654.578	0.0157378
654.656	0.0157479
654.734	0.0157509
654.812	0.0157224
654.890	0.0157565
654.968	0.0157079
655.047	0.0156845
655.125	0.0157920
655.203	0.0157706
655.281	0.0157386
655.359	0.0156878
655.437	0.0157479
655.515	0.0156764
655.593	0.0157471
655.672	0.0156816
655.750	0.0158567
655.828	0.0156514
655.906	0.0157016
655.984	0.0157265
656.062	0.0158129
656.140	0.0157738
656.218	0.0156499
656.297	0.0157585
656.375	0.0156748
656.453	0.0156266
656.531	0.0158199
656.609	0.0157446
656.687	0.0158146
656.765	0.0156735
656.843	0.0157054
656.922	0.0156313
657.000	0.0156034
657.078	0.0157454
657.156	0.0156974
657.234	0.0156171
657.312	0.0156250
657.390	0.0157700
657.468	0.0156528
657.547	0.0157494
657.625	0.0157087
657.703	0.0156062
657.781	0.0157067
657.859	0.0157732
657.937	0.0157074
658.015	0.0156767
658.093	0.0157530
658.172	0.0158609
658.250	0.0157838
658.328	0.0157997
658.406	0.0159303
658.484	0.0156964
658.562	0.0157249
658.640	0.0157163
658.718	0.0157471
658.797	0.0158444
658.875	0.0157042
658.953	0.0156512
659.031	0.0157258
659.109	0.0156722
659.187	0.0158763
659.265	0.0156844
659.343	0.0156432
659.422	0.0156561
659.500	0.0157987
659.578	0.0157130
659.656	0.0157195
659.734	0.0157426
659.812	0.0156232
659.890	0.0156752
659.968	0.0156709
660.047	0.0157550
660.125	0.0158137
660.203	0.0157119
660.281	0.0157263
660.359	0.0157185
660.437	0.0157848
660.515	0.0157838
660.593	0.0157639
660.672	0.0158051
660.750	0.0156810
660.828	0.0156244
660.906	0.0156992
660.984	0.0158289
661.062	0.0157798
661.140	0.0157376
661.218	0.0156607
661.297	0.0157361
661.375	0.0157664
661.453	0.0155955
661.531	0.0156914
661.609	0.0156173
661.687	0.0156689
661.765	0.0156682
661.843	0.0156161
661.922	0.0156465
662.000	0.0157040
662.078	0.0156651
662.156	0.0156914
662.234	0.0156613
662.312	0.0157530
662.390	0.0157053
662.468	0.0156307
662.547	0.0157991
662.625	0.0157089
662.703	0.0155369
662.781	0.0157179
662.859	0.0156921
662.937	0.0157460
663.015	0.0158150
663.093	0.0157628
663.172	0.0155753
663.250	0.0157124
663.328	0.0158019
663.406	0.0155976
663.484	0.0156792
663.562	0.0157426
663.640	0.0157853
663.718	0.0156863
663.797	0.0156884
663.875	0.0156217
663.953	0.0156577
664.031	0.0155534
664.109	0.0156243
664.187	0.0156479
664.265	0.0156059
664.343	0.0156487
664.422	0.0157307
664.500	0.0157581
664.578	0.0156882
664.656	0.0157142
664.734	0.0156517
664.812	0.0155096
664.890	0.0156998
664.968	0.0157700
665.047	0.0158017
665.125	0.0156408
665.203	0.0157168
665.281	0.0156338
665.359	0.0157835
665.437	0.0157453
665.515	0.0156145
665.593	0.0156950
665.672	0.0156818
665.750	0.0157446
665.828	0.0158523
665.906	0.0157675
665.984	0.0157553
666.062	0.0156448
666.140	0.0158090
666.218	0.0155936
666.297	0.0157780
666.375	0.0157792
666.453	0.0158290
666.531	0.0157003
666.609	0.0157525
666.687	0.0156427
666.765	0.0156635
666.843	0.0157050
666.922	0.0157903
667.000	0.0158351
667.078	0.0157220
667.156	0.0158664
667.234	0.0158597
667.312	0.0157460
667.390	0.0157347
667.468	0.0157967
667.547	0.0156571
667.625	0.0157068
667.703	0.0157867
667.781	0.0157909
667.859	0.0157291
667.937	0.0157769
668.015	0.0158627
668.093	0.0158429
668.172	0.0157152
668.250	0.0156230
668.328	0.0157479
668.406	0.0157661
668.484	0.0156673
668.562	0.0157544
668.640	0.0156834
668.718	0.0158000
668.797	0.0158774
668.875	0.0156987
668.953	0.0156850
669.031	0.0155910
669.109	0.0155405
669.187	0.0155996
669.265	0.0157610
669.343	0.0159499
669.422	0.0156071
669.500	0.0156455
669.578	0.0157154
669.656	0.0157162
669.734	0.0156715
669.812	0.0156964
669.890	0.0157352
669.968	0.0156082
670.047	0.0155206
670.125	0.0157884
670.203	0.0155836
670.281	0.0157277
670.359	0.0156848
670.437	0.0157789
670.515	0.0157191
670.593	0.0158417
670.672	0.0157861
670.750	0.0158570
670.828	0.0157626
670.906	0.0157218
670.984	0.0157767
671.062	0.0156647
671.140	0.0157104
671.218	0.0156331
671.297	0.0157265
671.375	0.0158137
671.453	0.0157491
671.531	0.0157651
671.609	0.0157232
671.687	0.0156783
671.765	0.0158328
671.843	0.0157512
671.922	0.0157555
672.000	0.0157362
672.078	0.0157559
672.156	0.0157259
672.234	0.0155526
672.312	0.0157366
672.390	0.0157506
672.468	0.0157123
672.547	0.0158983
672.625	0.0156732
672.703	0.0156390
672.781	0.0157790
672.859	0.0157569
672.937	0.0157434
673.015	0.0158316
673.093	0.0157361
673.172	0.0157250
673.250	0.0156674
673.328	0.0158186
673.406	0.0158452
673.484	0.0157407
673.562	0.0157671
673.640	0.0156493
673.718	0.0156050
673.797	0.0157612
673.875	0.0156222
673.953	0.0157842
674.031	0.0156488
674.109	0.0158044
674.187	0.0156844
674.265	0.0157432
674.343	0.0158386
674.422	0.0157510
674.500	0.0156744
674.578	0.0158210
674.656	0.0157480
674.734	0.0156785
674.812	0.0157493
674.890	0.0157880
674.968	0.0157069
675.047	0.0157530
675.125	0.0156914
675.203	0.0157307
675.281	0.0158109
675.359	0.0158309
675.437	0.0157120
675.515	0.0157484
675.593	0.0157679
675.672	0.0158082
675.750	0.0159307
675.828	0.0158468
675.906	0.0157076
675.984	0.0157930
676.062	0.0158320
676.140	0.0157458
676.218	0.0157805
676.297	0.0157215
676.375	0.0157134
676.453	0.0155221
676.531	0.0157245
676.609	0.0157354
676.687	0.0156601
676.765	0.0157925
676.843	0.0157594
676.922	0.0157160
677.000	0.0157153
677.078	0.0157410
677.156	0.0157488
677.234	0.0157964
677.312	0.0157552
677.390	0.0156863
677.468	0.0157086
677.547	0.0158354
677.625	0.0156976
677.703	0.0156065
677.781	0.0157395
677.859	0.0158282
677.937	0.0158270
678.015	0.0158462
678.093	0.0158212
678.172	0.0157502
678.250	0.0157950
678.328	0.0158025
678.406	0.0157262
678.484	0.0156303
678.562	0.0157782
678.640	0.0156744
678.718	0.0157025
678.797	0.0158748
678.875	0.0157650
678.953	0.0157374
679.031	0.0157387
679.109	0.0158951
679.187	0.0157534
679.265	0.0157220
679.343	0.0158871
679.422	0.0158379
679.500	0.0157746
679.578	0.0157418
679.656	0.0157439
679.734	0.0157770
679.812	0.0156805
679.890	0.0157471
679.968	0.0157658
680.047	0.0157810
680.125	0.0158350
680.203	0.0158550
680.281	0.0157867
680.359	0.0157473
680.437	0.0157880
680.515	0.0157942
680.593	0.0157829
680.672	0.0155782
680.750	0.0157354
680.828	0.0158427
680.906	0.0156107
680.984	0.0157173
681.062	0.0158142
681.140	0.0155952
681.218	0.0156096
681.297	0.0158336
681.375	0.0157943
681.453	0.0157017
681.531	0.0157049
681.609	0.0157124
681.687	0.0157980
681.765	0.0158417
681.843	0.0156470
681.922	0.0156102
682.000	0.0157320
682.078	0.0157430
682.156	0.0157778
682.234	0.0158035
682.312	0.0157207
682.390	0.0156953
682.468	0.0157035
682.547	0.0157743
682.625	0.0158288
682.703	0.0157090
682.781	0.0156254
682.859	0.0158015
682.937	0.0156274
683.015	0.0157317
683.093	0.0157582
683.172	0.0156792
683.250	0.0157327
683.328	0.0156863
683.406	0.0156397
683.484	0.0156847
683.562	0.0157449
683.640	0.0157164
683.718	0.0156871
683.797	0.0158406
683.875	0.0158203
683.953	0.0157040
684.031	0.0157656
684.109	0.0156901
684.187	0.0156960
684.265	0.0157906
684.343	0.0157826
684.422	0.0156590
684.500	0.0157093
684.578	0.0157413
684.656	0.0157314
684.734	0.0157295
684.812	0.0156158
684.890	0.0159315
684.968	0.0158238
685.047	0.0156952
685.125	0.0157144
685.203	0.0157227
685.281	0.0157309
685.359	0.0156470
685.437	0.0157890
685.515	0.0156781
685.593	0.0156585
685.672	0.0156925
