06/13/2022	14:27:22	Ver.	4.1	UNKNOWN
Optical Delay	599.968395	Delta X		0.078125	Sweeps	1	Scan Rate	0/0
Coordinates	Axis 1	NaN	Axis 2	NaN	Axis 3	NaN	Axis 4	NaN	Axis 5	NaN	Axis 6	0.000000
TX Power	0.000000	RX Power	0.000000

599.968	0.0160265
600.047	0.0159704
600.125	0.0158747
600.203	0.0160419
600.281	0.0160345
600.359	0.0160576
600.437	0.0160232
600.515	0.0159607
600.593	0.0160174
600.672	0.0160303
600.750	0.0160077
600.828	0.0160708
600.906	0.0159390
600.984	0.0160114
601.062	0.0159760
601.140	0.0160053
601.218	0.0159971
601.297	0.0159824
601.375	0.0159757
601.453	0.0159896
601.531	0.0160319
601.609	0.0158972
601.687	0.0160186
601.765	0.0160349
601.843	0.0159255
601.922	0.0159589
602.000	0.0160292
602.078	0.0160110
602.156	0.0161320
602.234	0.0160787
602.312	0.0160744
602.390	0.0159614
602.468	0.0159395
602.547	0.0159597
602.625	0.0158426
602.703	0.0158783
602.781	0.0161158
602.859	0.0159969
602.937	0.0159586
603.015	0.0160594
603.093	0.0160812
603.172	0.0160909
603.250	0.0159173
603.328	0.0159270
603.406	0.0160580
603.484	0.0158880
603.562	0.0158840
603.640	0.0160394
603.718	0.0161255
603.797	0.0159822
603.875	0.0159232
603.953	0.0160047
604.031	0.0159740
604.109	0.0159801
604.187	0.0159393
604.265	0.0159652
604.343	0.0159660
604.422	0.0159953
604.500	0.0160715
604.578	0.0159528
604.656	0.0159164
604.734	0.0159753
604.812	0.0161092
604.890	0.0160544
604.968	0.0158938
605.047	0.0158459
605.125	0.0159137
605.203	0.0160149
605.281	0.0159587
605.359	0.0160333
605.437	0.0159661
605.515	0.0158125
605.593	0.0160112
605.672	0.0159893
605.750	0.0159953
605.828	0.0160217
605.906	0.0158904
605.984	0.0158813
606.062	0.0159605
606.140	0.0159367
606.218	0.0159718
606.297	0.0158385
606.375	0.0160287
606.453	0.0159835
606.531	0.0160623
606.609	0.0159632
606.687	0.0159347
606.765	0.0158603
606.843	0.0159387
606.922	0.0159650
607.000	0.0160505
607.078	0.0159771
607.156	0.0159951
607.234	0.0159491
607.312	0.0160242
607.390	0.0159608
607.468	0.0159902
607.547	0.0158591
607.625	0.0159055
607.703	0.0160464
607.781	0.0160017
607.859	0.0159140
607.937	0.0160414
608.015	0.0160635
608.093	0.0159743
608.172	0.0160226
608.250	0.0158987
608.328	0.0158545
608.406	0.0160058
608.484	0.0160614
608.562	0.0161225
608.640	0.0159441
608.718	0.0158415
608.797	0.0159941
608.875	0.0159220
608.953	0.0160007
609.031	0.0159069
609.109	0.0160151
609.187	0.0159362
609.265	0.0159753
609.343	0.0162248
609.422	0.0159838
609.500	0.0159703
609.578	0.0159749
609.656	0.0159338
609.734	0.0159983
609.812	0.0161089
609.890	0.0159367
609.968	0.0159093
610.047	0.0159863
610.125	0.0160089
610.203	0.0159093
610.281	0.0159465
610.359	0.0158946
610.437	0.0160442
610.515	0.0160233
610.593	0.0160252
610.672	0.0159499
610.750	0.0159702
610.828	0.0160320
610.906	0.0159646
610.984	0.0159580
611.062	0.0160255
611.140	0.0160198
611.218	0.0160407
611.297	0.0160000
611.375	0.0159452
611.453	0.0160311
611.531	0.0159853
611.609	0.0159521
611.687	0.0160156
611.765	0.0160276
611.843	0.0159302
611.922	0.0160825
612.000	0.0160575
612.078	0.0159790
612.156	0.0159542
612.234	0.0158708
612.312	0.0159914
612.390	0.0159803
612.468	0.0159484
612.547	0.0159418
612.625	0.0159731
612.703	0.0159669
612.781	0.0159815
612.859	0.0159651
612.937	0.0159081
613.015	0.0159563
613.093	0.0160464
613.172	0.0159299
613.250	0.0159367
613.328	0.0158920
613.406	0.0157651
613.484	0.0160040
613.562	0.0160917
613.640	0.0159367
613.718	0.0158894
613.797	0.0159650
613.875	0.0160381
613.953	0.0159697
614.031	0.0160557
614.109	0.0159913
614.187	0.0159586
614.265	0.0159167
614.343	0.0159600
614.422	0.0159980
614.500	0.0159963
614.578	0.0160184
614.656	0.0160988
614.734	0.0159543
614.812	0.0159749
614.890	0.0159738
614.968	0.0161172
615.047	0.0159372
615.125	0.0158991
615.203	0.0159432
615.281	0.0159635
615.359	0.0159846
615.437	0.0159679
615.515	0.0159027
615.593	0.0158424
615.672	0.0160034
615.750	0.0160772
615.828	0.0159188
615.906	0.0157331
615.984	0.0159381
616.062	0.0162014
616.140	0.0160049
616.218	0.0160048
616.297	0.0160115
616.375	0.0160098
616.453	0.0158172
616.531	0.0159316
616.609	0.0160172
616.687	0.0159180
616.765	0.0160417
616.843	0.0160002
616.922	0.0159765
617.000	0.0161530
617.078	0.0158780
617.156	0.0160188
617.234	0.0158833
617.312	0.0159709
617.390	0.0159261
617.468	0.0160432
617.547	0.0160246
617.625	0.0161501
617.703	0.0161134
617.781	0.0161404
617.859	0.0160634
617.937	0.0158665
618.015	0.0160151
618.093	0.0161098
618.172	0.0160594
618.250	0.0160366
618.328	0.0159824
618.406	0.0159135
618.484	0.0160119
618.562	0.0159774
618.640	0.0159606
618.718	0.0160353
618.797	0.0158315
618.875	0.0158815
618.953	0.0160938
619.031	0.0161014
619.109	0.0159608
619.187	0.0159771
619.265	0.0160090
619.343	0.0160854
619.422	0.0159635
619.500	0.0160254
619.578	0.0158543
619.656	0.0160136
619.734	0.0160110
619.812	0.0158511
619.890	0.0161179
619.968	0.0161655
620.047	0.0160502
620.125	0.0159821
620.203	0.0160123
620.281	0.0159525
620.359	0.0159556
620.437	0.0160644
620.515	0.0160123
620.593	0.0159826
620.672	0.0160413
620.750	0.0159739
620.828	0.0160495
620.906	0.0160577
620.984	0.0160892
621.062	0.0162069
621.140	0.0160308
621.218	0.0160183
621.297	0.0159858
621.375	0.0160564
621.453	0.0160226
621.531	0.0160598
621.609	0.0159696
621.687	0.0160061
621.765	0.0159815
621.843	0.0159193
621.922	0.0159888
622.000	0.0159769
622.078	0.0160453
622.156	0.0159583
622.234	0.0159102
622.312	0.0158796
622.390	0.0161131
622.468	0.0159850
622.547	0.0160524
622.625	0.0159503
622.703	0.0160187
622.781	0.0159152
622.859	0.0160834
622.937	0.0159007
623.015	0.0159069
623.093	0.0159957
623.172	0.0159521
623.250	0.0159724
623.328	0.0159109
623.406	0.0159103
623.484	0.0160023
623.562	0.0159607
623.640	0.0159377
623.718	0.0158973
623.797	0.0159311
623.875	0.0159349
623.953	0.0160252
624.031	0.0159229
624.109	0.0160193
624.187	0.0159633
624.265	0.0160455
624.343	0.0160885
624.422	0.0160822
624.500	0.0160060
624.578	0.0158154
624.656	0.0159669
624.734	0.0159872
624.812	0.0158651
624.890	0.0158038
624.968	0.0160550
625.047	0.0159425
625.125	0.0159238
625.203	0.0159684
625.281	0.0159563
625.359	0.0160002
625.437	0.0160264
625.515	0.0159676
625.593	0.0160338
625.672	0.0159344
625.750	0.0159248
625.828	0.0159621
625.906	0.0159543
625.984	0.0158854
626.062	0.0159038
626.140	0.0160445
626.218	0.0161446
626.297	0.0160329
626.375	0.0160522
626.453	0.0159819
626.531	0.0158564
626.609	0.0159772
626.687	0.0159777
626.765	0.0159994
626.843	0.0159231
626.922	0.0161651
627.000	0.0159669
627.078	0.0159385
627.156	0.0159937
627.234	0.0162371
627.312	0.0160648
627.390	0.0158582
627.468	0.0160108
627.547	0.0160244
627.625	0.0158255
627.703	0.0160741
627.781	0.0160548
627.859	0.0159286
627.937	0.0160322
628.015	0.0160426
628.093	0.0159693
628.172	0.0159636
628.250	0.0159819
628.328	0.0160890
628.406	0.0158987
628.484	0.0160803
628.562	0.0161496
628.640	0.0160117
628.718	0.0160755
628.797	0.0160151
628.875	0.0158907
628.953	0.0160552
629.031	0.0160154
629.109	0.0158955
629.187	0.0159064
629.265	0.0160130
629.343	0.0160310
629.422	0.0160201
629.500	0.0160376
629.578	0.0159339
629.656	0.0160065
629.734	0.0160357
629.812	0.0158970
629.890	0.0158646
629.968	0.0160588
630.047	0.0160268
630.125	0.0157611
630.203	0.0160012
630.281	0.0159064
630.359	0.0159490
630.437	0.0160918
630.515	0.0158923
630.593	0.0159513
630.672	0.0158517
630.750	0.0159458
630.828	0.0159172
630.906	0.0158536
630.984	0.0160615
631.062	0.0160162
631.140	0.0159644
631.218	0.0159606
631.297	0.0159073
631.375	0.0160661
631.453	0.0161490
631.531	0.0159912
631.609	0.0159071
631.687	0.0160552
631.765	0.0161156
631.843	0.0160880
631.922	0.0159810
632.000	0.0160306
632.078	0.0160395
632.156	0.0159791
632.234	0.0159023
632.312	0.0161350
632.390	0.0159119
632.468	0.0159029
632.547	0.0159927
632.625	0.0160173
632.703	0.0160214
632.781	0.0160856
632.859	0.0159174
632.937	0.0160059
633.015	0.0161430
633.093	0.0159844
633.172	0.0159135
633.250	0.0160120
633.328	0.0160613
633.406	0.0160191
633.484	0.0159794
633.562	0.0158523
633.640	0.0159217
633.718	0.0159097
633.797	0.0160136
633.875	0.0160263
633.953	0.0158265
634.031	0.0159796
634.109	0.0159675
634.187	0.0159892
634.265	0.0159904
634.343	0.0160464
634.422	0.0160884
634.500	0.0158517
634.578	0.0158791
634.656	0.0158469
634.734	0.0159329
634.812	0.0159145
634.890	0.0158515
634.968	0.0160341
635.047	0.0159573
635.125	0.0159348
635.203	0.0159401
635.281	0.0159210
635.359	0.0159831
635.437	0.0159383
635.515	0.0158884
635.593	0.0159092
635.672	0.0160309
635.750	0.0160989
635.828	0.0160090
635.906	0.0159866
635.984	0.0159232
636.062	0.0160156
636.140	0.0160887
636.218	0.0159629
636.297	0.0159480
636.375	0.0161357
636.453	0.0159840
636.531	0.0159956
636.609	0.0159005
636.687	0.0160535
636.765	0.0159988
636.843	0.0159902
636.922	0.0158813
637.000	0.0159726
637.078	0.0160577
637.156	0.0159499
637.234	0.0159487
637.312	0.0160044
637.390	0.0159257
637.468	0.0162357
637.547	0.0159911
637.625	0.0160051
637.703	0.0159081
637.781	0.0159964
637.859	0.0160390
637.937	0.0159330
638.015	0.0158984
638.093	0.0158756
638.172	0.0160719
638.250	0.0159729
638.328	0.0159772
638.406	0.0159547
638.484	0.0159035
638.562	0.0161212
638.640	0.0160812
638.718	0.0158875
638.797	0.0159183
638.875	0.0159487
638.953	0.0160096
639.031	0.0160707
639.109	0.0160699
639.187	0.0159974
639.265	0.0161505
639.343	0.0159632
639.422	0.0159151
639.500	0.0158617
639.578	0.0160137
639.656	0.0158765
639.734	0.0159678
639.812	0.0159474
639.890	0.0160111
639.968	0.0160384
640.047	0.0159660
640.125	0.0159521
640.203	0.0160549
640.281	0.0160282
640.359	0.0159521
640.437	0.0159628
640.515	0.0159819
640.593	0.0160113
640.672	0.0159750
640.750	0.0158369
640.828	0.0159876
640.906	0.0160213
640.984	0.0159249
641.062	0.0160725
641.140	0.0160275
641.218	0.0158988
641.297	0.0160760
641.375	0.0161572
641.453	0.0159752
641.531	0.0158976
641.609	0.0159397
641.687	0.0159929
641.765	0.0159885
641.843	0.0161121
641.922	0.0160210
642.000	0.0158694
642.078	0.0159305
642.156	0.0159391
642.234	0.0159655
642.312	0.0159863
642.390	0.0159343
642.468	0.0160252
642.547	0.0160438
642.625	0.0159459
642.703	0.0159859
642.781	0.0160518
642.859	0.0159593
642.937	0.0159612
643.015	0.0158917
643.093	0.0159634
643.172	0.0159756
643.250	0.0159747
643.328	0.0159615
643.406	0.0159729
643.484	0.0160117
643.562	0.0159666
643.640	0.0160196
643.718	0.0160402
643.797	0.0159695
643.875	0.0160086
643.953	0.0159840
644.031	0.0158033
644.109	0.0159837
644.187	0.0160150
644.265	0.0160454
644.343	0.0159145
644.422	0.0159499
644.500	0.0160810
644.578	0.0159604
644.656	0.0159580
644.734	0.0158808
644.812	0.0159440
644.890	0.0159451
644.968	0.0159039
645.047	0.0159826
645.125	0.0159288
645.203	0.0159898
645.281	0.0159413
645.359	0.0160029
645.437	0.0159812
645.515	0.0160090
645.593	0.0159487
645.672	0.0159769
645.750	0.0159544
645.828	0.0159560
645.906	0.0158858
645.984	0.0160434
646.062	0.0160450
646.140	0.0159786
646.218	0.0159084
646.297	0.0158816
646.375	0.0160098
646.453	0.0159641
646.531	0.0160641
646.609	0.0160611
646.687	0.0158844
646.765	0.0159099
646.843	0.0160748
646.922	0.0161396
647.000	0.0160056
647.078	0.0160536
647.156	0.0160536
647.234	0.0159445
647.312	0.0160380
647.390	0.0160759
647.468	0.0159015
647.547	0.0159177
647.625	0.0161859
647.703	0.0161773
647.781	0.0160635
647.859	0.0159413
647.937	0.0160056
648.015	0.0159538
648.093	0.0159860
648.172	0.0158854
648.250	0.0158055
648.328	0.0159134
648.406	0.0159724
648.484	0.0160033
648.562	0.0160309
648.640	0.0159621
648.718	0.0159534
648.797	0.0158591
648.875	0.0160347
648.953	0.0159548
649.031	0.0158656
649.109	0.0159705
649.187	0.0160162
649.265	0.0160246
649.343	0.0159015
649.422	0.0160466
649.500	0.0160369
649.578	0.0160476
649.656	0.0161298
649.734	0.0159872
649.812	0.0159615
649.890	0.0159361
649.968	0.0159629
650.047	0.0158787
650.125	0.0159583
650.203	0.0160210
650.281	0.0158810
650.359	0.0160755
650.437	0.0159802
650.515	0.0159815
650.593	0.0158705
650.672	0.0159608
650.750	0.0159816
650.828	0.0159741
650.906	0.0159739
650.984	0.0160493
651.062	0.0159544
651.140	0.0158958
651.218	0.0160564
651.297	0.0160735
651.375	0.0159147
651.453	0.0159343
651.531	0.0159692
651.609	0.0161217
651.687	0.0159634
651.765	0.0159545
651.843	0.0160004
651.922	0.0160384
652.000	0.0160336
652.078	0.0160094
652.156	0.0159793
652.234	0.0161116
652.312	0.0160252
652.390	0.0158554
652.468	0.0158954
652.547	0.0158590
652.625	0.0160729
652.703	0.0159673
652.781	0.0159595
652.859	0.0160715
652.937	0.0159900
653.015	0.0160755
653.093	0.0159151
653.172	0.0159538
653.250	0.0159295
653.328	0.0160982
653.406	0.0159679
653.484	0.0159763
653.562	0.0159923
653.640	0.0159290
653.718	0.0160381
653.797	0.0159984
653.875	0.0160249
653.953	0.0159940
654.031	0.0160599
654.109	0.0158875
654.187	0.0160988
654.265	0.0160255
654.343	0.0159180
654.422	0.0159950
654.500	0.0159824
654.578	0.0160747
654.656	0.0159827
654.734	0.0160169
654.812	0.0160078
654.890	0.0159111
654.968	0.0158748
655.047	0.0160670
655.125	0.0160921
655.203	0.0160732
655.281	0.0158620
655.359	0.0160277
655.437	0.0159930
655.515	0.0160946
655.593	0.0160181
655.672	0.0160662
655.750	0.0160352
655.828	0.0159903
655.906	0.0159560
655.984	0.0159103
656.062	0.0159773
656.140	0.0160425
656.218	0.0159077
656.297	0.0159489
656.375	0.0161784
656.453	0.0160711
656.531	0.0158798
656.609	0.0159246
656.687	0.0160310
656.765	0.0159549
656.843	0.0159223
656.922	0.0159978
657.000	0.0159963
657.078	0.0159412
657.156	0.0159121
657.234	0.0160098
657.312	0.0158219
657.390	0.0160129
657.468	0.0160750
657.547	0.0160036
657.625	0.0159111
657.703	0.0160239
657.781	0.0159550
657.859	0.0158543
657.937	0.0160446
658.015	0.0160323
658.093	0.0159993
658.172	0.0160635
658.250	0.0160207
658.328	0.0158855
658.406	0.0160781
658.484	0.0159942
658.562	0.0161236
658.640	0.0160284
658.718	0.0159612
658.797	0.0159458
658.875	0.0162024
658.953	0.0159718
659.031	0.0159411
659.109	0.0159315
659.187	0.0160452
659.265	0.0161431
659.343	0.0160501
659.422	0.0160131
659.500	0.0161196
659.578	0.0160354
659.656	0.0159916
659.734	0.0160648
659.812	0.0159319
659.890	0.0159773
659.968	0.0160449
660.047	0.0159167
660.125	0.0159384
660.203	0.0160379
660.281	0.0159610
660.359	0.0159111
660.437	0.0160481
660.515	0.0160194
660.593	0.0159972
660.672	0.0161488
660.750	0.0159824
660.828	0.0159313
660.906	0.0159190
660.984	0.0160065
661.062	0.0160694
661.140	0.0161135
661.218	0.0159481
661.297	0.0159885
661.375	0.0158823
661.453	0.0159559
661.531	0.0159030
661.609	0.0159865
661.687	0.0160191
661.765	0.0161423
661.843	0.0159357
661.922	0.0158472
662.000	0.0160894
662.078	0.0160699
662.156	0.0159063
662.234	0.0160561
662.312	0.0159457
662.390	0.0159492
662.468	0.0159835
662.547	0.0160822
662.625	0.0160325
662.703	0.0159234
662.781	0.0159467
662.859	0.0159020
662.937	0.0159746
663.015	0.0160456
663.093	0.0159232
663.172	0.0160004
663.250	0.0161481
663.328	0.0159599
663.406	0.0160085
663.484	0.0159741
663.562	0.0158733
663.640	0.0159447
663.718	0.0159185
663.797	0.0159579
663.875	0.0160265
663.953	0.0159841
664.031	0.0160920
664.109	0.0159689
664.187	0.0159325
664.265	0.0159589
664.343	0.0159562
664.422	0.0160751
664.500	0.0161179
664.578	0.0160361
664.656	0.0158527
664.734	0.0160432
664.812	0.0160126
664.890	0.0160767
664.968	0.0159625
665.047	0.0159848
665.125	0.0159945
665.203	0.0160052
665.281	0.0159782
665.359	0.0160925
665.437	0.0158446
665.515	0.0160423
665.593	0.0161462
665.672	0.0159467
665.750	0.0158620
665.828	0.0159998
665.906	0.0160037
665.984	0.0159727
666.062	0.0159208
666.140	0.0161035
666.218	0.0159542
666.297	0.0158556
666.375	0.0160115
666.453	0.0159241
666.531	0.0158314
666.609	0.0161303
666.687	0.0160131
666.765	0.0158083
666.843	0.0159616
666.922	0.0160224
667.000	0.0160464
667.078	0.0160653
667.156	0.0159438
667.234	0.0161172
667.312	0.0161455
667.390	0.0160811
667.468	0.0159567
667.547	0.0160820
667.625	0.0160856
667.703	0.0159195
667.781	0.0159896
667.859	0.0160838
667.937	0.0159863
668.015	0.0159458
668.093	0.0160395
668.172	0.0160685
668.250	0.0161140
668.328	0.0159132
668.406	0.0159547
668.484	0.0160415
668.562	0.0160165
668.640	0.0160352
668.718	0.0160577
668.797	0.0159505
668.875	0.0160500
668.953	0.0159483
669.031	0.0160468
669.109	0.0159224
669.187	0.0159715
669.265	0.0160365
669.343	0.0159252
669.422	0.0159469
669.500	0.0158994
669.578	0.0159810
669.656	0.0160156
669.734	0.0159641
669.812	0.0160166
669.890	0.0159570
669.968	0.0159650
670.047	0.0159142
670.125	0.0160271
670.203	0.0159212
670.281	0.0159933
670.359	0.0161385
670.437	0.0160432
670.515	0.0159061
670.593	0.0159518
670.672	0.0159100
670.750	0.0159605
670.828	0.0159119
670.906	0.0159612
670.984	0.0159680
671.062	0.0159990
671.140	0.0160615
671.218	0.0159508
671.297	0.0159652
671.375	0.0159614
671.453	0.0159820
671.531	0.0159561
671.609	0.0160368
671.687	0.0160558
671.765	0.0159273
671.843	0.0158495
671.922	0.0160088
672.000	0.0159449
672.078	0.0159187
672.156	0.0159819
672.234	0.0160700
672.312	0.0160581
672.390	0.0158500
672.468	0.0157998
672.547	0.0162028
672.625	0.0160065
672.703	0.0158582
672.781	0.0159012
672.859	0.0160928
672.937	0.0159443
673.015	0.0159353
673.093	0.0160484
673.172	0.0160042
673.250	0.0159765
673.328	0.0159797
673.406	0.0158482
673.484	0.0159444
673.562	0.0159901
673.640	0.0159498
673.718	0.0159666
673.797	0.0160003
673.875	0.0160440
673.953	0.0159044
674.031	0.0160216
674.109	0.0158406
674.187	0.0160037
674.265	0.0160795
674.343	0.0159991
674.422	0.0160392
674.500	0.0160482
674.578	0.0161213
674.656	0.0159623
674.734	0.0159364
674.812	0.0159757
674.890	0.0160957
674.968	0.0158739
675.047	0.0159196
675.125	0.0160598
675.203	0.0159517
675.281	0.0157770
675.359	0.0159232
675.437	0.0159418
675.515	0.0159698
675.593	0.0159387
675.672	0.0158928
675.750	0.0159592
675.828	0.0160561
675.906	0.0160107
675.984	0.0160179
676.062	0.0159860
676.140	0.0160154
676.218	0.0159417
676.297	0.0159782
676.375	0.0159687
676.453	0.0159910
676.531	0.0158566
676.609	0.0159725
676.687	0.0159808
676.765	0.0159734
676.843	0.0160372
676.922	0.0159425
677.000	0.0160346
677.078	0.0160299
677.156	0.0159927
677.234	0.0160344
677.312	0.0160066
677.390	0.0160864
677.468	0.0160683
677.547	0.0159975
677.625	0.0158061
677.703	0.0160571
677.781	0.0160510
677.859	0.0157757
677.937	0.0159367
678.015	0.0160416
678.093	0.0159871
678.172	0.0160432
678.250	0.0159516
678.328	0.0159044
678.406	0.0159145
678.484	0.0159546
678.562	0.0158737
678.640	0.0158375
678.718	0.0159142
678.797	0.0159639
678.875	0.0160314
678.953	0.0159441
679.031	0.0158826
679.109	0.0160291
679.187	0.0160654
679.265	0.0159992
679.343	0.0159437
679.422	0.0158918
679.500	0.0159380
679.578	0.0159447
679.656	0.0158890
679.734	0.0159202
679.812	0.0160588
679.890	0.0160738
679.968	0.0160264
680.047	0.0160741
680.125	0.0160005
680.203	0.0160825
680.281	0.0159438
680.359	0.0159897
680.437	0.0161129
680.515	0.0159620
680.593	0.0159334
680.672	0.0159676
680.750	0.0160425
680.828	0.0158810
680.906	0.0160319
680.984	0.0158406
681.062	0.0160001
681.140	0.0159725
681.218	0.0158875
681.297	0.0159969
681.375	0.0157508
681.453	0.0159572
681.531	0.0160242
681.609	0.0159626
681.687	0.0158933
681.765	0.0160146
681.843	0.0159042
681.922	0.0160284
682.000	0.0158575
682.078	0.0159524
682.156	0.0159711
682.234	0.0161182
682.312	0.0159853
682.390	0.0159243
682.468	0.0159642
682.547	0.0161005
682.625	0.0160435
682.703	0.0160812
682.781	0.0158967
682.859	0.0159550
682.937	0.0160471
683.015	0.0158230
683.093	0.0159740
683.172	0.0161018
683.250	0.0159812
683.328	0.0159626
683.406	0.0159863
683.484	0.0158736
683.562	0.0159361
683.640	0.0160412
683.718	0.0159052
683.797	0.0159563
683.875	0.0159402
683.953	0.0160896
684.031	0.0161543
684.109	0.0160101
684.187	0.0159688
684.265	0.0159471
684.343	0.0160055
684.422	0.0162366
684.500	0.0160803
684.578	0.0159021
684.656	0.0159312
684.734	0.0159662
684.812	0.0159702
684.890	0.0159703
684.968	0.0159603
685.047	0.0161815
685.125	0.0160434
685.203	0.0159222
685.281	0.0159373
685.359	0.0160515
685.437	0.0158768
685.515	0.0159949
685.593	0.0159509
685.672	0.0159642
