06/13/2022	15:02:54	Ver.	4.1	UNKNOWN
Optical Delay	599.968395	Delta X		0.078125	Sweeps	1	Scan Rate	0/0
Coordinates	Axis 1	NaN	Axis 2	NaN	Axis 3	NaN	Axis 4	NaN	Axis 5	NaN	Axis 6	0.000000
TX Power	0.000000	RX Power	0.000000

599.968	0.0160618
600.047	0.0161530
600.125	0.0159814
600.203	0.0161484
600.281	0.0160998
600.359	0.0160952
600.437	0.0161167
600.515	0.0161134
600.593	0.0160419
600.672	0.0159438
600.750	0.0160231
600.828	0.0160172
600.906	0.0161615
600.984	0.0158721
601.062	0.0160700
601.140	0.0160880
601.218	0.0161256
601.297	0.0160920
601.375	0.0159441
601.453	0.0160776
601.531	0.0159881
601.609	0.0159382
601.687	0.0160453
601.765	0.0159958
601.843	0.0160490
601.922	0.0159810
602.000	0.0160938
602.078	0.0160043
602.156	0.0160328
602.234	0.0160884
602.312	0.0160442
602.390	0.0158326
602.468	0.0160001
602.547	0.0160283
602.625	0.0160500
602.703	0.0161518
602.781	0.0158856
602.859	0.0160107
602.937	0.0158863
603.015	0.0160847
603.093	0.0161411
603.172	0.0159187
603.250	0.0160206
603.328	0.0159811
603.406	0.0159454
603.484	0.0160792
603.562	0.0160328
603.640	0.0159210
603.718	0.0158432
603.797	0.0159972
603.875	0.0159855
603.953	0.0159583
604.031	0.0159011
604.109	0.0159714
604.187	0.0158556
604.265	0.0159372
604.343	0.0159047
604.422	0.0160101
604.500	0.0159718
604.578	0.0160237
604.656	0.0160916
604.734	0.0160303
604.812	0.0159122
604.890	0.0159531
604.968	0.0159551
605.047	0.0160505
605.125	0.0159074
605.203	0.0159573
605.281	0.0160090
605.359	0.0159250
605.437	0.0160032
605.515	0.0161613
605.593	0.0159244
605.672	0.0159234
605.750	0.0159959
605.828	0.0159465
605.906	0.0160732
605.984	0.0160322
606.062	0.0160390
606.140	0.0158939
606.218	0.0158675
606.297	0.0159335
606.375	0.0160271
606.453	0.0161270
606.531	0.0160634
606.609	0.0161694
606.687	0.0160056
606.765	0.0159832
606.843	0.0159209
606.922	0.0159753
607.000	0.0160673
607.078	0.0160256
607.156	0.0159023
607.234	0.0159090
607.312	0.0160248
607.390	0.0158978
607.468	0.0159942
607.547	0.0160307
607.625	0.0160346
607.703	0.0158841
607.781	0.0160806
607.859	0.0161671
607.937	0.0161623
608.015	0.0160042
608.093	0.0159964
608.172	0.0161008
608.250	0.0161314
608.328	0.0161395
608.406	0.0159917
608.484	0.0161340
608.562	0.0160112
608.640	0.0160123
608.718	0.0158746
608.797	0.0160430
608.875	0.0160240
608.953	0.0158748
609.031	0.0159391
609.109	0.0159171
609.187	0.0160373
609.265	0.0160094
609.343	0.0160353
609.422	0.0158696
609.500	0.0158280
609.578	0.0160548
609.656	0.0159852
609.734	0.0158778
609.812	0.0158886
609.890	0.0158673
609.968	0.0159060
610.047	0.0159061
610.125	0.0160255
610.203	0.0159172
610.281	0.0159171
610.359	0.0159208
610.437	0.0159598
610.515	0.0159937
610.593	0.0158965
610.672	0.0159183
610.750	0.0159571
610.828	0.0157852
610.906	0.0159413
610.984	0.0159156
611.062	0.0159649
611.140	0.0159039
611.218	0.0158279
611.297	0.0158662
611.375	0.0158946
611.453	0.0160233
611.531	0.0160915
611.609	0.0158996
611.687	0.0160474
611.765	0.0159431
611.843	0.0159994
611.922	0.0159982
612.000	0.0159208
612.078	0.0159381
612.156	0.0158911
612.234	0.0159498
612.312	0.0159770
612.390	0.0159779
612.468	0.0159442
612.547	0.0160280
612.625	0.0160313
612.703	0.0159109
612.781	0.0158990
612.859	0.0158075
612.937	0.0159092
613.015	0.0158559
613.093	0.0158350
613.172	0.0159623
613.250	0.0159211
613.328	0.0158855
613.406	0.0158482
613.484	0.0158360
613.562	0.0159821
613.640	0.0158894
613.718	0.0158126
613.797	0.0159877
613.875	0.0159022
613.953	0.0157909
614.031	0.0159671
614.109	0.0159351
614.187	0.0159213
614.265	0.0158733
614.343	0.0158878
614.422	0.0159566
614.500	0.0160300
614.578	0.0157312
614.656	0.0159181
614.734	0.0160506
614.812	0.0160443
614.890	0.0159132
614.968	0.0158810
615.047	0.0159393
615.125	0.0158693
615.203	0.0159170
615.281	0.0159050
615.359	0.0159175
615.437	0.0159337
615.515	0.0158780
615.593	0.0158390
615.672	0.0159430
615.750	0.0160237
615.828	0.0160121
615.906	0.0160099
615.984	0.0159631
616.062	0.0160575
616.140	0.0158146
616.218	0.0160046
616.297	0.0160950
616.375	0.0159370
616.453	0.0159705
616.531	0.0160646
616.609	0.0159532
616.687	0.0158617
616.765	0.0159655
616.843	0.0160091
616.922	0.0159760
617.000	0.0161001
617.078	0.0159542
617.156	0.0158292
617.234	0.0158950
617.312	0.0160045
617.390	0.0159648
617.468	0.0158683
617.547	0.0160168
617.625	0.0160175
617.703	0.0158500
617.781	0.0159286
617.859	0.0160688
617.937	0.0158916
618.015	0.0158852
618.093	0.0159603
618.172	0.0159322
618.250	0.0159122
618.328	0.0160294
618.406	0.0160352
618.484	0.0158582
618.562	0.0160181
618.640	0.0161417
618.718	0.0161195
618.797	0.0158807
618.875	0.0158682
618.953	0.0160078
619.031	0.0159978
619.109	0.0159478
619.187	0.0160744
619.265	0.0159785
619.343	0.0160430
619.422	0.0159772
619.500	0.0160415
619.578	0.0160191
619.656	0.0160869
619.734	0.0159680
619.812	0.0160845
619.890	0.0160170
619.968	0.0159347
620.047	0.0161419
620.125	0.0161336
620.203	0.0159669
620.281	0.0161552
620.359	0.0160929
620.437	0.0160415
620.515	0.0160104
620.593	0.0159275
620.672	0.0160963
620.750	0.0159885
620.828	0.0159695
620.906	0.0159978
620.984	0.0160110
621.062	0.0159219
621.140	0.0160069
621.218	0.0160674
621.297	0.0161319
621.375	0.0160124
621.453	0.0159261
621.531	0.0161047
621.609	0.0161084
621.687	0.0160720
621.765	0.0159570
621.843	0.0159539
621.922	0.0160731
622.000	0.0161900
622.078	0.0160334
622.156	0.0161018
622.234	0.0159369
622.312	0.0160314
622.390	0.0159760
622.468	0.0160588
622.547	0.0160795
622.625	0.0160195
622.703	0.0159846
622.781	0.0160231
622.859	0.0160484
622.937	0.0161243
623.015	0.0160092
623.093	0.0160568
623.172	0.0160446
623.250	0.0160569
623.328	0.0161364
623.406	0.0161044
623.484	0.0160683
623.562	0.0160133
623.640	0.0159742
623.718	0.0161141
623.797	0.0160501
623.875	0.0160239
623.953	0.0161272
624.031	0.0159936
624.109	0.0160283
624.187	0.0160271
624.265	0.0161012
624.343	0.0161597
624.422	0.0161868
624.500	0.0161249
624.578	0.0160041
624.656	0.0160522
624.734	0.0160888
624.812	0.0161447
624.890	0.0161031
624.968	0.0160606
625.047	0.0161516
625.125	0.0160763
625.203	0.0160306
625.281	0.0160961
625.359	0.0159764
625.437	0.0159866
625.515	0.0162245
625.593	0.0158882
625.672	0.0159007
625.750	0.0159933
625.828	0.0160310
625.906	0.0161501
625.984	0.0159603
626.062	0.0160384
626.140	0.0159940
626.218	0.0159071
626.297	0.0160479
626.375	0.0160715
626.453	0.0159006
626.531	0.0160300
626.609	0.0161572
626.687	0.0160828
626.765	0.0160300
626.843	0.0160741
626.922	0.0160645
627.000	0.0160287
627.078	0.0160241
627.156	0.0159913
627.234	0.0159360
627.312	0.0160027
627.390	0.0159238
627.468	0.0161045
627.547	0.0161075
627.625	0.0160856
627.703	0.0160815
627.781	0.0161729
627.859	0.0160055
627.937	0.0160353
628.015	0.0161444
628.093	0.0160521
628.172	0.0160495
628.250	0.0159808
628.328	0.0159634
628.406	0.0160201
628.484	0.0161155
628.562	0.0160880
628.640	0.0160072
628.718	0.0160011
628.797	0.0161622
628.875	0.0160945
628.953	0.0160536
629.031	0.0159622
629.109	0.0159760
629.187	0.0161063
629.265	0.0160091
629.343	0.0160110
629.422	0.0159126
629.500	0.0159690
629.578	0.0159839
629.656	0.0160677
629.734	0.0159096
629.812	0.0159239
629.890	0.0159776
629.968	0.0160851
630.047	0.0160413
630.125	0.0159908
630.203	0.0159091
630.281	0.0160058
630.359	0.0160493
630.437	0.0159911
630.515	0.0159607
630.593	0.0159911
630.672	0.0160166
630.750	0.0159303
630.828	0.0159957
630.906	0.0160149
630.984	0.0160533
631.062	0.0160397
631.140	0.0158542
631.218	0.0159183
631.297	0.0161108
631.375	0.0160329
631.453	0.0160043
631.531	0.0160016
631.609	0.0159708
631.687	0.0160413
631.765	0.0159576
631.843	0.0159956
631.922	0.0159031
632.000	0.0160570
632.078	0.0159767
632.156	0.0159697
632.234	0.0158262
632.312	0.0160259
632.390	0.0160153
632.468	0.0159947
632.547	0.0160188
632.625	0.0159916
632.703	0.0159739
632.781	0.0160544
632.859	0.0158673
632.937	0.0159602
633.015	0.0159249
633.093	0.0158903
633.172	0.0158324
633.250	0.0158609
633.328	0.0159515
633.406	0.0159811
633.484	0.0158847
633.562	0.0159042
633.640	0.0159467
633.718	0.0158859
633.797	0.0158655
633.875	0.0159055
633.953	0.0160276
634.031	0.0159815
634.109	0.0158216
634.187	0.0158701
634.265	0.0159911
634.343	0.0158822
634.422	0.0157772
634.500	0.0158696
634.578	0.0158715
634.656	0.0158878
634.734	0.0158544
634.812	0.0159782
634.890	0.0158775
634.968	0.0158463
635.047	0.0158003
635.125	0.0157404
635.203	0.0158820
635.281	0.0158049
635.359	0.0158789
635.437	0.0158001
635.515	0.0159726
635.593	0.0158724
635.672	0.0158228
635.750	0.0157171
635.828	0.0159489
635.906	0.0158533
635.984	0.0157938
636.062	0.0158050
636.140	0.0159139
636.218	0.0157205
636.297	0.0159187
636.375	0.0157963
636.453	0.0157978
636.531	0.0158749
636.609	0.0158781
636.687	0.0159963
636.765	0.0159163
636.843	0.0158061
636.922	0.0158852
637.000	0.0159308
637.078	0.0159222
637.156	0.0158316
637.234	0.0158254
637.312	0.0159178
637.390	0.0159148
637.468	0.0159280
637.547	0.0158290
637.625	0.0159887
637.703	0.0158772
637.781	0.0158733
637.859	0.0158788
637.937	0.0158734
638.015	0.0158726
638.093	0.0157475
638.172	0.0159529
638.250	0.0158029
638.328	0.0158441
638.406	0.0160426
638.484	0.0158625
638.562	0.0159679
638.640	0.0158424
638.718	0.0159214
638.797	0.0159212
638.875	0.0159473
638.953	0.0158833
639.031	0.0158276
639.109	0.0158839
639.187	0.0159816
639.265	0.0159668
639.343	0.0158553
639.422	0.0158946
639.500	0.0157607
639.578	0.0158826
639.656	0.0158005
639.734	0.0156912
639.812	0.0159345
639.890	0.0160736
639.968	0.0159299
640.047	0.0157217
640.125	0.0159051
640.203	0.0159434
640.281	0.0158536
640.359	0.0157497
640.437	0.0158857
640.515	0.0160247
640.593	0.0159582
640.672	0.0159319
640.750	0.0158238
640.828	0.0158437
640.906	0.0159560
640.984	0.0157226
641.062	0.0158523
641.140	0.0159093
641.218	0.0160557
641.297	0.0158203
641.375	0.0157947
641.453	0.0158878
641.531	0.0158086
641.609	0.0158207
641.687	0.0158418
641.765	0.0159609
641.843	0.0159747
641.922	0.0159181
642.000	0.0160088
642.078	0.0158852
642.156	0.0159373
642.234	0.0159008
642.312	0.0157210
642.390	0.0158823
642.468	0.0157949
642.547	0.0158942
642.625	0.0158871
642.703	0.0159406
642.781	0.0158106
642.859	0.0158707
642.937	0.0158488
643.015	0.0158374
643.093	0.0158340
643.172	0.0159496
643.250	0.0159973
643.328	0.0159533
643.406	0.0159042
643.484	0.0158615
643.562	0.0158549
643.640	0.0159793
643.718	0.0159885
643.797	0.0159700
643.875	0.0160349
643.953	0.0160232
644.031	0.0158890
644.109	0.0158849
644.187	0.0160250
644.265	0.0158860
644.343	0.0159002
644.422	0.0159149
644.500	0.0158770
644.578	0.0160471
644.656	0.0159977
644.734	0.0160294
644.812	0.0159147
644.890	0.0159385
644.968	0.0161024
645.047	0.0160593
645.125	0.0158870
645.203	0.0158651
645.281	0.0160747
645.359	0.0161279
645.437	0.0157983
645.515	0.0159965
645.593	0.0158838
645.672	0.0161116
645.750	0.0159387
645.828	0.0159856
645.906	0.0159693
645.984	0.0160620
646.062	0.0159152
646.140	0.0158122
646.218	0.0159547
646.297	0.0160486
646.375	0.0160352
646.453	0.0160327
646.531	0.0159051
646.609	0.0159094
646.687	0.0158745
646.765	0.0160091
646.843	0.0159773
646.922	0.0158224
647.000	0.0159182
647.078	0.0159050
647.156	0.0158409
647.234	0.0159142
647.312	0.0159954
647.390	0.0159554
647.468	0.0158462
647.547	0.0159222
647.625	0.0160047
647.703	0.0159545
647.781	0.0160283
647.859	0.0159200
647.937	0.0159479
648.015	0.0158971
648.093	0.0160001
648.172	0.0159852
648.250	0.0159316
648.328	0.0159256
648.406	0.0159517
648.484	0.0160264
648.562	0.0159476
648.640	0.0159747
648.718	0.0159839
648.797	0.0158139
648.875	0.0160288
648.953	0.0161104
649.031	0.0160901
649.109	0.0159328
649.187	0.0156701
649.265	0.0160076
649.343	0.0160893
649.422	0.0158720
649.500	0.0160544
649.578	0.0160254
649.656	0.0159326
649.734	0.0158569
649.812	0.0160363
649.890	0.0159335
649.968	0.0159709
650.047	0.0159363
650.125	0.0160055
650.203	0.0158828
650.281	0.0160385
650.359	0.0158362
650.437	0.0159464
650.515	0.0160776
650.593	0.0160582
650.672	0.0159163
650.750	0.0160830
650.828	0.0159161
650.906	0.0160315
650.984	0.0159726
651.062	0.0160141
651.140	0.0159667
651.218	0.0158272
651.297	0.0160078
651.375	0.0160741
651.453	0.0161343
651.531	0.0160008
651.609	0.0160355
651.687	0.0159131
651.765	0.0159779
651.843	0.0161245
651.922	0.0160372
652.000	0.0161112
652.078	0.0160614
652.156	0.0160198
652.234	0.0160011
652.312	0.0160661
652.390	0.0160267
652.468	0.0160900
652.547	0.0160330
652.625	0.0160114
652.703	0.0160684
652.781	0.0160362
652.859	0.0161131
652.937	0.0159958
653.015	0.0159905
653.093	0.0161583
653.172	0.0160677
653.250	0.0158849
653.328	0.0156748
653.406	0.0160307
653.484	0.0160073
653.562	0.0159568
653.640	0.0161090
653.718	0.0161893
653.797	0.0161044
653.875	0.0160429
653.953	0.0158761
654.031	0.0160460
654.109	0.0159839
654.187	0.0160272
654.265	0.0160488
654.343	0.0159901
654.422	0.0160453
654.500	0.0159727
654.578	0.0160434
654.656	0.0160292
654.734	0.0159848
654.812	0.0160767
654.890	0.0159491
654.968	0.0159319
655.047	0.0160199
655.125	0.0159834
655.203	0.0159432
655.281	0.0159236
655.359	0.0160081
655.437	0.0157988
655.515	0.0158434
655.593	0.0161240
655.672	0.0160712
655.750	0.0160637
655.828	0.0159923
655.906	0.0159441
655.984	0.0158260
656.062	0.0159525
656.140	0.0159661
656.218	0.0160284
656.297	0.0158079
656.375	0.0159349
656.453	0.0158753
656.531	0.0158237
656.609	0.0160394
656.687	0.0160399
656.765	0.0158295
656.843	0.0160561
656.922	0.0160888
657.000	0.0161194
657.078	0.0158694
657.156	0.0158043
657.234	0.0160483
657.312	0.0159266
657.390	0.0160141
657.468	0.0159618
657.547	0.0159832
657.625	0.0158978
657.703	0.0159411
657.781	0.0157955
657.859	0.0158872
657.937	0.0158611
658.015	0.0158619
658.093	0.0158896
658.172	0.0160579
658.250	0.0158017
658.328	0.0158321
658.406	0.0158154
658.484	0.0157864
658.562	0.0158535
658.640	0.0159361
658.718	0.0159283
658.797	0.0158788
658.875	0.0156145
658.953	0.0157457
659.031	0.0158998
659.109	0.0157268
659.187	0.0158974
659.265	0.0158357
659.343	0.0158024
659.422	0.0158190
659.500	0.0158739
659.578	0.0158321
659.656	0.0158482
659.734	0.0158553
659.812	0.0158313
659.890	0.0158379
659.968	0.0159202
660.047	0.0157851
660.125	0.0158088
660.203	0.0158571
660.281	0.0158258
660.359	0.0158122
660.437	0.0155891
660.515	0.0157796
660.593	0.0158931
660.672	0.0158308
660.750	0.0156693
660.828	0.0158482
660.906	0.0159178
660.984	0.0157843
661.062	0.0156906
661.140	0.0157623
661.218	0.0158718
661.297	0.0158209
661.375	0.0158199
661.453	0.0158340
661.531	0.0158219
661.609	0.0157404
661.687	0.0157944
661.765	0.0158717
661.843	0.0158980
661.922	0.0157768
662.000	0.0155809
662.078	0.0157325
662.156	0.0156988
662.234	0.0156812
662.312	0.0157715
662.390	0.0158161
662.468	0.0157394
662.547	0.0158973
662.625	0.0156757
662.703	0.0157852
662.781	0.0158286
662.859	0.0158067
662.937	0.0158085
663.015	0.0158262
663.093	0.0157616
663.172	0.0157966
663.250	0.0157899
663.328	0.0156202
663.406	0.0157997
663.484	0.0157946
663.562	0.0157923
663.640	0.0158099
663.718	0.0158782
663.797	0.0157876
663.875	0.0157629
663.953	0.0157990
664.031	0.0158218
664.109	0.0156996
664.187	0.0158997
664.265	0.0158639
664.343	0.0158437
664.422	0.0156968
664.500	0.0158740
664.578	0.0159561
664.656	0.0158994
664.734	0.0158383
664.812	0.0158168
664.890	0.0157880
664.968	0.0158294
665.047	0.0160047
665.125	0.0160118
665.203	0.0158139
665.281	0.0158080
665.359	0.0158820
665.437	0.0158008
665.515	0.0158992
665.593	0.0158775
665.672	0.0159306
665.750	0.0158584
665.828	0.0158303
665.906	0.0158987
665.984	0.0159872
666.062	0.0158051
666.140	0.0158589
666.218	0.0158945
666.297	0.0159650
666.375	0.0159976
666.453	0.0159756
666.531	0.0158557
666.609	0.0157521
666.687	0.0159477
666.765	0.0158915
666.843	0.0159174
666.922	0.0158943
667.000	0.0160234
667.078	0.0159639
667.156	0.0157723
667.234	0.0158707
667.312	0.0159696
667.390	0.0158971
667.468	0.0158881
667.547	0.0160178
667.625	0.0158901
667.703	0.0159282
667.781	0.0159465
667.859	0.0159427
667.937	0.0159238
668.015	0.0160339
668.093	0.0158319
668.172	0.0160159
668.250	0.0159016
668.328	0.0159308
668.406	0.0158823
668.484	0.0159790
668.562	0.0159187
668.640	0.0158985
668.718	0.0158323
668.797	0.0159642
668.875	0.0160427
668.953	0.0158582
669.031	0.0159394
669.109	0.0158456
669.187	0.0158176
669.265	0.0159465
669.343	0.0158326
669.422	0.0159618
669.500	0.0159427
669.578	0.0159052
669.656	0.0159161
669.734	0.0159637
669.812	0.0159359
669.890	0.0159692
669.968	0.0159367
670.047	0.0160162
670.125	0.0158556
670.203	0.0159755
670.281	0.0160197
670.359	0.0158862
670.437	0.0160991
670.515	0.0160483
670.593	0.0160027
670.672	0.0159487
670.750	0.0160496
670.828	0.0159740
670.906	0.0159248
670.984	0.0160361
671.062	0.0160889
671.140	0.0160295
671.218	0.0159109
671.297	0.0159328
671.375	0.0160268
671.453	0.0159320
671.531	0.0159815
671.609	0.0160008
671.687	0.0159906
671.765	0.0160463
671.843	0.0160265
671.922	0.0159936
672.000	0.0159679
672.078	0.0159270
672.156	0.0160558
672.234	0.0159528
672.312	0.0160142
672.390	0.0160852
672.468	0.0159108
672.547	0.0162097
672.625	0.0159705
672.703	0.0160643
672.781	0.0161422
672.859	0.0161758
672.937	0.0162247
673.015	0.0160914
673.093	0.0160009
673.172	0.0160098
673.250	0.0160439
673.328	0.0160685
673.406	0.0160767
673.484	0.0160567
673.562	0.0159969
673.640	0.0159034
673.718	0.0160937
673.797	0.0160389
673.875	0.0159639
673.953	0.0160768
674.031	0.0161499
674.109	0.0160950
674.187	0.0160271
674.265	0.0159882
674.343	0.0158992
674.422	0.0160956
674.500	0.0160896
674.578	0.0160711
674.656	0.0159914
674.734	0.0160492
674.812	0.0160426
674.890	0.0159459
674.968	0.0160545
675.047	0.0159844
675.125	0.0159409
675.203	0.0160839
675.281	0.0159608
675.359	0.0161237
675.437	0.0161741
675.515	0.0161247
675.593	0.0160531
675.672	0.0159538
675.750	0.0160897
675.828	0.0160431
675.906	0.0161174
675.984	0.0159062
676.062	0.0159449
676.140	0.0161038
676.218	0.0159562
676.297	0.0160237
676.375	0.0161233
676.453	0.0160487
676.531	0.0159665
676.609	0.0161043
676.687	0.0161125
676.765	0.0158942
676.843	0.0159846
676.922	0.0159935
677.000	0.0160001
677.078	0.0160205
677.156	0.0159621
677.234	0.0158736
677.312	0.0160371
677.390	0.0161134
677.468	0.0161166
677.547	0.0159842
677.625	0.0159570
677.703	0.0160358
677.781	0.0160426
677.859	0.0160448
677.937	0.0160793
678.015	0.0158932
678.093	0.0160513
678.172	0.0160987
678.250	0.0160734
678.328	0.0160446
678.406	0.0160487
678.484	0.0161460
678.562	0.0161007
678.640	0.0159983
678.718	0.0160355
678.797	0.0161335
678.875	0.0160763
678.953	0.0161132
679.031	0.0159846
679.109	0.0160683
679.187	0.0160114
679.265	0.0160240
679.343	0.0160533
679.422	0.0159352
679.500	0.0160084
679.578	0.0160668
679.656	0.0160365
679.734	0.0161006
679.812	0.0160898
679.890	0.0161639
679.968	0.0160789
680.047	0.0159804
680.125	0.0161594
680.203	0.0160706
680.281	0.0160403
680.359	0.0161740
680.437	0.0162072
680.515	0.0161113
680.593	0.0159540
680.672	0.0160746
680.750	0.0161295
680.828	0.0159612
680.906	0.0159686
680.984	0.0159521
681.062	0.0159283
681.140	0.0160589
681.218	0.0159869
681.297	0.0160558
681.375	0.0161185
681.453	0.0161573
681.531	0.0159338
681.609	0.0159493
681.687	0.0159950
681.765	0.0160610
681.843	0.0158853
681.922	0.0159992
682.000	0.0160416
682.078	0.0160152
682.156	0.0160714
682.234	0.0159335
682.312	0.0158603
682.390	0.0161515
682.468	0.0161473
682.547	0.0159105
682.625	0.0160407
682.703	0.0160242
682.781	0.0160300
682.859	0.0160242
682.937	0.0159060
683.015	0.0161564
683.093	0.0157927
683.172	0.0158561
683.250	0.0160079
683.328	0.0160002
683.406	0.0158151
683.484	0.0160950
683.562	0.0160169
683.640	0.0159172
683.718	0.0160659
683.797	0.0158304
683.875	0.0158542
683.953	0.0160254
684.031	0.0159140
684.109	0.0159712
684.187	0.0160139
684.265	0.0159008
684.343	0.0158652
684.422	0.0158889
684.500	0.0159741
684.578	0.0157623
684.656	0.0159438
684.734	0.0158925
684.812	0.0159227
684.890	0.0158604
684.968	0.0159360
685.047	0.0158544
685.125	0.0159624
685.203	0.0158466
685.281	0.0159042
685.359	0.0159261
685.437	0.0159258
685.515	0.0160258
685.593	0.0159849
685.672	0.0159026
