06/13/2022	15:03:54	Ver.	4.1	UNKNOWN
Optical Delay	599.961724	Delta X		0.078125	Sweeps	1	Scan Rate	0/0
Coordinates	Axis 1	NaN	Axis 2	NaN	Axis 3	NaN	Axis 4	NaN	Axis 5	NaN	Axis 6	0.000000
TX Power	0.000000	RX Power	0.000000

599.962	0.0159065
600.040	0.0157651
600.118	0.0158978
600.196	0.0159200
600.274	0.0158742
600.352	0.0158928
600.430	0.0159408
600.509	0.0159799
600.587	0.0159968
600.665	0.0159489
600.743	0.0157370
600.821	0.0160133
600.899	0.0159610
600.977	0.0159330
601.055	0.0159474
601.134	0.0159194
601.212	0.0159134
601.290	0.0160672
601.368	0.0158875
601.446	0.0159758
601.524	0.0159276
601.602	0.0158858
601.680	0.0158651
601.759	0.0159625
601.837	0.0159870
601.915	0.0158082
601.993	0.0158512
602.071	0.0158546
602.149	0.0158533
602.227	0.0158990
602.305	0.0160739
602.384	0.0159761
602.462	0.0159641
602.540	0.0158409
602.618	0.0159090
602.696	0.0158578
602.774	0.0158600
602.852	0.0158221
602.930	0.0159539
603.009	0.0159621
603.087	0.0159158
603.165	0.0160027
603.243	0.0159705
603.321	0.0159973
603.399	0.0159225
603.477	0.0159892
603.555	0.0158066
603.634	0.0159068
603.712	0.0158753
603.790	0.0158955
603.868	0.0158807
603.946	0.0157842
604.024	0.0158122
604.102	0.0158740
604.180	0.0158580
604.259	0.0156856
604.337	0.0157781
604.415	0.0158295
604.493	0.0160654
604.571	0.0157736
604.649	0.0156931
604.727	0.0157542
604.805	0.0157526
604.884	0.0157745
604.962	0.0158216
605.040	0.0158695
605.118	0.0156804
605.196	0.0158371
605.274	0.0157662
605.352	0.0158723
605.430	0.0157180
605.509	0.0156241
605.587	0.0157440
605.665	0.0158216
605.743	0.0159294
605.821	0.0157288
605.899	0.0158389
605.977	0.0159238
606.055	0.0157892
606.134	0.0158234
606.212	0.0158679
606.290	0.0159505
606.368	0.0158146
606.446	0.0157815
606.524	0.0158094
606.602	0.0158225
606.680	0.0157191
606.759	0.0159310
606.837	0.0159540
606.915	0.0157979
606.993	0.0157699
607.071	0.0158504
607.149	0.0158313
607.227	0.0157095
607.305	0.0157015
607.384	0.0157249
607.462	0.0158567
607.540	0.0158600
607.618	0.0157944
607.696	0.0158544
607.774	0.0156929
607.852	0.0158074
607.930	0.0157075
608.009	0.0157157
608.087	0.0157447
608.165	0.0156814
608.243	0.0157217
608.321	0.0158812
608.399	0.0158186
608.477	0.0158805
608.555	0.0158482
608.634	0.0159042
608.712	0.0157956
608.790	0.0158624
608.868	0.0158418
608.946	0.0158658
609.024	0.0159510
609.102	0.0158051
609.180	0.0158766
609.259	0.0157929
609.337	0.0158822
609.415	0.0158263
609.493	0.0157837
609.571	0.0158942
609.649	0.0160377
609.727	0.0159483
609.805	0.0158965
609.884	0.0157323
609.962	0.0159221
610.040	0.0159465
610.118	0.0158921
610.196	0.0158735
610.274	0.0158990
610.352	0.0159501
610.430	0.0159280
610.509	0.0158318
610.587	0.0159283
610.665	0.0159625
610.743	0.0158295
610.821	0.0158763
610.899	0.0158382
610.977	0.0158449
611.055	0.0159348
611.134	0.0158517
611.212	0.0158834
611.290	0.0160307
611.368	0.0159563
611.446	0.0159972
611.524	0.0158112
611.602	0.0158873
611.680	0.0159518
611.759	0.0159383
611.837	0.0158791
611.915	0.0159241
611.993	0.0159007
612.071	0.0159687
612.149	0.0159154
612.227	0.0158942
612.305	0.0158471
612.384	0.0158899
612.462	0.0159084
612.540	0.0156913
612.618	0.0158803
612.696	0.0158034
612.774	0.0159097
612.852	0.0157194
612.930	0.0158645
613.009	0.0158381
613.087	0.0158949
613.165	0.0159250
613.243	0.0158012
613.321	0.0158411
613.399	0.0159312
613.477	0.0159660
613.555	0.0159978
613.634	0.0159412
613.712	0.0158709
613.790	0.0160049
613.868	0.0158414
613.946	0.0159454
614.024	0.0159004
614.102	0.0158910
614.180	0.0159000
614.259	0.0158233
614.337	0.0158598
614.415	0.0158018
614.493	0.0158824
614.571	0.0157891
614.649	0.0158543
614.727	0.0158674
614.805	0.0158586
614.884	0.0158132
614.962	0.0158173
615.040	0.0159608
615.118	0.0158349
615.196	0.0158871
615.274	0.0160629
615.352	0.0158462
615.430	0.0158781
615.509	0.0158926
615.587	0.0158334
615.665	0.0158050
615.743	0.0158537
615.821	0.0158785
615.899	0.0158788
615.977	0.0159042
616.055	0.0158340
616.134	0.0158795
616.212	0.0159074
616.290	0.0159270
616.368	0.0159225
616.446	0.0159882
616.524	0.0159384
616.602	0.0160117
616.680	0.0159077
616.759	0.0160162
616.837	0.0158523
616.915	0.0159355
616.993	0.0160037
617.071	0.0158656
617.149	0.0160356
617.227	0.0160572
617.305	0.0159874
617.384	0.0159566
617.462	0.0159223
617.540	0.0159541
617.618	0.0158890
617.696	0.0159192
617.774	0.0158859
617.852	0.0160008
617.930	0.0160271
618.009	0.0159149
618.087	0.0161171
618.165	0.0159390
618.243	0.0158639
618.321	0.0159184
618.399	0.0159464
618.477	0.0159818
618.555	0.0159224
618.634	0.0159618
618.712	0.0158754
618.790	0.0158820
618.868	0.0160480
618.946	0.0159676
619.024	0.0157765
619.102	0.0159211
619.180	0.0160574
619.259	0.0159468
619.337	0.0158354
619.415	0.0159772
619.493	0.0160114
619.571	0.0159443
619.649	0.0160484
619.727	0.0157941
619.805	0.0157733
619.884	0.0160903
619.962	0.0157543
620.040	0.0158502
620.118	0.0159082
620.196	0.0159352
620.274	0.0158519
620.352	0.0159634
620.430	0.0158809
620.509	0.0159911
620.587	0.0159241
620.665	0.0158558
620.743	0.0160463
620.821	0.0159531
620.899	0.0157737
620.977	0.0158102
621.055	0.0158691
621.134	0.0158874
621.212	0.0158407
621.290	0.0159364
621.368	0.0159975
621.446	0.0158735
621.524	0.0159411
621.602	0.0158942
621.680	0.0158183
621.759	0.0157733
621.837	0.0159082
621.915	0.0159736
621.993	0.0158646
622.071	0.0158962
622.149	0.0159043
622.227	0.0159063
622.305	0.0159509
622.384	0.0158832
622.462	0.0160256
622.540	0.0157796
622.618	0.0158652
622.696	0.0159476
622.774	0.0158594
622.852	0.0157861
622.930	0.0158642
623.009	0.0159424
623.087	0.0158803
623.165	0.0159464
623.243	0.0158533
623.321	0.0158018
623.399	0.0159254
623.477	0.0159160
623.555	0.0158271
623.634	0.0158566
623.712	0.0158697
623.790	0.0158531
623.868	0.0159444
623.946	0.0157867
624.024	0.0159200
624.102	0.0159354
624.180	0.0159309
624.259	0.0159885
624.337	0.0159962
624.415	0.0158441
624.493	0.0159128
624.571	0.0158342
624.649	0.0159144
624.727	0.0159869
624.805	0.0159243
624.884	0.0159508
624.962	0.0159095
625.040	0.0157630
625.118	0.0158507
625.196	0.0159062
625.274	0.0159291
625.352	0.0157802
625.430	0.0157634
625.509	0.0159454
625.587	0.0158876
625.665	0.0157501
625.743	0.0158707
625.821	0.0159476
625.899	0.0157905
625.977	0.0158521
626.055	0.0159123
626.134	0.0158826
626.212	0.0159128
626.290	0.0158189
626.368	0.0159402
626.446	0.0158554
626.524	0.0158044
626.602	0.0158276
626.680	0.0160381
626.759	0.0159434
626.837	0.0158951
626.915	0.0159197
626.993	0.0159419
627.071	0.0158902
627.149	0.0158749
627.227	0.0158356
627.305	0.0159266
627.384	0.0158910
627.462	0.0159087
627.540	0.0157464
627.618	0.0158085
627.696	0.0158971
627.774	0.0158801
627.852	0.0158722
627.930	0.0157607
628.009	0.0157576
628.087	0.0159237
628.165	0.0157591
628.243	0.0157231
628.321	0.0159173
628.399	0.0159643
628.477	0.0158847
628.555	0.0158468
628.634	0.0157018
628.712	0.0158008
628.790	0.0157283
628.868	0.0157889
628.946	0.0158337
629.024	0.0157344
629.102	0.0157353
629.180	0.0158511
629.259	0.0157392
629.337	0.0158620
629.415	0.0157874
629.493	0.0159628
629.571	0.0158221
629.649	0.0157866
629.727	0.0158475
629.805	0.0158613
629.884	0.0157899
629.962	0.0157238
630.040	0.0157799
630.118	0.0157507
630.196	0.0157650
630.274	0.0158374
630.352	0.0156780
630.430	0.0157565
630.509	0.0158944
630.587	0.0158018
630.665	0.0158284
630.743	0.0158364
630.821	0.0158605
630.899	0.0158366
630.977	0.0158993
631.055	0.0158712
631.134	0.0158521
631.212	0.0156252
631.290	0.0157658
631.368	0.0157829
631.446	0.0156792
631.524	0.0158131
631.602	0.0158833
631.680	0.0158404
631.759	0.0156695
631.837	0.0157401
631.915	0.0157327
631.993	0.0158585
632.071	0.0158582
632.149	0.0158060
632.227	0.0156548
632.305	0.0157901
632.384	0.0159403
632.462	0.0158239
632.540	0.0157529
632.618	0.0159184
632.696	0.0157098
632.774	0.0156955
632.852	0.0157396
632.930	0.0157925
633.009	0.0158758
633.087	0.0158254
633.165	0.0157861
633.243	0.0158445
633.321	0.0159145
633.399	0.0157497
633.477	0.0157224
633.555	0.0158021
633.634	0.0159103
633.712	0.0157218
633.790	0.0158793
633.868	0.0157451
633.946	0.0158263
634.024	0.0157676
634.102	0.0158434
634.180	0.0157412
634.259	0.0157912
634.337	0.0157165
634.415	0.0158169
634.493	0.0157903
634.571	0.0156952
634.649	0.0156215
634.727	0.0158112
634.805	0.0158780
634.884	0.0157101
634.962	0.0157078
635.040	0.0158317
635.118	0.0156956
635.196	0.0156554
635.274	0.0157330
635.352	0.0158649
635.430	0.0158361
635.509	0.0158450
635.587	0.0157849
635.665	0.0156850
635.743	0.0158450
635.821	0.0157330
635.899	0.0157115
635.977	0.0158710
636.055	0.0158555
636.134	0.0157495
636.212	0.0157908
636.290	0.0159721
636.368	0.0158366
636.446	0.0157668
636.524	0.0156422
636.602	0.0157314
636.680	0.0158935
636.759	0.0156724
636.837	0.0158793
636.915	0.0157211
636.993	0.0158183
637.071	0.0159422
637.149	0.0158197
637.227	0.0158302
637.305	0.0158295
637.384	0.0157884
637.462	0.0157157
637.540	0.0158153
637.618	0.0158990
637.696	0.0157807
637.774	0.0158244
637.852	0.0158843
637.930	0.0157826
638.009	0.0158239
638.087	0.0158018
638.165	0.0157973
638.243	0.0158046
638.321	0.0159168
638.399	0.0157606
638.477	0.0158066
638.555	0.0158089
638.634	0.0158523
638.712	0.0159164
638.790	0.0157150
638.868	0.0158289
638.946	0.0157519
639.024	0.0158703
639.102	0.0157777
639.180	0.0157248
639.259	0.0157833
639.337	0.0159666
639.415	0.0157934
639.493	0.0158329
639.571	0.0157430
639.649	0.0158864
639.727	0.0158225
639.805	0.0158772
639.884	0.0158540
639.962	0.0157937
640.040	0.0157159
640.118	0.0158004
640.196	0.0157597
640.274	0.0158983
640.352	0.0159471
640.430	0.0157913
640.509	0.0159023
640.587	0.0159657
640.665	0.0158505
640.743	0.0158727
640.821	0.0159035
640.899	0.0159795
640.977	0.0158839
641.055	0.0157836
641.134	0.0158666
641.212	0.0159168
641.290	0.0159265
641.368	0.0158480
641.446	0.0158950
641.524	0.0158692
641.602	0.0159029
641.680	0.0158875
641.759	0.0158437
641.837	0.0157487
641.915	0.0158751
641.993	0.0159261
642.071	0.0158395
642.149	0.0158980
642.227	0.0158952
642.305	0.0158870
642.384	0.0158291
642.462	0.0159452
642.540	0.0159209
642.618	0.0158864
642.696	0.0158971
642.774	0.0158128
642.852	0.0158155
642.930	0.0158318
643.009	0.0158077
643.087	0.0158732
643.165	0.0158550
643.243	0.0159402
643.321	0.0159521
643.399	0.0159509
643.477	0.0158938
643.555	0.0158205
643.634	0.0160603
643.712	0.0159877
643.790	0.0158611
643.868	0.0160141
643.946	0.0158944
644.024	0.0160105
644.102	0.0159317
644.180	0.0160019
644.259	0.0161069
644.337	0.0158184
644.415	0.0159200
644.493	0.0159278
644.571	0.0159718
644.649	0.0159109
644.727	0.0159807
644.805	0.0159293
644.884	0.0159179
644.962	0.0159098
645.040	0.0159278
645.118	0.0159266
645.196	0.0158418
645.274	0.0158891
645.352	0.0159763
645.430	0.0160713
645.509	0.0158635
645.587	0.0157966
645.665	0.0158427
645.743	0.0159885
645.821	0.0160264
645.899	0.0158546
645.977	0.0158930
646.055	0.0159164
646.134	0.0159425
646.212	0.0158494
646.290	0.0158752
646.368	0.0158490
646.446	0.0158436
646.524	0.0157642
646.602	0.0158997
646.680	0.0157529
646.759	0.0157538
646.837	0.0159771
646.915	0.0158631
646.993	0.0158423
647.071	0.0160023
647.149	0.0158553
647.227	0.0159497
647.305	0.0159008
647.384	0.0158505
647.462	0.0158527
647.540	0.0159814
647.618	0.0158276
647.696	0.0158717
647.774	0.0158849
647.852	0.0158578
647.930	0.0158711
648.009	0.0157339
648.087	0.0156654
648.165	0.0158017
648.243	0.0159022
648.321	0.0157970
648.399	0.0158955
648.477	0.0157765
648.555	0.0158593
648.634	0.0159505
648.712	0.0157600
648.790	0.0157464
648.868	0.0158184
648.946	0.0158490
649.024	0.0158488
649.102	0.0159637
649.180	0.0157325
649.259	0.0158007
649.337	0.0158827
649.415	0.0158607
649.493	0.0158092
649.571	0.0157548
649.649	0.0156459
649.727	0.0157555
649.805	0.0158893
649.884	0.0158349
649.962	0.0158295
650.040	0.0158696
650.118	0.0157613
650.196	0.0157372
650.274	0.0156599
650.352	0.0156956
650.430	0.0158251
650.509	0.0157644
650.587	0.0158190
650.665	0.0158942
650.743	0.0157902
650.821	0.0158456
650.899	0.0158140
650.977	0.0158737
651.055	0.0158543
651.134	0.0158319
651.212	0.0158441
651.290	0.0158979
651.368	0.0158289
651.446	0.0157857
651.524	0.0157539
651.602	0.0157060
651.680	0.0157016
651.759	0.0159570
651.837	0.0157965
651.915	0.0156940
651.993	0.0157744
652.071	0.0157346
652.149	0.0156535
652.227	0.0157955
652.305	0.0158160
652.384	0.0157381
652.462	0.0158025
652.540	0.0158317
652.618	0.0157195
652.696	0.0158248
652.774	0.0158094
652.852	0.0157558
652.930	0.0157339
653.009	0.0157201
653.087	0.0157013
653.165	0.0158141
653.243	0.0157855
653.321	0.0156649
653.399	0.0157116
653.477	0.0158791
653.555	0.0156776
653.634	0.0158007
653.712	0.0158990
653.790	0.0157158
653.868	0.0158121
653.946	0.0157945
654.024	0.0157365
654.102	0.0157870
654.180	0.0157154
654.259	0.0157343
654.337	0.0157340
654.415	0.0156590
654.493	0.0158003
654.571	0.0157616
654.649	0.0158081
654.727	0.0157433
654.805	0.0158218
654.884	0.0157257
654.962	0.0156669
655.040	0.0158105
655.118	0.0156676
655.196	0.0157567
655.274	0.0158185
655.352	0.0157874
655.430	0.0158150
655.509	0.0156989
655.587	0.0157666
655.665	0.0157549
655.743	0.0157301
655.821	0.0158479
655.899	0.0157939
655.977	0.0157155
656.055	0.0157530
656.134	0.0159411
656.212	0.0159280
656.290	0.0158708
656.368	0.0158085
656.446	0.0157633
656.524	0.0157644
656.602	0.0157621
656.680	0.0158620
656.759	0.0158138
656.837	0.0159183
656.915	0.0156947
656.993	0.0158115
657.071	0.0159115
657.149	0.0157597
657.227	0.0158053
657.305	0.0159473
657.384	0.0158543
657.462	0.0158114
657.540	0.0158983
657.618	0.0158997
657.696	0.0158153
657.774	0.0158123
657.852	0.0158555
657.930	0.0158585
658.009	0.0158686
658.087	0.0159146
658.165	0.0158125
658.243	0.0158844
658.321	0.0159171
658.399	0.0157927
658.477	0.0159044
658.555	0.0159007
658.634	0.0157227
658.712	0.0157444
658.790	0.0159947
658.868	0.0157922
658.946	0.0156726
659.024	0.0158169
659.102	0.0158417
659.180	0.0157333
659.259	0.0157519
659.337	0.0158230
659.415	0.0158915
659.493	0.0158591
659.571	0.0157421
659.649	0.0158926
659.727	0.0156928
659.805	0.0156053
659.884	0.0158230
659.962	0.0157383
660.040	0.0157459
660.118	0.0158806
660.196	0.0157343
660.274	0.0156329
660.352	0.0157561
660.430	0.0157763
660.509	0.0157494
660.587	0.0158224
660.665	0.0157857
660.743	0.0158008
660.821	0.0158013
660.899	0.0156696
660.977	0.0156876
661.055	0.0158909
661.134	0.0159050
661.212	0.0156778
661.290	0.0157404
661.368	0.0158840
661.446	0.0159019
661.524	0.0158543
661.602	0.0156686
661.680	0.0158375
661.759	0.0156113
661.837	0.0157919
661.915	0.0159034
661.993	0.0157830
662.071	0.0157996
662.149	0.0157899
662.227	0.0158045
662.305	0.0156880
662.384	0.0158994
662.462	0.0157747
662.540	0.0157870
662.618	0.0156007
662.696	0.0157008
662.774	0.0158612
662.852	0.0157657
662.930	0.0157803
663.009	0.0157655
663.087	0.0157757
663.165	0.0157982
663.243	0.0157479
663.321	0.0159103
663.399	0.0158186
663.477	0.0158147
663.555	0.0158148
663.634	0.0157676
663.712	0.0157275
663.790	0.0156085
663.868	0.0157541
663.946	0.0157401
664.024	0.0158922
664.102	0.0157483
664.180	0.0158331
664.259	0.0158229
664.337	0.0157989
664.415	0.0158911
664.493	0.0158789
664.571	0.0158783
664.649	0.0157912
664.727	0.0157853
664.805	0.0158311
664.884	0.0158935
664.962	0.0158566
665.040	0.0158146
665.118	0.0158450
665.196	0.0158559
665.274	0.0156977
665.352	0.0160068
665.430	0.0159718
665.509	0.0158608
665.587	0.0157418
665.665	0.0159565
665.743	0.0158926
665.821	0.0159652
665.899	0.0161124
665.977	0.0159098
666.055	0.0159113
666.134	0.0158788
666.212	0.0159410
666.290	0.0158295
666.368	0.0158717
666.446	0.0159951
666.524	0.0159008
666.602	0.0158569
666.680	0.0159955
666.759	0.0159365
666.837	0.0159157
666.915	0.0160445
666.993	0.0160056
667.071	0.0159821
667.149	0.0160096
667.227	0.0157796
667.305	0.0159923
667.384	0.0159842
667.462	0.0159595
667.540	0.0159492
667.618	0.0158898
667.696	0.0158669
667.774	0.0158450
667.852	0.0160229
667.930	0.0159081
668.009	0.0159148
668.087	0.0158646
668.165	0.0159351
668.243	0.0160069
668.321	0.0160622
668.399	0.0159193
668.477	0.0161056
668.555	0.0159019
668.634	0.0160091
668.712	0.0160928
668.790	0.0159876
668.868	0.0159147
668.946	0.0158795
669.024	0.0158922
669.102	0.0159241
669.180	0.0158698
669.259	0.0159610
669.337	0.0159460
669.415	0.0159591
669.493	0.0159948
669.571	0.0159145
669.649	0.0158562
669.727	0.0159267
669.805	0.0158079
669.884	0.0160046
669.962	0.0161910
670.040	0.0159807
670.118	0.0159906
670.196	0.0158956
670.274	0.0158659
670.352	0.0159064
670.430	0.0159730
670.509	0.0158650
670.587	0.0160568
670.665	0.0160220
670.743	0.0159480
670.821	0.0159908
670.899	0.0159138
670.977	0.0159592
671.055	0.0160265
671.134	0.0159567
671.212	0.0158493
671.290	0.0159238
671.368	0.0158959
671.446	0.0158221
671.524	0.0159146
671.602	0.0158801
671.680	0.0160226
671.759	0.0158607
671.837	0.0158899
671.915	0.0158711
671.993	0.0159492
672.071	0.0159683
672.149	0.0160283
672.227	0.0159008
672.305	0.0158881
672.384	0.0159728
672.462	0.0157696
672.540	0.0157924
672.618	0.0159717
672.696	0.0158828
672.774	0.0159280
672.852	0.0159781
672.930	0.0159698
673.009	0.0159710
673.087	0.0159053
673.165	0.0158229
673.243	0.0158934
673.321	0.0159886
673.399	0.0157453
673.477	0.0158894
673.555	0.0158277
673.634	0.0158690
673.712	0.0157795
673.790	0.0159409
673.868	0.0160202
673.946	0.0158250
674.024	0.0159184
674.102	0.0160017
674.180	0.0157162
674.259	0.0158451
674.337	0.0160044
674.415	0.0159536
674.493	0.0157710
674.571	0.0158553
674.649	0.0158936
674.727	0.0158736
674.805	0.0157625
674.884	0.0158147
674.962	0.0158598
675.040	0.0159065
675.118	0.0157616
675.196	0.0158808
675.274	0.0158036
675.352	0.0157124
675.430	0.0158340
675.509	0.0159783
675.587	0.0158655
675.665	0.0157368
675.743	0.0157903
675.821	0.0158056
675.899	0.0159582
675.977	0.0158772
676.055	0.0158379
676.134	0.0158080
676.212	0.0157365
676.290	0.0159386
676.368	0.0158294
676.446	0.0157810
676.524	0.0158481
676.602	0.0158025
676.680	0.0156349
676.759	0.0159221
676.837	0.0158205
676.915	0.0158595
676.993	0.0159146
677.071	0.0159464
677.149	0.0157508
677.227	0.0157742
677.305	0.0158580
677.384	0.0157578
677.462	0.0158907
677.540	0.0159487
677.618	0.0158263
677.696	0.0158488
677.774	0.0158803
677.852	0.0157514
677.930	0.0158223
678.009	0.0157398
678.087	0.0157045
678.165	0.0158240
678.243	0.0158516
678.321	0.0158299
678.399	0.0157727
678.477	0.0158363
678.555	0.0158173
678.634	0.0158695
678.712	0.0158273
678.790	0.0158328
678.868	0.0159084
678.946	0.0159307
679.024	0.0157639
679.102	0.0157091
679.180	0.0158994
679.259	0.0158927
679.337	0.0158854
679.415	0.0157948
679.493	0.0157433
679.571	0.0157552
679.649	0.0157275
679.727	0.0157874
679.805	0.0159051
679.884	0.0157468
679.962	0.0158414
680.040	0.0158884
680.118	0.0158250
680.196	0.0157533
680.274	0.0160291
680.352	0.0158989
680.430	0.0159090
680.509	0.0157977
680.587	0.0158480
680.665	0.0159507
680.743	0.0159511
680.821	0.0157555
680.899	0.0157711
680.977	0.0157673
681.055	0.0158613
681.134	0.0159012
681.212	0.0158227
681.290	0.0159340
681.368	0.0158139
681.446	0.0159534
681.524	0.0158761
681.602	0.0157767
681.680	0.0158013
681.759	0.0158034
681.837	0.0158907
681.915	0.0158458
681.993	0.0159091
682.071	0.0157968
682.149	0.0157928
682.227	0.0158704
682.305	0.0158422
682.384	0.0158517
682.462	0.0157493
682.540	0.0157895
682.618	0.0158335
682.696	0.0157311
682.774	0.0158797
682.852	0.0159595
682.930	0.0159283
683.009	0.0158258
683.087	0.0158253
683.165	0.0158589
683.243	0.0158359
683.321	0.0159325
683.399	0.0158190
683.477	0.0158578
683.555	0.0157097
683.634	0.0157936
683.712	0.0158501
683.790	0.0158328
683.868	0.0157272
683.946	0.0158598
684.024	0.0158723
684.102	0.0158627
684.180	0.0157234
684.259	0.0156905
684.337	0.0158952
684.415	0.0157410
684.493	0.0158211
684.571	0.0157188
684.649	0.0157104
684.727	0.0159332
684.805	0.0160600
684.884	0.0159619
684.962	0.0156726
685.040	0.0159663
685.118	0.0160048
685.196	0.0159594
685.274	0.0159262
685.352	0.0158450
685.430	0.0159275
685.509	0.0157589
685.587	0.0157672
685.665	0.0158550
