06/13/2022	15:04:19	Ver.	4.1	UNKNOWN
Optical Delay	599.968395	Delta X		0.078125	Sweeps	1	Scan Rate	0/0
Coordinates	Axis 1	NaN	Axis 2	NaN	Axis 3	NaN	Axis 4	NaN	Axis 5	NaN	Axis 6	0.000000
TX Power	0.000000	RX Power	0.000000

599.968	0.0159312
600.047	0.0158574
600.125	0.0158899
600.203	0.0160279
600.281	0.0160284
600.359	0.0159399
600.437	0.0158932
600.515	0.0158474
600.593	0.0160619
600.672	0.0159666
600.750	0.0159594
600.828	0.0160033
600.906	0.0159660
600.984	0.0159303
601.062	0.0159798
601.140	0.0158552
601.218	0.0160433
601.297	0.0159776
601.375	0.0159146
601.453	0.0159052
601.531	0.0159662
601.609	0.0158774
601.687	0.0158681
601.765	0.0160868
601.843	0.0159286
601.922	0.0158546
602.000	0.0158658
602.078	0.0158893
602.156	0.0158095
602.234	0.0159009
602.312	0.0158306
602.390	0.0158319
602.468	0.0159181
602.547	0.0157983
602.625	0.0158150
602.703	0.0159228
602.781	0.0157806
602.859	0.0157927
602.937	0.0159373
603.015	0.0157604
603.093	0.0158695
603.172	0.0159315
603.250	0.0157779
603.328	0.0157767
603.406	0.0159046
603.484	0.0158690
603.562	0.0156662
603.640	0.0158167
603.718	0.0159362
603.797	0.0158168
603.875	0.0158772
603.953	0.0158018
604.031	0.0159036
604.109	0.0158788
604.187	0.0157852
604.265	0.0159326
604.343	0.0160857
604.422	0.0159119
604.500	0.0158662
604.578	0.0159270
604.656	0.0158333
604.734	0.0158837
604.812	0.0158302
604.890	0.0158142
604.968	0.0158823
605.047	0.0157540
605.125	0.0157629
605.203	0.0158692
605.281	0.0159686
605.359	0.0158860
605.437	0.0157820
605.515	0.0158677
605.593	0.0158617
605.672	0.0158215
605.750	0.0158458
605.828	0.0159393
605.906	0.0158936
605.984	0.0159236
606.062	0.0158174
606.140	0.0158662
606.218	0.0158885
606.297	0.0159080
606.375	0.0158276
606.453	0.0158101
606.531	0.0159303
606.609	0.0157239
606.687	0.0157999
606.765	0.0158997
606.843	0.0158643
606.922	0.0158645
607.000	0.0158040
607.078	0.0157506
607.156	0.0157697
607.234	0.0157826
607.312	0.0159650
607.390	0.0160042
607.468	0.0157737
607.547	0.0158689
607.625	0.0159201
607.703	0.0158827
607.781	0.0159106
607.859	0.0158186
607.937	0.0159781
608.015	0.0159064
608.093	0.0158768
608.172	0.0158457
608.250	0.0158655
608.328	0.0159613
608.406	0.0158189
608.484	0.0159152
608.562	0.0159287
608.640	0.0158363
608.718	0.0158831
608.797	0.0159599
608.875	0.0159478
608.953	0.0158114
609.031	0.0159488
609.109	0.0159063
609.187	0.0159262
609.265	0.0157991
609.343	0.0159064
609.422	0.0159182
609.500	0.0158911
609.578	0.0159187
609.656	0.0158865
609.734	0.0158680
609.812	0.0156754
609.890	0.0159165
609.968	0.0159245
610.047	0.0157042
610.125	0.0160643
610.203	0.0159095
610.281	0.0156796
610.359	0.0159396
610.437	0.0158234
610.515	0.0157886
610.593	0.0158919
610.672	0.0159911
610.750	0.0158839
610.828	0.0158544
610.906	0.0156422
610.984	0.0158060
611.062	0.0159151
611.140	0.0158896
611.218	0.0158760
611.297	0.0158492
611.375	0.0157723
611.453	0.0158982
611.531	0.0158659
611.609	0.0158847
611.687	0.0158794
611.765	0.0158791
611.843	0.0158881
611.922	0.0158727
612.000	0.0159274
612.078	0.0159171
612.156	0.0159522
612.234	0.0159786
612.312	0.0159887
612.390	0.0161013
612.468	0.0160011
612.547	0.0159000
612.625	0.0159802
612.703	0.0160139
612.781	0.0159426
612.859	0.0159297
612.937	0.0158679
613.015	0.0158916
613.093	0.0159270
613.172	0.0161607
613.250	0.0158503
613.328	0.0159003
613.406	0.0161160
613.484	0.0159502
613.562	0.0158752
613.640	0.0159411
613.718	0.0159019
613.797	0.0158120
613.875	0.0159780
613.953	0.0159834
614.031	0.0159472
614.109	0.0159088
614.187	0.0159212
614.265	0.0159637
614.343	0.0158933
614.422	0.0159718
614.500	0.0158742
614.578	0.0158994
614.656	0.0161140
614.734	0.0159265
614.812	0.0159913
614.890	0.0159616
614.968	0.0159907
615.047	0.0158794
615.125	0.0159119
615.203	0.0159927
615.281	0.0160287
615.359	0.0159082
615.437	0.0160193
615.515	0.0160094
615.593	0.0160065
615.672	0.0159264
615.750	0.0159712
615.828	0.0159119
615.906	0.0158517
615.984	0.0159460
616.062	0.0160103
616.140	0.0159759
616.218	0.0159465
616.297	0.0159986
616.375	0.0159834
616.453	0.0159016
616.531	0.0160284
616.609	0.0160216
616.687	0.0159779
616.765	0.0159879
616.843	0.0159118
616.922	0.0160133
617.000	0.0160011
617.078	0.0158543
617.156	0.0159768
617.234	0.0159540
617.312	0.0159032
617.390	0.0159001
617.468	0.0159761
617.547	0.0158257
617.625	0.0158777
617.703	0.0158650
617.781	0.0160177
617.859	0.0158906
617.937	0.0160007
618.015	0.0159774
618.093	0.0159830
618.172	0.0159499
618.250	0.0160363
618.328	0.0158984
618.406	0.0158908
618.484	0.0159132
618.562	0.0159218
618.640	0.0156798
618.718	0.0159501
618.797	0.0160033
618.875	0.0158520
618.953	0.0158453
619.031	0.0158549
619.109	0.0160327
619.187	0.0159887
619.265	0.0159411
619.343	0.0159811
619.422	0.0159991
619.500	0.0158888
619.578	0.0158965
619.656	0.0157658
619.734	0.0157100
619.812	0.0159005
619.890	0.0159734
619.968	0.0158798
620.047	0.0158694
620.125	0.0159574
620.203	0.0159943
620.281	0.0158176
620.359	0.0158935
620.437	0.0159705
620.515	0.0158988
620.593	0.0159388
620.672	0.0159122
620.750	0.0159323
620.828	0.0160159
620.906	0.0158313
620.984	0.0159686
621.062	0.0159752
621.140	0.0158376
621.218	0.0159241
621.297	0.0159885
621.375	0.0160101
621.453	0.0159500
621.531	0.0159212
621.609	0.0159114
621.687	0.0158656
621.765	0.0159722
621.843	0.0157257
621.922	0.0160411
622.000	0.0159542
622.078	0.0159096
622.156	0.0159411
622.234	0.0159316
622.312	0.0160144
622.390	0.0159373
622.468	0.0157800
622.547	0.0159720
622.625	0.0160012
622.703	0.0158983
622.781	0.0160612
622.859	0.0158865
622.937	0.0159245
623.015	0.0159199
623.093	0.0159237
623.172	0.0160312
623.250	0.0160180
623.328	0.0158717
623.406	0.0158584
623.484	0.0158655
623.562	0.0158435
623.640	0.0158376
623.718	0.0159200
623.797	0.0158675
623.875	0.0158322
623.953	0.0158829
624.031	0.0158733
624.109	0.0158713
624.187	0.0158022
624.265	0.0159422
624.343	0.0159482
624.422	0.0158720
624.500	0.0157459
624.578	0.0158019
624.656	0.0159048
624.734	0.0158296
624.812	0.0158262
624.890	0.0158972
624.968	0.0157961
625.047	0.0158696
625.125	0.0159377
625.203	0.0158321
625.281	0.0158509
625.359	0.0157867
625.437	0.0159187
625.515	0.0158662
625.593	0.0157650
625.672	0.0157842
625.750	0.0158571
625.828	0.0157912
625.906	0.0159227
625.984	0.0159847
626.062	0.0158508
626.140	0.0157986
626.218	0.0157690
626.297	0.0158537
626.375	0.0159493
626.453	0.0159402
626.531	0.0157909
626.609	0.0157799
626.687	0.0157784
626.765	0.0158135
626.843	0.0157921
626.922	0.0159099
627.000	0.0158880
627.078	0.0158241
627.156	0.0158189
627.234	0.0158301
627.312	0.0157996
627.390	0.0158131
627.468	0.0157266
627.547	0.0158211
627.625	0.0157866
627.703	0.0158302
627.781	0.0158352
627.859	0.0159597
627.937	0.0157309
628.015	0.0157986
628.093	0.0157336
628.172	0.0157464
628.250	0.0157933
628.328	0.0157444
628.406	0.0157701
628.484	0.0157554
628.562	0.0158382
628.640	0.0157074
628.718	0.0158038
628.797	0.0158273
628.875	0.0157425
628.953	0.0157101
629.031	0.0158318
629.109	0.0157832
629.187	0.0157642
629.265	0.0158582
629.343	0.0157133
629.422	0.0157799
629.500	0.0158098
629.578	0.0158198
629.656	0.0157667
629.734	0.0157813
629.812	0.0159140
629.890	0.0158631
629.968	0.0157892
630.047	0.0158059
630.125	0.0157346
630.203	0.0158620
630.281	0.0156521
630.359	0.0157592
630.437	0.0157631
630.515	0.0157257
630.593	0.0156349
630.672	0.0157124
630.750	0.0158061
630.828	0.0156423
630.906	0.0157265
630.984	0.0157210
631.062	0.0158017
631.140	0.0156341
631.218	0.0157281
631.297	0.0158228
631.375	0.0158391
631.453	0.0158387
631.531	0.0157842
631.609	0.0158153
631.687	0.0156257
631.765	0.0157632
631.843	0.0158180
631.922	0.0158432
632.000	0.0158251
632.078	0.0158136
632.156	0.0157204
632.234	0.0157491
632.312	0.0158276
632.390	0.0156544
632.468	0.0157184
632.547	0.0157968
632.625	0.0158614
632.703	0.0156189
632.781	0.0158341
632.859	0.0157765
632.937	0.0156355
633.015	0.0157056
633.093	0.0159288
633.172	0.0158089
633.250	0.0157561
633.328	0.0158060
633.406	0.0158173
633.484	0.0158702
633.562	0.0158672
633.640	0.0157312
633.718	0.0158796
633.797	0.0158782
633.875	0.0157471
633.953	0.0158084
634.031	0.0157818
634.109	0.0156860
634.187	0.0157315
634.265	0.0158304
634.343	0.0159105
634.422	0.0158739
634.500	0.0157552
634.578	0.0158288
634.656	0.0158559
634.734	0.0159093
634.812	0.0158604
634.890	0.0155612
634.968	0.0157797
635.047	0.0158530
635.125	0.0158318
635.203	0.0158125
635.281	0.0157959
635.359	0.0157901
635.437	0.0157201
635.515	0.0159335
635.593	0.0159821
635.672	0.0158426
635.750	0.0158253
635.828	0.0158505
635.906	0.0158129
635.984	0.0159547
636.062	0.0158799
636.140	0.0159303
636.218	0.0159303
636.297	0.0157271
636.375	0.0157645
636.453	0.0157587
636.531	0.0157832
636.609	0.0158356
636.687	0.0157587
636.765	0.0158401
636.843	0.0158853
636.922	0.0159352
637.000	0.0158958
637.078	0.0158182
637.156	0.0158928
637.234	0.0158035
637.312	0.0159367
637.390	0.0159425
637.468	0.0158186
637.547	0.0158862
637.625	0.0158999
637.703	0.0158768
637.781	0.0159334
637.859	0.0158232
637.937	0.0159679
638.015	0.0159642
638.093	0.0156860
638.172	0.0159492
638.250	0.0158408
638.328	0.0159388
638.406	0.0158817
638.484	0.0158869
638.562	0.0158926
638.640	0.0159311
638.718	0.0158649
638.797	0.0158723
638.875	0.0158887
638.953	0.0158891
639.031	0.0159299
639.109	0.0159782
639.187	0.0158768
639.265	0.0159112
639.343	0.0158646
639.422	0.0159709
639.500	0.0159061
639.578	0.0159122
639.656	0.0158769
639.734	0.0159480
639.812	0.0159064
639.890	0.0159494
639.968	0.0160094
640.047	0.0159592
640.125	0.0159169
640.203	0.0158608
640.281	0.0159969
640.359	0.0160088
640.437	0.0159145
640.515	0.0158202
640.593	0.0158835
640.672	0.0160231
640.750	0.0159023
640.828	0.0160458
640.906	0.0160095
640.984	0.0159512
641.062	0.0159909
641.140	0.0158943
641.218	0.0159344
641.297	0.0159540
641.375	0.0160191
641.453	0.0159138
641.531	0.0160321
641.609	0.0158811
641.687	0.0159795
641.765	0.0160550
641.843	0.0160029
641.922	0.0159311
642.000	0.0159821
642.078	0.0159953
642.156	0.0160336
642.234	0.0159181
642.312	0.0158608
642.390	0.0160827
642.468	0.0161479
642.547	0.0160480
642.625	0.0160497
642.703	0.0158186
642.781	0.0159358
642.859	0.0160258
642.937	0.0159445
643.015	0.0160172
643.093	0.0159047
643.172	0.0159098
643.250	0.0158372
643.328	0.0158298
643.406	0.0159041
643.484	0.0159158
643.562	0.0158678
643.640	0.0158860
643.718	0.0159455
643.797	0.0159196
643.875	0.0157581
643.953	0.0159877
644.031	0.0158047
644.109	0.0159331
644.187	0.0157568
644.265	0.0159122
644.343	0.0160233
644.422	0.0158888
644.500	0.0157819
644.578	0.0157899
644.656	0.0159928
644.734	0.0158430
644.812	0.0160137
644.890	0.0158025
644.968	0.0158122
645.047	0.0159521
645.125	0.0158698
645.203	0.0158825
645.281	0.0158660
645.359	0.0157677
645.437	0.0159282
645.515	0.0158609
645.593	0.0157297
645.672	0.0157503
645.750	0.0160235
645.828	0.0159106
645.906	0.0158293
645.984	0.0157953
646.062	0.0158073
646.140	0.0158291
646.218	0.0158863
646.297	0.0159404
646.375	0.0157909
646.453	0.0158011
646.531	0.0159094
646.609	0.0159192
646.687	0.0157133
646.765	0.0158000
646.843	0.0157896
646.922	0.0159043
647.000	0.0158874
647.078	0.0158463
647.156	0.0159933
647.234	0.0158146
647.312	0.0158273
647.390	0.0158510
647.468	0.0157871
647.547	0.0158688
647.625	0.0158919
647.703	0.0159583
647.781	0.0158133
647.859	0.0157925
647.937	0.0158260
648.015	0.0158866
648.093	0.0157819
648.172	0.0157722
648.250	0.0157510
648.328	0.0158673
648.406	0.0160195
648.484	0.0158979
648.562	0.0157858
648.640	0.0159241
648.718	0.0157495
648.797	0.0157985
648.875	0.0158038
648.953	0.0156235
649.031	0.0156528
649.109	0.0157243
649.187	0.0159379
649.265	0.0159045
649.343	0.0158088
649.422	0.0157320
649.500	0.0157127
649.578	0.0158267
649.656	0.0158750
649.734	0.0157115
649.812	0.0158648
649.890	0.0156648
649.968	0.0156504
650.047	0.0157494
650.125	0.0156770
650.203	0.0155778
650.281	0.0157233
650.359	0.0158724
650.437	0.0157280
650.515	0.0158277
650.593	0.0156657
650.672	0.0157148
650.750	0.0157472
650.828	0.0157275
650.906	0.0156834
650.984	0.0157995
651.062	0.0158749
651.140	0.0158630
651.218	0.0157661
651.297	0.0157315
651.375	0.0158383
651.453	0.0157332
651.531	0.0157964
651.609	0.0157531
651.687	0.0156460
651.765	0.0157375
651.843	0.0158141
651.922	0.0157827
652.000	0.0159056
652.078	0.0158175
652.156	0.0157301
652.234	0.0158192
652.312	0.0158909
652.390	0.0158052
652.468	0.0159708
652.547	0.0158349
652.625	0.0158385
652.703	0.0156938
652.781	0.0158146
652.859	0.0158971
652.937	0.0156886
653.015	0.0157719
653.093	0.0158331
653.172	0.0158842
653.250	0.0158167
653.328	0.0158878
653.406	0.0158332
653.484	0.0158118
653.562	0.0158077
653.640	0.0158472
653.718	0.0157822
653.797	0.0157304
653.875	0.0158038
653.953	0.0159063
654.031	0.0158636
654.109	0.0158308
654.187	0.0158332
654.265	0.0156728
654.343	0.0157906
654.422	0.0158892
654.500	0.0159546
654.578	0.0158914
654.656	0.0157797
654.734	0.0158672
654.812	0.0158715
654.890	0.0159359
654.968	0.0158521
655.047	0.0157905
655.125	0.0159627
655.203	0.0157781
655.281	0.0157981
655.359	0.0158602
655.437	0.0158610
655.515	0.0158517
655.593	0.0156627
655.672	0.0158739
655.750	0.0158796
655.828	0.0157764
655.906	0.0157204
655.984	0.0158545
656.062	0.0159341
656.140	0.0158440
656.218	0.0159155
656.297	0.0158714
656.375	0.0157957
656.453	0.0158534
656.531	0.0158772
656.609	0.0157636
656.687	0.0158030
656.765	0.0158225
656.843	0.0157529
656.922	0.0158472
657.000	0.0157256
657.078	0.0157236
657.156	0.0159438
657.234	0.0157674
657.312	0.0157502
657.390	0.0157317
657.468	0.0157755
657.547	0.0158414
657.625	0.0157854
657.703	0.0157795
657.781	0.0158778
657.859	0.0157092
657.937	0.0158029
658.015	0.0157720
658.093	0.0158427
658.172	0.0156939
658.250	0.0158389
658.328	0.0156609
658.406	0.0157664
658.484	0.0157867
658.562	0.0158030
658.640	0.0158404
658.718	0.0156612
658.797	0.0158010
658.875	0.0156757
658.953	0.0157493
659.031	0.0158497
659.109	0.0157352
659.187	0.0156610
659.265	0.0157277
659.343	0.0158211
659.422	0.0157135
659.500	0.0158224
659.578	0.0156812
659.656	0.0157984
659.734	0.0157465
659.812	0.0157803
659.890	0.0157082
659.968	0.0158454
660.047	0.0158248
660.125	0.0157915
660.203	0.0158559
660.281	0.0158176
660.359	0.0157858
660.437	0.0157028
660.515	0.0159234
660.593	0.0159286
660.672	0.0158546
660.750	0.0158728
660.828	0.0158140
660.906	0.0158696
660.984	0.0158147
661.062	0.0159087
661.140	0.0157865
661.218	0.0157078
661.297	0.0159756
661.375	0.0157971
661.453	0.0157858
661.531	0.0159075
661.609	0.0159283
661.687	0.0159131
661.765	0.0158388
661.843	0.0158427
661.922	0.0159343
662.000	0.0159871
662.078	0.0159305
662.156	0.0158471
662.234	0.0158412
662.312	0.0158865
662.390	0.0159477
662.468	0.0158472
662.547	0.0159596
662.625	0.0158899
662.703	0.0158747
662.781	0.0158859
662.859	0.0159348
662.937	0.0160608
663.015	0.0159377
663.093	0.0160008
663.172	0.0159618
663.250	0.0159675
663.328	0.0159613
663.406	0.0159141
663.484	0.0159039
663.562	0.0160641
663.640	0.0160141
663.718	0.0159438
663.797	0.0159082
663.875	0.0159821
663.953	0.0159086
664.031	0.0160525
664.109	0.0160322
664.187	0.0159811
664.265	0.0158777
664.343	0.0159927
664.422	0.0159355
664.500	0.0159187
664.578	0.0158591
664.656	0.0159934
664.734	0.0160693
664.812	0.0158259
664.890	0.0159425
664.968	0.0159709
665.047	0.0159468
665.125	0.0159018
665.203	0.0161042
665.281	0.0158036
665.359	0.0159139
665.437	0.0158904
665.515	0.0159178
665.593	0.0158681
665.672	0.0159185
665.750	0.0160876
665.828	0.0158756
665.906	0.0160139
665.984	0.0158849
666.062	0.0159747
666.140	0.0159351
666.218	0.0160073
666.297	0.0159198
666.375	0.0161297
666.453	0.0159698
666.531	0.0159248
666.609	0.0159359
666.687	0.0159035
666.765	0.0159635
666.843	0.0160139
666.922	0.0160505
667.000	0.0159050
667.078	0.0159184
667.156	0.0160056
667.234	0.0160455
667.312	0.0159142
667.390	0.0158760
667.468	0.0158072
667.547	0.0159743
667.625	0.0160000
667.703	0.0158999
667.781	0.0158801
667.859	0.0160004
667.937	0.0159035
668.015	0.0159763
668.093	0.0160163
668.172	0.0159832
668.250	0.0158467
668.328	0.0158553
668.406	0.0159493
668.484	0.0158812
668.562	0.0159085
668.640	0.0158694
668.718	0.0159109
668.797	0.0160202
668.875	0.0158959
668.953	0.0157696
669.031	0.0157906
669.109	0.0157573
669.187	0.0160223
669.265	0.0159177
669.343	0.0158710
669.422	0.0158556
669.500	0.0158758
669.578	0.0158710
669.656	0.0159264
669.734	0.0157693
669.812	0.0159750
669.890	0.0157750
669.968	0.0157611
670.047	0.0159279
670.125	0.0159188
670.203	0.0158447
670.281	0.0159852
670.359	0.0159673
670.437	0.0157740
670.515	0.0159552
670.593	0.0159223
670.672	0.0160156
670.750	0.0158427
670.828	0.0158230
670.906	0.0160088
670.984	0.0159674
671.062	0.0159643
671.140	0.0159598
671.218	0.0158870
671.297	0.0159703
671.375	0.0158915
671.453	0.0158315
671.531	0.0159346
671.609	0.0156404
671.687	0.0158798
671.765	0.0159773
671.843	0.0160023
671.922	0.0158823
672.000	0.0158853
672.078	0.0158410
672.156	0.0158217
672.234	0.0158147
672.312	0.0156322
672.390	0.0159119
672.468	0.0159155
672.547	0.0158633
672.625	0.0158025
672.703	0.0159004
672.781	0.0157967
672.859	0.0157995
672.937	0.0159134
673.015	0.0158311
673.093	0.0158972
673.172	0.0158051
673.250	0.0158064
673.328	0.0158580
673.406	0.0157111
673.484	0.0159765
673.562	0.0159555
673.640	0.0158967
673.718	0.0159367
673.797	0.0157005
673.875	0.0159428
673.953	0.0158157
674.031	0.0158261
674.109	0.0157618
674.187	0.0158710
674.265	0.0158639
674.343	0.0159329
674.422	0.0159393
674.500	0.0157937
674.578	0.0159416
674.656	0.0160361
674.734	0.0158958
674.812	0.0159420
674.890	0.0159276
674.968	0.0159413
675.047	0.0159249
675.125	0.0158775
675.203	0.0158964
675.281	0.0158614
675.359	0.0157149
675.437	0.0158906
675.515	0.0158835
675.593	0.0158690
675.672	0.0158262
675.750	0.0158692
675.828	0.0158231
675.906	0.0158395
675.984	0.0157532
676.062	0.0158841
676.140	0.0158470
676.218	0.0157658
676.297	0.0157535
676.375	0.0159081
676.453	0.0157743
676.531	0.0158333
676.609	0.0160198
676.687	0.0158170
676.765	0.0156795
676.843	0.0158026
676.922	0.0158237
677.000	0.0157719
677.078	0.0160070
677.156	0.0158574
677.234	0.0156997
677.312	0.0157899
677.390	0.0158589
677.468	0.0158349
677.547	0.0159645
677.625	0.0158715
677.703	0.0157449
677.781	0.0158327
677.859	0.0159645
677.937	0.0158577
678.015	0.0158276
678.093	0.0157517
678.172	0.0158338
678.250	0.0159856
678.328	0.0159908
678.406	0.0158546
678.484	0.0158051
678.562	0.0157460
678.640	0.0159050
678.718	0.0158164
678.797	0.0157967
678.875	0.0159936
678.953	0.0158562
679.031	0.0159492
679.109	0.0158999
679.187	0.0158480
679.265	0.0159427
679.343	0.0158717
679.422	0.0157516
679.500	0.0158425
679.578	0.0157924
679.656	0.0159489
679.734	0.0159258
679.812	0.0158915
679.890	0.0158697
679.968	0.0158372
680.047	0.0158405
680.125	0.0158797
680.203	0.0158127
680.281	0.0159283
680.359	0.0157926
680.437	0.0158627
680.515	0.0159615
680.593	0.0160646
680.672	0.0159189
680.750	0.0158897
680.828	0.0157566
680.906	0.0158507
680.984	0.0159593
681.062	0.0158827
681.140	0.0159492
681.218	0.0158492
681.297	0.0157643
681.375	0.0158462
681.453	0.0158662
681.531	0.0157728
681.609	0.0158401
681.687	0.0157842
681.765	0.0158463
681.843	0.0157686
681.922	0.0158418
682.000	0.0159188
682.078	0.0158845
682.156	0.0157687
682.234	0.0157240
682.312	0.0158828
682.390	0.0159041
682.468	0.0159026
682.547	0.0158844
682.625	0.0157704
682.703	0.0158818
682.781	0.0158274
682.859	0.0158607
682.937	0.0158966
683.015	0.0158257
683.093	0.0159192
683.172	0.0157998
683.250	0.0158234
683.328	0.0158829
683.406	0.0159524
683.484	0.0159536
683.562	0.0159758
683.640	0.0159709
683.718	0.0158180
683.797	0.0156767
683.875	0.0159032
683.953	0.0157980
684.031	0.0158372
684.109	0.0158960
684.187	0.0157464
684.265	0.0159263
684.343	0.0158962
684.422	0.0158853
684.500	0.0157571
684.578	0.0157201
684.656	0.0159191
684.734	0.0158997
684.812	0.0157947
684.890	0.0158113
684.968	0.0159209
685.047	0.0159470
685.125	0.0159602
685.203	0.0159166
685.281	0.0159164
685.359	0.0158070
685.437	0.0160155
685.515	0.0159143
685.593	0.0158458
685.672	0.0158777
