06/13/2022	15:05:19	Ver.	4.1	UNKNOWN
Optical Delay	599.961724	Delta X		0.078125	Sweeps	1	Scan Rate	0/0
Coordinates	Axis 1	NaN	Axis 2	NaN	Axis 3	NaN	Axis 4	NaN	Axis 5	NaN	Axis 6	0.000000
TX Power	0.000000	RX Power	0.000000

599.962	0.0157191
600.040	0.0156979
600.118	0.0158925
600.196	0.0159290
600.274	0.0156874
600.352	0.0157742
600.430	0.0157970
600.509	0.0158495
600.587	0.0159362
600.665	0.0156829
600.743	0.0158523
600.821	0.0157387
600.899	0.0157677
600.977	0.0157495
601.055	0.0157498
601.134	0.0158266
601.212	0.0157749
601.290	0.0158390
601.368	0.0157892
601.446	0.0157422
601.524	0.0156834
601.602	0.0157352
601.680	0.0158684
601.759	0.0157744
601.837	0.0158072
601.915	0.0156207
601.993	0.0157690
602.071	0.0159245
602.149	0.0157261
602.227	0.0157582
602.305	0.0159135
602.384	0.0157477
602.462	0.0157811
602.540	0.0158404
602.618	0.0158331
602.696	0.0156949
602.774	0.0158208
602.852	0.0158411
602.930	0.0159666
603.009	0.0158968
603.087	0.0158516
603.165	0.0159108
603.243	0.0157594
603.321	0.0158887
603.399	0.0158934
603.477	0.0158121
603.555	0.0158007
603.634	0.0157462
603.712	0.0159166
603.790	0.0157860
603.868	0.0158417
603.946	0.0158897
604.024	0.0157954
604.102	0.0159094
604.180	0.0157995
604.259	0.0158031
604.337	0.0158790
604.415	0.0158407
604.493	0.0158156
604.571	0.0158579
604.649	0.0158001
604.727	0.0157241
604.805	0.0158553
604.884	0.0160432
604.962	0.0158528
605.040	0.0158813
605.118	0.0159013
605.196	0.0157967
605.274	0.0157587
605.352	0.0158544
605.430	0.0158698
605.509	0.0158109
605.587	0.0158888
605.665	0.0157898
605.743	0.0158502
605.821	0.0159160
605.899	0.0157961
605.977	0.0157932
606.055	0.0158631
606.134	0.0158566
606.212	0.0159428
606.290	0.0157842
606.368	0.0159320
606.446	0.0158411
606.524	0.0158016
606.602	0.0158382
606.680	0.0158160
606.759	0.0158988
606.837	0.0158387
606.915	0.0158350
606.993	0.0158804
607.071	0.0158040
607.149	0.0158286
607.227	0.0158636
607.305	0.0159054
607.384	0.0159801
607.462	0.0158772
607.540	0.0157960
607.618	0.0159891
607.696	0.0159216
607.774	0.0158912
607.852	0.0159092
607.930	0.0159284
608.009	0.0158791
608.087	0.0158739
608.165	0.0159715
608.243	0.0159702
608.321	0.0159303
608.399	0.0158362
608.477	0.0158284
608.555	0.0159779
608.634	0.0158451
608.712	0.0159484
608.790	0.0159303
608.868	0.0157140
608.946	0.0158983
609.024	0.0158480
609.102	0.0158222
609.180	0.0159404
609.259	0.0159819
609.337	0.0158396
609.415	0.0158926
609.493	0.0159463
609.571	0.0159931
609.649	0.0158250
609.727	0.0157878
609.805	0.0160794
609.884	0.0158344
609.962	0.0158516
610.040	0.0157944
610.118	0.0157918
610.196	0.0157619
610.274	0.0158347
610.352	0.0159344
610.430	0.0158306
610.509	0.0158270
610.587	0.0159219
610.665	0.0158406
610.743	0.0158657
610.821	0.0158817
610.899	0.0158574
610.977	0.0159528
611.055	0.0159634
611.134	0.0157932
611.212	0.0159058
611.290	0.0159058
611.368	0.0158676
611.446	0.0157582
611.524	0.0158209
611.602	0.0158595
611.680	0.0157825
611.759	0.0159532
611.837	0.0158994
611.915	0.0159577
611.993	0.0158950
612.071	0.0158596
612.149	0.0158685
612.227	0.0159254
612.305	0.0157057
612.384	0.0159087
612.462	0.0158601
612.540	0.0159454
612.618	0.0157890
612.696	0.0159564
612.774	0.0159025
612.852	0.0157913
612.930	0.0158874
613.009	0.0158064
613.087	0.0159307
613.165	0.0159787
613.243	0.0159582
613.321	0.0158141
613.399	0.0158956
613.477	0.0158297
613.555	0.0158055
613.634	0.0158591
613.712	0.0157614
613.790	0.0158217
613.868	0.0159063
613.946	0.0158355
614.024	0.0159458
614.102	0.0157831
614.180	0.0158459
614.259	0.0158550
614.337	0.0158645
614.415	0.0158858
614.493	0.0158681
614.571	0.0156686
614.649	0.0157751
614.727	0.0158111
614.805	0.0158829
614.884	0.0157787
614.962	0.0157619
615.040	0.0155610
615.118	0.0157384
615.196	0.0158797
615.274	0.0158738
615.352	0.0159615
615.430	0.0158233
615.509	0.0158674
615.587	0.0157602
615.665	0.0157483
615.743	0.0158045
615.821	0.0157858
615.899	0.0159086
615.977	0.0158773
616.055	0.0157176
616.134	0.0156126
616.212	0.0158606
616.290	0.0159353
616.368	0.0158527
616.446	0.0157999
616.524	0.0158020
616.602	0.0158788
616.680	0.0157115
616.759	0.0157497
616.837	0.0155738
616.915	0.0157076
616.993	0.0157405
617.071	0.0157052
617.149	0.0157401
617.227	0.0157660
617.305	0.0158179
617.384	0.0157946
617.462	0.0156500
617.540	0.0157507
617.618	0.0157819
617.696	0.0157914
617.774	0.0157719
617.852	0.0158881
617.930	0.0157185
618.009	0.0158095
618.087	0.0158505
618.165	0.0158738
618.243	0.0156918
618.321	0.0156689
618.399	0.0156532
618.477	0.0156652
618.555	0.0157534
618.634	0.0156869
618.712	0.0158042
618.790	0.0156392
618.868	0.0156873
618.946	0.0156997
619.024	0.0156270
619.102	0.0157332
619.180	0.0159008
619.259	0.0156582
619.337	0.0157387
619.415	0.0156045
619.493	0.0157127
619.571	0.0156100
619.649	0.0155379
619.727	0.0156213
619.805	0.0157641
619.884	0.0157143
619.962	0.0156491
620.040	0.0156490
620.118	0.0157154
620.196	0.0157524
620.274	0.0156243
620.352	0.0156787
620.430	0.0157188
620.509	0.0156509
620.587	0.0156787
620.665	0.0156786
620.743	0.0157028
620.821	0.0156970
620.899	0.0156548
620.977	0.0155500
621.055	0.0156702
621.134	0.0158218
621.212	0.0156932
621.290	0.0155679
621.368	0.0155823
621.446	0.0157350
621.524	0.0157905
621.602	0.0156519
621.680	0.0156324
621.759	0.0156361
621.837	0.0156786
621.915	0.0156696
621.993	0.0156055
622.071	0.0156171
622.149	0.0156525
622.227	0.0155945
622.305	0.0156793
622.384	0.0156432
622.462	0.0157327
622.540	0.0156541
622.618	0.0158025
622.696	0.0157367
622.774	0.0157707
622.852	0.0157176
622.930	0.0156773
623.009	0.0156511
623.087	0.0156722
623.165	0.0156258
623.243	0.0157884
623.321	0.0157763
623.399	0.0157149
623.477	0.0156919
623.555	0.0157172
623.634	0.0157940
623.712	0.0156625
623.790	0.0156850
623.868	0.0158047
623.946	0.0157616
624.024	0.0158814
624.102	0.0157873
624.180	0.0156470
624.259	0.0156783
624.337	0.0157106
624.415	0.0157503
624.493	0.0157382
624.571	0.0159042
624.649	0.0157883
624.727	0.0157956
624.805	0.0156991
624.884	0.0158175
624.962	0.0158385
625.040	0.0158239
625.118	0.0158423
625.196	0.0159443
625.274	0.0158521
625.352	0.0158263
625.430	0.0158847
625.509	0.0159524
625.587	0.0157417
625.665	0.0156954
625.743	0.0158466
625.821	0.0159251
625.899	0.0157925
625.977	0.0157600
626.055	0.0158721
626.134	0.0159399
626.212	0.0159354
626.290	0.0157838
626.368	0.0159061
626.446	0.0158244
626.524	0.0158396
626.602	0.0158584
626.680	0.0159005
626.759	0.0159470
626.837	0.0159274
626.915	0.0158430
626.993	0.0158282
627.071	0.0159102
627.149	0.0158740
627.227	0.0157896
627.305	0.0158689
627.384	0.0157533
627.462	0.0159959
627.540	0.0158346
627.618	0.0158492
627.696	0.0160229
627.774	0.0159818
627.852	0.0157874
627.930	0.0158289
628.009	0.0157911
628.087	0.0157376
628.165	0.0157730
628.243	0.0158486
628.321	0.0158990
628.399	0.0158369
628.477	0.0159354
628.555	0.0159049
628.634	0.0159286
628.712	0.0159557
628.790	0.0158360
628.868	0.0158327
628.946	0.0158789
629.024	0.0157930
629.102	0.0159010
629.180	0.0158920
629.259	0.0159212
629.337	0.0159380
629.415	0.0158453
629.493	0.0159702
629.571	0.0158955
629.649	0.0159514
629.727	0.0159047
629.805	0.0158970
629.884	0.0158190
629.962	0.0158259
630.040	0.0158601
630.118	0.0158653
630.196	0.0158975
630.274	0.0158680
630.352	0.0158810
630.430	0.0160090
630.509	0.0159335
630.587	0.0158145
630.665	0.0158840
630.743	0.0157871
630.821	0.0159934
630.899	0.0158821
630.977	0.0159235
631.055	0.0159010
631.134	0.0157916
631.212	0.0158624
631.290	0.0159621
631.368	0.0158212
631.446	0.0157813
631.524	0.0158881
631.602	0.0158401
631.680	0.0157468
631.759	0.0158765
631.837	0.0157588
631.915	0.0158919
631.993	0.0158829
632.071	0.0157430
632.149	0.0157645
632.227	0.0158701
632.305	0.0157013
632.384	0.0157382
632.462	0.0159122
632.540	0.0157786
632.618	0.0157436
632.696	0.0158670
632.774	0.0157276
632.852	0.0158556
632.930	0.0158486
633.009	0.0158121
633.087	0.0159081
633.165	0.0157867
633.243	0.0157478
633.321	0.0157644
633.399	0.0158855
633.477	0.0157175
633.555	0.0156734
633.634	0.0158807
633.712	0.0158056
633.790	0.0156640
633.868	0.0157671
633.946	0.0158091
634.024	0.0157190
634.102	0.0158028
634.180	0.0158454
634.259	0.0156586
634.337	0.0157253
634.415	0.0157298
634.493	0.0157669
634.571	0.0157841
634.649	0.0157927
634.727	0.0158015
634.805	0.0157867
634.884	0.0156170
634.962	0.0157554
635.040	0.0157635
635.118	0.0156478
635.196	0.0157044
635.274	0.0157386
635.352	0.0156899
635.430	0.0157484
635.509	0.0157227
635.587	0.0156330
635.665	0.0157395
635.743	0.0156941
635.821	0.0156873
635.899	0.0158478
635.977	0.0157061
636.055	0.0158547
636.134	0.0158894
636.212	0.0157388
636.290	0.0156718
636.368	0.0156970
636.446	0.0158224
636.524	0.0156809
636.602	0.0156158
636.680	0.0157482
636.759	0.0156036
636.837	0.0157541
636.915	0.0159679
636.993	0.0157782
637.071	0.0157851
637.149	0.0157734
637.227	0.0158097
637.305	0.0157591
637.384	0.0156976
637.462	0.0157797
637.540	0.0156945
637.618	0.0157764
637.696	0.0155865
637.774	0.0157431
637.852	0.0157674
637.930	0.0158542
638.009	0.0158269
638.087	0.0156545
638.165	0.0158181
638.243	0.0159658
638.321	0.0157536
638.399	0.0157763
638.477	0.0158969
638.555	0.0159225
638.634	0.0157055
638.712	0.0157261
638.790	0.0158126
638.868	0.0160789
638.946	0.0158252
639.024	0.0158026
639.102	0.0157873
639.180	0.0158030
639.259	0.0158379
639.337	0.0158127
639.415	0.0158945
639.493	0.0158971
639.571	0.0158723
639.649	0.0158905
639.727	0.0158862
639.805	0.0157952
639.884	0.0158006
639.962	0.0159370
640.040	0.0158062
640.118	0.0159164
640.196	0.0160020
640.274	0.0157507
640.352	0.0158521
640.430	0.0158299
640.509	0.0158072
640.587	0.0159575
640.665	0.0157829
640.743	0.0159107
640.821	0.0156186
640.899	0.0157559
640.977	0.0159153
641.055	0.0160178
641.134	0.0158164
641.212	0.0157539
641.290	0.0157952
641.368	0.0158386
641.446	0.0158366
641.524	0.0159231
641.602	0.0157986
641.680	0.0156876
641.759	0.0158374
641.837	0.0158042
641.915	0.0158662
641.993	0.0157923
642.071	0.0158382
642.149	0.0159480
642.227	0.0157335
642.305	0.0159091
642.384	0.0158093
642.462	0.0157890
642.540	0.0157703
642.618	0.0156958
642.696	0.0158942
642.774	0.0158088
642.852	0.0156879
642.930	0.0158029
643.009	0.0158827
643.087	0.0159027
643.165	0.0156622
643.243	0.0156969
643.321	0.0157463
643.399	0.0157626
643.477	0.0158218
643.555	0.0157117
643.634	0.0157356
643.712	0.0157917
643.790	0.0157069
643.868	0.0157867
643.946	0.0157891
644.024	0.0157647
644.102	0.0157327
644.180	0.0155371
644.259	0.0157619
644.337	0.0157048
644.415	0.0155808
644.493	0.0157732
644.571	0.0158410
644.649	0.0158263
644.727	0.0157191
644.805	0.0157702
644.884	0.0156233
644.962	0.0157944
645.040	0.0157716
645.118	0.0156998
645.196	0.0156540
645.274	0.0157516
645.352	0.0157239
645.430	0.0156953
645.509	0.0157307
645.587	0.0157216
645.665	0.0157362
645.743	0.0157481
645.821	0.0157007
645.899	0.0157600
645.977	0.0159678
646.055	0.0157195
646.134	0.0154900
646.212	0.0156959
646.290	0.0158585
646.368	0.0157104
646.446	0.0157264
646.524	0.0157552
646.602	0.0158889
646.680	0.0156515
646.759	0.0158655
646.837	0.0155769
646.915	0.0159077
646.993	0.0157397
647.071	0.0155825
647.149	0.0158334
647.227	0.0157196
647.305	0.0158125
647.384	0.0160322
647.462	0.0157390
647.540	0.0157614
647.618	0.0158658
647.696	0.0158069
647.774	0.0158462
647.852	0.0157734
647.930	0.0158102
648.009	0.0157952
648.087	0.0158145
648.165	0.0157706
648.243	0.0156821
648.321	0.0159280
648.399	0.0157108
648.477	0.0157757
648.555	0.0157115
648.634	0.0159469
648.712	0.0158533
648.790	0.0158401
648.868	0.0157130
648.946	0.0158479
649.024	0.0158617
649.102	0.0158805
649.180	0.0158557
649.259	0.0159316
649.337	0.0157559
649.415	0.0158295
649.493	0.0157509
649.571	0.0158018
649.649	0.0157719
649.727	0.0157787
649.805	0.0158479
649.884	0.0159456
649.962	0.0158439
650.040	0.0156792
650.118	0.0159010
650.196	0.0157945
650.274	0.0157580
650.352	0.0158823
650.430	0.0158273
650.509	0.0157973
650.587	0.0159244
650.665	0.0159666
650.743	0.0157157
650.821	0.0158091
650.899	0.0158300
650.977	0.0158372
651.055	0.0158239
651.134	0.0158434
651.212	0.0157855
651.290	0.0157126
651.368	0.0158286
651.446	0.0158551
651.524	0.0157629
651.602	0.0157612
651.680	0.0157432
651.759	0.0157783
651.837	0.0157525
651.915	0.0157472
651.993	0.0157761
652.071	0.0158292
652.149	0.0157211
652.227	0.0156977
652.305	0.0157585
652.384	0.0158620
652.462	0.0158167
652.540	0.0158366
652.618	0.0158137
652.696	0.0157650
652.774	0.0157758
652.852	0.0158081
652.930	0.0159412
653.009	0.0158855
653.087	0.0159712
653.165	0.0157775
653.243	0.0157259
653.321	0.0158978
653.399	0.0158661
653.477	0.0159768
653.555	0.0157743
653.634	0.0158084
653.712	0.0158466
653.790	0.0158327
653.868	0.0158623
653.946	0.0159437
654.024	0.0156651
654.102	0.0158649
654.180	0.0158387
654.259	0.0158044
654.337	0.0158946
654.415	0.0158343
654.493	0.0158540
654.571	0.0157429
654.649	0.0159894
654.727	0.0158118
654.805	0.0157672
654.884	0.0158737
654.962	0.0159493
655.040	0.0158107
655.118	0.0157793
655.196	0.0158619
655.274	0.0159004
655.352	0.0159887
655.430	0.0157254
655.509	0.0158680
655.587	0.0159125
655.665	0.0158667
655.743	0.0158360
655.821	0.0158957
655.899	0.0158401
655.977	0.0158485
656.055	0.0157692
656.134	0.0158335
656.212	0.0158672
656.290	0.0158419
656.368	0.0159107
656.446	0.0158123
656.524	0.0157569
656.602	0.0158929
656.680	0.0159592
656.759	0.0159180
656.837	0.0158547
656.915	0.0158511
656.993	0.0158083
657.071	0.0157951
657.149	0.0159162
657.227	0.0158191
657.305	0.0159156
657.384	0.0157975
657.462	0.0157997
657.540	0.0158813
657.618	0.0159280
657.696	0.0158150
657.774	0.0159029
657.852	0.0158181
657.930	0.0158765
658.009	0.0158840
658.087	0.0158474
658.165	0.0158847
658.243	0.0158910
658.321	0.0158395
658.399	0.0159614
658.477	0.0158808
658.555	0.0157635
658.634	0.0160605
658.712	0.0158041
658.790	0.0157465
658.868	0.0158473
658.946	0.0159123
659.024	0.0157336
659.102	0.0156898
659.180	0.0157969
659.259	0.0158839
659.337	0.0159273
659.415	0.0159335
659.493	0.0158593
659.571	0.0157999
659.649	0.0157570
659.727	0.0157142
659.805	0.0158911
659.884	0.0158150
659.962	0.0159383
660.040	0.0158171
660.118	0.0159164
660.196	0.0160623
660.274	0.0158154
660.352	0.0159560
660.430	0.0157212
660.509	0.0158048
660.587	0.0157676
660.665	0.0157802
660.743	0.0158461
660.821	0.0160110
660.899	0.0159323
660.977	0.0158878
661.055	0.0158344
661.134	0.0158357
661.212	0.0158810
661.290	0.0158597
661.368	0.0158923
661.446	0.0158217
661.524	0.0159560
661.602	0.0157841
661.680	0.0157774
661.759	0.0159269
661.837	0.0157440
661.915	0.0158154
661.993	0.0157419
662.071	0.0158751
662.149	0.0159161
662.227	0.0158054
662.305	0.0158469
662.384	0.0158435
662.462	0.0157971
662.540	0.0157616
662.618	0.0157977
662.696	0.0158472
662.774	0.0158304
662.852	0.0158727
662.930	0.0158032
663.009	0.0157037
663.087	0.0158914
663.165	0.0158416
663.243	0.0159196
663.321	0.0158136
663.399	0.0157770
663.477	0.0158203
663.555	0.0158768
663.634	0.0158398
663.712	0.0157341
663.790	0.0158240
663.868	0.0158998
663.946	0.0157185
664.024	0.0158252
664.102	0.0157681
664.180	0.0159625
664.259	0.0159315
664.337	0.0157825
664.415	0.0157812
664.493	0.0157890
664.571	0.0157407
664.649	0.0158486
664.727	0.0159265
664.805	0.0157802
664.884	0.0159373
664.962	0.0158669
665.040	0.0158486
665.118	0.0157285
665.196	0.0157692
665.274	0.0158028
665.352	0.0158588
665.430	0.0158447
665.509	0.0156580
665.587	0.0158199
665.665	0.0159589
665.743	0.0158742
665.821	0.0158542
665.899	0.0159352
665.977	0.0159295
666.055	0.0159024
666.134	0.0157074
666.212	0.0157766
666.290	0.0159504
666.368	0.0157404
666.446	0.0157215
666.524	0.0158562
666.602	0.0158899
666.680	0.0157880
666.759	0.0156580
666.837	0.0157687
666.915	0.0159543
666.993	0.0158284
667.071	0.0158031
667.149	0.0158794
667.227	0.0157441
667.305	0.0157781
667.384	0.0157616
667.462	0.0157655
667.540	0.0158341
667.618	0.0158601
667.696	0.0157374
667.774	0.0157218
667.852	0.0158054
667.930	0.0158673
668.009	0.0157391
668.087	0.0156221
668.165	0.0158645
668.243	0.0158539
668.321	0.0156699
668.399	0.0157314
668.477	0.0158170
668.555	0.0157859
668.634	0.0157484
668.712	0.0156235
668.790	0.0158597
668.868	0.0160089
668.946	0.0158746
669.024	0.0159109
669.102	0.0157845
669.180	0.0157857
669.259	0.0156855
669.337	0.0158192
669.415	0.0158551
669.493	0.0157424
669.571	0.0157317
669.649	0.0157946
669.727	0.0157207
669.805	0.0157240
669.884	0.0156857
669.962	0.0157873
670.040	0.0155724
670.118	0.0157129
670.196	0.0157713
670.274	0.0157803
670.352	0.0158252
670.430	0.0157744
670.509	0.0158731
670.587	0.0158177
670.665	0.0157310
670.743	0.0156782
670.821	0.0156074
670.899	0.0157704
670.977	0.0157743
671.055	0.0157168
671.134	0.0158873
671.212	0.0157978
671.290	0.0157209
671.368	0.0157400
671.446	0.0159592
671.524	0.0157353
671.602	0.0157820
671.680	0.0158736
671.759	0.0157896
671.837	0.0158005
671.915	0.0158721
671.993	0.0157542
672.071	0.0158226
672.149	0.0159249
672.227	0.0157935
672.305	0.0159204
672.384	0.0159022
672.462	0.0157417
672.540	0.0159383
672.618	0.0157009
672.696	0.0156976
672.774	0.0158723
672.852	0.0156998
672.930	0.0158096
673.009	0.0158881
673.087	0.0159416
673.165	0.0158015
673.243	0.0158586
673.321	0.0158791
673.399	0.0158019
673.477	0.0157209
673.555	0.0158950
673.634	0.0158666
673.712	0.0159668
673.790	0.0157055
673.868	0.0158220
673.946	0.0158661
674.024	0.0157806
674.102	0.0157763
674.180	0.0156836
674.259	0.0157676
674.337	0.0158892
674.415	0.0157954
674.493	0.0157707
674.571	0.0158507
674.649	0.0157897
674.727	0.0158139
674.805	0.0157735
674.884	0.0156592
674.962	0.0158448
675.040	0.0160471
675.118	0.0158687
675.196	0.0157857
675.274	0.0158101
675.352	0.0159538
675.430	0.0157418
675.509	0.0158456
675.587	0.0158694
675.665	0.0157179
675.743	0.0158482
675.821	0.0157607
675.899	0.0157846
675.977	0.0157658
676.055	0.0159234
676.134	0.0157864
676.212	0.0157877
676.290	0.0157746
676.368	0.0158556
676.446	0.0158599
676.524	0.0157648
676.602	0.0157767
676.680	0.0157175
676.759	0.0157432
676.837	0.0158509
676.915	0.0158308
676.993	0.0158374
677.071	0.0158980
677.149	0.0158192
677.227	0.0157576
677.305	0.0157822
677.384	0.0158366
677.462	0.0158375
677.540	0.0157856
677.618	0.0157241
677.696	0.0157834
677.774	0.0159525
677.852	0.0158578
677.930	0.0158796
678.009	0.0158935
678.087	0.0156351
678.165	0.0158227
678.243	0.0158967
678.321	0.0159409
678.399	0.0158599
678.477	0.0158531
678.555	0.0158772
678.634	0.0158743
678.712	0.0157659
678.790	0.0157915
678.868	0.0159891
678.946	0.0158964
679.024	0.0159077
679.102	0.0158417
679.180	0.0159656
679.259	0.0158808
679.337	0.0160194
679.415	0.0158830
679.493	0.0159369
679.571	0.0158887
679.649	0.0158262
679.727	0.0160069
679.805	0.0157978
679.884	0.0158169
679.962	0.0158055
680.040	0.0158809
680.118	0.0160195
680.196	0.0158810
680.274	0.0158654
680.352	0.0158561
680.430	0.0159444
680.509	0.0160102
680.587	0.0157961
680.665	0.0159370
680.743	0.0158440
680.821	0.0159550
680.899	0.0159292
680.977	0.0157626
681.055	0.0158025
681.134	0.0159086
681.212	0.0160281
681.290	0.0159751
681.368	0.0157895
681.446	0.0159148
681.524	0.0158858
681.602	0.0158292
681.680	0.0159995
681.759	0.0158740
681.837	0.0158308
681.915	0.0159374
681.993	0.0157327
682.071	0.0157999
682.149	0.0158350
682.227	0.0158923
682.305	0.0159917
682.384	0.0159814
682.462	0.0158508
682.540	0.0158627
682.618	0.0159097
682.696	0.0158353
682.774	0.0159000
682.852	0.0158150
682.930	0.0159464
683.009	0.0159591
683.087	0.0158729
683.165	0.0158953
683.243	0.0158920
683.321	0.0158159
683.399	0.0158970
683.477	0.0159553
683.555	0.0159138
683.634	0.0158366
683.712	0.0158059
683.790	0.0158147
683.868	0.0159769
683.946	0.0157557
684.024	0.0157999
684.102	0.0159535
684.180	0.0158303
684.259	0.0159262
684.337	0.0159872
684.415	0.0158681
684.493	0.0157608
684.571	0.0159761
684.649	0.0160275
684.727	0.0158839
684.805	0.0157488
684.884	0.0158028
684.962	0.0156618
685.040	0.0157461
685.118	0.0158552
685.196	0.0157926
685.274	0.0158921
685.352	0.0158630
685.430	0.0158464
685.509	0.0158374
685.587	0.0159496
685.665	0.0158077
