06/13/2022	15:06:49	Ver.	4.1	UNKNOWN
Optical Delay	599.968395	Delta X		0.078125	Sweeps	1	Scan Rate	0/0
Coordinates	Axis 1	NaN	Axis 2	NaN	Axis 3	NaN	Axis 4	NaN	Axis 5	NaN	Axis 6	0.000000
TX Power	0.000000	RX Power	0.000000

599.968	0.0155962
600.047	0.0156219
600.125	0.0157147
600.203	0.0155991
600.281	0.0155478
600.359	0.0155338
600.437	0.0156900
600.515	0.0157452
600.593	0.0156892
600.672	0.0155686
600.750	0.0156036
600.828	0.0156191
600.906	0.0157449
600.984	0.0156406
601.062	0.0156464
601.140	0.0156524
601.218	0.0157040
601.297	0.0155434
601.375	0.0155386
601.453	0.0155802
601.531	0.0156738
601.609	0.0156707
601.687	0.0157410
601.765	0.0156898
601.843	0.0156283
601.922	0.0156123
602.000	0.0156847
602.078	0.0155915
602.156	0.0156755
602.234	0.0154924
602.312	0.0156049
602.390	0.0156422
602.468	0.0156558
602.547	0.0154763
602.625	0.0155640
602.703	0.0157277
602.781	0.0156596
602.859	0.0156403
602.937	0.0154629
603.015	0.0156091
603.093	0.0155965
603.172	0.0156780
603.250	0.0156925
603.328	0.0156761
603.406	0.0155630
603.484	0.0155676
603.562	0.0156480
603.640	0.0157961
603.718	0.0154841
603.797	0.0156923
603.875	0.0156297
603.953	0.0156833
604.031	0.0156712
604.109	0.0155559
604.187	0.0156514
604.265	0.0156627
604.343	0.0156603
604.422	0.0154936
604.500	0.0155217
604.578	0.0155764
604.656	0.0155207
604.734	0.0156210
604.812	0.0156203
604.890	0.0155039
604.968	0.0154206
605.047	0.0156173
605.125	0.0157183
605.203	0.0155173
605.281	0.0155828
605.359	0.0156192
605.437	0.0155322
605.515	0.0155276
605.593	0.0155725
605.672	0.0155192
605.750	0.0154765
605.828	0.0155898
605.906	0.0155093
605.984	0.0154802
606.062	0.0154853
606.140	0.0155318
606.218	0.0155756
606.297	0.0155662
606.375	0.0154726
606.453	0.0155834
606.531	0.0155064
606.609	0.0156886
606.687	0.0155523
606.765	0.0154677
606.843	0.0155289
606.922	0.0154641
607.000	0.0154822
607.078	0.0155190
607.156	0.0154105
607.234	0.0154419
607.312	0.0156351
607.390	0.0155716
607.468	0.0156451
607.547	0.0156261
607.625	0.0154739
607.703	0.0154708
607.781	0.0156394
607.859	0.0155154
607.937	0.0155135
608.015	0.0155069
608.093	0.0155614
608.172	0.0154286
608.250	0.0155133
608.328	0.0155226
608.406	0.0155448
608.484	0.0154147
608.562	0.0155569
608.640	0.0155204
608.718	0.0155944
608.797	0.0155013
608.875	0.0155812
608.953	0.0155076
609.031	0.0155891
609.109	0.0155241
609.187	0.0154838
609.265	0.0155518
609.343	0.0155422
609.422	0.0154535
609.500	0.0155482
609.578	0.0155714
609.656	0.0155862
609.734	0.0156464
609.812	0.0155436
609.890	0.0154102
609.968	0.0154379
610.047	0.0156210
610.125	0.0155254
610.203	0.0154942
610.281	0.0153732
610.359	0.0156597
610.437	0.0155562
610.515	0.0155522
610.593	0.0156348
610.672	0.0156691
610.750	0.0154294
610.828	0.0155650
610.906	0.0154421
610.984	0.0155473
611.062	0.0154877
611.140	0.0155170
611.218	0.0155065
611.297	0.0155911
611.375	0.0156024
611.453	0.0155408
611.531	0.0154840
611.609	0.0156738
611.687	0.0155009
611.765	0.0154145
611.843	0.0154919
611.922	0.0156226
612.000	0.0155470
612.078	0.0155685
612.156	0.0155136
612.234	0.0155416
612.312	0.0155079
612.390	0.0156325
612.468	0.0156960
612.547	0.0156316
612.625	0.0155506
612.703	0.0154986
612.781	0.0155474
612.859	0.0154506
612.937	0.0156561
613.015	0.0155585
613.093	0.0155720
613.172	0.0156474
613.250	0.0156232
613.328	0.0155136
613.406	0.0156576
613.484	0.0156055
613.562	0.0154861
613.640	0.0155289
613.718	0.0156210
613.797	0.0156158
613.875	0.0156920
613.953	0.0155360
614.031	0.0155121
614.109	0.0157303
614.187	0.0155219
614.265	0.0154352
614.343	0.0156241
614.422	0.0155499
614.500	0.0155000
614.578	0.0155413
614.656	0.0154202
614.734	0.0155339
614.812	0.0156094
614.890	0.0156071
614.968	0.0156314
615.047	0.0156116
615.125	0.0155824
615.203	0.0155904
615.281	0.0154707
615.359	0.0155207
615.437	0.0155447
615.515	0.0155676
615.593	0.0155314
615.672	0.0155732
615.750	0.0154675
615.828	0.0155317
615.906	0.0156407
615.984	0.0155563
616.062	0.0156350
616.140	0.0154388
616.218	0.0154153
616.297	0.0155184
616.375	0.0155834
616.453	0.0156303
616.531	0.0154720
616.609	0.0154924
616.687	0.0155127
616.765	0.0154679
616.843	0.0155671
616.922	0.0156051
617.000	0.0155766
617.078	0.0154865
617.156	0.0154999
617.234	0.0154380
617.312	0.0155428
617.390	0.0155062
617.468	0.0155399
617.547	0.0155935
617.625	0.0156058
617.703	0.0154437
617.781	0.0155371
617.859	0.0154729
617.937	0.0154196
618.015	0.0155126
618.093	0.0154507
618.172	0.0154456
618.250	0.0156949
618.328	0.0155837
618.406	0.0154230
618.484	0.0155395
618.562	0.0153976
618.640	0.0155412
618.718	0.0155292
618.797	0.0155175
618.875	0.0154417
618.953	0.0155513
619.031	0.0155964
619.109	0.0155262
619.187	0.0155984
619.265	0.0155869
619.343	0.0154080
619.422	0.0154038
619.500	0.0155302
619.578	0.0156003
619.656	0.0155482
619.734	0.0155657
619.812	0.0156758
619.890	0.0154115
619.968	0.0156027
620.047	0.0156075
620.125	0.0155212
620.203	0.0154672
620.281	0.0155175
620.359	0.0156625
620.437	0.0156366
620.515	0.0154221
620.593	0.0154549
620.672	0.0154385
620.750	0.0155999
620.828	0.0155984
620.906	0.0156509
620.984	0.0155155
621.062	0.0155848
621.140	0.0154406
621.218	0.0154749
621.297	0.0155197
621.375	0.0155909
621.453	0.0155123
621.531	0.0155672
621.609	0.0156985
621.687	0.0155728
621.765	0.0155612
621.843	0.0155731
621.922	0.0155354
622.000	0.0155467
622.078	0.0157157
622.156	0.0156645
622.234	0.0155633
622.312	0.0156631
622.390	0.0156338
622.468	0.0157236
622.547	0.0156476
622.625	0.0154678
622.703	0.0155077
622.781	0.0156857
622.859	0.0156739
622.937	0.0157404
623.015	0.0156320
623.093	0.0156819
623.172	0.0155209
623.250	0.0156384
623.328	0.0156114
623.406	0.0157897
623.484	0.0156872
623.562	0.0155078
623.640	0.0155363
623.718	0.0156720
623.797	0.0155881
623.875	0.0155819
623.953	0.0155997
624.031	0.0156732
624.109	0.0156480
624.187	0.0156433
624.265	0.0156408
624.343	0.0156380
624.422	0.0157346
624.500	0.0155705
624.578	0.0156448
624.656	0.0157043
624.734	0.0155870
624.812	0.0156577
624.890	0.0156696
624.968	0.0155975
625.047	0.0155410
625.125	0.0155486
625.203	0.0157137
625.281	0.0155975
625.359	0.0155781
625.437	0.0156785
625.515	0.0156004
625.593	0.0155876
625.672	0.0156929
625.750	0.0156661
625.828	0.0156348
625.906	0.0157178
625.984	0.0156454
626.062	0.0155480
626.140	0.0154933
626.218	0.0156049
626.297	0.0157577
626.375	0.0156146
626.453	0.0156640
626.531	0.0156827
626.609	0.0156218
626.687	0.0155638
626.765	0.0155492
626.843	0.0157291
626.922	0.0156557
627.000	0.0156290
627.078	0.0156879
627.156	0.0155430
627.234	0.0156662
627.312	0.0156793
627.390	0.0155731
627.468	0.0154518
627.547	0.0156697
627.625	0.0155350
627.703	0.0155594
627.781	0.0154980
627.859	0.0155502
627.937	0.0157672
628.015	0.0157360
628.093	0.0157433
628.172	0.0156128
628.250	0.0157169
628.328	0.0155888
628.406	0.0156142
628.484	0.0155444
628.562	0.0157153
628.640	0.0155296
628.718	0.0155694
628.797	0.0155083
628.875	0.0155381
628.953	0.0155632
629.031	0.0155486
629.109	0.0155025
629.187	0.0154862
629.265	0.0155405
629.343	0.0156126
629.422	0.0156802
629.500	0.0156097
629.578	0.0155488
629.656	0.0155906
629.734	0.0156137
629.812	0.0156974
629.890	0.0155749
629.968	0.0155905
630.047	0.0156256
630.125	0.0155556
630.203	0.0156896
630.281	0.0155724
630.359	0.0154483
630.437	0.0156474
630.515	0.0156109
630.593	0.0156461
630.672	0.0154972
630.750	0.0155443
630.828	0.0156259
630.906	0.0156580
630.984	0.0156099
631.062	0.0155989
631.140	0.0156689
631.218	0.0156004
631.297	0.0156757
631.375	0.0157358
631.453	0.0155879
631.531	0.0155982
631.609	0.0154777
631.687	0.0157182
631.765	0.0157039
631.843	0.0156280
631.922	0.0156202
632.000	0.0156554
632.078	0.0155994
632.156	0.0156392
632.234	0.0156303
632.312	0.0157174
632.390	0.0155984
632.468	0.0155424
632.547	0.0155209
632.625	0.0156112
632.703	0.0156198
632.781	0.0156728
632.859	0.0156866
632.937	0.0155786
633.015	0.0156704
633.093	0.0155457
633.172	0.0157608
633.250	0.0156870
633.328	0.0156096
633.406	0.0156479
633.484	0.0157195
633.562	0.0156257
633.640	0.0155482
633.718	0.0155691
633.797	0.0156424
633.875	0.0156122
633.953	0.0156065
634.031	0.0155457
634.109	0.0157024
634.187	0.0156251
634.265	0.0155045
634.343	0.0156044
634.422	0.0156107
634.500	0.0155337
634.578	0.0156001
634.656	0.0154276
634.734	0.0154821
634.812	0.0154121
634.890	0.0155583
634.968	0.0154992
635.047	0.0155529
635.125	0.0155965
635.203	0.0155184
635.281	0.0155143
635.359	0.0155814
635.437	0.0156174
635.515	0.0155086
635.593	0.0153714
635.672	0.0155921
635.750	0.0155347
635.828	0.0154490
635.906	0.0154015
635.984	0.0155021
636.062	0.0156250
636.140	0.0154969
636.218	0.0155424
636.297	0.0154057
636.375	0.0154809
636.453	0.0155920
636.531	0.0154690
636.609	0.0154758
636.687	0.0155634
636.765	0.0154680
636.843	0.0155074
636.922	0.0155700
637.000	0.0155679
637.078	0.0155421
637.156	0.0156775
637.234	0.0155934
637.312	0.0155362
637.390	0.0154501
637.468	0.0154102
637.547	0.0155712
637.625	0.0155617
637.703	0.0155734
637.781	0.0155759
637.859	0.0155646
637.937	0.0155966
638.015	0.0155914
638.093	0.0154380
638.172	0.0153401
638.250	0.0154867
638.328	0.0154594
638.406	0.0155205
638.484	0.0154894
638.562	0.0155240
638.640	0.0155022
638.718	0.0155101
638.797	0.0155891
638.875	0.0156902
638.953	0.0155978
639.031	0.0153963
639.109	0.0154277
639.187	0.0154758
639.265	0.0155609
639.343	0.0154643
639.422	0.0154299
639.500	0.0155386
639.578	0.0156336
639.656	0.0156689
639.734	0.0155192
639.812	0.0154604
639.890	0.0154456
639.968	0.0155116
640.047	0.0154792
640.125	0.0155312
640.203	0.0155325
640.281	0.0154302
640.359	0.0154723
640.437	0.0155078
640.515	0.0155803
640.593	0.0155601
640.672	0.0154601
640.750	0.0155622
640.828	0.0156045
640.906	0.0156154
640.984	0.0154035
641.062	0.0154974
641.140	0.0155372
641.218	0.0154906
641.297	0.0155256
641.375	0.0155237
641.453	0.0155372
641.531	0.0155610
641.609	0.0155797
641.687	0.0155678
641.765	0.0154414
641.843	0.0154235
641.922	0.0155099
642.000	0.0155360
642.078	0.0155011
642.156	0.0155437
642.234	0.0156577
642.312	0.0155289
642.390	0.0155402
642.468	0.0156181
642.547	0.0155512
642.625	0.0155467
642.703	0.0155652
642.781	0.0157031
642.859	0.0154707
642.937	0.0155092
643.015	0.0155287
643.093	0.0155805
643.172	0.0155145
643.250	0.0156334
643.328	0.0156477
643.406	0.0156542
643.484	0.0156108
643.562	0.0156177
643.640	0.0155939
643.718	0.0155561
643.797	0.0155727
643.875	0.0155740
643.953	0.0155299
644.031	0.0155897
644.109	0.0154039
644.187	0.0156944
644.265	0.0156949
644.343	0.0157124
644.422	0.0156787
644.500	0.0156284
644.578	0.0156519
644.656	0.0155627
644.734	0.0155001
644.812	0.0156277
644.890	0.0156435
644.968	0.0156237
645.047	0.0156464
645.125	0.0155826
645.203	0.0156248
645.281	0.0156009
645.359	0.0155787
645.437	0.0155830
645.515	0.0157624
645.593	0.0156023
645.672	0.0156539
645.750	0.0156305
645.828	0.0155070
645.906	0.0155062
645.984	0.0157528
646.062	0.0158102
646.140	0.0156746
646.218	0.0157832
646.297	0.0157861
646.375	0.0157244
646.453	0.0157068
646.531	0.0157495
646.609	0.0156180
646.687	0.0157099
646.765	0.0157545
646.843	0.0156529
646.922	0.0155758
647.000	0.0155956
647.078	0.0157275
647.156	0.0156559
647.234	0.0155776
647.312	0.0155112
647.390	0.0157153
647.468	0.0158145
647.547	0.0156706
647.625	0.0155930
647.703	0.0156960
647.781	0.0156526
647.859	0.0156918
647.937	0.0156149
648.015	0.0157155
648.093	0.0156351
648.172	0.0155811
648.250	0.0155983
648.328	0.0157598
648.406	0.0156686
648.484	0.0156669
648.562	0.0156917
648.640	0.0156139
648.718	0.0156888
648.797	0.0157246
648.875	0.0158379
648.953	0.0157413
649.031	0.0156001
649.109	0.0155890
649.187	0.0155979
649.265	0.0157130
649.343	0.0156871
649.422	0.0156067
649.500	0.0157469
649.578	0.0156195
649.656	0.0156702
649.734	0.0157187
649.812	0.0155270
649.890	0.0155679
649.968	0.0156615
650.047	0.0156191
650.125	0.0156157
650.203	0.0157011
650.281	0.0156556
650.359	0.0156898
650.437	0.0156689
650.515	0.0156073
650.593	0.0155814
650.672	0.0156448
650.750	0.0157260
650.828	0.0156835
650.906	0.0155359
650.984	0.0155772
651.062	0.0155656
651.140	0.0155962
651.218	0.0158565
651.297	0.0158242
651.375	0.0156373
651.453	0.0155739
651.531	0.0157806
651.609	0.0157355
651.687	0.0156506
651.765	0.0154881
651.843	0.0157085
651.922	0.0157217
652.000	0.0156615
652.078	0.0157581
652.156	0.0156465
652.234	0.0157752
652.312	0.0156290
652.390	0.0156826
652.468	0.0157509
652.547	0.0156869
652.625	0.0156500
652.703	0.0156134
652.781	0.0156551
652.859	0.0156925
652.937	0.0156436
653.015	0.0157529
653.093	0.0155347
653.172	0.0157029
653.250	0.0157676
653.328	0.0156207
653.406	0.0156413
653.484	0.0156695
653.562	0.0157218
653.640	0.0157440
653.718	0.0157353
653.797	0.0156496
653.875	0.0155276
653.953	0.0157760
654.031	0.0157401
654.109	0.0156942
654.187	0.0156070
654.265	0.0157242
654.343	0.0156598
654.422	0.0156786
654.500	0.0156628
654.578	0.0155560
654.656	0.0156660
654.734	0.0156142
654.812	0.0156047
654.890	0.0156051
654.968	0.0156371
655.047	0.0155924
655.125	0.0157420
655.203	0.0157427
655.281	0.0154638
655.359	0.0155286
655.437	0.0157227
655.515	0.0157256
655.593	0.0157308
655.672	0.0156068
655.750	0.0155601
655.828	0.0156496
655.906	0.0155527
655.984	0.0156041
656.062	0.0156371
656.140	0.0156929
656.218	0.0157330
656.297	0.0155898
656.375	0.0155775
656.453	0.0155399
656.531	0.0156676
656.609	0.0157169
656.687	0.0155083
656.765	0.0155676
656.843	0.0156615
656.922	0.0155919
657.000	0.0155598
657.078	0.0155328
657.156	0.0156989
657.234	0.0157613
657.312	0.0156247
657.390	0.0156431
657.468	0.0156802
657.547	0.0154360
657.625	0.0155837
657.703	0.0156643
657.781	0.0157285
657.859	0.0156242
657.937	0.0155074
658.015	0.0155827
658.093	0.0155306
658.172	0.0156141
658.250	0.0156161
658.328	0.0156907
658.406	0.0155898
658.484	0.0156512
658.562	0.0155685
658.640	0.0155263
658.718	0.0157425
658.797	0.0155314
658.875	0.0155620
658.953	0.0154323
659.031	0.0155244
659.109	0.0156392
659.187	0.0156052
659.265	0.0155349
659.343	0.0155023
659.422	0.0155767
659.500	0.0155408
659.578	0.0155079
659.656	0.0155314
659.734	0.0154033
659.812	0.0155437
659.890	0.0155928
659.968	0.0155872
660.047	0.0154460
660.125	0.0154776
660.203	0.0154448
660.281	0.0155641
660.359	0.0155463
660.437	0.0154816
660.515	0.0156494
660.593	0.0156138
660.672	0.0156407
660.750	0.0155733
660.828	0.0156213
660.906	0.0154284
660.984	0.0154923
661.062	0.0154611
661.140	0.0156233
661.218	0.0156453
661.297	0.0154700
661.375	0.0154138
661.453	0.0155479
661.531	0.0155240
661.609	0.0157275
661.687	0.0156264
661.765	0.0155424
661.843	0.0155249
661.922	0.0156576
662.000	0.0156789
662.078	0.0156084
662.156	0.0155543
662.234	0.0155153
662.312	0.0155109
662.390	0.0155829
662.468	0.0157464
662.547	0.0156226
662.625	0.0156364
662.703	0.0155190
662.781	0.0155743
662.859	0.0155080
662.937	0.0155116
663.015	0.0155754
663.093	0.0155294
663.172	0.0154681
663.250	0.0155390
663.328	0.0155502
663.406	0.0155960
663.484	0.0154961
663.562	0.0155039
663.640	0.0153992
663.718	0.0155342
663.797	0.0156248
663.875	0.0155331
663.953	0.0153356
664.031	0.0155351
664.109	0.0156730
664.187	0.0155048
664.265	0.0155509
664.343	0.0155060
664.422	0.0156356
664.500	0.0155109
664.578	0.0154453
664.656	0.0155885
664.734	0.0156901
664.812	0.0155683
664.890	0.0155408
664.968	0.0155016
665.047	0.0155118
665.125	0.0156395
665.203	0.0158060
665.281	0.0155769
665.359	0.0155410
665.437	0.0155743
665.515	0.0155906
665.593	0.0156185
665.672	0.0154107
665.750	0.0154977
665.828	0.0155117
665.906	0.0155614
665.984	0.0156287
666.062	0.0155453
666.140	0.0154871
666.218	0.0154494
666.297	0.0155096
666.375	0.0155013
666.453	0.0154247
666.531	0.0155199
666.609	0.0155280
666.687	0.0155367
666.765	0.0154443
666.843	0.0154424
666.922	0.0154188
667.000	0.0155994
667.078	0.0155779
667.156	0.0154764
667.234	0.0155302
667.312	0.0156355
667.390	0.0155341
667.468	0.0156346
667.547	0.0156554
667.625	0.0156815
667.703	0.0156259
667.781	0.0155327
667.859	0.0154819
667.937	0.0157171
668.015	0.0155797
668.093	0.0156442
668.172	0.0155511
668.250	0.0155280
668.328	0.0154371
668.406	0.0156990
668.484	0.0156737
668.562	0.0155297
668.640	0.0155252
668.718	0.0155650
668.797	0.0156158
668.875	0.0157007
668.953	0.0157588
669.031	0.0155756
669.109	0.0156918
669.187	0.0156274
669.265	0.0156602
669.343	0.0155965
669.422	0.0155433
669.500	0.0155280
669.578	0.0156060
669.656	0.0157141
669.734	0.0155740
669.812	0.0155524
669.890	0.0154977
669.968	0.0156146
670.047	0.0156610
670.125	0.0156459
670.203	0.0154808
670.281	0.0155454
670.359	0.0155640
670.437	0.0156461
670.515	0.0156041
670.593	0.0156267
670.672	0.0156242
670.750	0.0156682
670.828	0.0156188
670.906	0.0156250
670.984	0.0155044
671.062	0.0156088
671.140	0.0156583
671.218	0.0155743
671.297	0.0155185
671.375	0.0155623
671.453	0.0155991
671.531	0.0156970
671.609	0.0155379
671.687	0.0157043
671.765	0.0155985
671.843	0.0155434
671.922	0.0156033
672.000	0.0156550
672.078	0.0155752
672.156	0.0157468
672.234	0.0157632
672.312	0.0157243
672.390	0.0157174
672.468	0.0155942
672.547	0.0157169
672.625	0.0156044
672.703	0.0157733
672.781	0.0157410
672.859	0.0156014
672.937	0.0156820
673.015	0.0157020
673.093	0.0156223
673.172	0.0156354
673.250	0.0157246
673.328	0.0157062
673.406	0.0157094
673.484	0.0156582
673.562	0.0156642
673.640	0.0156647
673.718	0.0157600
673.797	0.0156496
673.875	0.0156939
673.953	0.0155928
674.031	0.0158126
674.109	0.0158289
674.187	0.0157887
674.265	0.0157347
674.343	0.0155887
674.422	0.0156007
674.500	0.0157904
674.578	0.0157978
674.656	0.0155609
674.734	0.0156277
674.812	0.0156816
674.890	0.0156520
674.968	0.0158047
675.047	0.0157247
675.125	0.0157648
675.203	0.0158315
675.281	0.0156380
675.359	0.0156431
675.437	0.0157764
675.515	0.0156514
675.593	0.0157307
675.672	0.0157502
675.750	0.0156074
675.828	0.0156307
675.906	0.0157847
675.984	0.0158229
676.062	0.0157292
676.140	0.0155810
676.218	0.0156335
676.297	0.0155359
676.375	0.0156347
676.453	0.0156186
676.531	0.0156110
676.609	0.0156468
676.687	0.0156751
676.765	0.0156760
676.843	0.0155046
676.922	0.0157272
677.000	0.0157118
677.078	0.0155830
677.156	0.0156820
677.234	0.0155987
677.312	0.0157787
677.390	0.0156312
677.468	0.0155394
677.547	0.0155539
677.625	0.0157735
677.703	0.0156256
677.781	0.0155191
677.859	0.0155928
677.937	0.0156556
678.015	0.0157739
678.093	0.0156287
678.172	0.0155135
678.250	0.0157364
678.328	0.0157001
678.406	0.0156416
678.484	0.0155818
678.562	0.0155485
678.640	0.0155988
678.718	0.0156271
678.797	0.0156759
678.875	0.0157024
678.953	0.0157196
679.031	0.0156995
679.109	0.0157111
679.187	0.0156611
679.265	0.0156103
679.343	0.0154917
679.422	0.0157041
679.500	0.0157461
679.578	0.0157721
679.656	0.0156464
679.734	0.0155743
679.812	0.0155516
679.890	0.0156232
679.968	0.0156643
680.047	0.0156432
680.125	0.0156087
680.203	0.0154834
680.281	0.0155579
680.359	0.0155359
680.437	0.0156606
680.515	0.0155842
680.593	0.0155888
680.672	0.0156316
680.750	0.0155786
680.828	0.0156736
680.906	0.0155930
680.984	0.0156212
681.062	0.0156110
681.140	0.0155677
681.218	0.0155254
681.297	0.0156183
681.375	0.0156023
681.453	0.0155045
681.531	0.0155279
681.609	0.0157341
681.687	0.0156698
681.765	0.0156599
681.843	0.0155694
681.922	0.0156981
682.000	0.0156762
682.078	0.0157680
682.156	0.0156063
682.234	0.0155794
682.312	0.0155864
682.390	0.0157945
682.468	0.0157010
682.547	0.0154496
682.625	0.0155928
682.703	0.0156419
682.781	0.0157400
682.859	0.0156852
682.937	0.0156150
683.015	0.0155465
683.093	0.0155857
683.172	0.0155003
683.250	0.0154911
683.328	0.0155814
683.406	0.0156257
683.484	0.0154531
683.562	0.0155788
683.640	0.0157193
683.718	0.0155684
683.797	0.0155634
683.875	0.0156638
683.953	0.0156265
684.031	0.0157647
684.109	0.0156293
684.187	0.0153952
684.265	0.0155870
684.343	0.0155679
684.422	0.0157478
684.500	0.0154651
684.578	0.0156951
684.656	0.0155529
684.734	0.0155673
684.812	0.0155424
684.890	0.0155138
684.968	0.0154831
685.047	0.0156228
685.125	0.0155978
685.203	0.0156995
685.281	0.0155900
685.359	0.0155067
685.437	0.0155230
685.515	0.0155355
685.593	0.0155428
685.672	0.0156562
