06/13/2022	15:07:09	Ver.	4.1	UNKNOWN
Optical Delay	599.968395	Delta X		0.078125	Sweeps	1	Scan Rate	0/0
Coordinates	Axis 1	NaN	Axis 2	NaN	Axis 3	NaN	Axis 4	NaN	Axis 5	NaN	Axis 6	0.000000
TX Power	0.000000	RX Power	0.000000

599.968	0.0156855
600.047	0.0156194
600.125	0.0157140
600.203	0.0157259
600.281	0.0157277
600.359	0.0157292
600.437	0.0156591
600.515	0.0156673
600.593	0.0156522
600.672	0.0156809
600.750	0.0156367
600.828	0.0157037
600.906	0.0156847
600.984	0.0156440
601.062	0.0156496
601.140	0.0155724
601.218	0.0156231
601.297	0.0157198
601.375	0.0155999
601.453	0.0155783
601.531	0.0156783
601.609	0.0156937
601.687	0.0155788
601.765	0.0155913
601.843	0.0157133
601.922	0.0156394
602.000	0.0154656
602.078	0.0154241
602.156	0.0156618
602.234	0.0156145
602.312	0.0155289
602.390	0.0157286
602.468	0.0156257
602.547	0.0157010
602.625	0.0155517
602.703	0.0155882
602.781	0.0157017
602.859	0.0155973
602.937	0.0156948
603.015	0.0156520
603.093	0.0156730
603.172	0.0154583
603.250	0.0156397
603.328	0.0156739
603.406	0.0155537
603.484	0.0155791
603.562	0.0157395
603.640	0.0155386
603.718	0.0155442
603.797	0.0155924
603.875	0.0156031
603.953	0.0156347
604.031	0.0156804
604.109	0.0156609
604.187	0.0156218
604.265	0.0157142
604.343	0.0157352
604.422	0.0155834
604.500	0.0155453
604.578	0.0157178
604.656	0.0156432
604.734	0.0156673
604.812	0.0156665
604.890	0.0156243
604.968	0.0156975
605.047	0.0156481
605.125	0.0156522
605.203	0.0156013
605.281	0.0156567
605.359	0.0157094
605.437	0.0157479
605.515	0.0156937
605.593	0.0155438
605.672	0.0155426
605.750	0.0155405
605.828	0.0156145
605.906	0.0156455
605.984	0.0155427
606.062	0.0156039
606.140	0.0156335
606.218	0.0156502
606.297	0.0156491
606.375	0.0156186
606.453	0.0156653
606.531	0.0157098
606.609	0.0155996
606.687	0.0157318
606.765	0.0156876
606.843	0.0156466
606.922	0.0155906
607.000	0.0155806
607.078	0.0156071
607.156	0.0155180
607.234	0.0156939
607.312	0.0156576
607.390	0.0155949
607.468	0.0155544
607.547	0.0155335
607.625	0.0155556
607.703	0.0155566
607.781	0.0154294
607.859	0.0155286
607.937	0.0156190
608.015	0.0157029
608.093	0.0155591
608.172	0.0156011
608.250	0.0155383
608.328	0.0155076
608.406	0.0155653
608.484	0.0155882
608.562	0.0155568
608.640	0.0155628
608.718	0.0156065
608.797	0.0155077
608.875	0.0156640
608.953	0.0155756
609.031	0.0156766
609.109	0.0155416
609.187	0.0155714
609.265	0.0155617
609.343	0.0156020
609.422	0.0155636
609.500	0.0154650
609.578	0.0154995
609.656	0.0155921
609.734	0.0156461
609.812	0.0156509
609.890	0.0156017
609.968	0.0155453
610.047	0.0156516
610.125	0.0155119
610.203	0.0155962
610.281	0.0157422
610.359	0.0155602
610.437	0.0156530
610.515	0.0155830
610.593	0.0155353
610.672	0.0155072
610.750	0.0155892
610.828	0.0155581
610.906	0.0155923
610.984	0.0155449
611.062	0.0156172
611.140	0.0155217
611.218	0.0155534
611.297	0.0155873
611.375	0.0154847
611.453	0.0155723
611.531	0.0155076
611.609	0.0158161
611.687	0.0156023
611.765	0.0155163
611.843	0.0156272
611.922	0.0154794
612.000	0.0155389
612.078	0.0155833
612.156	0.0154475
612.234	0.0155919
612.312	0.0154729
612.390	0.0155458
612.468	0.0154445
612.547	0.0155776
612.625	0.0155656
612.703	0.0155709
612.781	0.0154727
612.859	0.0154612
612.937	0.0156255
613.015	0.0155134
613.093	0.0155843
613.172	0.0155829
613.250	0.0155846
613.328	0.0155312
613.406	0.0154885
613.484	0.0154776
613.562	0.0155097
613.640	0.0155714
613.718	0.0155318
613.797	0.0155260
613.875	0.0154838
613.953	0.0154768
614.031	0.0155105
614.109	0.0155229
614.187	0.0155511
614.265	0.0156058
614.343	0.0155444
614.422	0.0154444
614.500	0.0155326
614.578	0.0154997
614.656	0.0155500
614.734	0.0154913
614.812	0.0153823
614.890	0.0155194
614.968	0.0157101
615.047	0.0156471
615.125	0.0155072
615.203	0.0155805
615.281	0.0155424
615.359	0.0154535
615.437	0.0154885
615.515	0.0155907
615.593	0.0155370
615.672	0.0155733
615.750	0.0156452
615.828	0.0154945
615.906	0.0155626
615.984	0.0156176
616.062	0.0155820
616.140	0.0156743
616.218	0.0155772
616.297	0.0156159
616.375	0.0155679
616.453	0.0155367
616.531	0.0157251
616.609	0.0156075
616.687	0.0156541
616.765	0.0156310
616.843	0.0154962
616.922	0.0155536
617.000	0.0155659
617.078	0.0156275
617.156	0.0156640
617.234	0.0156394
617.312	0.0155709
617.390	0.0156599
617.468	0.0156440
617.547	0.0156299
617.625	0.0156141
617.703	0.0155681
617.781	0.0155765
617.859	0.0156573
617.937	0.0156438
618.015	0.0156049
618.093	0.0156488
618.172	0.0156962
618.250	0.0156253
618.328	0.0156488
618.406	0.0156264
618.484	0.0156751
618.562	0.0156762
618.640	0.0155896
618.718	0.0157208
618.797	0.0156233
618.875	0.0156479
618.953	0.0157570
619.031	0.0156205
619.109	0.0156876
619.187	0.0156506
619.265	0.0156976
619.343	0.0155637
619.422	0.0157624
619.500	0.0157287
619.578	0.0157244
619.656	0.0157343
619.734	0.0156620
619.812	0.0156946
619.890	0.0158289
619.968	0.0157292
620.047	0.0157533
620.125	0.0157405
620.203	0.0155672
620.281	0.0156165
620.359	0.0158514
620.437	0.0158256
620.515	0.0157337
620.593	0.0156801
620.672	0.0157481
620.750	0.0155916
620.828	0.0156464
620.906	0.0156345
620.984	0.0156609
621.062	0.0156861
621.140	0.0155869
621.218	0.0158189
621.297	0.0156996
621.375	0.0156477
621.453	0.0157138
621.531	0.0156596
621.609	0.0156155
621.687	0.0156537
621.765	0.0157896
621.843	0.0156022
621.922	0.0155937
622.000	0.0155650
622.078	0.0156833
622.156	0.0157271
622.234	0.0157955
622.312	0.0156905
622.390	0.0157251
622.468	0.0157146
622.547	0.0155202
622.625	0.0156699
622.703	0.0156261
622.781	0.0157176
622.859	0.0157224
622.937	0.0156791
623.015	0.0157085
623.093	0.0156207
623.172	0.0156655
623.250	0.0157101
623.328	0.0156373
623.406	0.0156846
623.484	0.0157255
623.562	0.0157934
623.640	0.0156007
623.718	0.0156902
623.797	0.0157040
623.875	0.0157057
623.953	0.0157212
624.031	0.0156423
624.109	0.0155808
624.187	0.0155864
624.265	0.0156509
624.343	0.0156191
624.422	0.0156982
624.500	0.0156527
624.578	0.0158463
624.656	0.0156790
624.734	0.0158209
624.812	0.0157099
624.890	0.0157344
624.968	0.0156287
625.047	0.0157416
625.125	0.0156063
625.203	0.0156824
625.281	0.0156444
625.359	0.0156171
625.437	0.0157521
625.515	0.0156288
625.593	0.0156792
625.672	0.0155986
625.750	0.0156670
625.828	0.0155924
625.906	0.0156940
625.984	0.0156527
626.062	0.0155531
626.140	0.0157579
626.218	0.0156975
626.297	0.0155636
626.375	0.0156828
626.453	0.0156703
626.531	0.0156683
626.609	0.0157005
626.687	0.0157298
626.765	0.0156732
626.843	0.0155952
626.922	0.0157324
627.000	0.0155942
627.078	0.0156129
627.156	0.0157400
627.234	0.0158156
627.312	0.0156815
627.390	0.0157289
627.468	0.0157536
627.547	0.0157507
627.625	0.0157774
627.703	0.0157468
627.781	0.0157188
627.859	0.0157189
627.937	0.0157475
628.015	0.0155975
628.093	0.0156919
628.172	0.0157281
628.250	0.0157199
628.328	0.0155270
628.406	0.0156753
628.484	0.0156906
628.562	0.0156061
628.640	0.0155681
628.718	0.0155567
628.797	0.0157019
628.875	0.0156487
628.953	0.0156177
629.031	0.0155582
629.109	0.0155735
629.187	0.0157053
629.265	0.0156686
629.343	0.0155679
629.422	0.0157774
629.500	0.0157247
629.578	0.0154801
629.656	0.0156303
629.734	0.0155350
629.812	0.0156226
629.890	0.0157319
629.968	0.0154363
630.047	0.0156010
630.125	0.0156139
630.203	0.0156957
630.281	0.0156461
630.359	0.0156430
630.437	0.0155769
630.515	0.0156009
630.593	0.0156776
630.672	0.0156735
630.750	0.0155714
630.828	0.0155403
630.906	0.0155995
630.984	0.0156121
631.062	0.0155278
631.140	0.0155997
631.218	0.0155731
631.297	0.0156035
631.375	0.0155407
631.453	0.0156342
631.531	0.0155254
631.609	0.0157274
631.687	0.0155906
631.765	0.0155334
631.843	0.0156970
631.922	0.0155907
632.000	0.0154829
632.078	0.0155796
632.156	0.0154195
632.234	0.0154870
632.312	0.0155360
632.390	0.0155885
632.468	0.0155956
632.547	0.0157391
632.625	0.0155390
632.703	0.0155085
632.781	0.0154630
632.859	0.0155501
632.937	0.0156301
633.015	0.0157254
633.093	0.0155596
633.172	0.0154929
633.250	0.0156341
633.328	0.0156142
633.406	0.0155309
633.484	0.0155464
633.562	0.0155220
633.640	0.0155740
633.718	0.0155753
633.797	0.0154620
633.875	0.0155883
633.953	0.0156274
634.031	0.0155690
634.109	0.0154585
634.187	0.0155346
634.265	0.0157316
634.343	0.0155725
634.422	0.0154783
634.500	0.0155133
634.578	0.0156772
634.656	0.0155885
634.734	0.0156340
634.812	0.0155122
634.890	0.0154659
634.968	0.0156445
635.047	0.0155520
635.125	0.0155167
635.203	0.0156464
635.281	0.0155923
635.359	0.0154517
635.437	0.0155737
635.515	0.0155754
635.593	0.0155595
635.672	0.0155685
635.750	0.0155362
635.828	0.0155016
635.906	0.0154957
635.984	0.0155914
636.062	0.0154979
636.140	0.0154241
636.218	0.0156490
636.297	0.0156333
636.375	0.0156908
636.453	0.0154697
636.531	0.0154871
636.609	0.0154873
636.687	0.0154307
636.765	0.0156014
636.843	0.0156615
636.922	0.0155924
637.000	0.0154517
637.078	0.0154517
637.156	0.0155972
637.234	0.0154520
637.312	0.0155534
637.390	0.0155995
637.468	0.0155065
637.547	0.0155518
637.625	0.0154733
637.703	0.0155147
637.781	0.0155720
637.859	0.0155703
637.937	0.0153557
638.015	0.0154457
638.093	0.0155563
638.172	0.0155423
638.250	0.0155032
638.328	0.0155855
638.406	0.0156067
638.484	0.0155177
638.562	0.0155682
638.640	0.0155899
638.718	0.0155536
638.797	0.0154232
638.875	0.0155225
638.953	0.0155943
639.031	0.0155637
639.109	0.0156687
639.187	0.0155493
639.265	0.0155459
639.343	0.0155127
639.422	0.0156850
639.500	0.0155251
639.578	0.0155806
639.656	0.0155375
639.734	0.0154955
639.812	0.0155129
639.890	0.0155492
639.968	0.0155119
640.047	0.0156190
640.125	0.0155350
640.203	0.0155466
640.281	0.0156316
640.359	0.0156985
640.437	0.0155145
640.515	0.0156285
640.593	0.0156828
640.672	0.0154098
640.750	0.0155895
640.828	0.0156527
640.906	0.0157832
640.984	0.0156367
641.062	0.0154838
641.140	0.0155873
641.218	0.0156882
641.297	0.0156338
641.375	0.0157420
641.453	0.0156296
641.531	0.0156785
641.609	0.0154330
641.687	0.0155968
641.765	0.0156126
641.843	0.0156993
641.922	0.0155370
642.000	0.0155811
642.078	0.0156599
642.156	0.0156377
642.234	0.0156345
642.312	0.0156940
642.390	0.0157481
642.468	0.0158257
642.547	0.0155988
642.625	0.0156213
642.703	0.0156791
642.781	0.0156548
642.859	0.0155223
642.937	0.0158394
643.015	0.0157303
643.093	0.0157340
643.172	0.0157835
643.250	0.0156847
643.328	0.0155705
643.406	0.0156997
643.484	0.0156010
643.562	0.0157464
643.640	0.0157666
643.718	0.0155539
643.797	0.0156643
643.875	0.0156403
643.953	0.0155927
644.031	0.0156131
644.109	0.0157288
644.187	0.0156710
644.265	0.0155952
644.343	0.0156847
644.422	0.0156583
644.500	0.0156716
644.578	0.0156661
644.656	0.0157244
644.734	0.0156206
644.812	0.0155448
644.890	0.0156647
644.968	0.0157541
645.047	0.0156657
645.125	0.0157462
645.203	0.0157106
645.281	0.0156715
645.359	0.0157492
645.437	0.0157395
645.515	0.0157296
645.593	0.0156998
645.672	0.0157164
645.750	0.0157423
645.828	0.0157152
645.906	0.0157695
645.984	0.0154497
646.062	0.0155720
646.140	0.0157122
646.218	0.0157206
646.297	0.0158361
646.375	0.0157217
646.453	0.0157541
646.531	0.0158179
646.609	0.0157165
646.687	0.0157783
646.765	0.0157399
646.843	0.0157568
646.922	0.0158554
647.000	0.0156570
647.078	0.0155672
647.156	0.0156403
647.234	0.0157482
647.312	0.0156499
647.390	0.0159019
647.468	0.0157776
647.547	0.0157327
647.625	0.0157363
647.703	0.0157497
647.781	0.0157876
647.859	0.0157723
647.937	0.0157262
648.015	0.0156107
648.093	0.0156127
648.172	0.0158424
648.250	0.0157439
648.328	0.0156344
648.406	0.0157190
648.484	0.0156738
648.562	0.0156667
648.640	0.0157567
648.718	0.0157681
648.797	0.0156362
648.875	0.0157475
648.953	0.0157845
649.031	0.0156424
649.109	0.0157230
649.187	0.0156227
649.265	0.0157426
649.343	0.0157359
649.422	0.0155367
649.500	0.0157082
649.578	0.0157176
649.656	0.0156992
649.734	0.0155740
649.812	0.0157555
649.890	0.0157951
649.968	0.0158305
650.047	0.0158034
650.125	0.0156329
650.203	0.0156806
650.281	0.0156813
650.359	0.0156174
650.437	0.0156532
650.515	0.0156567
650.593	0.0157699
650.672	0.0157722
650.750	0.0157503
650.828	0.0157436
650.906	0.0156626
650.984	0.0157461
651.062	0.0156568
651.140	0.0157406
651.218	0.0157380
651.297	0.0157082
651.375	0.0156837
651.453	0.0156490
651.531	0.0156196
651.609	0.0154956
651.687	0.0157464
651.765	0.0157324
651.843	0.0156975
651.922	0.0157806
652.000	0.0156379
652.078	0.0155862
652.156	0.0156858
652.234	0.0156752
652.312	0.0157171
652.390	0.0155542
652.468	0.0156342
652.547	0.0156332
652.625	0.0156063
652.703	0.0156837
652.781	0.0156751
652.859	0.0156728
652.937	0.0155317
653.015	0.0156660
653.093	0.0156367
653.172	0.0154907
653.250	0.0156464
653.328	0.0156518
653.406	0.0155733
653.484	0.0156627
653.562	0.0154651
653.640	0.0154665
653.718	0.0157964
653.797	0.0155035
653.875	0.0155286
653.953	0.0156377
654.031	0.0156087
654.109	0.0157095
654.187	0.0156910
654.265	0.0155650
654.343	0.0156948
654.422	0.0156877
654.500	0.0156125
654.578	0.0155036
654.656	0.0157458
654.734	0.0156227
654.812	0.0157951
654.890	0.0155766
654.968	0.0157406
655.047	0.0156282
655.125	0.0155935
655.203	0.0155417
655.281	0.0156304
655.359	0.0157678
655.437	0.0155801
655.515	0.0156834
655.593	0.0156094
655.672	0.0156338
655.750	0.0156090
655.828	0.0156276
655.906	0.0155487
655.984	0.0155633
656.062	0.0157753
656.140	0.0156148
656.218	0.0154310
656.297	0.0155204
656.375	0.0155043
656.453	0.0155502
656.531	0.0156609
656.609	0.0156850
656.687	0.0156378
656.765	0.0156114
656.843	0.0155936
656.922	0.0156464
657.000	0.0155687
657.078	0.0155640
657.156	0.0155556
657.234	0.0157314
657.312	0.0156906
657.390	0.0155379
657.468	0.0155352
657.547	0.0156047
657.625	0.0154994
657.703	0.0155497
657.781	0.0155749
657.859	0.0156155
657.937	0.0155924
658.015	0.0155836
658.093	0.0156025
658.172	0.0156818
658.250	0.0156873
658.328	0.0155706
658.406	0.0155341
658.484	0.0156071
658.562	0.0155680
658.640	0.0155177
658.718	0.0155966
658.797	0.0155660
658.875	0.0156084
658.953	0.0156483
659.031	0.0156924
659.109	0.0156432
659.187	0.0155570
659.265	0.0157053
659.343	0.0155794
659.422	0.0154960
659.500	0.0156213
659.578	0.0155874
659.656	0.0155882
659.734	0.0157133
659.812	0.0155541
659.890	0.0155708
659.968	0.0156097
660.047	0.0156166
660.125	0.0156075
660.203	0.0156679
660.281	0.0155807
660.359	0.0155004
660.437	0.0155055
660.515	0.0155121
660.593	0.0156359
660.672	0.0155633
660.750	0.0154700
660.828	0.0155608
660.906	0.0154568
660.984	0.0154426
661.062	0.0154922
661.140	0.0154258
661.218	0.0155410
661.297	0.0156009
661.375	0.0155532
661.453	0.0155585
661.531	0.0154362
661.609	0.0154400
661.687	0.0155343
661.765	0.0155771
661.843	0.0155193
661.922	0.0154657
662.000	0.0155441
662.078	0.0156350
662.156	0.0154559
662.234	0.0156842
662.312	0.0156329
662.390	0.0155009
662.468	0.0155717
662.547	0.0155547
662.625	0.0155991
662.703	0.0155794
662.781	0.0156824
662.859	0.0154591
662.937	0.0156427
663.015	0.0155291
663.093	0.0154282
663.172	0.0153915
663.250	0.0155084
663.328	0.0154596
663.406	0.0154474
663.484	0.0154961
663.562	0.0156222
663.640	0.0154829
663.718	0.0157007
663.797	0.0154602
663.875	0.0155824
663.953	0.0155635
664.031	0.0154529
664.109	0.0156700
664.187	0.0156317
664.265	0.0155966
664.343	0.0156238
664.422	0.0155202
664.500	0.0155470
664.578	0.0155313
664.656	0.0156112
664.734	0.0156063
664.812	0.0156343
664.890	0.0155574
664.968	0.0155186
665.047	0.0156860
665.125	0.0157032
665.203	0.0155706
665.281	0.0155578
665.359	0.0156361
665.437	0.0156065
665.515	0.0157514
665.593	0.0157677
665.672	0.0154929
665.750	0.0154795
665.828	0.0155989
665.906	0.0155740
665.984	0.0157478
666.062	0.0155175
666.140	0.0155750
666.218	0.0156750
666.297	0.0157235
666.375	0.0155779
666.453	0.0156286
666.531	0.0157188
666.609	0.0156850
666.687	0.0156416
666.765	0.0156917
666.843	0.0156265
666.922	0.0156527
667.000	0.0157862
667.078	0.0156960
667.156	0.0156752
667.234	0.0157129
667.312	0.0156754
667.390	0.0157521
667.468	0.0158846
667.547	0.0157227
667.625	0.0157728
667.703	0.0157306
667.781	0.0157972
667.859	0.0158165
667.937	0.0156494
668.015	0.0156939
668.093	0.0155923
668.172	0.0155495
668.250	0.0156440
668.328	0.0157063
668.406	0.0158746
668.484	0.0156553
668.562	0.0157869
668.640	0.0158025
668.718	0.0157198
668.797	0.0157254
668.875	0.0157143
668.953	0.0158043
669.031	0.0157219
669.109	0.0156098
669.187	0.0157422
669.265	0.0156943
669.343	0.0156411
669.422	0.0157461
669.500	0.0156118
669.578	0.0157979
669.656	0.0157628
669.734	0.0156166
669.812	0.0156801
669.890	0.0157867
669.968	0.0157356
670.047	0.0157501
670.125	0.0157248
670.203	0.0155876
670.281	0.0158224
670.359	0.0157623
670.437	0.0156374
670.515	0.0156305
670.593	0.0156679
670.672	0.0158369
670.750	0.0156809
670.828	0.0156890
670.906	0.0158087
670.984	0.0157320
671.062	0.0157756
671.140	0.0158662
671.218	0.0156679
671.297	0.0155436
671.375	0.0158457
671.453	0.0157839
671.531	0.0156976
671.609	0.0155495
671.687	0.0157417
671.765	0.0158437
671.843	0.0157052
671.922	0.0157249
672.000	0.0157293
672.078	0.0157337
672.156	0.0156586
672.234	0.0159048
672.312	0.0159101
672.390	0.0156357
672.468	0.0157203
672.547	0.0156341
672.625	0.0157224
672.703	0.0158094
672.781	0.0157986
672.859	0.0156268
672.937	0.0155826
673.015	0.0158331
673.093	0.0158071
673.172	0.0157285
673.250	0.0156467
673.328	0.0157150
673.406	0.0156335
673.484	0.0157867
673.562	0.0156384
673.640	0.0157739
673.718	0.0157504
673.797	0.0157680
673.875	0.0157701
673.953	0.0156360
674.031	0.0157607
674.109	0.0157513
674.187	0.0157689
674.265	0.0157576
674.343	0.0156895
674.422	0.0157191
674.500	0.0157484
674.578	0.0157423
674.656	0.0157668
674.734	0.0157427
674.812	0.0156735
674.890	0.0158151
674.968	0.0158428
675.047	0.0156631
675.125	0.0157162
675.203	0.0154858
675.281	0.0155959
675.359	0.0157730
675.437	0.0157085
675.515	0.0155473
675.593	0.0156581
675.672	0.0155296
675.750	0.0156771
675.828	0.0156155
675.906	0.0157845
675.984	0.0156361
676.062	0.0156769
676.140	0.0156994
676.218	0.0157178
676.297	0.0156934
676.375	0.0156309
676.453	0.0156760
676.531	0.0157698
676.609	0.0155908
676.687	0.0157349
676.765	0.0156250
676.843	0.0157021
676.922	0.0156998
677.000	0.0155542
677.078	0.0156968
677.156	0.0156995
677.234	0.0155798
677.312	0.0156072
677.390	0.0156017
677.468	0.0157722
677.547	0.0156672
677.625	0.0155853
677.703	0.0156142
677.781	0.0156718
677.859	0.0157307
677.937	0.0157236
678.015	0.0155671
678.093	0.0155898
678.172	0.0155998
678.250	0.0157224
678.328	0.0155817
678.406	0.0156145
678.484	0.0155924
678.562	0.0157053
678.640	0.0157795
678.718	0.0155185
678.797	0.0155282
678.875	0.0155886
678.953	0.0155624
679.031	0.0155688
679.109	0.0156402
679.187	0.0156826
679.265	0.0157452
679.343	0.0156463
679.422	0.0156700
679.500	0.0155642
679.578	0.0156886
679.656	0.0155978
679.734	0.0155695
679.812	0.0157108
679.890	0.0156185
679.968	0.0157166
680.047	0.0155183
680.125	0.0156538
680.203	0.0156168
680.281	0.0156889
680.359	0.0155768
680.437	0.0156574
680.515	0.0158480
680.593	0.0156029
680.672	0.0155055
680.750	0.0155132
680.828	0.0155511
680.906	0.0157138
680.984	0.0156378
681.062	0.0156846
681.140	0.0156157
681.218	0.0156009
681.297	0.0156812
681.375	0.0155174
681.453	0.0157374
681.531	0.0157457
681.609	0.0156317
681.687	0.0155947
681.765	0.0155148
681.843	0.0155774
681.922	0.0156535
682.000	0.0157314
682.078	0.0156002
682.156	0.0155654
682.234	0.0155883
682.312	0.0155161
682.390	0.0156488
682.468	0.0157041
682.547	0.0156741
682.625	0.0155419
682.703	0.0155661
682.781	0.0155630
682.859	0.0155408
682.937	0.0156261
683.015	0.0156988
683.093	0.0157581
683.172	0.0157756
683.250	0.0156190
683.328	0.0155594
683.406	0.0156590
683.484	0.0157381
683.562	0.0156409
683.640	0.0155939
683.718	0.0156443
683.797	0.0154543
683.875	0.0155917
683.953	0.0154445
684.031	0.0155810
684.109	0.0156065
684.187	0.0155328
684.265	0.0154229
684.343	0.0153909
684.422	0.0155695
684.500	0.0155541
684.578	0.0155672
684.656	0.0155567
684.734	0.0154514
684.812	0.0154218
684.890	0.0154982
684.968	0.0156411
685.047	0.0153834
685.125	0.0154643
685.203	0.0155476
685.281	0.0154803
685.359	0.0155902
685.437	0.0155989
685.515	0.0154721
685.593	0.0154507
685.672	0.0154535
