06/13/2022	15:07:29	Ver.	4.1	UNKNOWN
Optical Delay	599.961724	Delta X		0.078125	Sweeps	1	Scan Rate	0/0
Coordinates	Axis 1	NaN	Axis 2	NaN	Axis 3	NaN	Axis 4	NaN	Axis 5	NaN	Axis 6	0.000000
TX Power	0.000000	RX Power	0.000000

599.962	0.0158488
600.040	0.0159792
600.118	0.0157773
600.196	0.0158315
600.274	0.0157866
600.352	0.0159057
600.430	0.0158025
600.509	0.0158880
600.587	0.0158164
600.665	0.0158273
600.743	0.0158669
600.821	0.0157226
600.899	0.0157913
600.977	0.0159084
601.055	0.0157790
601.134	0.0158818
601.212	0.0157729
601.290	0.0158321
601.368	0.0157893
601.446	0.0158088
601.524	0.0157626
601.602	0.0157113
601.680	0.0157468
601.759	0.0158271
601.837	0.0157792
601.915	0.0158437
601.993	0.0157762
602.071	0.0156965
602.149	0.0157980
602.227	0.0158831
602.305	0.0157741
602.384	0.0158887
602.462	0.0156786
602.540	0.0157687
602.618	0.0155821
602.696	0.0158606
602.774	0.0158042
602.852	0.0157431
602.930	0.0156631
603.009	0.0157234
603.087	0.0158169
603.165	0.0157010
603.243	0.0157305
603.321	0.0156976
603.399	0.0157065
603.477	0.0156744
603.555	0.0156207
603.634	0.0158063
603.712	0.0156599
603.790	0.0157043
603.868	0.0156566
603.946	0.0157680
604.024	0.0157694
604.102	0.0156950
604.180	0.0156826
604.259	0.0157047
604.337	0.0156915
604.415	0.0156991
604.493	0.0157056
604.571	0.0156328
604.649	0.0157636
604.727	0.0156832
604.805	0.0156544
604.884	0.0157453
604.962	0.0156159
605.040	0.0156024
605.118	0.0155922
605.196	0.0157493
605.274	0.0155874
605.352	0.0157467
605.430	0.0157003
605.509	0.0157381
605.587	0.0157236
605.665	0.0156393
605.743	0.0157508
605.821	0.0156380
605.899	0.0157587
605.977	0.0158035
606.055	0.0157005
606.134	0.0155905
606.212	0.0156935
606.290	0.0157504
606.368	0.0157045
606.446	0.0158140
606.524	0.0157242
606.602	0.0156547
606.680	0.0157695
606.759	0.0158063
606.837	0.0156557
606.915	0.0157235
606.993	0.0157687
607.071	0.0157488
607.149	0.0156739
607.227	0.0157590
607.305	0.0157504
607.384	0.0156881
607.462	0.0155821
607.540	0.0156465
607.618	0.0155542
607.696	0.0155811
607.774	0.0156718
607.852	0.0157184
607.930	0.0156226
608.009	0.0155869
608.087	0.0157166
608.165	0.0157381
608.243	0.0155201
608.321	0.0154911
608.399	0.0156089
608.477	0.0158221
608.555	0.0157265
608.634	0.0155960
608.712	0.0156921
608.790	0.0155977
608.868	0.0157547
608.946	0.0156215
609.024	0.0155518
609.102	0.0156013
609.180	0.0156123
609.259	0.0155284
609.337	0.0157600
609.415	0.0155022
609.493	0.0156193
609.571	0.0155480
609.649	0.0155915
609.727	0.0157468
609.805	0.0156462
609.884	0.0156624
609.962	0.0156696
610.040	0.0156065
610.118	0.0157152
610.196	0.0155629
610.274	0.0156377
610.352	0.0156770
610.430	0.0155244
610.509	0.0157725
610.587	0.0158463
610.665	0.0155410
610.743	0.0156138
610.821	0.0157465
610.899	0.0157390
610.977	0.0157347
611.055	0.0156807
611.134	0.0156514
611.212	0.0157406
611.290	0.0156849
611.368	0.0155138
611.446	0.0156043
611.524	0.0157601
611.602	0.0156375
611.680	0.0157295
611.759	0.0156424
611.837	0.0157094
611.915	0.0159120
611.993	0.0157603
612.071	0.0156289
612.149	0.0157213
612.227	0.0156990
612.305	0.0157673
612.384	0.0156458
612.462	0.0157885
612.540	0.0157790
612.618	0.0157454
612.696	0.0156990
612.774	0.0157600
612.852	0.0156679
612.930	0.0156679
613.009	0.0158192
613.087	0.0157694
613.165	0.0156453
613.243	0.0157726
613.321	0.0158279
613.399	0.0157360
613.477	0.0157003
613.555	0.0157697
613.634	0.0156905
613.712	0.0158442
613.790	0.0157858
613.868	0.0158334
613.946	0.0159161
614.024	0.0157747
614.102	0.0158373
614.180	0.0158804
614.259	0.0158447
614.337	0.0158356
614.415	0.0156908
614.493	0.0157944
614.571	0.0159172
614.649	0.0158123
614.727	0.0159113
614.805	0.0157716
614.884	0.0158855
614.962	0.0156573
615.040	0.0157058
615.118	0.0158069
615.196	0.0157813
615.274	0.0158504
615.352	0.0159248
615.430	0.0158620
615.509	0.0158033
615.587	0.0156532
615.665	0.0158798
615.743	0.0158884
615.821	0.0157082
615.899	0.0157511
615.977	0.0157195
616.055	0.0158920
616.134	0.0157950
616.212	0.0157561
616.290	0.0158767
616.368	0.0157801
616.446	0.0159278
616.524	0.0156880
616.602	0.0157939
616.680	0.0159319
616.759	0.0159271
616.837	0.0157554
616.915	0.0157601
616.993	0.0157466
617.071	0.0157335
617.149	0.0158968
617.227	0.0157327
617.305	0.0158420
617.384	0.0157043
617.462	0.0157570
617.540	0.0157919
617.618	0.0159065
617.696	0.0158114
617.774	0.0156948
617.852	0.0158408
617.930	0.0157727
618.009	0.0157090
618.087	0.0158007
618.165	0.0157787
618.243	0.0158906
618.321	0.0157793
618.399	0.0158646
618.477	0.0159272
618.555	0.0158395
618.634	0.0156626
618.712	0.0157361
618.790	0.0157955
618.868	0.0158680
618.946	0.0158218
619.024	0.0158432
619.102	0.0157748
619.180	0.0157298
619.259	0.0157940
619.337	0.0158633
619.415	0.0156902
619.493	0.0157961
619.571	0.0157856
619.649	0.0158569
619.727	0.0156639
619.805	0.0158091
619.884	0.0158160
619.962	0.0158327
620.040	0.0159315
620.118	0.0159470
620.196	0.0158147
620.274	0.0158195
620.352	0.0158486
620.430	0.0159335
620.509	0.0158935
620.587	0.0159120
620.665	0.0157533
620.743	0.0156680
620.821	0.0157125
620.899	0.0158780
620.977	0.0158900
621.055	0.0157887
621.134	0.0158261
621.212	0.0157385
621.290	0.0158430
621.368	0.0158514
621.446	0.0160006
621.524	0.0158962
621.602	0.0157667
621.680	0.0157183
621.759	0.0157889
621.837	0.0157934
621.915	0.0157683
621.993	0.0157786
622.071	0.0158131
622.149	0.0158053
622.227	0.0157619
622.305	0.0158289
622.384	0.0158916
622.462	0.0158157
622.540	0.0156124
622.618	0.0157873
622.696	0.0157144
622.774	0.0157905
622.852	0.0156636
622.930	0.0158059
623.009	0.0157460
623.087	0.0158244
623.165	0.0156873
623.243	0.0157386
623.321	0.0157060
623.399	0.0156870
623.477	0.0158938
623.555	0.0159056
623.634	0.0157388
623.712	0.0158385
623.790	0.0157970
623.868	0.0158276
623.946	0.0157926
624.024	0.0157614
624.102	0.0157928
624.180	0.0158233
624.259	0.0157305
624.337	0.0158106
624.415	0.0159056
624.493	0.0158251
624.571	0.0158848
624.649	0.0158062
624.727	0.0156273
624.805	0.0158137
624.884	0.0159717
624.962	0.0158037
625.040	0.0158196
625.118	0.0158108
625.196	0.0157829
625.274	0.0157255
625.352	0.0157767
625.430	0.0158116
625.509	0.0158481
625.587	0.0156508
625.665	0.0156709
625.743	0.0157681
625.821	0.0158136
625.899	0.0158319
625.977	0.0157280
626.055	0.0156930
626.134	0.0158011
626.212	0.0157767
626.290	0.0157817
626.368	0.0156675
626.446	0.0158524
626.524	0.0156934
626.602	0.0156903
626.680	0.0156830
626.759	0.0157587
626.837	0.0158595
626.915	0.0157860
626.993	0.0155358
627.071	0.0157141
627.149	0.0157185
627.227	0.0157000
627.305	0.0157311
627.384	0.0157338
627.462	0.0156480
627.540	0.0156959
627.618	0.0157384
627.696	0.0158032
627.774	0.0157601
627.852	0.0156955
627.930	0.0157033
628.009	0.0158090
628.087	0.0156738
628.165	0.0157785
628.243	0.0157019
628.321	0.0157269
628.399	0.0156805
628.477	0.0157502
628.555	0.0155920
628.634	0.0157264
628.712	0.0156754
628.790	0.0157104
628.868	0.0157099
628.946	0.0158132
629.024	0.0157381
629.102	0.0156902
629.180	0.0157700
629.259	0.0157588
629.337	0.0156561
629.415	0.0156085
629.493	0.0157234
629.571	0.0155471
629.649	0.0156185
629.727	0.0158475
629.805	0.0157095
629.884	0.0156621
629.962	0.0157025
630.040	0.0155875
630.118	0.0157661
630.196	0.0158721
630.274	0.0155914
630.352	0.0156039
630.430	0.0156867
630.509	0.0158600
630.587	0.0157435
630.665	0.0157150
630.743	0.0157465
630.821	0.0157375
630.899	0.0155846
630.977	0.0157277
631.055	0.0157702
631.134	0.0157838
631.212	0.0156326
631.290	0.0156569
631.368	0.0156830
631.446	0.0156128
631.524	0.0156587
631.602	0.0157597
631.680	0.0156573
631.759	0.0157082
631.837	0.0157579
631.915	0.0158124
631.993	0.0157150
632.071	0.0155762
632.149	0.0156905
632.227	0.0156388
632.305	0.0157673
632.384	0.0157145
632.462	0.0155138
632.540	0.0157821
632.618	0.0156627
632.696	0.0155393
632.774	0.0156172
632.852	0.0156763
632.930	0.0158113
633.009	0.0157581
633.087	0.0156703
633.165	0.0157567
633.243	0.0156357
633.321	0.0156557
633.399	0.0155387
633.477	0.0155781
633.555	0.0156550
633.634	0.0155631
633.712	0.0155695
633.790	0.0157301
633.868	0.0158238
633.946	0.0156799
634.024	0.0155488
634.102	0.0156006
634.180	0.0156673
634.259	0.0155412
634.337	0.0156299
634.415	0.0156428
634.493	0.0157301
634.571	0.0156037
634.649	0.0156573
634.727	0.0156210
634.805	0.0157458
634.884	0.0157763
634.962	0.0156284
635.040	0.0156544
635.118	0.0157668
635.196	0.0156241
635.274	0.0157018
635.352	0.0156661
635.430	0.0156617
635.509	0.0157237
635.587	0.0157844
635.665	0.0156200
635.743	0.0157170
635.821	0.0157116
635.899	0.0157575
635.977	0.0156828
636.055	0.0158302
636.134	0.0157659
636.212	0.0156832
636.290	0.0157295
636.368	0.0158533
636.446	0.0156631
636.524	0.0157290
636.602	0.0157307
636.680	0.0157721
636.759	0.0157921
636.837	0.0157022
636.915	0.0157424
636.993	0.0157004
637.071	0.0156850
637.149	0.0157788
637.227	0.0157169
637.305	0.0156435
637.384	0.0156693
637.462	0.0156178
637.540	0.0156406
637.618	0.0158419
637.696	0.0156915
637.774	0.0157829
637.852	0.0157854
637.930	0.0157826
638.009	0.0156510
638.087	0.0157491
638.165	0.0157561
638.243	0.0158489
638.321	0.0158142
638.399	0.0156899
638.477	0.0157820
638.555	0.0157742
638.634	0.0158659
638.712	0.0157157
638.790	0.0157040
638.868	0.0156990
638.946	0.0157366
639.024	0.0157858
639.102	0.0156341
639.180	0.0156915
639.259	0.0158511
639.337	0.0157079
639.415	0.0157581
639.493	0.0157650
639.571	0.0158132
639.649	0.0157371
639.727	0.0156973
639.805	0.0157607
639.884	0.0158682
639.962	0.0158331
640.040	0.0157616
640.118	0.0158893
640.196	0.0157241
640.274	0.0158765
640.352	0.0157381
640.430	0.0159126
640.509	0.0159130
640.587	0.0158403
640.665	0.0157295
640.743	0.0158046
640.821	0.0157098
640.899	0.0159144
640.977	0.0157894
641.055	0.0158254
641.134	0.0158529
641.212	0.0159113
641.290	0.0158469
641.368	0.0157724
641.446	0.0158245
641.524	0.0158939
641.602	0.0158361
641.680	0.0157647
641.759	0.0157694
641.837	0.0159020
641.915	0.0157299
641.993	0.0158773
642.071	0.0159607
642.149	0.0159361
642.227	0.0158441
642.305	0.0156934
642.384	0.0158147
642.462	0.0158997
642.540	0.0157436
642.618	0.0157123
642.696	0.0158150
642.774	0.0158659
642.852	0.0158250
642.930	0.0158353
643.009	0.0157956
643.087	0.0159650
643.165	0.0159459
643.243	0.0158183
643.321	0.0159462
643.399	0.0159653
643.477	0.0157327
643.555	0.0157583
643.634	0.0158679
643.712	0.0159114
643.790	0.0158768
643.868	0.0158778
643.946	0.0159733
644.024	0.0157781
644.102	0.0158488
644.180	0.0158801
644.259	0.0158783
644.337	0.0157197
644.415	0.0157491
644.493	0.0157645
644.571	0.0158372
644.649	0.0158060
644.727	0.0158968
644.805	0.0157122
644.884	0.0157655
644.962	0.0157793
645.040	0.0158630
645.118	0.0158195
645.196	0.0157030
645.274	0.0159785
645.352	0.0157741
645.430	0.0159711
645.509	0.0158772
645.587	0.0158078
645.665	0.0158375
645.743	0.0158681
645.821	0.0158527
645.899	0.0157578
645.977	0.0159216
646.055	0.0158446
646.134	0.0158817
646.212	0.0158397
646.290	0.0159093
646.368	0.0160104
646.446	0.0158081
646.524	0.0158768
646.602	0.0158588
646.680	0.0157841
646.759	0.0158081
646.837	0.0159861
646.915	0.0158714
646.993	0.0157923
647.071	0.0158121
647.149	0.0159262
647.227	0.0158221
647.305	0.0159454
647.384	0.0157520
647.462	0.0157455
647.540	0.0158425
647.618	0.0158631
647.696	0.0157846
647.774	0.0157676
647.852	0.0158973
647.930	0.0157876
648.009	0.0157118
648.087	0.0157984
648.165	0.0157790
648.243	0.0158234
648.321	0.0157771
648.399	0.0157432
648.477	0.0158111
648.555	0.0158375
648.634	0.0158286
648.712	0.0158521
648.790	0.0157986
648.868	0.0157151
648.946	0.0158174
649.024	0.0157520
649.102	0.0158591
649.180	0.0158324
649.259	0.0158022
649.337	0.0158588
649.415	0.0158908
649.493	0.0157106
649.571	0.0157060
649.649	0.0157415
649.727	0.0158500
649.805	0.0158402
649.884	0.0157606
649.962	0.0156231
650.040	0.0158009
650.118	0.0159132
650.196	0.0156379
650.274	0.0156828
650.352	0.0156963
650.430	0.0158807
650.509	0.0158115
650.587	0.0157667
650.665	0.0158395
650.743	0.0157149
650.821	0.0156594
650.899	0.0156768
650.977	0.0158053
651.055	0.0156894
651.134	0.0156985
651.212	0.0157312
651.290	0.0156346
651.368	0.0155905
651.446	0.0157483
651.524	0.0157166
651.602	0.0157758
651.680	0.0156690
651.759	0.0156244
651.837	0.0158457
651.915	0.0157065
651.993	0.0156837
652.071	0.0158482
652.149	0.0156329
652.227	0.0155659
652.305	0.0157768
652.384	0.0156924
652.462	0.0157526
652.540	0.0157270
652.618	0.0157987
652.696	0.0157066
652.774	0.0156722
652.852	0.0156580
652.930	0.0157779
653.009	0.0158185
653.087	0.0157571
653.165	0.0157482
653.243	0.0156535
653.321	0.0157336
653.399	0.0156527
653.477	0.0157761
653.555	0.0157015
653.634	0.0156991
653.712	0.0156940
653.790	0.0157845
653.868	0.0157843
653.946	0.0156056
654.024	0.0157912
654.102	0.0157446
654.180	0.0155844
654.259	0.0157107
654.337	0.0155621
654.415	0.0156256
654.493	0.0154449
654.571	0.0156506
654.649	0.0157104
654.727	0.0156380
654.805	0.0155836
654.884	0.0157201
654.962	0.0156950
655.040	0.0155901
655.118	0.0157610
655.196	0.0155940
655.274	0.0156998
655.352	0.0156071
655.430	0.0155929
655.509	0.0157532
655.587	0.0155653
655.665	0.0156483
655.743	0.0156760
655.821	0.0156075
655.899	0.0156380
655.977	0.0157067
656.055	0.0156870
656.134	0.0156125
656.212	0.0156426
656.290	0.0157188
656.368	0.0156126
656.446	0.0157386
656.524	0.0156808
656.602	0.0156908
656.680	0.0157088
656.759	0.0157032
656.837	0.0156462
656.915	0.0157780
656.993	0.0157005
657.071	0.0156117
657.149	0.0157814
657.227	0.0156998
657.305	0.0157013
657.384	0.0157758
657.462	0.0157365
657.540	0.0157626
657.618	0.0156088
657.696	0.0156870
657.774	0.0156582
657.852	0.0157488
657.930	0.0156105
658.009	0.0156412
658.087	0.0156733
658.165	0.0156584
658.243	0.0157850
658.321	0.0156869
658.399	0.0155440
658.477	0.0155309
658.555	0.0155267
658.634	0.0156685
658.712	0.0156509
658.790	0.0157037
658.868	0.0157538
658.946	0.0156284
659.024	0.0155715
659.102	0.0156594
659.180	0.0156676
659.259	0.0157675
659.337	0.0156173
659.415	0.0156722
659.493	0.0157642
659.571	0.0157614
659.649	0.0158440
659.727	0.0158548
659.805	0.0156563
659.884	0.0157173
659.962	0.0156507
660.040	0.0156172
660.118	0.0157348
660.196	0.0157755
660.274	0.0155463
660.352	0.0157016
660.430	0.0156004
660.509	0.0156190
660.587	0.0157141
660.665	0.0157182
660.743	0.0157005
660.821	0.0155901
660.899	0.0156268
660.977	0.0157803
661.055	0.0156851
661.134	0.0155860
661.212	0.0155464
661.290	0.0157024
661.368	0.0157879
661.446	0.0158212
661.524	0.0156656
661.602	0.0157563
661.680	0.0157150
661.759	0.0156937
661.837	0.0157294
661.915	0.0156581
661.993	0.0155876
662.071	0.0156558
662.149	0.0156476
662.227	0.0157291
662.305	0.0157250
662.384	0.0157035
662.462	0.0157170
662.540	0.0157771
662.618	0.0156413
662.696	0.0156758
662.774	0.0157288
662.852	0.0157813
662.930	0.0157159
663.009	0.0155596
663.087	0.0156776
663.165	0.0157526
663.243	0.0158511
663.321	0.0156393
663.399	0.0157334
663.477	0.0156979
663.555	0.0156986
663.634	0.0155718
663.712	0.0157526
663.790	0.0157382
663.868	0.0158048
663.946	0.0156815
664.024	0.0156155
664.102	0.0157629
664.180	0.0157832
664.259	0.0156008
664.337	0.0156020
664.415	0.0157629
664.493	0.0157999
664.571	0.0158511
664.649	0.0157617
664.727	0.0158066
664.805	0.0157125
664.884	0.0157181
664.962	0.0156483
665.040	0.0156257
665.118	0.0158231
665.196	0.0158194
665.274	0.0158188
665.352	0.0157991
665.430	0.0158870
665.509	0.0157464
665.587	0.0158934
665.665	0.0159986
665.743	0.0158745
665.821	0.0157734
665.899	0.0160205
665.977	0.0158270
666.055	0.0158627
666.134	0.0158521
666.212	0.0159332
666.290	0.0157560
666.368	0.0159454
666.446	0.0157841
666.524	0.0159648
666.602	0.0158826
666.680	0.0158141
666.759	0.0157455
666.837	0.0157463
666.915	0.0158093
666.993	0.0158214
667.071	0.0157823
667.149	0.0159047
667.227	0.0158893
667.305	0.0158104
667.384	0.0158669
667.462	0.0158062
667.540	0.0158727
667.618	0.0157618
667.696	0.0159210
667.774	0.0158773
667.852	0.0159740
667.930	0.0157121
668.009	0.0158401
668.087	0.0159063
668.165	0.0158901
668.243	0.0157494
668.321	0.0157713
668.399	0.0159513
668.477	0.0158943
668.555	0.0157825
668.634	0.0157805
668.712	0.0159028
668.790	0.0159463
668.868	0.0158955
668.946	0.0158400
669.024	0.0157026
669.102	0.0158270
669.180	0.0158176
669.259	0.0159028
669.337	0.0158231
669.415	0.0158329
669.493	0.0158860
669.571	0.0160362
669.649	0.0159623
669.727	0.0158329
669.805	0.0157518
669.884	0.0157910
669.962	0.0159389
670.040	0.0158165
670.118	0.0157635
670.196	0.0158559
670.274	0.0159071
670.352	0.0159031
670.430	0.0158308
670.509	0.0158504
670.587	0.0157894
670.665	0.0158669
670.743	0.0159609
670.821	0.0157064
670.899	0.0157195
670.977	0.0158937
671.055	0.0158012
671.134	0.0158289
671.212	0.0157639
671.290	0.0157969
671.368	0.0158863
671.446	0.0158204
671.524	0.0157841
671.602	0.0158059
671.680	0.0158063
671.759	0.0158792
671.837	0.0158093
671.915	0.0157736
671.993	0.0158387
672.071	0.0158018
672.149	0.0158167
672.227	0.0157813
672.305	0.0158746
672.384	0.0158089
672.462	0.0158115
672.540	0.0157574
672.618	0.0156857
672.696	0.0157726
672.774	0.0158071
672.852	0.0156584
672.930	0.0157175
673.009	0.0159143
673.087	0.0158447
673.165	0.0158439
673.243	0.0155585
673.321	0.0157487
673.399	0.0157327
673.477	0.0158580
673.555	0.0157722
673.634	0.0156191
673.712	0.0156567
673.790	0.0157171
673.868	0.0158328
673.946	0.0158179
674.024	0.0157397
674.102	0.0157327
674.180	0.0157018
674.259	0.0157554
674.337	0.0156848
674.415	0.0157675
674.493	0.0157965
674.571	0.0156737
674.649	0.0157554
674.727	0.0157426
674.805	0.0156188
674.884	0.0157375
674.962	0.0157459
675.040	0.0157236
675.118	0.0157321
675.196	0.0157786
675.274	0.0156585
675.352	0.0157432
675.430	0.0156333
675.509	0.0157098
675.587	0.0158675
675.665	0.0157237
675.743	0.0156102
675.821	0.0157977
675.899	0.0158261
675.977	0.0156963
676.055	0.0157482
676.134	0.0157256
676.212	0.0156054
676.290	0.0156675
676.368	0.0157691
676.446	0.0156177
676.524	0.0157718
676.602	0.0156513
676.680	0.0156741
676.759	0.0157625
676.837	0.0157993
676.915	0.0157835
676.993	0.0157731
677.071	0.0157185
677.149	0.0155757
677.227	0.0157780
677.305	0.0158128
677.384	0.0158134
677.462	0.0157301
677.540	0.0157957
677.618	0.0157703
677.696	0.0157542
677.774	0.0156458
677.852	0.0157188
677.930	0.0157557
678.009	0.0157478
678.087	0.0156959
678.165	0.0158513
678.243	0.0156649
678.321	0.0158143
678.399	0.0156623
678.477	0.0157005
678.555	0.0157067
678.634	0.0156988
678.712	0.0157014
678.790	0.0158289
678.868	0.0156821
678.946	0.0156519
679.024	0.0157166
679.102	0.0157004
679.180	0.0157356
679.259	0.0157332
679.337	0.0157401
679.415	0.0157230
679.493	0.0158122
679.571	0.0157307
679.649	0.0157490
679.727	0.0157532
679.805	0.0157950
679.884	0.0158097
679.962	0.0157327
680.040	0.0156458
680.118	0.0158589
680.196	0.0156921
680.274	0.0157294
680.352	0.0157250
680.430	0.0156763
680.509	0.0157875
680.587	0.0158117
680.665	0.0157869
680.743	0.0157132
680.821	0.0156689
680.899	0.0156544
680.977	0.0157603
681.055	0.0156698
681.134	0.0156820
681.212	0.0158051
681.290	0.0157153
681.368	0.0156458
681.446	0.0156361
681.524	0.0157376
681.602	0.0156905
681.680	0.0156867
681.759	0.0157255
681.837	0.0155775
681.915	0.0155717
681.993	0.0155419
682.071	0.0156844
682.149	0.0155743
682.227	0.0156201
682.305	0.0155753
682.384	0.0156813
682.462	0.0156451
682.540	0.0156152
682.618	0.0155119
682.696	0.0156285
682.774	0.0157120
682.852	0.0156226
682.930	0.0155884
683.009	0.0156197
683.087	0.0156579
683.165	0.0156320
683.243	0.0155554
683.321	0.0156741
683.399	0.0156718
683.477	0.0156549
683.555	0.0156256
683.634	0.0156950
683.712	0.0157491
683.790	0.0155590
683.868	0.0155365
683.946	0.0156496
684.024	0.0157169
684.102	0.0157454
684.180	0.0155803
684.259	0.0154920
684.337	0.0156195
684.415	0.0155020
684.493	0.0156947
684.571	0.0157132
684.649	0.0156715
684.727	0.0156011
684.805	0.0155447
684.884	0.0157120
684.962	0.0156631
685.040	0.0155346
685.118	0.0156447
685.196	0.0155898
685.274	0.0156000
685.352	0.0156443
685.430	0.0156361
685.509	0.0156236
685.587	0.0157336
685.665	0.0156487
