06/13/2022	15:09:34	Ver.	4.1	UNKNOWN
Optical Delay	599.968395	Delta X		0.078125	Sweeps	1	Scan Rate	0/0
Coordinates	Axis 1	NaN	Axis 2	NaN	Axis 3	NaN	Axis 4	NaN	Axis 5	NaN	Axis 6	0.000000
TX Power	0.000000	RX Power	0.000000

599.968	0.0159431
600.047	0.0158785
600.125	0.0159772
600.203	0.0159241
600.281	0.0157880
600.359	0.0160498
600.437	0.0159100
600.515	0.0160001
600.593	0.0160669
600.672	0.0159364
600.750	0.0158416
600.828	0.0158826
600.906	0.0160227
600.984	0.0159159
601.062	0.0159230
601.140	0.0159429
601.218	0.0159203
601.297	0.0159338
601.375	0.0159873
601.453	0.0159245
601.531	0.0159301
601.609	0.0158858
601.687	0.0158609
601.765	0.0159377
601.843	0.0159444
601.922	0.0158412
602.000	0.0158884
602.078	0.0158488
602.156	0.0160204
602.234	0.0158539
602.312	0.0159493
602.390	0.0159526
602.468	0.0159116
602.547	0.0159196
602.625	0.0159504
602.703	0.0158524
602.781	0.0158057
602.859	0.0158829
602.937	0.0158917
603.015	0.0160360
603.093	0.0159700
603.172	0.0158806
603.250	0.0159562
603.328	0.0158097
603.406	0.0159148
603.484	0.0159474
603.562	0.0161098
603.640	0.0158954
603.718	0.0158936
603.797	0.0158271
603.875	0.0157769
603.953	0.0159426
604.031	0.0160592
604.109	0.0161264
604.187	0.0159820
604.265	0.0158836
604.343	0.0158935
604.422	0.0159320
604.500	0.0159850
604.578	0.0159705
604.656	0.0160647
604.734	0.0159915
604.812	0.0158471
604.890	0.0158901
604.968	0.0158788
605.047	0.0159618
605.125	0.0158678
605.203	0.0160979
605.281	0.0159715
605.359	0.0159773
605.437	0.0159440
605.515	0.0160072
605.593	0.0159739
605.672	0.0159415
605.750	0.0160076
605.828	0.0158941
605.906	0.0159456
605.984	0.0159474
606.062	0.0159396
606.140	0.0159351
606.218	0.0160412
606.297	0.0161597
606.375	0.0159879
606.453	0.0159142
606.531	0.0157588
606.609	0.0160502
606.687	0.0159778
606.765	0.0159531
606.843	0.0158479
606.922	0.0158456
607.000	0.0159039
607.078	0.0159871
607.156	0.0159296
607.234	0.0159003
607.312	0.0159553
607.390	0.0158896
607.468	0.0157926
607.547	0.0158269
607.625	0.0157901
607.703	0.0159205
607.781	0.0160196
607.859	0.0160116
607.937	0.0159480
608.015	0.0159018
608.093	0.0159119
608.172	0.0160259
608.250	0.0160379
608.328	0.0156814
608.406	0.0159574
608.484	0.0159056
608.562	0.0158309
608.640	0.0159267
608.718	0.0158826
608.797	0.0159309
608.875	0.0158950
608.953	0.0158632
609.031	0.0159242
609.109	0.0158017
609.187	0.0158086
609.265	0.0159548
609.343	0.0160113
609.422	0.0159543
609.500	0.0158047
609.578	0.0158436
609.656	0.0159215
609.734	0.0159455
609.812	0.0158990
609.890	0.0159533
609.968	0.0158610
610.047	0.0158778
610.125	0.0159196
610.203	0.0159824
610.281	0.0159339
610.359	0.0158627
610.437	0.0159067
610.515	0.0157968
610.593	0.0158892
610.672	0.0158917
610.750	0.0160350
610.828	0.0159010
610.906	0.0157847
610.984	0.0159963
611.062	0.0159223
611.140	0.0159599
611.218	0.0159451
611.297	0.0159381
611.375	0.0158232
611.453	0.0159319
611.531	0.0159270
611.609	0.0160564
611.687	0.0158696
611.765	0.0158131
611.843	0.0159676
611.922	0.0159014
612.000	0.0160278
612.078	0.0158321
612.156	0.0158409
612.234	0.0157616
612.312	0.0158897
612.390	0.0160168
612.468	0.0159812
612.547	0.0158867
612.625	0.0158899
612.703	0.0159604
612.781	0.0159225
612.859	0.0159400
612.937	0.0159314
613.015	0.0158183
613.093	0.0158906
613.172	0.0158141
613.250	0.0158086
613.328	0.0159497
613.406	0.0158978
613.484	0.0158451
613.562	0.0159039
613.640	0.0159179
613.718	0.0159382
613.797	0.0160152
613.875	0.0158302
613.953	0.0158705
614.031	0.0157613
614.109	0.0158119
614.187	0.0159363
614.265	0.0159368
614.343	0.0158176
614.422	0.0159549
614.500	0.0158807
614.578	0.0158747
614.656	0.0160167
614.734	0.0158932
614.812	0.0159440
614.890	0.0159009
614.968	0.0159328
615.047	0.0157978
615.125	0.0158330
615.203	0.0158587
615.281	0.0158923
615.359	0.0158802
615.437	0.0157214
615.515	0.0158431
615.593	0.0159472
615.672	0.0158181
615.750	0.0156781
615.828	0.0157825
615.906	0.0158733
615.984	0.0159387
616.062	0.0159638
616.140	0.0158324
616.218	0.0158541
616.297	0.0157857
616.375	0.0157479
616.453	0.0158361
616.531	0.0158636
616.609	0.0158928
616.687	0.0158871
616.765	0.0157246
616.843	0.0158817
616.922	0.0158903
617.000	0.0158700
617.078	0.0159084
617.156	0.0158638
617.234	0.0158729
617.312	0.0158556
617.390	0.0158116
617.468	0.0159478
617.547	0.0159049
617.625	0.0157324
617.703	0.0157473
617.781	0.0159736
617.859	0.0159850
617.937	0.0159279
618.015	0.0158789
618.093	0.0159509
618.172	0.0158625
618.250	0.0158493
618.328	0.0159711
618.406	0.0158836
618.484	0.0158214
618.562	0.0159460
618.640	0.0159010
618.718	0.0158363
618.797	0.0160049
618.875	0.0159821
618.953	0.0159631
619.031	0.0159969
619.109	0.0158882
619.187	0.0158731
619.265	0.0159818
619.343	0.0160174
619.422	0.0158984
619.500	0.0159168
619.578	0.0160071
619.656	0.0158979
619.734	0.0159447
619.812	0.0160065
619.890	0.0159878
619.968	0.0158910
620.047	0.0159519
620.125	0.0158712
620.203	0.0159605
620.281	0.0160751
620.359	0.0160410
620.437	0.0158643
620.515	0.0158284
620.593	0.0159495
620.672	0.0159638
620.750	0.0159684
620.828	0.0160030
620.906	0.0159284
620.984	0.0159989
621.062	0.0159618
621.140	0.0161404
621.218	0.0159279
621.297	0.0159754
621.375	0.0159328
621.453	0.0160201
621.531	0.0160406
621.609	0.0159493
621.687	0.0158731
621.765	0.0159594
621.843	0.0159274
621.922	0.0161121
622.000	0.0160736
622.078	0.0159877
622.156	0.0158634
622.234	0.0159708
622.312	0.0159493
622.390	0.0160257
622.468	0.0159850
622.547	0.0160247
622.625	0.0161259
622.703	0.0159588
622.781	0.0160783
622.859	0.0160924
622.937	0.0161427
623.015	0.0160058
623.093	0.0160001
623.172	0.0159956
623.250	0.0159729
623.328	0.0160517
623.406	0.0160542
623.484	0.0161208
623.562	0.0159968
623.640	0.0159891
623.718	0.0161236
623.797	0.0158229
623.875	0.0160271
623.953	0.0160400
624.031	0.0160658
624.109	0.0160196
624.187	0.0160855
624.265	0.0159978
624.343	0.0160002
624.422	0.0159987
624.500	0.0160097
624.578	0.0160491
624.656	0.0160440
624.734	0.0159602
624.812	0.0160848
624.890	0.0160149
624.968	0.0157281
625.047	0.0160025
625.125	0.0161569
625.203	0.0158976
625.281	0.0158889
625.359	0.0161119
625.437	0.0161129
625.515	0.0159447
625.593	0.0159464
625.672	0.0160025
625.750	0.0160515
625.828	0.0159807
625.906	0.0160532
625.984	0.0160769
626.062	0.0160662
626.140	0.0159680
626.218	0.0159030
626.297	0.0159533
626.375	0.0159410
626.453	0.0159897
626.531	0.0160451
626.609	0.0160494
626.687	0.0160306
626.765	0.0160313
626.843	0.0159617
626.922	0.0162201
627.000	0.0160354
627.078	0.0159162
627.156	0.0160683
627.234	0.0160416
627.312	0.0158979
627.390	0.0161097
627.468	0.0160905
627.547	0.0160095
627.625	0.0159003
627.703	0.0158640
627.781	0.0160758
627.859	0.0159038
627.937	0.0159664
628.015	0.0159432
628.093	0.0160000
628.172	0.0158694
628.250	0.0159249
628.328	0.0159787
628.406	0.0159477
628.484	0.0159654
628.562	0.0158739
628.640	0.0159901
628.718	0.0160236
628.797	0.0159275
628.875	0.0158929
628.953	0.0158498
629.031	0.0158593
629.109	0.0159798
629.187	0.0160011
629.265	0.0159569
629.343	0.0159818
629.422	0.0160281
629.500	0.0160587
629.578	0.0159996
629.656	0.0160238
629.734	0.0159118
629.812	0.0159209
629.890	0.0160001
629.968	0.0158437
630.047	0.0160711
630.125	0.0160972
630.203	0.0160313
630.281	0.0159533
630.359	0.0159733
630.437	0.0160148
630.515	0.0160197
630.593	0.0159743
630.672	0.0159971
630.750	0.0159003
630.828	0.0159821
630.906	0.0159609
630.984	0.0159142
631.062	0.0160056
631.140	0.0158870
631.218	0.0159054
631.297	0.0159368
631.375	0.0160156
631.453	0.0160965
631.531	0.0158959
631.609	0.0158914
631.687	0.0160246
631.765	0.0159901
631.843	0.0158124
631.922	0.0159775
632.000	0.0161210
632.078	0.0160317
632.156	0.0159680
632.234	0.0159590
632.312	0.0160420
632.390	0.0159657
632.468	0.0158815
632.547	0.0159109
632.625	0.0160076
632.703	0.0158764
632.781	0.0159788
632.859	0.0159641
632.937	0.0160287
633.015	0.0159779
633.093	0.0160740
633.172	0.0160091
633.250	0.0158878
633.328	0.0160197
633.406	0.0160815
633.484	0.0160117
633.562	0.0160793
633.640	0.0159550
633.718	0.0159846
633.797	0.0160011
633.875	0.0159845
633.953	0.0158955
634.031	0.0158957
634.109	0.0159354
634.187	0.0160468
634.265	0.0159646
634.343	0.0158385
634.422	0.0159978
634.500	0.0159911
634.578	0.0160081
634.656	0.0159397
634.734	0.0158849
634.812	0.0159760
634.890	0.0160013
634.968	0.0159967
635.047	0.0158862
635.125	0.0160771
635.203	0.0159312
635.281	0.0160284
635.359	0.0158892
635.437	0.0159938
635.515	0.0160155
635.593	0.0159805
635.672	0.0161337
635.750	0.0160898
635.828	0.0158941
635.906	0.0159408
635.984	0.0158751
636.062	0.0161341
636.140	0.0160120
636.218	0.0159703
636.297	0.0160070
636.375	0.0161449
636.453	0.0160207
636.531	0.0159647
636.609	0.0160516
636.687	0.0159839
636.765	0.0158836
636.843	0.0160006
636.922	0.0160477
637.000	0.0160445
637.078	0.0158817
637.156	0.0160030
637.234	0.0159525
637.312	0.0160233
637.390	0.0159301
637.468	0.0158691
637.547	0.0158973
637.625	0.0160194
637.703	0.0160349
637.781	0.0158067
637.859	0.0159123
637.937	0.0161084
638.015	0.0159801
638.093	0.0159453
638.172	0.0159982
638.250	0.0160265
638.328	0.0159900
638.406	0.0160611
638.484	0.0160686
638.562	0.0159531
638.640	0.0160641
638.718	0.0160008
638.797	0.0158742
638.875	0.0160393
638.953	0.0160969
639.031	0.0159295
639.109	0.0160367
639.187	0.0159508
639.265	0.0159215
639.343	0.0160349
639.422	0.0159116
639.500	0.0159637
639.578	0.0159542
639.656	0.0159090
639.734	0.0158697
639.812	0.0158913
639.890	0.0158850
639.968	0.0157614
640.047	0.0158299
640.125	0.0156747
640.203	0.0157820
640.281	0.0158809
640.359	0.0158644
640.437	0.0157770
640.515	0.0158109
640.593	0.0159249
640.672	0.0159375
640.750	0.0158270
640.828	0.0159792
640.906	0.0159495
640.984	0.0159573
641.062	0.0159503
641.140	0.0158795
641.218	0.0160088
641.297	0.0159499
641.375	0.0157271
641.453	0.0161034
641.531	0.0160440
641.609	0.0158428
641.687	0.0160497
641.765	0.0161136
641.843	0.0160681
641.922	0.0158989
642.000	0.0158044
642.078	0.0158852
642.156	0.0158634
642.234	0.0158871
642.312	0.0157748
642.390	0.0159313
642.468	0.0158517
642.547	0.0156992
642.625	0.0157303
642.703	0.0157845
642.781	0.0158742
642.859	0.0159656
642.937	0.0158005
643.015	0.0159624
643.093	0.0159940
643.172	0.0159468
643.250	0.0159252
643.328	0.0159645
643.406	0.0158927
643.484	0.0159187
643.562	0.0157792
643.640	0.0159261
643.718	0.0161311
643.797	0.0158963
643.875	0.0159382
643.953	0.0160134
644.031	0.0159704
644.109	0.0158471
644.187	0.0159512
644.265	0.0158788
644.343	0.0157766
644.422	0.0159345
644.500	0.0158831
644.578	0.0157783
644.656	0.0159782
644.734	0.0159120
644.812	0.0160623
644.890	0.0160251
644.968	0.0158129
645.047	0.0160445
645.125	0.0158137
645.203	0.0159266
645.281	0.0159344
645.359	0.0158084
645.437	0.0159221
645.515	0.0159557
645.593	0.0159848
645.672	0.0158498
645.750	0.0159167
645.828	0.0158874
645.906	0.0159601
645.984	0.0159126
646.062	0.0158996
646.140	0.0159003
646.218	0.0158578
646.297	0.0158742
646.375	0.0159361
646.453	0.0160356
646.531	0.0160569
646.609	0.0161147
646.687	0.0160040
646.765	0.0159763
646.843	0.0160041
646.922	0.0160475
647.000	0.0160336
647.078	0.0160844
647.156	0.0160976
647.234	0.0160645
647.312	0.0161798
647.390	0.0161636
647.468	0.0161353
647.547	0.0159934
647.625	0.0160963
647.703	0.0161211
647.781	0.0160590
647.859	0.0160725
647.937	0.0159885
648.015	0.0160217
648.093	0.0159791
648.172	0.0160975
648.250	0.0160273
648.328	0.0160632
648.406	0.0159988
648.484	0.0160056
648.562	0.0161946
648.640	0.0160331
648.718	0.0161246
648.797	0.0160706
648.875	0.0159797
648.953	0.0159988
649.031	0.0162193
649.109	0.0161083
649.187	0.0159741
649.265	0.0159706
649.343	0.0160830
649.422	0.0161724
649.500	0.0163095
649.578	0.0160861
649.656	0.0161027
649.734	0.0160957
649.812	0.0161005
649.890	0.0162061
649.968	0.0161006
650.047	0.0160669
650.125	0.0159750
650.203	0.0161322
650.281	0.0161397
650.359	0.0160679
650.437	0.0161089
650.515	0.0161697
650.593	0.0161738
650.672	0.0159859
650.750	0.0160651
650.828	0.0160615
650.906	0.0161056
650.984	0.0161257
651.062	0.0160178
651.140	0.0161392
651.218	0.0160697
651.297	0.0162517
651.375	0.0162308
651.453	0.0161797
651.531	0.0162275
651.609	0.0159550
651.687	0.0159939
651.765	0.0161142
651.843	0.0161564
651.922	0.0160201
652.000	0.0160339
652.078	0.0162135
652.156	0.0160152
652.234	0.0160242
652.312	0.0160697
652.390	0.0160223
652.468	0.0160625
652.547	0.0160421
652.625	0.0160462
652.703	0.0160310
652.781	0.0160562
652.859	0.0159905
652.937	0.0161302
653.015	0.0159355
653.093	0.0159962
653.172	0.0160030
653.250	0.0160892
653.328	0.0160898
653.406	0.0160844
653.484	0.0159895
653.562	0.0159210
653.640	0.0161610
653.718	0.0159876
653.797	0.0160025
653.875	0.0160131
653.953	0.0159321
654.031	0.0159840
654.109	0.0160083
654.187	0.0160806
654.265	0.0160683
654.343	0.0160208
654.422	0.0161490
654.500	0.0159532
654.578	0.0160894
654.656	0.0159781
654.734	0.0159708
654.812	0.0160512
654.890	0.0160874
654.968	0.0161111
655.047	0.0160307
655.125	0.0159714
655.203	0.0159922
655.281	0.0159383
655.359	0.0161571
655.437	0.0160352
655.515	0.0160168
655.593	0.0159360
655.672	0.0159495
655.750	0.0159458
655.828	0.0159133
655.906	0.0160132
655.984	0.0159399
656.062	0.0158601
656.140	0.0158321
656.218	0.0158129
656.297	0.0159488
656.375	0.0160510
656.453	0.0159427
656.531	0.0159451
656.609	0.0159341
656.687	0.0159602
656.765	0.0158975
656.843	0.0160580
656.922	0.0159634
657.000	0.0159771
657.078	0.0159341
657.156	0.0159022
657.234	0.0158901
657.312	0.0161063
657.390	0.0160337
657.468	0.0160675
657.547	0.0158240
657.625	0.0159275
657.703	0.0160567
657.781	0.0160384
657.859	0.0159563
657.937	0.0159161
658.015	0.0160052
658.093	0.0160009
658.172	0.0159491
658.250	0.0160702
658.328	0.0159441
658.406	0.0159872
658.484	0.0159856
658.562	0.0161312
658.640	0.0160715
658.718	0.0159754
658.797	0.0158723
658.875	0.0159324
658.953	0.0160958
659.031	0.0161075
659.109	0.0158795
659.187	0.0158878
659.265	0.0160545
659.343	0.0159122
659.422	0.0159449
659.500	0.0159880
659.578	0.0157957
659.656	0.0160105
659.734	0.0160471
659.812	0.0159760
659.890	0.0159877
659.968	0.0160317
660.047	0.0159690
660.125	0.0160384
660.203	0.0160937
660.281	0.0159350
660.359	0.0158546
660.437	0.0160033
660.515	0.0161594
660.593	0.0160875
660.672	0.0159106
660.750	0.0159857
660.828	0.0159837
660.906	0.0159856
660.984	0.0159552
661.062	0.0159471
661.140	0.0159707
661.218	0.0159373
661.297	0.0158833
661.375	0.0159197
661.453	0.0158526
661.531	0.0159618
661.609	0.0157836
661.687	0.0158667
661.765	0.0159940
661.843	0.0159439
661.922	0.0158440
662.000	0.0158210
662.078	0.0158916
662.156	0.0159341
662.234	0.0159292
662.312	0.0159074
662.390	0.0158057
662.468	0.0158285
662.547	0.0158810
662.625	0.0158604
662.703	0.0159190
662.781	0.0158782
662.859	0.0158561
662.937	0.0159892
663.015	0.0157110
663.093	0.0157707
663.172	0.0158613
663.250	0.0158603
663.328	0.0159368
663.406	0.0157095
663.484	0.0157596
663.562	0.0158580
663.640	0.0158914
663.718	0.0158694
663.797	0.0159153
663.875	0.0157613
663.953	0.0158850
664.031	0.0157786
664.109	0.0158731
664.187	0.0158733
664.265	0.0158065
664.343	0.0157842
664.422	0.0157487
664.500	0.0157597
664.578	0.0157871
664.656	0.0158550
664.734	0.0158801
664.812	0.0157458
664.890	0.0158150
664.968	0.0157861
665.047	0.0157359
665.125	0.0156526
665.203	0.0158678
665.281	0.0157362
665.359	0.0158128
665.437	0.0158321
665.515	0.0156827
665.593	0.0157040
665.672	0.0156885
665.750	0.0158972
665.828	0.0159998
665.906	0.0158406
665.984	0.0158311
666.062	0.0158784
666.140	0.0158679
666.218	0.0157258
666.297	0.0159001
666.375	0.0157471
666.453	0.0157170
666.531	0.0159081
666.609	0.0157817
666.687	0.0158924
666.765	0.0158739
666.843	0.0159564
666.922	0.0158566
667.000	0.0158104
667.078	0.0157955
667.156	0.0158346
667.234	0.0158882
667.312	0.0159157
667.390	0.0158740
667.468	0.0157787
667.547	0.0158144
667.625	0.0158974
667.703	0.0158398
667.781	0.0157990
667.859	0.0157932
667.937	0.0158965
668.015	0.0159547
668.093	0.0158530
668.172	0.0157537
668.250	0.0157306
668.328	0.0157394
668.406	0.0157898
668.484	0.0158296
668.562	0.0157526
668.640	0.0158350
668.718	0.0158497
668.797	0.0158039
668.875	0.0157754
668.953	0.0159678
669.031	0.0158203
669.109	0.0158263
669.187	0.0158556
669.265	0.0158350
669.343	0.0158606
669.422	0.0159196
669.500	0.0158807
669.578	0.0157127
669.656	0.0159653
669.734	0.0156767
669.812	0.0159610
669.890	0.0159669
669.968	0.0158517
670.047	0.0157899
670.125	0.0158916
670.203	0.0160026
670.281	0.0159610
670.359	0.0159367
670.437	0.0159415
670.515	0.0158586
670.593	0.0158412
670.672	0.0160025
670.750	0.0157523
670.828	0.0158794
670.906	0.0158894
670.984	0.0158257
671.062	0.0159624
671.140	0.0158410
671.218	0.0158181
671.297	0.0158690
671.375	0.0160458
671.453	0.0160320
671.531	0.0159776
671.609	0.0159686
671.687	0.0157150
671.765	0.0160297
671.843	0.0160207
671.922	0.0160287
672.000	0.0160333
672.078	0.0160130
672.156	0.0160319
672.234	0.0159872
672.312	0.0159740
672.390	0.0160098
672.468	0.0159147
672.547	0.0158456
672.625	0.0158329
672.703	0.0161762
672.781	0.0159124
672.859	0.0160097
672.937	0.0160495
673.015	0.0160429
673.093	0.0158925
673.172	0.0159365
673.250	0.0159459
673.328	0.0160387
673.406	0.0160972
673.484	0.0158721
673.562	0.0161043
673.640	0.0160294
673.718	0.0160587
673.797	0.0160823
673.875	0.0160916
673.953	0.0160163
674.031	0.0161717
674.109	0.0159487
674.187	0.0160564
674.265	0.0161487
674.343	0.0160443
674.422	0.0160479
674.500	0.0161226
674.578	0.0159233
674.656	0.0160838
674.734	0.0161429
674.812	0.0160704
674.890	0.0160046
674.968	0.0161224
675.047	0.0160809
675.125	0.0160354
675.203	0.0159716
675.281	0.0161449
675.359	0.0160521
675.437	0.0158617
675.515	0.0159354
675.593	0.0161636
675.672	0.0160697
675.750	0.0159578
675.828	0.0160925
675.906	0.0160657
675.984	0.0161008
676.062	0.0159809
676.140	0.0159743
676.218	0.0159164
676.297	0.0159444
676.375	0.0160632
676.453	0.0160483
676.531	0.0160719
676.609	0.0161194
676.687	0.0159637
676.765	0.0158141
676.843	0.0159519
676.922	0.0160630
677.000	0.0159755
677.078	0.0158896
677.156	0.0160886
677.234	0.0160710
677.312	0.0159239
677.390	0.0160362
677.468	0.0159919
677.547	0.0160697
677.625	0.0160672
677.703	0.0159403
677.781	0.0160512
677.859	0.0160284
677.937	0.0159898
678.015	0.0159100
678.093	0.0160410
678.172	0.0159862
678.250	0.0160240
678.328	0.0160933
678.406	0.0160874
678.484	0.0160640
678.562	0.0160522
678.640	0.0160515
678.718	0.0160281
678.797	0.0160092
678.875	0.0158639
678.953	0.0160530
679.031	0.0160297
679.109	0.0160802
679.187	0.0158890
679.265	0.0159637
679.343	0.0158791
679.422	0.0158922
679.500	0.0157701
679.578	0.0160151
679.656	0.0158853
679.734	0.0159023
679.812	0.0159109
679.890	0.0158799
679.968	0.0159722
680.047	0.0159003
680.125	0.0160707
680.203	0.0159163
680.281	0.0159041
680.359	0.0158150
680.437	0.0158948
680.515	0.0161125
680.593	0.0159935
680.672	0.0159449
680.750	0.0158273
680.828	0.0159587
680.906	0.0160593
680.984	0.0159697
681.062	0.0159195
681.140	0.0158743
681.218	0.0159934
681.297	0.0158057
681.375	0.0157724
681.453	0.0160675
681.531	0.0159281
681.609	0.0158775
681.687	0.0158935
681.765	0.0158637
681.843	0.0159851
681.922	0.0159795
682.000	0.0159776
682.078	0.0158701
682.156	0.0159203
682.234	0.0160390
682.312	0.0159302
682.390	0.0158260
682.468	0.0158874
682.547	0.0160589
682.625	0.0159972
682.703	0.0158707
682.781	0.0159173
682.859	0.0160735
682.937	0.0159738
683.015	0.0159998
683.093	0.0159586
683.172	0.0159102
683.250	0.0159057
683.328	0.0158562
683.406	0.0159622
683.484	0.0159767
683.562	0.0160467
683.640	0.0159268
683.718	0.0160040
683.797	0.0160419
683.875	0.0158188
683.953	0.0158316
684.031	0.0159801
684.109	0.0159790
684.187	0.0159669
684.265	0.0157910
684.343	0.0159105
684.422	0.0159624
684.500	0.0159692
684.578	0.0159412
684.656	0.0159993
684.734	0.0160128
684.812	0.0157861
684.890	0.0159492
684.968	0.0159200
685.047	0.0158887
685.125	0.0159892
685.203	0.0158194
685.281	0.0160253
685.359	0.0159819
685.437	0.0158273
685.515	0.0159176
685.593	0.0158432
685.672	0.0159772
