06/13/2022	15:10:34	Ver.	4.1	UNKNOWN
Optical Delay	599.961724	Delta X		0.078125	Sweeps	1	Scan Rate	0/0
Coordinates	Axis 1	NaN	Axis 2	NaN	Axis 3	NaN	Axis 4	NaN	Axis 5	NaN	Axis 6	0.000000
TX Power	0.000000	RX Power	0.000000

599.962	0.0158179
600.040	0.0157653
600.118	0.0157804
600.196	0.0157662
600.274	0.0157747
600.352	0.0157830
600.430	0.0158073
600.509	0.0157169
600.587	0.0158273
600.665	0.0157395
600.743	0.0157707
600.821	0.0158139
600.899	0.0158408
600.977	0.0157755
601.055	0.0157178
601.134	0.0158142
601.212	0.0157663
601.290	0.0158428
601.368	0.0157556
601.446	0.0157954
601.524	0.0158877
601.602	0.0158290
601.680	0.0157455
601.759	0.0157759
601.837	0.0158620
601.915	0.0159158
601.993	0.0156982
602.071	0.0156550
602.149	0.0157816
602.227	0.0157901
602.305	0.0158135
602.384	0.0156993
602.462	0.0157404
602.540	0.0158187
602.618	0.0157567
602.696	0.0158974
602.774	0.0158431
602.852	0.0158884
602.930	0.0158152
603.009	0.0157301
603.087	0.0158666
603.165	0.0158083
603.243	0.0157830
603.321	0.0156187
603.399	0.0157504
603.477	0.0158118
603.555	0.0157517
603.634	0.0157602
603.712	0.0157632
603.790	0.0157738
603.868	0.0157310
603.946	0.0157639
604.024	0.0156967
604.102	0.0157076
604.180	0.0157338
604.259	0.0156852
604.337	0.0156826
604.415	0.0158516
604.493	0.0157475
604.571	0.0156934
604.649	0.0157112
604.727	0.0158255
604.805	0.0157642
604.884	0.0157582
604.962	0.0157256
605.040	0.0156223
605.118	0.0157732
605.196	0.0157365
605.274	0.0156461
605.352	0.0157513
605.430	0.0158012
605.509	0.0157410
605.587	0.0156547
605.665	0.0157095
605.743	0.0156976
605.821	0.0157354
605.899	0.0158342
605.977	0.0157468
606.055	0.0155518
606.134	0.0158080
606.212	0.0157790
606.290	0.0158334
606.368	0.0157932
606.446	0.0156526
606.524	0.0159510
606.602	0.0158421
606.680	0.0157597
606.759	0.0158291
606.837	0.0157846
606.915	0.0158126
606.993	0.0159023
607.071	0.0158010
607.149	0.0157927
607.227	0.0157709
607.305	0.0158031
607.384	0.0157619
607.462	0.0157374
607.540	0.0156654
607.618	0.0157611
607.696	0.0159005
607.774	0.0157433
607.852	0.0156770
607.930	0.0157282
608.009	0.0158593
608.087	0.0158018
608.165	0.0156461
608.243	0.0155565
608.321	0.0157341
608.399	0.0157771
608.477	0.0157070
608.555	0.0157391
608.634	0.0157800
608.712	0.0157169
608.790	0.0157323
608.868	0.0158292
608.946	0.0156179
609.024	0.0158311
609.102	0.0157719
609.180	0.0156971
609.259	0.0155894
609.337	0.0156731
609.415	0.0157554
609.493	0.0155242
609.571	0.0158319
609.649	0.0156926
609.727	0.0157044
609.805	0.0156644
609.884	0.0157370
609.962	0.0156350
610.040	0.0156694
610.118	0.0157235
610.196	0.0156884
610.274	0.0157342
610.352	0.0157947
610.430	0.0156464
610.509	0.0156274
610.587	0.0156847
610.665	0.0156678
610.743	0.0156303
610.821	0.0156488
610.899	0.0157433
610.977	0.0156825
611.055	0.0157362
611.134	0.0157903
611.212	0.0157848
611.290	0.0156237
611.368	0.0157059
611.446	0.0156541
611.524	0.0156290
611.602	0.0157317
611.680	0.0157222
611.759	0.0158124
611.837	0.0157521
611.915	0.0157215
611.993	0.0158171
612.071	0.0156747
612.149	0.0157417
612.227	0.0157840
612.305	0.0157098
612.384	0.0157034
612.462	0.0158236
612.540	0.0157047
612.618	0.0158588
612.696	0.0156722
612.774	0.0157635
612.852	0.0157208
612.930	0.0158622
613.009	0.0158081
613.087	0.0157209
613.165	0.0157310
613.243	0.0157526
613.321	0.0156438
613.399	0.0157127
613.477	0.0159392
613.555	0.0158001
613.634	0.0156866
613.712	0.0158102
613.790	0.0156857
613.868	0.0157270
613.946	0.0157973
614.024	0.0158561
614.102	0.0158183
614.180	0.0158517
614.259	0.0158196
614.337	0.0158579
614.415	0.0157674
614.493	0.0157941
614.571	0.0158665
614.649	0.0159205
614.727	0.0157919
614.805	0.0158730
614.884	0.0158030
614.962	0.0158131
615.040	0.0158274
615.118	0.0157513
615.196	0.0158842
615.274	0.0159131
615.352	0.0159686
615.430	0.0159140
615.509	0.0159556
615.587	0.0158745
615.665	0.0158585
615.743	0.0159231
615.821	0.0158710
615.899	0.0158562
615.977	0.0159907
616.055	0.0158158
616.134	0.0159981
616.212	0.0159377
616.290	0.0157142
616.368	0.0158521
616.446	0.0159565
616.524	0.0159446
616.602	0.0158781
616.680	0.0159708
616.759	0.0158607
616.837	0.0158714
616.915	0.0158519
616.993	0.0158601
617.071	0.0159337
617.149	0.0159192
617.227	0.0159023
617.305	0.0159369
617.384	0.0158965
617.462	0.0158727
617.540	0.0157381
617.618	0.0158118
617.696	0.0160688
617.774	0.0158057
617.852	0.0158949
617.930	0.0158920
618.009	0.0158345
618.087	0.0157725
618.165	0.0159841
618.243	0.0157899
618.321	0.0157904
618.399	0.0159128
618.477	0.0159487
618.555	0.0160490
618.634	0.0158864
618.712	0.0157420
618.790	0.0160112
618.868	0.0159327
618.946	0.0158268
619.024	0.0157848
619.102	0.0158206
619.180	0.0159424
619.259	0.0159044
619.337	0.0159203
619.415	0.0158191
619.493	0.0158281
619.571	0.0158357
619.649	0.0157976
619.727	0.0158687
619.805	0.0159329
619.884	0.0158698
619.962	0.0158936
620.040	0.0159890
620.118	0.0159004
620.196	0.0158529
620.274	0.0157425
620.352	0.0158283
620.430	0.0158257
620.509	0.0159377
620.587	0.0157948
620.665	0.0158475
620.743	0.0159598
620.821	0.0159019
620.899	0.0158190
620.977	0.0159589
621.055	0.0157138
621.134	0.0157743
621.212	0.0159296
621.290	0.0159032
621.368	0.0158624
621.446	0.0159426
621.524	0.0159075
621.602	0.0159586
621.680	0.0159082
621.759	0.0158686
621.837	0.0158333
621.915	0.0158945
621.993	0.0157650
622.071	0.0158252
622.149	0.0159540
622.227	0.0158572
622.305	0.0157307
622.384	0.0157365
622.462	0.0159515
622.540	0.0158141
622.618	0.0158485
622.696	0.0159053
622.774	0.0158225
622.852	0.0159864
622.930	0.0158954
623.009	0.0158758
623.087	0.0159527
623.165	0.0157893
623.243	0.0157699
623.321	0.0158949
623.399	0.0158500
623.477	0.0158907
623.555	0.0158477
623.634	0.0156368
623.712	0.0158325
623.790	0.0158973
623.868	0.0158849
623.946	0.0158694
624.024	0.0158515
624.102	0.0158007
624.180	0.0157974
624.259	0.0158817
624.337	0.0158380
624.415	0.0158105
624.493	0.0158577
624.571	0.0158244
624.649	0.0159503
624.727	0.0158164
624.805	0.0158625
624.884	0.0159346
624.962	0.0158845
625.040	0.0157752
625.118	0.0157920
625.196	0.0159048
625.274	0.0159321
625.352	0.0158318
625.430	0.0157983
625.509	0.0158172
625.587	0.0158758
625.665	0.0158842
625.743	0.0157684
625.821	0.0157793
625.899	0.0157198
625.977	0.0159027
626.055	0.0158154
626.134	0.0159091
626.212	0.0159915
626.290	0.0158397
626.368	0.0157983
626.446	0.0157719
626.524	0.0158108
626.602	0.0158070
626.680	0.0157648
626.759	0.0158754
626.837	0.0158121
626.915	0.0158826
626.993	0.0159351
627.071	0.0158023
627.149	0.0156806
627.227	0.0157651
627.305	0.0157657
627.384	0.0158945
627.462	0.0157580
627.540	0.0158635
627.618	0.0159013
627.696	0.0158198
627.774	0.0156512
627.852	0.0158739
627.930	0.0158746
628.009	0.0157127
628.087	0.0158536
628.165	0.0157367
628.243	0.0157062
628.321	0.0157272
628.399	0.0158382
628.477	0.0157872
628.555	0.0156860
628.634	0.0157381
628.712	0.0158469
628.790	0.0158807
628.868	0.0158877
628.946	0.0156762
629.024	0.0157744
629.102	0.0158575
629.180	0.0157450
629.259	0.0157746
629.337	0.0158941
629.415	0.0158334
629.493	0.0157835
629.571	0.0158187
629.649	0.0156802
629.727	0.0157486
629.805	0.0157888
629.884	0.0158787
629.962	0.0157220
630.040	0.0158326
630.118	0.0158721
630.196	0.0158347
630.274	0.0159116
630.352	0.0157899
630.430	0.0158714
630.509	0.0157404
630.587	0.0158561
630.665	0.0158994
630.743	0.0157410
630.821	0.0158620
630.899	0.0158598
630.977	0.0158954
631.055	0.0159230
631.134	0.0157754
631.212	0.0158522
631.290	0.0158949
631.368	0.0158547
631.446	0.0157757
631.524	0.0158013
631.602	0.0157609
631.680	0.0158356
631.759	0.0158642
631.837	0.0158858
631.915	0.0158361
631.993	0.0158023
632.071	0.0158455
632.149	0.0157517
632.227	0.0157082
632.305	0.0157575
632.384	0.0157746
632.462	0.0158214
632.540	0.0159305
632.618	0.0157462
632.696	0.0156564
632.774	0.0157648
632.852	0.0156657
632.930	0.0156628
633.009	0.0156820
633.087	0.0156917
633.165	0.0155924
633.243	0.0156253
633.321	0.0156228
633.399	0.0156027
633.477	0.0155559
633.555	0.0156633
633.634	0.0156353
633.712	0.0155833
633.790	0.0155829
633.868	0.0156774
633.946	0.0156370
634.024	0.0155399
634.102	0.0157865
634.180	0.0157172
634.259	0.0158327
634.337	0.0157548
634.415	0.0158704
634.493	0.0157013
634.571	0.0157671
634.649	0.0157760
634.727	0.0159212
634.805	0.0159206
634.884	0.0158357
634.962	0.0157885
635.040	0.0158009
635.118	0.0156844
635.196	0.0157586
635.274	0.0157608
635.352	0.0155984
635.430	0.0156184
635.509	0.0154755
635.587	0.0155854
635.665	0.0155488
635.743	0.0156361
635.821	0.0156037
635.899	0.0156544
635.977	0.0155843
636.055	0.0156371
636.134	0.0158419
636.212	0.0158366
636.290	0.0158280
636.368	0.0157363
636.446	0.0159605
636.524	0.0156748
636.602	0.0159253
636.680	0.0157515
636.759	0.0157519
636.837	0.0157406
636.915	0.0158971
636.993	0.0157066
637.071	0.0157730
637.149	0.0156805
637.227	0.0158651
637.305	0.0157410
637.384	0.0157803
637.462	0.0158658
637.540	0.0158202
637.618	0.0157425
637.696	0.0157773
637.774	0.0157841
637.852	0.0156869
637.930	0.0158058
638.009	0.0157677
638.087	0.0158268
638.165	0.0159180
638.243	0.0158833
638.321	0.0158581
638.399	0.0158651
638.477	0.0157856
638.555	0.0158398
638.634	0.0158359
638.712	0.0157668
638.790	0.0158566
638.868	0.0157558
638.946	0.0158450
639.024	0.0159032
639.102	0.0159509
639.180	0.0157078
639.259	0.0158648
639.337	0.0157336
639.415	0.0158054
639.493	0.0160145
639.571	0.0158398
639.649	0.0157674
639.727	0.0158052
639.805	0.0159618
639.884	0.0160286
639.962	0.0159032
640.040	0.0158759
640.118	0.0158806
640.196	0.0159818
640.274	0.0159050
640.352	0.0159884
640.430	0.0159499
640.509	0.0158251
640.587	0.0158459
640.665	0.0157602
640.743	0.0158647
640.821	0.0158212
640.899	0.0158575
640.977	0.0158710
641.055	0.0158609
641.134	0.0158400
641.212	0.0159309
641.290	0.0158709
641.368	0.0158543
641.446	0.0157757
641.524	0.0158165
641.602	0.0158795
641.680	0.0159653
641.759	0.0157922
641.837	0.0158256
641.915	0.0160275
641.993	0.0159407
642.071	0.0158891
642.149	0.0159145
642.227	0.0159315
642.305	0.0159394
642.384	0.0158202
642.462	0.0160389
642.540	0.0159477
642.618	0.0159155
642.696	0.0160369
642.774	0.0158041
642.852	0.0159271
642.930	0.0159692
643.009	0.0158348
643.087	0.0158090
643.165	0.0158935
643.243	0.0159897
643.321	0.0159600
643.399	0.0158213
643.477	0.0158190
643.555	0.0159064
643.634	0.0159092
643.712	0.0157512
643.790	0.0159484
643.868	0.0158643
643.946	0.0158266
644.024	0.0158664
644.102	0.0158335
644.180	0.0159270
644.259	0.0159567
644.337	0.0158373
644.415	0.0159240
644.493	0.0160062
644.571	0.0159248
644.649	0.0158750
644.727	0.0159258
644.805	0.0160185
644.884	0.0159417
644.962	0.0158615
645.040	0.0158619
645.118	0.0160220
645.196	0.0158912
645.274	0.0159215
645.352	0.0158779
645.430	0.0160209
645.509	0.0158639
645.587	0.0158549
645.665	0.0157709
645.743	0.0159636
645.821	0.0158257
645.899	0.0158581
645.977	0.0159648
646.055	0.0158090
646.134	0.0158686
646.212	0.0158444
646.290	0.0158842
646.368	0.0158105
646.446	0.0159473
646.524	0.0159068
646.602	0.0158902
646.680	0.0159368
646.759	0.0158817
646.837	0.0159386
646.915	0.0158009
646.993	0.0158894
647.071	0.0158716
647.149	0.0160358
647.227	0.0159568
647.305	0.0159002
647.384	0.0158858
647.462	0.0158292
647.540	0.0158517
647.618	0.0158300
647.696	0.0158750
647.774	0.0158663
647.852	0.0159261
647.930	0.0158982
648.009	0.0158212
648.087	0.0157738
648.165	0.0158759
648.243	0.0158768
648.321	0.0157912
648.399	0.0159206
648.477	0.0158887
648.555	0.0158727
648.634	0.0158548
648.712	0.0158464
648.790	0.0159720
648.868	0.0159332
648.946	0.0159575
649.024	0.0158996
649.102	0.0158824
649.180	0.0157806
649.259	0.0157361
649.337	0.0158833
649.415	0.0157521
649.493	0.0157925
649.571	0.0156897
649.649	0.0158399
649.727	0.0158701
649.805	0.0157875
649.884	0.0157176
649.962	0.0158788
650.040	0.0159030
650.118	0.0158678
650.196	0.0156802
650.274	0.0157761
650.352	0.0158194
650.430	0.0159034
650.509	0.0158056
650.587	0.0158356
650.665	0.0158891
650.743	0.0157819
650.821	0.0157813
650.899	0.0159668
650.977	0.0157990
651.055	0.0160171
651.134	0.0158775
651.212	0.0158091
651.290	0.0158897
651.368	0.0157357
651.446	0.0159283
651.524	0.0159066
651.602	0.0158710
651.680	0.0160875
651.759	0.0159122
651.837	0.0157401
651.915	0.0158820
651.993	0.0159357
652.071	0.0158849
652.149	0.0158705
652.227	0.0159569
652.305	0.0158677
652.384	0.0159130
652.462	0.0159714
652.540	0.0158273
652.618	0.0158459
652.696	0.0159042
652.774	0.0159934
652.852	0.0159035
652.930	0.0158784
653.009	0.0158143
653.087	0.0158555
653.165	0.0157806
653.243	0.0158361
653.321	0.0159089
653.399	0.0159780
653.477	0.0159248
653.555	0.0158709
653.634	0.0156954
653.712	0.0159193
653.790	0.0158981
653.868	0.0157542
653.946	0.0158866
654.024	0.0158139
654.102	0.0159017
654.180	0.0158819
654.259	0.0157893
654.337	0.0158772
654.415	0.0158619
654.493	0.0158444
654.571	0.0157614
654.649	0.0158116
654.727	0.0157874
654.805	0.0159011
654.884	0.0158695
654.962	0.0158061
655.040	0.0159357
655.118	0.0158341
655.196	0.0157308
655.274	0.0158324
655.352	0.0158041
655.430	0.0157354
655.509	0.0157590
655.587	0.0157633
655.665	0.0158913
655.743	0.0157877
655.821	0.0158308
655.899	0.0158489
655.977	0.0157842
656.055	0.0157941
656.134	0.0157632
656.212	0.0157918
656.290	0.0158006
656.368	0.0157609
656.446	0.0156217
656.524	0.0158136
656.602	0.0157154
656.680	0.0156360
656.759	0.0156953
656.837	0.0156716
656.915	0.0156502
656.993	0.0156908
657.071	0.0158441
657.149	0.0157917
657.227	0.0157354
657.305	0.0157116
657.384	0.0155576
657.462	0.0156443
657.540	0.0156351
657.618	0.0154899
657.696	0.0156566
657.774	0.0156927
657.852	0.0155579
657.930	0.0155783
658.009	0.0156679
658.087	0.0155986
658.165	0.0155367
658.243	0.0156065
658.321	0.0156190
658.399	0.0157767
658.477	0.0154585
658.555	0.0155333
658.634	0.0155666
658.712	0.0156448
658.790	0.0156561
658.868	0.0156438
658.946	0.0156321
659.024	0.0156882
659.102	0.0156174
659.180	0.0157152
659.259	0.0155902
659.337	0.0156110
659.415	0.0157780
659.493	0.0155558
659.571	0.0157165
659.649	0.0157909
659.727	0.0157382
659.805	0.0156143
659.884	0.0155510
659.962	0.0157545
660.040	0.0156631
660.118	0.0156329
660.196	0.0156675
660.274	0.0156082
660.352	0.0157728
660.430	0.0156355
660.509	0.0156984
660.587	0.0156893
660.665	0.0155772
660.743	0.0156924
660.821	0.0156673
660.899	0.0155610
660.977	0.0156413
661.055	0.0156937
661.134	0.0157674
661.212	0.0156376
661.290	0.0157379
661.368	0.0156306
661.446	0.0156174
661.524	0.0156271
661.602	0.0157913
661.680	0.0157368
661.759	0.0155473
661.837	0.0157334
661.915	0.0157520
661.993	0.0156948
662.071	0.0156836
662.149	0.0157480
662.227	0.0157738
662.305	0.0157605
662.384	0.0156536
662.462	0.0157272
662.540	0.0157291
662.618	0.0155689
662.696	0.0157478
662.774	0.0156964
662.852	0.0158447
662.930	0.0158656
663.009	0.0158331
663.087	0.0158234
663.165	0.0158035
663.243	0.0157265
663.321	0.0156815
663.399	0.0156483
663.477	0.0156762
663.555	0.0156511
663.634	0.0157726
663.712	0.0157884
663.790	0.0157410
663.868	0.0158620
663.946	0.0157907
664.024	0.0157125
664.102	0.0156905
664.180	0.0156860
664.259	0.0158153
664.337	0.0158035
664.415	0.0157488
664.493	0.0157409
664.571	0.0158260
664.649	0.0157819
664.727	0.0158530
664.805	0.0157937
664.884	0.0158718
664.962	0.0158690
665.040	0.0159095
665.118	0.0157357
665.196	0.0156701
665.274	0.0158538
665.352	0.0158362
665.430	0.0158045
665.509	0.0158350
665.587	0.0156999
665.665	0.0157756
665.743	0.0158616
665.821	0.0157845
665.899	0.0158396
665.977	0.0158591
666.055	0.0158971
666.134	0.0159673
666.212	0.0159844
666.290	0.0159502
666.368	0.0157173
666.446	0.0157866
666.524	0.0158544
666.602	0.0157604
666.680	0.0157510
666.759	0.0158382
666.837	0.0158464
666.915	0.0159542
666.993	0.0159179
667.071	0.0158919
667.149	0.0157614
667.227	0.0158525
667.305	0.0159106
667.384	0.0158490
667.462	0.0159325
667.540	0.0159099
667.618	0.0159040
667.696	0.0158157
667.774	0.0158846
667.852	0.0160353
667.930	0.0159996
668.009	0.0158219
668.087	0.0158356
668.165	0.0158373
668.243	0.0160294
668.321	0.0159437
668.399	0.0158542
668.477	0.0159882
668.555	0.0158870
668.634	0.0159461
668.712	0.0159672
668.790	0.0159539
668.868	0.0159084
668.946	0.0159464
669.024	0.0158442
669.102	0.0158996
669.180	0.0158772
669.259	0.0159412
669.337	0.0159760
669.415	0.0160315
669.493	0.0158469
669.571	0.0159840
669.649	0.0159698
669.727	0.0160329
669.805	0.0159122
669.884	0.0159330
669.962	0.0158781
670.040	0.0158367
670.118	0.0157620
670.196	0.0158678
670.274	0.0158936
670.352	0.0158757
670.430	0.0159205
670.509	0.0158827
670.587	0.0159151
670.665	0.0158549
670.743	0.0158932
670.821	0.0159999
670.899	0.0160343
670.977	0.0159210
671.055	0.0158786
671.134	0.0159907
671.212	0.0159630
671.290	0.0159623
671.368	0.0158791
671.446	0.0159139
671.524	0.0159415
671.602	0.0160801
671.680	0.0159406
671.759	0.0158608
671.837	0.0158791
671.915	0.0157886
671.993	0.0159101
672.071	0.0159490
672.149	0.0157874
672.227	0.0158318
672.305	0.0158887
672.384	0.0158895
672.462	0.0156863
672.540	0.0157843
672.618	0.0159206
672.696	0.0158791
672.774	0.0157932
672.852	0.0157604
672.930	0.0158291
673.009	0.0157769
673.087	0.0157661
673.165	0.0156544
673.243	0.0158035
673.321	0.0158507
673.399	0.0158258
673.477	0.0159048
673.555	0.0158864
673.634	0.0158582
673.712	0.0158868
673.790	0.0158509
673.868	0.0158596
673.946	0.0156860
674.024	0.0156923
674.102	0.0159214
674.180	0.0160235
674.259	0.0158721
674.337	0.0157393
674.415	0.0157450
674.493	0.0158079
674.571	0.0158060
674.649	0.0157817
674.727	0.0158678
674.805	0.0158027
674.884	0.0159538
674.962	0.0158064
675.040	0.0157619
675.118	0.0158273
675.196	0.0159045
675.274	0.0157729
675.352	0.0159515
675.430	0.0158809
675.509	0.0157965
675.587	0.0159171
675.665	0.0157357
675.743	0.0157204
675.821	0.0158493
675.899	0.0158646
675.977	0.0159158
676.055	0.0159752
676.134	0.0158743
676.212	0.0158957
676.290	0.0158034
676.368	0.0159077
676.446	0.0157316
676.524	0.0156779
676.602	0.0159025
676.680	0.0159901
676.759	0.0158830
676.837	0.0157517
676.915	0.0158587
676.993	0.0159389
677.071	0.0158607
677.149	0.0157623
677.227	0.0157118
677.305	0.0158732
677.384	0.0156898
677.462	0.0157882
677.540	0.0158340
677.618	0.0157357
677.696	0.0158049
677.774	0.0159097
677.852	0.0156311
677.930	0.0157978
678.009	0.0157839
678.087	0.0157560
678.165	0.0157244
678.243	0.0157613
678.321	0.0157969
678.399	0.0158138
678.477	0.0157072
678.555	0.0158147
678.634	0.0156770
678.712	0.0157115
678.790	0.0158643
678.868	0.0157874
678.946	0.0156747
679.024	0.0157510
679.102	0.0157951
679.180	0.0157828
679.259	0.0156468
679.337	0.0156652
679.415	0.0158722
679.493	0.0157120
679.571	0.0157037
679.649	0.0157028
679.727	0.0157262
679.805	0.0156918
679.884	0.0156979
679.962	0.0156720
680.040	0.0157676
680.118	0.0157221
680.196	0.0156824
680.274	0.0156961
680.352	0.0155807
680.430	0.0157265
680.509	0.0156570
680.587	0.0157296
680.665	0.0158071
680.743	0.0155418
680.821	0.0156834
680.899	0.0157272
680.977	0.0156972
681.055	0.0155574
681.134	0.0156448
681.212	0.0156384
681.290	0.0156017
681.368	0.0155303
681.446	0.0156667
681.524	0.0157274
681.602	0.0158487
681.680	0.0155389
681.759	0.0155949
681.837	0.0156844
681.915	0.0157674
681.993	0.0155581
682.071	0.0156085
682.149	0.0157012
682.227	0.0157613
682.305	0.0157100
682.384	0.0156205
682.462	0.0154198
682.540	0.0156099
682.618	0.0157763
682.696	0.0157075
682.774	0.0157217
682.852	0.0156498
682.930	0.0156606
683.009	0.0156714
683.087	0.0157315
683.165	0.0157317
683.243	0.0156398
683.321	0.0156558
683.399	0.0156470
683.477	0.0155430
683.555	0.0155656
683.634	0.0156643
683.712	0.0156817
683.790	0.0157651
683.868	0.0157432
683.946	0.0155777
684.024	0.0156956
684.102	0.0157720
684.180	0.0157198
684.259	0.0156657
684.337	0.0156303
684.415	0.0156322
684.493	0.0157114
684.571	0.0157874
684.649	0.0156245
684.727	0.0156052
684.805	0.0158585
684.884	0.0157581
684.962	0.0156570
685.040	0.0156924
685.118	0.0156456
685.196	0.0155664
685.274	0.0157446
685.352	0.0156698
685.430	0.0157289
685.509	0.0157156
685.587	0.0155571
685.665	0.0156425
