06/13/2022	15:10:59	Ver.	4.1	UNKNOWN
Optical Delay	599.968395	Delta X		0.078125	Sweeps	1	Scan Rate	0/0
Coordinates	Axis 1	NaN	Axis 2	NaN	Axis 3	NaN	Axis 4	NaN	Axis 5	NaN	Axis 6	0.000000
TX Power	0.000000	RX Power	0.000000

599.968	0.0159208
600.047	0.0158653
600.125	0.0158646
600.203	0.0159353
600.281	0.0157858
600.359	0.0158237
600.437	0.0159167
600.515	0.0159067
600.593	0.0158163
600.672	0.0159032
600.750	0.0159526
600.828	0.0159167
600.906	0.0159892
600.984	0.0160043
601.062	0.0159335
601.140	0.0160347
601.218	0.0158888
601.297	0.0158235
601.375	0.0159441
601.453	0.0158449
601.531	0.0158435
601.609	0.0159605
601.687	0.0159022
601.765	0.0158701
601.843	0.0159229
601.922	0.0158649
602.000	0.0157607
602.078	0.0158040
602.156	0.0158090
602.234	0.0157956
602.312	0.0158103
602.390	0.0159230
602.468	0.0158128
602.547	0.0159418
602.625	0.0158061
602.703	0.0158341
602.781	0.0159035
602.859	0.0158707
602.937	0.0157986
603.015	0.0158078
603.093	0.0158725
603.172	0.0157560
603.250	0.0158119
603.328	0.0159457
603.406	0.0160215
603.484	0.0158639
603.562	0.0158418
603.640	0.0158517
603.718	0.0157896
603.797	0.0158855
603.875	0.0158135
603.953	0.0158788
604.031	0.0159078
604.109	0.0158703
604.187	0.0159247
604.265	0.0157182
604.343	0.0157748
604.422	0.0158562
604.500	0.0158137
604.578	0.0159815
604.656	0.0157769
604.734	0.0158120
604.812	0.0159619
604.890	0.0158105
604.968	0.0158291
605.047	0.0159452
605.125	0.0158263
605.203	0.0158410
605.281	0.0158120
605.359	0.0158546
605.437	0.0157697
605.515	0.0159753
605.593	0.0156929
605.672	0.0159248
605.750	0.0158714
605.828	0.0158050
605.906	0.0157553
605.984	0.0159885
606.062	0.0158705
606.140	0.0160299
606.218	0.0158541
606.297	0.0157706
606.375	0.0157982
606.453	0.0157915
606.531	0.0158339
606.609	0.0158659
606.687	0.0156599
606.765	0.0158342
606.843	0.0158028
606.922	0.0158750
607.000	0.0157904
607.078	0.0158440
607.156	0.0157805
607.234	0.0158736
607.312	0.0159142
607.390	0.0156564
607.468	0.0158495
607.547	0.0157860
607.625	0.0158658
607.703	0.0157748
607.781	0.0157545
607.859	0.0158634
607.937	0.0156632
608.015	0.0157849
608.093	0.0157796
608.172	0.0157540
608.250	0.0157594
608.328	0.0157674
608.406	0.0157893
608.484	0.0157504
608.562	0.0156793
608.640	0.0158551
608.718	0.0158887
608.797	0.0157976
608.875	0.0157710
608.953	0.0157487
609.031	0.0157767
609.109	0.0158252
609.187	0.0158709
609.265	0.0158463
609.343	0.0158782
609.422	0.0158912
609.500	0.0160007
609.578	0.0159904
609.656	0.0158817
609.734	0.0159745
609.812	0.0159658
609.890	0.0158795
609.968	0.0159324
610.047	0.0158942
610.125	0.0158872
610.203	0.0158029
610.281	0.0157025
610.359	0.0157793
610.437	0.0159625
610.515	0.0159158
610.593	0.0158750
610.672	0.0159179
610.750	0.0157977
610.828	0.0158652
610.906	0.0158834
610.984	0.0159686
611.062	0.0157555
611.140	0.0160440
611.218	0.0160186
611.297	0.0160122
611.375	0.0158315
611.453	0.0158908
611.531	0.0159135
611.609	0.0159694
611.687	0.0159702
611.765	0.0160349
611.843	0.0160660
611.922	0.0159146
612.000	0.0159830
612.078	0.0161195
612.156	0.0159448
612.234	0.0159658
612.312	0.0161075
612.390	0.0159375
612.468	0.0159740
612.547	0.0158974
612.625	0.0160390
612.703	0.0161095
612.781	0.0160595
612.859	0.0161020
612.937	0.0160076
613.015	0.0160715
613.093	0.0159895
613.172	0.0160345
613.250	0.0160519
613.328	0.0159100
613.406	0.0159600
613.484	0.0159547
613.562	0.0159305
613.640	0.0161427
613.718	0.0159924
613.797	0.0161197
613.875	0.0161878
613.953	0.0160401
614.031	0.0160765
614.109	0.0161227
614.187	0.0160699
614.265	0.0160804
614.343	0.0161259
614.422	0.0160209
614.500	0.0160742
614.578	0.0160084
614.656	0.0159961
614.734	0.0159948
614.812	0.0160198
614.890	0.0159563
614.968	0.0159634
615.047	0.0159736
615.125	0.0160480
615.203	0.0160662
615.281	0.0159650
615.359	0.0160196
615.437	0.0161079
615.515	0.0160066
615.593	0.0159689
615.672	0.0159153
615.750	0.0160403
615.828	0.0161021
615.906	0.0160205
615.984	0.0159982
616.062	0.0158481
616.140	0.0159460
616.218	0.0159953
616.297	0.0159859
616.375	0.0159129
616.453	0.0158612
616.531	0.0159676
616.609	0.0160326
616.687	0.0159418
616.765	0.0159995
616.843	0.0158743
616.922	0.0160519
617.000	0.0159682
617.078	0.0160847
617.156	0.0160575
617.234	0.0159946
617.312	0.0159601
617.390	0.0160028
617.468	0.0160358
617.547	0.0160088
617.625	0.0160776
617.703	0.0160774
617.781	0.0158787
617.859	0.0159887
617.937	0.0158504
618.015	0.0159669
618.093	0.0159599
618.172	0.0160694
618.250	0.0161057
618.328	0.0158641
618.406	0.0160636
618.484	0.0160429
618.562	0.0159158
618.640	0.0159225
618.718	0.0160040
618.797	0.0160041
618.875	0.0159895
618.953	0.0159373
619.031	0.0159396
619.109	0.0161492
619.187	0.0160909
619.265	0.0159874
619.343	0.0159424
619.422	0.0158991
619.500	0.0159509
619.578	0.0158637
619.656	0.0159646
619.734	0.0158083
619.812	0.0159827
619.890	0.0159000
619.968	0.0160279
620.047	0.0159521
620.125	0.0160287
620.203	0.0159599
620.281	0.0159350
620.359	0.0160751
620.437	0.0160458
620.515	0.0159966
620.593	0.0159492
620.672	0.0159465
620.750	0.0160218
620.828	0.0158349
620.906	0.0160381
620.984	0.0161167
621.062	0.0160287
621.140	0.0159468
621.218	0.0159358
621.297	0.0158879
621.375	0.0159660
621.453	0.0159427
621.531	0.0160625
621.609	0.0159646
621.687	0.0159667
621.765	0.0161057
621.843	0.0159701
621.922	0.0159689
622.000	0.0160931
622.078	0.0158938
622.156	0.0159317
622.234	0.0159969
622.312	0.0160201
622.390	0.0158757
622.468	0.0160202
622.547	0.0159925
622.625	0.0159684
622.703	0.0160174
622.781	0.0159727
622.859	0.0158730
622.937	0.0159856
623.015	0.0159758
623.093	0.0160017
623.172	0.0161390
623.250	0.0160524
623.328	0.0160329
623.406	0.0159837
623.484	0.0159347
623.562	0.0160017
623.640	0.0161176
623.718	0.0158356
623.797	0.0159356
623.875	0.0159990
623.953	0.0159721
624.031	0.0160062
624.109	0.0159435
624.187	0.0161113
624.265	0.0159541
624.343	0.0159764
624.422	0.0159081
624.500	0.0160404
624.578	0.0159251
624.656	0.0160709
624.734	0.0159738
624.812	0.0160023
624.890	0.0159007
624.968	0.0158827
625.047	0.0159354
625.125	0.0158125
625.203	0.0158187
625.281	0.0158857
625.359	0.0159302
625.437	0.0159296
625.515	0.0158267
625.593	0.0159063
625.672	0.0160429
625.750	0.0158857
625.828	0.0159039
625.906	0.0159701
625.984	0.0160745
626.062	0.0159342
626.140	0.0159482
626.218	0.0159585
626.297	0.0158003
626.375	0.0158797
626.453	0.0158304
626.531	0.0159146
626.609	0.0159131
626.687	0.0159290
626.765	0.0160143
626.843	0.0159225
626.922	0.0159373
627.000	0.0159721
627.078	0.0159976
627.156	0.0157928
627.234	0.0159679
627.312	0.0158630
627.390	0.0158510
627.468	0.0160543
627.547	0.0158979
627.625	0.0159218
627.703	0.0159101
627.781	0.0159262
627.859	0.0159570
627.937	0.0159995
628.015	0.0158657
628.093	0.0158671
628.172	0.0158932
628.250	0.0158884
628.328	0.0160272
628.406	0.0159678
628.484	0.0160275
628.562	0.0159444
628.640	0.0159416
628.718	0.0158587
628.797	0.0159104
628.875	0.0160760
628.953	0.0159265
629.031	0.0158902
629.109	0.0158778
629.187	0.0159647
629.265	0.0159188
629.343	0.0159057
629.422	0.0159463
629.500	0.0158926
629.578	0.0158633
629.656	0.0158494
629.734	0.0159260
629.812	0.0160160
629.890	0.0158739
629.968	0.0158099
630.047	0.0158482
630.125	0.0158583
630.203	0.0158633
630.281	0.0159178
630.359	0.0159164
630.437	0.0157323
630.515	0.0157784
630.593	0.0158742
630.672	0.0158467
630.750	0.0156551
630.828	0.0156760
630.906	0.0158143
630.984	0.0156631
631.062	0.0157733
631.140	0.0156931
631.218	0.0158309
631.297	0.0158361
631.375	0.0157137
631.453	0.0157736
631.531	0.0157910
631.609	0.0158466
631.687	0.0159052
631.765	0.0159873
631.843	0.0159516
631.922	0.0161163
632.000	0.0159422
632.078	0.0160191
632.156	0.0159731
632.234	0.0159309
632.312	0.0159882
632.390	0.0159528
632.468	0.0158167
632.547	0.0158664
632.625	0.0157443
632.703	0.0157027
632.781	0.0157076
632.859	0.0157658
632.937	0.0156767
633.015	0.0158610
633.093	0.0156841
633.172	0.0156711
633.250	0.0155777
633.328	0.0156657
633.406	0.0159503
633.484	0.0158818
633.562	0.0157924
633.640	0.0158891
633.718	0.0159249
633.797	0.0158681
633.875	0.0157924
633.953	0.0158314
634.031	0.0159914
634.109	0.0159712
634.187	0.0158969
634.265	0.0158480
634.343	0.0158693
634.422	0.0160251
634.500	0.0160243
634.578	0.0159010
634.656	0.0156383
634.734	0.0159985
634.812	0.0159044
634.890	0.0160557
634.968	0.0158696
635.047	0.0158688
635.125	0.0159383
635.203	0.0158723
635.281	0.0159088
635.359	0.0159839
635.437	0.0158115
635.515	0.0158801
635.593	0.0159850
635.672	0.0159093
635.750	0.0158564
635.828	0.0158622
635.906	0.0159354
635.984	0.0157422
636.062	0.0160235
636.140	0.0158222
636.218	0.0158483
636.297	0.0159210
636.375	0.0159615
636.453	0.0159065
636.531	0.0159478
636.609	0.0160155
636.687	0.0158897
636.765	0.0158695
636.843	0.0160944
636.922	0.0159806
637.000	0.0160580
637.078	0.0160052
637.156	0.0160632
637.234	0.0160043
637.312	0.0161205
637.390	0.0160417
637.468	0.0159314
637.547	0.0158815
637.625	0.0160325
637.703	0.0160020
637.781	0.0161787
637.859	0.0160989
637.937	0.0161774
638.015	0.0161618
638.093	0.0160963
638.172	0.0161368
638.250	0.0160416
638.328	0.0160339
638.406	0.0161639
638.484	0.0160173
638.562	0.0160007
638.640	0.0159959
638.718	0.0159172
638.797	0.0160429
638.875	0.0160113
638.953	0.0159604
639.031	0.0158853
639.109	0.0159386
639.187	0.0159977
639.265	0.0158926
639.343	0.0159492
639.422	0.0160710
639.500	0.0160536
639.578	0.0159293
639.656	0.0159590
639.734	0.0160183
639.812	0.0160283
639.890	0.0160703
639.968	0.0161597
640.047	0.0159711
640.125	0.0158865
640.203	0.0158911
640.281	0.0160562
640.359	0.0160334
640.437	0.0160266
640.515	0.0160715
640.593	0.0160085
640.672	0.0160336
640.750	0.0159908
640.828	0.0160326
640.906	0.0158927
640.984	0.0159328
641.062	0.0159550
641.140	0.0158885
641.218	0.0158263
641.297	0.0159072
641.375	0.0158568
641.453	0.0158603
641.531	0.0160442
641.609	0.0160079
641.687	0.0158900
641.765	0.0159164
641.843	0.0160349
641.922	0.0158971
642.000	0.0160796
642.078	0.0160312
642.156	0.0159891
642.234	0.0158080
642.312	0.0160302
642.390	0.0159329
642.468	0.0159989
642.547	0.0159391
642.625	0.0160144
642.703	0.0160406
642.781	0.0160208
642.859	0.0160315
642.937	0.0159471
643.015	0.0160921
643.093	0.0159809
643.172	0.0159726
643.250	0.0158900
643.328	0.0159290
643.406	0.0160607
643.484	0.0160000
643.562	0.0161098
643.640	0.0160146
643.718	0.0160696
643.797	0.0159397
643.875	0.0160332
643.953	0.0160461
644.031	0.0159624
644.109	0.0159996
644.187	0.0159415
644.265	0.0160172
644.343	0.0160497
644.422	0.0162416
644.500	0.0159129
644.578	0.0159475
644.656	0.0160582
644.734	0.0160233
644.812	0.0159806
644.890	0.0160907
644.968	0.0160548
645.047	0.0161374
645.125	0.0160783
645.203	0.0158537
645.281	0.0159851
645.359	0.0159337
645.437	0.0160115
645.515	0.0160161
645.593	0.0158818
645.672	0.0160995
645.750	0.0161049
645.828	0.0160191
645.906	0.0159074
645.984	0.0160116
646.062	0.0159485
646.140	0.0160252
646.218	0.0161408
646.297	0.0160587
646.375	0.0159713
646.453	0.0160063
646.531	0.0159851
646.609	0.0160571
646.687	0.0159562
646.765	0.0159481
646.843	0.0160235
646.922	0.0159616
647.000	0.0158889
647.078	0.0159023
647.156	0.0158783
647.234	0.0158583
647.312	0.0158530
647.390	0.0159528
647.468	0.0161543
647.547	0.0160217
647.625	0.0158065
647.703	0.0160144
647.781	0.0159996
647.859	0.0159447
647.937	0.0158566
648.015	0.0160037
648.093	0.0160837
648.172	0.0160931
648.250	0.0158360
648.328	0.0160113
648.406	0.0158967
648.484	0.0159093
648.562	0.0160754
648.640	0.0160538
648.718	0.0160651
648.797	0.0159557
648.875	0.0159448
648.953	0.0159159
649.031	0.0160394
649.109	0.0160352
649.187	0.0159872
649.265	0.0159230
649.343	0.0160629
649.422	0.0159479
649.500	0.0159140
649.578	0.0160873
649.656	0.0160168
649.734	0.0160719
649.812	0.0160194
649.890	0.0159793
649.968	0.0160700
650.047	0.0160474
650.125	0.0159917
650.203	0.0161300
650.281	0.0161341
650.359	0.0160761
650.437	0.0159411
650.515	0.0159109
650.593	0.0159302
650.672	0.0161298
650.750	0.0159801
650.828	0.0160496
650.906	0.0159896
650.984	0.0159076
651.062	0.0159747
651.140	0.0159873
651.218	0.0159906
651.297	0.0158939
651.375	0.0159354
651.453	0.0160201
651.531	0.0160607
651.609	0.0159813
651.687	0.0159190
651.765	0.0159276
651.843	0.0160011
651.922	0.0158334
652.000	0.0159074
652.078	0.0159172
652.156	0.0161465
652.234	0.0159790
652.312	0.0158196
652.390	0.0160011
652.468	0.0160232
652.547	0.0160020
652.625	0.0160361
652.703	0.0159058
652.781	0.0158340
652.859	0.0160131
652.937	0.0159727
653.015	0.0160458
653.093	0.0159218
653.172	0.0160024
653.250	0.0159219
653.328	0.0158952
653.406	0.0159182
653.484	0.0158437
653.562	0.0160027
653.640	0.0159141
653.718	0.0158974
653.797	0.0157986
653.875	0.0158240
653.953	0.0157683
654.031	0.0158128
654.109	0.0159141
654.187	0.0157935
654.265	0.0158245
654.343	0.0159457
654.422	0.0156828
654.500	0.0158572
654.578	0.0158110
654.656	0.0157629
654.734	0.0159032
654.812	0.0158012
654.890	0.0157690
654.968	0.0156837
655.047	0.0157606
655.125	0.0157407
655.203	0.0157982
655.281	0.0158062
655.359	0.0157512
655.437	0.0156871
655.515	0.0156283
655.593	0.0157170
655.672	0.0158539
655.750	0.0158819
655.828	0.0156889
655.906	0.0157978
655.984	0.0157359
656.062	0.0156756
656.140	0.0157537
656.218	0.0157768
656.297	0.0157854
656.375	0.0156968
656.453	0.0157491
656.531	0.0157346
656.609	0.0155898
656.687	0.0156802
656.765	0.0157889
656.843	0.0157272
656.922	0.0156416
657.000	0.0158017
657.078	0.0157160
657.156	0.0158199
657.234	0.0157977
657.312	0.0157094
657.390	0.0156915
657.468	0.0159708
657.547	0.0158639
657.625	0.0158098
657.703	0.0157518
657.781	0.0157276
657.859	0.0158286
657.937	0.0157948
658.015	0.0157842
658.093	0.0158890
658.172	0.0157315
658.250	0.0158749
658.328	0.0158510
658.406	0.0157511
658.484	0.0157819
658.562	0.0157910
658.640	0.0157732
658.718	0.0157171
658.797	0.0157287
658.875	0.0157796
658.953	0.0158369
659.031	0.0159508
659.109	0.0158012
659.187	0.0157616
659.265	0.0158773
659.343	0.0157677
659.422	0.0157726
659.500	0.0157596
659.578	0.0157744
659.656	0.0157973
659.734	0.0157318
659.812	0.0157373
659.890	0.0158128
659.968	0.0158499
660.047	0.0158105
660.125	0.0158578
660.203	0.0156564
660.281	0.0158871
660.359	0.0157743
660.437	0.0156860
660.515	0.0157882
660.593	0.0157870
660.672	0.0158578
660.750	0.0158972
660.828	0.0159273
660.906	0.0158046
660.984	0.0158950
661.062	0.0158615
661.140	0.0158029
661.218	0.0156490
661.297	0.0158556
661.375	0.0157555
661.453	0.0158193
661.531	0.0159061
661.609	0.0158667
661.687	0.0158407
661.765	0.0158513
661.843	0.0159438
661.922	0.0160097
662.000	0.0159790
662.078	0.0158743
662.156	0.0158091
662.234	0.0157982
662.312	0.0159245
662.390	0.0158205
662.468	0.0158144
662.547	0.0159513
662.625	0.0158345
662.703	0.0159261
662.781	0.0160123
662.859	0.0159483
662.937	0.0159330
663.015	0.0158550
663.093	0.0160519
663.172	0.0160661
663.250	0.0159763
663.328	0.0159480
663.406	0.0158906
663.484	0.0160248
663.562	0.0159055
663.640	0.0158778
663.718	0.0158849
663.797	0.0159513
663.875	0.0160230
663.953	0.0159596
664.031	0.0159323
664.109	0.0158996
664.187	0.0158886
664.265	0.0158546
664.343	0.0159850
664.422	0.0159715
664.500	0.0158147
664.578	0.0159552
664.656	0.0161005
664.734	0.0159467
664.812	0.0159325
664.890	0.0160861
664.968	0.0158170
665.047	0.0158582
665.125	0.0160267
665.203	0.0159028
665.281	0.0159811
665.359	0.0159149
665.437	0.0161249
665.515	0.0160920
665.593	0.0160143
665.672	0.0159284
665.750	0.0160524
665.828	0.0160196
665.906	0.0158968
665.984	0.0159743
666.062	0.0158503
666.140	0.0160207
666.218	0.0159896
666.297	0.0160130
666.375	0.0160330
666.453	0.0160900
666.531	0.0160551
666.609	0.0159100
666.687	0.0161826
666.765	0.0161166
666.843	0.0159262
666.922	0.0158536
667.000	0.0160126
667.078	0.0158903
667.156	0.0159174
667.234	0.0160194
667.312	0.0160135
667.390	0.0160648
667.468	0.0159195
667.547	0.0160587
667.625	0.0160342
667.703	0.0161208
667.781	0.0159315
667.859	0.0160863
667.937	0.0160967
668.015	0.0160014
668.093	0.0160280
668.172	0.0159509
668.250	0.0159705
668.328	0.0160247
668.406	0.0159024
668.484	0.0159601
668.562	0.0160188
668.640	0.0161586
668.718	0.0160301
668.797	0.0159835
668.875	0.0159707
668.953	0.0160127
669.031	0.0162135
669.109	0.0160626
669.187	0.0158889
669.265	0.0161050
669.343	0.0160534
669.422	0.0160878
669.500	0.0160632
669.578	0.0159040
669.656	0.0158640
669.734	0.0159981
669.812	0.0160957
669.890	0.0159230
669.968	0.0159449
670.047	0.0159550
670.125	0.0159200
670.203	0.0159332
670.281	0.0159578
670.359	0.0159970
670.437	0.0160948
670.515	0.0159907
670.593	0.0159312
670.672	0.0159409
670.750	0.0159535
670.828	0.0159872
670.906	0.0158534
670.984	0.0160228
671.062	0.0160091
671.140	0.0158787
671.218	0.0159589
671.297	0.0158757
671.375	0.0159650
671.453	0.0160476
671.531	0.0159520
671.609	0.0159624
671.687	0.0159531
671.765	0.0160191
671.843	0.0160773
671.922	0.0159843
672.000	0.0158897
672.078	0.0158885
672.156	0.0159927
672.234	0.0159441
672.312	0.0160111
672.390	0.0158296
672.468	0.0159709
672.547	0.0159992
672.625	0.0160622
672.703	0.0159683
672.781	0.0160587
672.859	0.0159688
672.937	0.0159125
673.015	0.0159190
673.093	0.0159424
673.172	0.0158859
673.250	0.0158984
673.328	0.0160375
673.406	0.0159195
673.484	0.0159792
673.562	0.0158439
673.640	0.0158462
673.718	0.0159274
673.797	0.0159333
673.875	0.0158499
673.953	0.0159350
674.031	0.0159254
674.109	0.0159651
674.187	0.0160561
674.265	0.0159711
674.343	0.0159222
674.422	0.0158951
674.500	0.0159479
674.578	0.0157912
674.656	0.0160236
674.734	0.0158852
674.812	0.0157149
674.890	0.0159048
674.968	0.0158704
675.047	0.0159397
675.125	0.0159512
675.203	0.0157780
675.281	0.0158755
675.359	0.0158016
675.437	0.0157916
675.515	0.0158646
675.593	0.0158621
675.672	0.0159599
675.750	0.0159286
675.828	0.0159482
675.906	0.0160410
675.984	0.0158018
676.062	0.0158301
676.140	0.0159686
676.218	0.0159190
676.297	0.0158027
676.375	0.0158072
676.453	0.0159632
676.531	0.0158299
676.609	0.0158521
676.687	0.0159021
676.765	0.0159991
676.843	0.0158920
676.922	0.0158139
677.000	0.0158924
677.078	0.0158825
677.156	0.0157977
677.234	0.0157953
677.312	0.0158363
677.390	0.0158562
677.468	0.0158202
677.547	0.0159266
677.625	0.0159212
677.703	0.0158386
677.781	0.0157825
677.859	0.0157462
677.937	0.0157504
678.015	0.0158821
678.093	0.0158607
678.172	0.0157675
678.250	0.0157873
678.328	0.0158416
678.406	0.0159032
678.484	0.0157622
678.562	0.0157453
678.640	0.0157217
678.718	0.0158224
678.797	0.0157150
678.875	0.0156704
678.953	0.0158205
679.031	0.0158628
679.109	0.0158356
679.187	0.0157535
679.265	0.0157426
679.343	0.0158012
679.422	0.0158779
679.500	0.0158801
679.578	0.0157770
679.656	0.0158080
679.734	0.0158864
679.812	0.0158926
679.890	0.0158662
679.968	0.0158107
680.047	0.0158272
680.125	0.0158511
680.203	0.0158962
680.281	0.0158932
680.359	0.0158099
680.437	0.0157671
680.515	0.0157585
680.593	0.0158784
680.672	0.0158284
680.750	0.0158194
680.828	0.0159082
680.906	0.0156551
680.984	0.0158347
681.062	0.0158235
681.140	0.0158715
681.218	0.0158102
681.297	0.0158242
681.375	0.0158505
681.453	0.0156876
681.531	0.0159329
681.609	0.0158589
681.687	0.0156938
681.765	0.0157873
681.843	0.0158791
681.922	0.0158367
682.000	0.0158022
682.078	0.0158312
682.156	0.0156760
682.234	0.0158344
682.312	0.0158340
682.390	0.0159332
682.468	0.0158021
682.547	0.0158630
682.625	0.0157968
682.703	0.0159120
682.781	0.0158858
682.859	0.0158292
682.937	0.0158367
683.015	0.0158931
683.093	0.0159115
683.172	0.0159815
683.250	0.0158829
683.328	0.0157804
683.406	0.0158717
683.484	0.0159846
683.562	0.0159541
683.640	0.0159566
683.718	0.0157824
683.797	0.0157194
683.875	0.0159026
683.953	0.0157458
684.031	0.0158145
684.109	0.0159524
684.187	0.0158652
684.265	0.0160041
684.343	0.0159434
684.422	0.0158025
684.500	0.0159476
684.578	0.0158444
684.656	0.0159640
684.734	0.0160285
684.812	0.0160211
684.890	0.0158971
684.968	0.0159716
685.047	0.0158920
685.125	0.0160199
685.203	0.0159214
685.281	0.0160123
685.359	0.0158953
685.437	0.0160158
685.515	0.0159814
685.593	0.0159637
685.672	0.0159438
