06/13/2022	15:15:45	Ver.	4.1	UNKNOWN
Optical Delay	599.961724	Delta X		0.078125	Sweeps	1	Scan Rate	0/0
Coordinates	Axis 1	NaN	Axis 2	NaN	Axis 3	NaN	Axis 4	NaN	Axis 5	NaN	Axis 6	0.000000
TX Power	0.000000	RX Power	0.000000

599.962	0.0158065
600.040	0.0159342
600.118	0.0159409
600.196	0.0161107
600.274	0.0159341
600.352	0.0159266
600.430	0.0159794
600.509	0.0159658
600.587	0.0159014
600.665	0.0160812
600.743	0.0159753
600.821	0.0158945
600.899	0.0158826
600.977	0.0160799
601.055	0.0159029
601.134	0.0159125
601.212	0.0158263
601.290	0.0159126
601.368	0.0158997
601.446	0.0158067
601.524	0.0159595
601.602	0.0158990
601.680	0.0158277
601.759	0.0158546
601.837	0.0159551
601.915	0.0160278
601.993	0.0160009
602.071	0.0159888
602.149	0.0160142
602.227	0.0159596
602.305	0.0159929
602.384	0.0161459
602.462	0.0160494
602.540	0.0160557
602.618	0.0160514
602.696	0.0159995
602.774	0.0160381
602.852	0.0159404
602.930	0.0161266
603.009	0.0159677
603.087	0.0159913
603.165	0.0160680
603.243	0.0158624
603.321	0.0159559
603.399	0.0160738
603.477	0.0160155
603.555	0.0161256
603.634	0.0161844
603.712	0.0160172
603.790	0.0159809
603.868	0.0160596
603.946	0.0161109
604.024	0.0158870
604.102	0.0159014
604.180	0.0161198
604.259	0.0159587
604.337	0.0160239
604.415	0.0160769
604.493	0.0160404
604.571	0.0159720
604.649	0.0159161
604.727	0.0160313
604.805	0.0159879
604.884	0.0160092
604.962	0.0160100
605.040	0.0159946
605.118	0.0159991
605.196	0.0161830
605.274	0.0159773
605.352	0.0158982
605.430	0.0159515
605.509	0.0160249
605.587	0.0160847
605.665	0.0161215
605.743	0.0160909
605.821	0.0160610
605.899	0.0161572
605.977	0.0160658
606.055	0.0162042
606.134	0.0161449
606.212	0.0161228
606.290	0.0160649
606.368	0.0161454
606.446	0.0161832
606.524	0.0162026
606.602	0.0160151
606.680	0.0161324
606.759	0.0162566
606.837	0.0162300
606.915	0.0161165
606.993	0.0161831
607.071	0.0161841
607.149	0.0162350
607.227	0.0161366
607.305	0.0162376
607.384	0.0160783
607.462	0.0160294
607.540	0.0161485
607.618	0.0161707
607.696	0.0161654
607.774	0.0161538
607.852	0.0160935
607.930	0.0160909
608.009	0.0161610
608.087	0.0159618
608.165	0.0160622
608.243	0.0161469
608.321	0.0161207
608.399	0.0160809
608.477	0.0161103
608.555	0.0160541
608.634	0.0160620
608.712	0.0159262
608.790	0.0159634
608.868	0.0161073
608.946	0.0161910
609.024	0.0160454
609.102	0.0161039
609.180	0.0161379
609.259	0.0159580
609.337	0.0160912
609.415	0.0159973
609.493	0.0159630
609.571	0.0160828
609.649	0.0160818
609.727	0.0160284
609.805	0.0159502
609.884	0.0160233
609.962	0.0161208
610.040	0.0162360
610.118	0.0159788
610.196	0.0159212
610.274	0.0160204
610.352	0.0161497
610.430	0.0161122
610.509	0.0159930
610.587	0.0160691
610.665	0.0162495
610.743	0.0160487
610.821	0.0161244
610.899	0.0161792
610.977	0.0161064
611.055	0.0160757
611.134	0.0162023
611.212	0.0161273
611.290	0.0162320
611.368	0.0162052
611.446	0.0161465
611.524	0.0161164
611.602	0.0161052
611.680	0.0162471
611.759	0.0163422
611.837	0.0162211
611.915	0.0160967
611.993	0.0163067
612.071	0.0162569
612.149	0.0161832
612.227	0.0162331
612.305	0.0160329
612.384	0.0162439
612.462	0.0162080
612.540	0.0162844
612.618	0.0160970
612.696	0.0161523
612.774	0.0161306
612.852	0.0160637
612.930	0.0162415
613.009	0.0161801
613.087	0.0161355
613.165	0.0161774
613.243	0.0159986
613.321	0.0161171
613.399	0.0159879
613.477	0.0159486
613.555	0.0159325
613.634	0.0157994
613.712	0.0160120
613.790	0.0159878
613.868	0.0159301
613.946	0.0159668
614.024	0.0159168
614.102	0.0160008
614.180	0.0158305
614.259	0.0158212
614.337	0.0159325
614.415	0.0160025
614.493	0.0157724
614.571	0.0158768
614.649	0.0159995
614.727	0.0159897
614.805	0.0161129
614.884	0.0161478
614.962	0.0159872
615.040	0.0159898
615.118	0.0160879
615.196	0.0159998
615.274	0.0159404
615.352	0.0159896
615.430	0.0160633
615.509	0.0160564
615.587	0.0159906
615.665	0.0159922
615.743	0.0160336
615.821	0.0161005
615.899	0.0159970
615.977	0.0160270
616.055	0.0160807
616.134	0.0160320
616.212	0.0159699
616.290	0.0160249
616.368	0.0161255
616.446	0.0159367
616.524	0.0159243
616.602	0.0159956
616.680	0.0161018
616.759	0.0159983
616.837	0.0160973
616.915	0.0160218
616.993	0.0160305
617.071	0.0161352
617.149	0.0159769
617.227	0.0158974
617.305	0.0159335
617.384	0.0160355
617.462	0.0159510
617.540	0.0160462
617.618	0.0160146
617.696	0.0158293
617.774	0.0160541
617.852	0.0159966
617.930	0.0158376
618.009	0.0158759
618.087	0.0159991
618.165	0.0159650
618.243	0.0158927
618.321	0.0158793
618.399	0.0159808
618.477	0.0160394
618.555	0.0159689
618.634	0.0158437
618.712	0.0160014
618.790	0.0158659
618.868	0.0159148
618.946	0.0158485
619.024	0.0159533
619.102	0.0158502
619.180	0.0158222
619.259	0.0158961
619.337	0.0160091
619.415	0.0158940
619.493	0.0158849
619.571	0.0158360
619.649	0.0159389
619.727	0.0159415
619.805	0.0159055
619.884	0.0159509
619.962	0.0158502
620.040	0.0158672
620.118	0.0158791
620.196	0.0158569
620.274	0.0158546
620.352	0.0158130
620.430	0.0158009
620.509	0.0158234
620.587	0.0158060
620.665	0.0157654
620.743	0.0155781
620.821	0.0157921
620.899	0.0158421
620.977	0.0156741
621.055	0.0156643
621.134	0.0155653
621.212	0.0156264
621.290	0.0156123
621.368	0.0155122
621.446	0.0156075
621.524	0.0155756
621.602	0.0154098
621.680	0.0154324
621.759	0.0154390
621.837	0.0155733
621.915	0.0155145
621.993	0.0154166
622.071	0.0153566
622.149	0.0154857
622.227	0.0154544
622.305	0.0154726
622.384	0.0154328
622.462	0.0154817
622.540	0.0155584
622.618	0.0155507
622.696	0.0156036
622.774	0.0155603
622.852	0.0155643
622.930	0.0155056
623.009	0.0156746
623.087	0.0155743
623.165	0.0156163
623.243	0.0156604
623.321	0.0156523
623.399	0.0158158
623.477	0.0158198
623.555	0.0157309
623.634	0.0156423
623.712	0.0159107
623.790	0.0157858
623.868	0.0158862
623.946	0.0158531
624.024	0.0158580
624.102	0.0157803
624.180	0.0158363
624.259	0.0157418
624.337	0.0160704
624.415	0.0159009
624.493	0.0158583
624.571	0.0158913
624.649	0.0159859
624.727	0.0159541
624.805	0.0159274
624.884	0.0157923
624.962	0.0158759
625.040	0.0158621
625.118	0.0158002
625.196	0.0158987
625.274	0.0158345
625.352	0.0159087
625.430	0.0159279
625.509	0.0159187
625.587	0.0159662
625.665	0.0157937
625.743	0.0159171
625.821	0.0159960
625.899	0.0159415
625.977	0.0159441
626.055	0.0160275
626.134	0.0159443
626.212	0.0159712
626.290	0.0159808
626.368	0.0160465
626.446	0.0160208
626.524	0.0160799
626.602	0.0160165
626.680	0.0159505
626.759	0.0161032
626.837	0.0161086
626.915	0.0160954
626.993	0.0160653
627.071	0.0160264
627.149	0.0161754
627.227	0.0160189
627.305	0.0160789
627.384	0.0161072
627.462	0.0162466
627.540	0.0160762
627.618	0.0161494
627.696	0.0162469
627.774	0.0161283
627.852	0.0161951
627.930	0.0161181
628.009	0.0161203
628.087	0.0161711
628.165	0.0160935
628.243	0.0162981
628.321	0.0162947
628.399	0.0160643
628.477	0.0160751
628.555	0.0162341
628.634	0.0160596
628.712	0.0162110
628.790	0.0161578
628.868	0.0161997
628.946	0.0161333
629.024	0.0162144
629.102	0.0162387
629.180	0.0161369
629.259	0.0160489
629.337	0.0162467
629.415	0.0162015
629.493	0.0161069
629.571	0.0160647
629.649	0.0160636
629.727	0.0160728
629.805	0.0161492
629.884	0.0161411
629.962	0.0161964
630.040	0.0163023
630.118	0.0163039
630.196	0.0161605
630.274	0.0160922
630.352	0.0161704
630.430	0.0163225
630.509	0.0162560
630.587	0.0162478
630.665	0.0162717
630.743	0.0162351
630.821	0.0162662
630.899	0.0161942
630.977	0.0162117
631.055	0.0162092
631.134	0.0161700
631.212	0.0161226
631.290	0.0161488
631.368	0.0162286
631.446	0.0161845
631.524	0.0161275
631.602	0.0161732
631.680	0.0160892
631.759	0.0160787
631.837	0.0161196
631.915	0.0161028
631.993	0.0159743
632.071	0.0160323
632.149	0.0161372
632.227	0.0160936
632.305	0.0159853
632.384	0.0161183
632.462	0.0161485
632.540	0.0160409
632.618	0.0159888
632.696	0.0159455
632.774	0.0160654
632.852	0.0160042
632.930	0.0160690
633.009	0.0161497
633.087	0.0159377
633.165	0.0160183
633.243	0.0160229
633.321	0.0160450
633.399	0.0160271
633.477	0.0158693
633.555	0.0159155
633.634	0.0159284
633.712	0.0158746
633.790	0.0160861
633.868	0.0161394
633.946	0.0160740
634.024	0.0160359
634.102	0.0161559
634.180	0.0159905
634.259	0.0160537
634.337	0.0160413
634.415	0.0160990
634.493	0.0160547
634.571	0.0160442
634.649	0.0160562
634.727	0.0161566
634.805	0.0159772
634.884	0.0161071
634.962	0.0160971
635.040	0.0161700
635.118	0.0161365
635.196	0.0160549
635.274	0.0161044
635.352	0.0160925
635.430	0.0160340
635.509	0.0161016
635.587	0.0160881
635.665	0.0160260
635.743	0.0159818
635.821	0.0159098
635.899	0.0160750
635.977	0.0160513
636.055	0.0160991
636.134	0.0162753
636.212	0.0161118
636.290	0.0159008
636.368	0.0159005
636.446	0.0159984
636.524	0.0160378
636.602	0.0160569
636.680	0.0161015
636.759	0.0160212
636.837	0.0159702
636.915	0.0160157
636.993	0.0159068
637.071	0.0160699
637.149	0.0160903
637.227	0.0160090
637.305	0.0160831
637.384	0.0160326
637.462	0.0160441
637.540	0.0160873
637.618	0.0160878
637.696	0.0161222
637.774	0.0161121
637.852	0.0160724
637.930	0.0159810
638.009	0.0160310
638.087	0.0159256
638.165	0.0160326
638.243	0.0160995
638.321	0.0160204
638.399	0.0162068
638.477	0.0159940
638.555	0.0159561
638.634	0.0159251
638.712	0.0160609
638.790	0.0159516
638.868	0.0161239
638.946	0.0160794
639.024	0.0158317
639.102	0.0158886
639.180	0.0159682
639.259	0.0158942
639.337	0.0159367
639.415	0.0160446
639.493	0.0158812
639.571	0.0158788
639.649	0.0159200
639.727	0.0158460
639.805	0.0159373
639.884	0.0158287
639.962	0.0158025
640.040	0.0159892
640.118	0.0159055
640.196	0.0158327
640.274	0.0158441
640.352	0.0159715
640.430	0.0158622
640.509	0.0158928
640.587	0.0159325
640.665	0.0159016
640.743	0.0159846
640.821	0.0159133
640.899	0.0158270
640.977	0.0159647
641.055	0.0158981
641.134	0.0159013
641.212	0.0159615
641.290	0.0160340
641.368	0.0157895
641.446	0.0159099
641.524	0.0156997
641.602	0.0158523
641.680	0.0158725
641.759	0.0158195
641.837	0.0156768
641.915	0.0158709
641.993	0.0159544
642.071	0.0160386
642.149	0.0157845
642.227	0.0158634
642.305	0.0159021
642.384	0.0158354
642.462	0.0158195
642.540	0.0159562
642.618	0.0158105
642.696	0.0156779
642.774	0.0158757
642.852	0.0159502
642.930	0.0160292
643.009	0.0156723
643.087	0.0157222
643.165	0.0159994
643.243	0.0158744
643.321	0.0157358
643.399	0.0157607
643.477	0.0157251
643.555	0.0158605
643.634	0.0157145
643.712	0.0157601
643.790	0.0158165
643.868	0.0157008
643.946	0.0157349
644.024	0.0158160
644.102	0.0158755
644.180	0.0157899
644.259	0.0157744
644.337	0.0159014
644.415	0.0157196
644.493	0.0158501
644.571	0.0158324
644.649	0.0156971
644.727	0.0157116
644.805	0.0158616
644.884	0.0159219
644.962	0.0157864
645.040	0.0157027
645.118	0.0157825
645.196	0.0159042
645.274	0.0156977
645.352	0.0157389
645.430	0.0159654
645.509	0.0158698
645.587	0.0160170
645.665	0.0158188
645.743	0.0159831
645.821	0.0160363
645.899	0.0160338
645.977	0.0158960
646.055	0.0157870
646.134	0.0159538
646.212	0.0158192
646.290	0.0160789
646.368	0.0158454
646.446	0.0157835
646.524	0.0158836
646.602	0.0160031
646.680	0.0157632
646.759	0.0159273
646.837	0.0159462
646.915	0.0160309
646.993	0.0158815
647.071	0.0158988
647.149	0.0158984
647.227	0.0160565
647.305	0.0160104
647.384	0.0160790
647.462	0.0160506
647.540	0.0159610
647.618	0.0159592
647.696	0.0161077
647.774	0.0160137
647.852	0.0159827
647.930	0.0159387
648.009	0.0160251
648.087	0.0159901
648.165	0.0159952
648.243	0.0159718
648.321	0.0158794
648.399	0.0159467
648.477	0.0160943
648.555	0.0160849
648.634	0.0160802
648.712	0.0159972
648.790	0.0161005
648.868	0.0160786
648.946	0.0160612
649.024	0.0161027
649.102	0.0160242
649.180	0.0160307
649.259	0.0161491
649.337	0.0160953
649.415	0.0160800
649.493	0.0160026
649.571	0.0159211
649.649	0.0159779
649.727	0.0160725
649.805	0.0160785
649.884	0.0160388
649.962	0.0160890
650.040	0.0158408
650.118	0.0160490
650.196	0.0160737
650.274	0.0160213
650.352	0.0160255
650.430	0.0160303
650.509	0.0161158
650.587	0.0160559
650.665	0.0159323
650.743	0.0159296
650.821	0.0159796
650.899	0.0160623
650.977	0.0159805
651.055	0.0159583
651.134	0.0160828
651.212	0.0159891
651.290	0.0160029
651.368	0.0160212
651.446	0.0160872
651.524	0.0159864
651.602	0.0160639
651.680	0.0160573
651.759	0.0161549
651.837	0.0160506
651.915	0.0161133
651.993	0.0160647
652.071	0.0160473
652.149	0.0162199
652.227	0.0161512
652.305	0.0160144
652.384	0.0160603
652.462	0.0160567
652.540	0.0161618
652.618	0.0160683
652.696	0.0160126
652.774	0.0160236
652.852	0.0159406
652.930	0.0159058
653.009	0.0159261
653.087	0.0160598
653.165	0.0159930
653.243	0.0160020
653.321	0.0160512
653.399	0.0159961
653.477	0.0160280
653.555	0.0159629
653.634	0.0158394
653.712	0.0159568
653.790	0.0160014
653.868	0.0160384
653.946	0.0159218
654.024	0.0159631
654.102	0.0159898
654.180	0.0158317
654.259	0.0160128
654.337	0.0159148
654.415	0.0157891
654.493	0.0159561
654.571	0.0159632
654.649	0.0158684
654.727	0.0160032
654.805	0.0158949
654.884	0.0160381
654.962	0.0159173
655.040	0.0160201
655.118	0.0159943
655.196	0.0159135
655.274	0.0159365
655.352	0.0161350
655.430	0.0160467
655.509	0.0158920
655.587	0.0158560
655.665	0.0159660
655.743	0.0160245
655.821	0.0158940
655.899	0.0159667
655.977	0.0160632
656.055	0.0161131
656.134	0.0160471
656.212	0.0160381
656.290	0.0161131
656.368	0.0161089
656.446	0.0161874
656.524	0.0161291
656.602	0.0159982
656.680	0.0160307
656.759	0.0161731
656.837	0.0161087
656.915	0.0161495
656.993	0.0161755
657.071	0.0162280
657.149	0.0161680
657.227	0.0162457
657.305	0.0162917
657.384	0.0159915
657.462	0.0160529
657.540	0.0161409
657.618	0.0161005
657.696	0.0161031
657.774	0.0161758
657.852	0.0161515
657.930	0.0160727
658.009	0.0161760
658.087	0.0161320
658.165	0.0160973
658.243	0.0161140
658.321	0.0160575
658.399	0.0162033
658.477	0.0160764
658.555	0.0161733
658.634	0.0159592
658.712	0.0162027
658.790	0.0160628
658.868	0.0160971
658.946	0.0160540
659.024	0.0160074
659.102	0.0162089
659.180	0.0161105
659.259	0.0160385
659.337	0.0160162
659.415	0.0161057
659.493	0.0159126
659.571	0.0159880
659.649	0.0159718
659.727	0.0160748
659.805	0.0159258
659.884	0.0159379
659.962	0.0159809
660.040	0.0159938
660.118	0.0160445
660.196	0.0159476
660.274	0.0159064
660.352	0.0159490
660.430	0.0159944
660.509	0.0160367
660.587	0.0159808
660.665	0.0159562
660.743	0.0159914
660.821	0.0159035
660.899	0.0159568
660.977	0.0158530
661.055	0.0160133
661.134	0.0160258
661.212	0.0159330
661.290	0.0158919
661.368	0.0159643
661.446	0.0158264
661.524	0.0158697
661.602	0.0158716
661.680	0.0159012
661.759	0.0159589
661.837	0.0159027
661.915	0.0158965
661.993	0.0158525
662.071	0.0157070
662.149	0.0158986
662.227	0.0157886
662.305	0.0159219
662.384	0.0160443
662.462	0.0159093
662.540	0.0159628
662.618	0.0158689
662.696	0.0158224
662.774	0.0159119
662.852	0.0159023
662.930	0.0159015
663.009	0.0159435
663.087	0.0160439
663.165	0.0157991
663.243	0.0158418
663.321	0.0159233
663.399	0.0159641
663.477	0.0159400
663.555	0.0158425
663.634	0.0159095
663.712	0.0158059
663.790	0.0159790
663.868	0.0158730
663.946	0.0158167
664.024	0.0158804
664.102	0.0158859
664.180	0.0158560
664.259	0.0157579
664.337	0.0158574
664.415	0.0157795
664.493	0.0158520
664.571	0.0158524
664.649	0.0159248
664.727	0.0158968
664.805	0.0158012
664.884	0.0159221
664.962	0.0157462
665.040	0.0158232
665.118	0.0158467
665.196	0.0158151
665.274	0.0157691
665.352	0.0158653
665.430	0.0158852
665.509	0.0157676
665.587	0.0158031
665.665	0.0157899
665.743	0.0158014
665.821	0.0157935
665.899	0.0157537
665.977	0.0159456
666.055	0.0157841
666.134	0.0157743
666.212	0.0157989
666.290	0.0157787
666.368	0.0156644
666.446	0.0157360
666.524	0.0158230
666.602	0.0158834
666.680	0.0158148
666.759	0.0158604
666.837	0.0158833
666.915	0.0158833
666.993	0.0158460
667.071	0.0159467
667.149	0.0158441
667.227	0.0158688
667.305	0.0158748
667.384	0.0159344
667.462	0.0159042
667.540	0.0158166
667.618	0.0157558
667.696	0.0157075
667.774	0.0157420
667.852	0.0158819
667.930	0.0157591
668.009	0.0157579
668.087	0.0158199
668.165	0.0159753
668.243	0.0157310
668.321	0.0159574
668.399	0.0158123
668.477	0.0157545
668.555	0.0157816
668.634	0.0158867
668.712	0.0156815
668.790	0.0157763
668.868	0.0157771
668.946	0.0157864
669.024	0.0157052
669.102	0.0157342
669.180	0.0157938
669.259	0.0158042
669.337	0.0158357
669.415	0.0157626
669.493	0.0158314
669.571	0.0159310
669.649	0.0158941
669.727	0.0157834
669.805	0.0159184
669.884	0.0159392
669.962	0.0159972
670.040	0.0158508
670.118	0.0158276
670.196	0.0157933
670.274	0.0160039
670.352	0.0159077
670.430	0.0160101
670.509	0.0159346
670.587	0.0160528
670.665	0.0159105
670.743	0.0159109
670.821	0.0160457
670.899	0.0161201
670.977	0.0159538
671.055	0.0159007
671.134	0.0160690
671.212	0.0160244
671.290	0.0159280
671.368	0.0158946
671.446	0.0159570
671.524	0.0161202
671.602	0.0160367
671.680	0.0160297
671.759	0.0159492
671.837	0.0159363
671.915	0.0160210
671.993	0.0159981
672.071	0.0159827
672.149	0.0160222
672.227	0.0158996
672.305	0.0159116
672.384	0.0160596
672.462	0.0160685
672.540	0.0159503
672.618	0.0159527
672.696	0.0160410
672.774	0.0160201
672.852	0.0161441
672.930	0.0160821
673.009	0.0160326
673.087	0.0159588
673.165	0.0159859
673.243	0.0160675
673.321	0.0159956
673.399	0.0159815
673.477	0.0162424
673.555	0.0160251
673.634	0.0161138
673.712	0.0160741
673.790	0.0159833
673.868	0.0159554
673.946	0.0161382
674.024	0.0161277
674.102	0.0161060
674.180	0.0161201
674.259	0.0160571
674.337	0.0161124
674.415	0.0160297
674.493	0.0160291
674.571	0.0161162
674.649	0.0160449
674.727	0.0160403
674.805	0.0161088
674.884	0.0161649
674.962	0.0161067
675.040	0.0160185
675.118	0.0160156
675.196	0.0160333
675.274	0.0160651
675.352	0.0161800
675.430	0.0161382
675.509	0.0162271
675.587	0.0160601
675.665	0.0159205
675.743	0.0160268
675.821	0.0161000
675.899	0.0161539
675.977	0.0160928
676.055	0.0161423
676.134	0.0161880
676.212	0.0160550
676.290	0.0160712
676.368	0.0159559
676.446	0.0159641
676.524	0.0161784
676.602	0.0161759
676.680	0.0160001
676.759	0.0160133
676.837	0.0160288
676.915	0.0160149
676.993	0.0159876
677.071	0.0160304
677.149	0.0160140
677.227	0.0160017
677.305	0.0160972
677.384	0.0160645
677.462	0.0160041
677.540	0.0159158
677.618	0.0161156
677.696	0.0161174
677.774	0.0160835
677.852	0.0160027
677.930	0.0161317
678.009	0.0160692
678.087	0.0159506
678.165	0.0159243
678.243	0.0160560
678.321	0.0160365
678.399	0.0161052
678.477	0.0161266
678.555	0.0160009
678.634	0.0160870
678.712	0.0160138
678.790	0.0159739
678.868	0.0160199
678.946	0.0160287
679.024	0.0160201
679.102	0.0160183
679.180	0.0160931
679.259	0.0159440
679.337	0.0158731
679.415	0.0159902
679.493	0.0159431
679.571	0.0158546
679.649	0.0159461
679.727	0.0159190
679.805	0.0159132
679.884	0.0160276
679.962	0.0158678
680.040	0.0159058
680.118	0.0159351
680.196	0.0158950
680.274	0.0160619
680.352	0.0160340
680.430	0.0159563
680.509	0.0159194
680.587	0.0159627
680.665	0.0159704
680.743	0.0160324
680.821	0.0159971
680.899	0.0160088
680.977	0.0159898
681.055	0.0159029
681.134	0.0159048
681.212	0.0160132
681.290	0.0159740
681.368	0.0160432
681.446	0.0160125
681.524	0.0159867
681.602	0.0159328
681.680	0.0159011
681.759	0.0160016
681.837	0.0160790
681.915	0.0159744
681.993	0.0159331
682.071	0.0159489
682.149	0.0160153
682.227	0.0160205
682.305	0.0159239
682.384	0.0158261
682.462	0.0159550
682.540	0.0158776
682.618	0.0158298
682.696	0.0158363
682.774	0.0158356
682.852	0.0158871
682.930	0.0158321
683.009	0.0158219
683.087	0.0159003
683.165	0.0159122
683.243	0.0159035
683.321	0.0158599
683.399	0.0160360
683.477	0.0159386
683.555	0.0157890
683.634	0.0157912
683.712	0.0159450
683.790	0.0160096
683.868	0.0158800
683.946	0.0159904
684.024	0.0158984
684.102	0.0158973
684.180	0.0158216
684.259	0.0159539
684.337	0.0160068
684.415	0.0160696
684.493	0.0158356
684.571	0.0159286
684.649	0.0159840
684.727	0.0159116
684.805	0.0159253
684.884	0.0160055
684.962	0.0158830
685.040	0.0159811
685.118	0.0158121
685.196	0.0158948
685.274	0.0159756
685.352	0.0159371
685.430	0.0158739
685.509	0.0159478
685.587	0.0160944
685.665	0.0158661
