06/13/2022	15:16:20	Ver.	4.1	UNKNOWN
Optical Delay	599.961724	Delta X		0.078125	Sweeps	1	Scan Rate	0/0
Coordinates	Axis 1	NaN	Axis 2	NaN	Axis 3	NaN	Axis 4	NaN	Axis 5	NaN	Axis 6	0.000000
TX Power	0.000000	RX Power	0.000000

599.962	0.0159420
600.040	0.0161639
600.118	0.0160688
600.196	0.0160678
600.274	0.0159663
600.352	0.0159743
600.430	0.0159941
600.509	0.0160278
600.587	0.0160164
600.665	0.0159961
600.743	0.0161483
600.821	0.0161879
600.899	0.0160691
600.977	0.0161072
601.055	0.0160184
601.134	0.0159536
601.212	0.0160252
601.290	0.0159892
601.368	0.0160410
601.446	0.0160754
601.524	0.0160036
601.602	0.0161442
601.680	0.0160722
601.759	0.0160513
601.837	0.0161099
601.915	0.0161461
601.993	0.0162144
602.071	0.0160707
602.149	0.0161369
602.227	0.0161155
602.305	0.0161114
602.384	0.0163280
602.462	0.0161221
602.540	0.0163033
602.618	0.0161369
602.696	0.0160685
602.774	0.0161824
602.852	0.0160094
602.930	0.0161022
603.009	0.0159816
603.087	0.0160423
603.165	0.0161345
603.243	0.0162077
603.321	0.0161141
603.399	0.0160950
603.477	0.0160982
603.555	0.0161504
603.634	0.0159650
603.712	0.0160580
603.790	0.0160330
603.868	0.0161455
603.946	0.0161075
604.024	0.0159904
604.102	0.0160382
604.180	0.0160796
604.259	0.0161027
604.337	0.0160227
604.415	0.0160067
604.493	0.0160417
604.571	0.0159956
604.649	0.0161384
604.727	0.0159151
604.805	0.0160420
604.884	0.0159093
604.962	0.0159858
605.040	0.0160561
605.118	0.0160001
605.196	0.0161245
605.274	0.0159818
605.352	0.0160771
605.430	0.0160448
605.509	0.0160498
605.587	0.0160882
605.665	0.0160380
605.743	0.0159608
605.821	0.0160197
605.899	0.0159638
605.977	0.0159391
606.055	0.0159544
606.134	0.0159909
606.212	0.0159300
606.290	0.0160326
606.368	0.0159643
606.446	0.0160020
606.524	0.0159603
606.602	0.0159576
606.680	0.0160115
606.759	0.0158183
606.837	0.0158861
606.915	0.0160961
606.993	0.0161798
607.071	0.0160944
607.149	0.0159789
607.227	0.0160948
607.305	0.0161182
607.384	0.0161031
607.462	0.0160166
607.540	0.0159959
607.618	0.0161725
607.696	0.0159969
607.774	0.0161135
607.852	0.0161762
607.930	0.0161382
608.009	0.0161649
608.087	0.0162656
608.165	0.0162134
608.243	0.0161983
608.321	0.0162013
608.399	0.0161878
608.477	0.0162887
608.555	0.0162404
608.634	0.0161163
608.712	0.0163671
608.790	0.0162620
608.868	0.0162447
608.946	0.0162512
609.024	0.0161504
609.102	0.0161891
609.180	0.0161585
609.259	0.0162292
609.337	0.0160916
609.415	0.0161147
609.493	0.0161525
609.571	0.0160558
609.649	0.0160351
609.727	0.0160205
609.805	0.0158879
609.884	0.0161140
609.962	0.0160986
610.040	0.0160381
610.118	0.0160840
610.196	0.0160511
610.274	0.0160229
610.352	0.0161151
610.430	0.0159164
610.509	0.0161566
610.587	0.0159566
610.665	0.0161513
610.743	0.0159653
610.821	0.0159395
610.899	0.0159699
610.977	0.0159986
611.055	0.0160492
611.134	0.0161996
611.212	0.0160337
611.290	0.0160368
611.368	0.0159661
611.446	0.0158959
611.524	0.0159625
611.602	0.0160252
611.680	0.0159441
611.759	0.0161000
611.837	0.0160804
611.915	0.0158628
611.993	0.0159148
612.071	0.0161479
612.149	0.0159859
612.227	0.0160785
612.305	0.0159998
612.384	0.0160589
612.462	0.0160712
612.540	0.0160551
612.618	0.0160860
612.696	0.0160415
612.774	0.0159830
612.852	0.0159963
612.930	0.0161662
613.009	0.0161462
613.087	0.0159703
613.165	0.0160164
613.243	0.0161925
613.321	0.0160661
613.399	0.0161164
613.477	0.0160624
613.555	0.0159583
613.634	0.0159966
613.712	0.0159906
613.790	0.0160731
613.868	0.0158283
613.946	0.0159189
614.024	0.0159641
614.102	0.0160577
614.180	0.0159484
614.259	0.0158021
614.337	0.0158881
614.415	0.0158353
614.493	0.0158469
614.571	0.0158262
614.649	0.0157813
614.727	0.0156991
614.805	0.0158443
614.884	0.0157975
614.962	0.0158674
615.040	0.0158746
615.118	0.0158363
615.196	0.0159255
615.274	0.0158164
615.352	0.0159172
615.430	0.0159270
615.509	0.0158203
615.587	0.0159855
615.665	0.0159120
615.743	0.0157952
615.821	0.0158971
615.899	0.0159314
615.977	0.0159755
616.055	0.0158076
616.134	0.0158276
616.212	0.0158326
616.290	0.0158327
616.368	0.0157700
616.446	0.0158083
616.524	0.0157447
616.602	0.0157034
616.680	0.0156320
616.759	0.0157331
616.837	0.0157288
616.915	0.0156509
616.993	0.0155625
617.071	0.0155694
617.149	0.0154762
617.227	0.0155344
617.305	0.0155250
617.384	0.0155397
617.462	0.0154336
617.540	0.0154343
617.618	0.0155377
617.696	0.0154110
617.774	0.0156255
617.852	0.0154676
617.930	0.0153317
618.009	0.0153272
618.087	0.0154327
618.165	0.0153608
618.243	0.0153330
618.321	0.0154682
618.399	0.0153727
618.477	0.0153034
618.555	0.0154536
618.634	0.0154891
618.712	0.0155053
618.790	0.0156398
618.868	0.0154015
618.946	0.0154421
619.024	0.0155195
619.102	0.0156799
619.180	0.0154897
619.259	0.0155703
619.337	0.0156461
619.415	0.0154892
619.493	0.0156976
619.571	0.0157314
619.649	0.0157649
619.727	0.0156506
619.805	0.0157779
619.884	0.0157527
619.962	0.0157931
620.040	0.0158711
620.118	0.0157066
620.196	0.0157628
620.274	0.0159462
620.352	0.0157950
620.430	0.0158918
620.509	0.0157121
620.587	0.0160218
620.665	0.0159410
620.743	0.0159050
620.821	0.0158772
620.899	0.0157906
620.977	0.0157801
621.055	0.0158978
621.134	0.0158820
621.212	0.0158965
621.290	0.0158449
621.368	0.0158949
621.446	0.0159943
621.524	0.0158672
621.602	0.0157365
621.680	0.0157284
621.759	0.0159440
621.837	0.0158554
621.915	0.0159905
621.993	0.0157466
622.071	0.0159389
622.149	0.0160487
622.227	0.0159657
622.305	0.0159762
622.384	0.0161028
622.462	0.0160614
622.540	0.0159497
622.618	0.0159663
622.696	0.0161593
622.774	0.0161802
622.852	0.0160403
622.930	0.0160518
623.009	0.0161996
623.087	0.0161674
623.165	0.0161829
623.243	0.0161671
623.321	0.0160151
623.399	0.0160415
623.477	0.0161378
623.555	0.0160955
623.634	0.0162325
623.712	0.0160950
623.790	0.0161419
623.868	0.0163039
623.946	0.0162575
624.024	0.0161586
624.102	0.0161701
624.180	0.0161636
624.259	0.0161461
624.337	0.0161069
624.415	0.0160509
624.493	0.0160490
624.571	0.0161114
624.649	0.0160787
624.727	0.0161340
624.805	0.0162520
624.884	0.0162343
624.962	0.0162570
625.040	0.0162866
625.118	0.0162653
625.196	0.0159919
625.274	0.0162127
625.352	0.0162122
625.430	0.0162501
625.509	0.0162437
625.587	0.0161429
625.665	0.0162073
625.743	0.0162229
625.821	0.0160178
625.899	0.0162508
625.977	0.0161478
626.055	0.0160445
626.134	0.0160931
626.212	0.0162647
626.290	0.0162322
626.368	0.0160367
626.446	0.0161286
626.524	0.0160865
626.602	0.0161852
626.680	0.0161197
626.759	0.0161298
626.837	0.0160203
626.915	0.0162132
626.993	0.0161344
627.071	0.0159919
627.149	0.0160251
627.227	0.0159836
627.305	0.0160502
627.384	0.0160698
627.462	0.0159501
627.540	0.0159389
627.618	0.0160608
627.696	0.0160654
627.774	0.0160388
627.852	0.0161136
627.930	0.0159521
628.009	0.0160709
628.087	0.0162012
628.165	0.0159546
628.243	0.0161079
628.321	0.0161620
628.399	0.0160143
628.477	0.0159941
628.555	0.0160733
628.634	0.0161316
628.712	0.0159370
628.790	0.0160330
628.868	0.0161124
628.946	0.0160904
629.024	0.0160795
629.102	0.0161402
629.180	0.0160741
629.259	0.0159845
629.337	0.0158195
629.415	0.0160229
629.493	0.0160225
629.571	0.0160273
629.649	0.0159959
629.727	0.0159460
629.805	0.0159334
629.884	0.0159251
629.962	0.0160600
630.040	0.0159990
630.118	0.0160326
630.196	0.0160923
630.274	0.0161584
630.352	0.0160741
630.430	0.0160002
630.509	0.0159708
630.587	0.0160723
630.665	0.0161366
630.743	0.0160220
630.821	0.0160261
630.899	0.0160287
630.977	0.0160367
631.055	0.0161504
631.134	0.0159534
631.212	0.0160271
631.290	0.0161904
631.368	0.0160368
631.446	0.0162244
631.524	0.0160054
631.602	0.0160550
631.680	0.0161062
631.759	0.0160837
631.837	0.0160529
631.915	0.0161054
631.993	0.0160725
632.071	0.0158950
632.149	0.0160732
632.227	0.0160449
632.305	0.0159214
632.384	0.0160305
632.462	0.0160452
632.540	0.0160280
632.618	0.0160228
632.696	0.0159496
632.774	0.0160073
632.852	0.0160317
632.930	0.0160447
633.009	0.0160369
633.087	0.0159705
633.165	0.0159789
633.243	0.0159475
633.321	0.0159677
633.399	0.0160644
633.477	0.0159585
633.555	0.0159609
633.634	0.0159386
633.712	0.0161241
633.790	0.0160166
633.868	0.0160610
633.946	0.0160223
634.024	0.0160093
634.102	0.0161925
634.180	0.0161702
634.259	0.0160553
634.337	0.0159991
634.415	0.0159320
634.493	0.0160728
634.571	0.0160456
634.649	0.0160168
634.727	0.0160886
634.805	0.0160617
634.884	0.0159725
634.962	0.0159921
635.040	0.0159621
635.118	0.0160143
635.196	0.0158556
635.274	0.0158388
635.352	0.0159419
635.430	0.0159557
635.509	0.0158850
635.587	0.0158395
635.665	0.0156311
635.743	0.0157150
635.821	0.0157468
635.899	0.0157366
635.977	0.0157890
636.055	0.0157759
636.134	0.0156577
636.212	0.0158374
636.290	0.0157710
636.368	0.0158100
636.446	0.0157494
636.524	0.0155405
636.602	0.0157494
636.680	0.0157025
636.759	0.0156489
636.837	0.0158021
636.915	0.0158391
636.993	0.0157159
637.071	0.0156530
637.149	0.0156777
637.227	0.0158235
637.305	0.0157745
637.384	0.0157162
637.462	0.0156628
637.540	0.0156637
637.618	0.0158930
637.696	0.0158745
637.774	0.0158940
637.852	0.0157719
637.930	0.0157171
638.009	0.0158412
638.087	0.0156810
638.165	0.0157648
638.243	0.0157104
638.321	0.0157289
638.399	0.0156461
638.477	0.0158266
638.555	0.0158243
638.634	0.0157413
638.712	0.0158414
638.790	0.0158047
638.868	0.0157664
638.946	0.0158324
639.024	0.0157654
639.102	0.0156915
639.180	0.0157878
639.259	0.0156094
639.337	0.0157446
639.415	0.0157639
639.493	0.0157343
639.571	0.0157189
639.649	0.0155819
639.727	0.0156851
639.805	0.0156609
639.884	0.0156023
639.962	0.0156995
640.040	0.0156319
640.118	0.0156725
640.196	0.0156495
640.274	0.0156673
640.352	0.0156260
640.430	0.0157269
640.509	0.0155894
640.587	0.0156922
640.665	0.0157950
640.743	0.0156832
640.821	0.0156903
640.899	0.0155717
640.977	0.0157477
641.055	0.0158325
641.134	0.0156910
641.212	0.0155529
641.290	0.0157571
641.368	0.0157867
641.446	0.0157400
641.524	0.0157314
641.602	0.0158374
641.680	0.0157732
641.759	0.0158717
641.837	0.0159050
641.915	0.0158974
641.993	0.0159109
642.071	0.0158670
642.149	0.0159722
642.227	0.0158894
642.305	0.0159328
642.384	0.0159924
642.462	0.0158562
642.540	0.0160127
642.618	0.0160323
642.696	0.0159718
642.774	0.0159010
642.852	0.0158849
642.930	0.0158092
643.009	0.0158751
643.087	0.0159164
643.165	0.0161052
643.243	0.0158981
643.321	0.0160107
643.399	0.0160622
643.477	0.0160369
643.555	0.0159904
643.634	0.0157663
643.712	0.0159651
643.790	0.0159248
643.868	0.0160831
643.946	0.0160063
644.024	0.0160551
644.102	0.0160841
644.180	0.0160973
644.259	0.0158575
644.337	0.0159803
644.415	0.0160385
644.493	0.0161289
644.571	0.0160213
644.649	0.0159752
644.727	0.0160776
644.805	0.0159882
644.884	0.0160810
644.962	0.0161405
645.040	0.0159610
645.118	0.0161274
645.196	0.0161581
645.274	0.0160220
645.352	0.0158578
645.430	0.0161829
645.509	0.0161833
645.587	0.0160739
645.665	0.0160056
645.743	0.0160921
645.821	0.0160504
645.899	0.0160412
645.977	0.0160485
646.055	0.0161188
646.134	0.0160578
646.212	0.0159950
646.290	0.0160847
646.368	0.0160387
646.446	0.0159421
646.524	0.0159911
646.602	0.0161568
646.680	0.0158879
646.759	0.0160342
646.837	0.0162168
646.915	0.0160489
646.993	0.0159531
647.071	0.0159362
647.149	0.0159659
647.227	0.0162077
647.305	0.0160488
647.384	0.0159746
647.462	0.0160085
647.540	0.0160329
647.618	0.0160260
647.696	0.0160378
647.774	0.0159821
647.852	0.0159806
647.930	0.0160658
648.009	0.0160810
648.087	0.0160489
648.165	0.0160724
648.243	0.0161092
648.321	0.0161806
648.399	0.0159718
648.477	0.0160777
648.555	0.0160282
648.634	0.0160029
648.712	0.0160459
648.790	0.0162071
648.868	0.0161089
648.946	0.0160321
649.024	0.0161272
649.102	0.0159669
649.180	0.0161272
649.259	0.0160658
649.337	0.0161142
649.415	0.0160766
649.493	0.0160730
649.571	0.0160967
649.649	0.0160596
649.727	0.0160286
649.805	0.0159175
649.884	0.0159751
649.962	0.0159727
650.040	0.0160474
650.118	0.0160242
650.196	0.0160402
650.274	0.0160520
650.352	0.0159567
650.430	0.0159943
650.509	0.0160278
650.587	0.0158910
650.665	0.0158701
650.743	0.0159778
650.821	0.0160499
650.899	0.0160867
650.977	0.0160581
651.055	0.0159180
651.134	0.0160007
651.212	0.0160807
651.290	0.0160455
651.368	0.0158450
651.446	0.0159328
651.524	0.0160196
651.602	0.0159563
651.680	0.0159749
651.759	0.0160127
651.837	0.0160036
651.915	0.0160334
651.993	0.0159979
652.071	0.0157984
652.149	0.0160081
652.227	0.0160392
652.305	0.0160455
652.384	0.0160924
652.462	0.0160535
652.540	0.0159201
652.618	0.0159756
652.696	0.0158519
652.774	0.0159185
652.852	0.0159917
652.930	0.0159646
653.009	0.0160960
653.087	0.0160731
653.165	0.0159604
653.243	0.0158887
653.321	0.0159996
653.399	0.0159659
653.477	0.0159333
653.555	0.0162073
653.634	0.0159689
653.712	0.0159735
653.790	0.0158960
653.868	0.0159514
653.946	0.0159620
654.024	0.0159225
654.102	0.0158709
654.180	0.0159603
654.259	0.0159182
654.337	0.0158334
654.415	0.0159940
654.493	0.0160139
654.571	0.0160041
654.649	0.0158926
654.727	0.0159692
654.805	0.0159282
654.884	0.0160104
654.962	0.0158822
655.040	0.0158599
655.118	0.0159116
655.196	0.0158786
655.274	0.0158501
655.352	0.0158271
655.430	0.0160661
655.509	0.0160027
655.587	0.0158970
655.665	0.0159745
655.743	0.0158913
655.821	0.0158643
655.899	0.0159873
655.977	0.0159965
656.055	0.0157895
656.134	0.0159508
656.212	0.0157910
656.290	0.0158864
656.368	0.0158968
656.446	0.0160474
656.524	0.0159233
656.602	0.0159881
656.680	0.0157755
656.759	0.0159116
656.837	0.0159963
656.915	0.0158138
656.993	0.0158463
657.071	0.0158754
657.149	0.0158756
657.227	0.0158257
657.305	0.0158067
657.384	0.0157353
657.462	0.0158121
657.540	0.0158148
657.618	0.0158395
657.696	0.0158370
657.774	0.0157558
657.852	0.0157497
657.930	0.0156724
658.009	0.0157018
658.087	0.0158631
658.165	0.0158179
658.243	0.0158511
658.321	0.0157616
658.399	0.0158566
658.477	0.0158118
658.555	0.0157383
658.634	0.0159537
658.712	0.0158241
658.790	0.0158876
658.868	0.0156992
658.946	0.0158623
659.024	0.0159082
659.102	0.0158393
659.180	0.0159966
659.259	0.0158130
659.337	0.0158521
659.415	0.0160239
659.493	0.0158456
659.571	0.0157297
659.649	0.0157642
659.727	0.0159600
659.805	0.0158755
659.884	0.0158350
659.962	0.0157274
660.040	0.0158031
660.118	0.0158964
660.196	0.0157106
660.274	0.0158083
660.352	0.0158703
660.430	0.0158176
660.509	0.0158139
660.587	0.0156815
660.665	0.0159375
660.743	0.0158822
660.821	0.0157381
660.899	0.0157248
660.977	0.0158474
661.055	0.0157557
661.134	0.0158322
661.212	0.0157439
661.290	0.0158590
661.368	0.0157919
661.446	0.0157869
661.524	0.0159559
661.602	0.0158327
661.680	0.0159422
661.759	0.0157458
661.837	0.0158413
661.915	0.0159492
661.993	0.0157458
662.071	0.0157591
662.149	0.0158282
662.227	0.0159454
662.305	0.0159056
662.384	0.0157845
662.462	0.0158549
662.540	0.0159608
662.618	0.0160739
662.696	0.0158217
662.774	0.0157233
662.852	0.0160031
662.930	0.0158080
663.009	0.0158994
663.087	0.0158817
663.165	0.0158784
663.243	0.0158514
663.321	0.0157602
663.399	0.0158773
663.477	0.0159580
663.555	0.0160481
663.634	0.0159444
663.712	0.0158194
663.790	0.0159669
663.868	0.0159023
663.946	0.0159092
664.024	0.0158646
664.102	0.0159267
664.180	0.0159373
664.259	0.0159727
664.337	0.0159574
664.415	0.0160136
664.493	0.0159667
664.571	0.0159164
664.649	0.0158372
664.727	0.0159996
664.805	0.0160462
664.884	0.0159597
664.962	0.0160043
665.040	0.0159180
665.118	0.0159828
665.196	0.0158703
665.274	0.0159748
665.352	0.0160625
665.430	0.0158513
665.509	0.0160835
665.587	0.0159913
665.665	0.0160468
665.743	0.0161256
665.821	0.0159496
665.899	0.0161813
665.977	0.0160633
666.055	0.0159233
666.134	0.0159735
666.212	0.0159413
666.290	0.0160207
666.368	0.0160368
666.446	0.0158554
666.524	0.0160239
666.602	0.0161225
666.680	0.0160425
666.759	0.0160018
666.837	0.0160590
666.915	0.0159476
666.993	0.0159676
667.071	0.0160170
667.149	0.0158949
667.227	0.0159398
667.305	0.0158526
667.384	0.0159683
667.462	0.0160089
667.540	0.0160361
667.618	0.0161005
667.696	0.0159673
667.774	0.0159767
667.852	0.0159875
667.930	0.0160274
668.009	0.0159713
668.087	0.0159096
668.165	0.0160290
668.243	0.0159421
668.321	0.0160664
668.399	0.0158439
668.477	0.0158375
668.555	0.0159346
668.634	0.0160229
668.712	0.0159302
668.790	0.0159826
668.868	0.0159821
668.946	0.0159198
669.024	0.0160693
669.102	0.0159704
669.180	0.0161430
669.259	0.0160923
669.337	0.0159566
669.415	0.0160286
669.493	0.0160542
669.571	0.0159640
669.649	0.0159879
669.727	0.0160180
669.805	0.0160119
669.884	0.0159256
669.962	0.0160207
670.040	0.0160699
670.118	0.0161606
670.196	0.0159243
670.274	0.0159044
670.352	0.0161208
670.430	0.0159254
670.509	0.0161472
670.587	0.0161140
670.665	0.0158922
670.743	0.0160022
670.821	0.0162486
670.899	0.0160276
670.977	0.0160536
671.055	0.0161060
671.134	0.0159491
671.212	0.0160247
671.290	0.0160641
671.368	0.0160706
671.446	0.0160916
671.524	0.0160080
671.602	0.0160574
671.680	0.0160562
671.759	0.0159238
671.837	0.0159747
671.915	0.0161160
671.993	0.0160252
672.071	0.0160397
672.149	0.0159753
672.227	0.0160230
672.305	0.0159663
672.384	0.0161063
672.462	0.0159283
672.540	0.0160162
672.618	0.0159051
672.696	0.0159756
672.774	0.0160744
672.852	0.0159998
672.930	0.0160136
673.009	0.0159618
673.087	0.0159748
673.165	0.0159549
673.243	0.0159657
673.321	0.0158697
673.399	0.0160193
673.477	0.0159663
673.555	0.0159656
673.634	0.0159358
673.712	0.0160634
673.790	0.0159675
673.868	0.0160175
673.946	0.0160210
674.024	0.0159195
674.102	0.0158826
674.180	0.0159010
674.259	0.0159203
674.337	0.0160471
674.415	0.0159499
674.493	0.0160616
674.571	0.0159413
674.649	0.0160011
674.727	0.0159038
674.805	0.0158878
674.884	0.0160894
674.962	0.0159023
675.040	0.0159119
675.118	0.0159600
675.196	0.0160547
675.274	0.0160239
675.352	0.0159686
675.430	0.0158176
675.509	0.0159368
675.587	0.0159097
675.665	0.0158105
675.743	0.0159205
675.821	0.0160011
675.899	0.0158372
675.977	0.0158665
676.055	0.0160520
676.134	0.0159666
676.212	0.0159380
676.290	0.0157851
676.368	0.0158721
676.446	0.0158961
676.524	0.0159120
676.602	0.0158591
676.680	0.0160043
676.759	0.0159538
676.837	0.0158864
676.915	0.0158014
676.993	0.0159106
677.071	0.0158123
677.149	0.0158255
677.227	0.0159351
677.305	0.0157967
677.384	0.0158344
677.462	0.0160239
677.540	0.0158568
677.618	0.0159708
677.696	0.0158786
677.774	0.0158398
677.852	0.0160111
677.930	0.0159062
678.009	0.0158740
678.087	0.0156990
678.165	0.0159437
678.243	0.0159351
678.321	0.0157838
678.399	0.0157584
678.477	0.0159592
678.555	0.0158451
678.634	0.0158459
678.712	0.0158292
678.790	0.0156848
678.868	0.0158562
678.946	0.0157589
679.024	0.0158772
679.102	0.0158032
679.180	0.0159040
679.259	0.0160497
679.337	0.0158389
679.415	0.0158077
679.493	0.0156535
679.571	0.0158038
679.649	0.0158916
679.727	0.0158238
679.805	0.0157765
679.884	0.0159369
679.962	0.0157907
680.040	0.0157771
680.118	0.0157701
680.196	0.0159242
680.274	0.0158642
680.352	0.0158340
680.430	0.0158821
680.509	0.0157609
680.587	0.0156351
680.665	0.0159559
680.743	0.0158938
680.821	0.0158283
680.899	0.0158830
680.977	0.0156955
681.055	0.0159310
681.134	0.0158668
681.212	0.0156950
681.290	0.0157860
681.368	0.0158228
681.446	0.0158536
681.524	0.0159558
681.602	0.0158428
681.680	0.0155928
681.759	0.0156821
681.837	0.0158582
681.915	0.0157854
681.993	0.0158247
682.071	0.0158184
682.149	0.0157283
682.227	0.0159718
682.305	0.0158577
682.384	0.0159523
682.462	0.0158141
682.540	0.0159618
682.618	0.0159833
682.696	0.0159126
682.774	0.0158839
682.852	0.0158531
682.930	0.0158563
683.009	0.0160114
683.087	0.0159679
683.165	0.0159737
683.243	0.0159919
683.321	0.0159319
683.399	0.0160512
683.477	0.0159543
683.555	0.0160034
683.634	0.0158916
683.712	0.0159980
683.790	0.0158551
683.868	0.0159740
683.946	0.0160934
684.024	0.0160048
684.102	0.0159087
684.180	0.0160213
684.259	0.0159532
684.337	0.0159733
684.415	0.0160571
684.493	0.0159798
684.571	0.0159396
684.649	0.0160283
684.727	0.0160857
684.805	0.0160849
684.884	0.0160100
684.962	0.0159271
685.040	0.0159207
685.118	0.0160397
685.196	0.0160204
685.274	0.0160454
685.352	0.0160056
685.430	0.0159510
685.509	0.0159175
685.587	0.0159043
685.665	0.0161964
