06/13/2022	14:32:37	Ver.	4.1	UNKNOWN
Optical Delay	599.968395	Delta X		0.078125	Sweeps	1	Scan Rate	0/0
Coordinates	Axis 1	NaN	Axis 2	NaN	Axis 3	NaN	Axis 4	NaN	Axis 5	NaN	Axis 6	0.000000
TX Power	0.000000	RX Power	0.000000

599.968	0.0159087
600.047	0.0158770
600.125	0.0159669
600.203	0.0159434
600.281	0.0158955
600.359	0.0159429
600.437	0.0159832
600.515	0.0160520
600.593	0.0157643
600.672	0.0158029
600.750	0.0158186
600.828	0.0158379
600.906	0.0158820
600.984	0.0159178
601.062	0.0160108
601.140	0.0160188
601.218	0.0159732
601.297	0.0158607
601.375	0.0158493
601.453	0.0158294
601.531	0.0159148
601.609	0.0158860
601.687	0.0158750
601.765	0.0157644
601.843	0.0159615
601.922	0.0158902
602.000	0.0160095
602.078	0.0159297
602.156	0.0158776
602.234	0.0159769
602.312	0.0159583
602.390	0.0158633
602.468	0.0158810
602.547	0.0159332
602.625	0.0159506
602.703	0.0158497
602.781	0.0159303
602.859	0.0158358
602.937	0.0158865
603.015	0.0158958
603.093	0.0159501
603.172	0.0159138
603.250	0.0158402
603.328	0.0159690
603.406	0.0158984
603.484	0.0158968
603.562	0.0158976
603.640	0.0159613
603.718	0.0157523
603.797	0.0158836
603.875	0.0158401
603.953	0.0159281
604.031	0.0158621
604.109	0.0158945
604.187	0.0159085
604.265	0.0158430
604.343	0.0158893
604.422	0.0158782
604.500	0.0158401
604.578	0.0158221
604.656	0.0159155
604.734	0.0158807
604.812	0.0157894
604.890	0.0158955
604.968	0.0160462
605.047	0.0158562
605.125	0.0159464
605.203	0.0158867
605.281	0.0159634
605.359	0.0160164
605.437	0.0158914
605.515	0.0159020
605.593	0.0159189
605.672	0.0157920
605.750	0.0157291
605.828	0.0158615
605.906	0.0159678
605.984	0.0159138
606.062	0.0158597
606.140	0.0159993
606.218	0.0158184
606.297	0.0159071
606.375	0.0159969
606.453	0.0159142
606.531	0.0158163
606.609	0.0158722
606.687	0.0158137
606.765	0.0159311
606.843	0.0158813
606.922	0.0157932
607.000	0.0159544
607.078	0.0159146
607.156	0.0158752
607.234	0.0158501
607.312	0.0158648
607.390	0.0159253
607.468	0.0160498
607.547	0.0159556
607.625	0.0160007
607.703	0.0158024
607.781	0.0158578
607.859	0.0159215
607.937	0.0159861
608.015	0.0157619
608.093	0.0158351
608.172	0.0160136
608.250	0.0159309
608.328	0.0158787
608.406	0.0158862
608.484	0.0159813
608.562	0.0159695
608.640	0.0160078
608.718	0.0158330
608.797	0.0157908
608.875	0.0158377
608.953	0.0158278
609.031	0.0159797
609.109	0.0159702
609.187	0.0160072
609.265	0.0159026
609.343	0.0157561
609.422	0.0160409
609.500	0.0159378
609.578	0.0158241
609.656	0.0160522
609.734	0.0158489
609.812	0.0159378
609.890	0.0158530
609.968	0.0159464
610.047	0.0160169
610.125	0.0157993
610.203	0.0158124
610.281	0.0159336
610.359	0.0160376
610.437	0.0159505
610.515	0.0159594
610.593	0.0159056
610.672	0.0158004
610.750	0.0160422
610.828	0.0160029
610.906	0.0158723
610.984	0.0159200
611.062	0.0159441
611.140	0.0158969
611.218	0.0158373
611.297	0.0159963
611.375	0.0158415
611.453	0.0159284
611.531	0.0159018
611.609	0.0158141
611.687	0.0159035
611.765	0.0158922
611.843	0.0159236
611.922	0.0158588
612.000	0.0159167
612.078	0.0160355
612.156	0.0158578
612.234	0.0158769
612.312	0.0158408
612.390	0.0160477
612.468	0.0159829
612.547	0.0158788
612.625	0.0160958
612.703	0.0160599
612.781	0.0158929
612.859	0.0160199
612.937	0.0159077
613.015	0.0159454
613.093	0.0159455
613.172	0.0159520
613.250	0.0160046
613.328	0.0160851
613.406	0.0159222
613.484	0.0159266
613.562	0.0158985
613.640	0.0160488
613.718	0.0159775
613.797	0.0159029
613.875	0.0159333
613.953	0.0159127
614.031	0.0158772
614.109	0.0159588
614.187	0.0158392
614.265	0.0158552
614.343	0.0158894
614.422	0.0157437
614.500	0.0160343
614.578	0.0160878
614.656	0.0159283
614.734	0.0159376
614.812	0.0159502
614.890	0.0159122
614.968	0.0160808
615.047	0.0160035
615.125	0.0159268
615.203	0.0159479
615.281	0.0157526
615.359	0.0159233
615.437	0.0159019
615.515	0.0157874
615.593	0.0159672
615.672	0.0159425
615.750	0.0158483
615.828	0.0157724
615.906	0.0158382
615.984	0.0159183
616.062	0.0159556
616.140	0.0158877
616.218	0.0159546
616.297	0.0159171
616.375	0.0160002
616.453	0.0160159
616.531	0.0157870
616.609	0.0158522
616.687	0.0159645
616.765	0.0159990
616.843	0.0158454
616.922	0.0159032
617.000	0.0159627
617.078	0.0159772
617.156	0.0158950
617.234	0.0158858
617.312	0.0160487
617.390	0.0158469
617.468	0.0158700
617.547	0.0159940
617.625	0.0158626
617.703	0.0158411
617.781	0.0159145
617.859	0.0158162
617.937	0.0158756
618.015	0.0158586
618.093	0.0159326
618.172	0.0159228
618.250	0.0159390
618.328	0.0159084
618.406	0.0159800
618.484	0.0159242
618.562	0.0158793
618.640	0.0159451
618.718	0.0159176
618.797	0.0158934
618.875	0.0159802
618.953	0.0158924
619.031	0.0157876
619.109	0.0159698
619.187	0.0159000
619.265	0.0159057
619.343	0.0159142
619.422	0.0157524
619.500	0.0159322
619.578	0.0160194
619.656	0.0159029
619.734	0.0158505
619.812	0.0159283
619.890	0.0159999
619.968	0.0159136
620.047	0.0158202
620.125	0.0157858
620.203	0.0158286
620.281	0.0159200
620.359	0.0160208
620.437	0.0159424
620.515	0.0159644
620.593	0.0159209
620.672	0.0158213
620.750	0.0158046
620.828	0.0159477
620.906	0.0160565
620.984	0.0158713
621.062	0.0158317
621.140	0.0159420
621.218	0.0159546
621.297	0.0158739
621.375	0.0158639
621.453	0.0158003
621.531	0.0159367
621.609	0.0158738
621.687	0.0158690
621.765	0.0158566
621.843	0.0158562
621.922	0.0159280
622.000	0.0158992
622.078	0.0159898
622.156	0.0158227
622.234	0.0158260
622.312	0.0159569
622.390	0.0159537
622.468	0.0159183
622.547	0.0158351
622.625	0.0158951
622.703	0.0157558
622.781	0.0159465
622.859	0.0159101
622.937	0.0159391
623.015	0.0158622
623.093	0.0159082
623.172	0.0159584
623.250	0.0158969
623.328	0.0159297
623.406	0.0158818
623.484	0.0158998
623.562	0.0159103
623.640	0.0159295
623.718	0.0160537
623.797	0.0159456
623.875	0.0158337
623.953	0.0157948
624.031	0.0158744
624.109	0.0157924
624.187	0.0158490
624.265	0.0158711
624.343	0.0157925
624.422	0.0158567
624.500	0.0159649
624.578	0.0159802
624.656	0.0159151
624.734	0.0157235
624.812	0.0158862
624.890	0.0159689
624.968	0.0159906
625.047	0.0159309
625.125	0.0159778
625.203	0.0158978
625.281	0.0158992
625.359	0.0157948
625.437	0.0158122
625.515	0.0158983
625.593	0.0159868
625.672	0.0158973
625.750	0.0157098
625.828	0.0159239
625.906	0.0157757
625.984	0.0158680
626.062	0.0158041
626.140	0.0157787
626.218	0.0158846
626.297	0.0159589
626.375	0.0158648
626.453	0.0160046
626.531	0.0158257
626.609	0.0158598
626.687	0.0160764
626.765	0.0158513
626.843	0.0158391
626.922	0.0158382
627.000	0.0159175
627.078	0.0158794
627.156	0.0158604
627.234	0.0158445
627.312	0.0158322
627.390	0.0159700
627.468	0.0158489
627.547	0.0158798
627.625	0.0158720
627.703	0.0159241
627.781	0.0157570
627.859	0.0158530
627.937	0.0159068
628.015	0.0158403
628.093	0.0159322
628.172	0.0158298
628.250	0.0158381
628.328	0.0157761
628.406	0.0158862
628.484	0.0158018
628.562	0.0157772
628.640	0.0157442
628.718	0.0159549
628.797	0.0158154
628.875	0.0158768
628.953	0.0159406
629.031	0.0159103
629.109	0.0158939
629.187	0.0159676
629.265	0.0160864
629.343	0.0158621
629.422	0.0157516
629.500	0.0157956
629.578	0.0159452
629.656	0.0158397
629.734	0.0159468
629.812	0.0159495
629.890	0.0157717
629.968	0.0158441
630.047	0.0158620
630.125	0.0158683
630.203	0.0158410
630.281	0.0158971
630.359	0.0157265
630.437	0.0160107
630.515	0.0158750
630.593	0.0159093
630.672	0.0159038
630.750	0.0158758
630.828	0.0159534
630.906	0.0158597
630.984	0.0160370
631.062	0.0159323
631.140	0.0159544
631.218	0.0159001
631.297	0.0158449
631.375	0.0158944
631.453	0.0159012
631.531	0.0158660
631.609	0.0158505
631.687	0.0157880
631.765	0.0159790
631.843	0.0157858
631.922	0.0157228
632.000	0.0159115
632.078	0.0159125
632.156	0.0158778
632.234	0.0158408
632.312	0.0160176
632.390	0.0158577
632.468	0.0159087
632.547	0.0157596
632.625	0.0158659
632.703	0.0159501
632.781	0.0158917
632.859	0.0158290
632.937	0.0158580
633.015	0.0158943
633.093	0.0159615
633.172	0.0159605
633.250	0.0159859
633.328	0.0158689
633.406	0.0158331
633.484	0.0158727
633.562	0.0158792
633.640	0.0159604
633.718	0.0158867
633.797	0.0158310
633.875	0.0158250
633.953	0.0159873
634.031	0.0159759
634.109	0.0158617
634.187	0.0159286
634.265	0.0159281
634.343	0.0157678
634.422	0.0158642
634.500	0.0158022
634.578	0.0159437
634.656	0.0158249
634.734	0.0157587
634.812	0.0159414
634.890	0.0158627
634.968	0.0157352
635.047	0.0157124
635.125	0.0158364
635.203	0.0157976
635.281	0.0157130
635.359	0.0158093
635.437	0.0159562
635.515	0.0159710
635.593	0.0158964
635.672	0.0158286
635.750	0.0157961
635.828	0.0159801
635.906	0.0158409
635.984	0.0158457
636.062	0.0158463
636.140	0.0157594
636.218	0.0159698
636.297	0.0159444
636.375	0.0158635
636.453	0.0158834
636.531	0.0158680
636.609	0.0158981
636.687	0.0159227
636.765	0.0159519
636.843	0.0158083
636.922	0.0157848
637.000	0.0159174
637.078	0.0158863
637.156	0.0156226
637.234	0.0157003
637.312	0.0159347
637.390	0.0158448
637.468	0.0158923
637.547	0.0158853
637.625	0.0159466
637.703	0.0158347
637.781	0.0158971
637.859	0.0158850
637.937	0.0159803
638.015	0.0159864
638.093	0.0158932
638.172	0.0157482
638.250	0.0158006
638.328	0.0159361
638.406	0.0158717
638.484	0.0158007
638.562	0.0158804
638.640	0.0159248
638.718	0.0158797
638.797	0.0157918
638.875	0.0157594
638.953	0.0158115
639.031	0.0160118
639.109	0.0160546
639.187	0.0157217
639.265	0.0158428
639.343	0.0159025
639.422	0.0158746
639.500	0.0158077
639.578	0.0159615
639.656	0.0159010
639.734	0.0158382
639.812	0.0159307
639.890	0.0157346
639.968	0.0157780
640.047	0.0158316
640.125	0.0157867
640.203	0.0158474
640.281	0.0159682
640.359	0.0158486
640.437	0.0159068
640.515	0.0158313
640.593	0.0157545
640.672	0.0160000
640.750	0.0158945
640.828	0.0159422
640.906	0.0159507
640.984	0.0156702
641.062	0.0158678
641.140	0.0159689
641.218	0.0158842
641.297	0.0158663
641.375	0.0159526
641.453	0.0159635
641.531	0.0157873
641.609	0.0159181
641.687	0.0158637
641.765	0.0157835
641.843	0.0157526
641.922	0.0158864
642.000	0.0159068
642.078	0.0159510
642.156	0.0159395
642.234	0.0158544
642.312	0.0158707
642.390	0.0158227
642.468	0.0157985
642.547	0.0159174
642.625	0.0159805
642.703	0.0159496
642.781	0.0158965
642.859	0.0158990
642.937	0.0158546
643.015	0.0158872
643.093	0.0159062
643.172	0.0159867
643.250	0.0159779
643.328	0.0160173
643.406	0.0158076
643.484	0.0159307
643.562	0.0158524
643.640	0.0158768
643.718	0.0158657
643.797	0.0159523
643.875	0.0159734
643.953	0.0158281
644.031	0.0158932
644.109	0.0158627
644.187	0.0159293
644.265	0.0158721
644.343	0.0160072
644.422	0.0157053
644.500	0.0158818
644.578	0.0159340
644.656	0.0158662
644.734	0.0160063
644.812	0.0159142
644.890	0.0158376
644.968	0.0158782
645.047	0.0159486
645.125	0.0158837
645.203	0.0159021
645.281	0.0159960
645.359	0.0160526
645.437	0.0159395
645.515	0.0158953
645.593	0.0159073
645.672	0.0157369
645.750	0.0160172
645.828	0.0159570
645.906	0.0158102
645.984	0.0158939
646.062	0.0159855
646.140	0.0159647
646.218	0.0158972
646.297	0.0159682
646.375	0.0159243
646.453	0.0159521
646.531	0.0159332
646.609	0.0159789
646.687	0.0157650
646.765	0.0159245
646.843	0.0158595
646.922	0.0159122
647.000	0.0160912
647.078	0.0160698
647.156	0.0159160
647.234	0.0158014
647.312	0.0160528
647.390	0.0159209
647.468	0.0158157
647.547	0.0159399
647.625	0.0159108
647.703	0.0158029
647.781	0.0159480
647.859	0.0159136
647.937	0.0159806
648.015	0.0160873
648.093	0.0159087
648.172	0.0159455
648.250	0.0159380
648.328	0.0157805
648.406	0.0159888
648.484	0.0159995
648.562	0.0158304
648.640	0.0158778
648.718	0.0158287
648.797	0.0158158
648.875	0.0160181
648.953	0.0159191
649.031	0.0160078
649.109	0.0157990
649.187	0.0158530
649.265	0.0159041
649.343	0.0157783
649.422	0.0159389
649.500	0.0159132
649.578	0.0158882
649.656	0.0159305
649.734	0.0159628
649.812	0.0157623
649.890	0.0158495
649.968	0.0158736
650.047	0.0160188
650.125	0.0161150
650.203	0.0159418
650.281	0.0157984
650.359	0.0160228
650.437	0.0158125
650.515	0.0158605
650.593	0.0159691
650.672	0.0159342
650.750	0.0158031
650.828	0.0159558
650.906	0.0158098
650.984	0.0159288
651.062	0.0159068
651.140	0.0159901
651.218	0.0158453
651.297	0.0159939
651.375	0.0159471
651.453	0.0158068
651.531	0.0157664
651.609	0.0159668
651.687	0.0159760
651.765	0.0160526
651.843	0.0160256
651.922	0.0158292
652.000	0.0158739
652.078	0.0157755
652.156	0.0159206
652.234	0.0157187
652.312	0.0158190
652.390	0.0159548
652.468	0.0159243
652.547	0.0159068
652.625	0.0158573
652.703	0.0159890
652.781	0.0159573
652.859	0.0160216
652.937	0.0159475
653.015	0.0160777
653.093	0.0159917
653.172	0.0158073
653.250	0.0158532
653.328	0.0160289
653.406	0.0158318
653.484	0.0159124
653.562	0.0158520
653.640	0.0160095
653.718	0.0159756
653.797	0.0159349
653.875	0.0160523
653.953	0.0160047
654.031	0.0159230
654.109	0.0159354
654.187	0.0159068
654.265	0.0158586
654.343	0.0158587
654.422	0.0158625
654.500	0.0159972
654.578	0.0159074
654.656	0.0157721
654.734	0.0158735
654.812	0.0159621
654.890	0.0160329
654.968	0.0159145
655.047	0.0159560
655.125	0.0158863
655.203	0.0159830
655.281	0.0159877
655.359	0.0159043
655.437	0.0159288
655.515	0.0158115
655.593	0.0159063
655.672	0.0160356
655.750	0.0158386
655.828	0.0158128
655.906	0.0160631
655.984	0.0159338
656.062	0.0158049
656.140	0.0159042
656.218	0.0158430
656.297	0.0158538
656.375	0.0158622
656.453	0.0159238
656.531	0.0158062
656.609	0.0158555
656.687	0.0159474
656.765	0.0160157
656.843	0.0159492
656.922	0.0158379
657.000	0.0159496
657.078	0.0158472
657.156	0.0159484
657.234	0.0158937
657.312	0.0158701
657.390	0.0158986
657.468	0.0159760
657.547	0.0159885
657.625	0.0159200
657.703	0.0158971
657.781	0.0158447
657.859	0.0159037
657.937	0.0159607
658.015	0.0160321
658.093	0.0159907
658.172	0.0157196
658.250	0.0158755
658.328	0.0159092
658.406	0.0159737
658.484	0.0159335
658.562	0.0159595
658.640	0.0159827
658.718	0.0158900
658.797	0.0159780
658.875	0.0159461
658.953	0.0158542
659.031	0.0160417
659.109	0.0158157
659.187	0.0159591
659.265	0.0159347
659.343	0.0159296
659.422	0.0159515
659.500	0.0158685
659.578	0.0157900
659.656	0.0158902
659.734	0.0159859
659.812	0.0158685
659.890	0.0157525
659.968	0.0159423
660.047	0.0158684
660.125	0.0159199
660.203	0.0159489
660.281	0.0158171
660.359	0.0158242
660.437	0.0159190
660.515	0.0158488
660.593	0.0159348
660.672	0.0159150
660.750	0.0159571
660.828	0.0159753
660.906	0.0159062
660.984	0.0159874
661.062	0.0159039
661.140	0.0159870
661.218	0.0157934
661.297	0.0158839
661.375	0.0158459
661.453	0.0159118
661.531	0.0159164
661.609	0.0159443
661.687	0.0159793
661.765	0.0158595
661.843	0.0159005
661.922	0.0159544
662.000	0.0159939
662.078	0.0158316
662.156	0.0159732
662.234	0.0158674
662.312	0.0157635
662.390	0.0159145
662.468	0.0157906
662.547	0.0158215
662.625	0.0159779
662.703	0.0160233
662.781	0.0160317
662.859	0.0159886
662.937	0.0159112
663.015	0.0159648
663.093	0.0160320
663.172	0.0158582
663.250	0.0157800
663.328	0.0158207
663.406	0.0158978
663.484	0.0159201
663.562	0.0159503
663.640	0.0158672
663.718	0.0159017
663.797	0.0158478
663.875	0.0157152
663.953	0.0158389
664.031	0.0158954
664.109	0.0158459
664.187	0.0158523
664.265	0.0158863
664.343	0.0158889
664.422	0.0159182
664.500	0.0158150
664.578	0.0158839
664.656	0.0159052
664.734	0.0160365
664.812	0.0159157
664.890	0.0159779
664.968	0.0158829
665.047	0.0160353
665.125	0.0157310
665.203	0.0157838
665.281	0.0158550
665.359	0.0158630
665.437	0.0159186
665.515	0.0159274
665.593	0.0158531
665.672	0.0158125
665.750	0.0157757
665.828	0.0160119
665.906	0.0160713
665.984	0.0158599
666.062	0.0157784
666.140	0.0158952
666.218	0.0158209
666.297	0.0159201
666.375	0.0158724
666.453	0.0158153
666.531	0.0159922
666.609	0.0158934
666.687	0.0158815
666.765	0.0159332
666.843	0.0158751
666.922	0.0159542
667.000	0.0159367
667.078	0.0159238
667.156	0.0160113
667.234	0.0159088
667.312	0.0159827
667.390	0.0160692
667.468	0.0159796
667.547	0.0158363
667.625	0.0159898
667.703	0.0159746
667.781	0.0159368
667.859	0.0159711
667.937	0.0158332
668.015	0.0157919
668.093	0.0158699
668.172	0.0158904
668.250	0.0159338
668.328	0.0158278
668.406	0.0159725
668.484	0.0157778
668.562	0.0159012
668.640	0.0159248
668.718	0.0159261
668.797	0.0158338
668.875	0.0158588
668.953	0.0158862
669.031	0.0158974
669.109	0.0160095
669.187	0.0159036
669.265	0.0158231
669.343	0.0158511
669.422	0.0160384
669.500	0.0159032
669.578	0.0159219
669.656	0.0158748
669.734	0.0158199
669.812	0.0158615
669.890	0.0157655
669.968	0.0158204
670.047	0.0158897
670.125	0.0159329
670.203	0.0158792
670.281	0.0159326
670.359	0.0159315
670.437	0.0160378
670.515	0.0158985
670.593	0.0159700
670.672	0.0158705
670.750	0.0158739
670.828	0.0158761
670.906	0.0159235
670.984	0.0160155
671.062	0.0159811
671.140	0.0158671
671.218	0.0159721
671.297	0.0158919
671.375	0.0158840
671.453	0.0159523
671.531	0.0158228
671.609	0.0160557
671.687	0.0159219
671.765	0.0158443
671.843	0.0158898
671.922	0.0159258
672.000	0.0158144
672.078	0.0159198
672.156	0.0158755
672.234	0.0159385
672.312	0.0160593
672.390	0.0160550
672.468	0.0159286
672.547	0.0159010
672.625	0.0159377
672.703	0.0159664
672.781	0.0160700
672.859	0.0159836
672.937	0.0158444
673.015	0.0159087
673.093	0.0159199
673.172	0.0159140
673.250	0.0158089
673.328	0.0158237
673.406	0.0159232
673.484	0.0158192
673.562	0.0158424
673.640	0.0159003
673.718	0.0158340
673.797	0.0158176
673.875	0.0159411
673.953	0.0159386
674.031	0.0158981
674.109	0.0158687
674.187	0.0158459
674.265	0.0158856
674.343	0.0159426
674.422	0.0159019
674.500	0.0160383
674.578	0.0159425
674.656	0.0159342
674.734	0.0159397
674.812	0.0159089
674.890	0.0158706
674.968	0.0159167
675.047	0.0158246
675.125	0.0161481
675.203	0.0158733
675.281	0.0160068
675.359	0.0158469
675.437	0.0157755
675.515	0.0158492
675.593	0.0157613
675.672	0.0158946
675.750	0.0158175
675.828	0.0158460
675.906	0.0158230
675.984	0.0158192
676.062	0.0159842
676.140	0.0160467
676.218	0.0159554
676.297	0.0159098
676.375	0.0159327
676.453	0.0159757
676.531	0.0159034
676.609	0.0157783
676.687	0.0158407
676.765	0.0159013
676.843	0.0158137
676.922	0.0159498
677.000	0.0158130
677.078	0.0159109
677.156	0.0158507
677.234	0.0159178
677.312	0.0159171
677.390	0.0159656
677.468	0.0159737
677.547	0.0158736
677.625	0.0160099
677.703	0.0159874
677.781	0.0159388
677.859	0.0159612
677.937	0.0159686
678.015	0.0158855
678.093	0.0158309
678.172	0.0158943
678.250	0.0159306
678.328	0.0159494
678.406	0.0158148
678.484	0.0159239
678.562	0.0160025
678.640	0.0159329
678.718	0.0158367
678.797	0.0159611
678.875	0.0159684
678.953	0.0159550
679.031	0.0159586
679.109	0.0159406
679.187	0.0159637
679.265	0.0160645
679.343	0.0158694
679.422	0.0158941
679.500	0.0158623
679.578	0.0159961
679.656	0.0160042
679.734	0.0158221
679.812	0.0158382
679.890	0.0158939
679.968	0.0158585
680.047	0.0159615
680.125	0.0160767
680.203	0.0157985
680.281	0.0158709
680.359	0.0159298
680.437	0.0159023
680.515	0.0158930
680.593	0.0159138
680.672	0.0160310
680.750	0.0158288
680.828	0.0158389
680.906	0.0159656
680.984	0.0159761
681.062	0.0159374
681.140	0.0157729
681.218	0.0158569
681.297	0.0159985
681.375	0.0158681
681.453	0.0159927
681.531	0.0159625
681.609	0.0159248
681.687	0.0158547
681.765	0.0158617
681.843	0.0158888
681.922	0.0158704
682.000	0.0159874
682.078	0.0159618
682.156	0.0158887
682.234	0.0158752
682.312	0.0158778
682.390	0.0161461
682.468	0.0159788
682.547	0.0157897
682.625	0.0159234
682.703	0.0160564
682.781	0.0159801
682.859	0.0159907
682.937	0.0159379
683.015	0.0158662
683.093	0.0159249
683.172	0.0160285
683.250	0.0157897
683.328	0.0158756
683.406	0.0158374
683.484	0.0157982
683.562	0.0157932
683.640	0.0159719
683.718	0.0159802
683.797	0.0159386
683.875	0.0160341
683.953	0.0159248
684.031	0.0158781
684.109	0.0159013
684.187	0.0158643
684.265	0.0158994
684.343	0.0159346
684.422	0.0158965
684.500	0.0160476
684.578	0.0158843
684.656	0.0159303
684.734	0.0158824
684.812	0.0159422
684.890	0.0159912
684.968	0.0158964
685.047	0.0158264
685.125	0.0159314
685.203	0.0158424
685.281	0.0160052
685.359	0.0160074
685.437	0.0158532
685.515	0.0158802
685.593	0.0159759
685.672	0.0158809
