06/13/2022	14:33:18	Ver.	4.1	UNKNOWN
Optical Delay	599.968395	Delta X		0.078125	Sweeps	1	Scan Rate	0/0
Coordinates	Axis 1	NaN	Axis 2	NaN	Axis 3	NaN	Axis 4	NaN	Axis 5	NaN	Axis 6	0.000000
TX Power	0.000000	RX Power	0.000000

599.968	0.0156213
600.047	0.0154766
600.125	0.0156243
600.203	0.0155351
600.281	0.0156252
600.359	0.0155537
600.437	0.0156507
600.515	0.0156197
600.593	0.0156584
600.672	0.0156522
600.750	0.0155887
600.828	0.0155297
600.906	0.0156008
600.984	0.0157050
601.062	0.0156965
601.140	0.0156181
601.218	0.0154439
601.297	0.0156018
601.375	0.0156422
601.453	0.0156699
601.531	0.0157748
601.609	0.0156111
601.687	0.0153945
601.765	0.0155412
601.843	0.0157214
601.922	0.0156189
602.000	0.0154460
602.078	0.0155659
602.156	0.0156155
602.234	0.0155034
602.312	0.0155815
602.390	0.0154928
602.468	0.0156224
602.547	0.0156391
602.625	0.0154240
602.703	0.0155915
602.781	0.0155563
602.859	0.0156195
602.937	0.0156103
603.015	0.0155772
603.093	0.0155337
603.172	0.0155769
603.250	0.0155661
603.328	0.0155201
603.406	0.0155801
603.484	0.0155672
603.562	0.0156281
603.640	0.0155778
603.718	0.0156614
603.797	0.0156464
603.875	0.0156608
603.953	0.0157009
604.031	0.0155914
604.109	0.0155634
604.187	0.0157186
604.265	0.0156332
604.343	0.0154657
604.422	0.0155682
604.500	0.0155351
604.578	0.0157766
604.656	0.0156264
604.734	0.0155363
604.812	0.0156427
604.890	0.0155112
604.968	0.0157071
605.047	0.0155040
605.125	0.0156561
605.203	0.0156723
605.281	0.0156036
605.359	0.0157940
605.437	0.0157862
605.515	0.0155774
605.593	0.0155584
605.672	0.0155897
605.750	0.0156261
605.828	0.0155674
605.906	0.0157506
605.984	0.0156165
606.062	0.0156516
606.140	0.0155956
606.218	0.0155357
606.297	0.0156987
606.375	0.0155288
606.453	0.0156444
606.531	0.0156967
606.609	0.0156457
606.687	0.0157233
606.765	0.0155853
606.843	0.0156482
606.922	0.0156454
607.000	0.0156480
607.078	0.0155899
607.156	0.0156048
607.234	0.0156293
607.312	0.0155134
607.390	0.0156026
607.468	0.0155236
607.547	0.0155357
607.625	0.0155508
607.703	0.0156049
607.781	0.0155006
607.859	0.0156219
607.937	0.0155443
608.015	0.0154990
608.093	0.0156513
608.172	0.0154448
608.250	0.0155390
608.328	0.0155655
608.406	0.0156250
608.484	0.0155646
608.562	0.0155276
608.640	0.0154310
608.718	0.0154922
608.797	0.0154941
608.875	0.0155360
608.953	0.0155499
609.031	0.0156367
609.109	0.0155315
609.187	0.0155155
609.265	0.0156243
609.343	0.0154943
609.422	0.0155705
609.500	0.0155564
609.578	0.0156107
609.656	0.0156385
609.734	0.0156356
609.812	0.0156310
609.890	0.0155661
609.968	0.0156378
610.047	0.0155286
610.125	0.0154638
610.203	0.0155830
610.281	0.0156767
610.359	0.0155031
610.437	0.0155740
610.515	0.0155750
610.593	0.0156487
610.672	0.0155636
610.750	0.0155742
610.828	0.0155338
610.906	0.0156879
610.984	0.0155245
611.062	0.0154792
611.140	0.0156915
611.218	0.0157092
611.297	0.0154048
611.375	0.0154305
611.453	0.0155680
611.531	0.0156435
611.609	0.0154936
611.687	0.0156335
611.765	0.0156308
611.843	0.0156589
611.922	0.0155328
612.000	0.0156383
612.078	0.0154730
612.156	0.0156090
612.234	0.0155189
612.312	0.0155521
612.390	0.0156835
612.468	0.0155756
612.547	0.0156172
612.625	0.0156046
612.703	0.0154510
612.781	0.0156020
612.859	0.0156596
612.937	0.0156705
613.015	0.0156633
613.093	0.0156541
613.172	0.0157134
613.250	0.0155960
613.328	0.0155900
613.406	0.0156479
613.484	0.0154984
613.562	0.0156308
613.640	0.0157850
613.718	0.0156010
613.797	0.0154813
613.875	0.0156515
613.953	0.0155886
614.031	0.0155285
614.109	0.0156149
614.187	0.0155903
614.265	0.0155556
614.343	0.0155090
614.422	0.0156102
614.500	0.0156514
614.578	0.0155234
614.656	0.0155766
614.734	0.0156441
614.812	0.0155738
614.890	0.0155126
614.968	0.0156405
615.047	0.0156693
615.125	0.0156303
615.203	0.0154417
615.281	0.0157297
615.359	0.0156129
615.437	0.0155884
615.515	0.0156141
615.593	0.0156031
615.672	0.0156364
615.750	0.0157285
615.828	0.0154968
615.906	0.0155534
615.984	0.0155383
616.062	0.0155619
616.140	0.0155805
616.218	0.0155975
616.297	0.0155634
616.375	0.0155467
616.453	0.0155719
616.531	0.0154845
616.609	0.0155071
616.687	0.0155047
616.765	0.0155954
616.843	0.0156119
616.922	0.0156073
617.000	0.0156293
617.078	0.0156288
617.156	0.0155699
617.234	0.0155266
617.312	0.0154872
617.390	0.0155402
617.468	0.0156609
617.547	0.0153558
617.625	0.0154430
617.703	0.0155977
617.781	0.0155414
617.859	0.0154070
617.937	0.0155442
618.015	0.0155682
618.093	0.0154956
618.172	0.0155563
618.250	0.0155220
618.328	0.0155943
618.406	0.0156429
618.484	0.0155800
618.562	0.0156320
618.640	0.0156730
618.718	0.0155873
618.797	0.0155100
618.875	0.0155962
618.953	0.0154581
619.031	0.0155842
619.109	0.0156934
619.187	0.0156373
619.265	0.0157172
619.343	0.0155731
619.422	0.0156072
619.500	0.0154675
619.578	0.0155635
619.656	0.0155112
619.734	0.0155817
619.812	0.0154777
619.890	0.0155239
619.968	0.0156318
620.047	0.0155260
620.125	0.0155886
620.203	0.0155402
620.281	0.0155920
620.359	0.0155970
620.437	0.0155272
620.515	0.0155177
620.593	0.0156373
620.672	0.0156054
620.750	0.0156201
620.828	0.0153901
620.906	0.0155899
620.984	0.0156049
621.062	0.0155542
621.140	0.0155759
621.218	0.0155531
621.297	0.0155428
621.375	0.0155628
621.453	0.0155659
621.531	0.0156136
621.609	0.0155642
621.687	0.0155648
621.765	0.0155612
621.843	0.0155710
621.922	0.0155274
622.000	0.0155276
622.078	0.0156703
622.156	0.0156615
622.234	0.0155993
622.312	0.0155872
622.390	0.0155965
622.468	0.0155925
622.547	0.0156647
622.625	0.0154785
622.703	0.0156050
622.781	0.0155827
622.859	0.0156244
622.937	0.0154454
623.015	0.0154854
623.093	0.0156085
623.172	0.0156401
623.250	0.0157729
623.328	0.0157060
623.406	0.0156312
623.484	0.0154911
623.562	0.0156452
623.640	0.0156904
623.718	0.0155684
623.797	0.0154929
623.875	0.0155382
623.953	0.0156101
624.031	0.0155746
624.109	0.0156230
624.187	0.0155508
624.265	0.0155522
624.343	0.0155719
624.422	0.0156296
624.500	0.0156717
624.578	0.0156387
624.656	0.0155849
624.734	0.0156298
624.812	0.0156274
624.890	0.0156487
624.968	0.0155623
625.047	0.0156137
625.125	0.0156014
625.203	0.0156120
625.281	0.0154955
625.359	0.0157192
625.437	0.0155892
625.515	0.0156915
625.593	0.0156136
625.672	0.0156078
625.750	0.0157375
625.828	0.0155789
625.906	0.0155157
625.984	0.0156928
626.062	0.0156829
626.140	0.0157298
626.218	0.0156971
626.297	0.0156290
626.375	0.0155105
626.453	0.0154871
626.531	0.0154912
626.609	0.0155862
626.687	0.0157215
626.765	0.0156833
626.843	0.0155679
626.922	0.0155333
627.000	0.0156176
627.078	0.0155984
627.156	0.0156184
627.234	0.0155864
627.312	0.0157333
627.390	0.0155286
627.468	0.0155853
627.547	0.0157375
627.625	0.0155466
627.703	0.0156561
627.781	0.0155609
627.859	0.0157040
627.937	0.0155924
628.015	0.0154813
628.093	0.0155713
628.172	0.0155450
628.250	0.0156618
628.328	0.0156951
628.406	0.0155533
628.484	0.0155691
628.562	0.0155980
628.640	0.0157926
628.718	0.0155626
628.797	0.0156996
628.875	0.0155631
628.953	0.0156022
629.031	0.0156616
629.109	0.0156112
629.187	0.0155426
629.265	0.0156377
629.343	0.0157025
629.422	0.0157130
629.500	0.0157347
629.578	0.0157507
629.656	0.0155358
629.734	0.0155003
629.812	0.0155875
629.890	0.0156625
629.968	0.0155811
630.047	0.0157119
630.125	0.0156361
630.203	0.0156728
630.281	0.0156554
630.359	0.0155056
630.437	0.0158028
630.515	0.0156974
630.593	0.0156110
630.672	0.0155425
630.750	0.0156689
630.828	0.0157358
630.906	0.0156653
630.984	0.0155607
631.062	0.0156941
631.140	0.0155534
631.218	0.0155809
631.297	0.0156772
631.375	0.0155911
631.453	0.0157985
631.531	0.0156707
631.609	0.0154485
631.687	0.0155006
631.765	0.0155839
631.843	0.0155237
631.922	0.0155565
632.000	0.0156339
632.078	0.0156207
632.156	0.0155408
632.234	0.0155804
632.312	0.0155906
632.390	0.0156763
632.468	0.0155511
632.547	0.0155848
632.625	0.0155722
632.703	0.0155894
632.781	0.0157080
632.859	0.0155949
632.937	0.0155923
633.015	0.0156445
633.093	0.0156318
633.172	0.0155921
633.250	0.0155161
633.328	0.0155253
633.406	0.0157419
633.484	0.0156248
633.562	0.0155912
633.640	0.0155289
633.718	0.0156425
633.797	0.0154913
633.875	0.0155083
633.953	0.0155601
634.031	0.0156009
634.109	0.0156788
634.187	0.0155733
634.265	0.0155254
634.343	0.0155704
634.422	0.0155476
634.500	0.0155012
634.578	0.0154573
634.656	0.0155674
634.734	0.0156547
634.812	0.0156213
634.890	0.0156226
634.968	0.0156595
635.047	0.0155142
635.125	0.0155916
635.203	0.0155579
635.281	0.0155978
635.359	0.0154643
635.437	0.0155554
635.515	0.0156519
635.593	0.0155661
635.672	0.0156843
635.750	0.0156390
635.828	0.0155944
635.906	0.0156604
635.984	0.0156924
636.062	0.0155405
636.140	0.0155370
636.218	0.0155360
636.297	0.0155886
636.375	0.0155801
636.453	0.0155603
636.531	0.0155309
636.609	0.0156876
636.687	0.0157020
636.765	0.0154790
636.843	0.0156619
636.922	0.0156052
637.000	0.0156087
637.078	0.0156429
637.156	0.0155738
637.234	0.0154275
637.312	0.0155450
637.390	0.0156721
637.468	0.0155533
637.547	0.0156084
637.625	0.0155876
637.703	0.0156464
637.781	0.0155823
637.859	0.0156474
637.937	0.0155733
638.015	0.0155846
638.093	0.0155799
638.172	0.0157015
638.250	0.0156181
638.328	0.0155605
638.406	0.0156570
638.484	0.0154662
638.562	0.0156545
638.640	0.0157257
638.718	0.0155331
638.797	0.0155813
638.875	0.0156103
638.953	0.0156212
639.031	0.0155120
639.109	0.0156241
639.187	0.0156590
639.265	0.0155104
639.343	0.0155931
639.422	0.0156003
639.500	0.0156512
639.578	0.0155395
639.656	0.0155666
639.734	0.0155614
639.812	0.0155718
639.890	0.0155248
639.968	0.0156448
640.047	0.0155938
640.125	0.0157005
640.203	0.0156683
640.281	0.0154906
640.359	0.0156651
640.437	0.0156228
640.515	0.0155508
640.593	0.0156425
640.672	0.0155946
640.750	0.0155473
640.828	0.0156339
640.906	0.0156834
640.984	0.0156082
641.062	0.0155472
641.140	0.0154543
641.218	0.0155086
641.297	0.0155566
641.375	0.0155090
641.453	0.0156593
641.531	0.0156529
641.609	0.0155109
641.687	0.0155727
641.765	0.0156046
641.843	0.0155621
641.922	0.0155016
642.000	0.0156160
642.078	0.0156070
642.156	0.0156133
642.234	0.0156065
642.312	0.0156190
642.390	0.0155854
642.468	0.0156911
642.547	0.0155768
642.625	0.0155884
642.703	0.0155260
642.781	0.0155886
642.859	0.0156907
642.937	0.0157144
643.015	0.0155307
643.093	0.0155139
643.172	0.0157293
643.250	0.0155229
643.328	0.0155699
643.406	0.0156461
643.484	0.0157445
643.562	0.0155762
643.640	0.0156398
643.718	0.0156468
643.797	0.0156220
643.875	0.0156210
643.953	0.0155650
644.031	0.0155296
644.109	0.0155205
644.187	0.0156041
644.265	0.0155785
644.343	0.0155608
644.422	0.0157259
644.500	0.0157585
644.578	0.0155758
644.656	0.0155208
644.734	0.0156437
644.812	0.0156096
644.890	0.0155492
644.968	0.0156039
645.047	0.0155156
645.125	0.0155178
645.203	0.0155981
645.281	0.0157513
645.359	0.0155656
645.437	0.0156877
645.515	0.0155340
645.593	0.0154688
645.672	0.0157545
645.750	0.0156834
645.828	0.0156012
645.906	0.0155736
645.984	0.0156543
646.062	0.0155238
646.140	0.0156264
646.218	0.0154795
646.297	0.0156371
646.375	0.0155929
646.453	0.0156389
646.531	0.0157606
646.609	0.0155476
646.687	0.0155923
646.765	0.0155820
646.843	0.0155299
646.922	0.0156237
647.000	0.0156450
647.078	0.0154591
647.156	0.0155986
647.234	0.0156670
647.312	0.0156389
647.390	0.0156380
647.468	0.0155904
647.547	0.0156056
647.625	0.0156227
647.703	0.0155177
647.781	0.0156209
647.859	0.0155584
647.937	0.0156650
648.015	0.0154881
648.093	0.0155375
648.172	0.0156115
648.250	0.0155911
648.328	0.0155110
648.406	0.0155212
648.484	0.0156578
648.562	0.0154933
648.640	0.0155920
648.718	0.0156071
648.797	0.0156335
648.875	0.0155197
648.953	0.0155316
649.031	0.0157201
649.109	0.0156483
649.187	0.0156214
649.265	0.0156612
649.343	0.0156060
649.422	0.0156189
649.500	0.0155664
649.578	0.0155647
649.656	0.0154609
649.734	0.0154925
649.812	0.0156295
649.890	0.0156451
649.968	0.0156895
650.047	0.0155673
650.125	0.0156028
650.203	0.0156182
650.281	0.0156065
650.359	0.0156471
650.437	0.0155560
650.515	0.0156845
650.593	0.0156944
650.672	0.0158821
650.750	0.0154761
650.828	0.0155496
650.906	0.0155394
650.984	0.0155088
651.062	0.0156392
651.140	0.0157158
651.218	0.0156248
651.297	0.0155367
651.375	0.0156236
651.453	0.0155556
651.531	0.0155412
651.609	0.0155969
651.687	0.0156708
651.765	0.0156982
651.843	0.0156021
651.922	0.0155987
652.000	0.0157107
652.078	0.0155257
652.156	0.0155752
652.234	0.0155754
652.312	0.0156835
652.390	0.0155769
652.468	0.0155063
652.547	0.0157157
652.625	0.0157324
652.703	0.0157526
652.781	0.0154241
652.859	0.0155988
652.937	0.0154582
653.015	0.0157306
653.093	0.0155916
653.172	0.0155084
653.250	0.0155882
653.328	0.0156470
653.406	0.0154176
653.484	0.0157228
653.562	0.0156714
653.640	0.0155366
653.718	0.0155479
653.797	0.0155920
653.875	0.0156296
653.953	0.0155132
654.031	0.0156730
654.109	0.0156296
654.187	0.0157811
654.265	0.0155694
654.343	0.0155472
654.422	0.0155479
654.500	0.0156429
654.578	0.0154243
654.656	0.0154626
654.734	0.0155790
654.812	0.0156734
654.890	0.0156833
654.968	0.0155383
655.047	0.0155096
655.125	0.0155092
655.203	0.0156344
655.281	0.0156708
655.359	0.0156233
655.437	0.0155981
655.515	0.0157423
655.593	0.0156639
655.672	0.0155933
655.750	0.0155878
655.828	0.0155368
655.906	0.0155733
655.984	0.0155673
656.062	0.0154768
656.140	0.0156852
656.218	0.0156260
656.297	0.0155679
656.375	0.0155206
656.453	0.0155205
656.531	0.0155650
656.609	0.0156066
656.687	0.0156647
656.765	0.0155568
656.843	0.0155605
656.922	0.0157197
657.000	0.0155979
657.078	0.0156150
657.156	0.0156564
657.234	0.0155884
657.312	0.0155101
657.390	0.0155846
657.468	0.0156758
657.547	0.0156673
657.625	0.0156786
657.703	0.0155315
657.781	0.0156774
657.859	0.0156636
657.937	0.0155955
658.015	0.0156075
658.093	0.0155672
658.172	0.0155826
658.250	0.0156213
658.328	0.0155433
658.406	0.0155907
658.484	0.0155328
658.562	0.0155523
658.640	0.0156300
658.718	0.0154942
658.797	0.0154926
658.875	0.0156614
658.953	0.0156669
659.031	0.0154897
659.109	0.0156188
659.187	0.0155811
659.265	0.0154976
659.343	0.0156864
659.422	0.0155217
659.500	0.0156119
659.578	0.0155093
659.656	0.0155508
659.734	0.0157109
659.812	0.0156798
659.890	0.0156262
659.968	0.0155762
660.047	0.0156104
660.125	0.0157632
660.203	0.0155332
660.281	0.0155784
660.359	0.0156602
660.437	0.0156767
660.515	0.0156511
660.593	0.0156066
660.672	0.0157195
660.750	0.0157191
660.828	0.0155396
660.906	0.0154969
660.984	0.0156631
661.062	0.0156822
661.140	0.0156253
661.218	0.0156219
661.297	0.0155650
661.375	0.0155137
661.453	0.0156939
661.531	0.0156455
661.609	0.0156300
661.687	0.0155375
661.765	0.0156322
661.843	0.0155064
661.922	0.0155038
662.000	0.0157841
662.078	0.0157030
662.156	0.0156185
662.234	0.0156055
662.312	0.0156673
662.390	0.0156815
662.468	0.0156947
662.547	0.0155116
662.625	0.0153904
662.703	0.0155826
662.781	0.0156095
662.859	0.0155373
662.937	0.0156673
663.015	0.0156195
663.093	0.0154254
663.172	0.0156052
663.250	0.0157313
663.328	0.0155773
663.406	0.0155642
663.484	0.0155215
663.562	0.0156745
663.640	0.0155807
663.718	0.0155762
663.797	0.0155405
663.875	0.0156444
663.953	0.0156082
664.031	0.0155564
664.109	0.0157358
664.187	0.0156087
664.265	0.0156790
664.343	0.0156121
664.422	0.0155907
664.500	0.0155363
664.578	0.0156667
664.656	0.0156879
664.734	0.0155589
664.812	0.0154748
664.890	0.0155813
664.968	0.0156271
665.047	0.0155775
665.125	0.0155236
665.203	0.0155972
665.281	0.0156355
665.359	0.0155465
665.437	0.0155694
665.515	0.0157027
665.593	0.0154143
665.672	0.0154996
665.750	0.0156075
665.828	0.0156819
665.906	0.0155269
665.984	0.0155686
666.062	0.0155984
666.140	0.0154347
666.218	0.0155230
666.297	0.0157636
666.375	0.0155283
666.453	0.0154725
666.531	0.0156437
666.609	0.0156158
666.687	0.0154992
666.765	0.0155172
666.843	0.0156483
666.922	0.0156066
667.000	0.0156177
667.078	0.0156541
667.156	0.0155478
667.234	0.0155562
667.312	0.0157243
667.390	0.0156689
667.468	0.0154943
667.547	0.0156164
667.625	0.0156556
667.703	0.0156568
667.781	0.0156537
667.859	0.0155695
667.937	0.0156465
668.015	0.0156416
668.093	0.0155997
668.172	0.0156506
668.250	0.0156171
668.328	0.0155260
668.406	0.0155434
668.484	0.0155965
668.562	0.0155166
668.640	0.0156185
668.718	0.0157137
668.797	0.0154678
668.875	0.0157400
668.953	0.0156193
669.031	0.0155014
669.109	0.0155792
669.187	0.0156089
669.265	0.0154379
669.343	0.0155706
669.422	0.0155072
669.500	0.0155550
669.578	0.0155653
669.656	0.0155260
669.734	0.0154707
669.812	0.0154075
669.890	0.0157368
669.968	0.0156409
670.047	0.0155445
670.125	0.0155845
670.203	0.0155669
670.281	0.0156255
670.359	0.0156325
670.437	0.0155458
670.515	0.0155214
670.593	0.0156457
670.672	0.0155418
670.750	0.0154702
670.828	0.0156003
670.906	0.0155126
670.984	0.0155997
671.062	0.0155926
671.140	0.0155741
671.218	0.0155075
671.297	0.0154874
671.375	0.0155069
671.453	0.0155496
671.531	0.0156246
671.609	0.0155724
671.687	0.0155833
671.765	0.0156547
671.843	0.0155700
671.922	0.0156783
672.000	0.0157182
672.078	0.0156037
672.156	0.0156091
672.234	0.0156031
672.312	0.0156200
672.390	0.0154980
672.468	0.0155060
672.547	0.0155188
672.625	0.0155313
672.703	0.0153559
672.781	0.0154966
672.859	0.0154881
672.937	0.0154920
673.015	0.0155721
673.093	0.0155720
673.172	0.0155518
673.250	0.0155289
673.328	0.0155248
673.406	0.0155986
673.484	0.0156853
673.562	0.0157632
673.640	0.0156164
673.718	0.0155364
673.797	0.0156054
673.875	0.0154330
673.953	0.0155320
674.031	0.0155992
674.109	0.0157170
674.187	0.0157563
674.265	0.0155550
674.343	0.0154485
674.422	0.0155322
674.500	0.0157055
674.578	0.0156074
674.656	0.0155192
674.734	0.0155325
674.812	0.0156100
674.890	0.0155933
674.968	0.0157037
675.047	0.0155273
675.125	0.0154884
675.203	0.0155932
675.281	0.0155329
675.359	0.0156264
675.437	0.0156107
675.515	0.0156108
675.593	0.0156120
675.672	0.0155373
675.750	0.0155608
675.828	0.0156231
675.906	0.0157265
675.984	0.0155909
676.062	0.0156221
676.140	0.0154393
676.218	0.0156242
676.297	0.0156762
676.375	0.0157442
676.453	0.0155178
676.531	0.0155715
676.609	0.0155785
676.687	0.0155907
676.765	0.0155904
676.843	0.0157260
676.922	0.0155415
677.000	0.0154944
677.078	0.0156062
677.156	0.0155338
677.234	0.0154662
677.312	0.0155925
677.390	0.0155377
677.468	0.0156354
677.547	0.0156639
677.625	0.0154743
677.703	0.0156507
677.781	0.0156293
677.859	0.0155375
677.937	0.0156290
678.015	0.0154736
678.093	0.0156636
678.172	0.0155507
678.250	0.0155940
678.328	0.0156422
678.406	0.0157180
678.484	0.0156002
678.562	0.0155163
678.640	0.0155365
678.718	0.0154848
678.797	0.0155716
678.875	0.0155746
678.953	0.0156255
679.031	0.0157092
679.109	0.0155978
679.187	0.0155618
679.265	0.0153130
679.343	0.0155701
679.422	0.0155826
679.500	0.0155906
679.578	0.0155663
679.656	0.0154216
679.734	0.0154920
679.812	0.0155817
679.890	0.0155910
679.968	0.0155743
680.047	0.0155217
680.125	0.0155579
680.203	0.0155833
680.281	0.0156135
680.359	0.0157410
680.437	0.0156634
680.515	0.0156174
680.593	0.0156864
680.672	0.0154755
680.750	0.0153959
680.828	0.0157378
680.906	0.0156364
680.984	0.0155301
681.062	0.0153505
681.140	0.0155686
681.218	0.0156315
681.297	0.0156666
681.375	0.0155792
681.453	0.0156203
681.531	0.0156444
681.609	0.0155879
681.687	0.0156522
681.765	0.0156494
681.843	0.0155885
681.922	0.0156519
682.000	0.0157034
682.078	0.0156750
682.156	0.0155550
682.234	0.0155338
682.312	0.0156663
682.390	0.0155968
682.468	0.0156358
682.547	0.0154930
682.625	0.0155945
682.703	0.0156741
682.781	0.0156672
682.859	0.0154997
682.937	0.0156353
683.015	0.0156053
683.093	0.0155225
683.172	0.0157298
683.250	0.0156021
683.328	0.0156085
683.406	0.0155122
683.484	0.0155774
683.562	0.0154784
683.640	0.0156660
683.718	0.0154752
683.797	0.0154725
683.875	0.0155954
683.953	0.0156042
684.031	0.0155607
684.109	0.0157119
684.187	0.0155930
684.265	0.0156268
684.343	0.0154214
684.422	0.0155361
684.500	0.0156264
684.578	0.0155711
684.656	0.0156952
684.734	0.0155215
684.812	0.0155903
684.890	0.0154810
684.968	0.0154903
685.047	0.0155523
685.125	0.0155486
685.203	0.0156168
685.281	0.0155380
685.359	0.0155430
685.437	0.0155653
685.515	0.0155779
685.593	0.0155157
685.672	0.0154639
