06/13/2022	14:34:28	Ver.	4.1	UNKNOWN
Optical Delay	599.968395	Delta X		0.078125	Sweeps	1	Scan Rate	0/0
Coordinates	Axis 1	NaN	Axis 2	NaN	Axis 3	NaN	Axis 4	NaN	Axis 5	NaN	Axis 6	0.000000
TX Power	0.000000	RX Power	0.000000

599.968	0.0159181
600.047	0.0159376
600.125	0.0160341
600.203	0.0158768
600.281	0.0159344
600.359	0.0159804
600.437	0.0160524
600.515	0.0159808
600.593	0.0158588
600.672	0.0157820
600.750	0.0158488
600.828	0.0160562
600.906	0.0159409
600.984	0.0160387
601.062	0.0159534
601.140	0.0159830
601.218	0.0158409
601.297	0.0159341
601.375	0.0159145
601.453	0.0157929
601.531	0.0157290
601.609	0.0158742
601.687	0.0159034
601.765	0.0159126
601.843	0.0158341
601.922	0.0159155
602.000	0.0159087
602.078	0.0159695
602.156	0.0158081
602.234	0.0158918
602.312	0.0159699
602.390	0.0158881
602.468	0.0158259
602.547	0.0160044
602.625	0.0160196
602.703	0.0158380
602.781	0.0159058
602.859	0.0159199
602.937	0.0159544
603.015	0.0159478
603.093	0.0158932
603.172	0.0159640
603.250	0.0158478
603.328	0.0159420
603.406	0.0160053
603.484	0.0158076
603.562	0.0158173
603.640	0.0158464
603.718	0.0159039
603.797	0.0160226
603.875	0.0159874
603.953	0.0159859
604.031	0.0159892
604.109	0.0160002
604.187	0.0158471
604.265	0.0157708
604.343	0.0158002
604.422	0.0159148
604.500	0.0159514
604.578	0.0159329
604.656	0.0159010
604.734	0.0159386
604.812	0.0159563
604.890	0.0160159
604.968	0.0159476
605.047	0.0159580
605.125	0.0159573
605.203	0.0158199
605.281	0.0158832
605.359	0.0159700
605.437	0.0159822
605.515	0.0159817
605.593	0.0158743
605.672	0.0159618
605.750	0.0159058
605.828	0.0159638
605.906	0.0159432
605.984	0.0158964
606.062	0.0159695
606.140	0.0158772
606.218	0.0158353
606.297	0.0159437
606.375	0.0159990
606.453	0.0159627
606.531	0.0159692
606.609	0.0160153
606.687	0.0158269
606.765	0.0158900
606.843	0.0158379
606.922	0.0159553
607.000	0.0160003
607.078	0.0159283
607.156	0.0158276
607.234	0.0158500
607.312	0.0160053
607.390	0.0158772
607.468	0.0158891
607.547	0.0159573
607.625	0.0160006
607.703	0.0158957
607.781	0.0159164
607.859	0.0159257
607.937	0.0158136
608.015	0.0159176
608.093	0.0160028
608.172	0.0159944
608.250	0.0160159
608.328	0.0159856
608.406	0.0160162
608.484	0.0158521
608.562	0.0158062
608.640	0.0160170
608.718	0.0160142
608.797	0.0159525
608.875	0.0159912
608.953	0.0158385
609.031	0.0158390
609.109	0.0159237
609.187	0.0158645
609.265	0.0158173
609.343	0.0159258
609.422	0.0159187
609.500	0.0158728
609.578	0.0158075
609.656	0.0159810
609.734	0.0159437
609.812	0.0159084
609.890	0.0160211
609.968	0.0159088
610.047	0.0158991
610.125	0.0158712
610.203	0.0158822
610.281	0.0158765
610.359	0.0160725
610.437	0.0159398
610.515	0.0158262
610.593	0.0157764
610.672	0.0160963
610.750	0.0158050
610.828	0.0159039
610.906	0.0159162
610.984	0.0159204
611.062	0.0160060
611.140	0.0159583
611.218	0.0158468
611.297	0.0158109
611.375	0.0159788
611.453	0.0160223
611.531	0.0160641
611.609	0.0158788
611.687	0.0158964
611.765	0.0158907
611.843	0.0157925
611.922	0.0159101
612.000	0.0159604
612.078	0.0159987
612.156	0.0159383
612.234	0.0160094
612.312	0.0159754
612.390	0.0160375
612.468	0.0158891
612.547	0.0158589
612.625	0.0158805
612.703	0.0159634
612.781	0.0158219
612.859	0.0158427
612.937	0.0158540
613.015	0.0160806
613.093	0.0159449
613.172	0.0158950
613.250	0.0159042
613.328	0.0158607
613.406	0.0158692
613.484	0.0160880
613.562	0.0159335
613.640	0.0159705
613.718	0.0158722
613.797	0.0158933
613.875	0.0158044
613.953	0.0159743
614.031	0.0160050
614.109	0.0158599
614.187	0.0158784
614.265	0.0159105
614.343	0.0158704
614.422	0.0159088
614.500	0.0160060
614.578	0.0158517
614.656	0.0160359
614.734	0.0159174
614.812	0.0159397
614.890	0.0158327
614.968	0.0159479
615.047	0.0158485
615.125	0.0159451
615.203	0.0159843
615.281	0.0158198
615.359	0.0159450
615.437	0.0158466
615.515	0.0158835
615.593	0.0159353
615.672	0.0160110
615.750	0.0159033
615.828	0.0157956
615.906	0.0159949
615.984	0.0161326
616.062	0.0158895
616.140	0.0159711
616.218	0.0158621
616.297	0.0159595
616.375	0.0160705
616.453	0.0158749
616.531	0.0159097
616.609	0.0160698
616.687	0.0159600
616.765	0.0159459
616.843	0.0159326
616.922	0.0159560
617.000	0.0159822
617.078	0.0160069
617.156	0.0159077
617.234	0.0158906
617.312	0.0159605
617.390	0.0159000
617.468	0.0160802
617.547	0.0160651
617.625	0.0159768
617.703	0.0159309
617.781	0.0159462
617.859	0.0160685
617.937	0.0159174
618.015	0.0159627
618.093	0.0161013
618.172	0.0158910
618.250	0.0159574
618.328	0.0159592
618.406	0.0161004
618.484	0.0158630
618.562	0.0159094
618.640	0.0159314
618.718	0.0159898
618.797	0.0158470
618.875	0.0159740
618.953	0.0159518
619.031	0.0158578
619.109	0.0159283
619.187	0.0159378
619.265	0.0159059
619.343	0.0159445
619.422	0.0158741
619.500	0.0158080
619.578	0.0158988
619.656	0.0158797
619.734	0.0160543
619.812	0.0159606
619.890	0.0158232
619.968	0.0158475
620.047	0.0159934
620.125	0.0159076
620.203	0.0159620
620.281	0.0159962
620.359	0.0159560
620.437	0.0159672
620.515	0.0160037
620.593	0.0160097
620.672	0.0159153
620.750	0.0159601
620.828	0.0160287
620.906	0.0159763
620.984	0.0158386
621.062	0.0158900
621.140	0.0160274
621.218	0.0158986
621.297	0.0159623
621.375	0.0158865
621.453	0.0159531
621.531	0.0159685
621.609	0.0159767
621.687	0.0159023
621.765	0.0157867
621.843	0.0158645
621.922	0.0160265
622.000	0.0159809
622.078	0.0159169
622.156	0.0159081
622.234	0.0158497
622.312	0.0159988
622.390	0.0160537
622.468	0.0159921
622.547	0.0156658
622.625	0.0160501
622.703	0.0159712
622.781	0.0159154
622.859	0.0159573
622.937	0.0159361
623.015	0.0159196
623.093	0.0161345
623.172	0.0158361
623.250	0.0159123
623.328	0.0159841
623.406	0.0160272
623.484	0.0158070
623.562	0.0159024
623.640	0.0159933
623.718	0.0158529
623.797	0.0159895
623.875	0.0158768
623.953	0.0158591
624.031	0.0159297
624.109	0.0159812
624.187	0.0159655
624.265	0.0159328
624.343	0.0158895
624.422	0.0158982
624.500	0.0160035
624.578	0.0158920
624.656	0.0159633
624.734	0.0159261
624.812	0.0159370
624.890	0.0158936
624.968	0.0158658
625.047	0.0157323
625.125	0.0159276
625.203	0.0159283
625.281	0.0158625
625.359	0.0159071
625.437	0.0160287
625.515	0.0159639
625.593	0.0158556
625.672	0.0159251
625.750	0.0159331
625.828	0.0158386
625.906	0.0158759
625.984	0.0158864
626.062	0.0159532
626.140	0.0159565
626.218	0.0159360
626.297	0.0158808
626.375	0.0160004
626.453	0.0158597
626.531	0.0159555
626.609	0.0158975
626.687	0.0159649
626.765	0.0160473
626.843	0.0157772
626.922	0.0159209
627.000	0.0157925
627.078	0.0159044
627.156	0.0159951
627.234	0.0159834
627.312	0.0159930
627.390	0.0157887
627.468	0.0160494
627.547	0.0160078
627.625	0.0159112
627.703	0.0158959
627.781	0.0159132
627.859	0.0157862
627.937	0.0159000
628.015	0.0159237
628.093	0.0157841
628.172	0.0158763
628.250	0.0158444
628.328	0.0159657
628.406	0.0159206
628.484	0.0159463
628.562	0.0159889
628.640	0.0158250
628.718	0.0158818
628.797	0.0159917
628.875	0.0159759
628.953	0.0158885
629.031	0.0159576
629.109	0.0158672
629.187	0.0157792
629.265	0.0159226
629.343	0.0158694
629.422	0.0158868
629.500	0.0159592
629.578	0.0159173
629.656	0.0159133
629.734	0.0159018
629.812	0.0159805
629.890	0.0158122
629.968	0.0160063
630.047	0.0160069
630.125	0.0158594
630.203	0.0159100
630.281	0.0159653
630.359	0.0159988
630.437	0.0160545
630.515	0.0160046
630.593	0.0158663
630.672	0.0159203
630.750	0.0159626
630.828	0.0158907
630.906	0.0159078
630.984	0.0159171
631.062	0.0158807
631.140	0.0159748
631.218	0.0159589
631.297	0.0159383
631.375	0.0159451
631.453	0.0159963
631.531	0.0158743
631.609	0.0158493
631.687	0.0158171
631.765	0.0159337
631.843	0.0160020
631.922	0.0159013
632.000	0.0159940
632.078	0.0158567
632.156	0.0160698
632.234	0.0159143
632.312	0.0158190
632.390	0.0158424
632.468	0.0158563
632.547	0.0159356
632.625	0.0158784
632.703	0.0159424
632.781	0.0158905
632.859	0.0159419
632.937	0.0158444
633.015	0.0158879
633.093	0.0159254
633.172	0.0160367
633.250	0.0161219
633.328	0.0159019
633.406	0.0160251
633.484	0.0159630
633.562	0.0158862
633.640	0.0158566
633.718	0.0159290
633.797	0.0160815
633.875	0.0160107
633.953	0.0159057
634.031	0.0158700
634.109	0.0159173
634.187	0.0159689
634.265	0.0159552
634.343	0.0158779
634.422	0.0159309
634.500	0.0160473
634.578	0.0158322
634.656	0.0160176
634.734	0.0159459
634.812	0.0158854
634.890	0.0159372
634.968	0.0159558
635.047	0.0159105
635.125	0.0159414
635.203	0.0159998
635.281	0.0160026
635.359	0.0160752
635.437	0.0158937
635.515	0.0159542
635.593	0.0158704
635.672	0.0160497
635.750	0.0160786
635.828	0.0159181
635.906	0.0159528
635.984	0.0159608
636.062	0.0159135
636.140	0.0159351
636.218	0.0159079
636.297	0.0157602
636.375	0.0158330
636.453	0.0158747
636.531	0.0158791
636.609	0.0159119
636.687	0.0158920
636.765	0.0159354
636.843	0.0158945
636.922	0.0159881
637.000	0.0159647
637.078	0.0159723
637.156	0.0159841
637.234	0.0160145
637.312	0.0158948
637.390	0.0159132
637.468	0.0159612
637.547	0.0158759
637.625	0.0158601
637.703	0.0159164
637.781	0.0159195
637.859	0.0159196
637.937	0.0160125
638.015	0.0159154
638.093	0.0159531
638.172	0.0159469
638.250	0.0159058
638.328	0.0159180
638.406	0.0159883
638.484	0.0159070
638.562	0.0157888
638.640	0.0159407
638.718	0.0160007
638.797	0.0159232
638.875	0.0158621
638.953	0.0159174
639.031	0.0158795
639.109	0.0160034
639.187	0.0159003
639.265	0.0157944
639.343	0.0159760
639.422	0.0159553
639.500	0.0158572
639.578	0.0160409
639.656	0.0159197
639.734	0.0159502
639.812	0.0159719
639.890	0.0158945
639.968	0.0161013
640.047	0.0159532
640.125	0.0158105
640.203	0.0159271
640.281	0.0158849
640.359	0.0158780
640.437	0.0160097
640.515	0.0158746
640.593	0.0157223
640.672	0.0160678
640.750	0.0159262
640.828	0.0158878
640.906	0.0159314
640.984	0.0159105
641.062	0.0159546
641.140	0.0159605
641.218	0.0158458
641.297	0.0158179
641.375	0.0159544
641.453	0.0159823
641.531	0.0159818
641.609	0.0158220
641.687	0.0159712
641.765	0.0159341
641.843	0.0158925
641.922	0.0159309
642.000	0.0158479
642.078	0.0158976
642.156	0.0160117
642.234	0.0158549
642.312	0.0157564
642.390	0.0158295
642.468	0.0158673
642.547	0.0159584
642.625	0.0159120
642.703	0.0160503
642.781	0.0158563
642.859	0.0159510
642.937	0.0159586
643.015	0.0156978
643.093	0.0159385
643.172	0.0159511
643.250	0.0157855
643.328	0.0158107
643.406	0.0159033
643.484	0.0158787
643.562	0.0158161
643.640	0.0157682
643.718	0.0158530
643.797	0.0159396
643.875	0.0159382
643.953	0.0159302
644.031	0.0160349
644.109	0.0159416
644.187	0.0159383
644.265	0.0159896
644.343	0.0160101
644.422	0.0158678
644.500	0.0159450
644.578	0.0158562
644.656	0.0158831
644.734	0.0159494
644.812	0.0158830
644.890	0.0159055
644.968	0.0158792
645.047	0.0158763
645.125	0.0159164
645.203	0.0158908
645.281	0.0159708
645.359	0.0159729
645.437	0.0159146
645.515	0.0159202
645.593	0.0159563
645.672	0.0159285
645.750	0.0158131
645.828	0.0159816
645.906	0.0158537
645.984	0.0158824
646.062	0.0159801
646.140	0.0159727
646.218	0.0159727
646.297	0.0157822
646.375	0.0159068
646.453	0.0160535
646.531	0.0160049
646.609	0.0159414
646.687	0.0159747
646.765	0.0158754
646.843	0.0157922
646.922	0.0160497
647.000	0.0159939
647.078	0.0158461
647.156	0.0159376
647.234	0.0158223
647.312	0.0159455
647.390	0.0158678
647.468	0.0158285
647.547	0.0160313
647.625	0.0159647
647.703	0.0158704
647.781	0.0159211
647.859	0.0159393
647.937	0.0158826
648.015	0.0159381
648.093	0.0160399
648.172	0.0159496
648.250	0.0159442
648.328	0.0157141
648.406	0.0160072
648.484	0.0159641
648.562	0.0159612
648.640	0.0159266
648.718	0.0160795
648.797	0.0159877
648.875	0.0160197
648.953	0.0158234
649.031	0.0159486
649.109	0.0159071
649.187	0.0158977
649.265	0.0158231
649.343	0.0158086
649.422	0.0159605
649.500	0.0159369
649.578	0.0159492
649.656	0.0158289
649.734	0.0159257
649.812	0.0160398
649.890	0.0159862
649.968	0.0159712
650.047	0.0160001
650.125	0.0157948
650.203	0.0159078
650.281	0.0158021
650.359	0.0160912
650.437	0.0157877
650.515	0.0159628
650.593	0.0159485
650.672	0.0159777
650.750	0.0159613
650.828	0.0158829
650.906	0.0159728
650.984	0.0159435
651.062	0.0159132
651.140	0.0159437
651.218	0.0158506
651.297	0.0159605
651.375	0.0159547
651.453	0.0158891
651.531	0.0160613
651.609	0.0159111
651.687	0.0158775
651.765	0.0158625
651.843	0.0158972
651.922	0.0159072
652.000	0.0158241
652.078	0.0159101
652.156	0.0160157
652.234	0.0158457
652.312	0.0159520
652.390	0.0158887
652.468	0.0158156
652.547	0.0159342
652.625	0.0159330
652.703	0.0159553
652.781	0.0159514
652.859	0.0159022
652.937	0.0158598
653.015	0.0157568
653.093	0.0158967
653.172	0.0159328
653.250	0.0158128
653.328	0.0159150
653.406	0.0159168
653.484	0.0159067
653.562	0.0160255
653.640	0.0159197
653.718	0.0158317
653.797	0.0160448
653.875	0.0159699
653.953	0.0160577
654.031	0.0158005
654.109	0.0159995
654.187	0.0158286
654.265	0.0159225
654.343	0.0158844
654.422	0.0158929
654.500	0.0158857
654.578	0.0159565
654.656	0.0158635
654.734	0.0158813
654.812	0.0160343
654.890	0.0159555
654.968	0.0159251
655.047	0.0159293
655.125	0.0160153
655.203	0.0159048
655.281	0.0158274
655.359	0.0159191
655.437	0.0158499
655.515	0.0158999
655.593	0.0159393
655.672	0.0158579
655.750	0.0159428
655.828	0.0160065
655.906	0.0159306
655.984	0.0157817
656.062	0.0158782
656.140	0.0160212
656.218	0.0159481
656.297	0.0159666
656.375	0.0159270
656.453	0.0160264
656.531	0.0158627
656.609	0.0160013
656.687	0.0160254
656.765	0.0159821
656.843	0.0159763
656.922	0.0159112
657.000	0.0158933
657.078	0.0159589
657.156	0.0159345
657.234	0.0160896
657.312	0.0159707
657.390	0.0159203
657.468	0.0159526
657.547	0.0159922
657.625	0.0158918
657.703	0.0159835
657.781	0.0158376
657.859	0.0158891
657.937	0.0159345
658.015	0.0160442
658.093	0.0159754
658.172	0.0159164
658.250	0.0159238
658.328	0.0158456
658.406	0.0159097
658.484	0.0158920
658.562	0.0159372
658.640	0.0158343
658.718	0.0159861
658.797	0.0158579
658.875	0.0159801
658.953	0.0160151
659.031	0.0158614
659.109	0.0159809
659.187	0.0160242
659.265	0.0158620
659.343	0.0160085
659.422	0.0160274
659.500	0.0159474
659.578	0.0158876
659.656	0.0158538
659.734	0.0158894
659.812	0.0159612
659.890	0.0159218
659.968	0.0159884
660.047	0.0159665
660.125	0.0159301
660.203	0.0159135
660.281	0.0159016
660.359	0.0159319
660.437	0.0159102
660.515	0.0158399
660.593	0.0158555
660.672	0.0160382
660.750	0.0158298
660.828	0.0158603
660.906	0.0160406
660.984	0.0158700
661.062	0.0159583
661.140	0.0159490
661.218	0.0159807
661.297	0.0158814
661.375	0.0159038
661.453	0.0159587
661.531	0.0159769
661.609	0.0157755
661.687	0.0158118
661.765	0.0159701
661.843	0.0161063
661.922	0.0158472
662.000	0.0158440
662.078	0.0159546
662.156	0.0159999
662.234	0.0160165
662.312	0.0160574
662.390	0.0159867
662.468	0.0158667
662.547	0.0158994
662.625	0.0159518
662.703	0.0159321
662.781	0.0159892
662.859	0.0160086
662.937	0.0159558
663.015	0.0159052
663.093	0.0160168
663.172	0.0159436
663.250	0.0159497
663.328	0.0159185
663.406	0.0159003
663.484	0.0157854
663.562	0.0158076
663.640	0.0159544
663.718	0.0159001
663.797	0.0159499
663.875	0.0160339
663.953	0.0161688
664.031	0.0159699
664.109	0.0159279
664.187	0.0159074
664.265	0.0159911
664.343	0.0159341
664.422	0.0158894
664.500	0.0159283
664.578	0.0159013
664.656	0.0160297
664.734	0.0159355
664.812	0.0158990
664.890	0.0159090
664.968	0.0160465
665.047	0.0160542
665.125	0.0159699
665.203	0.0160094
665.281	0.0158662
665.359	0.0159464
665.437	0.0159004
665.515	0.0159101
665.593	0.0159349
665.672	0.0159075
665.750	0.0159445
665.828	0.0158202
665.906	0.0158564
665.984	0.0161288
666.062	0.0159076
666.140	0.0158632
666.218	0.0159349
666.297	0.0158407
666.375	0.0158294
666.453	0.0158466
666.531	0.0158767
666.609	0.0158567
666.687	0.0160088
666.765	0.0158389
666.843	0.0158542
666.922	0.0158965
667.000	0.0159031
667.078	0.0158945
667.156	0.0160466
667.234	0.0159668
667.312	0.0159965
667.390	0.0159487
667.468	0.0158752
667.547	0.0159551
667.625	0.0158768
667.703	0.0159261
667.781	0.0158952
667.859	0.0159637
667.937	0.0160437
668.015	0.0158952
668.093	0.0158820
668.172	0.0159454
668.250	0.0157784
668.328	0.0159886
668.406	0.0160026
668.484	0.0158882
668.562	0.0158356
668.640	0.0159364
668.718	0.0159077
668.797	0.0157858
668.875	0.0157992
668.953	0.0159624
669.031	0.0159302
669.109	0.0160396
669.187	0.0158074
669.265	0.0158904
669.343	0.0160786
669.422	0.0160577
669.500	0.0159129
669.578	0.0158025
669.656	0.0159173
669.734	0.0161238
669.812	0.0160403
669.890	0.0158767
669.968	0.0159367
670.047	0.0159612
670.125	0.0158957
670.203	0.0158270
670.281	0.0158914
670.359	0.0158826
670.437	0.0160065
670.515	0.0158651
670.593	0.0159718
670.672	0.0158380
670.750	0.0159361
670.828	0.0159830
670.906	0.0159394
670.984	0.0159233
671.062	0.0159415
671.140	0.0159628
671.218	0.0159832
671.297	0.0160632
671.375	0.0157594
671.453	0.0158694
671.531	0.0160512
671.609	0.0159042
671.687	0.0159751
671.765	0.0159881
671.843	0.0159203
671.922	0.0159782
672.000	0.0160564
672.078	0.0158946
672.156	0.0159731
672.234	0.0159794
672.312	0.0158369
672.390	0.0160378
672.468	0.0158722
672.547	0.0160085
672.625	0.0160207
672.703	0.0159673
672.781	0.0159791
672.859	0.0159350
672.937	0.0158350
673.015	0.0159587
673.093	0.0160468
673.172	0.0159664
673.250	0.0159940
673.328	0.0159509
673.406	0.0160195
673.484	0.0159092
673.562	0.0160932
673.640	0.0158794
673.718	0.0159393
673.797	0.0159095
673.875	0.0158746
673.953	0.0158685
674.031	0.0157980
674.109	0.0158163
674.187	0.0158083
674.265	0.0160212
674.343	0.0159496
674.422	0.0158228
674.500	0.0159271
674.578	0.0160792
674.656	0.0159045
674.734	0.0160796
674.812	0.0160073
674.890	0.0161107
674.968	0.0159599
675.047	0.0158961
675.125	0.0160111
675.203	0.0160134
675.281	0.0160080
675.359	0.0160177
675.437	0.0159510
675.515	0.0160531
675.593	0.0159619
675.672	0.0158011
675.750	0.0160236
675.828	0.0159862
675.906	0.0159522
675.984	0.0159045
676.062	0.0158862
676.140	0.0158653
676.218	0.0159706
676.297	0.0159118
676.375	0.0159937
676.453	0.0158006
676.531	0.0158562
676.609	0.0158620
676.687	0.0159370
676.765	0.0159230
676.843	0.0159200
676.922	0.0158171
677.000	0.0158215
677.078	0.0160344
677.156	0.0159957
677.234	0.0158914
677.312	0.0158837
677.390	0.0159686
677.468	0.0159692
677.547	0.0158517
677.625	0.0158686
677.703	0.0159802
677.781	0.0160413
677.859	0.0159183
677.937	0.0159221
678.015	0.0158998
678.093	0.0159120
678.172	0.0160717
678.250	0.0160179
678.328	0.0161233
678.406	0.0159135
678.484	0.0160042
678.562	0.0158865
678.640	0.0160865
678.718	0.0159254
678.797	0.0158981
678.875	0.0159199
678.953	0.0159508
679.031	0.0159704
679.109	0.0159657
679.187	0.0158743
679.265	0.0158237
679.343	0.0160051
679.422	0.0159539
679.500	0.0159451
679.578	0.0158230
679.656	0.0158500
679.734	0.0158408
679.812	0.0158282
679.890	0.0159380
679.968	0.0159008
680.047	0.0158395
680.125	0.0158891
680.203	0.0159310
680.281	0.0159761
680.359	0.0158484
680.437	0.0157647
680.515	0.0159811
680.593	0.0159489
680.672	0.0159856
680.750	0.0158672
680.828	0.0158891
680.906	0.0159500
680.984	0.0158977
681.062	0.0158364
681.140	0.0159607
681.218	0.0159289
681.297	0.0158656
681.375	0.0159750
681.453	0.0159701
681.531	0.0160060
681.609	0.0159032
681.687	0.0159013
681.765	0.0159172
681.843	0.0159772
681.922	0.0158991
682.000	0.0159646
682.078	0.0159991
682.156	0.0159351
682.234	0.0158969
682.312	0.0159663
682.390	0.0159125
682.468	0.0158742
682.547	0.0158856
682.625	0.0158378
682.703	0.0159548
682.781	0.0159965
682.859	0.0158712
682.937	0.0159241
683.015	0.0159863
683.093	0.0158382
683.172	0.0159115
683.250	0.0159457
683.328	0.0159262
683.406	0.0159529
683.484	0.0159174
683.562	0.0158379
683.640	0.0159399
683.718	0.0159640
683.797	0.0158610
683.875	0.0158334
683.953	0.0158737
684.031	0.0159656
684.109	0.0160785
684.187	0.0158693
684.265	0.0158570
684.343	0.0158421
684.422	0.0158653
684.500	0.0158854
684.578	0.0159592
684.656	0.0160136
684.734	0.0159388
684.812	0.0159007
684.890	0.0159467
684.968	0.0158973
685.047	0.0158997
685.125	0.0159538
685.203	0.0158537
685.281	0.0159657
685.359	0.0158414
685.437	0.0160140
685.515	0.0159885
685.593	0.0159058
685.672	0.0158449
