06/13/2022	14:35:28	Ver.	4.1	UNKNOWN
Optical Delay	599.968395	Delta X		0.078125	Sweeps	1	Scan Rate	0/0
Coordinates	Axis 1	NaN	Axis 2	NaN	Axis 3	NaN	Axis 4	NaN	Axis 5	NaN	Axis 6	0.000000
TX Power	0.000000	RX Power	0.000000

599.968	0.0157690
600.047	0.0157028
600.125	0.0157968
600.203	0.0157054
600.281	0.0157351
600.359	0.0158274
600.437	0.0157220
600.515	0.0155853
600.593	0.0155933
600.672	0.0157679
600.750	0.0157386
600.828	0.0157075
600.906	0.0157219
600.984	0.0157487
601.062	0.0157179
601.140	0.0156561
601.218	0.0156866
601.297	0.0157138
601.375	0.0157614
601.453	0.0156721
601.531	0.0156548
601.609	0.0157445
601.687	0.0157141
601.765	0.0158317
601.843	0.0158029
601.922	0.0157530
602.000	0.0156667
602.078	0.0156966
602.156	0.0156924
602.234	0.0157793
602.312	0.0157530
602.390	0.0157362
602.468	0.0157372
602.547	0.0157887
602.625	0.0158756
602.703	0.0157373
602.781	0.0157536
602.859	0.0157590
602.937	0.0156149
603.015	0.0156122
603.093	0.0157516
603.172	0.0159443
603.250	0.0156937
603.328	0.0156609
603.406	0.0157666
603.484	0.0157030
603.562	0.0157813
603.640	0.0158012
603.718	0.0155842
603.797	0.0156927
603.875	0.0157413
603.953	0.0157613
604.031	0.0157392
604.109	0.0156890
604.187	0.0157645
604.265	0.0157391
604.343	0.0157436
604.422	0.0157791
604.500	0.0159011
604.578	0.0157761
604.656	0.0157165
604.734	0.0156842
604.812	0.0156230
604.890	0.0157090
604.968	0.0157096
605.047	0.0157268
605.125	0.0156873
605.203	0.0157413
605.281	0.0157129
605.359	0.0158067
605.437	0.0158215
605.515	0.0156975
605.593	0.0157070
605.672	0.0157662
605.750	0.0156527
605.828	0.0157595
605.906	0.0157353
605.984	0.0157103
606.062	0.0158328
606.140	0.0157955
606.218	0.0155984
606.297	0.0156774
606.375	0.0157807
606.453	0.0158008
606.531	0.0158647
606.609	0.0156942
606.687	0.0157211
606.765	0.0157381
606.843	0.0156982
606.922	0.0158751
607.000	0.0157362
607.078	0.0156935
607.156	0.0156590
607.234	0.0157599
607.312	0.0156256
607.390	0.0157454
607.468	0.0156612
607.547	0.0156884
607.625	0.0155889
607.703	0.0157496
607.781	0.0157808
607.859	0.0157547
607.937	0.0155590
608.015	0.0158111
608.093	0.0156596
608.172	0.0157187
608.250	0.0157864
608.328	0.0157722
608.406	0.0156543
608.484	0.0155993
608.562	0.0157522
608.640	0.0156281
608.718	0.0156555
608.797	0.0156682
608.875	0.0157047
608.953	0.0156554
609.031	0.0156390
609.109	0.0157586
609.187	0.0156491
609.265	0.0157457
609.343	0.0158046
609.422	0.0157124
609.500	0.0156825
609.578	0.0156644
609.656	0.0157240
609.734	0.0155962
609.812	0.0155432
609.890	0.0156838
609.968	0.0155424
610.047	0.0157037
610.125	0.0157449
610.203	0.0156279
610.281	0.0157792
610.359	0.0157093
610.437	0.0155947
610.515	0.0157353
610.593	0.0157270
610.672	0.0155819
610.750	0.0157962
610.828	0.0157543
610.906	0.0157011
610.984	0.0156886
611.062	0.0158150
611.140	0.0157488
611.218	0.0156216
611.297	0.0157157
611.375	0.0157667
611.453	0.0157263
611.531	0.0157535
611.609	0.0157205
611.687	0.0154875
611.765	0.0157209
611.843	0.0157028
611.922	0.0156938
612.000	0.0158170
612.078	0.0158006
612.156	0.0158739
612.234	0.0157439
612.312	0.0156792
612.390	0.0157040
612.468	0.0157506
612.547	0.0158567
612.625	0.0157844
612.703	0.0156558
612.781	0.0156156
612.859	0.0157468
612.937	0.0157349
613.015	0.0157491
613.093	0.0156773
613.172	0.0157595
613.250	0.0157430
613.328	0.0156701
613.406	0.0156594
613.484	0.0156795
613.562	0.0158272
613.640	0.0157896
613.718	0.0157453
613.797	0.0156702
613.875	0.0155923
613.953	0.0157259
614.031	0.0156498
614.109	0.0158658
614.187	0.0159341
614.265	0.0157455
614.343	0.0157935
614.422	0.0157150
614.500	0.0157083
614.578	0.0157648
614.656	0.0157600
614.734	0.0157789
614.812	0.0156358
614.890	0.0156847
614.968	0.0157462
615.047	0.0157795
615.125	0.0157358
615.203	0.0156920
615.281	0.0158289
615.359	0.0156960
615.437	0.0157062
615.515	0.0155291
615.593	0.0158735
615.672	0.0157434
615.750	0.0157494
615.828	0.0157632
615.906	0.0157809
615.984	0.0157764
616.062	0.0157425
616.140	0.0157492
616.218	0.0155882
616.297	0.0156799
616.375	0.0157304
616.453	0.0157778
616.531	0.0157636
616.609	0.0156310
616.687	0.0157420
616.765	0.0157637
616.843	0.0157877
616.922	0.0156921
617.000	0.0157162
617.078	0.0157614
617.156	0.0157886
617.234	0.0157247
617.312	0.0157043
617.390	0.0156040
617.468	0.0157308
617.547	0.0158334
617.625	0.0157712
617.703	0.0157987
617.781	0.0156780
617.859	0.0157210
617.937	0.0158719
618.015	0.0157823
618.093	0.0157088
618.172	0.0156633
618.250	0.0158228
618.328	0.0156326
618.406	0.0157090
618.484	0.0158418
618.562	0.0158454
618.640	0.0156707
618.718	0.0157339
618.797	0.0158419
618.875	0.0156723
618.953	0.0157742
619.031	0.0158631
619.109	0.0158562
619.187	0.0157232
619.265	0.0157820
619.343	0.0156752
619.422	0.0157517
619.500	0.0157734
619.578	0.0157465
619.656	0.0157632
619.734	0.0157968
619.812	0.0158409
619.890	0.0157598
619.968	0.0157076
620.047	0.0157494
620.125	0.0157550
620.203	0.0157291
620.281	0.0156551
620.359	0.0156825
620.437	0.0157498
620.515	0.0157416
620.593	0.0157448
620.672	0.0157216
620.750	0.0157670
620.828	0.0158541
620.906	0.0156389
620.984	0.0157325
621.062	0.0158336
621.140	0.0157271
621.218	0.0156306
621.297	0.0158092
621.375	0.0158929
621.453	0.0157999
621.531	0.0158765
621.609	0.0157577
621.687	0.0156575
621.765	0.0156281
621.843	0.0158533
621.922	0.0158919
622.000	0.0157386
622.078	0.0156750
622.156	0.0156640
622.234	0.0156594
622.312	0.0158398
622.390	0.0158859
622.468	0.0157192
622.547	0.0156375
622.625	0.0156635
622.703	0.0157906
622.781	0.0157129
622.859	0.0158276
622.937	0.0157362
623.015	0.0157246
623.093	0.0157276
623.172	0.0156134
623.250	0.0157014
623.328	0.0155647
623.406	0.0156683
623.484	0.0157957
623.562	0.0158443
623.640	0.0156178
623.718	0.0156918
623.797	0.0157953
623.875	0.0156260
623.953	0.0156674
624.031	0.0156842
624.109	0.0156845
624.187	0.0156988
624.265	0.0157410
624.343	0.0158433
624.422	0.0157936
624.500	0.0156333
624.578	0.0156824
624.656	0.0156633
624.734	0.0158382
624.812	0.0157694
624.890	0.0156374
624.968	0.0156820
625.047	0.0157602
625.125	0.0157121
625.203	0.0156781
625.281	0.0156752
625.359	0.0157505
625.437	0.0155972
625.515	0.0157393
625.593	0.0157483
625.672	0.0156715
625.750	0.0158018
625.828	0.0158030
625.906	0.0157872
625.984	0.0157957
626.062	0.0158678
626.140	0.0157362
626.218	0.0156573
626.297	0.0157724
626.375	0.0157458
626.453	0.0156557
626.531	0.0157475
626.609	0.0156283
626.687	0.0156214
626.765	0.0158369
626.843	0.0157451
626.922	0.0157794
627.000	0.0158421
627.078	0.0156744
627.156	0.0157552
627.234	0.0156536
627.312	0.0156945
627.390	0.0157571
627.468	0.0158167
627.547	0.0156940
627.625	0.0157481
627.703	0.0156577
627.781	0.0155527
627.859	0.0156068
627.937	0.0157330
628.015	0.0158040
628.093	0.0156938
628.172	0.0156687
628.250	0.0157838
628.328	0.0156112
628.406	0.0156000
628.484	0.0156528
628.562	0.0156294
628.640	0.0157570
628.718	0.0158173
628.797	0.0157132
628.875	0.0156257
628.953	0.0156783
629.031	0.0157363
629.109	0.0157127
629.187	0.0157036
629.265	0.0157124
629.343	0.0157384
629.422	0.0157925
629.500	0.0157092
629.578	0.0157243
629.656	0.0157137
629.734	0.0157826
629.812	0.0157218
629.890	0.0158551
629.968	0.0157980
630.047	0.0156618
630.125	0.0157147
630.203	0.0157274
630.281	0.0157389
630.359	0.0155965
630.437	0.0158304
630.515	0.0158942
630.593	0.0157610
630.672	0.0158864
630.750	0.0157558
630.828	0.0156640
630.906	0.0156313
630.984	0.0159261
631.062	0.0156814
631.140	0.0157993
631.218	0.0157446
631.297	0.0156716
631.375	0.0156945
631.453	0.0157157
631.531	0.0157543
631.609	0.0157954
631.687	0.0158086
631.765	0.0155695
631.843	0.0157491
631.922	0.0157198
632.000	0.0158494
632.078	0.0157729
632.156	0.0156301
632.234	0.0155811
632.312	0.0156219
632.390	0.0157133
632.468	0.0157430
632.547	0.0157089
632.625	0.0157477
632.703	0.0157224
632.781	0.0156847
632.859	0.0157171
632.937	0.0156768
633.015	0.0155846
633.093	0.0156340
633.172	0.0156962
633.250	0.0157777
633.328	0.0157042
633.406	0.0157050
633.484	0.0158346
633.562	0.0157832
633.640	0.0157816
633.718	0.0158083
633.797	0.0158732
633.875	0.0158375
633.953	0.0157124
634.031	0.0157066
634.109	0.0157146
634.187	0.0158163
634.265	0.0157635
634.343	0.0156875
634.422	0.0157626
634.500	0.0157833
634.578	0.0156728
634.656	0.0157523
634.734	0.0157235
634.812	0.0156461
634.890	0.0156823
634.968	0.0157510
635.047	0.0158284
635.125	0.0155788
635.203	0.0157276
635.281	0.0157908
635.359	0.0156085
635.437	0.0157389
635.515	0.0157703
635.593	0.0156351
635.672	0.0155808
635.750	0.0157697
635.828	0.0157653
635.906	0.0156834
635.984	0.0157836
636.062	0.0158360
636.140	0.0157949
636.218	0.0158884
636.297	0.0157122
636.375	0.0157435
636.453	0.0156496
636.531	0.0156857
636.609	0.0157018
636.687	0.0156989
636.765	0.0156307
636.843	0.0157593
636.922	0.0157031
637.000	0.0158707
637.078	0.0158031
637.156	0.0157544
637.234	0.0157230
637.312	0.0156738
637.390	0.0158420
637.468	0.0156583
637.547	0.0156464
637.625	0.0156589
637.703	0.0157709
637.781	0.0156760
637.859	0.0157836
637.937	0.0156457
638.015	0.0157467
638.093	0.0155779
638.172	0.0156608
638.250	0.0158541
638.328	0.0157838
638.406	0.0158342
638.484	0.0155746
638.562	0.0156565
638.640	0.0158004
638.718	0.0158448
638.797	0.0158130
638.875	0.0156817
638.953	0.0157465
639.031	0.0155789
639.109	0.0158356
639.187	0.0157126
639.265	0.0157719
639.343	0.0158417
639.422	0.0156548
639.500	0.0156922
639.578	0.0158577
639.656	0.0156339
639.734	0.0156166
639.812	0.0157535
639.890	0.0157835
639.968	0.0156916
640.047	0.0157441
640.125	0.0157118
640.203	0.0156770
640.281	0.0157732
640.359	0.0156421
640.437	0.0157919
640.515	0.0157516
640.593	0.0156963
640.672	0.0157256
640.750	0.0157616
640.828	0.0156083
640.906	0.0156915
640.984	0.0156617
641.062	0.0156990
641.140	0.0156720
641.218	0.0156760
641.297	0.0157652
641.375	0.0156945
641.453	0.0155724
641.531	0.0158671
641.609	0.0158159
641.687	0.0156164
641.765	0.0156310
641.843	0.0156857
641.922	0.0157335
642.000	0.0156594
642.078	0.0157247
642.156	0.0157388
642.234	0.0156602
642.312	0.0157756
642.390	0.0156717
642.468	0.0156292
642.547	0.0157302
642.625	0.0155964
642.703	0.0156580
642.781	0.0156750
642.859	0.0155926
642.937	0.0157692
643.015	0.0157877
643.093	0.0156937
643.172	0.0155856
643.250	0.0157247
643.328	0.0157285
643.406	0.0156680
643.484	0.0157867
643.562	0.0156028
643.640	0.0155138
643.718	0.0156860
643.797	0.0157001
643.875	0.0157955
643.953	0.0156238
644.031	0.0156041
644.109	0.0157973
644.187	0.0157843
644.265	0.0156475
644.343	0.0157217
644.422	0.0157211
644.500	0.0156644
644.578	0.0156826
644.656	0.0156603
644.734	0.0155803
644.812	0.0157878
644.890	0.0158014
644.968	0.0157273
645.047	0.0157555
645.125	0.0156890
645.203	0.0158088
645.281	0.0157801
645.359	0.0156778
645.437	0.0156584
645.515	0.0157869
645.593	0.0158362
645.672	0.0158471
645.750	0.0157868
645.828	0.0156478
645.906	0.0157664
645.984	0.0157845
646.062	0.0156332
646.140	0.0157079
646.218	0.0156841
646.297	0.0157156
646.375	0.0158310
646.453	0.0156977
646.531	0.0156007
646.609	0.0156776
646.687	0.0158041
646.765	0.0157452
646.843	0.0156810
646.922	0.0157507
647.000	0.0157529
647.078	0.0156581
647.156	0.0156639
647.234	0.0156660
647.312	0.0157590
647.390	0.0156467
647.468	0.0157655
647.547	0.0158136
647.625	0.0156493
647.703	0.0156483
647.781	0.0156786
647.859	0.0156845
647.937	0.0158117
648.015	0.0155428
648.093	0.0157549
648.172	0.0158150
648.250	0.0156500
648.328	0.0155952
648.406	0.0157207
648.484	0.0156890
648.562	0.0157522
648.640	0.0155714
648.718	0.0156881
648.797	0.0156255
648.875	0.0157034
648.953	0.0157652
649.031	0.0157195
649.109	0.0156543
649.187	0.0156640
649.265	0.0157614
649.343	0.0157236
649.422	0.0158315
649.500	0.0156734
649.578	0.0157186
649.656	0.0156973
649.734	0.0157073
649.812	0.0157204
649.890	0.0157063
649.968	0.0156995
650.047	0.0156948
650.125	0.0156720
650.203	0.0156932
650.281	0.0156873
650.359	0.0157906
650.437	0.0158578
650.515	0.0157784
650.593	0.0157330
650.672	0.0156042
650.750	0.0156920
650.828	0.0156620
650.906	0.0156963
650.984	0.0156814
651.062	0.0156380
651.140	0.0157227
651.218	0.0158600
651.297	0.0158155
651.375	0.0155962
651.453	0.0158171
651.531	0.0157390
651.609	0.0156815
651.687	0.0158437
651.765	0.0157796
651.843	0.0156625
651.922	0.0157827
652.000	0.0158949
652.078	0.0157738
652.156	0.0156731
652.234	0.0157552
652.312	0.0158421
652.390	0.0156750
652.468	0.0157796
652.547	0.0155903
652.625	0.0157761
652.703	0.0158022
652.781	0.0158038
652.859	0.0156942
652.937	0.0156551
653.015	0.0157634
653.093	0.0158824
653.172	0.0158025
653.250	0.0157390
653.328	0.0156211
653.406	0.0155801
653.484	0.0158804
653.562	0.0157609
653.640	0.0157611
653.718	0.0156777
653.797	0.0156776
653.875	0.0156541
653.953	0.0156853
654.031	0.0157079
654.109	0.0156783
654.187	0.0157185
654.265	0.0157487
654.343	0.0157655
654.422	0.0157771
654.500	0.0157249
654.578	0.0156924
654.656	0.0157070
654.734	0.0157609
654.812	0.0157349
654.890	0.0157914
654.968	0.0155916
655.047	0.0156496
655.125	0.0158544
655.203	0.0156757
655.281	0.0155713
655.359	0.0157744
655.437	0.0156284
655.515	0.0156344
655.593	0.0156982
655.672	0.0156533
655.750	0.0156715
655.828	0.0155311
655.906	0.0157730
655.984	0.0157072
656.062	0.0158415
656.140	0.0155991
656.218	0.0156292
656.297	0.0158714
656.375	0.0157436
656.453	0.0156915
656.531	0.0157191
656.609	0.0156511
656.687	0.0157272
656.765	0.0157529
656.843	0.0155804
656.922	0.0157354
657.000	0.0158279
657.078	0.0157008
657.156	0.0157335
657.234	0.0157024
657.312	0.0156387
657.390	0.0157280
657.468	0.0156747
657.547	0.0158379
657.625	0.0156326
657.703	0.0156488
657.781	0.0156789
657.859	0.0156974
657.937	0.0155075
658.015	0.0157423
658.093	0.0158087
658.172	0.0157200
658.250	0.0155581
658.328	0.0157904
658.406	0.0157571
658.484	0.0157566
658.562	0.0157778
658.640	0.0156303
658.718	0.0156578
658.797	0.0157021
658.875	0.0157076
658.953	0.0158109
659.031	0.0157397
659.109	0.0156879
659.187	0.0156664
659.265	0.0157777
659.343	0.0156409
659.422	0.0157054
659.500	0.0157642
659.578	0.0157487
659.656	0.0157342
659.734	0.0157308
659.812	0.0156768
659.890	0.0157198
659.968	0.0155984
660.047	0.0156961
660.125	0.0158018
660.203	0.0157851
660.281	0.0156853
660.359	0.0157508
660.437	0.0157333
660.515	0.0156875
660.593	0.0157299
660.672	0.0157427
660.750	0.0157612
660.828	0.0157327
660.906	0.0158729
660.984	0.0156714
661.062	0.0157799
661.140	0.0156408
661.218	0.0155173
661.297	0.0157835
661.375	0.0157008
661.453	0.0157480
661.531	0.0156367
661.609	0.0156439
661.687	0.0156396
661.765	0.0155372
661.843	0.0157613
661.922	0.0157134
662.000	0.0157191
662.078	0.0156488
662.156	0.0157608
662.234	0.0156770
662.312	0.0157739
662.390	0.0158538
662.468	0.0158968
662.547	0.0157786
662.625	0.0157980
662.703	0.0158350
662.781	0.0156788
662.859	0.0157689
662.937	0.0158558
663.015	0.0157878
663.093	0.0156860
663.172	0.0156662
663.250	0.0157664
663.328	0.0158103
663.406	0.0157011
663.484	0.0156727
663.562	0.0157996
663.640	0.0157433
663.718	0.0156393
663.797	0.0157951
663.875	0.0155656
663.953	0.0157420
664.031	0.0157705
664.109	0.0157749
664.187	0.0158436
664.265	0.0156414
664.343	0.0157008
664.422	0.0156733
664.500	0.0157476
664.578	0.0156495
664.656	0.0157367
664.734	0.0156500
664.812	0.0157491
664.890	0.0157456
664.968	0.0156313
665.047	0.0156945
665.125	0.0156923
665.203	0.0156953
665.281	0.0158053
665.359	0.0157410
665.437	0.0156896
665.515	0.0157663
665.593	0.0156291
665.672	0.0157134
665.750	0.0156998
665.828	0.0157661
665.906	0.0156689
665.984	0.0157614
666.062	0.0156969
666.140	0.0157635
666.218	0.0157613
666.297	0.0156918
666.375	0.0156215
666.453	0.0156219
666.531	0.0157401
666.609	0.0156016
666.687	0.0155893
666.765	0.0156998
666.843	0.0157407
666.922	0.0156473
667.000	0.0157695
667.078	0.0156451
667.156	0.0156372
667.234	0.0157504
667.312	0.0156840
667.390	0.0156374
667.468	0.0156850
667.547	0.0156672
667.625	0.0156220
667.703	0.0156780
667.781	0.0157437
667.859	0.0156546
667.937	0.0156727
668.015	0.0157448
668.093	0.0157683
668.172	0.0157026
668.250	0.0157780
668.328	0.0156434
668.406	0.0156947
668.484	0.0156825
668.562	0.0157062
668.640	0.0157916
668.718	0.0157255
668.797	0.0156699
668.875	0.0157556
668.953	0.0157460
669.031	0.0157553
669.109	0.0157536
669.187	0.0156474
669.265	0.0155453
669.343	0.0158291
669.422	0.0158462
669.500	0.0156979
669.578	0.0157055
669.656	0.0156693
669.734	0.0156792
669.812	0.0158598
669.890	0.0156502
669.968	0.0157426
670.047	0.0156702
670.125	0.0156267
670.203	0.0157011
670.281	0.0156742
670.359	0.0156028
670.437	0.0155700
670.515	0.0158063
670.593	0.0159078
670.672	0.0157588
670.750	0.0156167
670.828	0.0157073
670.906	0.0156498
670.984	0.0155184
671.062	0.0157037
671.140	0.0158417
671.218	0.0156792
671.297	0.0157806
671.375	0.0158551
671.453	0.0157117
671.531	0.0156552
671.609	0.0156514
671.687	0.0156232
671.765	0.0154918
671.843	0.0157458
671.922	0.0156834
672.000	0.0158219
672.078	0.0157737
672.156	0.0156768
672.234	0.0156000
672.312	0.0156291
672.390	0.0157100
672.468	0.0157372
672.547	0.0156363
672.625	0.0158109
672.703	0.0157317
672.781	0.0157394
672.859	0.0157114
672.937	0.0154902
673.015	0.0157271
673.093	0.0156908
673.172	0.0156552
673.250	0.0156860
673.328	0.0156640
673.406	0.0156729
673.484	0.0155695
673.562	0.0156136
673.640	0.0156434
673.718	0.0156330
673.797	0.0158614
673.875	0.0158323
673.953	0.0156647
674.031	0.0156594
674.109	0.0157758
674.187	0.0157131
674.265	0.0156606
674.343	0.0157708
674.422	0.0158287
674.500	0.0157223
674.578	0.0158662
674.656	0.0157246
674.734	0.0157218
674.812	0.0157457
674.890	0.0157857
674.968	0.0156776
675.047	0.0155043
675.125	0.0157531
675.203	0.0157497
675.281	0.0157002
675.359	0.0157098
675.437	0.0157652
675.515	0.0157249
675.593	0.0156718
675.672	0.0156015
675.750	0.0155663
675.828	0.0156571
675.906	0.0156876
675.984	0.0156272
676.062	0.0157292
676.140	0.0156352
676.218	0.0157102
676.297	0.0155869
676.375	0.0157732
676.453	0.0156566
676.531	0.0157592
676.609	0.0158315
676.687	0.0157235
676.765	0.0156685
676.843	0.0157866
676.922	0.0157311
677.000	0.0157582
677.078	0.0157201
677.156	0.0156406
677.234	0.0158791
677.312	0.0158040
677.390	0.0157179
677.468	0.0157265
677.547	0.0158325
677.625	0.0157008
677.703	0.0156586
677.781	0.0157481
677.859	0.0157105
677.937	0.0156940
678.015	0.0156337
678.093	0.0158345
678.172	0.0157581
678.250	0.0156340
678.328	0.0156329
678.406	0.0157025
678.484	0.0156186
678.562	0.0157151
678.640	0.0156142
678.718	0.0156416
678.797	0.0156442
678.875	0.0155156
678.953	0.0155186
679.031	0.0155164
679.109	0.0156441
679.187	0.0156355
679.265	0.0157506
679.343	0.0157467
679.422	0.0157308
679.500	0.0158118
679.578	0.0158467
679.656	0.0155779
679.734	0.0157611
679.812	0.0158199
679.890	0.0157306
679.968	0.0159052
680.047	0.0157121
680.125	0.0157883
680.203	0.0157455
680.281	0.0158851
680.359	0.0156921
680.437	0.0156477
680.515	0.0158189
680.593	0.0156712
680.672	0.0157240
680.750	0.0156618
680.828	0.0156487
680.906	0.0156268
680.984	0.0156541
681.062	0.0156306
681.140	0.0156612
681.218	0.0156071
681.297	0.0157366
681.375	0.0155941
681.453	0.0155762
681.531	0.0155975
681.609	0.0156248
681.687	0.0156562
681.765	0.0156087
681.843	0.0155744
681.922	0.0156985
682.000	0.0156828
682.078	0.0157157
682.156	0.0157066
682.234	0.0156917
682.312	0.0156836
682.390	0.0156723
682.468	0.0157089
682.547	0.0157328
682.625	0.0156974
682.703	0.0156987
682.781	0.0157777
682.859	0.0157442
682.937	0.0156819
683.015	0.0156902
683.093	0.0157412
683.172	0.0157441
683.250	0.0157759
683.328	0.0157623
683.406	0.0156761
683.484	0.0156649
683.562	0.0155645
683.640	0.0157214
683.718	0.0157407
683.797	0.0157140
683.875	0.0157192
683.953	0.0157668
684.031	0.0157547
684.109	0.0158286
684.187	0.0158349
684.265	0.0157459
684.343	0.0158598
684.422	0.0157769
684.500	0.0156219
684.578	0.0157900
684.656	0.0156046
684.734	0.0158048
684.812	0.0157054
684.890	0.0158391
684.968	0.0158610
685.047	0.0157544
685.125	0.0156736
685.203	0.0157559
685.281	0.0157900
685.359	0.0157113
685.437	0.0157764
685.515	0.0155794
685.593	0.0157501
685.672	0.0157313
