06/13/2022	14:36:33	Ver.	4.1	UNKNOWN
Optical Delay	599.968395	Delta X		0.078125	Sweeps	1	Scan Rate	0/0
Coordinates	Axis 1	NaN	Axis 2	NaN	Axis 3	NaN	Axis 4	NaN	Axis 5	NaN	Axis 6	0.000000
TX Power	0.000000	RX Power	0.000000

599.968	0.0156967
600.047	0.0158246
600.125	0.0157188
600.203	0.0156409
600.281	0.0156496
600.359	0.0157893
600.437	0.0156640
600.515	0.0156773
600.593	0.0157271
600.672	0.0157528
600.750	0.0157082
600.828	0.0156879
600.906	0.0157314
600.984	0.0156808
601.062	0.0156213
601.140	0.0156177
601.218	0.0157496
601.297	0.0156513
601.375	0.0155641
601.453	0.0156489
601.531	0.0157294
601.609	0.0157394
601.687	0.0157243
601.765	0.0157873
601.843	0.0157884
601.922	0.0156238
602.000	0.0156897
602.078	0.0155740
602.156	0.0154806
602.234	0.0157586
602.312	0.0156616
602.390	0.0157128
602.468	0.0157257
602.547	0.0156873
602.625	0.0156334
602.703	0.0155368
602.781	0.0157555
602.859	0.0156039
602.937	0.0157375
603.015	0.0156269
603.093	0.0156434
603.172	0.0157005
603.250	0.0156012
603.328	0.0158093
603.406	0.0157809
603.484	0.0157251
603.562	0.0156116
603.640	0.0156545
603.718	0.0158083
603.797	0.0156922
603.875	0.0156428
603.953	0.0157944
604.031	0.0157703
604.109	0.0156316
604.187	0.0157521
604.265	0.0157343
604.343	0.0156805
604.422	0.0157281
604.500	0.0156988
604.578	0.0157022
604.656	0.0156778
604.734	0.0156941
604.812	0.0156540
604.890	0.0156410
604.968	0.0157607
605.047	0.0156999
605.125	0.0156522
605.203	0.0156811
605.281	0.0156370
605.359	0.0155007
605.437	0.0157037
605.515	0.0157272
605.593	0.0156186
605.672	0.0156387
605.750	0.0157110
605.828	0.0156827
605.906	0.0156410
605.984	0.0155640
606.062	0.0155254
606.140	0.0156776
606.218	0.0155973
606.297	0.0157507
606.375	0.0156963
606.453	0.0156139
606.531	0.0157163
606.609	0.0156487
606.687	0.0158218
606.765	0.0156580
606.843	0.0155528
606.922	0.0156789
607.000	0.0157243
607.078	0.0157120
607.156	0.0155817
607.234	0.0157124
607.312	0.0156940
607.390	0.0157082
607.468	0.0157678
607.547	0.0157674
607.625	0.0158088
607.703	0.0156781
607.781	0.0155807
607.859	0.0156659
607.937	0.0157062
608.015	0.0156514
608.093	0.0157309
608.172	0.0155669
608.250	0.0157604
608.328	0.0157328
608.406	0.0155761
608.484	0.0156348
608.562	0.0156835
608.640	0.0156402
608.718	0.0156750
608.797	0.0156977
608.875	0.0156422
608.953	0.0155422
609.031	0.0156747
609.109	0.0156464
609.187	0.0156934
609.265	0.0157622
609.343	0.0156148
609.422	0.0156780
609.500	0.0158034
609.578	0.0155877
609.656	0.0156630
609.734	0.0157480
609.812	0.0155560
609.890	0.0156737
609.968	0.0157330
610.047	0.0156888
610.125	0.0156139
610.203	0.0155045
610.281	0.0157375
610.359	0.0157700
610.437	0.0156834
610.515	0.0157502
610.593	0.0158578
610.672	0.0157690
610.750	0.0156178
610.828	0.0156048
610.906	0.0157675
610.984	0.0156815
611.062	0.0157884
611.140	0.0157022
611.218	0.0157807
611.297	0.0157448
611.375	0.0156322
611.453	0.0156426
611.531	0.0157543
611.609	0.0156736
611.687	0.0157603
611.765	0.0157847
611.843	0.0157011
611.922	0.0157088
612.000	0.0155979
612.078	0.0155987
612.156	0.0156806
612.234	0.0157085
612.312	0.0157533
612.390	0.0156936
612.468	0.0157676
612.547	0.0156565
612.625	0.0157053
612.703	0.0157780
612.781	0.0156281
612.859	0.0155456
612.937	0.0156694
613.015	0.0156680
613.093	0.0157697
613.172	0.0157114
613.250	0.0157362
613.328	0.0155977
613.406	0.0156890
613.484	0.0156861
613.562	0.0156891
613.640	0.0157722
613.718	0.0156550
613.797	0.0156362
613.875	0.0157868
613.953	0.0157239
614.031	0.0156585
614.109	0.0155801
614.187	0.0155897
614.265	0.0157123
614.343	0.0157375
614.422	0.0157523
614.500	0.0157011
614.578	0.0156903
614.656	0.0156963
614.734	0.0156845
614.812	0.0156399
614.890	0.0157449
614.968	0.0156643
615.047	0.0156270
615.125	0.0156455
615.203	0.0157300
615.281	0.0157800
615.359	0.0156815
615.437	0.0156015
615.515	0.0157373
615.593	0.0157179
615.672	0.0157706
615.750	0.0157255
615.828	0.0156532
615.906	0.0157968
615.984	0.0156718
616.062	0.0156569
616.140	0.0156447
616.218	0.0157188
616.297	0.0158126
616.375	0.0158767
616.453	0.0157112
616.531	0.0155411
616.609	0.0157114
616.687	0.0156747
616.765	0.0157220
616.843	0.0157658
616.922	0.0157389
617.000	0.0157644
617.078	0.0156148
617.156	0.0157263
617.234	0.0157420
617.312	0.0157913
617.390	0.0156492
617.468	0.0156905
617.547	0.0156461
617.625	0.0157475
617.703	0.0157652
617.781	0.0159029
617.859	0.0156620
617.937	0.0155890
618.015	0.0156986
618.093	0.0156165
618.172	0.0155086
618.250	0.0157350
618.328	0.0156907
618.406	0.0157104
618.484	0.0157491
618.562	0.0156630
618.640	0.0157719
618.718	0.0157059
618.797	0.0156579
618.875	0.0155372
618.953	0.0157579
619.031	0.0158355
619.109	0.0156964
619.187	0.0157185
619.265	0.0157526
619.343	0.0158126
619.422	0.0156415
619.500	0.0156247
619.578	0.0156415
619.656	0.0157940
619.734	0.0157152
619.812	0.0156754
619.890	0.0157271
619.968	0.0157611
620.047	0.0156720
620.125	0.0157625
620.203	0.0158385
620.281	0.0157288
620.359	0.0156763
620.437	0.0156749
620.515	0.0158249
620.593	0.0156438
620.672	0.0157477
620.750	0.0155927
620.828	0.0157684
620.906	0.0156898
620.984	0.0156570
621.062	0.0157464
621.140	0.0156049
621.218	0.0157872
621.297	0.0157633
621.375	0.0156045
621.453	0.0156914
621.531	0.0156786
621.609	0.0158098
621.687	0.0157224
621.765	0.0156779
621.843	0.0156712
621.922	0.0156023
622.000	0.0157173
622.078	0.0155794
622.156	0.0156967
622.234	0.0156856
622.312	0.0157060
622.390	0.0156472
622.468	0.0156981
622.547	0.0157574
622.625	0.0157953
622.703	0.0157478
622.781	0.0158168
622.859	0.0158174
622.937	0.0156127
623.015	0.0155154
623.093	0.0157716
623.172	0.0157374
623.250	0.0156950
623.328	0.0156646
623.406	0.0156687
623.484	0.0156564
623.562	0.0157419
623.640	0.0156535
623.718	0.0156787
623.797	0.0156362
623.875	0.0156951
623.953	0.0156924
624.031	0.0156681
624.109	0.0157751
624.187	0.0157339
624.265	0.0156603
624.343	0.0156705
624.422	0.0157285
624.500	0.0157378
624.578	0.0157523
624.656	0.0157150
624.734	0.0156525
624.812	0.0156512
624.890	0.0156071
624.968	0.0156090
625.047	0.0157313
625.125	0.0157111
625.203	0.0156676
625.281	0.0156345
625.359	0.0157895
625.437	0.0156552
625.515	0.0157204
625.593	0.0157143
625.672	0.0156547
625.750	0.0156727
625.828	0.0157695
625.906	0.0156863
625.984	0.0157720
626.062	0.0157174
626.140	0.0156596
626.218	0.0157527
626.297	0.0158107
626.375	0.0156246
626.453	0.0157327
626.531	0.0157632
626.609	0.0157542
626.687	0.0157386
626.765	0.0157017
626.843	0.0156727
626.922	0.0157325
627.000	0.0156422
627.078	0.0156216
627.156	0.0156863
627.234	0.0157221
627.312	0.0156790
627.390	0.0156655
627.468	0.0157514
627.547	0.0157819
627.625	0.0156303
627.703	0.0156479
627.781	0.0155447
627.859	0.0157028
627.937	0.0155945
628.015	0.0157973
628.093	0.0157299
628.172	0.0155660
628.250	0.0157218
628.328	0.0157105
628.406	0.0156162
628.484	0.0157861
628.562	0.0157272
628.640	0.0156791
628.718	0.0156334
628.797	0.0157676
628.875	0.0157129
628.953	0.0156718
629.031	0.0156993
629.109	0.0155917
629.187	0.0156659
629.265	0.0156452
629.343	0.0157606
629.422	0.0156755
629.500	0.0157097
629.578	0.0156636
629.656	0.0155956
629.734	0.0156528
629.812	0.0157594
629.890	0.0157804
629.968	0.0157674
630.047	0.0156782
630.125	0.0156915
630.203	0.0155714
630.281	0.0156351
630.359	0.0157494
630.437	0.0156124
630.515	0.0156341
630.593	0.0156270
630.672	0.0157030
630.750	0.0156419
630.828	0.0156790
630.906	0.0158216
630.984	0.0157281
631.062	0.0157710
631.140	0.0156351
631.218	0.0156381
631.297	0.0156954
631.375	0.0157405
631.453	0.0156664
631.531	0.0156903
631.609	0.0154832
631.687	0.0156548
631.765	0.0156790
631.843	0.0156829
631.922	0.0156233
632.000	0.0156650
632.078	0.0156984
632.156	0.0156627
632.234	0.0157404
632.312	0.0156272
632.390	0.0158172
632.468	0.0156805
632.547	0.0157323
632.625	0.0156801
632.703	0.0156187
632.781	0.0157056
632.859	0.0156802
632.937	0.0157311
633.015	0.0157198
633.093	0.0156328
633.172	0.0157063
633.250	0.0156790
633.328	0.0156423
633.406	0.0157954
633.484	0.0157458
633.562	0.0155744
633.640	0.0156190
633.718	0.0156429
633.797	0.0158130
633.875	0.0156390
633.953	0.0156947
634.031	0.0158389
634.109	0.0157036
634.187	0.0156731
634.265	0.0158626
634.343	0.0157511
634.422	0.0157381
634.500	0.0157178
634.578	0.0157171
634.656	0.0156581
634.734	0.0156759
634.812	0.0158302
634.890	0.0156686
634.968	0.0158564
635.047	0.0157915
635.125	0.0156749
635.203	0.0156385
635.281	0.0158206
635.359	0.0157033
635.437	0.0157761
635.515	0.0156503
635.593	0.0156728
635.672	0.0156313
635.750	0.0156993
635.828	0.0156926
635.906	0.0157722
635.984	0.0156091
636.062	0.0157625
636.140	0.0157856
636.218	0.0157397
636.297	0.0157367
636.375	0.0156886
636.453	0.0157850
636.531	0.0157068
636.609	0.0156868
636.687	0.0156240
636.765	0.0156895
636.843	0.0156897
636.922	0.0156494
637.000	0.0157047
637.078	0.0156588
637.156	0.0156015
637.234	0.0156592
637.312	0.0156532
637.390	0.0154900
637.468	0.0157288
637.547	0.0157585
637.625	0.0155163
637.703	0.0157016
637.781	0.0156097
637.859	0.0156813
637.937	0.0157310
638.015	0.0156290
638.093	0.0157706
638.172	0.0156919
638.250	0.0155867
638.328	0.0156702
638.406	0.0158583
638.484	0.0158035
638.562	0.0155695
638.640	0.0157314
638.718	0.0157079
638.797	0.0156457
638.875	0.0157303
638.953	0.0157652
639.031	0.0156749
639.109	0.0157501
639.187	0.0156973
639.265	0.0156086
639.343	0.0157245
639.422	0.0157132
639.500	0.0157069
639.578	0.0156994
639.656	0.0157823
639.734	0.0156563
639.812	0.0156094
639.890	0.0156886
639.968	0.0156799
640.047	0.0156906
640.125	0.0156615
640.203	0.0157100
640.281	0.0157834
640.359	0.0157323
640.437	0.0156820
640.515	0.0156346
640.593	0.0157047
640.672	0.0157007
640.750	0.0157347
640.828	0.0157629
640.906	0.0156569
640.984	0.0156426
641.062	0.0156897
641.140	0.0157452
641.218	0.0157364
641.297	0.0156841
641.375	0.0157407
641.453	0.0158549
641.531	0.0156624
641.609	0.0157027
641.687	0.0156242
641.765	0.0157291
641.843	0.0157626
641.922	0.0157758
642.000	0.0155815
642.078	0.0156434
642.156	0.0156672
642.234	0.0156876
642.312	0.0156857
642.390	0.0158181
642.468	0.0156173
642.547	0.0156982
642.625	0.0156218
642.703	0.0156697
642.781	0.0157408
642.859	0.0157637
642.937	0.0155791
643.015	0.0158631
643.093	0.0156897
643.172	0.0156850
643.250	0.0157626
643.328	0.0156867
643.406	0.0156859
643.484	0.0155511
643.562	0.0156795
643.640	0.0157428
643.718	0.0157051
643.797	0.0158656
643.875	0.0155392
643.953	0.0157067
644.031	0.0155782
644.109	0.0156786
644.187	0.0156934
644.265	0.0157699
644.343	0.0157864
644.422	0.0157284
644.500	0.0156671
644.578	0.0158025
644.656	0.0157867
644.734	0.0156634
644.812	0.0157614
644.890	0.0156865
644.968	0.0155830
645.047	0.0155841
645.125	0.0158264
645.203	0.0156438
645.281	0.0156369
645.359	0.0158115
645.437	0.0156010
645.515	0.0156786
645.593	0.0157761
645.672	0.0157773
645.750	0.0156121
645.828	0.0156244
645.906	0.0155051
645.984	0.0156639
646.062	0.0158008
646.140	0.0156744
646.218	0.0157090
646.297	0.0156586
646.375	0.0156154
646.453	0.0157507
646.531	0.0158369
646.609	0.0157236
646.687	0.0156021
646.765	0.0156561
646.843	0.0156032
646.922	0.0157223
647.000	0.0158042
647.078	0.0156492
647.156	0.0157124
647.234	0.0157378
647.312	0.0156313
647.390	0.0158411
647.468	0.0156956
647.547	0.0154913
647.625	0.0156924
647.703	0.0156546
647.781	0.0157491
647.859	0.0157101
647.937	0.0156470
648.015	0.0156752
648.093	0.0157594
648.172	0.0157374
648.250	0.0156142
648.328	0.0156943
648.406	0.0157980
648.484	0.0157796
648.562	0.0155934
648.640	0.0156917
648.718	0.0156219
648.797	0.0156884
648.875	0.0157218
648.953	0.0157101
649.031	0.0157707
649.109	0.0157788
649.187	0.0156793
649.265	0.0155518
649.343	0.0157009
649.422	0.0156042
649.500	0.0158295
649.578	0.0158112
649.656	0.0155904
649.734	0.0156388
649.812	0.0156897
649.890	0.0157330
649.968	0.0157539
650.047	0.0156613
650.125	0.0157495
650.203	0.0157904
650.281	0.0156808
650.359	0.0156776
650.437	0.0156635
650.515	0.0157201
650.593	0.0157175
650.672	0.0155676
650.750	0.0155376
650.828	0.0157229
650.906	0.0157653
650.984	0.0158836
651.062	0.0158833
651.140	0.0156410
651.218	0.0157947
651.297	0.0156943
651.375	0.0158042
651.453	0.0157327
651.531	0.0155801
651.609	0.0157092
651.687	0.0157443
651.765	0.0157559
651.843	0.0156951
651.922	0.0156487
652.000	0.0157110
652.078	0.0157310
652.156	0.0157534
652.234	0.0156549
652.312	0.0158350
652.390	0.0157184
652.468	0.0156921
652.547	0.0157041
652.625	0.0157220
652.703	0.0157499
652.781	0.0156577
652.859	0.0156783
652.937	0.0156937
653.015	0.0155853
653.093	0.0158395
653.172	0.0156314
653.250	0.0158076
653.328	0.0157514
653.406	0.0157436
653.484	0.0154709
653.562	0.0157752
653.640	0.0157057
653.718	0.0156744
653.797	0.0157884
653.875	0.0158151
653.953	0.0157497
654.031	0.0156609
654.109	0.0156233
654.187	0.0156831
654.265	0.0157107
654.343	0.0157868
654.422	0.0156515
654.500	0.0155625
654.578	0.0158289
654.656	0.0157278
654.734	0.0156083
654.812	0.0156941
654.890	0.0156230
654.968	0.0156717
655.047	0.0158342
655.125	0.0157452
655.203	0.0157163
655.281	0.0157777
655.359	0.0157585
655.437	0.0156721
655.515	0.0156198
655.593	0.0157061
655.672	0.0157497
655.750	0.0156918
655.828	0.0156232
655.906	0.0156232
655.984	0.0157125
656.062	0.0158453
656.140	0.0157668
656.218	0.0157944
656.297	0.0156095
656.375	0.0157237
656.453	0.0156889
656.531	0.0155756
656.609	0.0158070
656.687	0.0157595
656.765	0.0156679
656.843	0.0156526
656.922	0.0157259
657.000	0.0157221
657.078	0.0156905
657.156	0.0156770
657.234	0.0156410
657.312	0.0157604
657.390	0.0157502
657.468	0.0157311
657.547	0.0157110
657.625	0.0154454
657.703	0.0157191
657.781	0.0157050
657.859	0.0156564
657.937	0.0158983
658.015	0.0156861
658.093	0.0157442
658.172	0.0156740
658.250	0.0156157
658.328	0.0156637
658.406	0.0158764
658.484	0.0157182
658.562	0.0156537
658.640	0.0158067
658.718	0.0156969
658.797	0.0156274
658.875	0.0156983
658.953	0.0156232
659.031	0.0156693
659.109	0.0158086
659.187	0.0157159
659.265	0.0158130
659.343	0.0157124
659.422	0.0157519
659.500	0.0157766
659.578	0.0157658
659.656	0.0156863
659.734	0.0156965
659.812	0.0158106
659.890	0.0156017
659.968	0.0158051
660.047	0.0157919
660.125	0.0157613
660.203	0.0156546
660.281	0.0156971
660.359	0.0156406
660.437	0.0157847
660.515	0.0156848
660.593	0.0156753
660.672	0.0156681
660.750	0.0156313
660.828	0.0156799
660.906	0.0157231
660.984	0.0157250
661.062	0.0157040
661.140	0.0155846
661.218	0.0156532
661.297	0.0157824
661.375	0.0157506
661.453	0.0157238
661.531	0.0155966
661.609	0.0157558
661.687	0.0157450
661.765	0.0158537
661.843	0.0156604
661.922	0.0156908
662.000	0.0156947
662.078	0.0157706
662.156	0.0158365
662.234	0.0157142
662.312	0.0157196
662.390	0.0158393
662.468	0.0158493
662.547	0.0157442
662.625	0.0156548
662.703	0.0156961
662.781	0.0158319
662.859	0.0157232
662.937	0.0157664
663.015	0.0157380
663.093	0.0157114
663.172	0.0158244
663.250	0.0156847
663.328	0.0157320
663.406	0.0156532
663.484	0.0157062
663.562	0.0157204
663.640	0.0156608
663.718	0.0157664
663.797	0.0157560
663.875	0.0157066
663.953	0.0156585
664.031	0.0156440
664.109	0.0157915
664.187	0.0156951
664.265	0.0156235
664.343	0.0157180
664.422	0.0157255
664.500	0.0157590
664.578	0.0157385
664.656	0.0157845
664.734	0.0156654
664.812	0.0155834
664.890	0.0157627
664.968	0.0158530
665.047	0.0158037
665.125	0.0157374
665.203	0.0156213
665.281	0.0156672
665.359	0.0158262
665.437	0.0156123
665.515	0.0156974
665.593	0.0156548
665.672	0.0156644
665.750	0.0157752
665.828	0.0157192
665.906	0.0157478
665.984	0.0158582
666.062	0.0157510
666.140	0.0157280
666.218	0.0158559
666.297	0.0156384
666.375	0.0155720
666.453	0.0156902
666.531	0.0156640
666.609	0.0158762
666.687	0.0156660
666.765	0.0157101
666.843	0.0156871
666.922	0.0157142
667.000	0.0156132
667.078	0.0156698
667.156	0.0157825
667.234	0.0157753
667.312	0.0158277
667.390	0.0158165
667.468	0.0157826
667.547	0.0157486
667.625	0.0157661
667.703	0.0156307
667.781	0.0156540
667.859	0.0158105
667.937	0.0157526
668.015	0.0156972
668.093	0.0156832
668.172	0.0156493
668.250	0.0157312
668.328	0.0157615
668.406	0.0157603
668.484	0.0156228
668.562	0.0157850
668.640	0.0156726
668.718	0.0157883
668.797	0.0158781
668.875	0.0158388
668.953	0.0158138
669.031	0.0156662
669.109	0.0157514
669.187	0.0155876
669.265	0.0157169
669.343	0.0158147
669.422	0.0156059
669.500	0.0157090
669.578	0.0158586
669.656	0.0157477
669.734	0.0157653
669.812	0.0156541
669.890	0.0158823
669.968	0.0156823
670.047	0.0157307
670.125	0.0157383
670.203	0.0157110
670.281	0.0157197
670.359	0.0157421
670.437	0.0156751
670.515	0.0157249
670.593	0.0157118
670.672	0.0157063
670.750	0.0157142
670.828	0.0157725
670.906	0.0156017
670.984	0.0157722
671.062	0.0159095
671.140	0.0157785
671.218	0.0155948
671.297	0.0156847
671.375	0.0157455
671.453	0.0156050
671.531	0.0156795
671.609	0.0156547
671.687	0.0157379
671.765	0.0156713
671.843	0.0156537
671.922	0.0156702
672.000	0.0156595
672.078	0.0156969
672.156	0.0156079
672.234	0.0156889
672.312	0.0155408
672.390	0.0156183
672.468	0.0156999
672.547	0.0157940
672.625	0.0158246
672.703	0.0158178
672.781	0.0158249
672.859	0.0157307
672.937	0.0157298
673.015	0.0156750
673.093	0.0158151
673.172	0.0158054
673.250	0.0157977
673.328	0.0158269
673.406	0.0157092
673.484	0.0156409
673.562	0.0156763
673.640	0.0158813
673.718	0.0157520
673.797	0.0157674
673.875	0.0157085
673.953	0.0156516
674.031	0.0157336
674.109	0.0156796
674.187	0.0155807
674.265	0.0157127
674.343	0.0157354
674.422	0.0157309
674.500	0.0157008
674.578	0.0156358
674.656	0.0155302
674.734	0.0157414
674.812	0.0156182
674.890	0.0157742
674.968	0.0157874
675.047	0.0156377
675.125	0.0156747
675.203	0.0156155
675.281	0.0157583
675.359	0.0157817
675.437	0.0155934
675.515	0.0158000
675.593	0.0158820
675.672	0.0156614
675.750	0.0158388
675.828	0.0158760
675.906	0.0157009
675.984	0.0157367
676.062	0.0159294
676.140	0.0157438
676.218	0.0156750
676.297	0.0156997
676.375	0.0156085
676.453	0.0156159
676.531	0.0157765
676.609	0.0157012
676.687	0.0156226
676.765	0.0156944
676.843	0.0156644
676.922	0.0157155
677.000	0.0157215
677.078	0.0156940
677.156	0.0156816
677.234	0.0157005
677.312	0.0157548
677.390	0.0156039
677.468	0.0156834
677.547	0.0156458
677.625	0.0155981
677.703	0.0156058
677.781	0.0157092
677.859	0.0156174
677.937	0.0156615
678.015	0.0156488
678.093	0.0156076
678.172	0.0157771
678.250	0.0156861
678.328	0.0157569
678.406	0.0157291
678.484	0.0156825
678.562	0.0156720
678.640	0.0157050
678.718	0.0157124
678.797	0.0158401
678.875	0.0156377
678.953	0.0157077
679.031	0.0157724
679.109	0.0157409
679.187	0.0157008
679.265	0.0157993
679.343	0.0157799
679.422	0.0156772
679.500	0.0157011
679.578	0.0157922
679.656	0.0156414
679.734	0.0156928
679.812	0.0155857
679.890	0.0156154
679.968	0.0155396
680.047	0.0155779
680.125	0.0156672
680.203	0.0156245
680.281	0.0154652
680.359	0.0157108
680.437	0.0156426
680.515	0.0156315
680.593	0.0155153
680.672	0.0155475
680.750	0.0156858
680.828	0.0157337
680.906	0.0157084
680.984	0.0156593
681.062	0.0156518
681.140	0.0158159
681.218	0.0157391
681.297	0.0156293
681.375	0.0159006
681.453	0.0156399
681.531	0.0156625
681.609	0.0157201
681.687	0.0157825
681.765	0.0158247
681.843	0.0158147
681.922	0.0158415
682.000	0.0158419
682.078	0.0157041
682.156	0.0156994
682.234	0.0157269
682.312	0.0157070
682.390	0.0158041
682.468	0.0157057
682.547	0.0157519
682.625	0.0156490
682.703	0.0158020
682.781	0.0156776
682.859	0.0157307
682.937	0.0156586
683.015	0.0154936
683.093	0.0157116
683.172	0.0156807
683.250	0.0155576
683.328	0.0156709
683.406	0.0157631
683.484	0.0156477
683.562	0.0156716
683.640	0.0156019
683.718	0.0157146
683.797	0.0156669
683.875	0.0157222
683.953	0.0156322
684.031	0.0156013
684.109	0.0157711
684.187	0.0155514
684.265	0.0156882
684.343	0.0156608
684.422	0.0156881
684.500	0.0157835
684.578	0.0159727
684.656	0.0157951
684.734	0.0157140
684.812	0.0157832
684.890	0.0157203
684.968	0.0156963
685.047	0.0157352
685.125	0.0156760
685.203	0.0156748
685.281	0.0157369
685.359	0.0158007
685.437	0.0157464
685.515	0.0157023
685.593	0.0156720
685.672	0.0157133
