06/13/2022	14:36:48	Ver.	4.1	UNKNOWN
Optical Delay	599.968395	Delta X		0.078125	Sweeps	1	Scan Rate	0/0
Coordinates	Axis 1	NaN	Axis 2	NaN	Axis 3	NaN	Axis 4	NaN	Axis 5	NaN	Axis 6	0.000000
TX Power	0.000000	RX Power	0.000000

599.968	0.0155910
600.047	0.0155347
600.125	0.0155039
600.203	0.0156148
600.281	0.0156732
600.359	0.0156413
600.437	0.0156459
600.515	0.0155050
600.593	0.0155676
600.672	0.0155443
600.750	0.0156468
600.828	0.0155907
600.906	0.0156364
600.984	0.0156538
601.062	0.0156254
601.140	0.0157106
601.218	0.0154581
601.297	0.0156056
601.375	0.0156306
601.453	0.0155744
601.531	0.0156640
601.609	0.0157337
601.687	0.0155052
601.765	0.0155883
601.843	0.0157088
601.922	0.0155893
602.000	0.0155280
602.078	0.0156442
602.156	0.0156003
602.234	0.0156034
602.312	0.0156351
602.390	0.0156139
602.468	0.0155321
602.547	0.0156207
602.625	0.0156264
602.703	0.0156290
602.781	0.0156357
602.859	0.0154572
602.937	0.0156197
603.015	0.0157393
603.093	0.0155740
603.172	0.0155570
603.250	0.0155080
603.328	0.0156385
603.406	0.0154980
603.484	0.0153690
603.562	0.0154987
603.640	0.0156659
603.718	0.0157395
603.797	0.0155894
603.875	0.0155865
603.953	0.0155016
604.031	0.0156327
604.109	0.0156512
604.187	0.0157024
604.265	0.0156144
604.343	0.0156783
604.422	0.0156046
604.500	0.0155811
604.578	0.0155978
604.656	0.0157432
604.734	0.0154814
604.812	0.0156280
604.890	0.0157811
604.968	0.0156326
605.047	0.0156258
605.125	0.0156076
605.203	0.0155414
605.281	0.0156699
605.359	0.0155276
605.437	0.0156008
605.515	0.0156738
605.593	0.0155593
605.672	0.0156383
605.750	0.0156615
605.828	0.0156420
605.906	0.0156949
605.984	0.0154682
606.062	0.0156260
606.140	0.0154800
606.218	0.0155761
606.297	0.0155690
606.375	0.0157420
606.453	0.0156291
606.531	0.0155490
606.609	0.0156084
606.687	0.0155866
606.765	0.0155520
606.843	0.0156001
606.922	0.0156121
607.000	0.0156612
607.078	0.0156129
607.156	0.0155632
607.234	0.0156043
607.312	0.0155516
607.390	0.0155243
607.468	0.0155131
607.547	0.0156728
607.625	0.0156325
607.703	0.0155355
607.781	0.0156261
607.859	0.0157448
607.937	0.0155034
608.015	0.0154917
608.093	0.0157468
608.172	0.0155305
608.250	0.0155428
608.328	0.0157454
608.406	0.0155200
608.484	0.0156113
608.562	0.0156933
608.640	0.0155448
608.718	0.0155357
608.797	0.0157280
608.875	0.0157185
608.953	0.0156080
609.031	0.0156827
609.109	0.0155830
609.187	0.0157580
609.265	0.0157476
609.343	0.0156866
609.422	0.0155365
609.500	0.0155689
609.578	0.0156178
609.656	0.0156739
609.734	0.0155365
609.812	0.0157443
609.890	0.0156310
609.968	0.0156352
610.047	0.0155856
610.125	0.0157307
610.203	0.0156596
610.281	0.0156766
610.359	0.0156332
610.437	0.0156316
610.515	0.0155681
610.593	0.0156362
610.672	0.0155951
610.750	0.0156343
610.828	0.0158085
610.906	0.0155769
610.984	0.0156021
611.062	0.0156389
611.140	0.0155567
611.218	0.0157209
611.297	0.0154930
611.375	0.0156758
611.453	0.0156009
611.531	0.0155961
611.609	0.0156253
611.687	0.0155695
611.765	0.0155383
611.843	0.0155346
611.922	0.0156232
612.000	0.0156802
612.078	0.0155095
612.156	0.0156651
612.234	0.0155978
612.312	0.0156552
612.390	0.0156733
612.468	0.0157872
612.547	0.0156763
612.625	0.0154499
612.703	0.0156522
612.781	0.0157324
612.859	0.0156312
612.937	0.0155666
613.015	0.0155995
613.093	0.0157021
613.172	0.0155394
613.250	0.0155487
613.328	0.0156136
613.406	0.0156195
613.484	0.0156612
613.562	0.0155835
613.640	0.0154922
613.718	0.0154789
613.797	0.0154693
613.875	0.0156547
613.953	0.0156635
614.031	0.0154995
614.109	0.0157420
614.187	0.0156358
614.265	0.0155568
614.343	0.0156548
614.422	0.0156126
614.500	0.0156979
614.578	0.0156210
614.656	0.0154726
614.734	0.0156157
614.812	0.0156194
614.890	0.0155596
614.968	0.0156191
615.047	0.0155788
615.125	0.0155849
615.203	0.0156605
615.281	0.0156814
615.359	0.0157499
615.437	0.0155052
615.515	0.0155322
615.593	0.0156527
615.672	0.0156996
615.750	0.0156162
615.828	0.0156863
615.906	0.0156282
615.984	0.0155946
616.062	0.0155420
616.140	0.0155452
616.218	0.0156891
616.297	0.0156064
616.375	0.0155508
616.453	0.0156590
616.531	0.0155579
616.609	0.0156016
616.687	0.0156617
616.765	0.0156213
616.843	0.0156515
616.922	0.0157116
617.000	0.0156778
617.078	0.0155299
617.156	0.0156661
617.234	0.0156681
617.312	0.0156449
617.390	0.0155449
617.468	0.0155587
617.547	0.0156616
617.625	0.0157609
617.703	0.0157405
617.781	0.0156985
617.859	0.0157062
617.937	0.0156337
618.015	0.0156207
618.093	0.0156245
618.172	0.0156499
618.250	0.0155641
618.328	0.0156455
618.406	0.0157131
618.484	0.0155932
618.562	0.0156860
618.640	0.0156213
618.718	0.0156554
618.797	0.0155933
618.875	0.0156216
618.953	0.0156203
619.031	0.0157767
619.109	0.0156355
619.187	0.0157075
619.265	0.0156808
619.343	0.0156287
619.422	0.0155737
619.500	0.0155947
619.578	0.0156275
619.656	0.0156504
619.734	0.0156992
619.812	0.0156916
619.890	0.0155814
619.968	0.0156837
620.047	0.0157493
620.125	0.0157204
620.203	0.0156875
620.281	0.0155227
620.359	0.0156509
620.437	0.0157552
620.515	0.0156580
620.593	0.0156450
620.672	0.0154904
620.750	0.0154351
620.828	0.0155863
620.906	0.0155547
620.984	0.0155679
621.062	0.0155470
621.140	0.0154399
621.218	0.0154765
621.297	0.0156032
621.375	0.0155848
621.453	0.0155025
621.531	0.0156334
621.609	0.0156779
621.687	0.0155846
621.765	0.0156574
621.843	0.0156618
621.922	0.0156993
622.000	0.0156252
622.078	0.0155856
622.156	0.0154642
622.234	0.0154558
622.312	0.0157817
622.390	0.0156894
622.468	0.0156380
622.547	0.0155800
622.625	0.0156072
622.703	0.0156321
622.781	0.0155962
622.859	0.0154295
622.937	0.0155543
623.015	0.0156621
623.093	0.0156572
623.172	0.0156503
623.250	0.0156573
623.328	0.0156553
623.406	0.0156425
623.484	0.0156171
623.562	0.0156513
623.640	0.0154828
623.718	0.0156638
623.797	0.0156445
623.875	0.0156610
623.953	0.0156989
624.031	0.0155790
624.109	0.0155433
624.187	0.0155450
624.265	0.0155975
624.343	0.0155360
624.422	0.0155215
624.500	0.0155105
624.578	0.0157118
624.656	0.0155772
624.734	0.0156258
624.812	0.0156355
624.890	0.0157867
624.968	0.0155508
625.047	0.0156243
625.125	0.0157203
625.203	0.0156443
625.281	0.0155572
625.359	0.0156656
625.437	0.0156074
625.515	0.0154749
625.593	0.0156291
625.672	0.0155448
625.750	0.0154699
625.828	0.0156339
625.906	0.0157290
625.984	0.0155550
626.062	0.0155630
626.140	0.0156162
626.218	0.0156166
626.297	0.0155966
626.375	0.0155659
626.453	0.0156228
626.531	0.0156297
626.609	0.0155895
626.687	0.0157446
626.765	0.0156808
626.843	0.0155421
626.922	0.0155259
627.000	0.0156609
627.078	0.0155320
627.156	0.0156628
627.234	0.0156461
627.312	0.0155353
627.390	0.0157085
627.468	0.0155901
627.547	0.0155989
627.625	0.0155980
627.703	0.0156873
627.781	0.0155102
627.859	0.0155823
627.937	0.0157005
628.015	0.0155791
628.093	0.0156774
628.172	0.0157156
628.250	0.0156015
628.328	0.0155599
628.406	0.0156131
628.484	0.0157416
628.562	0.0156756
628.640	0.0155614
628.718	0.0155091
628.797	0.0156261
628.875	0.0156674
628.953	0.0155754
629.031	0.0156082
629.109	0.0156799
629.187	0.0155264
629.265	0.0155746
629.343	0.0156252
629.422	0.0157528
629.500	0.0155683
629.578	0.0156570
629.656	0.0156286
629.734	0.0155585
629.812	0.0157536
629.890	0.0156203
629.968	0.0155343
630.047	0.0156347
630.125	0.0156979
630.203	0.0156770
630.281	0.0155562
630.359	0.0155639
630.437	0.0155669
630.515	0.0155462
630.593	0.0154547
630.672	0.0156251
630.750	0.0157478
630.828	0.0155903
630.906	0.0156173
630.984	0.0155887
631.062	0.0156015
631.140	0.0155299
631.218	0.0156032
631.297	0.0155990
631.375	0.0156413
631.453	0.0155975
631.531	0.0156769
631.609	0.0156235
631.687	0.0155643
631.765	0.0156131
631.843	0.0156507
631.922	0.0155390
632.000	0.0156300
632.078	0.0156455
632.156	0.0155897
632.234	0.0156922
632.312	0.0157349
632.390	0.0155854
632.468	0.0154446
632.547	0.0156673
632.625	0.0157074
632.703	0.0155684
632.781	0.0156315
632.859	0.0154410
632.937	0.0156137
633.015	0.0155836
633.093	0.0156152
633.172	0.0156906
633.250	0.0155968
633.328	0.0156865
633.406	0.0156801
633.484	0.0155992
633.562	0.0154565
633.640	0.0156438
633.718	0.0156520
633.797	0.0155677
633.875	0.0156338
633.953	0.0156386
634.031	0.0156709
634.109	0.0155806
634.187	0.0155953
634.265	0.0156106
634.343	0.0156387
634.422	0.0156519
634.500	0.0157117
634.578	0.0155305
634.656	0.0156242
634.734	0.0156436
634.812	0.0155898
634.890	0.0155274
634.968	0.0157560
635.047	0.0156767
635.125	0.0155199
635.203	0.0155769
635.281	0.0156123
635.359	0.0156242
635.437	0.0156310
635.515	0.0155511
635.593	0.0156643
635.672	0.0155188
635.750	0.0154917
635.828	0.0155723
635.906	0.0155913
635.984	0.0156606
636.062	0.0156738
636.140	0.0155579
636.218	0.0156228
636.297	0.0155473
636.375	0.0155976
636.453	0.0154736
636.531	0.0155861
636.609	0.0156462
636.687	0.0156709
636.765	0.0156297
636.843	0.0157291
636.922	0.0156915
637.000	0.0156651
637.078	0.0156575
637.156	0.0156141
637.234	0.0155998
637.312	0.0155619
637.390	0.0154574
637.468	0.0155458
637.547	0.0155902
637.625	0.0156287
637.703	0.0157092
637.781	0.0156781
637.859	0.0155553
637.937	0.0157051
638.015	0.0155697
638.093	0.0157170
638.172	0.0156629
638.250	0.0155849
638.328	0.0156400
638.406	0.0157054
638.484	0.0155943
638.562	0.0155672
638.640	0.0156568
638.718	0.0155800
638.797	0.0156437
638.875	0.0155750
638.953	0.0156909
639.031	0.0155366
639.109	0.0156149
639.187	0.0155794
639.265	0.0156892
639.343	0.0157244
639.422	0.0154484
639.500	0.0156594
639.578	0.0156906
639.656	0.0155928
639.734	0.0155749
639.812	0.0156538
639.890	0.0155922
639.968	0.0156459
640.047	0.0155851
640.125	0.0155629
640.203	0.0155712
640.281	0.0154719
640.359	0.0157314
640.437	0.0155611
640.515	0.0156196
640.593	0.0155475
640.672	0.0155558
640.750	0.0156716
640.828	0.0155293
640.906	0.0155284
640.984	0.0156507
641.062	0.0157010
641.140	0.0156332
641.218	0.0155688
641.297	0.0155416
641.375	0.0155715
641.453	0.0156303
641.531	0.0155865
641.609	0.0156429
641.687	0.0155374
641.765	0.0155822
641.843	0.0155885
641.922	0.0155103
642.000	0.0155092
642.078	0.0155074
642.156	0.0156728
642.234	0.0156136
642.312	0.0157038
642.390	0.0157693
642.468	0.0156646
642.547	0.0156032
642.625	0.0155821
642.703	0.0155383
642.781	0.0156149
642.859	0.0156049
642.937	0.0154891
643.015	0.0157279
643.093	0.0157853
643.172	0.0155362
643.250	0.0155491
643.328	0.0156689
643.406	0.0155903
643.484	0.0156120
643.562	0.0157861
643.640	0.0156968
643.718	0.0156519
643.797	0.0157726
643.875	0.0156012
643.953	0.0155290
644.031	0.0155914
644.109	0.0155991
644.187	0.0155805
644.265	0.0156843
644.343	0.0155537
644.422	0.0156953
644.500	0.0156901
644.578	0.0155366
644.656	0.0156454
644.734	0.0156171
644.812	0.0156167
644.890	0.0155409
644.968	0.0156420
645.047	0.0156596
645.125	0.0154756
645.203	0.0155894
645.281	0.0154378
645.359	0.0156596
645.437	0.0157696
645.515	0.0157148
645.593	0.0155058
645.672	0.0156849
645.750	0.0156909
645.828	0.0155831
645.906	0.0156406
645.984	0.0157259
646.062	0.0156237
646.140	0.0155816
646.218	0.0156969
646.297	0.0156893
646.375	0.0155518
646.453	0.0156470
646.531	0.0155103
646.609	0.0156233
646.687	0.0157135
646.765	0.0157183
646.843	0.0156615
646.922	0.0156191
647.000	0.0155441
647.078	0.0157246
647.156	0.0156071
647.234	0.0155780
647.312	0.0155731
647.390	0.0155124
647.468	0.0156087
647.547	0.0156490
647.625	0.0155960
647.703	0.0156258
647.781	0.0157222
647.859	0.0155503
647.937	0.0156549
648.015	0.0155484
648.093	0.0155888
648.172	0.0157010
648.250	0.0156288
648.328	0.0156126
648.406	0.0156540
648.484	0.0156623
648.562	0.0156436
648.640	0.0155795
648.718	0.0155386
648.797	0.0155802
648.875	0.0155497
648.953	0.0157095
649.031	0.0157926
649.109	0.0155345
649.187	0.0156005
649.265	0.0155166
649.343	0.0156207
649.422	0.0155059
649.500	0.0155804
649.578	0.0155254
649.656	0.0155650
649.734	0.0156720
649.812	0.0156038
649.890	0.0156379
649.968	0.0156940
650.047	0.0156184
650.125	0.0155007
650.203	0.0157324
650.281	0.0156174
650.359	0.0155656
650.437	0.0155283
650.515	0.0157480
650.593	0.0156435
650.672	0.0156824
650.750	0.0156184
650.828	0.0155441
650.906	0.0154993
650.984	0.0156195
651.062	0.0157166
651.140	0.0157609
651.218	0.0155211
651.297	0.0156197
651.375	0.0156761
651.453	0.0156365
651.531	0.0155958
651.609	0.0156353
651.687	0.0156227
651.765	0.0156136
651.843	0.0156178
651.922	0.0157550
652.000	0.0156416
652.078	0.0156713
652.156	0.0156201
652.234	0.0155664
652.312	0.0155906
652.390	0.0156093
652.468	0.0155645
652.547	0.0154948
652.625	0.0156792
652.703	0.0156374
652.781	0.0155818
652.859	0.0155927
652.937	0.0155846
653.015	0.0155416
653.093	0.0157286
653.172	0.0154960
653.250	0.0156371
653.328	0.0155524
653.406	0.0156693
653.484	0.0155310
653.562	0.0155949
653.640	0.0155503
653.718	0.0156123
653.797	0.0156675
653.875	0.0155715
653.953	0.0155608
654.031	0.0156971
654.109	0.0155956
654.187	0.0156435
654.265	0.0154920
654.343	0.0156631
654.422	0.0154880
654.500	0.0155967
654.578	0.0156549
654.656	0.0155931
654.734	0.0156628
654.812	0.0156012
654.890	0.0155659
654.968	0.0155997
655.047	0.0157058
655.125	0.0155280
655.203	0.0158025
655.281	0.0156125
655.359	0.0154591
655.437	0.0155426
655.515	0.0156213
655.593	0.0157590
655.672	0.0156158
655.750	0.0155429
655.828	0.0155700
655.906	0.0156719
655.984	0.0155763
656.062	0.0156385
656.140	0.0156467
656.218	0.0155792
656.297	0.0155196
656.375	0.0156937
656.453	0.0155692
656.531	0.0155684
656.609	0.0156493
656.687	0.0156823
656.765	0.0156701
656.843	0.0156288
656.922	0.0155677
657.000	0.0154707
657.078	0.0155658
657.156	0.0155937
657.234	0.0156139
657.312	0.0156322
657.390	0.0156518
657.468	0.0157350
657.547	0.0154705
657.625	0.0155923
657.703	0.0155468
657.781	0.0155167
657.859	0.0155619
657.937	0.0156100
658.015	0.0155111
658.093	0.0156537
658.172	0.0156087
658.250	0.0156805
658.328	0.0155798
658.406	0.0155544
658.484	0.0155995
658.562	0.0155605
658.640	0.0156595
658.718	0.0157056
658.797	0.0156523
658.875	0.0155827
658.953	0.0156611
659.031	0.0156519
659.109	0.0154794
659.187	0.0156019
659.265	0.0157561
659.343	0.0155101
659.422	0.0155527
659.500	0.0156577
659.578	0.0155296
659.656	0.0154575
659.734	0.0155553
659.812	0.0156319
659.890	0.0156770
659.968	0.0156054
660.047	0.0155528
660.125	0.0155413
660.203	0.0155148
660.281	0.0156606
660.359	0.0156461
660.437	0.0156150
660.515	0.0155211
660.593	0.0154555
660.672	0.0156305
660.750	0.0153584
660.828	0.0155782
660.906	0.0155660
660.984	0.0155624
661.062	0.0156959
661.140	0.0156038
661.218	0.0155441
661.297	0.0155920
661.375	0.0154946
661.453	0.0154691
661.531	0.0157126
661.609	0.0155676
661.687	0.0155820
661.765	0.0156496
661.843	0.0155177
661.922	0.0155224
662.000	0.0156062
662.078	0.0156116
662.156	0.0154739
662.234	0.0155713
662.312	0.0155831
662.390	0.0155589
662.468	0.0155759
662.547	0.0156392
662.625	0.0155394
662.703	0.0155250
662.781	0.0155956
662.859	0.0155557
662.937	0.0156752
663.015	0.0155981
663.093	0.0153849
663.172	0.0155190
663.250	0.0156248
663.328	0.0155562
663.406	0.0154478
663.484	0.0154874
663.562	0.0155767
663.640	0.0154655
663.718	0.0153765
663.797	0.0154980
663.875	0.0156073
663.953	0.0155922
664.031	0.0156535
664.109	0.0156413
664.187	0.0156860
664.265	0.0155475
664.343	0.0156610
664.422	0.0155864
664.500	0.0154606
664.578	0.0156322
664.656	0.0156123
664.734	0.0155712
664.812	0.0155708
664.890	0.0154179
664.968	0.0155092
665.047	0.0155579
665.125	0.0156149
665.203	0.0157480
665.281	0.0156085
665.359	0.0155957
665.437	0.0156281
665.515	0.0154974
665.593	0.0155392
665.672	0.0154672
665.750	0.0156818
665.828	0.0156426
665.906	0.0154667
665.984	0.0155875
666.062	0.0155350
666.140	0.0155258
666.218	0.0155907
666.297	0.0156857
666.375	0.0154471
666.453	0.0155431
666.531	0.0155829
666.609	0.0156207
666.687	0.0154247
666.765	0.0156153
666.843	0.0156232
666.922	0.0155748
667.000	0.0154736
667.078	0.0156870
667.156	0.0155677
667.234	0.0156558
667.312	0.0155659
667.390	0.0156307
667.468	0.0155165
667.547	0.0157014
667.625	0.0156571
667.703	0.0156110
667.781	0.0155045
667.859	0.0156068
667.937	0.0156256
668.015	0.0155563
668.093	0.0154412
668.172	0.0156158
668.250	0.0155334
668.328	0.0156132
668.406	0.0155100
668.484	0.0154637
668.562	0.0158126
668.640	0.0155753
668.718	0.0156227
668.797	0.0156445
668.875	0.0156219
668.953	0.0154555
669.031	0.0155524
669.109	0.0156673
669.187	0.0156259
669.265	0.0155743
669.343	0.0155234
669.422	0.0155733
669.500	0.0156552
669.578	0.0157323
669.656	0.0155820
669.734	0.0156478
669.812	0.0156292
669.890	0.0156059
669.968	0.0156197
670.047	0.0156394
670.125	0.0155430
670.203	0.0155709
670.281	0.0157368
670.359	0.0156918
670.437	0.0156510
670.515	0.0155357
670.593	0.0155704
670.672	0.0156715
670.750	0.0156409
670.828	0.0155128
670.906	0.0155888
670.984	0.0156326
671.062	0.0156726
671.140	0.0157710
671.218	0.0154687
671.297	0.0154919
671.375	0.0155476
671.453	0.0154865
671.531	0.0156203
671.609	0.0155228
671.687	0.0154085
671.765	0.0155495
671.843	0.0154834
671.922	0.0156460
672.000	0.0156684
672.078	0.0155848
672.156	0.0156484
672.234	0.0154845
672.312	0.0154858
672.390	0.0154203
672.468	0.0155406
672.547	0.0156278
672.625	0.0155231
672.703	0.0156662
672.781	0.0155737
672.859	0.0157224
672.937	0.0156374
673.015	0.0156075
673.093	0.0157216
673.172	0.0157820
673.250	0.0156908
673.328	0.0156973
673.406	0.0156781
673.484	0.0156392
673.562	0.0158504
673.640	0.0155502
673.718	0.0156901
673.797	0.0155000
673.875	0.0155327
673.953	0.0158031
674.031	0.0156749
674.109	0.0155588
674.187	0.0156944
674.265	0.0155777
674.343	0.0157383
674.422	0.0155972
674.500	0.0155679
674.578	0.0156486
674.656	0.0155404
674.734	0.0155352
674.812	0.0156776
674.890	0.0155914
674.968	0.0154771
675.047	0.0155067
675.125	0.0154838
675.203	0.0157030
675.281	0.0156470
675.359	0.0155072
675.437	0.0156562
675.515	0.0156293
675.593	0.0156002
675.672	0.0156323
675.750	0.0156399
675.828	0.0155967
675.906	0.0156258
675.984	0.0156427
676.062	0.0154250
676.140	0.0156331
676.218	0.0157433
676.297	0.0156590
676.375	0.0155907
676.453	0.0156003
676.531	0.0156448
676.609	0.0156276
676.687	0.0156834
676.765	0.0155727
676.843	0.0156238
676.922	0.0156384
677.000	0.0155890
677.078	0.0155889
677.156	0.0156148
677.234	0.0156828
677.312	0.0157660
677.390	0.0155943
677.468	0.0155400
677.547	0.0155795
677.625	0.0155505
677.703	0.0155114
677.781	0.0155407
677.859	0.0154593
677.937	0.0156056
678.015	0.0156758
678.093	0.0154797
678.172	0.0154699
678.250	0.0156777
678.328	0.0154900
678.406	0.0155426
678.484	0.0155916
678.562	0.0156039
678.640	0.0155968
678.718	0.0155053
678.797	0.0155083
678.875	0.0154596
678.953	0.0156368
679.031	0.0158668
679.109	0.0155875
679.187	0.0155260
679.265	0.0156198
679.343	0.0155669
679.422	0.0157323
679.500	0.0156742
679.578	0.0156771
679.656	0.0155763
679.734	0.0156263
679.812	0.0156284
679.890	0.0156129
679.968	0.0156963
680.047	0.0156083
680.125	0.0154787
680.203	0.0155654
680.281	0.0157124
680.359	0.0156948
680.437	0.0155862
680.515	0.0156131
680.593	0.0157581
680.672	0.0156918
680.750	0.0155551
680.828	0.0156438
680.906	0.0156435
680.984	0.0156720
681.062	0.0156762
681.140	0.0155900
681.218	0.0155915
681.297	0.0155554
681.375	0.0155406
681.453	0.0154959
681.531	0.0155533
681.609	0.0156166
681.687	0.0154556
681.765	0.0155188
681.843	0.0156651
681.922	0.0156779
682.000	0.0156640
682.078	0.0155256
682.156	0.0157266
682.234	0.0157036
682.312	0.0155907
682.390	0.0157087
682.468	0.0157162
682.547	0.0155975
682.625	0.0155750
682.703	0.0157551
682.781	0.0156564
682.859	0.0158099
682.937	0.0156355
683.015	0.0155386
683.093	0.0157543
683.172	0.0157413
683.250	0.0156330
683.328	0.0155887
683.406	0.0156071
683.484	0.0155192
683.562	0.0156320
683.640	0.0156323
683.718	0.0156216
683.797	0.0156538
683.875	0.0156715
683.953	0.0156130
684.031	0.0155688
684.109	0.0155544
684.187	0.0154735
684.265	0.0156964
684.343	0.0155785
684.422	0.0156557
684.500	0.0154926
684.578	0.0154457
684.656	0.0155789
684.734	0.0156578
684.812	0.0156687
684.890	0.0155089
684.968	0.0156242
685.047	0.0155859
685.125	0.0156176
685.203	0.0156319
685.281	0.0155874
685.359	0.0156223
685.437	0.0155852
685.515	0.0157494
685.593	0.0156644
685.672	0.0155386
