06/13/2022	14:39:28	Ver.	4.1	UNKNOWN
Optical Delay	599.968395	Delta X		0.078125	Sweeps	1	Scan Rate	0/0
Coordinates	Axis 1	NaN	Axis 2	NaN	Axis 3	NaN	Axis 4	NaN	Axis 5	NaN	Axis 6	0.000000
TX Power	0.000000	RX Power	0.000000

599.968	0.0154930
600.047	0.0155034
600.125	0.0155080
600.203	0.0155415
600.281	0.0156224
600.359	0.0155081
600.437	0.0155364
600.515	0.0156194
600.593	0.0155431
600.672	0.0154750
600.750	0.0154199
600.828	0.0156057
600.906	0.0156567
600.984	0.0155855
601.062	0.0154987
601.140	0.0155485
601.218	0.0156214
601.297	0.0155382
601.375	0.0153211
601.453	0.0154812
601.531	0.0155385
601.609	0.0154374
601.687	0.0155032
601.765	0.0156047
601.843	0.0155280
601.922	0.0154818
602.000	0.0155699
602.078	0.0153995
602.156	0.0154234
602.234	0.0154868
602.312	0.0155848
602.390	0.0155785
602.468	0.0153952
602.547	0.0154268
602.625	0.0154536
602.703	0.0155101
602.781	0.0156299
602.859	0.0155450
602.937	0.0155473
603.015	0.0155645
603.093	0.0154514
603.172	0.0154840
603.250	0.0155569
603.328	0.0155318
603.406	0.0154794
603.484	0.0154533
603.562	0.0154296
603.640	0.0154766
603.718	0.0155188
603.797	0.0156781
603.875	0.0154733
603.953	0.0155256
604.031	0.0155135
604.109	0.0153355
604.187	0.0154073
604.265	0.0154622
604.343	0.0155631
604.422	0.0156490
604.500	0.0155502
604.578	0.0153240
604.656	0.0154835
604.734	0.0154180
604.812	0.0154427
604.890	0.0155043
604.968	0.0155573
605.047	0.0153500
605.125	0.0154840
605.203	0.0156741
605.281	0.0156269
605.359	0.0155023
605.437	0.0154874
605.515	0.0156734
605.593	0.0155023
605.672	0.0156180
605.750	0.0154719
605.828	0.0154811
605.906	0.0155322
605.984	0.0154640
606.062	0.0155653
606.140	0.0155552
606.218	0.0154887
606.297	0.0154207
606.375	0.0156760
606.453	0.0156657
606.531	0.0154496
606.609	0.0154481
606.687	0.0154201
606.765	0.0154186
606.843	0.0154720
606.922	0.0154730
607.000	0.0154869
607.078	0.0154565
607.156	0.0155045
607.234	0.0154767
607.312	0.0156160
607.390	0.0153997
607.468	0.0156413
607.547	0.0154341
607.625	0.0154865
607.703	0.0155349
607.781	0.0154449
607.859	0.0154599
607.937	0.0154816
608.015	0.0154128
608.093	0.0154212
608.172	0.0154967
608.250	0.0154919
608.328	0.0156020
608.406	0.0154472
608.484	0.0153439
608.562	0.0154057
608.640	0.0154925
608.718	0.0155215
608.797	0.0155383
608.875	0.0155192
608.953	0.0155518
609.031	0.0154352
609.109	0.0155753
609.187	0.0154337
609.265	0.0155447
609.343	0.0156449
609.422	0.0156140
609.500	0.0155794
609.578	0.0154950
609.656	0.0155171
609.734	0.0156055
609.812	0.0155239
609.890	0.0156387
609.968	0.0154939
610.047	0.0154723
610.125	0.0154628
610.203	0.0155406
610.281	0.0153450
610.359	0.0154326
610.437	0.0155730
610.515	0.0154816
610.593	0.0154331
610.672	0.0155754
610.750	0.0156076
610.828	0.0153920
610.906	0.0156705
610.984	0.0154245
611.062	0.0154744
611.140	0.0155000
611.218	0.0155402
611.297	0.0153843
611.375	0.0156570
611.453	0.0154127
611.531	0.0155633
611.609	0.0154996
611.687	0.0155748
611.765	0.0156529
611.843	0.0154974
611.922	0.0155426
612.000	0.0154796
612.078	0.0153864
612.156	0.0155152
612.234	0.0155197
612.312	0.0156179
612.390	0.0155000
612.468	0.0155206
612.547	0.0155191
612.625	0.0153252
612.703	0.0155667
612.781	0.0154425
612.859	0.0154124
612.937	0.0155282
613.015	0.0154025
613.093	0.0154458
613.172	0.0154289
613.250	0.0155549
613.328	0.0155681
613.406	0.0155827
613.484	0.0152700
613.562	0.0155803
613.640	0.0155363
613.718	0.0154472
613.797	0.0153868
613.875	0.0154004
613.953	0.0155619
614.031	0.0154635
614.109	0.0155089
614.187	0.0155827
614.265	0.0154615
614.343	0.0153877
614.422	0.0156263
614.500	0.0155334
614.578	0.0155033
614.656	0.0155164
614.734	0.0153758
614.812	0.0155089
614.890	0.0155458
614.968	0.0154996
615.047	0.0156057
615.125	0.0155002
615.203	0.0153941
615.281	0.0155544
615.359	0.0155322
615.437	0.0155725
615.515	0.0154351
615.593	0.0155283
615.672	0.0155852
615.750	0.0154159
615.828	0.0154722
615.906	0.0156851
615.984	0.0155437
616.062	0.0156631
616.140	0.0155125
616.218	0.0155071
616.297	0.0154895
616.375	0.0155204
616.453	0.0155930
616.531	0.0152913
616.609	0.0155180
616.687	0.0154914
616.765	0.0155215
616.843	0.0156283
616.922	0.0155687
617.000	0.0153306
617.078	0.0154886
617.156	0.0157205
617.234	0.0156903
617.312	0.0154823
617.390	0.0155376
617.468	0.0154137
617.547	0.0155975
617.625	0.0155374
617.703	0.0154741
617.781	0.0155541
617.859	0.0155804
617.937	0.0157005
618.015	0.0155296
618.093	0.0155347
618.172	0.0154796
618.250	0.0154491
618.328	0.0155839
618.406	0.0154976
618.484	0.0155393
618.562	0.0156931
618.640	0.0156047
618.718	0.0155463
618.797	0.0155418
618.875	0.0156006
618.953	0.0156173
619.031	0.0154671
619.109	0.0154977
619.187	0.0154293
619.265	0.0154671
619.343	0.0155204
619.422	0.0154361
619.500	0.0156821
619.578	0.0155275
619.656	0.0154200
619.734	0.0155785
619.812	0.0155373
619.890	0.0153946
619.968	0.0156127
620.047	0.0155500
620.125	0.0154173
620.203	0.0155394
620.281	0.0156671
620.359	0.0155106
620.437	0.0154816
620.515	0.0154835
620.593	0.0153466
620.672	0.0155678
620.750	0.0155079
620.828	0.0153984
620.906	0.0155315
620.984	0.0154440
621.062	0.0153699
621.140	0.0156149
621.218	0.0155708
621.297	0.0154121
621.375	0.0156743
621.453	0.0155383
621.531	0.0155177
621.609	0.0155189
621.687	0.0156371
621.765	0.0155220
621.843	0.0154870
621.922	0.0154322
622.000	0.0156259
622.078	0.0154635
622.156	0.0155230
622.234	0.0155440
622.312	0.0156027
622.390	0.0155512
622.468	0.0155272
622.547	0.0154296
622.625	0.0156089
622.703	0.0155518
622.781	0.0154755
622.859	0.0154205
622.937	0.0154645
623.015	0.0155772
623.093	0.0155369
623.172	0.0155466
623.250	0.0156041
623.328	0.0155238
623.406	0.0154256
623.484	0.0154811
623.562	0.0155891
623.640	0.0156223
623.718	0.0153471
623.797	0.0154961
623.875	0.0155451
623.953	0.0153668
624.031	0.0155434
624.109	0.0156251
624.187	0.0156737
624.265	0.0155602
624.343	0.0154753
624.422	0.0155535
624.500	0.0156373
624.578	0.0156123
624.656	0.0155193
624.734	0.0156308
624.812	0.0155718
624.890	0.0155344
624.968	0.0155255
625.047	0.0154826
625.125	0.0154163
625.203	0.0154688
625.281	0.0155904
625.359	0.0155563
625.437	0.0156273
625.515	0.0157172
625.593	0.0155210
625.672	0.0153876
625.750	0.0153409
625.828	0.0154408
625.906	0.0154900
625.984	0.0154833
626.062	0.0155383
626.140	0.0156580
626.218	0.0154443
626.297	0.0154658
626.375	0.0154385
626.453	0.0154251
626.531	0.0154927
626.609	0.0154621
626.687	0.0154505
626.765	0.0155805
626.843	0.0155503
626.922	0.0154910
627.000	0.0155592
627.078	0.0155743
627.156	0.0155398
627.234	0.0154247
627.312	0.0155030
627.390	0.0156877
627.468	0.0155605
627.547	0.0154085
627.625	0.0156120
627.703	0.0154313
627.781	0.0155911
627.859	0.0154898
627.937	0.0155561
628.015	0.0154967
628.093	0.0155244
628.172	0.0155991
628.250	0.0155779
628.328	0.0154897
628.406	0.0154804
628.484	0.0155600
628.562	0.0155398
628.640	0.0155862
628.718	0.0155729
628.797	0.0157420
628.875	0.0156642
628.953	0.0155760
629.031	0.0154978
629.109	0.0154269
629.187	0.0153987
629.265	0.0156949
629.343	0.0156167
629.422	0.0155869
629.500	0.0155406
629.578	0.0155360
629.656	0.0154822
629.734	0.0155123
629.812	0.0155085
629.890	0.0154347
629.968	0.0155020
630.047	0.0156974
630.125	0.0155416
630.203	0.0154802
630.281	0.0154555
630.359	0.0155209
630.437	0.0154388
630.515	0.0155281
630.593	0.0155623
630.672	0.0155555
630.750	0.0154563
630.828	0.0154743
630.906	0.0156618
630.984	0.0156667
631.062	0.0156932
631.140	0.0154973
631.218	0.0155407
631.297	0.0156303
631.375	0.0156372
631.453	0.0154443
631.531	0.0156126
631.609	0.0154924
631.687	0.0156429
631.765	0.0155020
631.843	0.0155453
631.922	0.0155294
632.000	0.0154987
632.078	0.0154842
632.156	0.0155572
632.234	0.0155785
632.312	0.0155721
632.390	0.0154794
632.468	0.0156052
632.547	0.0155241
632.625	0.0154786
632.703	0.0155276
632.781	0.0155539
632.859	0.0155182
632.937	0.0155635
633.015	0.0154895
633.093	0.0154739
633.172	0.0154012
633.250	0.0154456
633.328	0.0155089
633.406	0.0155536
633.484	0.0155617
633.562	0.0155402
633.640	0.0155593
633.718	0.0154973
633.797	0.0155239
633.875	0.0155222
633.953	0.0154806
634.031	0.0154750
634.109	0.0154722
634.187	0.0153112
634.265	0.0155285
634.343	0.0154393
634.422	0.0156837
634.500	0.0157304
634.578	0.0156573
634.656	0.0155627
634.734	0.0154164
634.812	0.0154404
634.890	0.0155165
634.968	0.0154487
635.047	0.0155627
635.125	0.0153820
635.203	0.0156128
635.281	0.0155183
635.359	0.0153670
635.437	0.0154868
635.515	0.0155742
635.593	0.0155342
635.672	0.0153959
635.750	0.0154615
635.828	0.0155634
635.906	0.0154571
635.984	0.0155621
636.062	0.0154231
636.140	0.0153540
636.218	0.0155511
636.297	0.0154539
636.375	0.0156111
636.453	0.0155412
636.531	0.0155173
636.609	0.0155428
636.687	0.0155987
636.765	0.0154831
636.843	0.0155344
636.922	0.0155234
637.000	0.0155453
637.078	0.0155395
637.156	0.0155334
637.234	0.0155434
637.312	0.0153385
637.390	0.0155222
637.468	0.0156507
637.547	0.0154192
637.625	0.0153529
637.703	0.0154303
637.781	0.0155196
637.859	0.0153992
637.937	0.0156130
638.015	0.0155332
638.093	0.0155486
638.172	0.0154231
638.250	0.0154700
638.328	0.0154951
638.406	0.0156349
638.484	0.0154684
638.562	0.0154817
638.640	0.0156071
638.718	0.0155252
638.797	0.0155714
638.875	0.0156286
638.953	0.0155659
639.031	0.0154781
639.109	0.0155796
639.187	0.0154710
639.265	0.0155138
639.343	0.0155022
639.422	0.0154538
639.500	0.0155151
639.578	0.0155293
639.656	0.0157305
639.734	0.0154575
639.812	0.0155425
639.890	0.0154863
639.968	0.0155157
640.047	0.0155190
640.125	0.0154980
640.203	0.0155329
640.281	0.0155706
640.359	0.0156246
640.437	0.0155309
640.515	0.0154855
640.593	0.0155190
640.672	0.0154570
640.750	0.0154249
640.828	0.0156108
640.906	0.0154738
640.984	0.0153970
641.062	0.0155064
641.140	0.0154568
641.218	0.0155317
641.297	0.0155640
641.375	0.0156450
641.453	0.0156017
641.531	0.0154163
641.609	0.0155516
641.687	0.0156120
641.765	0.0154671
641.843	0.0155640
641.922	0.0156023
642.000	0.0155544
642.078	0.0155376
642.156	0.0156152
642.234	0.0156876
642.312	0.0156345
642.390	0.0156481
642.468	0.0156108
642.547	0.0156844
642.625	0.0156009
642.703	0.0155395
642.781	0.0155540
642.859	0.0155184
642.937	0.0155322
643.015	0.0154828
643.093	0.0155725
643.172	0.0155930
643.250	0.0155302
643.328	0.0155841
643.406	0.0153452
643.484	0.0155262
643.562	0.0154899
643.640	0.0155355
643.718	0.0154575
643.797	0.0154958
643.875	0.0154753
643.953	0.0154085
644.031	0.0155344
644.109	0.0155888
644.187	0.0155025
644.265	0.0155299
644.343	0.0154539
644.422	0.0155530
644.500	0.0155210
644.578	0.0155373
644.656	0.0155887
644.734	0.0154101
644.812	0.0155402
644.890	0.0155417
644.968	0.0155659
645.047	0.0155804
645.125	0.0155006
645.203	0.0154534
645.281	0.0155225
645.359	0.0155449
645.437	0.0156652
645.515	0.0155737
645.593	0.0155308
645.672	0.0154333
645.750	0.0155591
645.828	0.0155663
645.906	0.0155719
645.984	0.0155594
646.062	0.0156018
646.140	0.0154865
646.218	0.0155149
646.297	0.0156043
646.375	0.0156042
646.453	0.0155507
646.531	0.0154649
646.609	0.0154594
646.687	0.0154930
646.765	0.0155449
646.843	0.0154508
646.922	0.0155758
647.000	0.0155196
647.078	0.0153924
647.156	0.0154519
647.234	0.0155132
647.312	0.0155591
647.390	0.0154867
647.468	0.0156042
647.547	0.0155730
647.625	0.0154927
647.703	0.0154843
647.781	0.0155566
647.859	0.0155669
647.937	0.0155486
648.015	0.0154987
648.093	0.0154980
648.172	0.0155589
648.250	0.0154127
648.328	0.0156064
648.406	0.0155541
648.484	0.0155891
648.562	0.0155126
648.640	0.0154855
648.718	0.0155743
648.797	0.0155257
648.875	0.0155963
648.953	0.0155910
649.031	0.0154555
649.109	0.0155153
649.187	0.0154401
649.265	0.0155229
649.343	0.0153926
649.422	0.0154998
649.500	0.0155077
649.578	0.0153900
649.656	0.0153553
649.734	0.0154337
649.812	0.0155399
649.890	0.0154205
649.968	0.0155710
650.047	0.0154433
650.125	0.0154224
650.203	0.0154031
650.281	0.0156097
650.359	0.0155374
650.437	0.0153854
650.515	0.0155001
650.593	0.0155347
650.672	0.0155518
650.750	0.0155574
650.828	0.0155966
650.906	0.0154093
650.984	0.0153635
651.062	0.0153942
651.140	0.0155087
651.218	0.0154256
651.297	0.0155152
651.375	0.0156078
651.453	0.0155328
651.531	0.0155084
651.609	0.0153775
651.687	0.0155318
651.765	0.0155961
651.843	0.0155459
651.922	0.0154252
652.000	0.0154356
652.078	0.0155485
652.156	0.0154859
652.234	0.0155824
652.312	0.0155482
652.390	0.0155403
652.468	0.0155310
652.547	0.0155657
652.625	0.0155871
652.703	0.0154530
652.781	0.0154028
652.859	0.0155237
652.937	0.0154033
653.015	0.0155745
653.093	0.0155928
653.172	0.0154489
653.250	0.0155767
653.328	0.0156490
653.406	0.0154552
653.484	0.0155099
653.562	0.0155518
653.640	0.0155747
653.718	0.0154694
653.797	0.0154534
653.875	0.0155303
653.953	0.0154556
654.031	0.0156918
654.109	0.0154266
654.187	0.0154338
654.265	0.0155836
654.343	0.0154598
654.422	0.0155439
654.500	0.0155070
654.578	0.0154299
654.656	0.0156129
654.734	0.0154218
654.812	0.0155227
654.890	0.0155672
654.968	0.0155992
655.047	0.0155083
655.125	0.0154657
655.203	0.0155801
655.281	0.0156420
655.359	0.0155186
655.437	0.0155722
655.515	0.0153561
655.593	0.0154218
655.672	0.0154055
655.750	0.0155956
655.828	0.0154967
655.906	0.0155466
655.984	0.0154006
656.062	0.0154189
656.140	0.0155707
656.218	0.0154558
656.297	0.0155884
656.375	0.0155129
656.453	0.0155000
656.531	0.0154281
656.609	0.0154462
656.687	0.0154953
656.765	0.0154145
656.843	0.0154620
656.922	0.0154679
657.000	0.0155849
657.078	0.0155496
657.156	0.0155089
657.234	0.0153744
657.312	0.0152783
657.390	0.0155401
657.468	0.0154624
657.547	0.0155204
657.625	0.0154920
657.703	0.0154284
657.781	0.0155055
657.859	0.0155876
657.937	0.0153946
658.015	0.0154941
658.093	0.0154433
658.172	0.0156015
658.250	0.0154665
658.328	0.0154637
658.406	0.0154034
658.484	0.0155472
658.562	0.0154757
658.640	0.0155313
658.718	0.0155682
658.797	0.0154541
658.875	0.0154365
658.953	0.0154845
659.031	0.0155621
659.109	0.0153683
659.187	0.0155224
659.265	0.0154022
659.343	0.0154562
659.422	0.0156226
659.500	0.0154726
659.578	0.0156270
659.656	0.0153824
659.734	0.0154790
659.812	0.0154570
659.890	0.0155473
659.968	0.0155312
660.047	0.0154099
660.125	0.0154099
660.203	0.0153672
660.281	0.0154086
660.359	0.0155460
660.437	0.0156108
660.515	0.0155027
660.593	0.0154617
660.672	0.0154949
660.750	0.0154537
660.828	0.0156448
660.906	0.0155362
660.984	0.0156599
661.062	0.0156855
661.140	0.0155068
661.218	0.0154718
661.297	0.0154080
661.375	0.0154438
661.453	0.0155649
661.531	0.0155909
661.609	0.0155164
661.687	0.0155149
661.765	0.0155226
661.843	0.0154195
661.922	0.0154939
662.000	0.0155572
662.078	0.0155040
662.156	0.0156284
662.234	0.0154466
662.312	0.0154999
662.390	0.0156322
662.468	0.0155410
662.547	0.0154805
662.625	0.0154810
662.703	0.0153754
662.781	0.0155864
662.859	0.0156266
662.937	0.0154850
663.015	0.0155540
663.093	0.0154897
663.172	0.0154515
663.250	0.0155553
663.328	0.0155441
663.406	0.0155491
663.484	0.0153951
663.562	0.0155180
663.640	0.0155048
663.718	0.0155997
663.797	0.0155553
663.875	0.0154330
663.953	0.0155914
664.031	0.0154906
664.109	0.0155217
664.187	0.0155371
664.265	0.0155573
664.343	0.0153987
664.422	0.0155180
664.500	0.0154023
664.578	0.0154879
664.656	0.0154575
664.734	0.0154774
664.812	0.0154052
664.890	0.0155110
664.968	0.0153697
665.047	0.0156110
665.125	0.0154208
665.203	0.0155176
665.281	0.0157104
665.359	0.0155273
665.437	0.0156730
665.515	0.0154919
665.593	0.0154346
665.672	0.0156065
665.750	0.0155246
665.828	0.0153957
665.906	0.0155120
665.984	0.0155697
666.062	0.0155823
666.140	0.0156051
666.218	0.0153608
666.297	0.0155910
666.375	0.0154493
666.453	0.0153249
666.531	0.0154482
666.609	0.0155203
666.687	0.0154982
666.765	0.0154612
666.843	0.0154865
666.922	0.0154547
667.000	0.0154850
667.078	0.0155340
667.156	0.0156275
667.234	0.0154870
667.312	0.0154765
667.390	0.0155070
667.468	0.0155758
667.547	0.0154547
667.625	0.0155466
667.703	0.0154496
667.781	0.0154938
667.859	0.0156183
667.937	0.0155546
668.015	0.0154350
668.093	0.0156030
668.172	0.0154304
668.250	0.0154208
668.328	0.0155567
668.406	0.0157366
668.484	0.0156611
668.562	0.0156319
668.640	0.0155151
668.718	0.0154095
668.797	0.0154674
668.875	0.0153174
668.953	0.0154462
669.031	0.0156097
669.109	0.0155374
669.187	0.0156069
669.265	0.0154714
669.343	0.0155519
669.422	0.0154868
669.500	0.0155033
669.578	0.0155882
669.656	0.0155243
669.734	0.0155854
669.812	0.0153631
669.890	0.0154811
669.968	0.0156107
670.047	0.0155095
670.125	0.0155878
670.203	0.0155418
670.281	0.0154954
670.359	0.0154618
670.437	0.0155940
670.515	0.0155170
670.593	0.0155463
670.672	0.0154797
670.750	0.0154562
670.828	0.0155768
670.906	0.0156525
670.984	0.0154945
671.062	0.0155471
671.140	0.0154159
671.218	0.0155720
671.297	0.0154851
671.375	0.0155596
671.453	0.0155415
671.531	0.0155416
671.609	0.0155159
671.687	0.0154584
671.765	0.0154832
671.843	0.0156046
671.922	0.0156305
672.000	0.0155338
672.078	0.0155910
672.156	0.0155081
672.234	0.0155601
672.312	0.0155098
672.390	0.0155321
672.468	0.0155402
672.547	0.0155170
672.625	0.0154662
672.703	0.0155006
672.781	0.0155666
672.859	0.0154971
672.937	0.0155949
673.015	0.0155125
673.093	0.0156001
673.172	0.0154577
673.250	0.0155295
673.328	0.0155498
673.406	0.0155606
673.484	0.0156268
673.562	0.0154240
673.640	0.0155005
673.718	0.0155074
673.797	0.0154931
673.875	0.0155148
673.953	0.0154933
674.031	0.0153932
674.109	0.0155383
674.187	0.0154964
674.265	0.0155034
674.343	0.0154307
674.422	0.0154398
674.500	0.0154259
674.578	0.0156432
674.656	0.0154881
674.734	0.0154027
674.812	0.0154597
674.890	0.0155637
674.968	0.0155313
675.047	0.0155557
675.125	0.0156392
675.203	0.0155687
675.281	0.0155949
675.359	0.0155241
675.437	0.0156879
675.515	0.0154875
675.593	0.0154961
675.672	0.0154397
675.750	0.0155626
675.828	0.0155666
675.906	0.0155938
675.984	0.0156200
676.062	0.0154822
676.140	0.0155202
676.218	0.0155801
676.297	0.0156058
676.375	0.0155047
676.453	0.0154588
676.531	0.0155939
676.609	0.0156787
676.687	0.0154243
676.765	0.0154006
676.843	0.0154382
676.922	0.0155193
677.000	0.0155186
677.078	0.0156226
677.156	0.0154958
677.234	0.0153419
677.312	0.0155374
677.390	0.0154637
677.468	0.0154128
677.547	0.0153998
677.625	0.0155325
677.703	0.0155766
677.781	0.0154683
677.859	0.0155357
677.937	0.0155643
678.015	0.0153292
678.093	0.0155204
678.172	0.0154758
678.250	0.0154350
678.328	0.0153588
678.406	0.0154591
678.484	0.0155400
678.562	0.0155566
678.640	0.0154949
678.718	0.0154152
678.797	0.0154569
678.875	0.0155467
678.953	0.0155008
679.031	0.0154205
679.109	0.0154900
679.187	0.0156438
679.265	0.0155193
679.343	0.0156023
679.422	0.0156670
679.500	0.0154913
679.578	0.0156189
679.656	0.0155754
679.734	0.0155124
679.812	0.0155391
679.890	0.0155948
679.968	0.0155811
680.047	0.0155236
680.125	0.0155655
680.203	0.0154942
680.281	0.0156185
680.359	0.0154185
680.437	0.0154443
680.515	0.0155762
680.593	0.0156456
680.672	0.0154863
680.750	0.0154805
680.828	0.0153865
680.906	0.0153942
680.984	0.0155204
681.062	0.0155513
681.140	0.0154742
681.218	0.0154247
681.297	0.0155237
681.375	0.0155748
681.453	0.0154267
681.531	0.0155750
681.609	0.0155662
681.687	0.0154554
681.765	0.0154164
681.843	0.0153451
681.922	0.0154665
682.000	0.0156426
682.078	0.0155732
682.156	0.0155658
682.234	0.0154708
682.312	0.0154095
682.390	0.0155798
682.468	0.0154925
682.547	0.0155801
682.625	0.0155343
682.703	0.0154184
682.781	0.0155848
682.859	0.0155667
682.937	0.0154765
683.015	0.0155242
683.093	0.0154749
683.172	0.0155742
683.250	0.0155899
683.328	0.0154389
683.406	0.0155198
683.484	0.0155283
683.562	0.0155803
683.640	0.0154541
683.718	0.0155458
683.797	0.0154164
683.875	0.0154210
683.953	0.0154292
684.031	0.0154789
684.109	0.0155277
684.187	0.0154951
684.265	0.0154828
684.343	0.0155254
684.422	0.0155936
684.500	0.0154800
684.578	0.0155082
684.656	0.0155791
684.734	0.0154069
684.812	0.0155068
684.890	0.0155348
684.968	0.0155578
685.047	0.0154656
685.125	0.0155171
685.203	0.0154087
685.281	0.0155057
685.359	0.0153618
685.437	0.0155145
685.515	0.0154214
685.593	0.0155466
685.672	0.0154317
