06/13/2022	14:40:38	Ver.	4.1	UNKNOWN
Optical Delay	599.968395	Delta X		0.078125	Sweeps	1	Scan Rate	0/0
Coordinates	Axis 1	NaN	Axis 2	NaN	Axis 3	NaN	Axis 4	NaN	Axis 5	NaN	Axis 6	0.000000
TX Power	0.000000	RX Power	0.000000

599.968	0.0157785
600.047	0.0159188
600.125	0.0157892
600.203	0.0156099
600.281	0.0157195
600.359	0.0156911
600.437	0.0158253
600.515	0.0159661
600.593	0.0158372
600.672	0.0156512
600.750	0.0157441
600.828	0.0157704
600.906	0.0157595
600.984	0.0157658
601.062	0.0157820
601.140	0.0157649
601.218	0.0157828
601.297	0.0157198
601.375	0.0156283
601.453	0.0157208
601.531	0.0160226
601.609	0.0158262
601.687	0.0156790
601.765	0.0157543
601.843	0.0157657
601.922	0.0157290
602.000	0.0157851
602.078	0.0157846
602.156	0.0158123
602.234	0.0157776
602.312	0.0157174
602.390	0.0157360
602.468	0.0157845
602.547	0.0158520
602.625	0.0158154
602.703	0.0157880
602.781	0.0159023
602.859	0.0157647
602.937	0.0157016
603.015	0.0157089
603.093	0.0160431
603.172	0.0157535
603.250	0.0157542
603.328	0.0157819
603.406	0.0158091
603.484	0.0157877
603.562	0.0158865
603.640	0.0159009
603.718	0.0157127
603.797	0.0156128
603.875	0.0157409
603.953	0.0157561
604.031	0.0157320
604.109	0.0158410
604.187	0.0157362
604.265	0.0157516
604.343	0.0156364
604.422	0.0158443
604.500	0.0158501
604.578	0.0157944
604.656	0.0155860
604.734	0.0157124
604.812	0.0158645
604.890	0.0159381
604.968	0.0158110
605.047	0.0157504
605.125	0.0158092
605.203	0.0159548
605.281	0.0158168
605.359	0.0157156
605.437	0.0158059
605.515	0.0157754
605.593	0.0157710
605.672	0.0158041
605.750	0.0157306
605.828	0.0156666
605.906	0.0157996
605.984	0.0157176
606.062	0.0156983
606.140	0.0157455
606.218	0.0155920
606.297	0.0158190
606.375	0.0158270
606.453	0.0157094
606.531	0.0158167
606.609	0.0157486
606.687	0.0158652
606.765	0.0156721
606.843	0.0157529
606.922	0.0157562
607.000	0.0157314
607.078	0.0157428
607.156	0.0158739
607.234	0.0158247
607.312	0.0158746
607.390	0.0157565
607.468	0.0157366
607.547	0.0157919
607.625	0.0158334
607.703	0.0157604
607.781	0.0157202
607.859	0.0157980
607.937	0.0158401
608.015	0.0158442
608.093	0.0156780
608.172	0.0155826
608.250	0.0156938
608.328	0.0157753
608.406	0.0157362
608.484	0.0156701
608.562	0.0158323
608.640	0.0156753
608.718	0.0157211
608.797	0.0156903
608.875	0.0156471
608.953	0.0157738
609.031	0.0157539
609.109	0.0158024
609.187	0.0158322
609.265	0.0158122
609.343	0.0158276
609.422	0.0155840
609.500	0.0157008
609.578	0.0157402
609.656	0.0158162
609.734	0.0158264
609.812	0.0156602
609.890	0.0156636
609.968	0.0157543
610.047	0.0158354
610.125	0.0158157
610.203	0.0157565
610.281	0.0158005
610.359	0.0157337
610.437	0.0157977
610.515	0.0156615
610.593	0.0158768
610.672	0.0158019
610.750	0.0156496
610.828	0.0157679
610.906	0.0156924
610.984	0.0156988
611.062	0.0157294
611.140	0.0157785
611.218	0.0157649
611.297	0.0158388
611.375	0.0157581
611.453	0.0157394
611.531	0.0157390
611.609	0.0158141
611.687	0.0157330
611.765	0.0158425
611.843	0.0158966
611.922	0.0157365
612.000	0.0158349
612.078	0.0159105
612.156	0.0155688
612.234	0.0157114
612.312	0.0157433
612.390	0.0156171
612.468	0.0157661
612.547	0.0158180
612.625	0.0159294
612.703	0.0156919
612.781	0.0156058
612.859	0.0157742
612.937	0.0158026
613.015	0.0157509
613.093	0.0157265
613.172	0.0157070
613.250	0.0157692
613.328	0.0158151
613.406	0.0157773
613.484	0.0157941
613.562	0.0156162
613.640	0.0157144
613.718	0.0157455
613.797	0.0156902
613.875	0.0157584
613.953	0.0158858
614.031	0.0158488
614.109	0.0157410
614.187	0.0158512
614.265	0.0158034
614.343	0.0156400
614.422	0.0157036
614.500	0.0158525
614.578	0.0158923
614.656	0.0156718
614.734	0.0158122
614.812	0.0157431
614.890	0.0156782
614.968	0.0158971
615.047	0.0157690
615.125	0.0157744
615.203	0.0158971
615.281	0.0158530
615.359	0.0158406
615.437	0.0156769
615.515	0.0156656
615.593	0.0157535
615.672	0.0158427
615.750	0.0158344
615.828	0.0157072
615.906	0.0157915
615.984	0.0158398
616.062	0.0158009
616.140	0.0157703
616.218	0.0158012
616.297	0.0158521
616.375	0.0157729
616.453	0.0157526
616.531	0.0157534
616.609	0.0158564
616.687	0.0158615
616.765	0.0156942
616.843	0.0159187
616.922	0.0157621
617.000	0.0157298
617.078	0.0158643
617.156	0.0157944
617.234	0.0158244
617.312	0.0158595
617.390	0.0156907
617.468	0.0159250
617.547	0.0157590
617.625	0.0156756
617.703	0.0158229
617.781	0.0155727
617.859	0.0157789
617.937	0.0158668
618.015	0.0158013
618.093	0.0158197
618.172	0.0156521
618.250	0.0156465
618.328	0.0157487
618.406	0.0157074
618.484	0.0157802
618.562	0.0157792
618.640	0.0157551
618.718	0.0157375
618.797	0.0157811
618.875	0.0158731
618.953	0.0158153
619.031	0.0158009
619.109	0.0158066
619.187	0.0158928
619.265	0.0158226
619.343	0.0158188
619.422	0.0158706
619.500	0.0158194
619.578	0.0157042
619.656	0.0158550
619.734	0.0157599
619.812	0.0157762
619.890	0.0158372
619.968	0.0157304
620.047	0.0158178
620.125	0.0158514
620.203	0.0158296
620.281	0.0158286
620.359	0.0157894
620.437	0.0157427
620.515	0.0157607
620.593	0.0157816
620.672	0.0158372
620.750	0.0157866
620.828	0.0158372
620.906	0.0158364
620.984	0.0159159
621.062	0.0157978
621.140	0.0157396
621.218	0.0158344
621.297	0.0159019
621.375	0.0158443
621.453	0.0158982
621.531	0.0157518
621.609	0.0157404
621.687	0.0156946
621.765	0.0157169
621.843	0.0157876
621.922	0.0158054
622.000	0.0157832
622.078	0.0157180
622.156	0.0158670
622.234	0.0157233
622.312	0.0157407
622.390	0.0156214
622.468	0.0158178
622.547	0.0157362
622.625	0.0157212
622.703	0.0158050
622.781	0.0159514
622.859	0.0158214
622.937	0.0158450
623.015	0.0156570
623.093	0.0158832
623.172	0.0157717
623.250	0.0158082
623.328	0.0158751
623.406	0.0157923
623.484	0.0157182
623.562	0.0157036
623.640	0.0156915
623.718	0.0158541
623.797	0.0157405
623.875	0.0157207
623.953	0.0158482
624.031	0.0158308
624.109	0.0157058
624.187	0.0157141
624.265	0.0157593
624.343	0.0158479
624.422	0.0157499
624.500	0.0158259
624.578	0.0157872
624.656	0.0157819
624.734	0.0158236
624.812	0.0157904
624.890	0.0158867
624.968	0.0157697
625.047	0.0156556
625.125	0.0158604
625.203	0.0157956
625.281	0.0158552
625.359	0.0157127
625.437	0.0157069
625.515	0.0157587
625.593	0.0158193
625.672	0.0157178
625.750	0.0158430
625.828	0.0157303
625.906	0.0156110
625.984	0.0158633
626.062	0.0158244
626.140	0.0157088
626.218	0.0157677
626.297	0.0157291
626.375	0.0157558
626.453	0.0157801
626.531	0.0157484
626.609	0.0156635
626.687	0.0157805
626.765	0.0157553
626.843	0.0157395
626.922	0.0157450
627.000	0.0157820
627.078	0.0157706
627.156	0.0158072
627.234	0.0157769
627.312	0.0157520
627.390	0.0157388
627.468	0.0157098
627.547	0.0157054
627.625	0.0157054
627.703	0.0157757
627.781	0.0158173
627.859	0.0157982
627.937	0.0156779
628.015	0.0156712
628.093	0.0158445
628.172	0.0157188
628.250	0.0158143
628.328	0.0157164
628.406	0.0157334
628.484	0.0157344
628.562	0.0157942
628.640	0.0157927
628.718	0.0158663
628.797	0.0159174
628.875	0.0156551
628.953	0.0157099
629.031	0.0157008
629.109	0.0158080
629.187	0.0158227
629.265	0.0156631
629.343	0.0157777
629.422	0.0157902
629.500	0.0157648
629.578	0.0158401
629.656	0.0158414
629.734	0.0158821
629.812	0.0156580
629.890	0.0157270
629.968	0.0157993
630.047	0.0157059
630.125	0.0158459
630.203	0.0158543
630.281	0.0158167
630.359	0.0158408
630.437	0.0157108
630.515	0.0157442
630.593	0.0158227
630.672	0.0158197
630.750	0.0157673
630.828	0.0159023
630.906	0.0158036
630.984	0.0157853
631.062	0.0158387
631.140	0.0158429
631.218	0.0158425
631.297	0.0158212
631.375	0.0158564
631.453	0.0158298
631.531	0.0156557
631.609	0.0158596
631.687	0.0158069
631.765	0.0158023
631.843	0.0157776
631.922	0.0157832
632.000	0.0157746
632.078	0.0158028
632.156	0.0156705
632.234	0.0157358
632.312	0.0156889
632.390	0.0157911
632.468	0.0157324
632.547	0.0158787
632.625	0.0156852
632.703	0.0158504
632.781	0.0156995
632.859	0.0156001
632.937	0.0157334
633.015	0.0157782
633.093	0.0158016
633.172	0.0157034
633.250	0.0156933
633.328	0.0158489
633.406	0.0157860
633.484	0.0157107
633.562	0.0157475
633.640	0.0157629
633.718	0.0157645
633.797	0.0158582
633.875	0.0157375
633.953	0.0157898
634.031	0.0157577
634.109	0.0157719
634.187	0.0157870
634.265	0.0157951
634.343	0.0157432
634.422	0.0158133
634.500	0.0157845
634.578	0.0157246
634.656	0.0157775
634.734	0.0157329
634.812	0.0158233
634.890	0.0156943
634.968	0.0158057
635.047	0.0158939
635.125	0.0158018
635.203	0.0157479
635.281	0.0157188
635.359	0.0157989
635.437	0.0157166
635.515	0.0158391
635.593	0.0158121
635.672	0.0157907
635.750	0.0158241
635.828	0.0157887
635.906	0.0157257
635.984	0.0157894
636.062	0.0157144
636.140	0.0157743
636.218	0.0157607
636.297	0.0158177
636.375	0.0156854
636.453	0.0157972
636.531	0.0157454
636.609	0.0156466
636.687	0.0157658
636.765	0.0157803
636.843	0.0156398
636.922	0.0157595
637.000	0.0159200
637.078	0.0156940
637.156	0.0156744
637.234	0.0158117
637.312	0.0157772
637.390	0.0157529
637.468	0.0156645
637.547	0.0157797
637.625	0.0157909
637.703	0.0157336
637.781	0.0158385
637.859	0.0157861
637.937	0.0158152
638.015	0.0157866
638.093	0.0157823
638.172	0.0157818
638.250	0.0158076
638.328	0.0156246
638.406	0.0157867
638.484	0.0157351
638.562	0.0157049
638.640	0.0158092
638.718	0.0157964
638.797	0.0157919
638.875	0.0157224
638.953	0.0156770
639.031	0.0157692
639.109	0.0157844
639.187	0.0157365
639.265	0.0157359
639.343	0.0157218
639.422	0.0157207
639.500	0.0156833
639.578	0.0158381
639.656	0.0157195
639.734	0.0158324
639.812	0.0158315
639.890	0.0158715
639.968	0.0157419
640.047	0.0158324
640.125	0.0157147
640.203	0.0158014
640.281	0.0156729
640.359	0.0157573
640.437	0.0158308
640.515	0.0158135
640.593	0.0158078
640.672	0.0158530
640.750	0.0155882
640.828	0.0158097
640.906	0.0157574
640.984	0.0157259
641.062	0.0157796
641.140	0.0158694
641.218	0.0158106
641.297	0.0158286
641.375	0.0157212
641.453	0.0158507
641.531	0.0157333
641.609	0.0158436
641.687	0.0157714
641.765	0.0155946
641.843	0.0157877
641.922	0.0158281
642.000	0.0157655
642.078	0.0157661
642.156	0.0155379
642.234	0.0158083
642.312	0.0158893
642.390	0.0156955
642.468	0.0156277
642.547	0.0158286
642.625	0.0158362
642.703	0.0157891
642.781	0.0156557
642.859	0.0157310
642.937	0.0157108
643.015	0.0158065
643.093	0.0158501
643.172	0.0157975
643.250	0.0157658
643.328	0.0156812
643.406	0.0156944
643.484	0.0157422
643.562	0.0158527
643.640	0.0157664
643.718	0.0157732
643.797	0.0158023
643.875	0.0158670
643.953	0.0157368
644.031	0.0157482
644.109	0.0158556
644.187	0.0157745
644.265	0.0157952
644.343	0.0157471
644.422	0.0157053
644.500	0.0157980
644.578	0.0158273
644.656	0.0157745
644.734	0.0158420
644.812	0.0158772
644.890	0.0157258
644.968	0.0157494
645.047	0.0156999
645.125	0.0158631
645.203	0.0158065
645.281	0.0158164
645.359	0.0157957
645.437	0.0156977
645.515	0.0158118
645.593	0.0156522
645.672	0.0157689
645.750	0.0157669
645.828	0.0158044
645.906	0.0157522
645.984	0.0159382
646.062	0.0157933
646.140	0.0156546
646.218	0.0156831
646.297	0.0157515
646.375	0.0157513
646.453	0.0158131
646.531	0.0158026
646.609	0.0157643
646.687	0.0158504
646.765	0.0156411
646.843	0.0157138
646.922	0.0158559
647.000	0.0158623
647.078	0.0158532
647.156	0.0156110
647.234	0.0157720
647.312	0.0156638
647.390	0.0157582
647.468	0.0157863
647.547	0.0157117
647.625	0.0157870
647.703	0.0157310
647.781	0.0157221
647.859	0.0156657
647.937	0.0156074
648.015	0.0158440
648.093	0.0157837
648.172	0.0156362
648.250	0.0157561
648.328	0.0158549
648.406	0.0157715
648.484	0.0158071
648.562	0.0157190
648.640	0.0157784
648.718	0.0158979
648.797	0.0157682
648.875	0.0157713
648.953	0.0157696
649.031	0.0157003
649.109	0.0158492
649.187	0.0158186
649.265	0.0157545
649.343	0.0157030
649.422	0.0157555
649.500	0.0158456
649.578	0.0158298
649.656	0.0157951
649.734	0.0158475
649.812	0.0158904
649.890	0.0156827
649.968	0.0159086
650.047	0.0158469
650.125	0.0158643
650.203	0.0158064
650.281	0.0157538
650.359	0.0156775
650.437	0.0158318
650.515	0.0158821
650.593	0.0157341
650.672	0.0156219
650.750	0.0157350
650.828	0.0157593
650.906	0.0158314
650.984	0.0158688
651.062	0.0156641
651.140	0.0157078
651.218	0.0158710
651.297	0.0158230
651.375	0.0157928
651.453	0.0158779
651.531	0.0157565
651.609	0.0156888
651.687	0.0157742
651.765	0.0157256
651.843	0.0157520
651.922	0.0157767
652.000	0.0157903
652.078	0.0158831
652.156	0.0157001
652.234	0.0156944
652.312	0.0157474
652.390	0.0158629
652.468	0.0157825
652.547	0.0157719
652.625	0.0157447
652.703	0.0157001
652.781	0.0156517
652.859	0.0158173
652.937	0.0157997
653.015	0.0156786
653.093	0.0158765
653.172	0.0158794
653.250	0.0157243
653.328	0.0157270
653.406	0.0156810
653.484	0.0158001
653.562	0.0158094
653.640	0.0157406
653.718	0.0156637
653.797	0.0156411
653.875	0.0157150
653.953	0.0158611
654.031	0.0158199
654.109	0.0157378
654.187	0.0158475
654.265	0.0156994
654.343	0.0157130
654.422	0.0157381
654.500	0.0157048
654.578	0.0157237
654.656	0.0157684
654.734	0.0158282
654.812	0.0158188
654.890	0.0157952
654.968	0.0157889
655.047	0.0157910
655.125	0.0157808
655.203	0.0156696
655.281	0.0156091
655.359	0.0156155
655.437	0.0157609
655.515	0.0158578
655.593	0.0157960
655.672	0.0156771
655.750	0.0157037
655.828	0.0156363
655.906	0.0157073
655.984	0.0158044
656.062	0.0157642
656.140	0.0157727
656.218	0.0157294
656.297	0.0156807
656.375	0.0158619
656.453	0.0155974
656.531	0.0158429
656.609	0.0157883
656.687	0.0158176
656.765	0.0157550
656.843	0.0157862
656.922	0.0157435
657.000	0.0157658
657.078	0.0157034
657.156	0.0156593
657.234	0.0158221
657.312	0.0158099
657.390	0.0158584
657.468	0.0157324
657.547	0.0157201
657.625	0.0157457
657.703	0.0157226
657.781	0.0157394
657.859	0.0157889
657.937	0.0158270
658.015	0.0158356
658.093	0.0158636
658.172	0.0157403
658.250	0.0157867
658.328	0.0158261
658.406	0.0157874
658.484	0.0158254
658.562	0.0157919
658.640	0.0158162
658.718	0.0157636
658.797	0.0157866
658.875	0.0157827
658.953	0.0157668
659.031	0.0157500
659.109	0.0158186
659.187	0.0157169
659.265	0.0157397
659.343	0.0158099
659.422	0.0158217
659.500	0.0158117
659.578	0.0157533
659.656	0.0157345
659.734	0.0157225
659.812	0.0157008
659.890	0.0158105
659.968	0.0158455
660.047	0.0156871
660.125	0.0158581
660.203	0.0156899
660.281	0.0155497
660.359	0.0158679
660.437	0.0157537
660.515	0.0156451
660.593	0.0156799
660.672	0.0157666
660.750	0.0158795
660.828	0.0157478
660.906	0.0156557
660.984	0.0157730
661.062	0.0158265
661.140	0.0157397
661.218	0.0157872
661.297	0.0158260
661.375	0.0157050
661.453	0.0157904
661.531	0.0158924
661.609	0.0158176
661.687	0.0158478
661.765	0.0157209
661.843	0.0159083
661.922	0.0157658
662.000	0.0157483
662.078	0.0158798
662.156	0.0158549
662.234	0.0158974
662.312	0.0158920
662.390	0.0156886
662.468	0.0158085
662.547	0.0157967
662.625	0.0158817
662.703	0.0157695
662.781	0.0158063
662.859	0.0158174
662.937	0.0157756
663.015	0.0158564
663.093	0.0158525
663.172	0.0157971
663.250	0.0157066
663.328	0.0157243
663.406	0.0157862
663.484	0.0158230
663.562	0.0158071
663.640	0.0157993
663.718	0.0157790
663.797	0.0157151
663.875	0.0157483
663.953	0.0158569
664.031	0.0158051
664.109	0.0157864
664.187	0.0158981
664.265	0.0158608
664.343	0.0158023
664.422	0.0156892
664.500	0.0156412
664.578	0.0158575
664.656	0.0157294
664.734	0.0157005
664.812	0.0157427
664.890	0.0158167
664.968	0.0158360
665.047	0.0157312
665.125	0.0158304
665.203	0.0156791
665.281	0.0158690
665.359	0.0158648
665.437	0.0157774
665.515	0.0156709
665.593	0.0157685
665.672	0.0158887
665.750	0.0157574
665.828	0.0157583
665.906	0.0156990
665.984	0.0158185
666.062	0.0156940
666.140	0.0158244
666.218	0.0156259
666.297	0.0157720
666.375	0.0157547
666.453	0.0158177
666.531	0.0158489
666.609	0.0157637
666.687	0.0158476
666.765	0.0157677
666.843	0.0157101
666.922	0.0158989
667.000	0.0157684
667.078	0.0158109
667.156	0.0157648
667.234	0.0157803
667.312	0.0157500
667.390	0.0157849
667.468	0.0157428
667.547	0.0158709
667.625	0.0157472
667.703	0.0157178
667.781	0.0157130
667.859	0.0157567
667.937	0.0156559
668.015	0.0157539
668.093	0.0157266
668.172	0.0158620
668.250	0.0157481
668.328	0.0158120
668.406	0.0157594
668.484	0.0159007
668.562	0.0157119
668.640	0.0157299
668.718	0.0157870
668.797	0.0156564
668.875	0.0157335
668.953	0.0158004
669.031	0.0157556
669.109	0.0157422
669.187	0.0157148
669.265	0.0156412
669.343	0.0159731
669.422	0.0157420
669.500	0.0157380
669.578	0.0157484
669.656	0.0156754
669.734	0.0157777
669.812	0.0158534
669.890	0.0156952
669.968	0.0157158
670.047	0.0158109
670.125	0.0158453
670.203	0.0158312
670.281	0.0159150
670.359	0.0156740
670.437	0.0158054
670.515	0.0158203
670.593	0.0156563
670.672	0.0157439
670.750	0.0157006
670.828	0.0157393
670.906	0.0157549
670.984	0.0157735
671.062	0.0158789
671.140	0.0158705
671.218	0.0156551
671.297	0.0157550
671.375	0.0157987
671.453	0.0157598
671.531	0.0157339
671.609	0.0157324
671.687	0.0157494
671.765	0.0157675
671.843	0.0158103
671.922	0.0158455
672.000	0.0157809
672.078	0.0156493
672.156	0.0156783
672.234	0.0158678
672.312	0.0158394
672.390	0.0156792
672.468	0.0157255
672.547	0.0157000
672.625	0.0158131
672.703	0.0158276
672.781	0.0156913
672.859	0.0157813
672.937	0.0157806
673.015	0.0158072
673.093	0.0159445
673.172	0.0157897
673.250	0.0158160
673.328	0.0159002
673.406	0.0158091
673.484	0.0157154
673.562	0.0158443
673.640	0.0158753
673.718	0.0155869
673.797	0.0156857
673.875	0.0157465
673.953	0.0158547
674.031	0.0157358
674.109	0.0157455
674.187	0.0157246
674.265	0.0159245
674.343	0.0158009
674.422	0.0158460
674.500	0.0157978
674.578	0.0157481
674.656	0.0156876
674.734	0.0158267
674.812	0.0158552
674.890	0.0157590
674.968	0.0158851
675.047	0.0157479
675.125	0.0157925
675.203	0.0157867
675.281	0.0158373
675.359	0.0157078
675.437	0.0157180
675.515	0.0157324
675.593	0.0157384
675.672	0.0158032
675.750	0.0157540
675.828	0.0159070
675.906	0.0157858
675.984	0.0157126
676.062	0.0158763
676.140	0.0158703
676.218	0.0159464
676.297	0.0159732
676.375	0.0157011
676.453	0.0156606
676.531	0.0157982
676.609	0.0156924
676.687	0.0157307
676.765	0.0158424
676.843	0.0157610
676.922	0.0158218
677.000	0.0158843
677.078	0.0157266
677.156	0.0158718
677.234	0.0158260
677.312	0.0156030
677.390	0.0157083
677.468	0.0158167
677.547	0.0157821
677.625	0.0158018
677.703	0.0157793
677.781	0.0157612
677.859	0.0155636
677.937	0.0157726
678.015	0.0157613
678.093	0.0157337
678.172	0.0155669
678.250	0.0157173
678.328	0.0158736
678.406	0.0157701
678.484	0.0157707
678.562	0.0156569
678.640	0.0156804
678.718	0.0159119
678.797	0.0157831
678.875	0.0157816
678.953	0.0157206
679.031	0.0157287
679.109	0.0158336
679.187	0.0158299
679.265	0.0158057
679.343	0.0157515
679.422	0.0158476
679.500	0.0157652
679.578	0.0157634
679.656	0.0156468
679.734	0.0158832
679.812	0.0158679
679.890	0.0157767
679.968	0.0156657
680.047	0.0158865
680.125	0.0158125
680.203	0.0158999
680.281	0.0157301
680.359	0.0156888
680.437	0.0157864
680.515	0.0158591
680.593	0.0157924
680.672	0.0157356
680.750	0.0157772
680.828	0.0158055
680.906	0.0158408
680.984	0.0157056
681.062	0.0157256
681.140	0.0158054
681.218	0.0158174
681.297	0.0156841
681.375	0.0157805
681.453	0.0158427
681.531	0.0156762
681.609	0.0158076
681.687	0.0157668
681.765	0.0157857
681.843	0.0158381
681.922	0.0157344
682.000	0.0156872
682.078	0.0157404
682.156	0.0156684
682.234	0.0156207
682.312	0.0156488
682.390	0.0156669
682.468	0.0158129
682.547	0.0158314
682.625	0.0155936
682.703	0.0157777
682.781	0.0157664
682.859	0.0156157
682.937	0.0156837
683.015	0.0157721
683.093	0.0155904
683.172	0.0155074
683.250	0.0157592
683.328	0.0157623
683.406	0.0157896
683.484	0.0157114
683.562	0.0158433
683.640	0.0157279
683.718	0.0157658
683.797	0.0158118
683.875	0.0157406
683.953	0.0158172
684.031	0.0156864
684.109	0.0156332
684.187	0.0157923
684.265	0.0158826
684.343	0.0158920
684.422	0.0156726
684.500	0.0158179
684.578	0.0157141
684.656	0.0157647
684.734	0.0157003
684.812	0.0158949
684.890	0.0156667
684.968	0.0157647
685.047	0.0158562
685.125	0.0157969
685.203	0.0158176
685.281	0.0157651
685.359	0.0157520
685.437	0.0157824
685.515	0.0157793
685.593	0.0155435
685.672	0.0157707
