06/13/2022	14:41:03	Ver.	4.1	UNKNOWN
Optical Delay	599.968395	Delta X		0.078125	Sweeps	1	Scan Rate	0/0
Coordinates	Axis 1	NaN	Axis 2	NaN	Axis 3	NaN	Axis 4	NaN	Axis 5	NaN	Axis 6	0.000000
TX Power	0.000000	RX Power	0.000000

599.968	0.0155930
600.047	0.0156146
600.125	0.0156944
600.203	0.0156326
600.281	0.0156558
600.359	0.0156585
600.437	0.0155049
600.515	0.0157396
600.593	0.0155870
600.672	0.0156107
600.750	0.0156214
600.828	0.0155768
600.906	0.0155643
600.984	0.0157227
601.062	0.0157101
601.140	0.0154831
601.218	0.0154978
601.297	0.0155309
601.375	0.0155823
601.453	0.0157213
601.531	0.0157448
601.609	0.0156539
601.687	0.0154813
601.765	0.0156112
601.843	0.0155737
601.922	0.0155642
602.000	0.0157008
602.078	0.0155965
602.156	0.0156470
602.234	0.0156638
602.312	0.0155560
602.390	0.0154921
602.468	0.0155269
602.547	0.0157007
602.625	0.0155982
602.703	0.0156274
602.781	0.0156335
602.859	0.0155280
602.937	0.0156009
603.015	0.0156754
603.093	0.0155209
603.172	0.0156102
603.250	0.0155579
603.328	0.0156171
603.406	0.0155859
603.484	0.0154984
603.562	0.0157177
603.640	0.0156741
603.718	0.0154732
603.797	0.0157163
603.875	0.0157474
603.953	0.0156135
604.031	0.0156666
604.109	0.0156809
604.187	0.0156641
604.265	0.0155371
604.343	0.0155976
604.422	0.0155579
604.500	0.0155682
604.578	0.0155205
604.656	0.0155267
604.734	0.0154667
604.812	0.0156851
604.890	0.0157675
604.968	0.0156158
605.047	0.0155713
605.125	0.0156386
605.203	0.0154825
605.281	0.0157827
605.359	0.0155509
605.437	0.0154874
605.515	0.0155983
605.593	0.0155096
605.672	0.0155290
605.750	0.0155183
605.828	0.0156068
605.906	0.0156804
605.984	0.0156527
606.062	0.0155484
606.140	0.0156055
606.218	0.0155763
606.297	0.0154528
606.375	0.0155128
606.453	0.0156407
606.531	0.0155695
606.609	0.0154787
606.687	0.0156393
606.765	0.0155911
606.843	0.0156874
606.922	0.0155476
607.000	0.0155000
607.078	0.0156417
607.156	0.0155559
607.234	0.0155811
607.312	0.0155215
607.390	0.0157140
607.468	0.0157184
607.547	0.0156198
607.625	0.0155489
607.703	0.0155752
607.781	0.0155727
607.859	0.0154214
607.937	0.0156085
608.015	0.0156406
608.093	0.0155389
608.172	0.0156096
608.250	0.0156226
608.328	0.0155894
608.406	0.0156282
608.484	0.0156434
608.562	0.0156502
608.640	0.0156243
608.718	0.0154514
608.797	0.0155234
608.875	0.0155621
608.953	0.0156313
609.031	0.0155703
609.109	0.0156842
609.187	0.0156606
609.265	0.0153901
609.343	0.0156784
609.422	0.0155387
609.500	0.0155148
609.578	0.0157047
609.656	0.0155885
609.734	0.0156890
609.812	0.0154868
609.890	0.0154644
609.968	0.0155810
610.047	0.0156106
610.125	0.0154198
610.203	0.0156292
610.281	0.0157105
610.359	0.0156137
610.437	0.0156753
610.515	0.0156233
610.593	0.0155901
610.672	0.0155727
610.750	0.0155865
610.828	0.0155503
610.906	0.0156061
610.984	0.0154865
611.062	0.0156541
611.140	0.0156744
611.218	0.0156239
611.297	0.0157214
611.375	0.0156373
611.453	0.0155531
611.531	0.0155888
611.609	0.0155796
611.687	0.0156059
611.765	0.0156025
611.843	0.0156244
611.922	0.0155540
612.000	0.0156628
612.078	0.0155444
612.156	0.0155881
612.234	0.0154840
612.312	0.0154977
612.390	0.0156139
612.468	0.0155383
612.547	0.0154717
612.625	0.0155909
612.703	0.0155213
612.781	0.0155782
612.859	0.0157222
612.937	0.0157491
613.015	0.0156824
613.093	0.0156013
613.172	0.0155825
613.250	0.0155166
613.328	0.0156496
613.406	0.0156289
613.484	0.0155189
613.562	0.0155793
613.640	0.0156626
613.718	0.0155910
613.797	0.0155121
613.875	0.0156098
613.953	0.0156792
614.031	0.0154209
614.109	0.0156459
614.187	0.0155655
614.265	0.0155359
614.343	0.0155842
614.422	0.0156396
614.500	0.0155645
614.578	0.0155154
614.656	0.0154952
614.734	0.0155351
614.812	0.0154105
614.890	0.0156559
614.968	0.0155222
615.047	0.0155850
615.125	0.0155548
615.203	0.0155093
615.281	0.0156048
615.359	0.0154723
615.437	0.0154327
615.515	0.0155011
615.593	0.0156159
615.672	0.0155908
615.750	0.0155786
615.828	0.0156057
615.906	0.0155204
615.984	0.0155394
616.062	0.0156251
616.140	0.0155458
616.218	0.0155235
616.297	0.0156075
616.375	0.0155283
616.453	0.0153653
616.531	0.0155312
616.609	0.0155841
616.687	0.0155279
616.765	0.0153735
616.843	0.0156091
616.922	0.0154878
617.000	0.0152908
617.078	0.0155753
617.156	0.0157191
617.234	0.0156279
617.312	0.0155172
617.390	0.0154726
617.468	0.0155845
617.547	0.0155064
617.625	0.0155370
617.703	0.0155242
617.781	0.0154656
617.859	0.0154823
617.937	0.0155159
618.015	0.0154784
618.093	0.0153836
618.172	0.0156203
618.250	0.0155891
618.328	0.0155853
618.406	0.0155787
618.484	0.0155315
618.562	0.0154974
618.640	0.0156234
618.718	0.0155458
618.797	0.0155355
618.875	0.0155814
618.953	0.0154590
619.031	0.0155094
619.109	0.0155833
619.187	0.0155908
619.265	0.0156297
619.343	0.0155454
619.422	0.0154547
619.500	0.0155275
619.578	0.0155536
619.656	0.0154587
619.734	0.0155383
619.812	0.0155140
619.890	0.0157224
619.968	0.0155827
620.047	0.0155537
620.125	0.0156768
620.203	0.0154985
620.281	0.0155666
620.359	0.0156551
620.437	0.0156149
620.515	0.0154897
620.593	0.0154752
620.672	0.0154558
620.750	0.0154121
620.828	0.0154745
620.906	0.0156050
620.984	0.0155602
621.062	0.0156195
621.140	0.0154685
621.218	0.0155368
621.297	0.0156963
621.375	0.0153698
621.453	0.0155225
621.531	0.0154587
621.609	0.0154342
621.687	0.0155456
621.765	0.0156010
621.843	0.0155973
621.922	0.0155854
622.000	0.0156116
622.078	0.0155854
622.156	0.0154904
622.234	0.0156435
622.312	0.0155341
622.390	0.0157624
622.468	0.0156297
622.547	0.0156750
622.625	0.0154483
622.703	0.0155831
622.781	0.0155334
622.859	0.0155903
622.937	0.0154993
623.015	0.0155972
623.093	0.0156152
623.172	0.0156037
623.250	0.0155688
623.328	0.0156393
623.406	0.0155872
623.484	0.0156149
623.562	0.0155662
623.640	0.0155481
623.718	0.0154277
623.797	0.0155756
623.875	0.0156363
623.953	0.0155834
624.031	0.0156280
624.109	0.0155255
624.187	0.0155151
624.265	0.0154783
624.343	0.0155734
624.422	0.0154612
624.500	0.0155108
624.578	0.0156319
624.656	0.0157572
624.734	0.0156462
624.812	0.0155782
624.890	0.0155520
624.968	0.0156247
625.047	0.0154900
625.125	0.0154938
625.203	0.0156570
625.281	0.0155800
625.359	0.0154399
625.437	0.0155020
625.515	0.0156397
625.593	0.0156303
625.672	0.0156896
625.750	0.0156714
625.828	0.0154215
625.906	0.0155809
625.984	0.0154959
626.062	0.0155046
626.140	0.0155566
626.218	0.0155599
626.297	0.0156453
626.375	0.0156660
626.453	0.0155357
626.531	0.0155446
626.609	0.0154790
626.687	0.0156214
626.765	0.0155253
626.843	0.0154041
626.922	0.0154641
627.000	0.0155876
627.078	0.0156782
627.156	0.0156339
627.234	0.0155118
627.312	0.0156010
627.390	0.0155418
627.468	0.0155800
627.547	0.0156007
627.625	0.0154749
627.703	0.0155077
627.781	0.0154648
627.859	0.0156533
627.937	0.0156978
628.015	0.0154887
628.093	0.0155665
628.172	0.0155571
628.250	0.0154621
628.328	0.0155156
628.406	0.0156397
628.484	0.0154555
628.562	0.0154917
628.640	0.0155889
628.718	0.0155995
628.797	0.0156065
628.875	0.0156000
628.953	0.0156131
629.031	0.0154845
629.109	0.0155220
629.187	0.0155315
629.265	0.0155518
629.343	0.0156206
629.422	0.0156006
629.500	0.0156016
629.578	0.0155761
629.656	0.0155584
629.734	0.0155067
629.812	0.0156629
629.890	0.0157249
629.968	0.0156643
630.047	0.0156407
630.125	0.0155046
630.203	0.0154086
630.281	0.0154475
630.359	0.0156845
630.437	0.0156652
630.515	0.0155235
630.593	0.0156406
630.672	0.0155553
630.750	0.0156172
630.828	0.0157333
630.906	0.0156028
630.984	0.0154723
631.062	0.0154639
631.140	0.0155273
631.218	0.0155433
631.297	0.0155652
631.375	0.0156325
631.453	0.0156643
631.531	0.0156767
631.609	0.0155725
631.687	0.0155622
631.765	0.0155381
631.843	0.0154622
631.922	0.0156219
632.000	0.0154726
632.078	0.0154327
632.156	0.0154971
632.234	0.0155491
632.312	0.0155771
632.390	0.0155405
632.468	0.0155061
632.547	0.0154690
632.625	0.0154646
632.703	0.0156680
632.781	0.0155085
632.859	0.0155005
632.937	0.0156268
633.015	0.0156283
633.093	0.0155466
633.172	0.0156096
633.250	0.0154880
633.328	0.0154551
633.406	0.0156473
633.484	0.0155235
633.562	0.0155642
633.640	0.0156445
633.718	0.0155155
633.797	0.0155675
633.875	0.0155957
633.953	0.0155349
634.031	0.0154570
634.109	0.0156611
634.187	0.0155610
634.265	0.0154467
634.343	0.0156603
634.422	0.0155751
634.500	0.0154636
634.578	0.0154743
634.656	0.0155213
634.734	0.0155740
634.812	0.0155527
634.890	0.0155521
634.968	0.0155084
635.047	0.0156919
635.125	0.0155267
635.203	0.0155524
635.281	0.0155331
635.359	0.0156573
635.437	0.0156223
635.515	0.0156768
635.593	0.0155315
635.672	0.0155106
635.750	0.0154760
635.828	0.0155925
635.906	0.0156234
635.984	0.0156316
636.062	0.0155370
636.140	0.0155993
636.218	0.0156281
636.297	0.0155598
636.375	0.0155547
636.453	0.0155923
636.531	0.0156485
636.609	0.0155087
636.687	0.0154978
636.765	0.0156461
636.843	0.0157059
636.922	0.0156575
637.000	0.0155566
637.078	0.0156483
637.156	0.0156172
637.234	0.0155068
637.312	0.0155450
637.390	0.0155374
637.468	0.0155416
637.547	0.0156440
637.625	0.0157016
637.703	0.0155678
637.781	0.0155228
637.859	0.0155858
637.937	0.0155849
638.015	0.0155827
638.093	0.0156048
638.172	0.0155360
638.250	0.0155767
638.328	0.0155975
638.406	0.0156303
638.484	0.0155901
638.562	0.0156979
638.640	0.0156200
638.718	0.0155367
638.797	0.0155569
638.875	0.0154565
638.953	0.0155521
639.031	0.0156102
639.109	0.0155524
639.187	0.0154763
639.265	0.0156650
639.343	0.0155342
639.422	0.0154868
639.500	0.0155721
639.578	0.0156811
639.656	0.0156297
639.734	0.0155755
639.812	0.0155270
639.890	0.0155379
639.968	0.0156113
640.047	0.0155691
640.125	0.0155535
640.203	0.0154128
640.281	0.0156787
640.359	0.0156365
640.437	0.0155749
640.515	0.0156013
640.593	0.0155405
640.672	0.0155395
640.750	0.0155765
640.828	0.0154736
640.906	0.0155647
640.984	0.0155328
641.062	0.0156039
641.140	0.0155327
641.218	0.0156017
641.297	0.0157375
641.375	0.0155437
641.453	0.0155308
641.531	0.0155586
641.609	0.0155687
641.687	0.0155365
641.765	0.0156046
641.843	0.0155788
641.922	0.0155521
642.000	0.0154931
642.078	0.0155156
642.156	0.0156086
642.234	0.0155657
642.312	0.0156483
642.390	0.0156655
642.468	0.0155566
642.547	0.0154668
642.625	0.0154282
642.703	0.0156044
642.781	0.0155750
642.859	0.0156227
642.937	0.0154588
643.015	0.0155244
643.093	0.0155912
643.172	0.0155351
643.250	0.0155960
643.328	0.0155506
643.406	0.0155800
643.484	0.0154601
643.562	0.0155073
643.640	0.0156065
643.718	0.0156091
643.797	0.0155046
643.875	0.0155842
643.953	0.0156233
644.031	0.0154085
644.109	0.0154967
644.187	0.0155213
644.265	0.0156418
644.343	0.0155188
644.422	0.0156003
644.500	0.0155362
644.578	0.0156344
644.656	0.0156847
644.734	0.0154654
644.812	0.0154981
644.890	0.0156231
644.968	0.0155906
645.047	0.0154762
645.125	0.0154829
645.203	0.0155717
645.281	0.0155254
645.359	0.0158144
645.437	0.0155914
645.515	0.0155366
645.593	0.0154834
645.672	0.0155005
645.750	0.0155287
645.828	0.0154906
645.906	0.0156863
645.984	0.0155685
646.062	0.0156294
646.140	0.0156344
646.218	0.0155370
646.297	0.0155524
646.375	0.0155662
646.453	0.0155054
646.531	0.0156201
646.609	0.0156326
646.687	0.0155758
646.765	0.0156425
646.843	0.0155325
646.922	0.0155979
647.000	0.0157127
647.078	0.0155315
647.156	0.0156018
647.234	0.0155780
647.312	0.0156401
647.390	0.0156780
647.468	0.0154874
647.547	0.0155701
647.625	0.0155991
647.703	0.0157140
647.781	0.0156960
647.859	0.0155731
647.937	0.0156078
648.015	0.0156458
648.093	0.0155691
648.172	0.0155334
648.250	0.0155363
648.328	0.0155596
648.406	0.0155428
648.484	0.0156026
648.562	0.0156810
648.640	0.0154887
648.718	0.0156456
648.797	0.0157492
648.875	0.0155035
648.953	0.0154742
649.031	0.0157535
649.109	0.0156792
649.187	0.0155540
649.265	0.0157076
649.343	0.0156178
649.422	0.0156638
649.500	0.0155924
649.578	0.0155190
649.656	0.0156832
649.734	0.0155831
649.812	0.0155367
649.890	0.0155764
649.968	0.0154547
650.047	0.0156521
650.125	0.0156207
650.203	0.0154732
650.281	0.0155591
650.359	0.0155874
650.437	0.0156793
650.515	0.0156297
650.593	0.0155181
650.672	0.0155742
650.750	0.0155517
650.828	0.0155180
650.906	0.0155733
650.984	0.0154349
651.062	0.0155296
651.140	0.0156184
651.218	0.0155428
651.297	0.0155326
651.375	0.0154942
651.453	0.0156078
651.531	0.0156228
651.609	0.0155888
651.687	0.0154848
651.765	0.0155540
651.843	0.0156547
651.922	0.0155652
652.000	0.0154523
652.078	0.0155973
652.156	0.0155060
652.234	0.0155468
652.312	0.0156413
652.390	0.0155885
652.468	0.0154762
652.547	0.0156252
652.625	0.0155405
652.703	0.0156573
652.781	0.0155487
652.859	0.0154343
652.937	0.0156360
653.015	0.0155703
653.093	0.0155091
653.172	0.0155917
653.250	0.0154990
653.328	0.0154372
653.406	0.0156211
653.484	0.0155943
653.562	0.0155103
653.640	0.0156484
653.718	0.0155830
653.797	0.0155720
653.875	0.0156084
653.953	0.0154521
654.031	0.0155638
654.109	0.0155716
654.187	0.0155833
654.265	0.0155586
654.343	0.0156690
654.422	0.0156300
654.500	0.0155727
654.578	0.0156766
654.656	0.0155165
654.734	0.0154684
654.812	0.0155470
654.890	0.0155524
654.968	0.0154879
655.047	0.0155663
655.125	0.0156348
655.203	0.0155811
655.281	0.0155426
655.359	0.0155589
655.437	0.0155499
655.515	0.0156948
655.593	0.0155194
655.672	0.0153866
655.750	0.0154667
655.828	0.0158060
655.906	0.0157370
655.984	0.0154790
656.062	0.0155244
656.140	0.0155319
656.218	0.0155795
656.297	0.0155613
656.375	0.0157648
656.453	0.0155946
656.531	0.0155730
656.609	0.0157034
656.687	0.0154748
656.765	0.0155148
656.843	0.0155281
656.922	0.0155235
657.000	0.0155842
657.078	0.0155078
657.156	0.0156113
657.234	0.0157751
657.312	0.0154760
657.390	0.0156013
657.468	0.0156299
657.547	0.0156107
657.625	0.0155054
657.703	0.0156126
657.781	0.0156537
657.859	0.0156149
657.937	0.0156602
658.015	0.0155095
658.093	0.0155249
658.172	0.0155979
658.250	0.0154708
658.328	0.0156433
658.406	0.0156137
658.484	0.0156021
658.562	0.0156002
658.640	0.0155143
658.718	0.0155513
658.797	0.0156123
658.875	0.0156672
658.953	0.0155997
659.031	0.0155600
659.109	0.0154436
659.187	0.0155506
659.265	0.0156444
659.343	0.0154872
659.422	0.0154987
659.500	0.0153763
659.578	0.0154951
659.656	0.0155348
659.734	0.0156074
659.812	0.0155077
659.890	0.0156158
659.968	0.0154305
660.047	0.0155537
660.125	0.0155090
660.203	0.0156236
660.281	0.0155829
660.359	0.0154843
660.437	0.0156102
660.515	0.0155860
660.593	0.0157254
660.672	0.0156615
660.750	0.0156261
660.828	0.0155930
660.906	0.0155104
660.984	0.0154564
661.062	0.0156113
661.140	0.0156148
661.218	0.0154700
661.297	0.0155486
661.375	0.0157058
661.453	0.0153898
661.531	0.0155825
661.609	0.0154564
661.687	0.0154213
661.765	0.0156153
661.843	0.0156654
661.922	0.0155131
662.000	0.0154812
662.078	0.0155536
662.156	0.0155733
662.234	0.0155569
662.312	0.0155238
662.390	0.0153568
662.468	0.0156652
662.547	0.0156648
662.625	0.0156168
662.703	0.0155677
662.781	0.0154198
662.859	0.0155011
662.937	0.0155669
663.015	0.0154908
663.093	0.0155132
663.172	0.0156853
663.250	0.0155608
663.328	0.0155386
663.406	0.0155702
663.484	0.0156237
663.562	0.0155825
663.640	0.0157401
663.718	0.0155552
663.797	0.0155775
663.875	0.0155611
663.953	0.0157021
664.031	0.0157058
664.109	0.0156017
664.187	0.0155157
664.265	0.0154875
664.343	0.0155992
664.422	0.0154790
664.500	0.0156611
664.578	0.0156132
664.656	0.0154744
664.734	0.0156287
664.812	0.0156322
664.890	0.0155830
664.968	0.0156516
665.047	0.0154594
665.125	0.0156313
665.203	0.0155722
665.281	0.0155463
665.359	0.0155032
665.437	0.0153761
665.515	0.0155027
665.593	0.0157034
665.672	0.0155086
665.750	0.0155816
665.828	0.0156326
665.906	0.0154546
665.984	0.0155136
666.062	0.0155548
666.140	0.0155312
666.218	0.0155193
666.297	0.0156747
666.375	0.0155652
666.453	0.0154130
666.531	0.0154223
666.609	0.0155167
666.687	0.0153643
666.765	0.0155013
666.843	0.0156045
666.922	0.0154894
667.000	0.0154688
667.078	0.0155323
667.156	0.0155908
667.234	0.0155880
667.312	0.0155419
667.390	0.0155495
667.468	0.0156041
667.547	0.0156212
667.625	0.0156275
667.703	0.0155785
667.781	0.0156739
667.859	0.0155244
667.937	0.0155977
668.015	0.0155942
668.093	0.0154219
668.172	0.0155648
668.250	0.0155162
668.328	0.0154310
668.406	0.0155151
668.484	0.0155143
668.562	0.0154871
668.640	0.0155141
668.718	0.0154504
668.797	0.0155636
668.875	0.0154747
668.953	0.0156562
669.031	0.0155788
669.109	0.0155611
669.187	0.0155080
669.265	0.0153404
669.343	0.0155525
669.422	0.0155208
669.500	0.0154520
669.578	0.0155858
669.656	0.0155424
669.734	0.0154572
669.812	0.0155955
669.890	0.0154254
669.968	0.0155482
670.047	0.0155620
670.125	0.0155568
670.203	0.0156616
670.281	0.0155972
670.359	0.0153796
670.437	0.0154367
670.515	0.0155764
670.593	0.0154832
670.672	0.0155389
670.750	0.0155164
670.828	0.0155303
670.906	0.0155486
670.984	0.0155474
671.062	0.0155388
671.140	0.0154734
671.218	0.0154835
671.297	0.0154591
671.375	0.0155514
671.453	0.0155280
671.531	0.0155438
671.609	0.0154954
671.687	0.0155354
671.765	0.0154952
671.843	0.0154401
671.922	0.0156184
672.000	0.0156124
672.078	0.0155171
672.156	0.0155039
672.234	0.0156396
672.312	0.0156422
672.390	0.0155731
672.468	0.0156194
672.547	0.0155006
672.625	0.0155546
672.703	0.0155766
672.781	0.0155518
672.859	0.0154118
672.937	0.0155618
673.015	0.0155856
673.093	0.0155277
673.172	0.0156857
673.250	0.0155983
673.328	0.0155647
673.406	0.0155592
673.484	0.0156080
673.562	0.0155605
673.640	0.0157307
673.718	0.0154824
673.797	0.0154578
673.875	0.0156786
673.953	0.0156841
674.031	0.0155190
674.109	0.0153984
674.187	0.0155621
674.265	0.0154984
674.343	0.0156411
674.422	0.0156431
674.500	0.0154559
674.578	0.0155959
674.656	0.0155604
674.734	0.0155153
674.812	0.0155354
674.890	0.0156166
674.968	0.0156556
675.047	0.0155740
675.125	0.0155055
675.203	0.0155119
675.281	0.0156290
675.359	0.0157666
675.437	0.0156578
675.515	0.0154093
675.593	0.0156084
675.672	0.0155743
675.750	0.0156096
675.828	0.0155570
675.906	0.0154661
675.984	0.0155746
676.062	0.0156860
676.140	0.0155060
676.218	0.0156959
676.297	0.0156329
676.375	0.0156146
676.453	0.0155794
676.531	0.0154654
676.609	0.0154729
676.687	0.0156184
676.765	0.0156203
676.843	0.0154597
676.922	0.0157416
677.000	0.0156343
677.078	0.0155396
677.156	0.0155323
677.234	0.0155824
677.312	0.0155547
677.390	0.0154698
677.468	0.0155098
677.547	0.0157283
677.625	0.0154778
677.703	0.0155413
677.781	0.0155917
677.859	0.0155339
677.937	0.0156156
678.015	0.0155710
678.093	0.0156052
678.172	0.0155749
678.250	0.0156256
678.328	0.0156388
678.406	0.0154519
678.484	0.0154975
678.562	0.0155397
678.640	0.0154848
678.718	0.0155601
678.797	0.0153891
678.875	0.0154962
678.953	0.0156474
679.031	0.0154598
679.109	0.0155058
679.187	0.0155114
679.265	0.0154570
679.343	0.0155861
679.422	0.0156371
679.500	0.0154542
679.578	0.0154962
679.656	0.0155516
679.734	0.0155675
679.812	0.0155623
679.890	0.0155798
679.968	0.0154912
680.047	0.0155457
680.125	0.0154001
680.203	0.0155911
680.281	0.0154211
680.359	0.0154977
680.437	0.0156359
680.515	0.0155855
680.593	0.0155296
680.672	0.0155692
680.750	0.0153658
680.828	0.0154832
680.906	0.0156445
680.984	0.0156532
681.062	0.0154375
681.140	0.0155493
681.218	0.0155508
681.297	0.0155475
681.375	0.0156223
681.453	0.0155675
681.531	0.0154590
681.609	0.0155611
681.687	0.0155270
681.765	0.0153601
681.843	0.0154619
681.922	0.0155130
682.000	0.0154972
682.078	0.0154919
682.156	0.0155653
682.234	0.0155920
682.312	0.0155496
682.390	0.0156075
682.468	0.0153185
682.547	0.0155480
682.625	0.0156593
682.703	0.0156338
682.781	0.0154710
682.859	0.0154755
682.937	0.0156104
683.015	0.0155535
683.093	0.0155685
683.172	0.0154955
683.250	0.0155312
683.328	0.0155722
683.406	0.0154547
683.484	0.0155430
683.562	0.0154713
683.640	0.0155103
683.718	0.0154526
683.797	0.0155743
683.875	0.0154851
683.953	0.0156211
684.031	0.0154544
684.109	0.0155602
684.187	0.0156961
684.265	0.0154770
684.343	0.0156763
684.422	0.0155952
684.500	0.0156178
684.578	0.0155396
684.656	0.0156540
684.734	0.0156001
684.812	0.0156114
684.890	0.0155577
684.968	0.0156120
685.047	0.0155423
685.125	0.0156432
685.203	0.0156184
685.281	0.0154812
685.359	0.0156862
685.437	0.0155579
685.515	0.0155511
685.593	0.0156767
685.672	0.0155836
