06/13/2022	14:42:28	Ver.	4.1	UNKNOWN
Optical Delay	599.968395	Delta X		0.078125	Sweeps	1	Scan Rate	0/0
Coordinates	Axis 1	NaN	Axis 2	NaN	Axis 3	NaN	Axis 4	NaN	Axis 5	NaN	Axis 6	0.000000
TX Power	0.000000	RX Power	0.000000

599.968	0.0159827
600.047	0.0158636
600.125	0.0161220
600.203	0.0159162
600.281	0.0158538
600.359	0.0160432
600.437	0.0160106
600.515	0.0159115
600.593	0.0159899
600.672	0.0160659
600.750	0.0159257
600.828	0.0158737
600.906	0.0160167
600.984	0.0160005
601.062	0.0159889
601.140	0.0158584
601.218	0.0159388
601.297	0.0160893
601.375	0.0160098
601.453	0.0161105
601.531	0.0160493
601.609	0.0159597
601.687	0.0158655
601.765	0.0159375
601.843	0.0159204
601.922	0.0160268
602.000	0.0158469
602.078	0.0159599
602.156	0.0158922
602.234	0.0160589
602.312	0.0160390
602.390	0.0159603
602.468	0.0160049
602.547	0.0159077
602.625	0.0159733
602.703	0.0159973
602.781	0.0159946
602.859	0.0159532
602.937	0.0157771
603.015	0.0159910
603.093	0.0159599
603.172	0.0159664
603.250	0.0159244
603.328	0.0159113
603.406	0.0159581
603.484	0.0160361
603.562	0.0160118
603.640	0.0159725
603.718	0.0158203
603.797	0.0158357
603.875	0.0159833
603.953	0.0159985
604.031	0.0158270
604.109	0.0159972
604.187	0.0159144
604.265	0.0159608
604.343	0.0160296
604.422	0.0160008
604.500	0.0159927
604.578	0.0159144
604.656	0.0159129
604.734	0.0160172
604.812	0.0159860
604.890	0.0158688
604.968	0.0158419
605.047	0.0161341
605.125	0.0159684
605.203	0.0159544
605.281	0.0159647
605.359	0.0159731
605.437	0.0159711
605.515	0.0159930
605.593	0.0160217
605.672	0.0158061
605.750	0.0159893
605.828	0.0160522
605.906	0.0159245
605.984	0.0160674
606.062	0.0159867
606.140	0.0160020
606.218	0.0159295
606.297	0.0158959
606.375	0.0158923
606.453	0.0160426
606.531	0.0159441
606.609	0.0158845
606.687	0.0158804
606.765	0.0158233
606.843	0.0159351
606.922	0.0158620
607.000	0.0160322
607.078	0.0160400
607.156	0.0159160
607.234	0.0159298
607.312	0.0160091
607.390	0.0159897
607.468	0.0159108
607.547	0.0160229
607.625	0.0159062
607.703	0.0159838
607.781	0.0159294
607.859	0.0159267
607.937	0.0160612
608.015	0.0159492
608.093	0.0158445
608.172	0.0158369
608.250	0.0159927
608.328	0.0159486
608.406	0.0161002
608.484	0.0159090
608.562	0.0160230
608.640	0.0160082
608.718	0.0158642
608.797	0.0160966
608.875	0.0160687
608.953	0.0158566
609.031	0.0158852
609.109	0.0158990
609.187	0.0158657
609.265	0.0159108
609.343	0.0161412
609.422	0.0158857
609.500	0.0158678
609.578	0.0159338
609.656	0.0158813
609.734	0.0159671
609.812	0.0160007
609.890	0.0159270
609.968	0.0157599
610.047	0.0158772
610.125	0.0159799
610.203	0.0158812
610.281	0.0159339
610.359	0.0161224
610.437	0.0160419
610.515	0.0158788
610.593	0.0159083
610.672	0.0160062
610.750	0.0159700
610.828	0.0159137
610.906	0.0158702
610.984	0.0160686
611.062	0.0158435
611.140	0.0160446
611.218	0.0160545
611.297	0.0160565
611.375	0.0160900
611.453	0.0160197
611.531	0.0158893
611.609	0.0160619
611.687	0.0159720
611.765	0.0158620
611.843	0.0158431
611.922	0.0159152
612.000	0.0159301
612.078	0.0160177
612.156	0.0158951
612.234	0.0159528
612.312	0.0160532
612.390	0.0158955
612.468	0.0159393
612.547	0.0158484
612.625	0.0158456
612.703	0.0159416
612.781	0.0160266
612.859	0.0160453
612.937	0.0159821
613.015	0.0160100
613.093	0.0159927
613.172	0.0159773
613.250	0.0159050
613.328	0.0159058
613.406	0.0159097
613.484	0.0159327
613.562	0.0159768
613.640	0.0159592
613.718	0.0159622
613.797	0.0160424
613.875	0.0159009
613.953	0.0159628
614.031	0.0160504
614.109	0.0160918
614.187	0.0160808
614.265	0.0161053
614.343	0.0159634
614.422	0.0161263
614.500	0.0159434
614.578	0.0158041
614.656	0.0159424
614.734	0.0161002
614.812	0.0159839
614.890	0.0159715
614.968	0.0158732
615.047	0.0160773
615.125	0.0161548
615.203	0.0159239
615.281	0.0159570
615.359	0.0160045
615.437	0.0159620
615.515	0.0158944
615.593	0.0159711
615.672	0.0159734
615.750	0.0159728
615.828	0.0159631
615.906	0.0159336
615.984	0.0158984
616.062	0.0160470
616.140	0.0159074
616.218	0.0160323
616.297	0.0160215
616.375	0.0158728
616.453	0.0159466
616.531	0.0160607
616.609	0.0160831
616.687	0.0160556
616.765	0.0159206
616.843	0.0158991
616.922	0.0159171
617.000	0.0159208
617.078	0.0159474
617.156	0.0159612
617.234	0.0160274
617.312	0.0159017
617.390	0.0159180
617.468	0.0159000
617.547	0.0160142
617.625	0.0159283
617.703	0.0160267
617.781	0.0160501
617.859	0.0160448
617.937	0.0158996
618.015	0.0159563
618.093	0.0159075
618.172	0.0159411
618.250	0.0158855
618.328	0.0159132
618.406	0.0159620
618.484	0.0159464
618.562	0.0159866
618.640	0.0160786
618.718	0.0159925
618.797	0.0160071
618.875	0.0159551
618.953	0.0159744
619.031	0.0161669
619.109	0.0161420
619.187	0.0159967
619.265	0.0159347
619.343	0.0159797
619.422	0.0159409
619.500	0.0159837
619.578	0.0160040
619.656	0.0158398
619.734	0.0160107
619.812	0.0160069
619.890	0.0159460
619.968	0.0161524
620.047	0.0159799
620.125	0.0160132
620.203	0.0160171
620.281	0.0159496
620.359	0.0158646
620.437	0.0157527
620.515	0.0159344
620.593	0.0158871
620.672	0.0160147
620.750	0.0158901
620.828	0.0159166
620.906	0.0159876
620.984	0.0158607
621.062	0.0159449
621.140	0.0158518
621.218	0.0159399
621.297	0.0161197
621.375	0.0159695
621.453	0.0159053
621.531	0.0160305
621.609	0.0159110
621.687	0.0159419
621.765	0.0158943
621.843	0.0159367
621.922	0.0158338
622.000	0.0157945
622.078	0.0158959
622.156	0.0160160
622.234	0.0159752
622.312	0.0160221
622.390	0.0159785
622.468	0.0161040
622.547	0.0159216
622.625	0.0159705
622.703	0.0159959
622.781	0.0160287
622.859	0.0159576
622.937	0.0160171
623.015	0.0161683
623.093	0.0160669
623.172	0.0158947
623.250	0.0160776
623.328	0.0160297
623.406	0.0159660
623.484	0.0159590
623.562	0.0158746
623.640	0.0158532
623.718	0.0159721
623.797	0.0160241
623.875	0.0159058
623.953	0.0160090
624.031	0.0159261
624.109	0.0159380
624.187	0.0158395
624.265	0.0160304
624.343	0.0160684
624.422	0.0159862
624.500	0.0158658
624.578	0.0160455
624.656	0.0159753
624.734	0.0160438
624.812	0.0159918
624.890	0.0158933
624.968	0.0159808
625.047	0.0160477
625.125	0.0159637
625.203	0.0160661
625.281	0.0159073
625.359	0.0158521
625.437	0.0159863
625.515	0.0160072
625.593	0.0160439
625.672	0.0160760
625.750	0.0158554
625.828	0.0159122
625.906	0.0159953
625.984	0.0159594
626.062	0.0158475
626.140	0.0159940
626.218	0.0160619
626.297	0.0159319
626.375	0.0159933
626.453	0.0159143
626.531	0.0159155
626.609	0.0159956
626.687	0.0160838
626.765	0.0158759
626.843	0.0159083
626.922	0.0159587
627.000	0.0159825
627.078	0.0160728
627.156	0.0159560
627.234	0.0160387
627.312	0.0158667
627.390	0.0159007
627.468	0.0160387
627.547	0.0160957
627.625	0.0158624
627.703	0.0158804
627.781	0.0158543
627.859	0.0158887
627.937	0.0159139
628.015	0.0160385
628.093	0.0158907
628.172	0.0158396
628.250	0.0159323
628.328	0.0158588
628.406	0.0159902
628.484	0.0158802
628.562	0.0158928
628.640	0.0160231
628.718	0.0161320
628.797	0.0160273
628.875	0.0159916
628.953	0.0158339
629.031	0.0158483
629.109	0.0159795
629.187	0.0159743
629.265	0.0158692
629.343	0.0158446
629.422	0.0159334
629.500	0.0159837
629.578	0.0158181
629.656	0.0159411
629.734	0.0159625
629.812	0.0159235
629.890	0.0158952
629.968	0.0159371
630.047	0.0159710
630.125	0.0159055
630.203	0.0160888
630.281	0.0160086
630.359	0.0160306
630.437	0.0160028
630.515	0.0158707
630.593	0.0159532
630.672	0.0159224
630.750	0.0160101
630.828	0.0159441
630.906	0.0160371
630.984	0.0160419
631.062	0.0158060
631.140	0.0159313
631.218	0.0160179
631.297	0.0159911
631.375	0.0159051
631.453	0.0158595
631.531	0.0159823
631.609	0.0159233
631.687	0.0160172
631.765	0.0160064
631.843	0.0157529
631.922	0.0160270
632.000	0.0159031
632.078	0.0160183
632.156	0.0161066
632.234	0.0160238
632.312	0.0159791
632.390	0.0157936
632.468	0.0158994
632.547	0.0159937
632.625	0.0160764
632.703	0.0159324
632.781	0.0159628
632.859	0.0159969
632.937	0.0159528
633.015	0.0161263
633.093	0.0160017
633.172	0.0159523
633.250	0.0160319
633.328	0.0160448
633.406	0.0159594
633.484	0.0160680
633.562	0.0159764
633.640	0.0159370
633.718	0.0160832
633.797	0.0160577
633.875	0.0159046
633.953	0.0159524
634.031	0.0159383
634.109	0.0161137
634.187	0.0159296
634.265	0.0159710
634.343	0.0158598
634.422	0.0159840
634.500	0.0159885
634.578	0.0160320
634.656	0.0159544
634.734	0.0160406
634.812	0.0160526
634.890	0.0159443
634.968	0.0159941
635.047	0.0158784
635.125	0.0159440
635.203	0.0159588
635.281	0.0158925
635.359	0.0159496
635.437	0.0159626
635.515	0.0158636
635.593	0.0161218
635.672	0.0160441
635.750	0.0157790
635.828	0.0159250
635.906	0.0159013
635.984	0.0159557
636.062	0.0159933
636.140	0.0159427
636.218	0.0158818
636.297	0.0159936
636.375	0.0159206
636.453	0.0159657
636.531	0.0159734
636.609	0.0159048
636.687	0.0160170
636.765	0.0159375
636.843	0.0159169
636.922	0.0160166
637.000	0.0160504
637.078	0.0159013
637.156	0.0159362
637.234	0.0159296
637.312	0.0159544
637.390	0.0158817
637.468	0.0160355
637.547	0.0161343
637.625	0.0158784
637.703	0.0157191
637.781	0.0160104
637.859	0.0161271
637.937	0.0159506
638.015	0.0159921
638.093	0.0159515
638.172	0.0160110
638.250	0.0159668
638.328	0.0159787
638.406	0.0159010
638.484	0.0159073
638.562	0.0159394
638.640	0.0159921
638.718	0.0158652
638.797	0.0158988
638.875	0.0158089
638.953	0.0159132
639.031	0.0159901
639.109	0.0157990
639.187	0.0159168
639.265	0.0159433
639.343	0.0160595
639.422	0.0158950
639.500	0.0159677
639.578	0.0159013
639.656	0.0159096
639.734	0.0160971
639.812	0.0159345
639.890	0.0161308
639.968	0.0160334
640.047	0.0159423
640.125	0.0159929
640.203	0.0159561
640.281	0.0160858
640.359	0.0159407
640.437	0.0159831
640.515	0.0160610
640.593	0.0160327
640.672	0.0158998
640.750	0.0159395
640.828	0.0159864
640.906	0.0160591
640.984	0.0160642
641.062	0.0159434
641.140	0.0158073
641.218	0.0161033
641.297	0.0160937
641.375	0.0158922
641.453	0.0158586
641.531	0.0160444
641.609	0.0159757
641.687	0.0159208
641.765	0.0158799
641.843	0.0159782
641.922	0.0160152
642.000	0.0161287
642.078	0.0160452
642.156	0.0159892
642.234	0.0159205
642.312	0.0158595
642.390	0.0159505
642.468	0.0159631
642.547	0.0160558
642.625	0.0159808
642.703	0.0160917
642.781	0.0160415
642.859	0.0160568
642.937	0.0160638
643.015	0.0160010
643.093	0.0159656
643.172	0.0160210
643.250	0.0160639
643.328	0.0159609
643.406	0.0160990
643.484	0.0158551
643.562	0.0159828
643.640	0.0159782
643.718	0.0160194
643.797	0.0159907
643.875	0.0159826
643.953	0.0160059
644.031	0.0159648
644.109	0.0160170
644.187	0.0160698
644.265	0.0159061
644.343	0.0159467
644.422	0.0160971
644.500	0.0159179
644.578	0.0160539
644.656	0.0159398
644.734	0.0159189
644.812	0.0160271
644.890	0.0159316
644.968	0.0160260
645.047	0.0159280
645.125	0.0159062
645.203	0.0161703
645.281	0.0158965
645.359	0.0158199
645.437	0.0160409
645.515	0.0159061
645.593	0.0158633
645.672	0.0161694
645.750	0.0159425
645.828	0.0159053
645.906	0.0159595
645.984	0.0159575
646.062	0.0160285
646.140	0.0160056
646.218	0.0159390
646.297	0.0158904
646.375	0.0159043
646.453	0.0158553
646.531	0.0160157
646.609	0.0158216
646.687	0.0159144
646.765	0.0160101
646.843	0.0160202
646.922	0.0159663
647.000	0.0159647
647.078	0.0157087
647.156	0.0160105
647.234	0.0160438
647.312	0.0158604
647.390	0.0159869
647.468	0.0160019
647.547	0.0161548
647.625	0.0159238
647.703	0.0158115
647.781	0.0158015
647.859	0.0159705
647.937	0.0159187
648.015	0.0159010
648.093	0.0159603
648.172	0.0159164
648.250	0.0160792
648.328	0.0161769
648.406	0.0159760
648.484	0.0159086
648.562	0.0160631
648.640	0.0159589
648.718	0.0159151
648.797	0.0161609
648.875	0.0160659
648.953	0.0159059
649.031	0.0158579
649.109	0.0158852
649.187	0.0160535
649.265	0.0158969
649.343	0.0159265
649.422	0.0159898
649.500	0.0159821
649.578	0.0159911
649.656	0.0159209
649.734	0.0160030
649.812	0.0160468
649.890	0.0159449
649.968	0.0160100
650.047	0.0160226
650.125	0.0159168
650.203	0.0160538
650.281	0.0160457
650.359	0.0159553
650.437	0.0160163
650.515	0.0158332
650.593	0.0158348
650.672	0.0158810
650.750	0.0159751
650.828	0.0159724
650.906	0.0159074
650.984	0.0160245
651.062	0.0159161
651.140	0.0158852
651.218	0.0159199
651.297	0.0160121
651.375	0.0159554
651.453	0.0159553
651.531	0.0160309
651.609	0.0160174
651.687	0.0158487
651.765	0.0158685
651.843	0.0159409
651.922	0.0159878
652.000	0.0160899
652.078	0.0159700
652.156	0.0158928
652.234	0.0158839
652.312	0.0159850
652.390	0.0160491
652.468	0.0160318
652.547	0.0160345
652.625	0.0159612
652.703	0.0160100
652.781	0.0160197
652.859	0.0159412
652.937	0.0159743
653.015	0.0160725
653.093	0.0159177
653.172	0.0159979
653.250	0.0160070
653.328	0.0159171
653.406	0.0160381
653.484	0.0160610
653.562	0.0159138
653.640	0.0159660
653.718	0.0159264
653.797	0.0159768
653.875	0.0160485
653.953	0.0157915
654.031	0.0160294
654.109	0.0160146
654.187	0.0158724
654.265	0.0159456
654.343	0.0159679
654.422	0.0159885
654.500	0.0160411
654.578	0.0158796
654.656	0.0159010
654.734	0.0160574
654.812	0.0159106
654.890	0.0159100
654.968	0.0160339
655.047	0.0159758
655.125	0.0160390
655.203	0.0160602
655.281	0.0159505
655.359	0.0160296
655.437	0.0160434
655.515	0.0159682
655.593	0.0160907
655.672	0.0160236
655.750	0.0159270
655.828	0.0159296
655.906	0.0159779
655.984	0.0158842
656.062	0.0158999
656.140	0.0160196
656.218	0.0159279
656.297	0.0159992
656.375	0.0158971
656.453	0.0158863
656.531	0.0159735
656.609	0.0158529
656.687	0.0159540
656.765	0.0159583
656.843	0.0161178
656.922	0.0159361
657.000	0.0158832
657.078	0.0160148
657.156	0.0160120
657.234	0.0159109
657.312	0.0158784
657.390	0.0159883
657.468	0.0159991
657.547	0.0159921
657.625	0.0159239
657.703	0.0160271
657.781	0.0159267
657.859	0.0159406
657.937	0.0159930
658.015	0.0159435
658.093	0.0159766
658.172	0.0158943
658.250	0.0160184
658.328	0.0159437
658.406	0.0159055
658.484	0.0159622
658.562	0.0160534
658.640	0.0161219
658.718	0.0161034
658.797	0.0159419
658.875	0.0159289
658.953	0.0159968
659.031	0.0159670
659.109	0.0159663
659.187	0.0161204
659.265	0.0159599
659.343	0.0159689
659.422	0.0158210
659.500	0.0159605
659.578	0.0160101
659.656	0.0160401
659.734	0.0159731
659.812	0.0157758
659.890	0.0160403
659.968	0.0160342
660.047	0.0159646
660.125	0.0158488
660.203	0.0158978
660.281	0.0160157
660.359	0.0159982
660.437	0.0158508
660.515	0.0159368
660.593	0.0159576
660.672	0.0160793
660.750	0.0159596
660.828	0.0159351
660.906	0.0159229
660.984	0.0159718
661.062	0.0159733
661.140	0.0159107
661.218	0.0159158
661.297	0.0159218
661.375	0.0157569
661.453	0.0158282
661.531	0.0159192
661.609	0.0159700
661.687	0.0159254
661.765	0.0159069
661.843	0.0158759
661.922	0.0159007
662.000	0.0160838
662.078	0.0159915
662.156	0.0158324
662.234	0.0159988
662.312	0.0160293
662.390	0.0160008
662.468	0.0159574
662.547	0.0158878
662.625	0.0159380
662.703	0.0160925
662.781	0.0159828
662.859	0.0160709
662.937	0.0158088
663.015	0.0159804
663.093	0.0159004
663.172	0.0160280
663.250	0.0160068
663.328	0.0159186
663.406	0.0159213
663.484	0.0159969
663.562	0.0159290
663.640	0.0159258
663.718	0.0158950
663.797	0.0159292
663.875	0.0159535
663.953	0.0160440
664.031	0.0159194
664.109	0.0157848
664.187	0.0159658
664.265	0.0158611
664.343	0.0159593
664.422	0.0159010
664.500	0.0159550
664.578	0.0160348
664.656	0.0157981
664.734	0.0157993
664.812	0.0158564
664.890	0.0158741
664.968	0.0159490
665.047	0.0159600
665.125	0.0159186
665.203	0.0159841
665.281	0.0159577
665.359	0.0158969
665.437	0.0158325
665.515	0.0159337
665.593	0.0159866
665.672	0.0159409
665.750	0.0159491
665.828	0.0160234
665.906	0.0159050
665.984	0.0160117
666.062	0.0158943
666.140	0.0160936
666.218	0.0158619
666.297	0.0159207
666.375	0.0158463
666.453	0.0159531
666.531	0.0158655
666.609	0.0159941
666.687	0.0160231
666.765	0.0158690
666.843	0.0159654
666.922	0.0159126
667.000	0.0159254
667.078	0.0159601
667.156	0.0159737
667.234	0.0160729
667.312	0.0158724
667.390	0.0159918
667.468	0.0159284
667.547	0.0160329
667.625	0.0160442
667.703	0.0160627
667.781	0.0159570
667.859	0.0159908
667.937	0.0159771
668.015	0.0158724
668.093	0.0159338
668.172	0.0159368
668.250	0.0158186
668.328	0.0159100
668.406	0.0159681
668.484	0.0159750
668.562	0.0159364
668.640	0.0159998
668.718	0.0158665
668.797	0.0159274
668.875	0.0158611
668.953	0.0158459
669.031	0.0159026
669.109	0.0158647
669.187	0.0158624
669.265	0.0159583
669.343	0.0159947
669.422	0.0158637
669.500	0.0158646
669.578	0.0158988
669.656	0.0160122
669.734	0.0159670
669.812	0.0158942
669.890	0.0160136
669.968	0.0160445
670.047	0.0158494
670.125	0.0160444
670.203	0.0158784
670.281	0.0160054
670.359	0.0159074
670.437	0.0158921
670.515	0.0158862
670.593	0.0160751
670.672	0.0159338
670.750	0.0159580
670.828	0.0159108
670.906	0.0160294
670.984	0.0159023
671.062	0.0159958
671.140	0.0160443
671.218	0.0159048
671.297	0.0159219
671.375	0.0159602
671.453	0.0158418
671.531	0.0158645
671.609	0.0158640
671.687	0.0159505
671.765	0.0158675
671.843	0.0160345
671.922	0.0160538
672.000	0.0160601
672.078	0.0160271
672.156	0.0159264
672.234	0.0159850
672.312	0.0160018
672.390	0.0158871
672.468	0.0158629
672.547	0.0158482
672.625	0.0158595
672.703	0.0159736
672.781	0.0160662
672.859	0.0160302
672.937	0.0159709
673.015	0.0159157
673.093	0.0159631
673.172	0.0161391
673.250	0.0160960
673.328	0.0159605
673.406	0.0159961
673.484	0.0159553
673.562	0.0159033
673.640	0.0159805
673.718	0.0161244
673.797	0.0159263
673.875	0.0159171
673.953	0.0160148
674.031	0.0160406
674.109	0.0159401
674.187	0.0160019
674.265	0.0160603
674.343	0.0160208
674.422	0.0159550
674.500	0.0160497
674.578	0.0160492
674.656	0.0161120
674.734	0.0157550
674.812	0.0158524
674.890	0.0159982
674.968	0.0159826
675.047	0.0158984
675.125	0.0159035
675.203	0.0159748
675.281	0.0160868
675.359	0.0159399
675.437	0.0159667
675.515	0.0160236
675.593	0.0160011
675.672	0.0158755
675.750	0.0160146
675.828	0.0160374
675.906	0.0160374
675.984	0.0159177
676.062	0.0159499
676.140	0.0161282
676.218	0.0159808
676.297	0.0160157
676.375	0.0158762
676.453	0.0157483
676.531	0.0158369
676.609	0.0161359
676.687	0.0160191
676.765	0.0159825
676.843	0.0159991
676.922	0.0159141
677.000	0.0160004
677.078	0.0159830
677.156	0.0158540
677.234	0.0160476
677.312	0.0159422
677.390	0.0160416
677.468	0.0159376
677.547	0.0159669
677.625	0.0159641
677.703	0.0159969
677.781	0.0160696
677.859	0.0159686
677.937	0.0159694
678.015	0.0160861
678.093	0.0160448
678.172	0.0159892
678.250	0.0160410
678.328	0.0159470
678.406	0.0159857
678.484	0.0159145
678.562	0.0159822
678.640	0.0161156
678.718	0.0161127
678.797	0.0161022
678.875	0.0160076
678.953	0.0159608
679.031	0.0157922
679.109	0.0159869
679.187	0.0158752
679.265	0.0158958
679.343	0.0159361
679.422	0.0159385
679.500	0.0159962
679.578	0.0159911
679.656	0.0160094
679.734	0.0160472
679.812	0.0160145
679.890	0.0158404
679.968	0.0160082
680.047	0.0159164
680.125	0.0159487
680.203	0.0159531
680.281	0.0159231
680.359	0.0159136
680.437	0.0158936
680.515	0.0159813
680.593	0.0160090
680.672	0.0159140
680.750	0.0160879
680.828	0.0159753
680.906	0.0158270
680.984	0.0159730
681.062	0.0159370
681.140	0.0160153
681.218	0.0160214
681.297	0.0159646
681.375	0.0159943
681.453	0.0159609
681.531	0.0161040
681.609	0.0159201
681.687	0.0159100
681.765	0.0159605
681.843	0.0159015
681.922	0.0159178
682.000	0.0158994
682.078	0.0159991
682.156	0.0160599
682.234	0.0160528
682.312	0.0159726
682.390	0.0161455
682.468	0.0159081
682.547	0.0159485
682.625	0.0158879
682.703	0.0159353
682.781	0.0159155
682.859	0.0159897
682.937	0.0159943
683.015	0.0160080
683.093	0.0159772
683.172	0.0158730
683.250	0.0160238
683.328	0.0159390
683.406	0.0159917
683.484	0.0159882
683.562	0.0159392
683.640	0.0159878
683.718	0.0158936
683.797	0.0159380
683.875	0.0158347
683.953	0.0160098
684.031	0.0159750
684.109	0.0157962
684.187	0.0158727
684.265	0.0159939
684.343	0.0159764
684.422	0.0158981
684.500	0.0158717
684.578	0.0159187
684.656	0.0158414
684.734	0.0158900
684.812	0.0159731
684.890	0.0160629
684.968	0.0159232
685.047	0.0159611
685.125	0.0160526
685.203	0.0158786
685.281	0.0157832
685.359	0.0159985
685.437	0.0158608
685.515	0.0158438
685.593	0.0161336
685.672	0.0160762
