06/13/2022	14:44:13	Ver.	4.1	UNKNOWN
Optical Delay	599.968395	Delta X		0.078125	Sweeps	1	Scan Rate	0/0
Coordinates	Axis 1	NaN	Axis 2	NaN	Axis 3	NaN	Axis 4	NaN	Axis 5	NaN	Axis 6	0.000000
TX Power	0.000000	RX Power	0.000000

599.968	0.0148457
600.047	0.0147884
600.125	0.0149674
600.203	0.0149232
600.281	0.0149009
600.359	0.0148181
600.437	0.0148538
600.515	0.0147974
600.593	0.0148040
600.672	0.0150004
600.750	0.0149097
600.828	0.0147324
600.906	0.0147337
600.984	0.0149489
601.062	0.0149951
601.140	0.0149191
601.218	0.0148148
601.297	0.0148352
601.375	0.0148168
601.453	0.0147753
601.531	0.0148149
601.609	0.0148228
601.687	0.0148195
601.765	0.0148924
601.843	0.0149471
601.922	0.0148816
602.000	0.0147968
602.078	0.0149997
602.156	0.0148740
602.234	0.0147538
602.312	0.0148684
602.390	0.0149623
602.468	0.0149337
602.547	0.0148060
602.625	0.0148785
602.703	0.0147992
602.781	0.0147891
602.859	0.0148080
602.937	0.0148033
603.015	0.0148353
603.093	0.0149049
603.172	0.0147979
603.250	0.0147855
603.328	0.0147953
603.406	0.0147884
603.484	0.0147996
603.562	0.0148053
603.640	0.0147704
603.718	0.0149050
603.797	0.0148463
603.875	0.0148632
603.953	0.0148158
604.031	0.0148685
604.109	0.0148954
604.187	0.0149561
604.265	0.0149142
604.343	0.0148558
604.422	0.0148788
604.500	0.0146787
604.578	0.0148410
604.656	0.0148351
604.734	0.0149361
604.812	0.0147029
604.890	0.0147943
604.968	0.0147720
605.047	0.0147128
605.125	0.0148008
605.203	0.0148063
605.281	0.0148993
605.359	0.0147727
605.437	0.0148049
605.515	0.0149158
605.593	0.0148888
605.672	0.0148040
605.750	0.0148851
605.828	0.0148222
605.906	0.0148316
605.984	0.0150203
606.062	0.0148825
606.140	0.0147301
606.218	0.0148515
606.297	0.0148337
606.375	0.0147693
606.453	0.0148864
606.531	0.0149469
606.609	0.0147741
606.687	0.0147408
606.765	0.0149940
606.843	0.0149050
606.922	0.0148431
607.000	0.0148213
607.078	0.0149541
607.156	0.0149039
607.234	0.0149038
607.312	0.0148007
607.390	0.0147616
607.468	0.0147241
607.547	0.0148145
607.625	0.0148840
607.703	0.0149157
607.781	0.0148701
607.859	0.0148997
607.937	0.0148562
608.015	0.0147275
608.093	0.0150088
608.172	0.0147725
608.250	0.0148892
608.328	0.0148208
608.406	0.0146410
608.484	0.0147681
608.562	0.0148301
608.640	0.0148962
608.718	0.0148264
608.797	0.0148090
608.875	0.0149230
608.953	0.0147819
609.031	0.0146315
609.109	0.0148548
609.187	0.0148466
609.265	0.0148027
609.343	0.0148864
609.422	0.0148303
609.500	0.0148334
609.578	0.0148596
609.656	0.0148142
609.734	0.0147710
609.812	0.0148132
609.890	0.0148488
609.968	0.0147896
610.047	0.0147903
610.125	0.0148411
610.203	0.0147802
610.281	0.0147466
610.359	0.0148088
610.437	0.0148637
610.515	0.0148666
610.593	0.0147265
610.672	0.0149860
610.750	0.0149580
610.828	0.0148360
610.906	0.0149073
610.984	0.0147858
611.062	0.0148575
611.140	0.0149451
611.218	0.0148434
611.297	0.0148382
611.375	0.0148817
611.453	0.0148331
611.531	0.0150169
611.609	0.0149609
611.687	0.0147987
611.765	0.0148459
611.843	0.0149094
611.922	0.0149143
612.000	0.0148668
612.078	0.0148710
612.156	0.0147273
612.234	0.0148357
612.312	0.0148283
612.390	0.0150496
612.468	0.0148188
612.547	0.0147186
612.625	0.0148283
612.703	0.0149315
612.781	0.0148823
612.859	0.0147554
612.937	0.0146944
613.015	0.0149091
613.093	0.0150206
613.172	0.0148644
613.250	0.0148899
613.328	0.0147812
613.406	0.0148949
613.484	0.0146934
613.562	0.0149452
613.640	0.0148883
613.718	0.0148177
613.797	0.0149732
613.875	0.0148743
613.953	0.0148701
614.031	0.0149140
614.109	0.0149348
614.187	0.0148576
614.265	0.0147444
614.343	0.0148460
614.422	0.0148280
614.500	0.0148093
614.578	0.0148499
614.656	0.0148195
614.734	0.0147784
614.812	0.0148175
614.890	0.0148449
614.968	0.0149185
615.047	0.0147305
615.125	0.0149854
615.203	0.0147758
615.281	0.0147813
615.359	0.0147987
615.437	0.0148991
615.515	0.0147793
615.593	0.0148071
615.672	0.0149007
615.750	0.0148140
615.828	0.0148592
615.906	0.0149385
615.984	0.0150058
616.062	0.0148304
616.140	0.0148318
616.218	0.0148959
616.297	0.0148428
616.375	0.0148363
616.453	0.0147179
616.531	0.0150907
616.609	0.0148422
616.687	0.0148345
616.765	0.0148429
616.843	0.0149549
616.922	0.0148128
617.000	0.0149377
617.078	0.0148981
617.156	0.0148403
617.234	0.0147766
617.312	0.0149059
617.390	0.0148608
617.468	0.0148891
617.547	0.0148569
617.625	0.0148982
617.703	0.0148236
617.781	0.0147567
617.859	0.0147972
617.937	0.0149668
618.015	0.0148563
618.093	0.0149023
618.172	0.0148342
618.250	0.0149881
618.328	0.0148626
618.406	0.0149133
618.484	0.0149379
618.562	0.0149783
618.640	0.0147861
618.718	0.0148441
618.797	0.0147787
618.875	0.0149722
618.953	0.0148323
619.031	0.0148701
619.109	0.0149454
619.187	0.0148183
619.265	0.0147868
619.343	0.0148679
619.422	0.0150523
619.500	0.0149086
619.578	0.0148449
619.656	0.0148246
619.734	0.0148579
619.812	0.0149310
619.890	0.0150266
619.968	0.0149474
620.047	0.0149483
620.125	0.0149063
620.203	0.0148306
620.281	0.0147820
620.359	0.0149633
620.437	0.0149062
620.515	0.0149599
620.593	0.0147247
620.672	0.0147442
620.750	0.0148927
620.828	0.0148690
620.906	0.0148613
620.984	0.0148166
621.062	0.0147845
621.140	0.0148626
621.218	0.0148624
621.297	0.0148536
621.375	0.0148277
621.453	0.0148531
621.531	0.0150059
621.609	0.0149384
621.687	0.0147006
621.765	0.0147556
621.843	0.0148505
621.922	0.0149722
622.000	0.0148866
622.078	0.0149072
622.156	0.0150256
622.234	0.0148143
622.312	0.0147923
622.390	0.0148228
622.468	0.0148518
622.547	0.0148636
622.625	0.0148282
622.703	0.0148754
622.781	0.0148089
622.859	0.0149182
622.937	0.0149074
623.015	0.0147676
623.093	0.0148375
623.172	0.0149065
623.250	0.0147926
623.328	0.0148660
623.406	0.0148983
623.484	0.0147098
623.562	0.0148857
623.640	0.0148317
623.718	0.0148400
623.797	0.0148445
623.875	0.0150260
623.953	0.0147912
624.031	0.0148379
624.109	0.0149277
624.187	0.0147852
624.265	0.0148891
624.343	0.0148151
624.422	0.0148934
624.500	0.0147750
624.578	0.0147819
624.656	0.0149238
624.734	0.0149292
624.812	0.0149963
624.890	0.0148215
624.968	0.0149142
625.047	0.0148626
625.125	0.0148569
625.203	0.0148929
625.281	0.0148935
625.359	0.0147240
625.437	0.0149412
625.515	0.0149606
625.593	0.0148904
625.672	0.0148572
625.750	0.0148158
625.828	0.0148685
625.906	0.0148524
625.984	0.0149301
626.062	0.0146819
626.140	0.0149725
626.218	0.0148262
626.297	0.0147388
626.375	0.0148540
626.453	0.0150063
626.531	0.0149063
626.609	0.0147359
626.687	0.0149168
626.765	0.0148255
626.843	0.0149493
626.922	0.0149340
627.000	0.0147616
627.078	0.0148519
627.156	0.0148677
627.234	0.0149028
627.312	0.0147339
627.390	0.0148400
627.468	0.0149412
627.547	0.0147675
627.625	0.0149416
627.703	0.0148825
627.781	0.0148596
627.859	0.0148840
627.937	0.0148658
628.015	0.0148186
628.093	0.0147857
628.172	0.0148380
628.250	0.0147888
628.328	0.0148682
628.406	0.0148312
628.484	0.0148805
628.562	0.0147639
628.640	0.0150298
628.718	0.0148995
628.797	0.0148400
628.875	0.0149772
628.953	0.0148794
629.031	0.0148028
629.109	0.0149928
629.187	0.0148265
629.265	0.0147855
629.343	0.0148837
629.422	0.0148652
629.500	0.0148630
629.578	0.0149471
629.656	0.0148805
629.734	0.0148148
629.812	0.0148604
629.890	0.0148308
629.968	0.0149782
630.047	0.0149744
630.125	0.0148578
630.203	0.0149158
630.281	0.0149818
630.359	0.0148200
630.437	0.0150187
630.515	0.0148951
630.593	0.0148912
630.672	0.0148402
630.750	0.0147739
630.828	0.0148486
630.906	0.0149169
630.984	0.0148600
631.062	0.0148162
631.140	0.0149709
631.218	0.0149988
631.297	0.0149123
631.375	0.0149186
631.453	0.0148847
631.531	0.0148595
631.609	0.0149280
631.687	0.0148474
631.765	0.0150243
631.843	0.0148843
631.922	0.0148223
632.000	0.0148975
632.078	0.0149261
632.156	0.0149666
632.234	0.0149225
632.312	0.0149213
632.390	0.0149011
632.468	0.0148879
632.547	0.0148615
632.625	0.0148629
632.703	0.0147832
632.781	0.0148580
632.859	0.0148492
632.937	0.0148911
633.015	0.0147412
633.093	0.0147788
633.172	0.0150408
633.250	0.0148598
633.328	0.0148889
633.406	0.0149364
633.484	0.0148840
633.562	0.0148981
633.640	0.0149544
633.718	0.0149008
633.797	0.0150034
633.875	0.0149587
633.953	0.0149265
634.031	0.0148940
634.109	0.0149521
634.187	0.0149326
634.265	0.0147871
634.343	0.0148533
634.422	0.0150101
634.500	0.0148974
634.578	0.0147024
634.656	0.0148962
634.734	0.0148608
634.812	0.0148678
634.890	0.0149950
634.968	0.0148312
635.047	0.0148267
635.125	0.0148997
635.203	0.0147874
635.281	0.0147173
635.359	0.0149622
635.437	0.0150178
635.515	0.0148641
635.593	0.0149460
635.672	0.0148903
635.750	0.0147039
635.828	0.0148345
635.906	0.0147537
635.984	0.0148950
636.062	0.0148854
636.140	0.0148228
636.218	0.0147254
636.297	0.0148334
636.375	0.0149111
636.453	0.0150051
636.531	0.0148078
636.609	0.0146434
636.687	0.0148626
636.765	0.0149506
636.843	0.0148997
636.922	0.0148981
637.000	0.0148238
637.078	0.0150304
637.156	0.0148338
637.234	0.0148053
637.312	0.0147982
637.390	0.0148444
637.468	0.0147730
637.547	0.0149567
637.625	0.0148940
637.703	0.0149657
637.781	0.0148416
637.859	0.0147424
637.937	0.0148674
638.015	0.0147272
638.093	0.0148047
638.172	0.0149053
638.250	0.0147962
638.328	0.0148528
638.406	0.0148818
638.484	0.0149493
638.562	0.0148401
638.640	0.0147529
638.718	0.0148304
638.797	0.0148631
638.875	0.0148731
638.953	0.0148202
639.031	0.0149205
639.109	0.0147999
639.187	0.0150266
639.265	0.0149794
639.343	0.0148206
639.422	0.0147495
639.500	0.0149786
639.578	0.0148689
639.656	0.0148743
639.734	0.0148676
639.812	0.0149152
639.890	0.0149178
639.968	0.0148590
640.047	0.0149319
640.125	0.0149236
640.203	0.0148524
640.281	0.0149834
640.359	0.0148075
640.437	0.0146848
640.515	0.0147284
640.593	0.0148062
640.672	0.0148057
640.750	0.0148976
640.828	0.0146971
640.906	0.0148329
640.984	0.0148677
641.062	0.0147832
641.140	0.0148759
641.218	0.0148742
641.297	0.0149342
641.375	0.0147394
641.453	0.0147480
641.531	0.0147569
641.609	0.0148360
641.687	0.0148245
641.765	0.0148422
641.843	0.0149235
641.922	0.0148178
642.000	0.0148556
642.078	0.0148845
642.156	0.0148406
642.234	0.0148539
642.312	0.0148886
642.390	0.0148866
642.468	0.0148417
642.547	0.0149311
642.625	0.0148878
642.703	0.0150155
642.781	0.0149383
642.859	0.0148016
642.937	0.0149315
643.015	0.0149745
643.093	0.0149191
643.172	0.0149383
643.250	0.0148515
643.328	0.0147945
643.406	0.0148309
643.484	0.0149509
643.562	0.0146832
643.640	0.0148257
643.718	0.0148898
643.797	0.0148699
643.875	0.0148689
643.953	0.0148357
644.031	0.0147961
644.109	0.0147990
644.187	0.0148078
644.265	0.0148213
644.343	0.0148692
644.422	0.0147816
644.500	0.0150305
644.578	0.0151044
644.656	0.0148112
644.734	0.0147044
644.812	0.0147763
644.890	0.0147420
644.968	0.0148066
645.047	0.0148158
645.125	0.0147279
645.203	0.0147065
645.281	0.0149971
645.359	0.0149564
645.437	0.0149373
645.515	0.0147392
645.593	0.0147832
645.672	0.0147888
645.750	0.0148175
645.828	0.0150302
645.906	0.0148138
645.984	0.0148608
646.062	0.0150081
646.140	0.0148853
646.218	0.0148015
646.297	0.0148812
646.375	0.0149159
646.453	0.0148711
646.531	0.0148257
646.609	0.0147858
646.687	0.0149487
646.765	0.0148991
646.843	0.0149046
646.922	0.0148351
647.000	0.0147263
647.078	0.0147836
647.156	0.0149223
647.234	0.0149382
647.312	0.0146984
647.390	0.0149285
647.468	0.0149374
647.547	0.0149109
647.625	0.0147968
647.703	0.0148760
647.781	0.0149416
647.859	0.0147842
647.937	0.0148289
648.015	0.0148698
648.093	0.0148264
648.172	0.0147877
648.250	0.0147559
648.328	0.0150311
648.406	0.0148902
648.484	0.0148909
648.562	0.0150198
648.640	0.0148583
648.718	0.0147972
648.797	0.0148077
648.875	0.0149286
648.953	0.0148740
649.031	0.0149001
649.109	0.0148219
649.187	0.0148185
649.265	0.0149526
649.343	0.0148437
649.422	0.0148778
649.500	0.0150230
649.578	0.0147895
649.656	0.0149390
649.734	0.0148910
649.812	0.0149313
649.890	0.0147422
649.968	0.0148174
650.047	0.0148637
650.125	0.0148600
650.203	0.0149210
650.281	0.0147482
650.359	0.0147330
650.437	0.0148495
650.515	0.0149191
650.593	0.0147916
650.672	0.0149123
650.750	0.0148305
650.828	0.0149010
650.906	0.0149098
650.984	0.0149634
651.062	0.0148184
651.140	0.0149684
651.218	0.0148155
651.297	0.0148282
651.375	0.0149354
651.453	0.0147605
651.531	0.0148469
651.609	0.0147865
651.687	0.0148688
651.765	0.0148293
651.843	0.0149504
651.922	0.0148485
652.000	0.0147466
652.078	0.0146905
652.156	0.0148942
652.234	0.0148940
652.312	0.0149118
652.390	0.0149473
652.468	0.0149531
652.547	0.0148271
652.625	0.0148430
652.703	0.0148386
652.781	0.0147457
652.859	0.0148910
652.937	0.0150029
653.015	0.0147192
653.093	0.0148528
653.172	0.0148938
653.250	0.0148991
653.328	0.0148144
653.406	0.0148787
653.484	0.0149465
653.562	0.0148339
653.640	0.0147846
653.718	0.0147797
653.797	0.0148654
653.875	0.0148195
653.953	0.0148084
654.031	0.0150272
654.109	0.0148191
654.187	0.0148740
654.265	0.0147284
654.343	0.0147375
654.422	0.0149638
654.500	0.0148112
654.578	0.0149577
654.656	0.0147552
654.734	0.0147720
654.812	0.0147821
654.890	0.0148736
654.968	0.0148904
655.047	0.0149325
655.125	0.0147755
655.203	0.0148845
655.281	0.0148136
655.359	0.0148505
655.437	0.0149991
655.515	0.0148000
655.593	0.0148702
655.672	0.0148458
655.750	0.0148498
655.828	0.0148292
655.906	0.0150240
655.984	0.0147494
656.062	0.0147607
656.140	0.0148692
656.218	0.0150237
656.297	0.0148710
656.375	0.0148495
656.453	0.0148267
656.531	0.0149977
656.609	0.0149644
656.687	0.0149451
656.765	0.0149467
656.843	0.0149211
656.922	0.0148764
657.000	0.0150219
657.078	0.0149123
657.156	0.0147897
657.234	0.0149435
657.312	0.0148833
657.390	0.0148988
657.468	0.0149099
657.547	0.0148313
657.625	0.0149281
657.703	0.0148439
657.781	0.0149263
657.859	0.0148656
657.937	0.0150056
658.015	0.0148808
658.093	0.0149395
658.172	0.0149200
658.250	0.0149327
658.328	0.0148431
658.406	0.0149320
658.484	0.0147855
658.562	0.0150824
658.640	0.0149803
658.718	0.0147284
658.797	0.0148943
658.875	0.0149973
658.953	0.0149918
659.031	0.0148734
659.109	0.0149057
659.187	0.0148730
659.265	0.0149120
659.343	0.0149503
659.422	0.0150887
659.500	0.0148261
659.578	0.0149799
659.656	0.0149223
659.734	0.0146768
659.812	0.0149680
659.890	0.0148788
659.968	0.0148297
660.047	0.0149458
660.125	0.0147806
660.203	0.0148977
660.281	0.0149252
660.359	0.0149046
660.437	0.0149522
660.515	0.0149686
660.593	0.0150284
660.672	0.0149575
660.750	0.0149625
660.828	0.0149415
660.906	0.0150159
660.984	0.0148016
661.062	0.0149040
661.140	0.0149430
661.218	0.0151093
661.297	0.0148568
661.375	0.0148992
661.453	0.0148812
661.531	0.0148206
661.609	0.0149538
661.687	0.0148563
661.765	0.0148078
661.843	0.0148245
661.922	0.0149207
662.000	0.0148942
662.078	0.0148139
662.156	0.0149682
662.234	0.0148447
662.312	0.0148552
662.390	0.0148531
662.468	0.0148154
662.547	0.0149983
662.625	0.0149649
662.703	0.0148935
662.781	0.0147308
662.859	0.0148324
662.937	0.0149815
663.015	0.0148243
663.093	0.0148427
663.172	0.0149270
663.250	0.0149619
663.328	0.0148969
663.406	0.0148724
663.484	0.0148695
663.562	0.0148930
663.640	0.0149105
663.718	0.0147651
663.797	0.0147252
663.875	0.0149100
663.953	0.0149306
664.031	0.0148444
664.109	0.0149444
664.187	0.0148229
664.265	0.0148895
664.343	0.0148076
664.422	0.0147757
664.500	0.0148058
664.578	0.0148722
664.656	0.0147659
664.734	0.0147771
664.812	0.0149102
664.890	0.0149405
664.968	0.0149320
665.047	0.0148909
665.125	0.0147911
665.203	0.0148745
665.281	0.0149018
665.359	0.0148983
665.437	0.0148148
665.515	0.0148645
665.593	0.0148861
665.672	0.0148856
665.750	0.0149213
665.828	0.0147318
665.906	0.0148582
665.984	0.0149085
666.062	0.0149407
666.140	0.0149469
666.218	0.0148458
666.297	0.0149738
666.375	0.0148599
666.453	0.0147456
666.531	0.0148474
666.609	0.0148071
666.687	0.0149435
666.765	0.0148752
666.843	0.0148777
666.922	0.0149075
667.000	0.0148785
667.078	0.0148429
667.156	0.0149423
667.234	0.0148237
667.312	0.0148299
667.390	0.0148390
667.468	0.0148742
667.547	0.0147861
667.625	0.0148632
667.703	0.0148154
667.781	0.0147471
667.859	0.0148970
667.937	0.0148928
668.015	0.0148129
668.093	0.0148525
668.172	0.0148096
668.250	0.0147982
668.328	0.0149012
668.406	0.0148537
668.484	0.0149068
668.562	0.0148241
668.640	0.0148647
668.718	0.0149091
668.797	0.0148835
668.875	0.0148064
668.953	0.0149413
669.031	0.0148894
669.109	0.0148664
669.187	0.0148489
669.265	0.0148122
669.343	0.0149192
669.422	0.0148255
669.500	0.0147437
669.578	0.0148790
669.656	0.0148808
669.734	0.0148138
669.812	0.0147358
669.890	0.0147720
669.968	0.0148228
670.047	0.0147971
670.125	0.0149660
670.203	0.0148822
670.281	0.0147498
670.359	0.0148231
670.437	0.0150022
670.515	0.0148457
670.593	0.0146941
670.672	0.0147287
670.750	0.0149961
670.828	0.0148599
670.906	0.0149279
670.984	0.0147306
671.062	0.0148923
671.140	0.0149284
671.218	0.0148582
671.297	0.0148344
671.375	0.0149027
671.453	0.0147823
671.531	0.0148691
671.609	0.0148923
671.687	0.0148862
671.765	0.0148742
671.843	0.0147116
671.922	0.0149221
672.000	0.0148209
672.078	0.0149570
672.156	0.0149399
672.234	0.0149237
672.312	0.0148320
672.390	0.0149700
672.468	0.0148394
672.547	0.0148967
672.625	0.0149725
672.703	0.0148886
672.781	0.0147923
672.859	0.0147134
672.937	0.0148728
673.015	0.0148927
673.093	0.0149235
673.172	0.0147871
673.250	0.0147604
673.328	0.0147665
673.406	0.0148779
673.484	0.0148823
673.562	0.0147563
673.640	0.0149387
673.718	0.0148455
673.797	0.0147919
673.875	0.0149263
673.953	0.0147617
674.031	0.0147408
674.109	0.0148788
674.187	0.0147759
674.265	0.0148438
674.343	0.0148805
674.422	0.0149083
674.500	0.0149146
674.578	0.0149068
674.656	0.0148637
674.734	0.0149520
674.812	0.0148444
674.890	0.0148973
674.968	0.0149088
675.047	0.0148623
675.125	0.0148098
675.203	0.0147669
675.281	0.0147632
675.359	0.0149216
675.437	0.0148214
675.515	0.0146769
675.593	0.0148985
675.672	0.0148659
675.750	0.0147677
675.828	0.0148167
675.906	0.0148583
675.984	0.0149793
676.062	0.0148327
676.140	0.0148828
676.218	0.0148207
676.297	0.0148107
676.375	0.0148151
676.453	0.0148402
676.531	0.0147707
676.609	0.0148356
676.687	0.0148348
676.765	0.0149195
676.843	0.0149036
676.922	0.0148916
677.000	0.0147903
677.078	0.0148705
677.156	0.0148224
677.234	0.0147799
677.312	0.0147574
677.390	0.0148927
677.468	0.0148489
677.547	0.0149653
677.625	0.0146624
677.703	0.0147660
677.781	0.0149685
677.859	0.0148905
677.937	0.0147290
678.015	0.0147005
678.093	0.0148634
678.172	0.0148866
678.250	0.0148924
678.328	0.0148795
678.406	0.0148819
678.484	0.0148687
678.562	0.0149429
678.640	0.0149273
678.718	0.0147257
678.797	0.0148820
678.875	0.0148961
678.953	0.0148496
679.031	0.0147913
679.109	0.0149108
679.187	0.0148430
679.265	0.0148719
679.343	0.0147671
679.422	0.0148014
679.500	0.0148041
679.578	0.0148616
679.656	0.0149499
679.734	0.0148573
679.812	0.0148784
679.890	0.0149194
679.968	0.0149155
680.047	0.0147897
680.125	0.0147463
680.203	0.0149110
680.281	0.0148381
680.359	0.0148614
680.437	0.0148094
680.515	0.0149761
680.593	0.0149860
680.672	0.0148935
680.750	0.0149503
680.828	0.0148719
680.906	0.0148874
680.984	0.0149146
681.062	0.0148186
681.140	0.0148025
681.218	0.0148812
681.297	0.0148079
681.375	0.0149539
681.453	0.0148460
681.531	0.0148989
681.609	0.0148773
681.687	0.0148341
681.765	0.0147458
681.843	0.0149171
681.922	0.0150566
682.000	0.0148063
682.078	0.0148525
682.156	0.0147583
682.234	0.0149553
682.312	0.0149242
682.390	0.0148129
682.468	0.0148895
682.547	0.0149544
682.625	0.0149400
682.703	0.0147883
682.781	0.0148700
682.859	0.0148939
682.937	0.0148637
683.015	0.0148197
683.093	0.0149033
683.172	0.0148710
683.250	0.0149350
683.328	0.0149442
683.406	0.0149482
683.484	0.0148199
683.562	0.0147203
683.640	0.0149093
683.718	0.0146401
683.797	0.0147956
683.875	0.0146935
683.953	0.0146679
684.031	0.0149104
684.109	0.0147730
684.187	0.0147363
684.265	0.0148127
684.343	0.0148225
684.422	0.0148505
684.500	0.0147755
684.578	0.0147923
684.656	0.0150554
684.734	0.0147914
684.812	0.0149456
684.890	0.0150259
684.968	0.0147400
685.047	0.0146947
685.125	0.0147484
685.203	0.0149687
685.281	0.0148719
685.359	0.0148303
685.437	0.0149306
685.515	0.0148707
685.593	0.0149213
685.672	0.0148423
