06/13/2022	14:46:53	Ver.	4.1	UNKNOWN
Optical Delay	599.968395	Delta X		0.078125	Sweeps	1	Scan Rate	0/0
Coordinates	Axis 1	NaN	Axis 2	NaN	Axis 3	NaN	Axis 4	NaN	Axis 5	NaN	Axis 6	0.000000
TX Power	0.000000	RX Power	0.000000

599.968	0.0156804
600.047	0.0157484
600.125	0.0157840
600.203	0.0156441
600.281	0.0156626
600.359	0.0157430
600.437	0.0156841
600.515	0.0156425
600.593	0.0157317
600.672	0.0157493
600.750	0.0158396
600.828	0.0155302
600.906	0.0157476
600.984	0.0156905
601.062	0.0155908
601.140	0.0156969
601.218	0.0156109
601.297	0.0155479
601.375	0.0157449
601.453	0.0157231
601.531	0.0156553
601.609	0.0156561
601.687	0.0157515
601.765	0.0156350
601.843	0.0157449
601.922	0.0158186
602.000	0.0155538
602.078	0.0156819
602.156	0.0157598
602.234	0.0157082
602.312	0.0155296
602.390	0.0157941
602.468	0.0157116
602.547	0.0156631
602.625	0.0157820
602.703	0.0155846
602.781	0.0156347
602.859	0.0157177
602.937	0.0157552
603.015	0.0157447
603.093	0.0156685
603.172	0.0156326
603.250	0.0157283
603.328	0.0157732
603.406	0.0157107
603.484	0.0157049
603.562	0.0157273
603.640	0.0155763
603.718	0.0157147
603.797	0.0155589
603.875	0.0156264
603.953	0.0156957
604.031	0.0156425
604.109	0.0157632
604.187	0.0156516
604.265	0.0155865
604.343	0.0156410
604.422	0.0155865
604.500	0.0157124
604.578	0.0156847
604.656	0.0156942
604.734	0.0156256
604.812	0.0157088
604.890	0.0156867
604.968	0.0158487
605.047	0.0156656
605.125	0.0157539
605.203	0.0156785
605.281	0.0156822
605.359	0.0157333
605.437	0.0157625
605.515	0.0156495
605.593	0.0157819
605.672	0.0158279
605.750	0.0158328
605.828	0.0157393
605.906	0.0156584
605.984	0.0156765
606.062	0.0157461
606.140	0.0157367
606.218	0.0157128
606.297	0.0157484
606.375	0.0157270
606.453	0.0157442
606.531	0.0157892
606.609	0.0158261
606.687	0.0156887
606.765	0.0158303
606.843	0.0157156
606.922	0.0156371
607.000	0.0156852
607.078	0.0156590
607.156	0.0156897
607.234	0.0156192
607.312	0.0155559
607.390	0.0157236
607.468	0.0157521
607.547	0.0156966
607.625	0.0156003
607.703	0.0156974
607.781	0.0155685
607.859	0.0157575
607.937	0.0157171
608.015	0.0157406
608.093	0.0156366
608.172	0.0156320
608.250	0.0156409
608.328	0.0156444
608.406	0.0156505
608.484	0.0157944
608.562	0.0156785
608.640	0.0156193
608.718	0.0156046
608.797	0.0156136
608.875	0.0158675
608.953	0.0157484
609.031	0.0156284
609.109	0.0159302
609.187	0.0155900
609.265	0.0156437
609.343	0.0157005
609.422	0.0157156
609.500	0.0155325
609.578	0.0156845
609.656	0.0156468
609.734	0.0156145
609.812	0.0155908
609.890	0.0157168
609.968	0.0155627
610.047	0.0157036
610.125	0.0156404
610.203	0.0156546
610.281	0.0157648
610.359	0.0155448
610.437	0.0157345
610.515	0.0156349
610.593	0.0156602
610.672	0.0158449
610.750	0.0158614
610.828	0.0157175
610.906	0.0157029
610.984	0.0156322
611.062	0.0157322
611.140	0.0157130
611.218	0.0156664
611.297	0.0156480
611.375	0.0156813
611.453	0.0156584
611.531	0.0157630
611.609	0.0156770
611.687	0.0156265
611.765	0.0157166
611.843	0.0157206
611.922	0.0155130
612.000	0.0156714
612.078	0.0157391
612.156	0.0156952
612.234	0.0156947
612.312	0.0157259
612.390	0.0155566
612.468	0.0156159
612.547	0.0156142
612.625	0.0157384
612.703	0.0158367
612.781	0.0157005
612.859	0.0157072
612.937	0.0157294
613.015	0.0157417
613.093	0.0157420
613.172	0.0156532
613.250	0.0156379
613.328	0.0157082
613.406	0.0155891
613.484	0.0157858
613.562	0.0157643
613.640	0.0156212
613.718	0.0156502
613.797	0.0157245
613.875	0.0156740
613.953	0.0157830
614.031	0.0155959
614.109	0.0155636
614.187	0.0157693
614.265	0.0156950
614.343	0.0157595
614.422	0.0155451
614.500	0.0156059
614.578	0.0158136
614.656	0.0156474
614.734	0.0156808
614.812	0.0158057
614.890	0.0156685
614.968	0.0156137
615.047	0.0158326
615.125	0.0156461
615.203	0.0155477
615.281	0.0157075
615.359	0.0155375
615.437	0.0156716
615.515	0.0156101
615.593	0.0157755
615.672	0.0156324
615.750	0.0156112
615.828	0.0156950
615.906	0.0156217
615.984	0.0156178
616.062	0.0157604
616.140	0.0157687
616.218	0.0156951
616.297	0.0155853
616.375	0.0156140
616.453	0.0157885
616.531	0.0157263
616.609	0.0157323
616.687	0.0156598
616.765	0.0156863
616.843	0.0155547
616.922	0.0157332
617.000	0.0156850
617.078	0.0156391
617.156	0.0158032
617.234	0.0157632
617.312	0.0156268
617.390	0.0157872
617.468	0.0156536
617.547	0.0157177
617.625	0.0156488
617.703	0.0156133
617.781	0.0156864
617.859	0.0156909
617.937	0.0155257
618.015	0.0155372
618.093	0.0157019
618.172	0.0156920
618.250	0.0157829
618.328	0.0156165
618.406	0.0155923
618.484	0.0157291
618.562	0.0156308
618.640	0.0157437
618.718	0.0158009
618.797	0.0156071
618.875	0.0157590
618.953	0.0157391
619.031	0.0157658
619.109	0.0156069
619.187	0.0157581
619.265	0.0157091
619.343	0.0156738
619.422	0.0155980
619.500	0.0157569
619.578	0.0157197
619.656	0.0156174
619.734	0.0157036
619.812	0.0157653
619.890	0.0156634
619.968	0.0154873
620.047	0.0156623
620.125	0.0155708
620.203	0.0158553
620.281	0.0156757
620.359	0.0157582
620.437	0.0156802
620.515	0.0157450
620.593	0.0156605
620.672	0.0156535
620.750	0.0157420
620.828	0.0157202
620.906	0.0156458
620.984	0.0156734
621.062	0.0157282
621.140	0.0156232
621.218	0.0156189
621.297	0.0157120
621.375	0.0156685
621.453	0.0155432
621.531	0.0156094
621.609	0.0157020
621.687	0.0156154
621.765	0.0156173
621.843	0.0156793
621.922	0.0156254
622.000	0.0154900
622.078	0.0156487
622.156	0.0155611
622.234	0.0158315
622.312	0.0158006
622.390	0.0156591
622.468	0.0155888
622.547	0.0155677
622.625	0.0156193
622.703	0.0156264
622.781	0.0154436
622.859	0.0155510
622.937	0.0157322
623.015	0.0156791
623.093	0.0156034
623.172	0.0156075
623.250	0.0155822
623.328	0.0156778
623.406	0.0156732
623.484	0.0159003
623.562	0.0157021
623.640	0.0155420
623.718	0.0156831
623.797	0.0156592
623.875	0.0156024
623.953	0.0156568
624.031	0.0156609
624.109	0.0154731
624.187	0.0155654
624.265	0.0156827
624.343	0.0155728
624.422	0.0156628
624.500	0.0157862
624.578	0.0156776
624.656	0.0156397
624.734	0.0154350
624.812	0.0154767
624.890	0.0156061
624.968	0.0156940
625.047	0.0157497
625.125	0.0157275
625.203	0.0157772
625.281	0.0156016
625.359	0.0156863
625.437	0.0156789
625.515	0.0157849
625.593	0.0157330
625.672	0.0156895
625.750	0.0156335
625.828	0.0156134
625.906	0.0156234
625.984	0.0156043
626.062	0.0156619
626.140	0.0156856
626.218	0.0156851
626.297	0.0156953
626.375	0.0157321
626.453	0.0157518
626.531	0.0156596
626.609	0.0157005
626.687	0.0156514
626.765	0.0157008
626.843	0.0157481
626.922	0.0157204
627.000	0.0156780
627.078	0.0157739
627.156	0.0157474
627.234	0.0155190
627.312	0.0159448
627.390	0.0156850
627.468	0.0157521
627.547	0.0156742
627.625	0.0157212
627.703	0.0155768
627.781	0.0156236
627.859	0.0157225
627.937	0.0157442
628.015	0.0156276
628.093	0.0156745
628.172	0.0157042
628.250	0.0156917
628.328	0.0155090
628.406	0.0156088
628.484	0.0157657
628.562	0.0157281
628.640	0.0156904
628.718	0.0157299
628.797	0.0156534
628.875	0.0156036
628.953	0.0156593
629.031	0.0156195
629.109	0.0157430
629.187	0.0157335
629.265	0.0156367
629.343	0.0157692
629.422	0.0157466
629.500	0.0155502
629.578	0.0156274
629.656	0.0155246
629.734	0.0155833
629.812	0.0155914
629.890	0.0156665
629.968	0.0156956
630.047	0.0157394
630.125	0.0156674
630.203	0.0157722
630.281	0.0156470
630.359	0.0156574
630.437	0.0157139
630.515	0.0158096
630.593	0.0156585
630.672	0.0157619
630.750	0.0157431
630.828	0.0156044
630.906	0.0156306
630.984	0.0157764
631.062	0.0157018
631.140	0.0156869
631.218	0.0157318
631.297	0.0155729
631.375	0.0155782
631.453	0.0156805
631.531	0.0156511
631.609	0.0157217
631.687	0.0156309
631.765	0.0156083
631.843	0.0157254
631.922	0.0155261
632.000	0.0157632
632.078	0.0155418
632.156	0.0156769
632.234	0.0157366
632.312	0.0157145
632.390	0.0157079
632.468	0.0156935
632.547	0.0156053
632.625	0.0157001
632.703	0.0156284
632.781	0.0156241
632.859	0.0156666
632.937	0.0156010
633.015	0.0156999
633.093	0.0157871
633.172	0.0157139
633.250	0.0155679
633.328	0.0156837
633.406	0.0156140
633.484	0.0156505
633.562	0.0156375
633.640	0.0156940
633.718	0.0157721
633.797	0.0156955
633.875	0.0157451
633.953	0.0155332
634.031	0.0156024
634.109	0.0157011
634.187	0.0156423
634.265	0.0156177
634.343	0.0156138
634.422	0.0155453
634.500	0.0157229
634.578	0.0157050
634.656	0.0155996
634.734	0.0155032
634.812	0.0156715
634.890	0.0156641
634.968	0.0157253
635.047	0.0156451
635.125	0.0155672
635.203	0.0155950
635.281	0.0157042
635.359	0.0155241
635.437	0.0156506
635.515	0.0156707
635.593	0.0156625
635.672	0.0156229
635.750	0.0155981
635.828	0.0155959
635.906	0.0155562
635.984	0.0156563
636.062	0.0156509
636.140	0.0156203
636.218	0.0156554
636.297	0.0157032
636.375	0.0157424
636.453	0.0155508
636.531	0.0156078
636.609	0.0156590
636.687	0.0155774
636.765	0.0158714
636.843	0.0156117
636.922	0.0156553
637.000	0.0155993
637.078	0.0157481
637.156	0.0157288
637.234	0.0157362
637.312	0.0156678
637.390	0.0156210
637.468	0.0156500
637.547	0.0157234
637.625	0.0156685
637.703	0.0156382
637.781	0.0156255
637.859	0.0155532
637.937	0.0156446
638.015	0.0157033
638.093	0.0156364
638.172	0.0155833
638.250	0.0156040
638.328	0.0157078
638.406	0.0156023
638.484	0.0156153
638.562	0.0155479
638.640	0.0157187
638.718	0.0156635
638.797	0.0157069
638.875	0.0155881
638.953	0.0156193
639.031	0.0156758
639.109	0.0155219
639.187	0.0154708
639.265	0.0158358
639.343	0.0157359
639.422	0.0155928
639.500	0.0155212
639.578	0.0156086
639.656	0.0156309
639.734	0.0156927
639.812	0.0156387
639.890	0.0155239
639.968	0.0156445
640.047	0.0156502
640.125	0.0155045
640.203	0.0156387
640.281	0.0156628
640.359	0.0156891
640.437	0.0156406
640.515	0.0156876
640.593	0.0156052
640.672	0.0157475
640.750	0.0157040
640.828	0.0156166
640.906	0.0155889
640.984	0.0156482
641.062	0.0157005
641.140	0.0156985
641.218	0.0157069
641.297	0.0157668
641.375	0.0156847
641.453	0.0156516
641.531	0.0156003
641.609	0.0157055
641.687	0.0156099
641.765	0.0155837
641.843	0.0157116
641.922	0.0156956
642.000	0.0155275
642.078	0.0156441
642.156	0.0157415
642.234	0.0156808
642.312	0.0156353
642.390	0.0157398
642.468	0.0157050
642.547	0.0156284
642.625	0.0157710
642.703	0.0156509
642.781	0.0156995
642.859	0.0157935
642.937	0.0157130
643.015	0.0157092
643.093	0.0155250
643.172	0.0154864
643.250	0.0157552
643.328	0.0157859
643.406	0.0157283
643.484	0.0157416
643.562	0.0155461
643.640	0.0156379
643.718	0.0157971
643.797	0.0157625
643.875	0.0155579
643.953	0.0156293
644.031	0.0157253
644.109	0.0156898
644.187	0.0156205
644.265	0.0156979
644.343	0.0156376
644.422	0.0156494
644.500	0.0157446
644.578	0.0156493
644.656	0.0158319
644.734	0.0157238
644.812	0.0156393
644.890	0.0156401
644.968	0.0157174
645.047	0.0157565
645.125	0.0155727
645.203	0.0156641
645.281	0.0157603
645.359	0.0157223
645.437	0.0157868
645.515	0.0157796
645.593	0.0156533
645.672	0.0157467
645.750	0.0156429
645.828	0.0158168
645.906	0.0157027
645.984	0.0156949
646.062	0.0155874
646.140	0.0157541
646.218	0.0157774
646.297	0.0157178
646.375	0.0157236
646.453	0.0157658
646.531	0.0156401
646.609	0.0155519
646.687	0.0156499
646.765	0.0157394
646.843	0.0157569
646.922	0.0156390
647.000	0.0156921
647.078	0.0157126
647.156	0.0158163
647.234	0.0155075
647.312	0.0156305
647.390	0.0157449
647.468	0.0156778
647.547	0.0156653
647.625	0.0156493
647.703	0.0157976
647.781	0.0157315
647.859	0.0157896
647.937	0.0156140
648.015	0.0156453
648.093	0.0156144
648.172	0.0157691
648.250	0.0156602
648.328	0.0157781
648.406	0.0157050
648.484	0.0156860
648.562	0.0155928
648.640	0.0155216
648.718	0.0156861
648.797	0.0156406
648.875	0.0157878
648.953	0.0157222
649.031	0.0157082
649.109	0.0156235
649.187	0.0157136
649.265	0.0156993
649.343	0.0155497
649.422	0.0158309
649.500	0.0156544
649.578	0.0156030
649.656	0.0155309
649.734	0.0156390
649.812	0.0156968
649.890	0.0157329
649.968	0.0155044
650.047	0.0156609
650.125	0.0157105
650.203	0.0156220
650.281	0.0157842
650.359	0.0156816
650.437	0.0156834
650.515	0.0156312
650.593	0.0156375
650.672	0.0157098
650.750	0.0156773
650.828	0.0156358
650.906	0.0156522
650.984	0.0156028
651.062	0.0156160
651.140	0.0155391
651.218	0.0158060
651.297	0.0155178
651.375	0.0155063
651.453	0.0156452
651.531	0.0157764
651.609	0.0157431
651.687	0.0157259
651.765	0.0156336
651.843	0.0156561
651.922	0.0156426
652.000	0.0156132
652.078	0.0156005
652.156	0.0157227
652.234	0.0156508
652.312	0.0156816
652.390	0.0155739
652.468	0.0155614
652.547	0.0156658
652.625	0.0156422
652.703	0.0155887
652.781	0.0156244
652.859	0.0155239
652.937	0.0156912
653.015	0.0156563
653.093	0.0157558
653.172	0.0156828
653.250	0.0155883
653.328	0.0156636
653.406	0.0156895
653.484	0.0156915
653.562	0.0155508
653.640	0.0157367
653.718	0.0155827
653.797	0.0156429
653.875	0.0156207
653.953	0.0156877
654.031	0.0155955
654.109	0.0156754
654.187	0.0156244
654.265	0.0157982
654.343	0.0155964
654.422	0.0155817
654.500	0.0156932
654.578	0.0156938
654.656	0.0157150
654.734	0.0157031
654.812	0.0156646
654.890	0.0156282
654.968	0.0155770
655.047	0.0156831
655.125	0.0156779
655.203	0.0157565
655.281	0.0156514
655.359	0.0157022
655.437	0.0156560
655.515	0.0156905
655.593	0.0156524
655.672	0.0157223
655.750	0.0156407
655.828	0.0157993
655.906	0.0157267
655.984	0.0156733
656.062	0.0154787
656.140	0.0155988
656.218	0.0156982
656.297	0.0157378
656.375	0.0157270
656.453	0.0155313
656.531	0.0156857
656.609	0.0156722
656.687	0.0156829
656.765	0.0155421
656.843	0.0156924
656.922	0.0156632
657.000	0.0156423
657.078	0.0157062
657.156	0.0156569
657.234	0.0156673
657.312	0.0155507
657.390	0.0155273
657.468	0.0157032
657.547	0.0157018
657.625	0.0156431
657.703	0.0156644
657.781	0.0156648
657.859	0.0155857
657.937	0.0157256
658.015	0.0157305
658.093	0.0155653
658.172	0.0156612
658.250	0.0156253
658.328	0.0156527
658.406	0.0157120
658.484	0.0157610
658.562	0.0156620
658.640	0.0156224
658.718	0.0157050
658.797	0.0155582
658.875	0.0157091
658.953	0.0157244
659.031	0.0156817
659.109	0.0156133
659.187	0.0155475
659.265	0.0156017
659.343	0.0157062
659.422	0.0158575
659.500	0.0156843
659.578	0.0156729
659.656	0.0157827
659.734	0.0156379
659.812	0.0157658
659.890	0.0156991
659.968	0.0155311
660.047	0.0156874
660.125	0.0157023
660.203	0.0157459
660.281	0.0157336
660.359	0.0159136
660.437	0.0156660
660.515	0.0156610
660.593	0.0155967
660.672	0.0155796
660.750	0.0156182
660.828	0.0157747
660.906	0.0157442
660.984	0.0157447
661.062	0.0156831
661.140	0.0156163
661.218	0.0157564
661.297	0.0158205
661.375	0.0157457
661.453	0.0157149
661.531	0.0155862
661.609	0.0155987
661.687	0.0156910
661.765	0.0156658
661.843	0.0155682
661.922	0.0157547
662.000	0.0157442
662.078	0.0156916
662.156	0.0157742
662.234	0.0156540
662.312	0.0156337
662.390	0.0156350
662.468	0.0156441
662.547	0.0156470
662.625	0.0156921
662.703	0.0157139
662.781	0.0155785
662.859	0.0157043
662.937	0.0157102
663.015	0.0156359
663.093	0.0156698
663.172	0.0158527
663.250	0.0156652
663.328	0.0155785
663.406	0.0155431
663.484	0.0157581
663.562	0.0157016
663.640	0.0155312
663.718	0.0156934
663.797	0.0158197
663.875	0.0156308
663.953	0.0156227
664.031	0.0156310
664.109	0.0156760
664.187	0.0157962
664.265	0.0155737
664.343	0.0157607
664.422	0.0158537
664.500	0.0156620
664.578	0.0157461
664.656	0.0156470
664.734	0.0156547
664.812	0.0156023
664.890	0.0157617
664.968	0.0157477
665.047	0.0156686
665.125	0.0156812
665.203	0.0157128
665.281	0.0157119
665.359	0.0157150
665.437	0.0157030
665.515	0.0158496
665.593	0.0157995
665.672	0.0156364
665.750	0.0156861
665.828	0.0157752
665.906	0.0157027
665.984	0.0157097
666.062	0.0157604
666.140	0.0157494
666.218	0.0158044
666.297	0.0157291
666.375	0.0157562
666.453	0.0157709
666.531	0.0158855
666.609	0.0157475
666.687	0.0158630
666.765	0.0157156
666.843	0.0157981
666.922	0.0158247
667.000	0.0157554
667.078	0.0157577
667.156	0.0157048
667.234	0.0158057
667.312	0.0157345
667.390	0.0159000
667.468	0.0157304
667.547	0.0155597
667.625	0.0157855
667.703	0.0156097
667.781	0.0157005
667.859	0.0157571
667.937	0.0156757
668.015	0.0157864
668.093	0.0155370
668.172	0.0158338
668.250	0.0157343
668.328	0.0157074
668.406	0.0156728
668.484	0.0157640
668.562	0.0157096
668.640	0.0157027
668.718	0.0156520
668.797	0.0156936
668.875	0.0157763
668.953	0.0158810
669.031	0.0155867
669.109	0.0156908
669.187	0.0156929
669.265	0.0156849
669.343	0.0156978
669.422	0.0156203
669.500	0.0157446
669.578	0.0157444
669.656	0.0156804
669.734	0.0156548
669.812	0.0157738
669.890	0.0155337
669.968	0.0156385
670.047	0.0157211
670.125	0.0156022
670.203	0.0156474
670.281	0.0158533
670.359	0.0156384
670.437	0.0156740
670.515	0.0156427
670.593	0.0157205
670.672	0.0156205
670.750	0.0156168
670.828	0.0156136
670.906	0.0156526
670.984	0.0156438
671.062	0.0156377
671.140	0.0155145
671.218	0.0155215
671.297	0.0156433
671.375	0.0155463
671.453	0.0155128
671.531	0.0154583
671.609	0.0156008
671.687	0.0156087
671.765	0.0155855
671.843	0.0157052
671.922	0.0155990
672.000	0.0156523
672.078	0.0155949
672.156	0.0154791
672.234	0.0156934
672.312	0.0156821
672.390	0.0156730
672.468	0.0155795
672.547	0.0154240
672.625	0.0156616
672.703	0.0154121
672.781	0.0153870
672.859	0.0156561
672.937	0.0155839
673.015	0.0155715
673.093	0.0155455
673.172	0.0155372
673.250	0.0156503
673.328	0.0156960
673.406	0.0155537
673.484	0.0154740
673.562	0.0155466
673.640	0.0154533
673.718	0.0155734
673.797	0.0156673
673.875	0.0155380
673.953	0.0154436
674.031	0.0155249
674.109	0.0156960
674.187	0.0155467
674.265	0.0155122
674.343	0.0155511
674.422	0.0155830
674.500	0.0157151
674.578	0.0155962
674.656	0.0155955
674.734	0.0156759
674.812	0.0155518
674.890	0.0155923
674.968	0.0156139
675.047	0.0154869
675.125	0.0155489
675.203	0.0155043
675.281	0.0157340
675.359	0.0155595
675.437	0.0155247
675.515	0.0156563
675.593	0.0156820
675.672	0.0156740
675.750	0.0156123
675.828	0.0154678
675.906	0.0155003
675.984	0.0155840
676.062	0.0156042
676.140	0.0155937
676.218	0.0157753
676.297	0.0155671
676.375	0.0156006
676.453	0.0155128
676.531	0.0155639
676.609	0.0156129
676.687	0.0156174
676.765	0.0155637
676.843	0.0156187
676.922	0.0156369
677.000	0.0156747
677.078	0.0155540
677.156	0.0156501
677.234	0.0156610
677.312	0.0157223
677.390	0.0156599
677.468	0.0157767
677.547	0.0156297
677.625	0.0157284
677.703	0.0156493
677.781	0.0157036
677.859	0.0157114
677.937	0.0155170
678.015	0.0157428
678.093	0.0157487
678.172	0.0156451
678.250	0.0155675
678.328	0.0155304
678.406	0.0157578
678.484	0.0155580
678.562	0.0155664
678.640	0.0157489
678.718	0.0157093
678.797	0.0156477
678.875	0.0155618
678.953	0.0155850
679.031	0.0155950
679.109	0.0156751
679.187	0.0157069
679.265	0.0154857
679.343	0.0157535
679.422	0.0156689
679.500	0.0156345
679.578	0.0156786
679.656	0.0156870
679.734	0.0157233
679.812	0.0156303
679.890	0.0157255
679.968	0.0155852
680.047	0.0157038
680.125	0.0155708
680.203	0.0156793
680.281	0.0157130
680.359	0.0155685
680.437	0.0156142
680.515	0.0156206
680.593	0.0156876
680.672	0.0156135
680.750	0.0157171
680.828	0.0156722
680.906	0.0156563
680.984	0.0157540
681.062	0.0156282
681.140	0.0157918
681.218	0.0156132
681.297	0.0157208
681.375	0.0158160
681.453	0.0157282
681.531	0.0156593
681.609	0.0157658
681.687	0.0156718
681.765	0.0158005
681.843	0.0157095
681.922	0.0157272
682.000	0.0158720
682.078	0.0157643
682.156	0.0157182
682.234	0.0159186
682.312	0.0156720
682.390	0.0157718
682.468	0.0157156
682.547	0.0157108
682.625	0.0157908
682.703	0.0158968
682.781	0.0158116
682.859	0.0157101
682.937	0.0157442
683.015	0.0158320
683.093	0.0157364
683.172	0.0156982
683.250	0.0157526
683.328	0.0157356
683.406	0.0158474
683.484	0.0158759
683.562	0.0157793
683.640	0.0156995
683.718	0.0158068
683.797	0.0157700
683.875	0.0157418
683.953	0.0157368
684.031	0.0157269
684.109	0.0158227
684.187	0.0156417
684.265	0.0158450
684.343	0.0157661
684.422	0.0157815
684.500	0.0158682
684.578	0.0159242
684.656	0.0158721
684.734	0.0156980
684.812	0.0158012
684.890	0.0157900
684.968	0.0157462
685.047	0.0157487
685.125	0.0157133
685.203	0.0158954
685.281	0.0158080
685.359	0.0157490
685.437	0.0157547
685.515	0.0158227
685.593	0.0157046
685.672	0.0157640
