06/13/2022	14:29:37	Ver.	4.1	UNKNOWN
Optical Delay	599.968395	Delta X		0.078125	Sweeps	1	Scan Rate	0/0
Coordinates	Axis 1	NaN	Axis 2	NaN	Axis 3	NaN	Axis 4	NaN	Axis 5	NaN	Axis 6	0.000000
TX Power	0.000000	RX Power	0.000000

599.968	0.0164827
600.047	0.0165679
600.125	0.0165974
600.203	0.0163792
600.281	0.0165639
600.359	0.0164154
600.437	0.0164593
600.515	0.0165797
600.593	0.0164837
600.672	0.0165051
600.750	0.0165736
600.828	0.0164569
600.906	0.0165067
600.984	0.0165527
601.062	0.0163985
601.140	0.0162747
601.218	0.0165608
601.297	0.0165167
601.375	0.0163476
601.453	0.0163973
601.531	0.0165427
601.609	0.0164370
601.687	0.0163994
601.765	0.0164612
601.843	0.0163999
601.922	0.0165002
602.000	0.0165914
602.078	0.0162885
602.156	0.0163604
602.234	0.0164121
602.312	0.0165538
602.390	0.0166924
602.468	0.0163638
602.547	0.0163777
602.625	0.0163715
602.703	0.0165221
602.781	0.0164600
602.859	0.0163553
602.937	0.0163891
603.015	0.0165318
603.093	0.0163964
603.172	0.0164339
603.250	0.0164742
603.328	0.0164326
603.406	0.0164561
603.484	0.0165178
603.562	0.0163763
603.640	0.0164201
603.718	0.0164824
603.797	0.0164703
603.875	0.0165045
603.953	0.0165839
604.031	0.0165449
604.109	0.0164409
604.187	0.0165613
604.265	0.0164372
604.343	0.0165427
604.422	0.0165546
604.500	0.0164446
604.578	0.0164653
604.656	0.0165085
604.734	0.0166213
604.812	0.0165869
604.890	0.0164487
604.968	0.0164072
605.047	0.0164824
605.125	0.0164831
605.203	0.0164684
605.281	0.0165708
605.359	0.0165060
605.437	0.0164352
605.515	0.0164581
605.593	0.0165648
605.672	0.0164146
605.750	0.0166125
605.828	0.0165646
605.906	0.0163467
605.984	0.0164112
606.062	0.0165225
606.140	0.0164249
606.218	0.0165748
606.297	0.0163959
606.375	0.0164341
606.453	0.0164122
606.531	0.0165495
606.609	0.0165483
606.687	0.0163873
606.765	0.0163521
606.843	0.0165150
606.922	0.0164397
607.000	0.0164138
607.078	0.0165036
607.156	0.0164567
607.234	0.0164339
607.312	0.0165020
607.390	0.0164203
607.468	0.0164986
607.547	0.0164937
607.625	0.0165408
607.703	0.0165582
607.781	0.0165027
607.859	0.0164995
607.937	0.0164513
608.015	0.0164355
608.093	0.0164660
608.172	0.0164408
608.250	0.0164737
608.328	0.0165768
608.406	0.0165868
608.484	0.0166162
608.562	0.0163931
608.640	0.0165328
608.718	0.0164296
608.797	0.0164312
608.875	0.0165391
608.953	0.0164941
609.031	0.0164668
609.109	0.0164645
609.187	0.0164133
609.265	0.0165375
609.343	0.0166089
609.422	0.0164761
609.500	0.0164102
609.578	0.0163914
609.656	0.0165160
609.734	0.0164503
609.812	0.0165092
609.890	0.0165060
609.968	0.0165793
610.047	0.0164927
610.125	0.0163715
610.203	0.0165347
610.281	0.0165928
610.359	0.0163593
610.437	0.0164801
610.515	0.0165663
610.593	0.0164593
610.672	0.0164279
610.750	0.0165565
610.828	0.0164954
610.906	0.0166013
610.984	0.0166186
611.062	0.0164357
611.140	0.0165021
611.218	0.0164478
611.297	0.0164192
611.375	0.0165390
611.453	0.0165508
611.531	0.0164858
611.609	0.0165054
611.687	0.0164666
611.765	0.0164445
611.843	0.0166261
611.922	0.0165047
612.000	0.0165267
612.078	0.0164778
612.156	0.0164684
612.234	0.0164571
612.312	0.0165659
612.390	0.0164605
612.468	0.0165532
612.547	0.0165428
612.625	0.0165458
612.703	0.0164679
612.781	0.0165733
612.859	0.0165305
612.937	0.0165630
613.015	0.0165566
613.093	0.0163782
613.172	0.0164931
613.250	0.0165263
613.328	0.0166296
613.406	0.0165037
613.484	0.0165123
613.562	0.0164938
613.640	0.0164486
613.718	0.0163839
613.797	0.0165941
613.875	0.0165476
613.953	0.0164592
614.031	0.0162941
614.109	0.0163978
614.187	0.0164996
614.265	0.0164557
614.343	0.0165430
614.422	0.0163965
614.500	0.0165359
614.578	0.0164043
614.656	0.0165206
614.734	0.0165967
614.812	0.0165557
614.890	0.0163795
614.968	0.0162622
615.047	0.0164585
615.125	0.0165113
615.203	0.0164612
615.281	0.0165134
615.359	0.0164315
615.437	0.0165205
615.515	0.0163795
615.593	0.0164658
615.672	0.0165573
615.750	0.0164474
615.828	0.0166096
615.906	0.0165200
615.984	0.0163764
616.062	0.0165102
616.140	0.0165364
616.218	0.0165260
616.297	0.0165519
616.375	0.0164520
616.453	0.0164078
616.531	0.0164836
616.609	0.0165064
616.687	0.0164503
616.765	0.0165181
616.843	0.0165584
616.922	0.0165575
617.000	0.0165495
617.078	0.0165028
617.156	0.0165107
617.234	0.0165970
617.312	0.0164980
617.390	0.0164921
617.468	0.0163706
617.547	0.0164647
617.625	0.0164952
617.703	0.0164477
617.781	0.0164375
617.859	0.0165467
617.937	0.0165623
618.015	0.0164244
618.093	0.0164046
618.172	0.0164610
618.250	0.0165265
618.328	0.0164144
618.406	0.0164821
618.484	0.0164588
618.562	0.0164328
618.640	0.0166220
618.718	0.0164973
618.797	0.0164051
618.875	0.0164691
618.953	0.0165046
619.031	0.0165150
619.109	0.0163409
619.187	0.0165790
619.265	0.0164764
619.343	0.0166183
619.422	0.0165419
619.500	0.0164776
619.578	0.0165084
619.656	0.0164308
619.734	0.0163969
619.812	0.0165308
619.890	0.0164411
619.968	0.0164079
620.047	0.0165709
620.125	0.0165333
620.203	0.0164001
620.281	0.0164965
620.359	0.0165425
620.437	0.0165163
620.515	0.0165749
620.593	0.0165173
620.672	0.0163971
620.750	0.0165907
620.828	0.0165067
620.906	0.0162762
620.984	0.0165277
621.062	0.0165389
621.140	0.0164284
621.218	0.0163203
621.297	0.0164164
621.375	0.0165115
621.453	0.0164994
621.531	0.0163087
621.609	0.0163940
621.687	0.0164129
621.765	0.0164920
621.843	0.0164324
621.922	0.0164430
622.000	0.0165431
622.078	0.0164031
622.156	0.0164024
622.234	0.0162653
622.312	0.0165511
622.390	0.0164632
622.468	0.0163466
622.547	0.0164132
622.625	0.0165366
622.703	0.0164277
622.781	0.0165860
622.859	0.0165005
622.937	0.0163470
623.015	0.0165239
623.093	0.0165454
623.172	0.0164925
623.250	0.0164629
623.328	0.0163975
623.406	0.0165109
623.484	0.0166062
623.562	0.0164871
623.640	0.0164649
623.718	0.0164632
623.797	0.0163819
623.875	0.0163637
623.953	0.0164664
624.031	0.0164162
624.109	0.0164647
624.187	0.0164220
624.265	0.0164891
624.343	0.0165271
624.422	0.0165164
624.500	0.0164310
624.578	0.0164799
624.656	0.0165232
624.734	0.0164777
624.812	0.0164951
624.890	0.0165673
624.968	0.0166285
625.047	0.0164066
625.125	0.0163570
625.203	0.0163723
625.281	0.0165109
625.359	0.0164227
625.437	0.0162536
625.515	0.0165955
625.593	0.0165231
625.672	0.0163131
625.750	0.0165109
625.828	0.0164888
625.906	0.0163654
625.984	0.0164959
626.062	0.0165213
626.140	0.0164784
626.218	0.0165967
626.297	0.0164057
626.375	0.0163940
626.453	0.0166075
626.531	0.0164606
626.609	0.0165543
626.687	0.0163945
626.765	0.0165032
626.843	0.0165081
626.922	0.0164651
627.000	0.0166054
627.078	0.0165485
627.156	0.0164610
627.234	0.0164500
627.312	0.0165350
627.390	0.0165092
627.468	0.0164985
627.547	0.0164194
627.625	0.0164850
627.703	0.0164202
627.781	0.0163644
627.859	0.0165017
627.937	0.0164173
628.015	0.0164015
628.093	0.0165398
628.172	0.0164841
628.250	0.0164060
628.328	0.0163591
628.406	0.0164137
628.484	0.0163997
628.562	0.0165930
628.640	0.0165299
628.718	0.0164339
628.797	0.0165189
628.875	0.0165615
628.953	0.0165114
629.031	0.0165597
629.109	0.0165360
629.187	0.0165749
629.265	0.0163634
629.343	0.0165188
629.422	0.0163235
629.500	0.0164374
629.578	0.0165071
629.656	0.0164254
629.734	0.0164001
629.812	0.0164687
629.890	0.0164278
629.968	0.0165214
630.047	0.0165661
630.125	0.0164713
630.203	0.0164114
630.281	0.0164916
630.359	0.0165066
630.437	0.0165242
630.515	0.0165721
630.593	0.0162907
630.672	0.0166176
630.750	0.0163606
630.828	0.0165182
630.906	0.0163689
630.984	0.0164863
631.062	0.0164223
631.140	0.0164305
631.218	0.0163915
631.297	0.0163850
631.375	0.0166221
631.453	0.0165588
631.531	0.0164526
631.609	0.0164928
631.687	0.0165035
631.765	0.0165072
631.843	0.0165413
631.922	0.0164111
632.000	0.0165681
632.078	0.0164870
632.156	0.0165189
632.234	0.0165752
632.312	0.0163853
632.390	0.0164893
632.468	0.0165261
632.547	0.0164974
632.625	0.0166437
632.703	0.0164589
632.781	0.0164616
632.859	0.0165385
632.937	0.0165531
633.015	0.0163410
633.093	0.0164632
633.172	0.0164898
633.250	0.0164984
633.328	0.0166167
633.406	0.0165101
633.484	0.0164738
633.562	0.0165295
633.640	0.0165488
633.718	0.0165257
633.797	0.0164016
633.875	0.0164628
633.953	0.0163650
634.031	0.0165198
634.109	0.0165307
634.187	0.0164238
634.265	0.0165569
634.343	0.0164540
634.422	0.0165656
634.500	0.0166088
634.578	0.0165787
634.656	0.0164471
634.734	0.0164545
634.812	0.0165427
634.890	0.0164174
634.968	0.0164716
635.047	0.0165778
635.125	0.0164116
635.203	0.0164286
635.281	0.0165160
635.359	0.0166017
635.437	0.0164805
635.515	0.0164516
635.593	0.0165092
635.672	0.0165886
635.750	0.0164138
635.828	0.0165297
635.906	0.0164861
635.984	0.0165207
636.062	0.0164986
636.140	0.0164404
636.218	0.0164766
636.297	0.0165427
636.375	0.0165877
636.453	0.0165662
636.531	0.0165768
636.609	0.0165058
636.687	0.0164600
636.765	0.0164371
636.843	0.0166294
636.922	0.0165382
637.000	0.0166232
637.078	0.0165409
637.156	0.0164109
637.234	0.0164435
637.312	0.0164445
637.390	0.0164199
637.468	0.0165960
637.547	0.0166071
637.625	0.0164654
637.703	0.0163482
637.781	0.0164874
637.859	0.0164364
637.937	0.0164976
638.015	0.0164466
638.093	0.0165069
638.172	0.0164672
638.250	0.0164915
638.328	0.0164039
638.406	0.0165628
638.484	0.0164902
638.562	0.0165964
638.640	0.0164053
638.718	0.0165046
638.797	0.0164671
638.875	0.0164700
638.953	0.0165083
639.031	0.0164252
639.109	0.0164441
639.187	0.0165066
639.265	0.0164856
639.343	0.0165944
639.422	0.0165807
639.500	0.0164596
639.578	0.0165155
639.656	0.0164316
639.734	0.0164399
639.812	0.0164885
639.890	0.0164983
639.968	0.0165256
640.047	0.0164922
640.125	0.0164641
640.203	0.0164779
640.281	0.0165204
640.359	0.0163762
640.437	0.0164050
640.515	0.0166431
640.593	0.0164422
640.672	0.0164176
640.750	0.0164092
640.828	0.0164771
640.906	0.0165657
640.984	0.0164760
641.062	0.0165028
641.140	0.0165083
641.218	0.0166297
641.297	0.0164384
641.375	0.0163828
641.453	0.0164751
641.531	0.0165241
641.609	0.0163867
641.687	0.0164951
641.765	0.0164616
641.843	0.0165380
641.922	0.0165334
642.000	0.0164588
642.078	0.0164320
642.156	0.0164898
642.234	0.0164274
642.312	0.0164883
642.390	0.0164606
642.468	0.0164864
642.547	0.0164271
642.625	0.0165719
642.703	0.0163713
642.781	0.0164068
642.859	0.0165407
642.937	0.0164672
643.015	0.0164445
643.093	0.0164594
643.172	0.0163738
643.250	0.0165802
643.328	0.0165733
643.406	0.0164028
643.484	0.0165287
643.562	0.0165302
643.640	0.0165547
643.718	0.0164704
643.797	0.0165141
643.875	0.0163781
643.953	0.0165712
644.031	0.0166190
644.109	0.0165810
644.187	0.0163391
644.265	0.0164217
644.343	0.0164909
644.422	0.0165530
644.500	0.0164088
644.578	0.0164748
644.656	0.0164949
644.734	0.0164254
644.812	0.0163294
644.890	0.0164948
644.968	0.0164874
645.047	0.0164452
645.125	0.0166068
645.203	0.0165179
645.281	0.0164437
645.359	0.0164320
645.437	0.0164561
645.515	0.0164127
645.593	0.0164407
645.672	0.0164861
645.750	0.0164680
645.828	0.0164928
645.906	0.0163654
645.984	0.0163284
646.062	0.0165541
646.140	0.0164393
646.218	0.0165587
646.297	0.0164317
646.375	0.0164478
646.453	0.0165273
646.531	0.0164928
646.609	0.0165246
646.687	0.0164629
646.765	0.0164816
646.843	0.0163815
646.922	0.0165370
647.000	0.0164983
647.078	0.0164844
647.156	0.0163887
647.234	0.0164404
647.312	0.0164344
647.390	0.0165405
647.468	0.0163988
647.547	0.0163242
647.625	0.0166119
647.703	0.0164167
647.781	0.0163569
647.859	0.0164883
647.937	0.0164671
648.015	0.0163139
648.093	0.0164415
648.172	0.0165213
648.250	0.0163965
648.328	0.0163063
648.406	0.0164574
648.484	0.0164935
648.562	0.0162721
648.640	0.0165614
648.718	0.0164259
648.797	0.0163807
648.875	0.0164288
648.953	0.0163715
649.031	0.0164087
649.109	0.0164772
649.187	0.0165396
649.265	0.0163147
649.343	0.0164518
649.422	0.0164522
649.500	0.0165137
649.578	0.0165556
649.656	0.0164742
649.734	0.0164380
649.812	0.0164702
649.890	0.0164695
649.968	0.0164220
650.047	0.0163933
650.125	0.0164910
650.203	0.0164388
650.281	0.0163841
650.359	0.0163583
650.437	0.0164711
650.515	0.0164199
650.593	0.0164111
650.672	0.0164722
650.750	0.0164371
650.828	0.0165136
650.906	0.0163917
650.984	0.0164497
651.062	0.0162975
651.140	0.0164026
651.218	0.0164209
651.297	0.0164407
651.375	0.0165094
651.453	0.0164806
651.531	0.0165295
651.609	0.0165027
651.687	0.0165025
651.765	0.0164629
651.843	0.0163483
651.922	0.0164857
652.000	0.0165480
652.078	0.0164738
652.156	0.0163557
652.234	0.0166092
652.312	0.0164203
652.390	0.0165343
652.468	0.0164203
652.547	0.0162946
652.625	0.0165627
652.703	0.0164712
652.781	0.0164970
652.859	0.0165290
652.937	0.0165236
653.015	0.0164736
653.093	0.0163697
653.172	0.0163898
653.250	0.0163561
653.328	0.0164362
653.406	0.0165045
653.484	0.0165169
653.562	0.0165069
653.640	0.0165000
653.718	0.0165215
653.797	0.0163464
653.875	0.0164116
653.953	0.0165933
654.031	0.0163792
654.109	0.0164581
654.187	0.0165683
654.265	0.0165115
654.343	0.0164748
654.422	0.0163705
654.500	0.0164193
654.578	0.0164227
654.656	0.0165623
654.734	0.0165963
654.812	0.0163766
654.890	0.0162917
654.968	0.0164171
655.047	0.0164220
655.125	0.0164950
655.203	0.0164391
655.281	0.0163829
655.359	0.0164880
655.437	0.0165252
655.515	0.0164043
655.593	0.0164880
655.672	0.0164809
655.750	0.0164265
655.828	0.0164793
655.906	0.0164581
655.984	0.0163521
656.062	0.0165116
656.140	0.0163522
656.218	0.0164492
656.297	0.0164508
656.375	0.0163412
656.453	0.0164279
656.531	0.0164292
656.609	0.0163103
656.687	0.0163807
656.765	0.0164449
656.843	0.0165357
656.922	0.0165902
657.000	0.0163586
657.078	0.0164455
657.156	0.0165635
657.234	0.0164455
657.312	0.0164134
657.390	0.0165116
657.468	0.0165121
657.547	0.0164909
657.625	0.0165192
657.703	0.0165423
657.781	0.0164056
657.859	0.0164105
657.937	0.0164339
658.015	0.0164558
658.093	0.0165252
658.172	0.0164786
658.250	0.0164991
658.328	0.0164085
658.406	0.0165338
658.484	0.0164427
658.562	0.0165490
658.640	0.0164565
658.718	0.0164719
658.797	0.0163718
658.875	0.0165176
658.953	0.0165926
659.031	0.0164930
659.109	0.0164587
659.187	0.0164194
659.265	0.0165543
659.343	0.0164317
659.422	0.0163409
659.500	0.0163264
659.578	0.0165400
659.656	0.0164279
659.734	0.0164991
659.812	0.0163236
659.890	0.0163496
659.968	0.0164799
660.047	0.0164384
660.125	0.0163871
660.203	0.0164610
660.281	0.0164760
660.359	0.0163575
660.437	0.0164176
660.515	0.0164112
660.593	0.0165152
660.672	0.0165208
660.750	0.0165613
660.828	0.0165218
660.906	0.0164722
660.984	0.0164632
661.062	0.0163555
661.140	0.0165248
661.218	0.0165290
661.297	0.0165601
661.375	0.0164458
661.453	0.0165079
661.531	0.0164290
661.609	0.0164407
661.687	0.0164246
661.765	0.0163175
661.843	0.0164947
661.922	0.0163277
662.000	0.0164652
662.078	0.0165173
662.156	0.0164240
662.234	0.0163900
662.312	0.0165151
662.390	0.0164822
662.468	0.0163983
662.547	0.0165107
662.625	0.0164816
662.703	0.0164942
662.781	0.0165034
662.859	0.0164204
662.937	0.0165469
663.015	0.0164993
663.093	0.0164041
663.172	0.0165300
663.250	0.0163564
663.328	0.0163806
663.406	0.0164246
663.484	0.0165884
663.562	0.0165630
663.640	0.0165061
663.718	0.0164111
663.797	0.0165038
663.875	0.0164760
663.953	0.0163426
664.031	0.0164895
664.109	0.0164286
664.187	0.0166013
664.265	0.0165962
664.343	0.0164244
664.422	0.0164610
664.500	0.0163622
664.578	0.0164407
664.656	0.0164481
664.734	0.0163206
664.812	0.0164800
664.890	0.0164548
664.968	0.0164491
665.047	0.0164481
665.125	0.0165285
665.203	0.0164348
665.281	0.0164863
665.359	0.0165436
665.437	0.0164735
665.515	0.0164761
665.593	0.0164494
665.672	0.0165272
665.750	0.0164279
665.828	0.0164724
665.906	0.0164722
665.984	0.0164258
666.062	0.0164548
666.140	0.0163198
666.218	0.0164929
666.297	0.0164977
666.375	0.0165313
666.453	0.0165609
666.531	0.0165717
666.609	0.0163723
666.687	0.0163660
666.765	0.0165388
666.843	0.0165718
666.922	0.0166362
667.000	0.0163519
667.078	0.0164426
667.156	0.0163937
667.234	0.0164394
667.312	0.0164089
667.390	0.0164106
667.468	0.0164667
667.547	0.0165115
667.625	0.0165852
667.703	0.0165469
667.781	0.0164538
667.859	0.0164836
667.937	0.0165845
668.015	0.0164931
668.093	0.0164621
668.172	0.0163976
668.250	0.0164146
668.328	0.0164526
668.406	0.0165443
668.484	0.0165432
668.562	0.0164154
668.640	0.0164128
668.718	0.0164589
668.797	0.0163712
668.875	0.0164566
668.953	0.0163925
669.031	0.0164207
669.109	0.0163503
669.187	0.0165509
669.265	0.0163777
669.343	0.0165916
669.422	0.0166081
669.500	0.0164185
669.578	0.0164877
669.656	0.0164169
669.734	0.0164363
669.812	0.0164877
669.890	0.0164671
669.968	0.0164265
670.047	0.0164778
670.125	0.0164822
670.203	0.0164555
670.281	0.0165023
670.359	0.0163495
670.437	0.0164035
670.515	0.0165952
670.593	0.0164270
670.672	0.0163586
670.750	0.0164528
670.828	0.0164433
670.906	0.0164547
670.984	0.0165171
671.062	0.0165357
671.140	0.0165878
671.218	0.0164851
671.297	0.0163580
671.375	0.0164307
671.453	0.0165428
671.531	0.0165283
671.609	0.0164482
671.687	0.0164882
671.765	0.0165200
671.843	0.0164123
671.922	0.0164764
672.000	0.0164391
672.078	0.0164613
672.156	0.0164756
672.234	0.0164223
672.312	0.0163929
672.390	0.0165215
672.468	0.0164902
672.547	0.0164708
672.625	0.0163965
672.703	0.0165422
672.781	0.0165654
672.859	0.0163960
672.937	0.0162778
673.015	0.0164295
673.093	0.0164439
673.172	0.0164571
673.250	0.0164618
673.328	0.0164170
673.406	0.0163714
673.484	0.0164689
673.562	0.0163142
673.640	0.0165131
673.718	0.0165323
673.797	0.0164554
673.875	0.0164453
673.953	0.0165705
674.031	0.0164482
674.109	0.0164458
674.187	0.0164880
674.265	0.0165842
674.343	0.0164005
674.422	0.0165067
674.500	0.0163762
674.578	0.0165580
674.656	0.0164748
674.734	0.0164563
674.812	0.0164012
674.890	0.0163922
674.968	0.0163859
675.047	0.0164796
675.125	0.0164326
675.203	0.0164569
675.281	0.0164497
675.359	0.0163337
675.437	0.0164516
675.515	0.0163974
675.593	0.0162543
675.672	0.0164270
675.750	0.0165044
675.828	0.0164073
675.906	0.0163892
675.984	0.0165508
676.062	0.0164314
676.140	0.0164882
676.218	0.0164934
676.297	0.0165305
676.375	0.0162939
676.453	0.0165119
676.531	0.0164445
676.609	0.0165011
676.687	0.0165303
676.765	0.0163316
676.843	0.0165350
676.922	0.0164798
677.000	0.0163688
677.078	0.0163839
677.156	0.0162755
677.234	0.0165170
677.312	0.0163912
677.390	0.0163602
677.468	0.0164281
677.547	0.0165346
677.625	0.0163701
677.703	0.0165577
677.781	0.0165118
677.859	0.0164076
677.937	0.0165447
678.015	0.0164522
678.093	0.0164291
678.172	0.0164949
678.250	0.0164520
678.328	0.0164664
678.406	0.0164767
678.484	0.0164335
678.562	0.0164616
678.640	0.0165033
678.718	0.0163683
678.797	0.0163829
678.875	0.0166457
678.953	0.0164993
679.031	0.0165069
679.109	0.0165826
679.187	0.0164498
679.265	0.0164551
679.343	0.0164291
679.422	0.0165688
679.500	0.0165024
679.578	0.0165527
679.656	0.0165616
679.734	0.0164636
679.812	0.0165467
679.890	0.0164668
679.968	0.0165987
680.047	0.0164551
680.125	0.0164124
680.203	0.0164220
680.281	0.0165069
680.359	0.0165303
680.437	0.0165564
680.515	0.0165060
680.593	0.0164972
680.672	0.0164947
680.750	0.0164651
680.828	0.0164933
680.906	0.0165546
680.984	0.0164815
681.062	0.0165141
681.140	0.0165057
681.218	0.0165691
681.297	0.0165567
681.375	0.0164455
681.453	0.0165431
681.531	0.0165070
681.609	0.0165169
681.687	0.0164410
681.765	0.0163850
681.843	0.0164121
681.922	0.0165257
682.000	0.0164806
682.078	0.0163520
682.156	0.0164669
682.234	0.0166482
682.312	0.0165943
682.390	0.0164799
682.468	0.0164495
682.547	0.0164632
682.625	0.0163552
682.703	0.0165926
682.781	0.0164352
682.859	0.0165584
682.937	0.0165285
683.015	0.0164821
683.093	0.0163850
683.172	0.0164638
683.250	0.0164629
683.328	0.0164452
683.406	0.0165339
683.484	0.0164793
683.562	0.0166175
683.640	0.0166340
683.718	0.0165917
683.797	0.0164198
683.875	0.0164330
683.953	0.0164471
684.031	0.0164943
684.109	0.0164719
684.187	0.0164085
684.265	0.0164883
684.343	0.0163947
684.422	0.0164838
684.500	0.0163683
684.578	0.0163774
684.656	0.0165072
684.734	0.0165120
684.812	0.0164655
684.890	0.0165421
684.968	0.0165852
685.047	0.0165625
685.125	0.0165725
685.203	0.0164545
685.281	0.0164629
685.359	0.0164342
685.437	0.0164346
685.515	0.0164143
685.593	0.0166035
685.672	0.0165422
