06/13/2022	14:52:54	Ver.	4.1	UNKNOWN
Optical Delay	599.968395	Delta X		0.078125	Sweeps	1	Scan Rate	0/0
Coordinates	Axis 1	NaN	Axis 2	NaN	Axis 3	NaN	Axis 4	NaN	Axis 5	NaN	Axis 6	0.000000
TX Power	0.000000	RX Power	0.000000

599.968	0.0157050
600.047	0.0158985
600.125	0.0158265
600.203	0.0158725
600.281	0.0158643
600.359	0.0159698
600.437	0.0159416
600.515	0.0158917
600.593	0.0157787
600.672	0.0158373
600.750	0.0158938
600.828	0.0158614
600.906	0.0158080
600.984	0.0158910
601.062	0.0158620
601.140	0.0159042
601.218	0.0156834
601.297	0.0158185
601.375	0.0158094
601.453	0.0157073
601.531	0.0158454
601.609	0.0158233
601.687	0.0158810
601.765	0.0156105
601.843	0.0158630
601.922	0.0157043
602.000	0.0155471
602.078	0.0158688
602.156	0.0157510
602.234	0.0158913
602.312	0.0157938
602.390	0.0156773
602.468	0.0157751
602.547	0.0158356
602.625	0.0159119
602.703	0.0157050
602.781	0.0156917
602.859	0.0157802
602.937	0.0159538
603.015	0.0157834
603.093	0.0156207
603.172	0.0157129
603.250	0.0158613
603.328	0.0158297
603.406	0.0156719
603.484	0.0157629
603.562	0.0157799
603.640	0.0157222
603.718	0.0158352
603.797	0.0156683
603.875	0.0156567
603.953	0.0158223
604.031	0.0157677
604.109	0.0157928
604.187	0.0156000
604.265	0.0157769
604.343	0.0157501
604.422	0.0157989
604.500	0.0156909
604.578	0.0156976
604.656	0.0156962
604.734	0.0157684
604.812	0.0156281
604.890	0.0158083
604.968	0.0157712
605.047	0.0156927
605.125	0.0157700
605.203	0.0158099
605.281	0.0156271
605.359	0.0158333
605.437	0.0157591
605.515	0.0156058
605.593	0.0157216
605.672	0.0158141
605.750	0.0157375
605.828	0.0157376
605.906	0.0156209
605.984	0.0158109
606.062	0.0157472
606.140	0.0156977
606.218	0.0157145
606.297	0.0157133
606.375	0.0157395
606.453	0.0157414
606.531	0.0158443
606.609	0.0157002
606.687	0.0157327
606.765	0.0156519
606.843	0.0157635
606.922	0.0157484
607.000	0.0157288
607.078	0.0156768
607.156	0.0158468
607.234	0.0157305
607.312	0.0157462
607.390	0.0156102
607.468	0.0157194
607.547	0.0157752
607.625	0.0157121
607.703	0.0157783
607.781	0.0156688
607.859	0.0157378
607.937	0.0157971
608.015	0.0158131
608.093	0.0157013
608.172	0.0158061
608.250	0.0158202
608.328	0.0157944
608.406	0.0157004
608.484	0.0156937
608.562	0.0155856
608.640	0.0156562
608.718	0.0157827
608.797	0.0156586
608.875	0.0157333
608.953	0.0156504
609.031	0.0156240
609.109	0.0157319
609.187	0.0156889
609.265	0.0156019
609.343	0.0156553
609.422	0.0156956
609.500	0.0157427
609.578	0.0156602
609.656	0.0157809
609.734	0.0157004
609.812	0.0154978
609.890	0.0155878
609.968	0.0156292
610.047	0.0155959
610.125	0.0156523
610.203	0.0155649
610.281	0.0155427
610.359	0.0157188
610.437	0.0157780
610.515	0.0155499
610.593	0.0156860
610.672	0.0156029
610.750	0.0155971
610.828	0.0156116
610.906	0.0155804
610.984	0.0155783
611.062	0.0156422
611.140	0.0155116
611.218	0.0156065
611.297	0.0155521
611.375	0.0155341
611.453	0.0155383
611.531	0.0155283
611.609	0.0155499
611.687	0.0154798
611.765	0.0156573
611.843	0.0155956
611.922	0.0155976
612.000	0.0156121
612.078	0.0154497
612.156	0.0154430
612.234	0.0155200
612.312	0.0154874
612.390	0.0154453
612.468	0.0155605
612.547	0.0156703
612.625	0.0155145
612.703	0.0155148
612.781	0.0154961
612.859	0.0154789
612.937	0.0156284
613.015	0.0156371
613.093	0.0155518
613.172	0.0154434
613.250	0.0154519
613.328	0.0156559
613.406	0.0156262
613.484	0.0154887
613.562	0.0154087
613.640	0.0155081
613.718	0.0155347
613.797	0.0154393
613.875	0.0155006
613.953	0.0155171
614.031	0.0153956
614.109	0.0155252
614.187	0.0156005
614.265	0.0156484
614.343	0.0155384
614.422	0.0154332
614.500	0.0154602
614.578	0.0155469
614.656	0.0154273
614.734	0.0155056
614.812	0.0154688
614.890	0.0154422
614.968	0.0156374
615.047	0.0155469
615.125	0.0155020
615.203	0.0155468
615.281	0.0155425
615.359	0.0154214
615.437	0.0155639
615.515	0.0154996
615.593	0.0155063
615.672	0.0155558
615.750	0.0155890
615.828	0.0155475
615.906	0.0156436
615.984	0.0155236
616.062	0.0155772
616.140	0.0156159
616.218	0.0156071
616.297	0.0156121
616.375	0.0155677
616.453	0.0154896
616.531	0.0155081
616.609	0.0154138
616.687	0.0153513
616.765	0.0154700
616.843	0.0153757
616.922	0.0154868
617.000	0.0156416
617.078	0.0154983
617.156	0.0154637
617.234	0.0154358
617.312	0.0154910
617.390	0.0155080
617.468	0.0154829
617.547	0.0154609
617.625	0.0154583
617.703	0.0154957
617.781	0.0156046
617.859	0.0156345
617.937	0.0153960
618.015	0.0154727
618.093	0.0154806
618.172	0.0156200
618.250	0.0155459
618.328	0.0155017
618.406	0.0155478
618.484	0.0154791
618.562	0.0155415
618.640	0.0156014
618.718	0.0156063
618.797	0.0155562
618.875	0.0155784
618.953	0.0156084
619.031	0.0155560
619.109	0.0155927
619.187	0.0156835
619.265	0.0155151
619.343	0.0155605
619.422	0.0156075
619.500	0.0156329
619.578	0.0155820
619.656	0.0156621
619.734	0.0157097
619.812	0.0157308
619.890	0.0156852
619.968	0.0157485
620.047	0.0157014
620.125	0.0157307
620.203	0.0156012
620.281	0.0155874
620.359	0.0155814
620.437	0.0156798
620.515	0.0156305
620.593	0.0157626
620.672	0.0156690
620.750	0.0157912
620.828	0.0156485
620.906	0.0156465
620.984	0.0156529
621.062	0.0157240
621.140	0.0155440
621.218	0.0157494
621.297	0.0155862
621.375	0.0156774
621.453	0.0156768
621.531	0.0157137
621.609	0.0157109
621.687	0.0155847
621.765	0.0156789
621.843	0.0155734
621.922	0.0156573
622.000	0.0155520
622.078	0.0157128
622.156	0.0157304
622.234	0.0156858
622.312	0.0157410
622.390	0.0157716
622.468	0.0157210
622.547	0.0156133
622.625	0.0157632
622.703	0.0157433
622.781	0.0158579
622.859	0.0158002
622.937	0.0157047
623.015	0.0156631
623.093	0.0156611
623.172	0.0156990
623.250	0.0157640
623.328	0.0156141
623.406	0.0157012
623.484	0.0156486
623.562	0.0156934
623.640	0.0157306
623.718	0.0157005
623.797	0.0157531
623.875	0.0158372
623.953	0.0155707
624.031	0.0156693
624.109	0.0157893
624.187	0.0155791
624.265	0.0156564
624.343	0.0155781
624.422	0.0158218
624.500	0.0157800
624.578	0.0156931
624.656	0.0156049
624.734	0.0155867
624.812	0.0157609
624.890	0.0157328
624.968	0.0155943
625.047	0.0156026
625.125	0.0156796
625.203	0.0155948
625.281	0.0157622
625.359	0.0156858
625.437	0.0157099
625.515	0.0156450
625.593	0.0157083
625.672	0.0157721
625.750	0.0157386
625.828	0.0157358
625.906	0.0156636
625.984	0.0156997
626.062	0.0156522
626.140	0.0156419
626.218	0.0157681
626.297	0.0157545
626.375	0.0157394
626.453	0.0158865
626.531	0.0156889
626.609	0.0157286
626.687	0.0157138
626.765	0.0157646
626.843	0.0156799
626.922	0.0158130
627.000	0.0158584
627.078	0.0156977
627.156	0.0156177
627.234	0.0157896
627.312	0.0158000
627.390	0.0157477
627.468	0.0157054
627.547	0.0158062
627.625	0.0156430
627.703	0.0156309
627.781	0.0157023
627.859	0.0156412
627.937	0.0157488
628.015	0.0157483
628.093	0.0156525
628.172	0.0156789
628.250	0.0157172
628.328	0.0157812
628.406	0.0157799
628.484	0.0157597
628.562	0.0157686
628.640	0.0158908
628.718	0.0158773
628.797	0.0157343
628.875	0.0157211
628.953	0.0157987
629.031	0.0159042
629.109	0.0158526
629.187	0.0159044
629.265	0.0157273
629.343	0.0157084
629.422	0.0157220
629.500	0.0158646
629.578	0.0158201
629.656	0.0157156
629.734	0.0157925
629.812	0.0155592
629.890	0.0157227
629.968	0.0156482
630.047	0.0157024
630.125	0.0155997
630.203	0.0156910
630.281	0.0156543
630.359	0.0156693
630.437	0.0157388
630.515	0.0156799
630.593	0.0157675
630.672	0.0154608
630.750	0.0157294
630.828	0.0156705
630.906	0.0156324
630.984	0.0156364
631.062	0.0157700
631.140	0.0156039
631.218	0.0155977
631.297	0.0156911
631.375	0.0157006
631.453	0.0155972
631.531	0.0157467
631.609	0.0157085
631.687	0.0155014
631.765	0.0155175
631.843	0.0155708
631.922	0.0157587
632.000	0.0155450
632.078	0.0155714
632.156	0.0156363
632.234	0.0157149
632.312	0.0155430
632.390	0.0156741
632.468	0.0156041
632.547	0.0155180
632.625	0.0157059
632.703	0.0157095
632.781	0.0156717
632.859	0.0156034
632.937	0.0157265
633.015	0.0155084
633.093	0.0155928
633.172	0.0156055
633.250	0.0155608
633.328	0.0155895
633.406	0.0155702
633.484	0.0155615
633.562	0.0156235
633.640	0.0156264
633.718	0.0157261
633.797	0.0155882
633.875	0.0156151
633.953	0.0156480
634.031	0.0156256
634.109	0.0156152
634.187	0.0156936
634.265	0.0155614
634.343	0.0155311
634.422	0.0156883
634.500	0.0157348
634.578	0.0156001
634.656	0.0156539
634.734	0.0156530
634.812	0.0155640
634.890	0.0157399
634.968	0.0156258
635.047	0.0156530
635.125	0.0157791
635.203	0.0156016
635.281	0.0155879
635.359	0.0157545
635.437	0.0156361
635.515	0.0157701
635.593	0.0154628
635.672	0.0155373
635.750	0.0156867
635.828	0.0156572
635.906	0.0156688
635.984	0.0156014
636.062	0.0156207
636.140	0.0155392
636.218	0.0157169
636.297	0.0157616
636.375	0.0156445
636.453	0.0157074
636.531	0.0156749
636.609	0.0155503
636.687	0.0154866
636.765	0.0157377
636.843	0.0155970
636.922	0.0156148
637.000	0.0156953
637.078	0.0155753
637.156	0.0156541
637.234	0.0155147
637.312	0.0156232
637.390	0.0156802
637.468	0.0155217
637.547	0.0154770
637.625	0.0157014
637.703	0.0157208
637.781	0.0155631
637.859	0.0155971
637.937	0.0155289
638.015	0.0155917
638.093	0.0156828
638.172	0.0155933
638.250	0.0155755
638.328	0.0155304
638.406	0.0155798
638.484	0.0155787
638.562	0.0155847
638.640	0.0155542
638.718	0.0155402
638.797	0.0155017
638.875	0.0155921
638.953	0.0155154
639.031	0.0156343
639.109	0.0155735
639.187	0.0157008
639.265	0.0154318
639.343	0.0156120
639.422	0.0156988
639.500	0.0156070
639.578	0.0156373
639.656	0.0156031
639.734	0.0156422
639.812	0.0157120
639.890	0.0155674
639.968	0.0154889
640.047	0.0156083
640.125	0.0157176
640.203	0.0156068
640.281	0.0156113
640.359	0.0156406
640.437	0.0155971
640.515	0.0155843
640.593	0.0156543
640.672	0.0156561
640.750	0.0156901
640.828	0.0156645
640.906	0.0155250
640.984	0.0157190
641.062	0.0156861
641.140	0.0157275
641.218	0.0155415
641.297	0.0155859
641.375	0.0155840
641.453	0.0155318
641.531	0.0156354
641.609	0.0155404
641.687	0.0155889
641.765	0.0156470
641.843	0.0156939
641.922	0.0156394
642.000	0.0155908
642.078	0.0157289
642.156	0.0157493
642.234	0.0154926
642.312	0.0157391
642.390	0.0157274
642.468	0.0156593
642.547	0.0156231
642.625	0.0157436
642.703	0.0156460
642.781	0.0156979
642.859	0.0157107
642.937	0.0157130
643.015	0.0156579
643.093	0.0157880
643.172	0.0158369
643.250	0.0157406
643.328	0.0158614
643.406	0.0158327
643.484	0.0157294
643.562	0.0155804
643.640	0.0155541
643.718	0.0157121
643.797	0.0157532
643.875	0.0156765
643.953	0.0157580
644.031	0.0157346
644.109	0.0156252
644.187	0.0155408
644.265	0.0156284
644.343	0.0157032
644.422	0.0157178
644.500	0.0156004
644.578	0.0156210
644.656	0.0155979
644.734	0.0155741
644.812	0.0155453
644.890	0.0156403
644.968	0.0155911
645.047	0.0155840
645.125	0.0155630
645.203	0.0156947
645.281	0.0157259
645.359	0.0156757
645.437	0.0157258
645.515	0.0155833
645.593	0.0154581
645.672	0.0157326
645.750	0.0156779
645.828	0.0155735
645.906	0.0156955
645.984	0.0157041
646.062	0.0157815
646.140	0.0156589
646.218	0.0157153
646.297	0.0156590
646.375	0.0156641
646.453	0.0156055
646.531	0.0156169
646.609	0.0157429
646.687	0.0156973
646.765	0.0156652
646.843	0.0156188
646.922	0.0157604
647.000	0.0157635
647.078	0.0156448
647.156	0.0156384
647.234	0.0155527
647.312	0.0156425
647.390	0.0158318
647.468	0.0156203
647.547	0.0155764
647.625	0.0156657
647.703	0.0156130
647.781	0.0156621
647.859	0.0156706
647.937	0.0156540
648.015	0.0156358
648.093	0.0156129
648.172	0.0157830
648.250	0.0157687
648.328	0.0157661
648.406	0.0158016
648.484	0.0157449
648.562	0.0156092
648.640	0.0156835
648.718	0.0157308
648.797	0.0158446
648.875	0.0157283
648.953	0.0157590
649.031	0.0157690
649.109	0.0158057
649.187	0.0158186
649.265	0.0158456
649.343	0.0158089
649.422	0.0157187
649.500	0.0157879
649.578	0.0157151
649.656	0.0156269
649.734	0.0157739
649.812	0.0157911
649.890	0.0156803
649.968	0.0157983
650.047	0.0157764
650.125	0.0158031
650.203	0.0156552
650.281	0.0157114
650.359	0.0156773
650.437	0.0158813
650.515	0.0158377
650.593	0.0156849
650.672	0.0156614
650.750	0.0156564
650.828	0.0156434
650.906	0.0156797
650.984	0.0157249
651.062	0.0157384
651.140	0.0157136
651.218	0.0158489
651.297	0.0157088
651.375	0.0156041
651.453	0.0157597
651.531	0.0157066
651.609	0.0156025
651.687	0.0156525
651.765	0.0157164
651.843	0.0156675
651.922	0.0156615
652.000	0.0155317
652.078	0.0157701
652.156	0.0156187
652.234	0.0155001
652.312	0.0157718
652.390	0.0156171
652.468	0.0156976
652.547	0.0155770
652.625	0.0156551
652.703	0.0155510
652.781	0.0155501
652.859	0.0156937
652.937	0.0157214
653.015	0.0156990
653.093	0.0155241
653.172	0.0156539
653.250	0.0156332
653.328	0.0155889
653.406	0.0156503
653.484	0.0157307
653.562	0.0155365
653.640	0.0156470
653.718	0.0156032
653.797	0.0155533
653.875	0.0156512
653.953	0.0155383
654.031	0.0155920
654.109	0.0155615
654.187	0.0155436
654.265	0.0155795
654.343	0.0156447
654.422	0.0157036
654.500	0.0156818
654.578	0.0156953
654.656	0.0156829
654.734	0.0155002
654.812	0.0157294
654.890	0.0156607
654.968	0.0156252
655.047	0.0156885
655.125	0.0156112
655.203	0.0157243
655.281	0.0157458
655.359	0.0156035
655.437	0.0157111
655.515	0.0157190
655.593	0.0156061
655.672	0.0155199
655.750	0.0156618
655.828	0.0157302
655.906	0.0156030
655.984	0.0157527
656.062	0.0154739
656.140	0.0155311
656.218	0.0156791
656.297	0.0157240
656.375	0.0156858
656.453	0.0155787
656.531	0.0156401
656.609	0.0156557
656.687	0.0156062
656.765	0.0156365
656.843	0.0154939
656.922	0.0156008
657.000	0.0156059
657.078	0.0156488
657.156	0.0154715
657.234	0.0155735
657.312	0.0156457
657.390	0.0155931
657.468	0.0155784
657.547	0.0155628
657.625	0.0155568
657.703	0.0155904
657.781	0.0155690
657.859	0.0157347
657.937	0.0156034
658.015	0.0156461
658.093	0.0156490
658.172	0.0156904
658.250	0.0156971
658.328	0.0154845
658.406	0.0156969
658.484	0.0156731
658.562	0.0156301
658.640	0.0155610
658.718	0.0156381
658.797	0.0156672
658.875	0.0156962
658.953	0.0156389
659.031	0.0155425
659.109	0.0155405
659.187	0.0155135
659.265	0.0156304
659.343	0.0156592
659.422	0.0155472
659.500	0.0156618
659.578	0.0155702
659.656	0.0157095
659.734	0.0155941
659.812	0.0156213
659.890	0.0155643
659.968	0.0156469
660.047	0.0156669
660.125	0.0155302
660.203	0.0155071
660.281	0.0155959
660.359	0.0157858
660.437	0.0155997
660.515	0.0156469
660.593	0.0155965
660.672	0.0156861
660.750	0.0155844
660.828	0.0156368
660.906	0.0156057
660.984	0.0156341
661.062	0.0156890
661.140	0.0156541
661.218	0.0157133
661.297	0.0157055
661.375	0.0156153
661.453	0.0157037
661.531	0.0154814
661.609	0.0156407
661.687	0.0156971
661.765	0.0156214
661.843	0.0156984
661.922	0.0156814
662.000	0.0156759
662.078	0.0159153
662.156	0.0157672
662.234	0.0156200
662.312	0.0156040
662.390	0.0157084
662.468	0.0158736
662.547	0.0157825
662.625	0.0157975
662.703	0.0157049
662.781	0.0157193
662.859	0.0157706
662.937	0.0157766
663.015	0.0157424
663.093	0.0157147
663.172	0.0157287
663.250	0.0157553
663.328	0.0157626
663.406	0.0158175
663.484	0.0157355
663.562	0.0157874
663.640	0.0156677
663.718	0.0156816
663.797	0.0156142
663.875	0.0157747
663.953	0.0157509
664.031	0.0156260
664.109	0.0156712
664.187	0.0156496
664.265	0.0156770
664.343	0.0157914
664.422	0.0156453
664.500	0.0155584
664.578	0.0155562
664.656	0.0157410
664.734	0.0156903
664.812	0.0155199
664.890	0.0155590
664.968	0.0157133
665.047	0.0157364
665.125	0.0155634
665.203	0.0155266
665.281	0.0157437
665.359	0.0156423
665.437	0.0156715
665.515	0.0156679
665.593	0.0157496
665.672	0.0158371
665.750	0.0157462
665.828	0.0156514
665.906	0.0155762
665.984	0.0156078
666.062	0.0156794
666.140	0.0156615
666.218	0.0156178
666.297	0.0156647
666.375	0.0156910
666.453	0.0157226
666.531	0.0156396
666.609	0.0156604
666.687	0.0155621
666.765	0.0155941
666.843	0.0156670
666.922	0.0156824
667.000	0.0157602
667.078	0.0156870
667.156	0.0156320
667.234	0.0156918
667.312	0.0156417
667.390	0.0157043
667.468	0.0156637
667.547	0.0157122
667.625	0.0157075
667.703	0.0156262
667.781	0.0156084
667.859	0.0157269
667.937	0.0157381
668.015	0.0157098
668.093	0.0156187
668.172	0.0157466
668.250	0.0156263
668.328	0.0155823
668.406	0.0156590
668.484	0.0156863
668.562	0.0157026
668.640	0.0156834
668.718	0.0155272
668.797	0.0156132
668.875	0.0155852
668.953	0.0156590
669.031	0.0156783
669.109	0.0156908
669.187	0.0156512
669.265	0.0155544
669.343	0.0155402
669.422	0.0156754
669.500	0.0157408
669.578	0.0155392
669.656	0.0156068
669.734	0.0156592
669.812	0.0156038
669.890	0.0156419
669.968	0.0155769
670.047	0.0155750
670.125	0.0156956
670.203	0.0155675
670.281	0.0157328
670.359	0.0154942
670.437	0.0155676
670.515	0.0157784
670.593	0.0156528
670.672	0.0156196
670.750	0.0156020
670.828	0.0156443
670.906	0.0157174
670.984	0.0156693
671.062	0.0155695
671.140	0.0156219
671.218	0.0155722
671.297	0.0156107
671.375	0.0155715
671.453	0.0157753
671.531	0.0155474
671.609	0.0156525
671.687	0.0154964
671.765	0.0156696
671.843	0.0156886
671.922	0.0155019
672.000	0.0156622
672.078	0.0156435
672.156	0.0154635
672.234	0.0155504
672.312	0.0157108
672.390	0.0156442
672.468	0.0155294
672.547	0.0155970
672.625	0.0155790
672.703	0.0156481
672.781	0.0155116
672.859	0.0156007
672.937	0.0156342
673.015	0.0156642
673.093	0.0154874
673.172	0.0157011
673.250	0.0155853
673.328	0.0153565
673.406	0.0155787
673.484	0.0158074
673.562	0.0156474
673.640	0.0154625
673.718	0.0155877
673.797	0.0155898
673.875	0.0156189
673.953	0.0157180
674.031	0.0154900
674.109	0.0155817
674.187	0.0156299
674.265	0.0156286
674.343	0.0155904
674.422	0.0156184
674.500	0.0155814
674.578	0.0155700
674.656	0.0156267
674.734	0.0155730
674.812	0.0156108
674.890	0.0155546
674.968	0.0156528
675.047	0.0156190
675.125	0.0155006
675.203	0.0156372
675.281	0.0155553
675.359	0.0155885
675.437	0.0155957
675.515	0.0156986
675.593	0.0155341
675.672	0.0155195
675.750	0.0156458
675.828	0.0154977
675.906	0.0155424
675.984	0.0155558
676.062	0.0155684
676.140	0.0156746
676.218	0.0156900
676.297	0.0156410
676.375	0.0156006
676.453	0.0157058
676.531	0.0156414
676.609	0.0156219
676.687	0.0156828
676.765	0.0156979
676.843	0.0157293
676.922	0.0157198
677.000	0.0155730
677.078	0.0154062
677.156	0.0155575
677.234	0.0156509
677.312	0.0154916
677.390	0.0156715
677.468	0.0155319
677.547	0.0156393
677.625	0.0156007
677.703	0.0157700
677.781	0.0156509
677.859	0.0155479
677.937	0.0156205
678.015	0.0156563
678.093	0.0156802
678.172	0.0156313
678.250	0.0156527
678.328	0.0156937
678.406	0.0157222
678.484	0.0157123
678.562	0.0155764
678.640	0.0156369
678.718	0.0155754
678.797	0.0155385
678.875	0.0156606
678.953	0.0157153
679.031	0.0157872
679.109	0.0155856
679.187	0.0156973
679.265	0.0155863
679.343	0.0155976
679.422	0.0156294
679.500	0.0156035
679.578	0.0157674
679.656	0.0156165
679.734	0.0155875
679.812	0.0155656
679.890	0.0157174
679.968	0.0157400
680.047	0.0157073
680.125	0.0156841
680.203	0.0155892
680.281	0.0157617
680.359	0.0156882
680.437	0.0155390
680.515	0.0156384
680.593	0.0156835
680.672	0.0156356
680.750	0.0157223
680.828	0.0156856
680.906	0.0157128
680.984	0.0155429
681.062	0.0155794
681.140	0.0156745
681.218	0.0156628
681.297	0.0156927
681.375	0.0157236
681.453	0.0156203
681.531	0.0155553
681.609	0.0155035
681.687	0.0156688
681.765	0.0155804
681.843	0.0156660
681.922	0.0155814
682.000	0.0156832
682.078	0.0157408
682.156	0.0156862
682.234	0.0155936
682.312	0.0156254
682.390	0.0157626
682.468	0.0156042
682.547	0.0155457
682.625	0.0156320
682.703	0.0157670
682.781	0.0157301
682.859	0.0155792
682.937	0.0157269
683.015	0.0158006
683.093	0.0156721
683.172	0.0157748
683.250	0.0155871
683.328	0.0157227
683.406	0.0156779
683.484	0.0157713
683.562	0.0156197
683.640	0.0156398
683.718	0.0156557
683.797	0.0155507
683.875	0.0156992
683.953	0.0157292
684.031	0.0158005
684.109	0.0156182
684.187	0.0157393
684.265	0.0156159
684.343	0.0157677
684.422	0.0157374
684.500	0.0156289
684.578	0.0155546
684.656	0.0155685
684.734	0.0157622
684.812	0.0156677
684.890	0.0156240
684.968	0.0156699
685.047	0.0155241
685.125	0.0156538
685.203	0.0158064
685.281	0.0155737
685.359	0.0156287
685.437	0.0155899
685.515	0.0155352
685.593	0.0155789
685.672	0.0156914
