06/13/2022	14:55:04	Ver.	4.1	UNKNOWN
Optical Delay	599.968395	Delta X		0.078125	Sweeps	1	Scan Rate	0/0
Coordinates	Axis 1	NaN	Axis 2	NaN	Axis 3	NaN	Axis 4	NaN	Axis 5	NaN	Axis 6	0.000000
TX Power	0.000000	RX Power	0.000000

599.968	0.0158714
600.047	0.0158801
600.125	0.0158401
600.203	0.0158583
600.281	0.0157349
600.359	0.0158193
600.437	0.0156462
600.515	0.0158302
600.593	0.0158995
600.672	0.0159175
600.750	0.0157954
600.828	0.0157647
600.906	0.0158828
600.984	0.0159386
601.062	0.0158128
601.140	0.0158298
601.218	0.0159273
601.297	0.0159450
601.375	0.0159042
601.453	0.0158263
601.531	0.0156425
601.609	0.0158176
601.687	0.0158746
601.765	0.0158052
601.843	0.0158284
601.922	0.0158800
602.000	0.0158824
602.078	0.0159558
602.156	0.0158239
602.234	0.0157265
602.312	0.0158909
602.390	0.0157961
602.468	0.0158274
602.547	0.0158478
602.625	0.0158731
602.703	0.0159405
602.781	0.0158511
602.859	0.0158512
602.937	0.0159704
603.015	0.0159433
603.093	0.0158543
603.172	0.0158267
603.250	0.0159303
603.328	0.0159923
603.406	0.0158752
603.484	0.0157604
603.562	0.0158467
603.640	0.0158184
603.718	0.0157792
603.797	0.0157690
603.875	0.0157673
603.953	0.0158475
604.031	0.0158311
604.109	0.0158896
604.187	0.0159113
604.265	0.0158927
604.343	0.0157568
604.422	0.0158923
604.500	0.0157810
604.578	0.0158690
604.656	0.0158649
604.734	0.0157532
604.812	0.0157692
604.890	0.0159328
604.968	0.0156741
605.047	0.0159106
605.125	0.0159222
605.203	0.0158070
605.281	0.0158187
605.359	0.0158326
605.437	0.0158146
605.515	0.0158400
605.593	0.0159460
605.672	0.0158701
605.750	0.0157308
605.828	0.0157295
605.906	0.0157504
605.984	0.0157990
606.062	0.0159710
606.140	0.0158783
606.218	0.0158855
606.297	0.0159291
606.375	0.0158074
606.453	0.0159030
606.531	0.0159329
606.609	0.0157928
606.687	0.0157791
606.765	0.0158395
606.843	0.0157732
606.922	0.0158443
607.000	0.0158543
607.078	0.0157883
607.156	0.0158416
607.234	0.0158845
607.312	0.0158440
607.390	0.0159026
607.468	0.0158544
607.547	0.0158916
607.625	0.0157378
607.703	0.0158531
607.781	0.0159099
607.859	0.0157787
607.937	0.0158377
608.015	0.0157896
608.093	0.0159733
608.172	0.0159528
608.250	0.0158267
608.328	0.0159490
608.406	0.0159772
608.484	0.0158378
608.562	0.0159151
608.640	0.0158183
608.718	0.0158231
608.797	0.0158956
608.875	0.0157052
608.953	0.0156779
609.031	0.0157529
609.109	0.0158672
609.187	0.0159040
609.265	0.0157098
609.343	0.0157498
609.422	0.0158315
609.500	0.0159046
609.578	0.0158450
609.656	0.0157634
609.734	0.0157415
609.812	0.0158449
609.890	0.0158786
609.968	0.0160027
610.047	0.0158975
610.125	0.0157681
610.203	0.0158554
610.281	0.0157771
610.359	0.0158313
610.437	0.0158416
610.515	0.0158820
610.593	0.0157790
610.672	0.0158570
610.750	0.0156807
610.828	0.0158282
610.906	0.0159914
610.984	0.0159093
611.062	0.0156937
611.140	0.0159103
611.218	0.0157745
611.297	0.0158887
611.375	0.0159489
611.453	0.0159074
611.531	0.0158544
611.609	0.0158698
611.687	0.0158492
611.765	0.0159734
611.843	0.0159778
611.922	0.0157838
612.000	0.0157915
612.078	0.0158852
612.156	0.0159490
612.234	0.0159503
612.312	0.0157751
612.390	0.0158299
612.468	0.0159699
612.547	0.0159300
612.625	0.0159172
612.703	0.0159737
612.781	0.0158056
612.859	0.0158450
612.937	0.0159258
613.015	0.0158874
613.093	0.0159333
613.172	0.0158888
613.250	0.0159166
613.328	0.0158539
613.406	0.0160005
613.484	0.0159425
613.562	0.0158191
613.640	0.0159872
613.718	0.0159165
613.797	0.0160044
613.875	0.0159732
613.953	0.0159628
614.031	0.0158715
614.109	0.0159219
614.187	0.0158428
614.265	0.0158758
614.343	0.0159384
614.422	0.0159084
614.500	0.0158329
614.578	0.0158308
614.656	0.0159248
614.734	0.0157607
614.812	0.0159382
614.890	0.0158231
614.968	0.0159364
615.047	0.0158690
615.125	0.0160168
615.203	0.0158313
615.281	0.0159860
615.359	0.0160420
615.437	0.0159338
615.515	0.0158551
615.593	0.0158059
615.672	0.0158637
615.750	0.0159251
615.828	0.0159710
615.906	0.0158620
615.984	0.0159741
616.062	0.0159762
616.140	0.0159466
616.218	0.0158098
616.297	0.0160827
616.375	0.0158786
616.453	0.0158939
616.531	0.0160034
616.609	0.0159641
616.687	0.0159258
616.765	0.0159138
616.843	0.0159865
616.922	0.0159796
617.000	0.0159219
617.078	0.0159447
617.156	0.0159366
617.234	0.0158460
617.312	0.0159940
617.390	0.0159059
617.468	0.0159093
617.547	0.0159361
617.625	0.0159220
617.703	0.0160175
617.781	0.0158609
617.859	0.0157734
617.937	0.0159485
618.015	0.0159158
618.093	0.0157407
618.172	0.0158164
618.250	0.0157843
618.328	0.0158619
618.406	0.0156809
618.484	0.0158250
618.562	0.0157912
618.640	0.0159098
618.718	0.0158252
618.797	0.0157980
618.875	0.0159116
618.953	0.0157440
619.031	0.0156043
619.109	0.0157468
619.187	0.0158324
619.265	0.0157865
619.343	0.0156389
619.422	0.0158064
619.500	0.0158266
619.578	0.0158210
619.656	0.0158488
619.734	0.0159312
619.812	0.0159153
619.890	0.0157861
619.968	0.0157932
620.047	0.0159093
620.125	0.0158183
620.203	0.0158715
620.281	0.0158192
620.359	0.0159086
620.437	0.0158592
620.515	0.0158697
620.593	0.0157304
620.672	0.0159069
620.750	0.0158952
620.828	0.0158716
620.906	0.0158965
620.984	0.0159669
621.062	0.0157162
621.140	0.0158084
621.218	0.0160094
621.297	0.0159420
621.375	0.0159917
621.453	0.0158987
621.531	0.0158901
621.609	0.0159684
621.687	0.0159348
621.765	0.0159140
621.843	0.0159152
621.922	0.0158960
622.000	0.0159412
622.078	0.0158477
622.156	0.0159566
622.234	0.0158454
622.312	0.0158613
622.390	0.0160181
622.468	0.0160223
622.547	0.0159108
622.625	0.0158698
622.703	0.0159202
622.781	0.0159370
622.859	0.0157326
622.937	0.0158344
623.015	0.0158257
623.093	0.0158472
623.172	0.0158665
623.250	0.0158862
623.328	0.0158376
623.406	0.0159519
623.484	0.0158205
623.562	0.0157867
623.640	0.0158189
623.718	0.0158813
623.797	0.0158028
623.875	0.0158485
623.953	0.0158072
624.031	0.0158399
624.109	0.0159113
624.187	0.0158516
624.265	0.0158418
624.343	0.0158891
624.422	0.0158905
624.500	0.0158703
624.578	0.0158276
624.656	0.0159792
624.734	0.0159268
624.812	0.0157941
624.890	0.0158170
624.968	0.0158485
625.047	0.0158083
625.125	0.0158952
625.203	0.0158604
625.281	0.0158559
625.359	0.0159147
625.437	0.0158193
625.515	0.0158884
625.593	0.0158059
625.672	0.0158450
625.750	0.0157718
625.828	0.0159352
625.906	0.0158632
625.984	0.0158568
626.062	0.0159920
626.140	0.0160108
626.218	0.0159656
626.297	0.0157706
626.375	0.0158077
626.453	0.0159830
626.531	0.0159795
626.609	0.0157986
626.687	0.0157622
626.765	0.0159103
626.843	0.0158889
626.922	0.0159122
627.000	0.0156879
627.078	0.0158226
627.156	0.0159425
627.234	0.0158701
627.312	0.0158873
627.390	0.0158745
627.468	0.0157798
627.547	0.0158469
627.625	0.0158668
627.703	0.0158183
627.781	0.0159486
627.859	0.0156944
627.937	0.0159470
628.015	0.0158832
628.093	0.0159583
628.172	0.0158372
628.250	0.0158080
628.328	0.0159175
628.406	0.0158264
628.484	0.0158782
628.562	0.0159657
628.640	0.0160120
628.718	0.0159831
628.797	0.0159014
628.875	0.0159705
628.953	0.0159853
629.031	0.0159244
629.109	0.0158340
629.187	0.0159583
629.265	0.0159434
629.343	0.0159605
629.422	0.0158527
629.500	0.0157094
629.578	0.0158543
629.656	0.0160032
629.734	0.0158593
629.812	0.0160281
629.890	0.0160191
629.968	0.0158514
630.047	0.0157867
630.125	0.0159057
630.203	0.0157948
630.281	0.0159065
630.359	0.0159669
630.437	0.0159814
630.515	0.0159517
630.593	0.0159369
630.672	0.0159435
630.750	0.0157692
630.828	0.0158878
630.906	0.0158269
630.984	0.0159042
631.062	0.0160283
631.140	0.0158461
631.218	0.0159688
631.297	0.0159369
631.375	0.0157712
631.453	0.0158525
631.531	0.0158533
631.609	0.0158581
631.687	0.0159569
631.765	0.0158191
631.843	0.0159132
631.922	0.0159621
632.000	0.0157610
632.078	0.0158152
632.156	0.0157798
632.234	0.0158865
632.312	0.0159151
632.390	0.0158746
632.468	0.0158948
632.547	0.0158272
632.625	0.0158891
632.703	0.0159174
632.781	0.0160743
632.859	0.0157904
632.937	0.0158754
633.015	0.0159042
633.093	0.0158064
633.172	0.0159184
633.250	0.0159706
633.328	0.0158160
633.406	0.0158522
633.484	0.0158292
633.562	0.0158009
633.640	0.0157813
633.718	0.0159952
633.797	0.0158688
633.875	0.0157937
633.953	0.0158290
634.031	0.0158198
634.109	0.0158125
634.187	0.0158807
634.265	0.0158490
634.343	0.0158376
634.422	0.0159214
634.500	0.0157767
634.578	0.0157214
634.656	0.0158375
634.734	0.0157669
634.812	0.0158215
634.890	0.0159750
634.968	0.0157928
635.047	0.0158038
635.125	0.0158019
635.203	0.0157327
635.281	0.0159846
635.359	0.0159489
635.437	0.0157722
635.515	0.0157860
635.593	0.0158746
635.672	0.0158770
635.750	0.0158499
635.828	0.0158508
635.906	0.0158363
635.984	0.0158567
636.062	0.0158198
636.140	0.0158508
636.218	0.0158800
636.297	0.0158609
636.375	0.0158244
636.453	0.0159362
636.531	0.0157799
636.609	0.0156817
636.687	0.0158916
636.765	0.0158459
636.843	0.0157890
636.922	0.0157755
637.000	0.0157717
637.078	0.0158450
637.156	0.0158086
637.234	0.0158189
637.312	0.0158792
637.390	0.0158276
637.468	0.0158347
637.547	0.0158411
637.625	0.0158303
637.703	0.0158504
637.781	0.0156985
637.859	0.0158686
637.937	0.0159422
638.015	0.0159392
638.093	0.0157222
638.172	0.0158749
638.250	0.0159361
638.328	0.0158311
638.406	0.0158165
638.484	0.0157883
638.562	0.0159593
638.640	0.0157985
638.718	0.0158746
638.797	0.0157380
638.875	0.0157273
638.953	0.0159386
639.031	0.0158508
639.109	0.0159721
639.187	0.0157676
639.265	0.0156129
639.343	0.0158812
639.422	0.0159241
639.500	0.0157471
639.578	0.0156929
639.656	0.0158262
639.734	0.0157816
639.812	0.0158636
639.890	0.0158260
639.968	0.0157420
640.047	0.0159154
640.125	0.0158788
640.203	0.0158613
640.281	0.0159135
640.359	0.0156672
640.437	0.0158849
640.515	0.0157968
640.593	0.0158119
640.672	0.0158260
640.750	0.0159444
640.828	0.0157549
640.906	0.0158276
640.984	0.0157614
641.062	0.0157832
641.140	0.0160064
641.218	0.0157711
641.297	0.0158752
641.375	0.0157883
641.453	0.0158290
641.531	0.0160155
641.609	0.0158543
641.687	0.0157367
641.765	0.0159740
641.843	0.0158842
641.922	0.0157662
642.000	0.0159322
642.078	0.0157973
642.156	0.0157970
642.234	0.0158870
642.312	0.0159368
642.390	0.0159326
642.468	0.0159202
642.547	0.0158736
642.625	0.0160187
642.703	0.0158584
642.781	0.0158295
642.859	0.0157724
642.937	0.0159610
643.015	0.0158833
643.093	0.0159850
643.172	0.0158618
643.250	0.0158804
643.328	0.0158356
643.406	0.0158629
643.484	0.0157882
643.562	0.0158244
643.640	0.0159102
643.718	0.0158152
643.797	0.0158045
643.875	0.0158205
643.953	0.0157851
644.031	0.0158396
644.109	0.0158723
644.187	0.0159876
644.265	0.0158721
644.343	0.0159538
644.422	0.0158339
644.500	0.0158370
644.578	0.0159268
644.656	0.0158297
644.734	0.0158349
644.812	0.0158814
644.890	0.0158759
644.968	0.0158443
645.047	0.0158752
645.125	0.0159626
645.203	0.0157500
645.281	0.0157373
645.359	0.0159386
645.437	0.0158438
645.515	0.0158062
645.593	0.0158571
645.672	0.0158406
645.750	0.0157172
645.828	0.0157959
645.906	0.0158993
645.984	0.0158386
646.062	0.0159263
646.140	0.0159276
646.218	0.0157374
646.297	0.0158488
646.375	0.0158900
646.453	0.0158195
646.531	0.0158886
646.609	0.0158127
646.687	0.0158852
646.765	0.0157985
646.843	0.0157907
646.922	0.0158598
647.000	0.0157801
647.078	0.0157091
647.156	0.0157816
647.234	0.0157962
647.312	0.0158632
647.390	0.0158011
647.468	0.0158255
647.547	0.0159166
647.625	0.0159795
647.703	0.0158982
647.781	0.0158628
647.859	0.0158791
647.937	0.0158900
648.015	0.0158311
648.093	0.0156776
648.172	0.0158704
648.250	0.0158455
648.328	0.0158936
648.406	0.0159454
648.484	0.0158782
648.562	0.0159274
648.640	0.0158903
648.718	0.0159203
648.797	0.0159194
648.875	0.0159980
648.953	0.0160241
649.031	0.0158753
649.109	0.0158362
649.187	0.0159678
649.265	0.0159786
649.343	0.0158389
649.422	0.0157668
649.500	0.0159851
649.578	0.0159702
649.656	0.0158426
649.734	0.0159451
649.812	0.0159792
649.890	0.0158828
649.968	0.0159111
650.047	0.0159734
650.125	0.0160037
650.203	0.0159527
650.281	0.0158390
650.359	0.0159218
650.437	0.0158306
650.515	0.0158383
650.593	0.0158172
650.672	0.0157427
650.750	0.0159691
650.828	0.0159766
650.906	0.0159467
650.984	0.0160205
651.062	0.0158396
651.140	0.0159305
651.218	0.0158464
651.297	0.0157682
651.375	0.0158733
651.453	0.0158172
651.531	0.0158134
651.609	0.0159045
651.687	0.0160925
651.765	0.0159878
651.843	0.0158636
651.922	0.0157792
652.000	0.0159262
652.078	0.0159790
652.156	0.0159054
652.234	0.0158753
652.312	0.0158635
652.390	0.0159631
652.468	0.0158384
652.547	0.0158306
652.625	0.0158545
652.703	0.0159252
652.781	0.0158513
652.859	0.0158678
652.937	0.0157493
653.015	0.0158788
653.093	0.0159280
653.172	0.0158147
653.250	0.0159908
653.328	0.0157657
653.406	0.0158641
653.484	0.0159409
653.562	0.0156825
653.640	0.0158868
653.718	0.0159060
653.797	0.0159708
653.875	0.0157883
653.953	0.0158857
654.031	0.0157883
654.109	0.0159170
654.187	0.0159743
654.265	0.0157936
654.343	0.0159781
654.422	0.0159505
654.500	0.0158000
654.578	0.0158953
654.656	0.0158423
654.734	0.0156986
654.812	0.0158188
654.890	0.0160129
654.968	0.0159278
655.047	0.0157694
655.125	0.0158627
655.203	0.0158098
655.281	0.0157785
655.359	0.0159092
655.437	0.0159410
655.515	0.0159320
655.593	0.0159177
655.672	0.0158970
655.750	0.0158352
655.828	0.0158022
655.906	0.0158624
655.984	0.0158096
656.062	0.0157442
656.140	0.0157591
656.218	0.0159357
656.297	0.0159171
656.375	0.0159184
656.453	0.0158611
656.531	0.0158276
656.609	0.0158150
656.687	0.0158999
656.765	0.0157275
656.843	0.0158423
656.922	0.0159188
657.000	0.0157023
657.078	0.0156842
657.156	0.0159112
657.234	0.0158450
657.312	0.0158219
657.390	0.0157898
657.468	0.0158620
657.547	0.0158495
657.625	0.0159409
657.703	0.0157851
657.781	0.0157680
657.859	0.0157939
657.937	0.0160091
658.015	0.0158010
658.093	0.0159339
658.172	0.0158369
658.250	0.0158250
658.328	0.0157965
658.406	0.0158659
658.484	0.0158137
658.562	0.0158312
658.640	0.0157262
658.718	0.0157954
658.797	0.0159495
658.875	0.0158665
658.953	0.0157124
659.031	0.0158289
659.109	0.0158508
659.187	0.0159483
659.265	0.0158852
659.343	0.0158697
659.422	0.0158257
659.500	0.0157801
659.578	0.0157605
659.656	0.0158830
659.734	0.0159528
659.812	0.0156988
659.890	0.0158051
659.968	0.0158664
660.047	0.0158015
660.125	0.0158293
660.203	0.0157314
660.281	0.0157162
660.359	0.0158019
660.437	0.0158392
660.515	0.0156148
660.593	0.0157100
660.672	0.0157798
660.750	0.0158931
660.828	0.0157360
660.906	0.0157830
660.984	0.0158253
661.062	0.0157326
661.140	0.0158593
661.218	0.0158452
661.297	0.0157827
661.375	0.0157334
661.453	0.0156834
661.531	0.0159406
661.609	0.0158463
661.687	0.0157058
661.765	0.0158224
661.843	0.0158158
661.922	0.0157639
662.000	0.0158593
662.078	0.0158672
662.156	0.0159855
662.234	0.0159531
662.312	0.0157625
662.390	0.0157556
662.468	0.0158866
662.547	0.0158616
662.625	0.0158524
662.703	0.0158438
662.781	0.0158727
662.859	0.0159624
662.937	0.0158595
663.015	0.0158602
663.093	0.0157011
663.172	0.0159644
663.250	0.0159048
663.328	0.0158438
663.406	0.0158631
663.484	0.0158109
663.562	0.0158384
663.640	0.0159437
663.718	0.0157868
663.797	0.0158264
663.875	0.0159441
663.953	0.0159181
664.031	0.0158835
664.109	0.0158559
664.187	0.0157639
664.265	0.0158871
664.343	0.0159384
664.422	0.0158761
664.500	0.0158739
664.578	0.0158512
664.656	0.0157827
664.734	0.0157802
664.812	0.0157969
664.890	0.0158373
664.968	0.0158630
665.047	0.0158494
665.125	0.0160406
665.203	0.0157311
665.281	0.0156780
665.359	0.0158736
665.437	0.0159021
665.515	0.0158919
665.593	0.0157587
665.672	0.0158949
665.750	0.0158326
665.828	0.0158614
665.906	0.0158843
665.984	0.0158566
666.062	0.0158389
666.140	0.0159254
666.218	0.0158684
666.297	0.0159189
666.375	0.0158661
666.453	0.0158820
666.531	0.0158541
666.609	0.0158044
666.687	0.0158673
666.765	0.0159113
666.843	0.0158269
666.922	0.0157867
667.000	0.0159328
667.078	0.0158081
667.156	0.0158597
667.234	0.0159174
667.312	0.0159348
667.390	0.0158949
667.468	0.0159181
667.547	0.0157111
667.625	0.0158665
667.703	0.0159364
667.781	0.0157845
667.859	0.0157211
667.937	0.0158871
668.015	0.0158109
668.093	0.0158440
668.172	0.0159989
668.250	0.0158168
668.328	0.0159213
668.406	0.0159245
668.484	0.0158144
668.562	0.0158992
668.640	0.0157825
668.718	0.0158924
668.797	0.0158864
668.875	0.0157468
668.953	0.0159682
669.031	0.0156815
669.109	0.0158208
669.187	0.0159296
669.265	0.0158407
669.343	0.0158911
669.422	0.0159389
669.500	0.0159801
669.578	0.0158469
669.656	0.0157722
669.734	0.0158310
669.812	0.0158179
669.890	0.0158942
669.968	0.0158971
670.047	0.0159255
670.125	0.0157258
670.203	0.0158538
670.281	0.0160049
670.359	0.0159254
670.437	0.0156462
670.515	0.0158871
670.593	0.0158790
670.672	0.0159818
670.750	0.0158583
670.828	0.0158437
670.906	0.0158761
670.984	0.0158942
671.062	0.0158427
671.140	0.0158595
671.218	0.0157515
671.297	0.0157243
671.375	0.0157657
671.453	0.0159297
671.531	0.0159325
671.609	0.0157272
671.687	0.0157997
671.765	0.0159035
671.843	0.0157960
671.922	0.0157846
672.000	0.0158227
672.078	0.0159660
672.156	0.0158827
672.234	0.0158499
672.312	0.0159093
672.390	0.0158369
672.468	0.0159193
672.547	0.0157922
672.625	0.0158094
672.703	0.0158139
672.781	0.0158493
672.859	0.0158081
672.937	0.0157232
673.015	0.0156856
673.093	0.0158923
673.172	0.0159514
673.250	0.0159246
673.328	0.0156871
673.406	0.0157565
673.484	0.0158415
673.562	0.0158822
673.640	0.0158951
673.718	0.0158590
673.797	0.0156970
673.875	0.0158374
673.953	0.0157147
674.031	0.0157787
674.109	0.0159132
674.187	0.0158215
674.265	0.0157956
674.343	0.0160623
674.422	0.0158510
674.500	0.0156785
674.578	0.0158683
674.656	0.0158934
674.734	0.0158749
674.812	0.0158893
674.890	0.0158949
674.968	0.0158889
675.047	0.0158326
675.125	0.0159367
675.203	0.0158018
675.281	0.0158250
675.359	0.0157469
675.437	0.0158921
675.515	0.0159348
675.593	0.0157813
675.672	0.0157652
675.750	0.0158981
675.828	0.0157891
675.906	0.0159411
675.984	0.0159324
676.062	0.0158539
676.140	0.0159451
676.218	0.0158640
676.297	0.0159386
676.375	0.0158913
676.453	0.0158512
676.531	0.0158866
676.609	0.0158572
676.687	0.0158848
676.765	0.0158405
676.843	0.0159162
676.922	0.0158681
677.000	0.0156824
677.078	0.0158520
677.156	0.0158041
677.234	0.0157163
677.312	0.0157342
677.390	0.0158684
677.468	0.0156794
677.547	0.0158440
677.625	0.0158125
677.703	0.0157855
677.781	0.0158755
677.859	0.0158499
677.937	0.0157786
678.015	0.0157442
678.093	0.0158453
678.172	0.0158149
678.250	0.0156826
678.328	0.0157447
678.406	0.0157673
678.484	0.0158974
678.562	0.0158500
678.640	0.0159794
678.718	0.0157814
678.797	0.0158388
678.875	0.0157803
678.953	0.0158410
679.031	0.0158071
679.109	0.0158576
679.187	0.0157950
679.265	0.0157310
679.343	0.0158237
679.422	0.0158189
679.500	0.0157208
679.578	0.0158252
679.656	0.0158109
679.734	0.0157290
679.812	0.0157558
679.890	0.0157529
679.968	0.0158405
680.047	0.0158557
680.125	0.0157726
680.203	0.0158385
680.281	0.0157603
680.359	0.0158638
680.437	0.0157745
680.515	0.0157705
680.593	0.0158015
680.672	0.0158833
680.750	0.0157589
680.828	0.0158717
680.906	0.0158720
680.984	0.0157472
681.062	0.0157641
681.140	0.0158463
681.218	0.0158337
681.297	0.0158041
681.375	0.0158080
681.453	0.0158634
681.531	0.0158025
681.609	0.0159707
681.687	0.0158533
681.765	0.0157140
681.843	0.0157114
681.922	0.0157992
682.000	0.0157720
682.078	0.0157652
682.156	0.0157868
682.234	0.0158117
682.312	0.0157320
682.390	0.0156754
682.468	0.0157552
682.547	0.0157319
682.625	0.0158252
682.703	0.0158185
682.781	0.0158312
682.859	0.0158564
682.937	0.0158282
683.015	0.0158829
683.093	0.0159296
683.172	0.0158292
683.250	0.0158855
683.328	0.0158176
683.406	0.0158495
683.484	0.0157430
683.562	0.0158360
683.640	0.0158681
683.718	0.0158485
683.797	0.0158741
683.875	0.0159203
683.953	0.0157440
684.031	0.0158487
684.109	0.0157453
684.187	0.0158013
684.265	0.0157607
684.343	0.0158661
684.422	0.0158498
684.500	0.0158569
684.578	0.0156788
684.656	0.0159283
684.734	0.0157685
684.812	0.0157892
684.890	0.0158284
684.968	0.0158761
685.047	0.0157441
685.125	0.0158865
685.203	0.0158595
685.281	0.0158331
685.359	0.0157100
685.437	0.0157674
685.515	0.0158834
685.593	0.0159533
685.672	0.0157418
