06/13/2022	14:55:49	Ver.	4.1	UNKNOWN
Optical Delay	599.968395	Delta X		0.078125	Sweeps	1	Scan Rate	0/0
Coordinates	Axis 1	NaN	Axis 2	NaN	Axis 3	NaN	Axis 4	NaN	Axis 5	NaN	Axis 6	0.000000
TX Power	0.000000	RX Power	0.000000

599.968	0.0158887
600.047	0.0159223
600.125	0.0157859
600.203	0.0157738
600.281	0.0158404
600.359	0.0159529
600.437	0.0158394
600.515	0.0159651
600.593	0.0158676
600.672	0.0158371
600.750	0.0160387
600.828	0.0159538
600.906	0.0158685
600.984	0.0157800
601.062	0.0159813
601.140	0.0158662
601.218	0.0159978
601.297	0.0157754
601.375	0.0157441
601.453	0.0160441
601.531	0.0160072
601.609	0.0159146
601.687	0.0157996
601.765	0.0158296
601.843	0.0158936
601.922	0.0158614
602.000	0.0158590
602.078	0.0160130
602.156	0.0158950
602.234	0.0157807
602.312	0.0158518
602.390	0.0158232
602.468	0.0158997
602.547	0.0158796
602.625	0.0158019
602.703	0.0158848
602.781	0.0159618
602.859	0.0158952
602.937	0.0157870
603.015	0.0159829
603.093	0.0160576
603.172	0.0159260
603.250	0.0159548
603.328	0.0160147
603.406	0.0159927
603.484	0.0158473
603.562	0.0158676
603.640	0.0159993
603.718	0.0160402
603.797	0.0158709
603.875	0.0158999
603.953	0.0159229
604.031	0.0159492
604.109	0.0159014
604.187	0.0158813
604.265	0.0157920
604.343	0.0158340
604.422	0.0160471
604.500	0.0160628
604.578	0.0159994
604.656	0.0160236
604.734	0.0160523
604.812	0.0159151
604.890	0.0159417
604.968	0.0158912
605.047	0.0159493
605.125	0.0159921
605.203	0.0158862
605.281	0.0160683
605.359	0.0160340
605.437	0.0160063
605.515	0.0160226
605.593	0.0160349
605.672	0.0160207
605.750	0.0159477
605.828	0.0159904
605.906	0.0159233
605.984	0.0159748
606.062	0.0159001
606.140	0.0158399
606.218	0.0159250
606.297	0.0160641
606.375	0.0160538
606.453	0.0158665
606.531	0.0160789
606.609	0.0160494
606.687	0.0161493
606.765	0.0158717
606.843	0.0159644
606.922	0.0160339
607.000	0.0160294
607.078	0.0160046
607.156	0.0158794
607.234	0.0160136
607.312	0.0159332
607.390	0.0160530
607.468	0.0160027
607.547	0.0159927
607.625	0.0159084
607.703	0.0158826
607.781	0.0159332
607.859	0.0158290
607.937	0.0159768
608.015	0.0160555
608.093	0.0158968
608.172	0.0158762
608.250	0.0158759
608.328	0.0157701
608.406	0.0158248
608.484	0.0159094
608.562	0.0160204
608.640	0.0158620
608.718	0.0159983
608.797	0.0160100
608.875	0.0158875
608.953	0.0159982
609.031	0.0158504
609.109	0.0159434
609.187	0.0159959
609.265	0.0159984
609.343	0.0159432
609.422	0.0159147
609.500	0.0158387
609.578	0.0157941
609.656	0.0158786
609.734	0.0159111
609.812	0.0158998
609.890	0.0159672
609.968	0.0159303
610.047	0.0158597
610.125	0.0159461
610.203	0.0159148
610.281	0.0159694
610.359	0.0159473
610.437	0.0160111
610.515	0.0159480
610.593	0.0158239
610.672	0.0159833
610.750	0.0159247
610.828	0.0159398
610.906	0.0160339
610.984	0.0160140
611.062	0.0158728
611.140	0.0159798
611.218	0.0160215
611.297	0.0159265
611.375	0.0160199
611.453	0.0159268
611.531	0.0160622
611.609	0.0158287
611.687	0.0158062
611.765	0.0159771
611.843	0.0159515
611.922	0.0159728
612.000	0.0160371
612.078	0.0159738
612.156	0.0160096
612.234	0.0159586
612.312	0.0157752
612.390	0.0159354
612.468	0.0159747
612.547	0.0160470
612.625	0.0159344
612.703	0.0158414
612.781	0.0158755
612.859	0.0159887
612.937	0.0159283
613.015	0.0160031
613.093	0.0159508
613.172	0.0159161
613.250	0.0159573
613.328	0.0160159
613.406	0.0158611
613.484	0.0160545
613.562	0.0159370
613.640	0.0159252
613.718	0.0158509
613.797	0.0159212
613.875	0.0159761
613.953	0.0159698
614.031	0.0159808
614.109	0.0160397
614.187	0.0159405
614.265	0.0159949
614.343	0.0160344
614.422	0.0159618
614.500	0.0158405
614.578	0.0158760
614.656	0.0159531
614.734	0.0159491
614.812	0.0158527
614.890	0.0160417
614.968	0.0159540
615.047	0.0158604
615.125	0.0159816
615.203	0.0160435
615.281	0.0159193
615.359	0.0159789
615.437	0.0160252
615.515	0.0158849
615.593	0.0159029
615.672	0.0160575
615.750	0.0160394
615.828	0.0159295
615.906	0.0159885
615.984	0.0159652
616.062	0.0159826
616.140	0.0161044
616.218	0.0159134
616.297	0.0159409
616.375	0.0160641
616.453	0.0160009
616.531	0.0159050
616.609	0.0160285
616.687	0.0158365
616.765	0.0159808
616.843	0.0160358
616.922	0.0160275
617.000	0.0159528
617.078	0.0159037
617.156	0.0157581
617.234	0.0160517
617.312	0.0160544
617.390	0.0158807
617.468	0.0157955
617.547	0.0159850
617.625	0.0159190
617.703	0.0159517
617.781	0.0160092
617.859	0.0160697
617.937	0.0159478
618.015	0.0159376
618.093	0.0159984
618.172	0.0160410
618.250	0.0158822
618.328	0.0160689
618.406	0.0159793
618.484	0.0159804
618.562	0.0160243
618.640	0.0158223
618.718	0.0159333
618.797	0.0159821
618.875	0.0159580
618.953	0.0159667
619.031	0.0158334
619.109	0.0160700
619.187	0.0159543
619.265	0.0160447
619.343	0.0158652
619.422	0.0159109
619.500	0.0160990
619.578	0.0160850
619.656	0.0159711
619.734	0.0159661
619.812	0.0160557
619.890	0.0158863
619.968	0.0160302
620.047	0.0160126
620.125	0.0158875
620.203	0.0159081
620.281	0.0159590
620.359	0.0160289
620.437	0.0160590
620.515	0.0158955
620.593	0.0158331
620.672	0.0158956
620.750	0.0159618
620.828	0.0160590
620.906	0.0160513
620.984	0.0159283
621.062	0.0159490
621.140	0.0158160
621.218	0.0158781
621.297	0.0159578
621.375	0.0160468
621.453	0.0160326
621.531	0.0158360
621.609	0.0159455
621.687	0.0158261
621.765	0.0158161
621.843	0.0157296
621.922	0.0159971
622.000	0.0159904
622.078	0.0160364
622.156	0.0159134
622.234	0.0159312
622.312	0.0159415
622.390	0.0159576
622.468	0.0158702
622.547	0.0159254
622.625	0.0159815
622.703	0.0161469
622.781	0.0160554
622.859	0.0160249
622.937	0.0159731
623.015	0.0159155
623.093	0.0160763
623.172	0.0159984
623.250	0.0158666
623.328	0.0158547
623.406	0.0160804
623.484	0.0159727
623.562	0.0159615
623.640	0.0161175
623.718	0.0159854
623.797	0.0159699
623.875	0.0158569
623.953	0.0160041
624.031	0.0159778
624.109	0.0158465
624.187	0.0158835
624.265	0.0158884
624.343	0.0160606
624.422	0.0160793
624.500	0.0159208
624.578	0.0158134
624.656	0.0159756
624.734	0.0160477
624.812	0.0158874
624.890	0.0159280
624.968	0.0158556
625.047	0.0159755
625.125	0.0159462
625.203	0.0160225
625.281	0.0158747
625.359	0.0159146
625.437	0.0158532
625.515	0.0158771
625.593	0.0158022
625.672	0.0157822
625.750	0.0159376
625.828	0.0159595
625.906	0.0158219
625.984	0.0158982
626.062	0.0158559
626.140	0.0158483
626.218	0.0159967
626.297	0.0159103
626.375	0.0158521
626.453	0.0158720
626.531	0.0159038
626.609	0.0159966
626.687	0.0158414
626.765	0.0157840
626.843	0.0159211
626.922	0.0160995
627.000	0.0158720
627.078	0.0159254
627.156	0.0160361
627.234	0.0158307
627.312	0.0158060
627.390	0.0159644
627.468	0.0159570
627.547	0.0159773
627.625	0.0158600
627.703	0.0159112
627.781	0.0159395
627.859	0.0159231
627.937	0.0158582
628.015	0.0159368
628.093	0.0159390
628.172	0.0158524
628.250	0.0159193
628.328	0.0158856
628.406	0.0159553
628.484	0.0159789
628.562	0.0159005
628.640	0.0159512
628.718	0.0158485
628.797	0.0158148
628.875	0.0159055
628.953	0.0159164
629.031	0.0158178
629.109	0.0159337
629.187	0.0158597
629.265	0.0159358
629.343	0.0158169
629.422	0.0159333
629.500	0.0158712
629.578	0.0157245
629.656	0.0159373
629.734	0.0159279
629.812	0.0158376
629.890	0.0159518
629.968	0.0158595
630.047	0.0157744
630.125	0.0157934
630.203	0.0157474
630.281	0.0158942
630.359	0.0159742
630.437	0.0160201
630.515	0.0159559
630.593	0.0159496
630.672	0.0157378
630.750	0.0158767
630.828	0.0160386
630.906	0.0158675
630.984	0.0159323
631.062	0.0158409
631.140	0.0158836
631.218	0.0159166
631.297	0.0160157
631.375	0.0159159
631.453	0.0158305
631.531	0.0159953
631.609	0.0159428
631.687	0.0160512
631.765	0.0159413
631.843	0.0159318
631.922	0.0159888
632.000	0.0160199
632.078	0.0159573
632.156	0.0159312
632.234	0.0159624
632.312	0.0159812
632.390	0.0158033
632.468	0.0159126
632.547	0.0159294
632.625	0.0158489
632.703	0.0158430
632.781	0.0159115
632.859	0.0159215
632.937	0.0159441
633.015	0.0160348
633.093	0.0159661
633.172	0.0158962
633.250	0.0160007
633.328	0.0158598
633.406	0.0158630
633.484	0.0159209
633.562	0.0159363
633.640	0.0159325
633.718	0.0159193
633.797	0.0158993
633.875	0.0160413
633.953	0.0159637
634.031	0.0158881
634.109	0.0159006
634.187	0.0160339
634.265	0.0158504
634.343	0.0157494
634.422	0.0159087
634.500	0.0159158
634.578	0.0159689
634.656	0.0160139
634.734	0.0158853
634.812	0.0160049
634.890	0.0160478
634.968	0.0157993
635.047	0.0160579
635.125	0.0160086
635.203	0.0159455
635.281	0.0158871
635.359	0.0159190
635.437	0.0158897
635.515	0.0160818
635.593	0.0161026
635.672	0.0158118
635.750	0.0159726
635.828	0.0158669
635.906	0.0159681
635.984	0.0159000
636.062	0.0160046
636.140	0.0161368
636.218	0.0158919
636.297	0.0159709
636.375	0.0157998
636.453	0.0159047
636.531	0.0159217
636.609	0.0159184
636.687	0.0159138
636.765	0.0159579
636.843	0.0159602
636.922	0.0160271
637.000	0.0160872
637.078	0.0159531
637.156	0.0159914
637.234	0.0159069
637.312	0.0159274
637.390	0.0159074
637.468	0.0160567
637.547	0.0160029
637.625	0.0159287
637.703	0.0159718
637.781	0.0159364
637.859	0.0159599
637.937	0.0159886
638.015	0.0160646
638.093	0.0159958
638.172	0.0159607
638.250	0.0159035
638.328	0.0160062
638.406	0.0160020
638.484	0.0159421
638.562	0.0160531
638.640	0.0159126
638.718	0.0159413
638.797	0.0159342
638.875	0.0161235
638.953	0.0159732
639.031	0.0159013
639.109	0.0159425
639.187	0.0161500
639.265	0.0159335
639.343	0.0159833
639.422	0.0160086
639.500	0.0158605
639.578	0.0159022
639.656	0.0159059
639.734	0.0159744
639.812	0.0159836
639.890	0.0160714
639.968	0.0160561
640.047	0.0160127
640.125	0.0159650
640.203	0.0158904
640.281	0.0158652
640.359	0.0160372
640.437	0.0160368
640.515	0.0159232
640.593	0.0160309
640.672	0.0160974
640.750	0.0159841
640.828	0.0159428
640.906	0.0158838
640.984	0.0159383
641.062	0.0159598
641.140	0.0160372
641.218	0.0159692
641.297	0.0160541
641.375	0.0159540
641.453	0.0160127
641.531	0.0159828
641.609	0.0159336
641.687	0.0159309
641.765	0.0160139
641.843	0.0161061
641.922	0.0160545
642.000	0.0159719
642.078	0.0160260
642.156	0.0159914
642.234	0.0160060
642.312	0.0159595
642.390	0.0159240
642.468	0.0159018
642.547	0.0160629
642.625	0.0158316
642.703	0.0159299
642.781	0.0160729
642.859	0.0160062
642.937	0.0160545
643.015	0.0159395
643.093	0.0159753
643.172	0.0159937
643.250	0.0160188
643.328	0.0160267
643.406	0.0160013
643.484	0.0160162
643.562	0.0159016
643.640	0.0159766
643.718	0.0159120
643.797	0.0159068
643.875	0.0160562
643.953	0.0160274
644.031	0.0159109
644.109	0.0160376
644.187	0.0160694
644.265	0.0159740
644.343	0.0160922
644.422	0.0160448
644.500	0.0158859
644.578	0.0161005
644.656	0.0159177
644.734	0.0158678
644.812	0.0159310
644.890	0.0158970
644.968	0.0160205
645.047	0.0160674
645.125	0.0160223
645.203	0.0158739
645.281	0.0160406
645.359	0.0159298
645.437	0.0160419
645.515	0.0159509
645.593	0.0158490
645.672	0.0159107
645.750	0.0158935
645.828	0.0160445
645.906	0.0159242
645.984	0.0158862
646.062	0.0159653
646.140	0.0158577
646.218	0.0159444
646.297	0.0160127
646.375	0.0159681
646.453	0.0158347
646.531	0.0159415
646.609	0.0159485
646.687	0.0159805
646.765	0.0158829
646.843	0.0159119
646.922	0.0159033
647.000	0.0159544
647.078	0.0159277
647.156	0.0159007
647.234	0.0159007
647.312	0.0159228
647.390	0.0158893
647.468	0.0159718
647.547	0.0159167
647.625	0.0158280
647.703	0.0158514
647.781	0.0159052
647.859	0.0159250
647.937	0.0159525
648.015	0.0158466
648.093	0.0159549
648.172	0.0158627
648.250	0.0157165
648.328	0.0159478
648.406	0.0159538
648.484	0.0159421
648.562	0.0157736
648.640	0.0159060
648.718	0.0160748
648.797	0.0159608
648.875	0.0160231
648.953	0.0159206
649.031	0.0157617
649.109	0.0158854
649.187	0.0160832
649.265	0.0159277
649.343	0.0158881
649.422	0.0159633
649.500	0.0159824
649.578	0.0158002
649.656	0.0158340
649.734	0.0159537
649.812	0.0158327
649.890	0.0159801
649.968	0.0158587
650.047	0.0159798
650.125	0.0158720
650.203	0.0160966
650.281	0.0159213
650.359	0.0159066
650.437	0.0158385
650.515	0.0158605
650.593	0.0158373
650.672	0.0159906
650.750	0.0159587
650.828	0.0158723
650.906	0.0158486
650.984	0.0158240
651.062	0.0158717
651.140	0.0158150
651.218	0.0158425
651.297	0.0158952
651.375	0.0159164
651.453	0.0160148
651.531	0.0158451
651.609	0.0158894
651.687	0.0160048
651.765	0.0159432
651.843	0.0158233
651.922	0.0159800
652.000	0.0158765
652.078	0.0160287
652.156	0.0157122
652.234	0.0157646
652.312	0.0159374
652.390	0.0159071
652.468	0.0159026
652.547	0.0160008
652.625	0.0158514
652.703	0.0159917
652.781	0.0158421
652.859	0.0159200
652.937	0.0159165
653.015	0.0158738
653.093	0.0159531
653.172	0.0158936
653.250	0.0159767
653.328	0.0159516
653.406	0.0158675
653.484	0.0158968
653.562	0.0159739
653.640	0.0159486
653.718	0.0158672
653.797	0.0159576
653.875	0.0158354
653.953	0.0159068
654.031	0.0160458
654.109	0.0159994
654.187	0.0159641
654.265	0.0159062
654.343	0.0159064
654.422	0.0158395
654.500	0.0158498
654.578	0.0159551
654.656	0.0158969
654.734	0.0158331
654.812	0.0157925
654.890	0.0158497
654.968	0.0158701
655.047	0.0159262
655.125	0.0160144
655.203	0.0159696
655.281	0.0158104
655.359	0.0159545
655.437	0.0158334
655.515	0.0159919
655.593	0.0159649
655.672	0.0160409
655.750	0.0159121
655.828	0.0160464
655.906	0.0157578
655.984	0.0160164
656.062	0.0160254
656.140	0.0160297
656.218	0.0160016
656.297	0.0157769
656.375	0.0158610
656.453	0.0159623
656.531	0.0158398
656.609	0.0158407
656.687	0.0159277
656.765	0.0159137
656.843	0.0160024
656.922	0.0159664
657.000	0.0159451
657.078	0.0159519
657.156	0.0157668
657.234	0.0159487
657.312	0.0159168
657.390	0.0159014
657.468	0.0160169
657.547	0.0160454
657.625	0.0159129
657.703	0.0159356
657.781	0.0157933
657.859	0.0158048
657.937	0.0159357
658.015	0.0158582
658.093	0.0159386
658.172	0.0160989
658.250	0.0157687
658.328	0.0159140
658.406	0.0159833
658.484	0.0159358
658.562	0.0159990
658.640	0.0160520
658.718	0.0159650
658.797	0.0159065
658.875	0.0159761
658.953	0.0159581
659.031	0.0159743
659.109	0.0159569
659.187	0.0159245
659.265	0.0158663
659.343	0.0159000
659.422	0.0158677
659.500	0.0158066
659.578	0.0160118
659.656	0.0159988
659.734	0.0160054
659.812	0.0159382
659.890	0.0159771
659.968	0.0159355
660.047	0.0159424
660.125	0.0160511
660.203	0.0159419
660.281	0.0158308
660.359	0.0158569
660.437	0.0160131
660.515	0.0159535
660.593	0.0158813
660.672	0.0158284
660.750	0.0159206
660.828	0.0159031
660.906	0.0158656
660.984	0.0160402
661.062	0.0159559
661.140	0.0159589
661.218	0.0159277
661.297	0.0158838
661.375	0.0159145
661.453	0.0160339
661.531	0.0159122
661.609	0.0160028
661.687	0.0158896
661.765	0.0159573
661.843	0.0158578
661.922	0.0159466
662.000	0.0157784
662.078	0.0159822
662.156	0.0159712
662.234	0.0158577
662.312	0.0160123
662.390	0.0159241
662.468	0.0158727
662.547	0.0158466
662.625	0.0158890
662.703	0.0159865
662.781	0.0159593
662.859	0.0159480
662.937	0.0160477
663.015	0.0160854
663.093	0.0159209
663.172	0.0159193
663.250	0.0157876
663.328	0.0158665
663.406	0.0158371
663.484	0.0159034
663.562	0.0159425
663.640	0.0159641
663.718	0.0160546
663.797	0.0158842
663.875	0.0159174
663.953	0.0160699
664.031	0.0159432
664.109	0.0158531
664.187	0.0159013
664.265	0.0158968
664.343	0.0159898
664.422	0.0159744
664.500	0.0158770
664.578	0.0158878
664.656	0.0159287
664.734	0.0159023
664.812	0.0158084
664.890	0.0159544
664.968	0.0158728
665.047	0.0159231
665.125	0.0160219
665.203	0.0159001
665.281	0.0158559
665.359	0.0158909
665.437	0.0158966
665.515	0.0160756
665.593	0.0159132
665.672	0.0159379
665.750	0.0158042
665.828	0.0159740
665.906	0.0160086
665.984	0.0158817
666.062	0.0159063
666.140	0.0158788
666.218	0.0159133
666.297	0.0159425
666.375	0.0159243
666.453	0.0159695
666.531	0.0161604
666.609	0.0159428
666.687	0.0158696
666.765	0.0159214
666.843	0.0158215
666.922	0.0157538
667.000	0.0159993
667.078	0.0160223
667.156	0.0158337
667.234	0.0158040
667.312	0.0159926
667.390	0.0158772
667.468	0.0158550
667.547	0.0159820
667.625	0.0159373
667.703	0.0159884
667.781	0.0158500
667.859	0.0157532
667.937	0.0159260
668.015	0.0159280
668.093	0.0158413
668.172	0.0159134
668.250	0.0159031
668.328	0.0159351
668.406	0.0159041
668.484	0.0157079
668.562	0.0158813
668.640	0.0158276
668.718	0.0158427
668.797	0.0157877
668.875	0.0158485
668.953	0.0159246
669.031	0.0158269
669.109	0.0159616
669.187	0.0158608
669.265	0.0158165
669.343	0.0159217
669.422	0.0158995
669.500	0.0159279
669.578	0.0159840
669.656	0.0158342
669.734	0.0157365
669.812	0.0158698
669.890	0.0159764
669.968	0.0159882
670.047	0.0157928
670.125	0.0157717
670.203	0.0159564
670.281	0.0158584
670.359	0.0158018
670.437	0.0159464
670.515	0.0158443
670.593	0.0159782
670.672	0.0159393
670.750	0.0158357
670.828	0.0159085
670.906	0.0157273
670.984	0.0158502
671.062	0.0158363
671.140	0.0158778
671.218	0.0158472
671.297	0.0158897
671.375	0.0157449
671.453	0.0158543
671.531	0.0158430
671.609	0.0157998
671.687	0.0158006
671.765	0.0158693
671.843	0.0158848
671.922	0.0158727
672.000	0.0159051
672.078	0.0159530
672.156	0.0158528
672.234	0.0159201
672.312	0.0159224
672.390	0.0159650
672.468	0.0161348
672.547	0.0158793
672.625	0.0158266
672.703	0.0158025
672.781	0.0157559
672.859	0.0159921
672.937	0.0159016
673.015	0.0159217
673.093	0.0159245
673.172	0.0159457
673.250	0.0157988
673.328	0.0159111
673.406	0.0159399
673.484	0.0159344
673.562	0.0158572
673.640	0.0158174
673.718	0.0158476
673.797	0.0158752
673.875	0.0158302
673.953	0.0159942
674.031	0.0159244
674.109	0.0157167
674.187	0.0159066
674.265	0.0160447
674.343	0.0159051
674.422	0.0159300
674.500	0.0158534
674.578	0.0158830
674.656	0.0158823
674.734	0.0160394
674.812	0.0159007
674.890	0.0158051
674.968	0.0158543
675.047	0.0157994
675.125	0.0159143
675.203	0.0159232
675.281	0.0159949
675.359	0.0159666
675.437	0.0158923
675.515	0.0159023
675.593	0.0158724
675.672	0.0159071
675.750	0.0157655
675.828	0.0158389
675.906	0.0158714
675.984	0.0157594
676.062	0.0159992
676.140	0.0158698
676.218	0.0157865
676.297	0.0157514
676.375	0.0157750
676.453	0.0159690
676.531	0.0158978
676.609	0.0159502
676.687	0.0159495
676.765	0.0158170
676.843	0.0157725
676.922	0.0157585
677.000	0.0158215
677.078	0.0159886
677.156	0.0158900
677.234	0.0158434
677.312	0.0159999
677.390	0.0160075
677.468	0.0159429
677.547	0.0160054
677.625	0.0160062
677.703	0.0159682
677.781	0.0160085
677.859	0.0160888
677.937	0.0159649
678.015	0.0159691
678.093	0.0159461
678.172	0.0160389
678.250	0.0160391
678.328	0.0159868
678.406	0.0160030
678.484	0.0160127
678.562	0.0159850
678.640	0.0159912
678.718	0.0161211
678.797	0.0159382
678.875	0.0158347
678.953	0.0159172
679.031	0.0160432
679.109	0.0160175
679.187	0.0158989
679.265	0.0159341
679.343	0.0158971
679.422	0.0158643
679.500	0.0159303
679.578	0.0159676
679.656	0.0159566
679.734	0.0160086
679.812	0.0159204
679.890	0.0158841
679.968	0.0159094
680.047	0.0158617
680.125	0.0157929
680.203	0.0159032
680.281	0.0160651
680.359	0.0158521
680.437	0.0159196
680.515	0.0160070
680.593	0.0158666
680.672	0.0159286
680.750	0.0160312
680.828	0.0159867
680.906	0.0159599
680.984	0.0159709
681.062	0.0159944
681.140	0.0160522
681.218	0.0160917
681.297	0.0158336
681.375	0.0160219
681.453	0.0159771
681.531	0.0160326
681.609	0.0159419
681.687	0.0159689
681.765	0.0159974
681.843	0.0159480
681.922	0.0159872
682.000	0.0159260
682.078	0.0160384
682.156	0.0160484
682.234	0.0159290
682.312	0.0158958
682.390	0.0157979
682.468	0.0158624
682.547	0.0160513
682.625	0.0158041
682.703	0.0158303
682.781	0.0159738
682.859	0.0158833
682.937	0.0158627
683.015	0.0158803
683.093	0.0158322
683.172	0.0158257
683.250	0.0158746
683.328	0.0158664
683.406	0.0157911
683.484	0.0158118
683.562	0.0158622
683.640	0.0158617
683.718	0.0159223
683.797	0.0159293
683.875	0.0159238
683.953	0.0157604
684.031	0.0159296
684.109	0.0157972
684.187	0.0159199
684.265	0.0160307
684.343	0.0158217
684.422	0.0158710
684.500	0.0158197
684.578	0.0158173
684.656	0.0159052
684.734	0.0158340
684.812	0.0160647
684.890	0.0158369
684.968	0.0158986
685.047	0.0158720
685.125	0.0158481
685.203	0.0159076
685.281	0.0160532
685.359	0.0159341
685.437	0.0158852
685.515	0.0158221
685.593	0.0159515
685.672	0.0159535
