06/13/2022	14:57:34	Ver.	4.1	UNKNOWN
Optical Delay	599.968395	Delta X		0.078125	Sweeps	1	Scan Rate	0/0
Coordinates	Axis 1	NaN	Axis 2	NaN	Axis 3	NaN	Axis 4	NaN	Axis 5	NaN	Axis 6	0.000000
TX Power	0.000000	RX Power	0.000000

599.968	0.0157830
600.047	0.0157709
600.125	0.0158488
600.203	0.0157876
600.281	0.0158156
600.359	0.0156975
600.437	0.0158780
600.515	0.0157638
600.593	0.0157761
600.672	0.0156332
600.750	0.0158420
600.828	0.0157993
600.906	0.0158440
600.984	0.0158419
601.062	0.0156731
601.140	0.0156554
601.218	0.0157614
601.297	0.0158414
601.375	0.0158681
601.453	0.0158068
601.531	0.0157173
601.609	0.0157018
601.687	0.0158423
601.765	0.0159058
601.843	0.0158472
601.922	0.0157777
602.000	0.0158040
602.078	0.0156982
602.156	0.0157042
602.234	0.0158251
602.312	0.0156812
602.390	0.0157009
602.468	0.0156999
602.547	0.0157367
602.625	0.0157330
602.703	0.0157822
602.781	0.0158616
602.859	0.0158475
602.937	0.0158721
603.015	0.0157798
603.093	0.0156931
603.172	0.0157391
603.250	0.0156555
603.328	0.0157373
603.406	0.0157626
603.484	0.0157929
603.562	0.0157587
603.640	0.0158797
603.718	0.0157205
603.797	0.0157275
603.875	0.0158536
603.953	0.0158604
604.031	0.0158967
604.109	0.0157470
604.187	0.0157855
604.265	0.0156662
604.343	0.0158418
604.422	0.0158221
604.500	0.0157057
604.578	0.0158542
604.656	0.0157926
604.734	0.0157632
604.812	0.0157612
604.890	0.0158131
604.968	0.0158296
605.047	0.0157789
605.125	0.0158470
605.203	0.0158799
605.281	0.0157967
605.359	0.0158115
605.437	0.0157742
605.515	0.0157470
605.593	0.0158174
605.672	0.0157967
605.750	0.0158865
605.828	0.0158217
605.906	0.0157809
605.984	0.0156919
606.062	0.0158360
606.140	0.0158035
606.218	0.0156235
606.297	0.0157950
606.375	0.0157668
606.453	0.0157475
606.531	0.0157941
606.609	0.0157124
606.687	0.0157137
606.765	0.0157880
606.843	0.0158635
606.922	0.0157528
607.000	0.0158034
607.078	0.0158260
607.156	0.0158816
607.234	0.0157796
607.312	0.0158437
607.390	0.0157866
607.468	0.0158221
607.547	0.0158047
607.625	0.0158547
607.703	0.0159000
607.781	0.0158051
607.859	0.0157849
607.937	0.0157574
608.015	0.0158018
608.093	0.0158114
608.172	0.0157160
608.250	0.0157967
608.328	0.0159728
608.406	0.0159051
608.484	0.0158904
608.562	0.0158591
608.640	0.0157789
608.718	0.0157796
608.797	0.0157647
608.875	0.0159410
608.953	0.0158219
609.031	0.0158372
609.109	0.0157640
609.187	0.0157977
609.265	0.0157628
609.343	0.0158351
609.422	0.0158168
609.500	0.0157561
609.578	0.0156773
609.656	0.0158190
609.734	0.0158003
609.812	0.0157395
609.890	0.0158881
609.968	0.0158420
610.047	0.0155876
610.125	0.0156130
610.203	0.0157979
610.281	0.0158222
610.359	0.0158338
610.437	0.0158981
610.515	0.0158488
610.593	0.0157942
610.672	0.0158632
610.750	0.0156886
610.828	0.0156525
610.906	0.0156902
610.984	0.0157713
611.062	0.0157580
611.140	0.0157722
611.218	0.0157973
611.297	0.0156595
611.375	0.0157841
611.453	0.0157646
611.531	0.0157699
611.609	0.0158508
611.687	0.0158134
611.765	0.0159093
611.843	0.0156185
611.922	0.0156364
612.000	0.0158533
612.078	0.0158445
612.156	0.0158583
612.234	0.0158511
612.312	0.0156955
612.390	0.0158115
612.468	0.0158452
612.547	0.0156931
612.625	0.0157442
612.703	0.0158752
612.781	0.0158638
612.859	0.0158247
612.937	0.0158598
613.015	0.0157325
613.093	0.0158489
613.172	0.0158083
613.250	0.0158382
613.328	0.0157790
613.406	0.0158055
613.484	0.0158432
613.562	0.0157291
613.640	0.0158749
613.718	0.0157552
613.797	0.0158568
613.875	0.0158315
613.953	0.0158631
614.031	0.0157732
614.109	0.0157949
614.187	0.0157621
614.265	0.0157865
614.343	0.0157565
614.422	0.0157740
614.500	0.0157375
614.578	0.0156273
614.656	0.0157001
614.734	0.0159364
614.812	0.0157937
614.890	0.0156302
614.968	0.0157597
615.047	0.0158542
615.125	0.0158017
615.203	0.0157999
615.281	0.0157703
615.359	0.0158523
615.437	0.0157455
615.515	0.0158198
615.593	0.0158342
615.672	0.0157973
615.750	0.0157458
615.828	0.0157582
615.906	0.0157939
615.984	0.0157877
616.062	0.0157929
616.140	0.0157893
616.218	0.0157776
616.297	0.0157578
616.375	0.0158079
616.453	0.0155819
616.531	0.0157839
616.609	0.0158705
616.687	0.0159261
616.765	0.0159318
616.843	0.0158062
616.922	0.0157874
617.000	0.0159038
617.078	0.0157922
617.156	0.0157887
617.234	0.0158699
617.312	0.0157628
617.390	0.0157478
617.468	0.0158922
617.547	0.0158961
617.625	0.0156443
617.703	0.0158676
617.781	0.0158562
617.859	0.0156182
617.937	0.0159148
618.015	0.0158630
618.093	0.0158870
618.172	0.0158840
618.250	0.0157504
618.328	0.0157974
618.406	0.0158097
618.484	0.0158572
618.562	0.0157568
618.640	0.0157876
618.718	0.0157052
618.797	0.0156779
618.875	0.0157227
618.953	0.0157592
619.031	0.0157648
619.109	0.0158786
619.187	0.0157109
619.265	0.0157731
619.343	0.0158902
619.422	0.0156585
619.500	0.0158592
619.578	0.0157852
619.656	0.0157354
619.734	0.0157997
619.812	0.0158908
619.890	0.0159491
619.968	0.0158234
620.047	0.0158247
620.125	0.0156343
620.203	0.0156845
620.281	0.0157156
620.359	0.0156823
620.437	0.0156229
620.515	0.0156605
620.593	0.0157027
620.672	0.0157281
620.750	0.0157358
620.828	0.0157705
620.906	0.0157605
620.984	0.0157211
621.062	0.0156519
621.140	0.0157668
621.218	0.0156860
621.297	0.0157417
621.375	0.0157482
621.453	0.0157451
621.531	0.0157475
621.609	0.0158024
621.687	0.0156965
621.765	0.0157993
621.843	0.0156403
621.922	0.0157065
622.000	0.0157391
622.078	0.0158289
622.156	0.0156053
622.234	0.0155510
622.312	0.0157176
622.390	0.0157879
622.468	0.0157490
622.547	0.0156849
622.625	0.0157009
622.703	0.0157700
622.781	0.0157339
622.859	0.0156850
622.937	0.0159438
623.015	0.0157732
623.093	0.0157817
623.172	0.0157682
623.250	0.0156839
623.328	0.0156683
623.406	0.0157782
623.484	0.0158375
623.562	0.0157037
623.640	0.0155939
623.718	0.0158553
623.797	0.0157937
623.875	0.0157535
623.953	0.0156448
624.031	0.0157294
624.109	0.0157288
624.187	0.0156530
624.265	0.0157326
624.343	0.0158392
624.422	0.0157437
624.500	0.0158514
624.578	0.0158185
624.656	0.0156222
624.734	0.0158253
624.812	0.0157269
624.890	0.0157104
624.968	0.0156598
625.047	0.0155962
625.125	0.0157136
625.203	0.0156981
625.281	0.0158572
625.359	0.0158569
625.437	0.0157883
625.515	0.0158171
625.593	0.0157857
625.672	0.0156848
625.750	0.0157126
625.828	0.0157756
625.906	0.0156831
625.984	0.0156763
626.062	0.0158132
626.140	0.0157225
626.218	0.0156873
626.297	0.0157175
626.375	0.0156027
626.453	0.0158035
626.531	0.0158410
626.609	0.0156544
626.687	0.0157225
626.765	0.0157384
626.843	0.0157643
626.922	0.0158143
627.000	0.0157072
627.078	0.0157134
627.156	0.0157101
627.234	0.0158576
627.312	0.0158128
627.390	0.0158093
627.468	0.0158450
627.547	0.0157148
627.625	0.0157581
627.703	0.0156556
627.781	0.0157486
627.859	0.0157673
627.937	0.0156831
628.015	0.0157639
628.093	0.0157062
628.172	0.0158177
628.250	0.0157152
628.328	0.0157916
628.406	0.0156461
628.484	0.0157303
628.562	0.0155856
628.640	0.0156634
628.718	0.0157157
628.797	0.0157597
628.875	0.0157051
628.953	0.0156008
629.031	0.0157085
629.109	0.0157028
629.187	0.0157540
629.265	0.0157569
629.343	0.0157913
629.422	0.0157673
629.500	0.0156731
629.578	0.0157527
629.656	0.0156705
629.734	0.0157950
629.812	0.0157639
629.890	0.0156977
629.968	0.0157114
630.047	0.0156846
630.125	0.0157894
630.203	0.0155465
630.281	0.0157664
630.359	0.0157207
630.437	0.0156274
630.515	0.0156475
630.593	0.0156902
630.672	0.0156393
630.750	0.0158234
630.828	0.0155651
630.906	0.0157571
630.984	0.0157693
631.062	0.0156318
631.140	0.0156503
631.218	0.0157753
631.297	0.0156467
631.375	0.0158038
631.453	0.0158154
631.531	0.0157655
631.609	0.0156860
631.687	0.0156293
631.765	0.0158783
631.843	0.0156705
631.922	0.0156023
632.000	0.0157267
632.078	0.0158395
632.156	0.0159156
632.234	0.0157616
632.312	0.0157389
632.390	0.0157295
632.468	0.0157579
632.547	0.0158091
632.625	0.0157913
632.703	0.0157373
632.781	0.0157239
632.859	0.0158949
632.937	0.0158043
633.015	0.0157598
633.093	0.0157312
633.172	0.0157845
633.250	0.0157102
633.328	0.0156224
633.406	0.0157780
633.484	0.0158694
633.562	0.0158301
633.640	0.0156997
633.718	0.0156934
633.797	0.0157513
633.875	0.0159131
633.953	0.0156490
634.031	0.0157933
634.109	0.0156680
634.187	0.0157833
634.265	0.0157727
634.343	0.0157911
634.422	0.0156561
634.500	0.0158041
634.578	0.0158865
634.656	0.0157587
634.734	0.0156662
634.812	0.0157747
634.890	0.0158084
634.968	0.0158717
635.047	0.0158249
635.125	0.0156432
635.203	0.0158137
635.281	0.0158713
635.359	0.0157899
635.437	0.0158175
635.515	0.0156404
635.593	0.0158012
635.672	0.0157511
635.750	0.0155695
635.828	0.0158916
635.906	0.0158025
635.984	0.0157382
636.062	0.0157810
636.140	0.0158112
636.218	0.0157138
636.297	0.0158141
636.375	0.0156883
636.453	0.0157985
636.531	0.0157864
636.609	0.0157348
636.687	0.0157434
636.765	0.0157993
636.843	0.0158496
636.922	0.0157967
637.000	0.0157183
637.078	0.0157705
637.156	0.0158663
637.234	0.0158121
637.312	0.0157241
637.390	0.0157161
637.468	0.0158312
637.547	0.0158089
637.625	0.0158045
637.703	0.0156814
637.781	0.0156940
637.859	0.0157930
637.937	0.0157923
638.015	0.0158002
638.093	0.0157923
638.172	0.0157690
638.250	0.0158102
638.328	0.0157904
638.406	0.0158069
638.484	0.0157843
638.562	0.0157114
638.640	0.0157247
638.718	0.0157407
638.797	0.0157774
638.875	0.0157291
638.953	0.0157098
639.031	0.0157828
639.109	0.0157833
639.187	0.0157326
639.265	0.0156863
639.343	0.0157746
639.422	0.0157281
639.500	0.0156749
639.578	0.0157391
639.656	0.0156900
639.734	0.0156001
639.812	0.0157491
639.890	0.0157310
639.968	0.0157460
640.047	0.0158547
640.125	0.0157481
640.203	0.0156828
640.281	0.0156756
640.359	0.0157492
640.437	0.0158298
640.515	0.0156391
640.593	0.0156898
640.672	0.0157178
640.750	0.0157005
640.828	0.0157143
640.906	0.0157752
640.984	0.0157449
641.062	0.0157159
641.140	0.0155848
641.218	0.0158035
641.297	0.0157834
641.375	0.0157971
641.453	0.0156840
641.531	0.0158591
641.609	0.0157347
641.687	0.0158165
641.765	0.0158521
641.843	0.0157127
641.922	0.0157272
642.000	0.0156997
642.078	0.0158874
642.156	0.0157875
642.234	0.0157176
642.312	0.0158775
642.390	0.0157413
642.468	0.0157904
642.547	0.0158910
642.625	0.0156676
642.703	0.0157924
642.781	0.0158062
642.859	0.0157170
642.937	0.0157941
643.015	0.0158331
643.093	0.0158125
643.172	0.0157240
643.250	0.0158400
643.328	0.0158253
643.406	0.0156713
643.484	0.0157173
643.562	0.0159589
643.640	0.0157381
643.718	0.0157580
643.797	0.0157944
643.875	0.0156015
643.953	0.0157616
644.031	0.0157448
644.109	0.0157417
644.187	0.0157899
644.265	0.0158554
644.343	0.0157147
644.422	0.0158111
644.500	0.0158440
644.578	0.0157035
644.656	0.0157221
644.734	0.0157065
644.812	0.0157276
644.890	0.0157816
644.968	0.0157433
645.047	0.0157878
645.125	0.0157038
645.203	0.0157641
645.281	0.0156350
645.359	0.0156498
645.437	0.0156624
645.515	0.0157531
645.593	0.0157339
645.672	0.0157042
645.750	0.0159066
645.828	0.0158018
645.906	0.0157290
645.984	0.0157455
646.062	0.0157423
646.140	0.0157203
646.218	0.0157020
646.297	0.0157344
646.375	0.0156679
646.453	0.0157567
646.531	0.0157281
646.609	0.0156796
646.687	0.0157307
646.765	0.0158724
646.843	0.0158228
646.922	0.0157082
647.000	0.0155933
647.078	0.0156161
647.156	0.0158295
647.234	0.0157600
647.312	0.0158271
647.390	0.0157452
647.468	0.0156710
647.547	0.0157528
647.625	0.0157983
647.703	0.0157623
647.781	0.0158254
647.859	0.0157805
647.937	0.0158527
648.015	0.0158817
648.093	0.0157489
648.172	0.0157006
648.250	0.0157048
648.328	0.0158049
648.406	0.0157123
648.484	0.0156186
648.562	0.0156808
648.640	0.0157669
648.718	0.0157695
648.797	0.0157466
648.875	0.0157137
648.953	0.0157176
649.031	0.0156981
649.109	0.0157318
649.187	0.0155965
649.265	0.0157090
649.343	0.0158463
649.422	0.0157658
649.500	0.0157325
649.578	0.0157599
649.656	0.0158156
649.734	0.0157176
649.812	0.0156982
649.890	0.0157684
649.968	0.0156799
650.047	0.0157468
650.125	0.0158527
650.203	0.0158500
650.281	0.0156989
650.359	0.0156895
650.437	0.0157981
650.515	0.0156379
650.593	0.0157872
650.672	0.0158029
650.750	0.0159092
650.828	0.0157876
650.906	0.0156646
650.984	0.0157289
651.062	0.0157371
651.140	0.0158160
651.218	0.0158514
651.297	0.0157727
651.375	0.0159252
651.453	0.0159384
651.531	0.0156764
651.609	0.0157430
651.687	0.0157944
651.765	0.0158558
651.843	0.0158160
651.922	0.0157520
652.000	0.0157699
652.078	0.0158015
652.156	0.0157919
652.234	0.0158837
652.312	0.0157960
652.390	0.0158498
652.468	0.0158020
652.547	0.0157519
652.625	0.0157103
652.703	0.0156461
652.781	0.0156071
652.859	0.0157345
652.937	0.0158131
653.015	0.0158598
653.093	0.0156162
653.172	0.0158418
653.250	0.0157761
653.328	0.0157247
653.406	0.0157185
653.484	0.0158095
653.562	0.0157760
653.640	0.0157296
653.718	0.0156853
653.797	0.0155798
653.875	0.0156536
653.953	0.0157719
654.031	0.0156382
654.109	0.0158050
654.187	0.0157104
654.265	0.0157821
654.343	0.0156759
654.422	0.0157571
654.500	0.0157519
654.578	0.0158107
654.656	0.0157170
654.734	0.0157438
654.812	0.0157314
654.890	0.0155469
654.968	0.0157707
655.047	0.0158367
655.125	0.0158076
655.203	0.0157433
655.281	0.0156902
655.359	0.0158601
655.437	0.0158260
655.515	0.0156963
655.593	0.0157875
655.672	0.0157278
655.750	0.0158669
655.828	0.0156776
655.906	0.0157780
655.984	0.0156547
656.062	0.0158399
656.140	0.0158746
656.218	0.0157046
656.297	0.0157114
656.375	0.0157640
656.453	0.0155798
656.531	0.0156987
656.609	0.0158085
656.687	0.0156637
656.765	0.0156522
656.843	0.0157296
656.922	0.0157428
657.000	0.0157023
657.078	0.0155556
657.156	0.0157204
657.234	0.0156219
657.312	0.0155569
657.390	0.0157785
657.468	0.0155353
657.547	0.0156161
657.625	0.0156705
657.703	0.0156953
657.781	0.0158165
657.859	0.0157823
657.937	0.0157761
658.015	0.0156084
658.093	0.0157219
658.172	0.0157928
658.250	0.0157050
658.328	0.0157580
658.406	0.0156715
658.484	0.0156927
658.562	0.0156918
658.640	0.0157259
658.718	0.0157238
658.797	0.0157475
658.875	0.0157125
658.953	0.0156342
659.031	0.0157944
659.109	0.0158696
659.187	0.0157439
659.265	0.0158475
659.343	0.0157913
659.422	0.0158858
659.500	0.0157991
659.578	0.0157362
659.656	0.0158485
659.734	0.0157291
659.812	0.0158678
659.890	0.0157103
659.968	0.0157047
660.047	0.0157031
660.125	0.0158684
660.203	0.0158073
660.281	0.0157687
660.359	0.0157186
660.437	0.0158982
660.515	0.0157299
660.593	0.0156950
660.672	0.0158831
660.750	0.0157733
660.828	0.0158008
660.906	0.0159696
660.984	0.0157174
661.062	0.0158382
661.140	0.0157423
661.218	0.0156218
661.297	0.0157835
661.375	0.0158339
661.453	0.0157002
661.531	0.0157511
661.609	0.0158555
661.687	0.0157694
661.765	0.0157608
661.843	0.0157030
661.922	0.0157198
662.000	0.0157453
662.078	0.0158208
662.156	0.0157834
662.234	0.0158342
662.312	0.0157630
662.390	0.0157150
662.468	0.0157520
662.547	0.0158504
662.625	0.0157429
662.703	0.0157602
662.781	0.0156796
662.859	0.0158045
662.937	0.0156757
663.015	0.0159656
663.093	0.0158015
663.172	0.0158321
663.250	0.0158613
663.328	0.0159117
663.406	0.0157527
663.484	0.0156311
663.562	0.0157394
663.640	0.0156937
663.718	0.0157578
663.797	0.0159686
663.875	0.0157189
663.953	0.0157117
664.031	0.0158659
664.109	0.0158054
664.187	0.0158619
664.265	0.0157954
664.343	0.0158742
664.422	0.0158498
664.500	0.0157586
664.578	0.0158018
664.656	0.0157535
664.734	0.0157896
664.812	0.0157422
664.890	0.0156441
664.968	0.0158113
665.047	0.0158075
665.125	0.0157871
665.203	0.0158678
665.281	0.0157395
665.359	0.0158072
665.437	0.0157722
665.515	0.0157183
665.593	0.0157684
665.672	0.0156370
665.750	0.0158544
665.828	0.0158041
665.906	0.0158375
665.984	0.0159146
666.062	0.0157767
666.140	0.0156966
666.218	0.0157800
666.297	0.0157249
666.375	0.0158283
666.453	0.0156971
666.531	0.0157319
666.609	0.0158006
666.687	0.0157266
666.765	0.0157410
666.843	0.0158111
666.922	0.0157114
667.000	0.0157827
667.078	0.0157795
667.156	0.0157990
667.234	0.0157602
667.312	0.0158572
667.390	0.0158431
667.468	0.0158538
667.547	0.0157641
667.625	0.0156901
667.703	0.0158199
667.781	0.0158018
667.859	0.0158567
667.937	0.0159769
668.015	0.0157988
668.093	0.0158409
668.172	0.0158781
668.250	0.0157056
668.328	0.0158723
668.406	0.0156936
668.484	0.0157023
668.562	0.0157584
668.640	0.0157388
668.718	0.0157716
668.797	0.0158220
668.875	0.0158227
668.953	0.0159126
669.031	0.0157751
669.109	0.0157001
669.187	0.0158312
669.265	0.0158843
669.343	0.0158034
669.422	0.0158000
669.500	0.0158010
669.578	0.0158746
669.656	0.0158338
669.734	0.0158165
669.812	0.0158545
669.890	0.0157277
669.968	0.0158176
670.047	0.0158894
670.125	0.0158398
670.203	0.0158243
670.281	0.0158162
670.359	0.0158379
670.437	0.0158640
670.515	0.0158805
670.593	0.0157941
670.672	0.0157358
670.750	0.0158544
670.828	0.0159303
670.906	0.0157520
670.984	0.0158572
671.062	0.0158212
671.140	0.0157705
671.218	0.0157856
671.297	0.0159100
671.375	0.0157500
671.453	0.0158022
671.531	0.0157734
671.609	0.0159071
671.687	0.0157478
671.765	0.0155743
671.843	0.0157642
671.922	0.0158141
672.000	0.0156380
672.078	0.0157220
672.156	0.0156543
672.234	0.0159034
672.312	0.0157497
672.390	0.0157266
672.468	0.0158443
672.547	0.0157114
672.625	0.0157370
672.703	0.0156777
672.781	0.0157825
672.859	0.0156812
672.937	0.0155997
673.015	0.0157061
673.093	0.0157521
673.172	0.0156281
673.250	0.0157610
673.328	0.0156316
673.406	0.0156992
673.484	0.0158079
673.562	0.0157962
673.640	0.0157147
673.718	0.0157255
673.797	0.0157735
673.875	0.0157905
673.953	0.0157915
674.031	0.0156711
674.109	0.0158308
674.187	0.0157556
674.265	0.0157669
674.343	0.0157893
674.422	0.0159013
674.500	0.0157045
674.578	0.0157634
674.656	0.0157461
674.734	0.0158034
674.812	0.0157298
674.890	0.0157900
674.968	0.0157258
675.047	0.0158086
675.125	0.0157366
675.203	0.0157922
675.281	0.0157339
675.359	0.0157944
675.437	0.0158086
675.515	0.0158494
675.593	0.0158768
675.672	0.0157630
675.750	0.0157175
675.828	0.0158733
675.906	0.0157648
675.984	0.0156880
676.062	0.0157899
676.140	0.0157247
676.218	0.0157552
676.297	0.0157955
676.375	0.0157880
676.453	0.0157408
676.531	0.0159276
676.609	0.0158263
676.687	0.0158115
676.765	0.0157538
676.843	0.0157660
676.922	0.0158701
677.000	0.0157930
677.078	0.0157343
677.156	0.0157984
677.234	0.0158121
677.312	0.0156655
677.390	0.0158582
677.468	0.0158594
677.547	0.0158077
677.625	0.0156612
677.703	0.0157590
677.781	0.0157851
677.859	0.0157101
677.937	0.0158064
678.015	0.0157627
678.093	0.0158318
678.172	0.0157925
678.250	0.0158126
678.328	0.0158029
678.406	0.0157336
678.484	0.0158400
678.562	0.0158122
678.640	0.0157682
678.718	0.0157008
678.797	0.0157497
678.875	0.0157670
678.953	0.0156316
679.031	0.0156788
679.109	0.0157230
679.187	0.0158950
679.265	0.0158909
679.343	0.0157192
679.422	0.0157927
679.500	0.0157756
679.578	0.0157025
679.656	0.0157484
679.734	0.0158978
679.812	0.0157185
679.890	0.0157375
679.968	0.0158315
680.047	0.0157073
680.125	0.0158885
680.203	0.0158110
680.281	0.0157142
680.359	0.0157658
680.437	0.0158170
680.515	0.0158414
680.593	0.0157936
680.672	0.0157951
680.750	0.0158775
680.828	0.0157294
680.906	0.0157835
680.984	0.0158762
681.062	0.0156973
681.140	0.0157491
681.218	0.0158292
681.297	0.0158289
681.375	0.0156821
681.453	0.0156736
681.531	0.0158608
681.609	0.0158762
681.687	0.0157307
681.765	0.0157448
681.843	0.0157941
681.922	0.0159269
682.000	0.0157818
682.078	0.0157290
682.156	0.0158079
682.234	0.0157243
682.312	0.0157609
682.390	0.0158148
682.468	0.0157667
682.547	0.0156982
682.625	0.0157371
682.703	0.0158640
682.781	0.0158418
682.859	0.0158194
682.937	0.0157598
683.015	0.0158718
683.093	0.0159312
683.172	0.0159982
683.250	0.0159512
683.328	0.0157584
683.406	0.0159158
683.484	0.0159013
683.562	0.0158543
683.640	0.0160035
683.718	0.0159412
683.797	0.0159853
683.875	0.0158634
683.953	0.0157275
684.031	0.0157892
684.109	0.0160152
684.187	0.0159150
684.265	0.0158173
684.343	0.0158661
684.422	0.0160271
684.500	0.0158157
684.578	0.0159154
684.656	0.0158543
684.734	0.0158697
684.812	0.0159370
684.890	0.0160098
684.968	0.0159684
685.047	0.0160047
685.125	0.0157849
685.203	0.0159140
685.281	0.0159428
685.359	0.0157176
685.437	0.0159019
685.515	0.0158731
685.593	0.0158883
685.672	0.0158718
