06/13/2022	14:30:17	Ver.	4.1	UNKNOWN
Optical Delay	599.968395	Delta X		0.078125	Sweeps	1	Scan Rate	0/0
Coordinates	Axis 1	NaN	Axis 2	NaN	Axis 3	NaN	Axis 4	NaN	Axis 5	NaN	Axis 6	0.000000
TX Power	0.000000	RX Power	0.000000

599.968	0.0157274
600.047	0.0157568
600.125	0.0156310
600.203	0.0156763
600.281	0.0156916
600.359	0.0158277
600.437	0.0158053
600.515	0.0157929
600.593	0.0158020
600.672	0.0157115
600.750	0.0157581
600.828	0.0158163
600.906	0.0156748
600.984	0.0157757
601.062	0.0157948
601.140	0.0157346
601.218	0.0158547
601.297	0.0157121
601.375	0.0157738
601.453	0.0157252
601.531	0.0158054
601.609	0.0157494
601.687	0.0156376
601.765	0.0157340
601.843	0.0158494
601.922	0.0157406
602.000	0.0157758
602.078	0.0156837
602.156	0.0158348
602.234	0.0157774
602.312	0.0158080
602.390	0.0158039
602.468	0.0158488
602.547	0.0157049
602.625	0.0158414
602.703	0.0157761
602.781	0.0157780
602.859	0.0157901
602.937	0.0157534
603.015	0.0158144
603.093	0.0157498
603.172	0.0157178
603.250	0.0156742
603.328	0.0157404
603.406	0.0157351
603.484	0.0157967
603.562	0.0157655
603.640	0.0158276
603.718	0.0156236
603.797	0.0156909
603.875	0.0157034
603.953	0.0158518
604.031	0.0157660
604.109	0.0156238
604.187	0.0157861
604.265	0.0156438
604.343	0.0157858
604.422	0.0157466
604.500	0.0157326
604.578	0.0157016
604.656	0.0157299
604.734	0.0157418
604.812	0.0158654
604.890	0.0157188
604.968	0.0155919
605.047	0.0157355
605.125	0.0157112
605.203	0.0157298
605.281	0.0157825
605.359	0.0157614
605.437	0.0155318
605.515	0.0156943
605.593	0.0158315
605.672	0.0157240
605.750	0.0154853
605.828	0.0155934
605.906	0.0156551
605.984	0.0158110
606.062	0.0156794
606.140	0.0158932
606.218	0.0158844
606.297	0.0157283
606.375	0.0156937
606.453	0.0157210
606.531	0.0156206
606.609	0.0157545
606.687	0.0157308
606.765	0.0156256
606.843	0.0155767
606.922	0.0156345
607.000	0.0157716
607.078	0.0157481
607.156	0.0157229
607.234	0.0155720
607.312	0.0157097
607.390	0.0158054
607.468	0.0157960
607.547	0.0156920
607.625	0.0156675
607.703	0.0157285
607.781	0.0157340
607.859	0.0157780
607.937	0.0159109
608.015	0.0156715
608.093	0.0157287
608.172	0.0157794
608.250	0.0157115
608.328	0.0156903
608.406	0.0157853
608.484	0.0156252
608.562	0.0157524
608.640	0.0157595
608.718	0.0156319
608.797	0.0156107
608.875	0.0156974
608.953	0.0157100
609.031	0.0157660
609.109	0.0157539
609.187	0.0157654
609.265	0.0158004
609.343	0.0157305
609.422	0.0158395
609.500	0.0157534
609.578	0.0156378
609.656	0.0156644
609.734	0.0156950
609.812	0.0156396
609.890	0.0157169
609.968	0.0156850
610.047	0.0157253
610.125	0.0158457
610.203	0.0158173
610.281	0.0157222
610.359	0.0156158
610.437	0.0157707
610.515	0.0158641
610.593	0.0157973
610.672	0.0157227
610.750	0.0156680
610.828	0.0156814
610.906	0.0158477
610.984	0.0158060
611.062	0.0158707
611.140	0.0156744
611.218	0.0157236
611.297	0.0157256
611.375	0.0156772
611.453	0.0156919
611.531	0.0157067
611.609	0.0157384
611.687	0.0156292
611.765	0.0157239
611.843	0.0157930
611.922	0.0157553
612.000	0.0157051
612.078	0.0157146
612.156	0.0156254
612.234	0.0157545
612.312	0.0156556
612.390	0.0157048
612.468	0.0157089
612.547	0.0158420
612.625	0.0157672
612.703	0.0156689
612.781	0.0156802
612.859	0.0157961
612.937	0.0157736
613.015	0.0156734
613.093	0.0157094
613.172	0.0156496
613.250	0.0155461
613.328	0.0157447
613.406	0.0157175
613.484	0.0157271
613.562	0.0157205
613.640	0.0157713
613.718	0.0155685
613.797	0.0158538
613.875	0.0156142
613.953	0.0156723
614.031	0.0157587
614.109	0.0156297
614.187	0.0156630
614.265	0.0157856
614.343	0.0157749
614.422	0.0157459
614.500	0.0158469
614.578	0.0156747
614.656	0.0157078
614.734	0.0156164
614.812	0.0157203
614.890	0.0157159
614.968	0.0156390
615.047	0.0156892
615.125	0.0156319
615.203	0.0157091
615.281	0.0157645
615.359	0.0157209
615.437	0.0157191
615.515	0.0159263
615.593	0.0156541
615.672	0.0156391
615.750	0.0158217
615.828	0.0157653
615.906	0.0157782
615.984	0.0157889
616.062	0.0157895
616.140	0.0157333
616.218	0.0156557
616.297	0.0156403
616.375	0.0157228
616.453	0.0156757
616.531	0.0156815
616.609	0.0157411
616.687	0.0156631
616.765	0.0156941
616.843	0.0157643
616.922	0.0158037
617.000	0.0158559
617.078	0.0157776
617.156	0.0157253
617.234	0.0156329
617.312	0.0156743
617.390	0.0156928
617.468	0.0157741
617.547	0.0157383
617.625	0.0157486
617.703	0.0157748
617.781	0.0158121
617.859	0.0157149
617.937	0.0157598
618.015	0.0156497
618.093	0.0157577
618.172	0.0156574
618.250	0.0157316
618.328	0.0158356
618.406	0.0158447
618.484	0.0157011
618.562	0.0157283
618.640	0.0158029
618.718	0.0156066
618.797	0.0156152
618.875	0.0158235
618.953	0.0157463
619.031	0.0156147
619.109	0.0156828
619.187	0.0158424
619.265	0.0156911
619.343	0.0157015
619.422	0.0157305
619.500	0.0157711
619.578	0.0156705
619.656	0.0156383
619.734	0.0158021
619.812	0.0157842
619.890	0.0156664
619.968	0.0157644
620.047	0.0158140
620.125	0.0156702
620.203	0.0156049
620.281	0.0158225
620.359	0.0156662
620.437	0.0157425
620.515	0.0157252
620.593	0.0155962
620.672	0.0157549
620.750	0.0158238
620.828	0.0157666
620.906	0.0157406
620.984	0.0158188
621.062	0.0157355
621.140	0.0155259
621.218	0.0156707
621.297	0.0158100
621.375	0.0157179
621.453	0.0157538
621.531	0.0155756
621.609	0.0158122
621.687	0.0158111
621.765	0.0156777
621.843	0.0157443
621.922	0.0157979
622.000	0.0157055
622.078	0.0156207
622.156	0.0157853
622.234	0.0157481
622.312	0.0157932
622.390	0.0156512
622.468	0.0158591
622.547	0.0156791
622.625	0.0156938
622.703	0.0157635
622.781	0.0157197
622.859	0.0156740
622.937	0.0158446
623.015	0.0157084
623.093	0.0157286
623.172	0.0156291
623.250	0.0156915
623.328	0.0156556
623.406	0.0158054
623.484	0.0157613
623.562	0.0157259
623.640	0.0156694
623.718	0.0156857
623.797	0.0158522
623.875	0.0156430
623.953	0.0156823
624.031	0.0156943
624.109	0.0156573
624.187	0.0156967
624.265	0.0156314
624.343	0.0156509
624.422	0.0157780
624.500	0.0157320
624.578	0.0157681
624.656	0.0156331
624.734	0.0157784
624.812	0.0156715
624.890	0.0158105
624.968	0.0157516
625.047	0.0156654
625.125	0.0157180
625.203	0.0156824
625.281	0.0158224
625.359	0.0156660
625.437	0.0157461
625.515	0.0157434
625.593	0.0157021
625.672	0.0157496
625.750	0.0157040
625.828	0.0156901
625.906	0.0157887
625.984	0.0156847
626.062	0.0157037
626.140	0.0157248
626.218	0.0157905
626.297	0.0157156
626.375	0.0156342
626.453	0.0156907
626.531	0.0157646
626.609	0.0156544
626.687	0.0156392
626.765	0.0157339
626.843	0.0156266
626.922	0.0156012
627.000	0.0156284
627.078	0.0157885
627.156	0.0155904
627.234	0.0156249
627.312	0.0155237
627.390	0.0157977
627.468	0.0157103
627.547	0.0157037
627.625	0.0157874
627.703	0.0156470
627.781	0.0155924
627.859	0.0157180
627.937	0.0156491
628.015	0.0156316
628.093	0.0156322
628.172	0.0156999
628.250	0.0156882
628.328	0.0157460
628.406	0.0158241
628.484	0.0156979
628.562	0.0156062
628.640	0.0157304
628.718	0.0158163
628.797	0.0158216
628.875	0.0156424
628.953	0.0157278
629.031	0.0158216
629.109	0.0156776
629.187	0.0156619
629.265	0.0157198
629.343	0.0156965
629.422	0.0157502
629.500	0.0157424
629.578	0.0157394
629.656	0.0157404
629.734	0.0158039
629.812	0.0157600
629.890	0.0158399
629.968	0.0158204
630.047	0.0157784
630.125	0.0157741
630.203	0.0158771
630.281	0.0157891
630.359	0.0157577
630.437	0.0157767
630.515	0.0156677
630.593	0.0156958
630.672	0.0156870
630.750	0.0157439
630.828	0.0157255
630.906	0.0157452
630.984	0.0158463
631.062	0.0156576
631.140	0.0156177
631.218	0.0157133
631.297	0.0155416
631.375	0.0156780
631.453	0.0157682
631.531	0.0157064
631.609	0.0156797
631.687	0.0158132
631.765	0.0157494
631.843	0.0156846
631.922	0.0157034
632.000	0.0157930
632.078	0.0158826
632.156	0.0156318
632.234	0.0156614
632.312	0.0158728
632.390	0.0157792
632.468	0.0156831
632.547	0.0157684
632.625	0.0156875
632.703	0.0157374
632.781	0.0156576
632.859	0.0156508
632.937	0.0157027
633.015	0.0157234
633.093	0.0157343
633.172	0.0157201
633.250	0.0157888
633.328	0.0157205
633.406	0.0156573
633.484	0.0156407
633.562	0.0157204
633.640	0.0156770
633.718	0.0157993
633.797	0.0157978
633.875	0.0157152
633.953	0.0156213
634.031	0.0158205
634.109	0.0158133
634.187	0.0155422
634.265	0.0155807
634.343	0.0156988
634.422	0.0157681
634.500	0.0157842
634.578	0.0156898
634.656	0.0157249
634.734	0.0156704
634.812	0.0156287
634.890	0.0156848
634.968	0.0156714
635.047	0.0157307
635.125	0.0157055
635.203	0.0156232
635.281	0.0156130
635.359	0.0158012
635.437	0.0157717
635.515	0.0156736
635.593	0.0156071
635.672	0.0157556
635.750	0.0158403
635.828	0.0156989
635.906	0.0156585
635.984	0.0157021
636.062	0.0157031
636.140	0.0156817
636.218	0.0157966
636.297	0.0157426
636.375	0.0157462
636.453	0.0156546
636.531	0.0157396
636.609	0.0157189
636.687	0.0157500
636.765	0.0157269
636.843	0.0156744
636.922	0.0156491
637.000	0.0157076
637.078	0.0157397
637.156	0.0155604
637.234	0.0156570
637.312	0.0159209
637.390	0.0156129
637.468	0.0157011
637.547	0.0158176
637.625	0.0157379
637.703	0.0156853
637.781	0.0157542
637.859	0.0156520
637.937	0.0156610
638.015	0.0156569
638.093	0.0156622
638.172	0.0158369
638.250	0.0156584
638.328	0.0157510
638.406	0.0156002
638.484	0.0157564
638.562	0.0156774
638.640	0.0157767
638.718	0.0157526
638.797	0.0156674
638.875	0.0156339
638.953	0.0156108
639.031	0.0156739
639.109	0.0157043
639.187	0.0158492
639.265	0.0156879
639.343	0.0156276
639.422	0.0155861
639.500	0.0158378
639.578	0.0157455
639.656	0.0156607
639.734	0.0157772
639.812	0.0156085
639.890	0.0156819
639.968	0.0157912
640.047	0.0157069
640.125	0.0157497
640.203	0.0156049
640.281	0.0157140
640.359	0.0158134
640.437	0.0157714
640.515	0.0158253
640.593	0.0156583
640.672	0.0156991
640.750	0.0157806
640.828	0.0156556
640.906	0.0156150
640.984	0.0157042
641.062	0.0157267
641.140	0.0156199
641.218	0.0156603
641.297	0.0157070
641.375	0.0158076
641.453	0.0157150
641.531	0.0156724
641.609	0.0156149
641.687	0.0157304
641.765	0.0157780
641.843	0.0157381
641.922	0.0157045
642.000	0.0157538
642.078	0.0157391
642.156	0.0156197
642.234	0.0156345
642.312	0.0156776
642.390	0.0157341
642.468	0.0156227
642.547	0.0157719
642.625	0.0156596
642.703	0.0157362
642.781	0.0156973
642.859	0.0157345
642.937	0.0156034
643.015	0.0157466
643.093	0.0157575
643.172	0.0157384
643.250	0.0156965
643.328	0.0157713
643.406	0.0157125
643.484	0.0157596
643.562	0.0156828
643.640	0.0157319
643.718	0.0157520
643.797	0.0156794
643.875	0.0156885
643.953	0.0156759
644.031	0.0157604
644.109	0.0156973
644.187	0.0158402
644.265	0.0157367
644.343	0.0156088
644.422	0.0156608
644.500	0.0157365
644.578	0.0156357
644.656	0.0156914
644.734	0.0157805
644.812	0.0157355
644.890	0.0158089
644.968	0.0156178
645.047	0.0157385
645.125	0.0157226
645.203	0.0158057
645.281	0.0158755
645.359	0.0156340
645.437	0.0157122
645.515	0.0157384
645.593	0.0156943
645.672	0.0157658
645.750	0.0158510
645.828	0.0157101
645.906	0.0155795
645.984	0.0156973
646.062	0.0157188
646.140	0.0158250
646.218	0.0156705
646.297	0.0156370
646.375	0.0156322
646.453	0.0156953
646.531	0.0157941
646.609	0.0156461
646.687	0.0157088
646.765	0.0157072
646.843	0.0156704
646.922	0.0157091
647.000	0.0157664
647.078	0.0157237
647.156	0.0157356
647.234	0.0157785
647.312	0.0156869
647.390	0.0156992
647.468	0.0157447
647.547	0.0156802
647.625	0.0156270
647.703	0.0157024
647.781	0.0157238
647.859	0.0156469
647.937	0.0156204
648.015	0.0157583
648.093	0.0156715
648.172	0.0156378
648.250	0.0158534
648.328	0.0157949
648.406	0.0157407
648.484	0.0156491
648.562	0.0156074
648.640	0.0156890
648.718	0.0157001
648.797	0.0157348
648.875	0.0156965
648.953	0.0156472
649.031	0.0157712
649.109	0.0157120
649.187	0.0156352
649.265	0.0157765
649.343	0.0156783
649.422	0.0157332
649.500	0.0156915
649.578	0.0157045
649.656	0.0157271
649.734	0.0158593
649.812	0.0157346
649.890	0.0157632
649.968	0.0157584
650.047	0.0156844
650.125	0.0157241
650.203	0.0158241
650.281	0.0157732
650.359	0.0156127
650.437	0.0155933
650.515	0.0157336
650.593	0.0157117
650.672	0.0156264
650.750	0.0157945
650.828	0.0156988
650.906	0.0156546
650.984	0.0156181
651.062	0.0157210
651.140	0.0156399
651.218	0.0156339
651.297	0.0158103
651.375	0.0157870
651.453	0.0157647
651.531	0.0158089
651.609	0.0157124
651.687	0.0157646
651.765	0.0156243
651.843	0.0157764
651.922	0.0157676
652.000	0.0157720
652.078	0.0156287
652.156	0.0157243
652.234	0.0157050
652.312	0.0156991
652.390	0.0157426
652.468	0.0158065
652.547	0.0157578
652.625	0.0158146
652.703	0.0157707
652.781	0.0156336
652.859	0.0157229
652.937	0.0158081
653.015	0.0156950
653.093	0.0157439
653.172	0.0158060
653.250	0.0157449
653.328	0.0157031
653.406	0.0155828
653.484	0.0156408
653.562	0.0156941
653.640	0.0156808
653.718	0.0157449
653.797	0.0156279
653.875	0.0157388
653.953	0.0158873
654.031	0.0157452
654.109	0.0157623
654.187	0.0155540
654.265	0.0156767
654.343	0.0157374
654.422	0.0157301
654.500	0.0157118
654.578	0.0157058
654.656	0.0157280
654.734	0.0156448
654.812	0.0157321
654.890	0.0158598
654.968	0.0157200
655.047	0.0157299
655.125	0.0155959
655.203	0.0156792
655.281	0.0157497
655.359	0.0157623
655.437	0.0156450
655.515	0.0157429
655.593	0.0157970
655.672	0.0156956
655.750	0.0155975
655.828	0.0156519
655.906	0.0156624
655.984	0.0157078
656.062	0.0156847
656.140	0.0157411
656.218	0.0157623
656.297	0.0157023
656.375	0.0157979
656.453	0.0156829
656.531	0.0156371
656.609	0.0157777
656.687	0.0156726
656.765	0.0156541
656.843	0.0157311
656.922	0.0156659
657.000	0.0156347
657.078	0.0157355
657.156	0.0157004
657.234	0.0157226
657.312	0.0156120
657.390	0.0156269
657.468	0.0156853
657.547	0.0156632
657.625	0.0156985
657.703	0.0157230
657.781	0.0157034
657.859	0.0157341
657.937	0.0156300
658.015	0.0157698
658.093	0.0156602
658.172	0.0156773
658.250	0.0157128
658.328	0.0156886
658.406	0.0154543
658.484	0.0156921
658.562	0.0158035
658.640	0.0157829
658.718	0.0156104
658.797	0.0157256
658.875	0.0155900
658.953	0.0156562
659.031	0.0156987
659.109	0.0157103
659.187	0.0156606
659.265	0.0156316
659.343	0.0156860
659.422	0.0157925
659.500	0.0156956
659.578	0.0156400
659.656	0.0157717
659.734	0.0156656
659.812	0.0157817
659.890	0.0157361
659.968	0.0155139
660.047	0.0157789
660.125	0.0155936
660.203	0.0156227
660.281	0.0157520
660.359	0.0157150
660.437	0.0155451
660.515	0.0156018
660.593	0.0157595
660.672	0.0157045
660.750	0.0158126
660.828	0.0156995
660.906	0.0156114
660.984	0.0155220
661.062	0.0157485
661.140	0.0157152
661.218	0.0155988
661.297	0.0156546
661.375	0.0156887
661.453	0.0155139
661.531	0.0156229
661.609	0.0157001
661.687	0.0156952
661.765	0.0156576
661.843	0.0156465
661.922	0.0156566
662.000	0.0156668
662.078	0.0156987
662.156	0.0156384
662.234	0.0157083
662.312	0.0157611
662.390	0.0157944
662.468	0.0156928
662.547	0.0157127
662.625	0.0156516
662.703	0.0156694
662.781	0.0156385
662.859	0.0157382
662.937	0.0157454
663.015	0.0155164
663.093	0.0156387
663.172	0.0157446
663.250	0.0157804
663.328	0.0156886
663.406	0.0157658
663.484	0.0158236
663.562	0.0155995
663.640	0.0157684
663.718	0.0156512
663.797	0.0156811
663.875	0.0155967
663.953	0.0158017
664.031	0.0155341
664.109	0.0156136
664.187	0.0157188
664.265	0.0156103
664.343	0.0156010
664.422	0.0155488
664.500	0.0155895
664.578	0.0157607
664.656	0.0156008
664.734	0.0156407
664.812	0.0156766
664.890	0.0156788
664.968	0.0157287
665.047	0.0156013
665.125	0.0156320
665.203	0.0156225
665.281	0.0157374
665.359	0.0156979
665.437	0.0156216
665.515	0.0157031
665.593	0.0157660
665.672	0.0156697
665.750	0.0157336
665.828	0.0157940
665.906	0.0157549
665.984	0.0156505
666.062	0.0155876
666.140	0.0157565
666.218	0.0156987
666.297	0.0156768
666.375	0.0155940
666.453	0.0156531
666.531	0.0157085
666.609	0.0158051
666.687	0.0158804
666.765	0.0157299
666.843	0.0156316
666.922	0.0156389
667.000	0.0156897
667.078	0.0157161
667.156	0.0156755
667.234	0.0156220
667.312	0.0157223
667.390	0.0156882
667.468	0.0155478
667.547	0.0157132
667.625	0.0158024
667.703	0.0157478
667.781	0.0157081
667.859	0.0158634
667.937	0.0158146
668.015	0.0156515
668.093	0.0156644
668.172	0.0156702
668.250	0.0158012
668.328	0.0156023
668.406	0.0157339
668.484	0.0157126
668.562	0.0156733
668.640	0.0157191
668.718	0.0157594
668.797	0.0157491
668.875	0.0157296
668.953	0.0156905
669.031	0.0157724
669.109	0.0156830
669.187	0.0156597
669.265	0.0157658
669.343	0.0157003
669.422	0.0158417
669.500	0.0157483
669.578	0.0157446
669.656	0.0157527
669.734	0.0156592
669.812	0.0157135
669.890	0.0157154
669.968	0.0157443
670.047	0.0156710
670.125	0.0157764
670.203	0.0158658
670.281	0.0156953
670.359	0.0156863
670.437	0.0157001
670.515	0.0156301
670.593	0.0156625
670.672	0.0157644
670.750	0.0156864
670.828	0.0155959
670.906	0.0156976
670.984	0.0158395
671.062	0.0157140
671.140	0.0155721
671.218	0.0156727
671.297	0.0156220
671.375	0.0156011
671.453	0.0158109
671.531	0.0156178
671.609	0.0155647
671.687	0.0157323
671.765	0.0156580
671.843	0.0156116
671.922	0.0157327
672.000	0.0157688
672.078	0.0157032
672.156	0.0155618
672.234	0.0155074
672.312	0.0155430
672.390	0.0157899
672.468	0.0157509
672.547	0.0156852
672.625	0.0157526
672.703	0.0157304
672.781	0.0156798
672.859	0.0156113
672.937	0.0157257
673.015	0.0157545
673.093	0.0156216
673.172	0.0157696
673.250	0.0156450
673.328	0.0157534
673.406	0.0156751
673.484	0.0157568
673.562	0.0155983
673.640	0.0157039
673.718	0.0157372
673.797	0.0156364
673.875	0.0157707
673.953	0.0157086
674.031	0.0155745
674.109	0.0157729
674.187	0.0156646
674.265	0.0156548
674.343	0.0156397
674.422	0.0157001
674.500	0.0157184
674.578	0.0156384
674.656	0.0157586
674.734	0.0156598
674.812	0.0156202
674.890	0.0155916
674.968	0.0158036
675.047	0.0156111
675.125	0.0157378
675.203	0.0157686
675.281	0.0157727
675.359	0.0157277
675.437	0.0157301
675.515	0.0157378
675.593	0.0156615
675.672	0.0156540
675.750	0.0157344
675.828	0.0157294
675.906	0.0155637
675.984	0.0156916
676.062	0.0157773
676.140	0.0158119
676.218	0.0157626
676.297	0.0157597
676.375	0.0156934
676.453	0.0156110
676.531	0.0157384
676.609	0.0156767
676.687	0.0157310
676.765	0.0156799
676.843	0.0157149
676.922	0.0156163
677.000	0.0156992
677.078	0.0156490
677.156	0.0157760
677.234	0.0156085
677.312	0.0157796
677.390	0.0157425
677.468	0.0157067
677.547	0.0155823
677.625	0.0156093
677.703	0.0156264
677.781	0.0157195
677.859	0.0156488
677.937	0.0155556
678.015	0.0155634
678.093	0.0156929
678.172	0.0156394
678.250	0.0157170
678.328	0.0156019
678.406	0.0155607
678.484	0.0156789
678.562	0.0157407
678.640	0.0156611
678.718	0.0158332
678.797	0.0157524
678.875	0.0157236
678.953	0.0156255
679.031	0.0156993
679.109	0.0156483
679.187	0.0157071
679.265	0.0156895
679.343	0.0157220
679.422	0.0156765
679.500	0.0156729
679.578	0.0156110
679.656	0.0155685
679.734	0.0155959
679.812	0.0157339
679.890	0.0157445
679.968	0.0156584
680.047	0.0157687
680.125	0.0156787
680.203	0.0155918
680.281	0.0155825
680.359	0.0156373
680.437	0.0157373
680.515	0.0157132
680.593	0.0158069
680.672	0.0156624
680.750	0.0157838
680.828	0.0156292
680.906	0.0156662
680.984	0.0156415
681.062	0.0155736
681.140	0.0156721
681.218	0.0156869
681.297	0.0157797
681.375	0.0156483
681.453	0.0155342
681.531	0.0157262
681.609	0.0156941
681.687	0.0157220
681.765	0.0155820
681.843	0.0156281
681.922	0.0158095
682.000	0.0157043
682.078	0.0158884
682.156	0.0157661
682.234	0.0156715
682.312	0.0155695
682.390	0.0156631
682.468	0.0157865
682.547	0.0156296
682.625	0.0158170
682.703	0.0156250
682.781	0.0155521
682.859	0.0157155
682.937	0.0157124
683.015	0.0156995
683.093	0.0158250
683.172	0.0157178
683.250	0.0156479
683.328	0.0157839
683.406	0.0157218
683.484	0.0157899
683.562	0.0157236
683.640	0.0156472
683.718	0.0157565
683.797	0.0155924
683.875	0.0155775
683.953	0.0157101
684.031	0.0157348
684.109	0.0156141
684.187	0.0155302
684.265	0.0155819
684.343	0.0155679
684.422	0.0158069
684.500	0.0157290
684.578	0.0156890
684.656	0.0157256
684.734	0.0157493
684.812	0.0156315
684.890	0.0157098
684.968	0.0157719
685.047	0.0157500
685.125	0.0157854
685.203	0.0156458
685.281	0.0155273
685.359	0.0157793
685.437	0.0158656
685.515	0.0156971
685.593	0.0157883
685.672	0.0156928
