06/13/2022	15:01:49	Ver.	4.1	UNKNOWN
Optical Delay	599.968395	Delta X		0.078125	Sweeps	1	Scan Rate	0/0
Coordinates	Axis 1	NaN	Axis 2	NaN	Axis 3	NaN	Axis 4	NaN	Axis 5	NaN	Axis 6	0.000000
TX Power	0.000000	RX Power	0.000000

599.968	0.0157800
600.047	0.0156709
600.125	0.0157758
600.203	0.0157205
600.281	0.0158859
600.359	0.0157778
600.437	0.0156831
600.515	0.0157832
600.593	0.0156874
600.672	0.0156490
600.750	0.0157243
600.828	0.0157926
600.906	0.0157507
600.984	0.0157275
601.062	0.0158881
601.140	0.0158228
601.218	0.0157838
601.297	0.0158077
601.375	0.0157119
601.453	0.0156455
601.531	0.0157278
601.609	0.0157087
601.687	0.0156402
601.765	0.0157683
601.843	0.0156379
601.922	0.0157233
602.000	0.0157607
602.078	0.0156712
602.156	0.0156076
602.234	0.0159116
602.312	0.0157894
602.390	0.0157141
602.468	0.0158776
602.547	0.0158744
602.625	0.0159047
602.703	0.0157681
602.781	0.0158684
602.859	0.0159263
602.937	0.0157557
603.015	0.0158813
603.093	0.0159585
603.172	0.0157685
603.250	0.0159077
603.328	0.0159280
603.406	0.0158675
603.484	0.0158994
603.562	0.0159581
603.640	0.0158591
603.718	0.0161102
603.797	0.0158783
603.875	0.0158891
603.953	0.0158860
604.031	0.0160084
604.109	0.0159657
604.187	0.0159968
604.265	0.0160124
604.343	0.0159809
604.422	0.0159472
604.500	0.0159830
604.578	0.0159089
604.656	0.0159203
604.734	0.0159008
604.812	0.0160316
604.890	0.0157870
604.968	0.0158253
605.047	0.0159947
605.125	0.0159699
605.203	0.0159821
605.281	0.0159901
605.359	0.0158752
605.437	0.0160274
605.515	0.0159410
605.593	0.0159573
605.672	0.0159387
605.750	0.0158760
605.828	0.0159599
605.906	0.0157856
605.984	0.0159145
606.062	0.0159928
606.140	0.0158501
606.218	0.0158571
606.297	0.0159567
606.375	0.0159499
606.453	0.0159659
606.531	0.0158157
606.609	0.0158475
606.687	0.0160006
606.765	0.0159236
606.843	0.0159315
606.922	0.0159439
607.000	0.0159959
607.078	0.0159843
607.156	0.0159106
607.234	0.0159174
607.312	0.0158864
607.390	0.0160046
607.468	0.0159985
607.547	0.0159761
607.625	0.0160006
607.703	0.0158166
607.781	0.0157053
607.859	0.0157774
607.937	0.0159647
608.015	0.0158833
608.093	0.0158906
608.172	0.0159388
608.250	0.0157224
608.328	0.0156932
608.406	0.0159056
608.484	0.0158916
608.562	0.0158191
608.640	0.0159203
608.718	0.0159708
608.797	0.0158559
608.875	0.0158275
608.953	0.0158205
609.031	0.0158678
609.109	0.0158755
609.187	0.0158936
609.265	0.0159663
609.343	0.0158775
609.422	0.0157655
609.500	0.0158258
609.578	0.0158893
609.656	0.0157978
609.734	0.0158218
609.812	0.0158325
609.890	0.0157784
609.968	0.0158134
610.047	0.0158253
610.125	0.0158545
610.203	0.0159467
610.281	0.0157834
610.359	0.0157810
610.437	0.0158284
610.515	0.0157977
610.593	0.0158031
610.672	0.0158761
610.750	0.0157294
610.828	0.0159325
610.906	0.0157837
610.984	0.0158218
611.062	0.0158390
611.140	0.0158636
611.218	0.0158122
611.297	0.0159009
611.375	0.0157780
611.453	0.0157629
611.531	0.0158002
611.609	0.0158488
611.687	0.0159229
611.765	0.0158155
611.843	0.0157218
611.922	0.0158331
612.000	0.0158328
612.078	0.0160219
612.156	0.0158044
612.234	0.0158725
612.312	0.0157905
612.390	0.0158225
612.468	0.0158495
612.547	0.0159530
612.625	0.0158839
612.703	0.0158529
612.781	0.0157772
612.859	0.0157969
612.937	0.0157827
613.015	0.0159033
613.093	0.0158460
613.172	0.0159595
613.250	0.0160938
613.328	0.0158130
613.406	0.0158321
613.484	0.0160083
613.562	0.0160389
613.640	0.0159260
613.718	0.0158684
613.797	0.0158638
613.875	0.0159237
613.953	0.0159650
614.031	0.0158764
614.109	0.0159312
614.187	0.0159624
614.265	0.0159621
614.343	0.0158544
614.422	0.0158695
614.500	0.0157838
614.578	0.0158928
614.656	0.0159085
614.734	0.0160089
614.812	0.0158816
614.890	0.0158954
614.968	0.0158945
615.047	0.0159168
615.125	0.0159462
615.203	0.0158940
615.281	0.0159084
615.359	0.0159314
615.437	0.0159388
615.515	0.0159058
615.593	0.0159283
615.672	0.0159877
615.750	0.0160374
615.828	0.0158781
615.906	0.0158505
615.984	0.0158318
616.062	0.0159449
616.140	0.0159316
616.218	0.0159106
616.297	0.0159426
616.375	0.0157791
616.453	0.0159345
616.531	0.0158679
616.609	0.0159635
616.687	0.0157130
616.765	0.0157867
616.843	0.0157191
616.922	0.0157452
617.000	0.0157330
617.078	0.0159525
617.156	0.0157362
617.234	0.0157568
617.312	0.0159450
617.390	0.0158913
617.468	0.0157954
617.547	0.0158382
617.625	0.0159365
617.703	0.0157430
617.781	0.0158675
617.859	0.0158553
617.937	0.0158556
618.015	0.0158733
618.093	0.0159682
618.172	0.0158463
618.250	0.0158813
618.328	0.0159425
618.406	0.0157777
618.484	0.0157345
618.562	0.0158522
618.640	0.0157591
618.718	0.0158677
618.797	0.0160468
618.875	0.0159181
618.953	0.0158409
619.031	0.0157685
619.109	0.0158199
619.187	0.0158717
619.265	0.0157405
619.343	0.0158075
619.422	0.0157799
619.500	0.0158501
619.578	0.0157477
619.656	0.0158788
619.734	0.0157903
619.812	0.0157101
619.890	0.0157721
619.968	0.0156669
620.047	0.0158289
620.125	0.0157569
620.203	0.0157922
620.281	0.0157648
620.359	0.0158111
620.437	0.0158512
620.515	0.0158613
620.593	0.0158768
620.672	0.0156995
620.750	0.0157988
620.828	0.0158359
620.906	0.0157821
620.984	0.0157668
621.062	0.0158293
621.140	0.0157263
621.218	0.0158654
621.297	0.0157792
621.375	0.0158060
621.453	0.0157681
621.531	0.0157765
621.609	0.0156567
621.687	0.0157305
621.765	0.0158052
621.843	0.0158278
621.922	0.0156769
622.000	0.0158164
622.078	0.0159108
622.156	0.0157075
622.234	0.0157494
622.312	0.0157442
622.390	0.0157066
622.468	0.0158967
622.547	0.0158923
622.625	0.0157226
622.703	0.0158549
622.781	0.0157918
622.859	0.0157064
622.937	0.0159199
623.015	0.0158653
623.093	0.0159112
623.172	0.0157530
623.250	0.0157922
623.328	0.0159087
623.406	0.0158533
623.484	0.0156950
623.562	0.0158049
623.640	0.0158848
623.718	0.0159423
623.797	0.0157434
623.875	0.0157176
623.953	0.0157718
624.031	0.0159663
624.109	0.0157200
624.187	0.0157519
624.265	0.0159580
624.343	0.0158503
624.422	0.0158253
624.500	0.0158327
624.578	0.0157300
624.656	0.0159213
624.734	0.0157220
624.812	0.0158683
624.890	0.0156682
624.968	0.0158997
625.047	0.0157595
625.125	0.0158323
625.203	0.0159679
625.281	0.0158652
625.359	0.0158810
625.437	0.0157452
625.515	0.0157826
625.593	0.0157975
625.672	0.0158115
625.750	0.0159599
625.828	0.0159502
625.906	0.0159207
625.984	0.0158052
626.062	0.0155982
626.140	0.0157871
626.218	0.0159237
626.297	0.0159370
626.375	0.0157935
626.453	0.0158393
626.531	0.0158805
626.609	0.0159184
626.687	0.0158714
626.765	0.0159612
626.843	0.0158245
626.922	0.0158575
627.000	0.0157505
627.078	0.0158182
627.156	0.0158067
627.234	0.0159057
627.312	0.0158397
627.390	0.0159411
627.468	0.0158207
627.547	0.0158670
627.625	0.0158706
627.703	0.0158919
627.781	0.0158196
627.859	0.0158504
627.937	0.0158385
628.015	0.0158118
628.093	0.0159042
628.172	0.0159554
628.250	0.0157605
628.328	0.0157784
628.406	0.0159412
628.484	0.0160190
628.562	0.0159335
628.640	0.0158243
628.718	0.0159341
628.797	0.0157523
628.875	0.0159326
628.953	0.0159252
629.031	0.0158397
629.109	0.0160262
629.187	0.0159541
629.265	0.0159321
629.343	0.0159385
629.422	0.0159345
629.500	0.0158905
629.578	0.0157334
629.656	0.0159412
629.734	0.0158173
629.812	0.0160050
629.890	0.0159312
629.968	0.0159763
630.047	0.0159167
630.125	0.0159943
630.203	0.0160449
630.281	0.0160966
630.359	0.0159624
630.437	0.0159972
630.515	0.0159899
630.593	0.0160031
630.672	0.0159563
630.750	0.0158997
630.828	0.0159306
630.906	0.0158754
630.984	0.0158784
631.062	0.0159817
631.140	0.0160176
631.218	0.0159464
631.297	0.0159728
631.375	0.0158125
631.453	0.0160360
631.531	0.0159583
631.609	0.0158348
631.687	0.0159715
631.765	0.0158621
631.843	0.0159563
631.922	0.0158138
632.000	0.0159198
632.078	0.0158966
632.156	0.0159986
632.234	0.0159827
632.312	0.0160387
632.390	0.0160019
632.468	0.0158521
632.547	0.0157292
632.625	0.0158846
632.703	0.0158588
632.781	0.0158374
632.859	0.0159299
632.937	0.0158425
633.015	0.0159147
633.093	0.0158836
633.172	0.0159017
633.250	0.0159862
633.328	0.0157869
633.406	0.0157987
633.484	0.0159829
633.562	0.0158646
633.640	0.0159467
633.718	0.0158525
633.797	0.0158754
633.875	0.0158999
633.953	0.0159816
634.031	0.0158631
634.109	0.0159512
634.187	0.0158353
634.265	0.0159104
634.343	0.0158307
634.422	0.0158698
634.500	0.0159827
634.578	0.0158687
634.656	0.0158610
634.734	0.0158244
634.812	0.0158871
634.890	0.0160030
634.968	0.0157628
635.047	0.0160110
635.125	0.0159672
635.203	0.0158456
635.281	0.0158062
635.359	0.0158147
635.437	0.0158710
635.515	0.0159930
635.593	0.0159942
635.672	0.0158965
635.750	0.0159309
635.828	0.0159303
635.906	0.0158350
635.984	0.0158450
636.062	0.0158856
636.140	0.0158993
636.218	0.0160258
636.297	0.0159351
636.375	0.0159615
636.453	0.0158733
636.531	0.0156508
636.609	0.0159243
636.687	0.0158969
636.765	0.0161015
636.843	0.0159074
636.922	0.0159265
637.000	0.0158859
637.078	0.0158591
637.156	0.0157963
637.234	0.0159437
637.312	0.0159594
637.390	0.0158974
637.468	0.0160184
637.547	0.0158785
637.625	0.0157719
637.703	0.0157909
637.781	0.0159048
637.859	0.0159331
637.937	0.0158153
638.015	0.0158545
638.093	0.0158730
638.172	0.0158187
638.250	0.0158121
638.328	0.0158694
638.406	0.0158141
638.484	0.0157726
638.562	0.0158811
638.640	0.0159386
638.718	0.0157771
638.797	0.0159393
638.875	0.0160229
638.953	0.0159368
639.031	0.0159046
639.109	0.0158043
639.187	0.0158844
639.265	0.0157870
639.343	0.0157832
639.422	0.0159239
639.500	0.0159602
639.578	0.0158994
639.656	0.0158138
639.734	0.0157914
639.812	0.0158088
639.890	0.0159725
639.968	0.0159164
640.047	0.0158769
640.125	0.0157515
640.203	0.0158530
640.281	0.0158473
640.359	0.0158795
640.437	0.0158177
640.515	0.0156512
640.593	0.0158888
640.672	0.0157720
640.750	0.0157542
640.828	0.0158813
640.906	0.0156763
640.984	0.0158309
641.062	0.0158109
641.140	0.0158868
641.218	0.0158337
641.297	0.0158271
641.375	0.0158507
641.453	0.0158269
641.531	0.0157375
641.609	0.0157789
641.687	0.0158319
641.765	0.0158534
641.843	0.0157621
641.922	0.0157764
642.000	0.0157958
642.078	0.0158457
642.156	0.0157001
642.234	0.0158739
642.312	0.0157160
642.390	0.0158028
642.468	0.0158446
642.547	0.0158027
642.625	0.0157687
642.703	0.0158418
642.781	0.0158280
642.859	0.0157864
642.937	0.0158821
643.015	0.0158583
643.093	0.0157779
643.172	0.0157504
643.250	0.0157717
643.328	0.0158423
643.406	0.0157729
643.484	0.0158529
643.562	0.0158891
643.640	0.0159612
643.718	0.0159029
643.797	0.0157430
643.875	0.0158111
643.953	0.0158706
644.031	0.0157973
644.109	0.0157107
644.187	0.0157867
644.265	0.0157605
644.343	0.0157475
644.422	0.0157401
644.500	0.0156477
644.578	0.0158118
644.656	0.0158180
644.734	0.0157973
644.812	0.0157111
644.890	0.0158915
644.968	0.0158162
645.047	0.0157364
645.125	0.0157501
645.203	0.0159115
645.281	0.0158437
645.359	0.0158598
645.437	0.0157559
645.515	0.0157265
645.593	0.0158224
645.672	0.0157980
645.750	0.0157135
645.828	0.0157679
645.906	0.0158183
645.984	0.0157384
646.062	0.0157394
646.140	0.0158090
646.218	0.0157499
646.297	0.0156144
646.375	0.0157201
646.453	0.0158249
646.531	0.0157529
646.609	0.0157613
646.687	0.0157116
646.765	0.0156961
646.843	0.0158160
646.922	0.0158700
647.000	0.0158025
647.078	0.0157118
647.156	0.0155793
647.234	0.0157492
647.312	0.0157792
647.390	0.0157955
647.468	0.0156431
647.547	0.0156406
647.625	0.0158242
647.703	0.0157879
647.781	0.0157772
647.859	0.0157700
647.937	0.0157648
648.015	0.0157533
648.093	0.0157765
648.172	0.0157809
648.250	0.0157549
648.328	0.0157814
648.406	0.0158929
648.484	0.0158543
648.562	0.0158278
648.640	0.0158872
648.718	0.0158118
648.797	0.0159386
648.875	0.0158240
648.953	0.0157348
649.031	0.0159548
649.109	0.0158430
649.187	0.0157536
649.265	0.0158356
649.343	0.0158089
649.422	0.0158774
649.500	0.0158768
649.578	0.0158060
649.656	0.0158380
649.734	0.0158007
649.812	0.0159153
649.890	0.0159848
649.968	0.0158411
650.047	0.0158348
650.125	0.0156545
650.203	0.0157796
650.281	0.0158753
650.359	0.0159415
650.437	0.0157545
650.515	0.0157778
650.593	0.0158647
650.672	0.0159476
650.750	0.0157510
650.828	0.0157463
650.906	0.0158081
650.984	0.0159271
651.062	0.0157790
651.140	0.0159093
651.218	0.0159620
651.297	0.0158196
651.375	0.0157176
651.453	0.0158140
651.531	0.0159299
651.609	0.0158178
651.687	0.0158199
651.765	0.0156886
651.843	0.0158051
651.922	0.0157500
652.000	0.0158851
652.078	0.0159309
652.156	0.0159352
652.234	0.0157611
652.312	0.0158475
652.390	0.0157503
652.468	0.0158391
652.547	0.0156944
652.625	0.0158009
652.703	0.0158605
652.781	0.0158037
652.859	0.0157489
652.937	0.0157774
653.015	0.0158085
653.093	0.0158916
653.172	0.0157874
653.250	0.0157983
653.328	0.0157679
653.406	0.0158009
653.484	0.0157871
653.562	0.0158199
653.640	0.0157668
653.718	0.0158673
653.797	0.0157486
653.875	0.0158637
653.953	0.0159138
654.031	0.0158533
654.109	0.0158504
654.187	0.0158096
654.265	0.0158570
654.343	0.0158273
654.422	0.0157932
654.500	0.0158279
654.578	0.0158682
654.656	0.0158283
654.734	0.0157069
654.812	0.0157983
654.890	0.0158252
654.968	0.0158429
655.047	0.0158315
655.125	0.0157558
655.203	0.0157176
655.281	0.0158630
655.359	0.0157365
655.437	0.0157011
655.515	0.0158960
655.593	0.0158698
655.672	0.0156834
655.750	0.0159145
655.828	0.0159026
655.906	0.0157572
655.984	0.0158981
656.062	0.0159489
656.140	0.0158888
656.218	0.0158898
656.297	0.0158127
656.375	0.0158241
656.453	0.0159872
656.531	0.0158533
656.609	0.0157572
656.687	0.0158437
656.765	0.0159479
656.843	0.0159212
656.922	0.0159544
657.000	0.0157641
657.078	0.0158399
657.156	0.0159624
657.234	0.0158035
657.312	0.0158113
657.390	0.0159522
657.468	0.0160567
657.547	0.0159039
657.625	0.0158037
657.703	0.0156429
657.781	0.0157732
657.859	0.0157936
657.937	0.0157909
658.015	0.0158520
658.093	0.0158224
658.172	0.0159088
658.250	0.0158880
658.328	0.0159049
658.406	0.0158080
658.484	0.0158594
658.562	0.0158356
658.640	0.0158894
658.718	0.0158025
658.797	0.0158309
658.875	0.0157204
658.953	0.0157873
659.031	0.0159755
659.109	0.0157785
659.187	0.0158098
659.265	0.0157808
659.343	0.0158286
659.422	0.0158451
659.500	0.0158044
659.578	0.0158241
659.656	0.0159013
659.734	0.0158855
659.812	0.0158210
659.890	0.0158809
659.968	0.0158382
660.047	0.0157369
660.125	0.0158076
660.203	0.0158186
660.281	0.0159223
660.359	0.0158319
660.437	0.0159249
660.515	0.0158763
660.593	0.0159139
660.672	0.0158197
660.750	0.0157980
660.828	0.0159491
660.906	0.0159199
660.984	0.0157928
661.062	0.0158174
661.140	0.0158755
661.218	0.0159856
661.297	0.0158350
661.375	0.0157758
661.453	0.0159316
661.531	0.0158672
661.609	0.0159361
661.687	0.0159198
661.765	0.0157520
661.843	0.0157911
661.922	0.0158190
662.000	0.0158907
662.078	0.0158963
662.156	0.0158939
662.234	0.0159452
662.312	0.0158052
662.390	0.0159283
662.468	0.0159931
662.547	0.0160623
662.625	0.0159087
662.703	0.0159566
662.781	0.0157548
662.859	0.0157513
662.937	0.0160244
663.015	0.0159439
663.093	0.0158956
663.172	0.0159692
663.250	0.0159454
663.328	0.0158293
663.406	0.0159397
663.484	0.0159549
663.562	0.0159251
663.640	0.0159978
663.718	0.0159732
663.797	0.0159522
663.875	0.0159775
663.953	0.0159491
664.031	0.0159460
664.109	0.0160416
664.187	0.0159856
664.265	0.0159978
664.343	0.0158505
664.422	0.0159615
664.500	0.0160661
664.578	0.0158922
664.656	0.0158121
664.734	0.0158652
664.812	0.0158839
664.890	0.0159932
664.968	0.0159252
665.047	0.0159678
665.125	0.0159277
665.203	0.0158678
665.281	0.0158121
665.359	0.0157963
665.437	0.0159853
665.515	0.0158218
665.593	0.0159300
665.672	0.0157678
665.750	0.0158847
665.828	0.0157902
665.906	0.0156808
665.984	0.0158572
666.062	0.0159763
666.140	0.0158597
666.218	0.0158162
666.297	0.0159705
666.375	0.0159017
666.453	0.0158482
666.531	0.0159087
666.609	0.0157452
666.687	0.0159232
666.765	0.0158336
666.843	0.0158339
666.922	0.0158791
667.000	0.0158096
667.078	0.0158592
667.156	0.0158077
667.234	0.0158213
667.312	0.0157704
667.390	0.0158679
667.468	0.0158026
667.547	0.0158156
667.625	0.0157809
667.703	0.0158758
667.781	0.0158543
667.859	0.0157330
667.937	0.0157788
668.015	0.0159200
668.093	0.0158127
668.172	0.0158203
668.250	0.0156983
668.328	0.0157441
668.406	0.0158501
668.484	0.0157569
668.562	0.0158047
668.640	0.0157881
668.718	0.0157676
668.797	0.0157133
668.875	0.0158448
668.953	0.0156721
669.031	0.0159331
669.109	0.0159033
669.187	0.0158118
669.265	0.0156879
669.343	0.0157950
669.422	0.0158405
669.500	0.0157205
669.578	0.0159074
669.656	0.0157553
669.734	0.0157187
669.812	0.0157241
669.890	0.0157161
669.968	0.0156518
670.047	0.0158437
670.125	0.0157330
670.203	0.0156999
670.281	0.0156472
670.359	0.0156773
670.437	0.0157255
670.515	0.0157468
670.593	0.0156605
670.672	0.0156994
670.750	0.0156985
670.828	0.0156017
670.906	0.0157668
670.984	0.0157154
671.062	0.0157587
671.140	0.0156672
671.218	0.0156510
671.297	0.0157939
671.375	0.0156496
671.453	0.0156898
671.531	0.0155397
671.609	0.0157776
671.687	0.0156625
671.765	0.0158401
671.843	0.0157385
671.922	0.0156479
672.000	0.0157248
672.078	0.0157315
672.156	0.0156081
672.234	0.0157238
672.312	0.0156689
672.390	0.0156776
672.468	0.0157053
672.547	0.0157084
672.625	0.0156432
672.703	0.0156782
672.781	0.0156328
672.859	0.0156628
672.937	0.0156745
673.015	0.0156525
673.093	0.0156790
673.172	0.0156847
673.250	0.0156101
673.328	0.0156595
673.406	0.0156279
673.484	0.0156740
673.562	0.0157144
673.640	0.0156427
673.718	0.0157071
673.797	0.0157206
673.875	0.0156256
673.953	0.0157003
674.031	0.0157060
674.109	0.0156120
674.187	0.0157114
674.265	0.0157075
674.343	0.0157312
674.422	0.0157972
674.500	0.0157431
674.578	0.0155835
674.656	0.0157490
674.734	0.0157122
674.812	0.0156068
674.890	0.0156307
674.968	0.0157645
675.047	0.0156405
675.125	0.0156516
675.203	0.0157846
675.281	0.0157938
675.359	0.0158060
675.437	0.0156682
675.515	0.0157993
675.593	0.0158369
675.672	0.0157855
675.750	0.0157360
675.828	0.0157776
675.906	0.0157130
675.984	0.0157464
676.062	0.0157485
676.140	0.0157433
676.218	0.0157664
676.297	0.0156896
676.375	0.0157889
676.453	0.0157552
676.531	0.0157646
676.609	0.0158037
676.687	0.0158695
676.765	0.0159180
676.843	0.0156495
676.922	0.0157074
677.000	0.0159890
677.078	0.0158174
677.156	0.0156579
677.234	0.0158469
677.312	0.0158776
677.390	0.0158062
677.468	0.0159637
677.547	0.0157143
677.625	0.0157106
677.703	0.0158964
677.781	0.0158937
677.859	0.0158243
677.937	0.0157262
678.015	0.0158104
678.093	0.0158434
678.172	0.0158289
678.250	0.0159479
678.328	0.0160387
678.406	0.0159061
678.484	0.0157174
678.562	0.0159628
678.640	0.0158029
678.718	0.0159758
678.797	0.0158916
678.875	0.0159158
678.953	0.0159145
679.031	0.0158165
679.109	0.0159488
679.187	0.0159230
679.265	0.0159540
679.343	0.0160540
679.422	0.0158763
679.500	0.0160262
679.578	0.0160267
679.656	0.0159271
679.734	0.0158671
679.812	0.0159698
679.890	0.0159539
679.968	0.0160264
680.047	0.0160078
680.125	0.0158696
680.203	0.0159184
680.281	0.0159411
680.359	0.0160108
680.437	0.0157983
680.515	0.0159447
680.593	0.0159550
680.672	0.0157653
680.750	0.0158301
680.828	0.0159164
680.906	0.0158173
680.984	0.0159650
681.062	0.0159252
681.140	0.0159518
681.218	0.0158997
681.297	0.0158721
681.375	0.0159171
681.453	0.0158276
681.531	0.0160336
681.609	0.0157967
681.687	0.0157936
681.765	0.0159055
681.843	0.0158137
681.922	0.0158710
682.000	0.0159215
682.078	0.0159968
682.156	0.0159709
682.234	0.0159680
682.312	0.0158244
682.390	0.0159017
682.468	0.0158665
682.547	0.0158564
682.625	0.0158926
682.703	0.0158300
682.781	0.0158937
682.859	0.0158566
682.937	0.0158405
683.015	0.0157676
683.093	0.0158424
683.172	0.0158134
683.250	0.0158899
683.328	0.0158416
683.406	0.0158291
683.484	0.0158270
683.562	0.0158942
683.640	0.0159228
683.718	0.0158653
683.797	0.0158961
683.875	0.0160528
683.953	0.0159311
684.031	0.0158121
684.109	0.0159483
684.187	0.0157647
684.265	0.0158742
684.343	0.0158956
684.422	0.0159422
684.500	0.0159162
684.578	0.0158776
684.656	0.0157398
684.734	0.0158658
684.812	0.0159845
684.890	0.0159476
684.968	0.0158108
685.047	0.0159087
685.125	0.0158643
685.203	0.0159909
685.281	0.0159864
685.359	0.0159996
685.437	0.0159923
685.515	0.0159260
685.593	0.0159106
685.672	0.0159306
