05/08/2022	19:30:14	Ver.	4.1	UNKNOWN
Optical Delay	649.996338	Delta X		0.078125	Sweeps	1	Scan Rate	0/0
Coordinates	Axis 1	NaN	Axis 2	NaN	Axis 3	NaN	Axis 4	NaN	Axis 5	NaN	Axis 6	0.000000
TX Power	0.000000	RX Power	0.000000

649.996	0.0142505
650.074	0.0141642
650.153	0.0141611
650.231	0.0142548
650.309	0.0141548
650.387	0.0142145
650.465	0.0141750
650.543	0.0142768
650.621	0.0141904
650.699	0.0142693
650.778	0.0142463
650.856	0.0140272
650.934	0.0142145
651.012	0.0141211
651.090	0.0141337
651.168	0.0141161
651.246	0.0142109
651.324	0.0141980
651.403	0.0142155
651.481	0.0142806
651.559	0.0141878
651.637	0.0142224
651.715	0.0142886
651.793	0.0141776
651.871	0.0142184
651.949	0.0142868
652.028	0.0142198
652.106	0.0142788
652.184	0.0140942
652.262	0.0141825
652.340	0.0142831
652.418	0.0141161
652.496	0.0142753
652.574	0.0140958
652.653	0.0143050
652.731	0.0144415
652.809	0.0140478
652.887	0.0141233
652.965	0.0142953
653.043	0.0142628
653.121	0.0143084
653.199	0.0142080
653.278	0.0142539
653.356	0.0141788
653.434	0.0140987
653.512	0.0142349
653.590	0.0142074
653.668	0.0142187
653.746	0.0141259
653.824	0.0141988
653.903	0.0143008
653.981	0.0140253
654.059	0.0140678
654.137	0.0142319
654.215	0.0141283
654.293	0.0142406
654.371	0.0142972
654.449	0.0141960
654.528	0.0141266
654.606	0.0141901
654.684	0.0142974
654.762	0.0142725
654.840	0.0141779
654.918	0.0141866
654.996	0.0140153
655.074	0.0141822
655.153	0.0141579
655.231	0.0141896
655.309	0.0141344
655.387	0.0141983
655.465	0.0141307
655.543	0.0143867
655.621	0.0143223
655.699	0.0141801
655.778	0.0141808
655.856	0.0141119
655.934	0.0142331
656.012	0.0141991
656.090	0.0142343
656.168	0.0142413
656.246	0.0142357
656.324	0.0140868
656.403	0.0142564
656.481	0.0142078
656.559	0.0141129
656.637	0.0142463
656.715	0.0141230
656.793	0.0141476
656.871	0.0142536
656.949	0.0141569
657.028	0.0142502
657.106	0.0141541
657.184	0.0141348
657.262	0.0141862
657.340	0.0143037
657.418	0.0142266
657.496	0.0142831
657.574	0.0142565
657.653	0.0141969
657.731	0.0140419
657.809	0.0141512
657.887	0.0140490
657.965	0.0142664
658.043	0.0143442
658.121	0.0140726
658.199	0.0140741
658.278	0.0141579
658.356	0.0143333
658.434	0.0141995
658.512	0.0141803
658.590	0.0142532
658.668	0.0142414
658.746	0.0142089
658.824	0.0142377
658.903	0.0141339
658.981	0.0140817
659.059	0.0140750
659.137	0.0141698
659.215	0.0143313
659.293	0.0141569
659.371	0.0142844
659.449	0.0141844
659.528	0.0142821
659.606	0.0142955
659.684	0.0140659
659.762	0.0141649
659.840	0.0142728
659.918	0.0141975
659.996	0.0140836
660.074	0.0142218
660.153	0.0142983
660.231	0.0142441
660.309	0.0141773
660.387	0.0142617
660.465	0.0142346
660.543	0.0141865
660.621	0.0142117
660.699	0.0141716
660.778	0.0142358
660.856	0.0143233
660.934	0.0143349
661.012	0.0143168
661.090	0.0142360
661.168	0.0142206
661.246	0.0142542
661.324	0.0142132
661.403	0.0141766
661.481	0.0142243
661.559	0.0142329
661.637	0.0140498
661.715	0.0142458
661.793	0.0142739
661.871	0.0141526
661.949	0.0141266
662.028	0.0142615
662.106	0.0142278
662.184	0.0141768
662.262	0.0141555
662.340	0.0141671
662.418	0.0142669
662.496	0.0141866
662.574	0.0141850
662.653	0.0142638
662.731	0.0143494
662.809	0.0141268
662.887	0.0142221
662.965	0.0141999
663.043	0.0142046
663.121	0.0142191
663.199	0.0142166
663.278	0.0142876
663.356	0.0142270
663.434	0.0142059
663.512	0.0142019
663.590	0.0143414
663.668	0.0143323
663.746	0.0142460
663.824	0.0142307
663.903	0.0142728
663.981	0.0143739
664.059	0.0143011
664.137	0.0141381
664.215	0.0143319
664.293	0.0142357
664.371	0.0142799
664.449	0.0142886
664.528	0.0143553
664.606	0.0143239
664.684	0.0142675
664.762	0.0143249
664.840	0.0141877
664.918	0.0142046
664.996	0.0143342
665.074	0.0141040
665.153	0.0143239
665.231	0.0143217
665.309	0.0143044
665.387	0.0143107
665.465	0.0143296
665.543	0.0142542
665.621	0.0143513
665.699	0.0141459
665.778	0.0141547
665.856	0.0143356
665.934	0.0142491
666.012	0.0142365
666.090	0.0143513
666.168	0.0141958
666.246	0.0141876
666.324	0.0140868
666.403	0.0141409
666.481	0.0142464
666.559	0.0142791
666.637	0.0141445
666.715	0.0142112
666.793	0.0141721
666.871	0.0142632
666.949	0.0142085
667.028	0.0142735
667.106	0.0142205
667.184	0.0141223
667.262	0.0141378
667.340	0.0141685
667.418	0.0142072
667.496	0.0142065
667.574	0.0141347
667.653	0.0141240
667.731	0.0140478
667.809	0.0142338
667.887	0.0142062
667.965	0.0141267
668.043	0.0141018
668.121	0.0141556
668.199	0.0140670
668.278	0.0140511
668.356	0.0142246
668.434	0.0141125
668.512	0.0140995
668.590	0.0140189
668.668	0.0139399
668.746	0.0141431
668.824	0.0140059
668.903	0.0140261
668.981	0.0139947
669.059	0.0139586
669.137	0.0140126
669.215	0.0141669
669.293	0.0139838
669.371	0.0140098
669.449	0.0139965
669.528	0.0141098
669.606	0.0140356
669.684	0.0139423
669.762	0.0140005
669.840	0.0140597
669.918	0.0140854
669.996	0.0140887
670.074	0.0140621
670.153	0.0140140
670.231	0.0140865
670.309	0.0140388
670.387	0.0141016
670.465	0.0140531
670.543	0.0140938
670.621	0.0140112
670.699	0.0141443
670.778	0.0141055
670.856	0.0141275
670.934	0.0140165
671.012	0.0141120
671.090	0.0140715
671.168	0.0139201
671.246	0.0140245
671.324	0.0141267
671.403	0.0141430
671.481	0.0141180
671.559	0.0141509
671.637	0.0139657
671.715	0.0139321
671.793	0.0138464
671.871	0.0141439
671.949	0.0140446
672.028	0.0141203
672.106	0.0140020
672.184	0.0140993
672.262	0.0141045
672.340	0.0140672
672.418	0.0142004
672.496	0.0141644
672.574	0.0141482
672.653	0.0140717
672.731	0.0140658
672.809	0.0140229
672.887	0.0141959
672.965	0.0141169
673.043	0.0141169
673.121	0.0142595
673.199	0.0142799
673.278	0.0142213
673.356	0.0142408
673.434	0.0141945
673.512	0.0142549
673.590	0.0143170
673.668	0.0144721
673.746	0.0142067
673.824	0.0142663
673.903	0.0144198
673.981	0.0144956
674.059	0.0143744
674.137	0.0144186
674.215	0.0143730
674.293	0.0144016
674.371	0.0144200
674.449	0.0144285
674.528	0.0144719
674.606	0.0145033
674.684	0.0143958
674.762	0.0143999
674.840	0.0144766
674.918	0.0144655
674.996	0.0143881
675.074	0.0145148
675.153	0.0145465
675.231	0.0144791
675.309	0.0144936
675.387	0.0145658
675.465	0.0145307
675.543	0.0144697
675.621	0.0144069
675.699	0.0144284
675.778	0.0144483
675.856	0.0145383
675.934	0.0144488
676.012	0.0144180
676.090	0.0144466
676.168	0.0144238
676.246	0.0145524
676.324	0.0144028
676.403	0.0143297
676.481	0.0142542
676.559	0.0142643
676.637	0.0145639
676.715	0.0144159
676.793	0.0143811
676.871	0.0143980
676.949	0.0144170
677.028	0.0144373
677.106	0.0143530
677.184	0.0143278
677.262	0.0144244
677.340	0.0143177
677.418	0.0144083
677.496	0.0145225
677.574	0.0144190
677.653	0.0143372
677.731	0.0144812
677.809	0.0143517
677.887	0.0143650
677.965	0.0144115
678.043	0.0143948
678.121	0.0144061
678.199	0.0142601
678.278	0.0144199
678.356	0.0145214
678.434	0.0143779
678.512	0.0143535
678.590	0.0144205
678.668	0.0142490
678.746	0.0142895
678.824	0.0143433
678.903	0.0143312
678.981	0.0142730
679.059	0.0142886
679.137	0.0143787
679.215	0.0142113
679.293	0.0142336
679.371	0.0142242
679.449	0.0142761
679.528	0.0143659
679.606	0.0143086
679.684	0.0142179
679.762	0.0141795
679.840	0.0141869
679.918	0.0142292
679.996	0.0142175
680.074	0.0141026
680.153	0.0140982
680.231	0.0142142
680.309	0.0140795
680.387	0.0141051
680.465	0.0141552
680.543	0.0140254
680.621	0.0141181
680.699	0.0142472
680.778	0.0140760
680.856	0.0142121
680.934	0.0141006
681.012	0.0140704
681.090	0.0141941
681.168	0.0141856
681.246	0.0140395
681.324	0.0141816
681.403	0.0140630
681.481	0.0142236
681.559	0.0141317
681.637	0.0142123
681.715	0.0139307
681.793	0.0141004
681.871	0.0141581
681.949	0.0140690
682.028	0.0141164
682.106	0.0142084
682.184	0.0141717
682.262	0.0141512
682.340	0.0142312
682.418	0.0142196
682.496	0.0142860
682.574	0.0140208
682.653	0.0140685
682.731	0.0143587
682.809	0.0141000
682.887	0.0141467
682.965	0.0141594
683.043	0.0141103
683.121	0.0142087
683.199	0.0142042
683.278	0.0142056
683.356	0.0141329
683.434	0.0141617
683.512	0.0142128
683.590	0.0143146
683.668	0.0141897
683.746	0.0141643
683.824	0.0141517
683.903	0.0140991
683.981	0.0141358
684.059	0.0140958
684.137	0.0140885
684.215	0.0141589
684.293	0.0141895
684.371	0.0141974
684.449	0.0142397
684.528	0.0143395
684.606	0.0142857
684.684	0.0142501
684.762	0.0142039
684.840	0.0140945
684.918	0.0142381
684.996	0.0142085
685.074	0.0143405
685.153	0.0141389
685.231	0.0143108
685.309	0.0142329
685.387	0.0143577
685.465	0.0142010
685.543	0.0142188
685.621	0.0143862
685.699	0.0141982
685.778	0.0143134
685.856	0.0141206
685.934	0.0142583
686.012	0.0142387
686.090	0.0142589
686.168	0.0142606
686.246	0.0143050
686.324	0.0143885
686.403	0.0143036
686.481	0.0141541
686.559	0.0141365
686.637	0.0141835
686.715	0.0142772
686.793	0.0142108
686.871	0.0142217
686.949	0.0142895
687.028	0.0142564
687.106	0.0143216
687.184	0.0142263
687.262	0.0141298
687.340	0.0142178
687.418	0.0142168
687.496	0.0142597
687.574	0.0143517
687.653	0.0142583
687.731	0.0143214
687.809	0.0143272
687.887	0.0141529
687.965	0.0143739
688.043	0.0142920
688.121	0.0142343
688.199	0.0143958
688.278	0.0143284
688.356	0.0142149
688.434	0.0143929
688.512	0.0142014
688.590	0.0141771
688.668	0.0142017
688.746	0.0141477
688.824	0.0143327
688.903	0.0143020
688.981	0.0143480
689.059	0.0143113
689.137	0.0141947
689.215	0.0141291
689.293	0.0142731
689.371	0.0142224
689.449	0.0141078
689.528	0.0142033
689.606	0.0141302
689.684	0.0140798
689.762	0.0141422
689.840	0.0142561
689.918	0.0143632
689.996	0.0142794
690.074	0.0143242
690.153	0.0142229
690.231	0.0142447
690.309	0.0143279
690.387	0.0143787
690.465	0.0144241
690.543	0.0143128
690.621	0.0143510
690.699	0.0143137
690.778	0.0143308
690.856	0.0144466
690.934	0.0143584
691.012	0.0143700
691.090	0.0142581
691.168	0.0141827
691.246	0.0140594
691.324	0.0140678
691.403	0.0141104
691.481	0.0141073
691.559	0.0141957
691.637	0.0140347
691.715	0.0141405
691.793	0.0141854
691.871	0.0141755
691.949	0.0140734
692.028	0.0141373
692.106	0.0142465
692.184	0.0140785
692.262	0.0140736
692.340	0.0141218
692.418	0.0142911
692.496	0.0141331
692.574	0.0142370
692.653	0.0140814
692.731	0.0141399
692.809	0.0141373
692.887	0.0142990
692.965	0.0141936
693.043	0.0141228
693.121	0.0141130
693.199	0.0141077
693.278	0.0141512
693.356	0.0140283
693.434	0.0139818
693.512	0.0140407
693.590	0.0138884
693.668	0.0141827
693.746	0.0142347
693.824	0.0141928
693.903	0.0141688
693.981	0.0142455
694.059	0.0142814
694.137	0.0143915
694.215	0.0144855
694.293	0.0143656
694.371	0.0144915
694.449	0.0145548
694.528	0.0144437
694.606	0.0144607
694.684	0.0146098
694.762	0.0144386
694.840	0.0143623
694.918	0.0142613
694.996	0.0142424
695.074	0.0144765
695.153	0.0143500
695.231	0.0143018
695.309	0.0141055
695.387	0.0142067
695.465	0.0140750
695.543	0.0140428
695.621	0.0140866
695.699	0.0140652
695.778	0.0139437
695.856	0.0139463
695.934	0.0140022
696.012	0.0139910
696.090	0.0141040
696.168	0.0139153
696.246	0.0138867
696.324	0.0140226
696.403	0.0138383
696.481	0.0138118
696.559	0.0138418
696.637	0.0139650
696.715	0.0138197
696.793	0.0138398
696.871	0.0138506
696.949	0.0137745
697.028	0.0139176
697.106	0.0140154
697.184	0.0138058
697.262	0.0139622
697.340	0.0140653
697.418	0.0140930
697.496	0.0141539
697.574	0.0142625
697.653	0.0142458
697.731	0.0142628
697.809	0.0143489
697.887	0.0144485
697.965	0.0144519
698.043	0.0144169
698.121	0.0143803
698.199	0.0145423
698.278	0.0145586
698.356	0.0144863
698.434	0.0143511
698.512	0.0143951
698.590	0.0143614
698.668	0.0143988
698.746	0.0142113
698.824	0.0142306
698.903	0.0142728
698.981	0.0142654
699.059	0.0141180
699.137	0.0141769
699.215	0.0139879
699.293	0.0142036
699.371	0.0142062
699.449	0.0141482
699.528	0.0140317
699.606	0.0141930
699.684	0.0139698
699.762	0.0141550
699.840	0.0140925
699.918	0.0141722
699.996	0.0140703
700.074	0.0141414
700.153	0.0139516
700.231	0.0140029
700.309	0.0139868
700.387	0.0140443
700.465	0.0140820
700.543	0.0140868
700.621	0.0142181
700.699	0.0142210
700.778	0.0141601
700.856	0.0139944
700.934	0.0141279
701.012	0.0142616
701.090	0.0143871
701.168	0.0143325
701.246	0.0145935
701.324	0.0144781
701.403	0.0145007
701.481	0.0145102
701.559	0.0144643
701.637	0.0143933
701.715	0.0144894
701.793	0.0146731
701.871	0.0145516
701.949	0.0144675
702.028	0.0145754
702.106	0.0146393
702.184	0.0145791
702.262	0.0144782
702.340	0.0145905
702.418	0.0144846
702.496	0.0144781
702.574	0.0143755
702.653	0.0145470
702.731	0.0144080
702.809	0.0144383
702.887	0.0144405
702.965	0.0143889
703.043	0.0144209
703.121	0.0144746
703.199	0.0144587
703.278	0.0145231
703.356	0.0143467
703.434	0.0143448
703.512	0.0144102
703.590	0.0144303
703.668	0.0143700
703.746	0.0144090
703.824	0.0144097
703.903	0.0143179
703.981	0.0142580
704.059	0.0142872
704.137	0.0143750
704.215	0.0143096
704.293	0.0140786
704.371	0.0144051
704.449	0.0142254
704.528	0.0141233
704.606	0.0142101
704.684	0.0141055
704.762	0.0140652
704.840	0.0141387
704.918	0.0141722
704.996	0.0142396
705.074	0.0142236
705.153	0.0141991
705.231	0.0141325
705.309	0.0143423
705.387	0.0143192
705.465	0.0143292
705.543	0.0143484
705.621	0.0143821
705.699	0.0143229
705.778	0.0142525
705.856	0.0142539
705.934	0.0142312
706.012	0.0142089
706.090	0.0141537
706.168	0.0141354
706.246	0.0141341
706.324	0.0140734
706.403	0.0139816
706.481	0.0138947
706.559	0.0138644
706.637	0.0139589
706.715	0.0140997
706.793	0.0139779
706.871	0.0139678
706.949	0.0138351
707.028	0.0140114
707.106	0.0139916
707.184	0.0139135
707.262	0.0139127
707.340	0.0139971
707.418	0.0138871
707.496	0.0138847
707.574	0.0140234
707.653	0.0139539
707.731	0.0139824
707.809	0.0138902
707.887	0.0139015
707.965	0.0140279
708.043	0.0139543
708.121	0.0140575
708.199	0.0139296
708.278	0.0140593
708.356	0.0140193
708.434	0.0140276
708.512	0.0139155
708.590	0.0140950
708.668	0.0141685
708.746	0.0140859
708.824	0.0142513
708.903	0.0141537
708.981	0.0142799
709.059	0.0141422
709.137	0.0143452
709.215	0.0141186
709.293	0.0142261
709.371	0.0142505
709.449	0.0143415
709.528	0.0142408
709.606	0.0143285
709.684	0.0142491
709.762	0.0143372
709.840	0.0144234
709.918	0.0143280
709.996	0.0142604
710.074	0.0143053
710.153	0.0143156
710.231	0.0142888
710.309	0.0143736
710.387	0.0144618
710.465	0.0142520
710.543	0.0142613
710.621	0.0142892
710.699	0.0142812
710.778	0.0142556
710.856	0.0143349
710.934	0.0143850
711.012	0.0144289
711.090	0.0141545
711.168	0.0141044
711.246	0.0142142
711.324	0.0142034
711.403	0.0142466
711.481	0.0141203
711.559	0.0141559
711.637	0.0142844
711.715	0.0142011
711.793	0.0142112
711.871	0.0141500
711.949	0.0142228
712.028	0.0142464
712.106	0.0143079
712.184	0.0143291
712.262	0.0142675
712.340	0.0142920
712.418	0.0142823
712.496	0.0142640
712.574	0.0143040
712.653	0.0142835
712.731	0.0143114
712.809	0.0141545
712.887	0.0141264
712.965	0.0142994
713.043	0.0142465
713.121	0.0143392
713.199	0.0142691
713.278	0.0143123
713.356	0.0141971
713.434	0.0141711
713.512	0.0141814
713.590	0.0141481
713.668	0.0140730
713.746	0.0141366
713.824	0.0142260
713.903	0.0140317
713.981	0.0140320
714.059	0.0140634
714.137	0.0140105
714.215	0.0142310
714.293	0.0141537
714.371	0.0141392
714.449	0.0140666
714.528	0.0140588
714.606	0.0140546
714.684	0.0142474
714.762	0.0140878
714.840	0.0140591
714.918	0.0141849
714.996	0.0141980
715.074	0.0142554
715.153	0.0143159
715.231	0.0142452
715.309	0.0142971
715.387	0.0142217
715.465	0.0141704
715.543	0.0143593
715.621	0.0143090
715.699	0.0142640
715.778	0.0142135
715.856	0.0142628
715.934	0.0142686
716.012	0.0140668
716.090	0.0142519
716.168	0.0142261
716.246	0.0141757
716.324	0.0143789
716.403	0.0142692
716.481	0.0142938
716.559	0.0141925
716.637	0.0142098
716.715	0.0142140
716.793	0.0141585
716.871	0.0142728
716.949	0.0141988
717.028	0.0142113
717.106	0.0142026
717.184	0.0141437
717.262	0.0141184
717.340	0.0142365
717.418	0.0141646
717.496	0.0142605
717.574	0.0142244
717.653	0.0142453
717.731	0.0143031
717.809	0.0141351
717.887	0.0143186
717.965	0.0142365
718.043	0.0141051
718.121	0.0142548
718.199	0.0141166
718.278	0.0141008
718.356	0.0142049
718.434	0.0142269
718.512	0.0140623
718.590	0.0140154
718.668	0.0140733
718.746	0.0141101
718.824	0.0140455
718.903	0.0140775
718.981	0.0141940
719.059	0.0141258
719.137	0.0140537
719.215	0.0141700
719.293	0.0140579
719.371	0.0141229
719.449	0.0141408
719.528	0.0141092
719.606	0.0141248
719.684	0.0142513
719.762	0.0141704
719.840	0.0139789
719.918	0.0142348
719.996	0.0142009
720.074	0.0142222
720.153	0.0142018
720.231	0.0143283
720.309	0.0142300
720.387	0.0141998
720.465	0.0141427
720.543	0.0143488
720.621	0.0142384
720.699	0.0141812
720.778	0.0143430
720.856	0.0141365
720.934	0.0141553
721.012	0.0143410
721.090	0.0142710
721.168	0.0141357
721.246	0.0141537
721.324	0.0144228
721.403	0.0143478
721.481	0.0140834
721.559	0.0140678
721.637	0.0142251
721.715	0.0142050
721.793	0.0141776
721.871	0.0141479
721.949	0.0140489
722.028	0.0140604
722.106	0.0141491
722.184	0.0140638
722.262	0.0142169
722.340	0.0141224
722.418	0.0142023
722.496	0.0141411
722.574	0.0141792
722.653	0.0140511
722.731	0.0141608
722.809	0.0142290
722.887	0.0140881
722.965	0.0140907
723.043	0.0141777
723.121	0.0141996
723.199	0.0142715
723.278	0.0142172
723.356	0.0140768
723.434	0.0141682
723.512	0.0141814
723.590	0.0142509
723.668	0.0141837
723.746	0.0141562
723.824	0.0141022
723.903	0.0141932
723.981	0.0142462
724.059	0.0141456
724.137	0.0141931
724.215	0.0142269
724.293	0.0142532
724.371	0.0141959
724.449	0.0142220
724.528	0.0142932
724.606	0.0141991
724.684	0.0140937
724.762	0.0142719
724.840	0.0143832
724.918	0.0142887
724.996	0.0141972
725.074	0.0141686
725.153	0.0142772
725.231	0.0143492
725.309	0.0142391
725.387	0.0141276
725.465	0.0143494
725.543	0.0144767
725.621	0.0143502
725.699	0.0142737
725.778	0.0142211
725.856	0.0143204
725.934	0.0143786
726.012	0.0144109
726.090	0.0142811
726.168	0.0143494
726.246	0.0143002
726.324	0.0143403
726.403	0.0142931
726.481	0.0143284
726.559	0.0143320
726.637	0.0143442
726.715	0.0142110
726.793	0.0142542
726.871	0.0141227
726.949	0.0141264
727.028	0.0142332
727.106	0.0142204
727.184	0.0141797
727.262	0.0143272
727.340	0.0142921
727.418	0.0143185
727.496	0.0142397
727.574	0.0143191
727.653	0.0142203
727.731	0.0142185
727.809	0.0142692
727.887	0.0142004
727.965	0.0141402
728.043	0.0143237
728.121	0.0142204
728.199	0.0142268
728.278	0.0141006
728.356	0.0141126
728.434	0.0142554
728.512	0.0141195
728.590	0.0141867
728.668	0.0142185
728.746	0.0141330
728.824	0.0141217
728.903	0.0140907
728.981	0.0139816
729.059	0.0141700
729.137	0.0142975
729.215	0.0142683
729.293	0.0142402
729.371	0.0141911
729.449	0.0141830
729.528	0.0141895
729.606	0.0140387
729.684	0.0140380
729.762	0.0142234
729.840	0.0140446
729.918	0.0141362
729.996	0.0139971
730.074	0.0141970
730.153	0.0140399
730.231	0.0141943
730.309	0.0140231
730.387	0.0141077
730.465	0.0141488
730.543	0.0142294
730.621	0.0141946
730.699	0.0140151
730.778	0.0141290
730.856	0.0141788
730.934	0.0141293
731.012	0.0141627
731.090	0.0142672
731.168	0.0142040
731.246	0.0142077
731.324	0.0144006
731.403	0.0143176
731.481	0.0143183
731.559	0.0142575
731.637	0.0143076
731.715	0.0142948
731.793	0.0142081
731.871	0.0141766
731.949	0.0142459
732.028	0.0141315
732.106	0.0141577
732.184	0.0142773
732.262	0.0142070
732.340	0.0140591
732.418	0.0142318
732.496	0.0140677
732.574	0.0140741
732.653	0.0141230
732.731	0.0141828
732.809	0.0141221
732.887	0.0141628
732.965	0.0142066
733.043	0.0140980
733.121	0.0143602
733.199	0.0141056
733.278	0.0141655
733.356	0.0141513
733.434	0.0142279
733.512	0.0142094
733.590	0.0140714
733.668	0.0140827
733.746	0.0142866
733.824	0.0142806
733.903	0.0141101
733.981	0.0140674
734.059	0.0141805
734.137	0.0142573
734.215	0.0140603
734.293	0.0140864
734.371	0.0140368
734.449	0.0140263
734.528	0.0141979
734.606	0.0141747
734.684	0.0141516
734.762	0.0140614
734.840	0.0141521
734.918	0.0140977
734.996	0.0141817
735.074	0.0141663
735.153	0.0143092
735.231	0.0142123
735.309	0.0142730
735.387	0.0142333
735.465	0.0142537
735.543	0.0143141
735.621	0.0142665
735.699	0.0142957
