05/08/2022	19:30:39	Ver.	4.1	UNKNOWN
Optical Delay	649.996338	Delta X		0.078125	Sweeps	1	Scan Rate	0/0
Coordinates	Axis 1	NaN	Axis 2	NaN	Axis 3	NaN	Axis 4	NaN	Axis 5	NaN	Axis 6	0.000000
TX Power	0.000000	RX Power	0.000000

649.996	0.0144458
650.074	0.0145398
650.153	0.0143581
650.231	0.0144535
650.309	0.0144501
650.387	0.0143668
650.465	0.0144938
650.543	0.0143943
650.621	0.0145095
650.699	0.0144193
650.778	0.0143143
650.856	0.0143507
650.934	0.0146047
651.012	0.0145084
651.090	0.0144272
651.168	0.0144376
651.246	0.0143779
651.324	0.0144678
651.403	0.0144121
651.481	0.0144200
651.559	0.0144710
651.637	0.0145347
651.715	0.0145518
651.793	0.0145207
651.871	0.0145233
651.949	0.0144404
652.028	0.0144841
652.106	0.0146345
652.184	0.0145061
652.262	0.0144949
652.340	0.0144901
652.418	0.0143507
652.496	0.0143377
652.574	0.0144677
652.653	0.0145839
652.731	0.0146463
652.809	0.0145338
652.887	0.0143843
652.965	0.0144619
653.043	0.0143449
653.121	0.0143069
653.199	0.0144721
653.278	0.0145371
653.356	0.0145193
653.434	0.0144563
653.512	0.0144398
653.590	0.0144272
653.668	0.0144930
653.746	0.0145515
653.824	0.0144201
653.903	0.0143390
653.981	0.0143813
654.059	0.0144466
654.137	0.0143862
654.215	0.0143917
654.293	0.0145267
654.371	0.0145412
654.449	0.0143683
654.528	0.0143544
654.606	0.0144262
654.684	0.0144618
654.762	0.0144616
654.840	0.0144958
654.918	0.0143178
654.996	0.0145441
655.074	0.0145291
655.153	0.0144283
655.231	0.0145200
655.309	0.0143504
655.387	0.0144951
655.465	0.0143542
655.543	0.0143372
655.621	0.0144145
655.699	0.0145837
655.778	0.0144739
655.856	0.0143420
655.934	0.0144505
656.012	0.0144096
656.090	0.0143280
656.168	0.0144419
656.246	0.0145323
656.324	0.0144440
656.403	0.0143005
656.481	0.0145321
656.559	0.0143972
656.637	0.0143273
656.715	0.0145861
656.793	0.0144733
656.871	0.0144154
656.949	0.0144054
657.028	0.0144549
657.106	0.0144364
657.184	0.0144507
657.262	0.0143928
657.340	0.0142885
657.418	0.0144489
657.496	0.0143518
657.574	0.0143702
657.653	0.0145589
657.731	0.0144678
657.809	0.0144630
657.887	0.0144856
657.965	0.0146177
658.043	0.0144315
658.121	0.0145011
658.199	0.0145498
658.278	0.0143715
658.356	0.0143882
658.434	0.0145356
658.512	0.0144604
658.590	0.0143719
658.668	0.0145348
658.746	0.0145641
658.824	0.0145621
658.903	0.0144321
658.981	0.0143501
659.059	0.0145624
659.137	0.0144199
659.215	0.0143610
659.293	0.0143996
659.371	0.0144507
659.449	0.0144099
659.528	0.0143759
659.606	0.0144782
659.684	0.0144372
659.762	0.0145438
659.840	0.0144108
659.918	0.0143913
659.996	0.0145268
660.074	0.0144798
660.153	0.0143930
660.231	0.0144429
660.309	0.0144056
660.387	0.0143932
660.465	0.0145561
660.543	0.0144965
660.621	0.0143946
660.699	0.0144767
660.778	0.0144431
660.856	0.0144526
660.934	0.0145127
661.012	0.0144978
661.090	0.0143743
661.168	0.0144237
661.246	0.0145238
661.324	0.0144162
661.403	0.0144366
661.481	0.0144630
661.559	0.0143591
661.637	0.0144893
661.715	0.0145454
661.793	0.0145531
661.871	0.0144970
661.949	0.0145574
662.028	0.0144508
662.106	0.0144289
662.184	0.0143179
662.262	0.0143649
662.340	0.0145449
662.418	0.0145409
662.496	0.0144205
662.574	0.0144186
662.653	0.0146881
662.731	0.0145327
662.809	0.0144772
662.887	0.0145806
662.965	0.0144827
663.043	0.0144662
663.121	0.0144141
663.199	0.0144220
663.278	0.0145287
663.356	0.0144261
663.434	0.0144345
663.512	0.0144757
663.590	0.0145439
663.668	0.0144296
663.746	0.0144264
663.824	0.0144939
663.903	0.0144690
663.981	0.0143268
664.059	0.0143898
664.137	0.0144775
664.215	0.0144659
664.293	0.0145868
664.371	0.0144859
664.449	0.0144062
664.528	0.0144957
664.606	0.0144764
664.684	0.0144246
664.762	0.0143464
664.840	0.0143885
664.918	0.0144208
664.996	0.0144632
665.074	0.0143869
665.153	0.0145129
665.231	0.0144249
665.309	0.0143835
665.387	0.0145123
665.465	0.0143552
665.543	0.0143922
665.621	0.0143373
665.699	0.0145584
665.778	0.0146008
665.856	0.0144921
665.934	0.0145113
666.012	0.0145960
666.090	0.0146198
666.168	0.0144868
666.246	0.0145609
666.324	0.0146020
666.403	0.0145731
666.481	0.0144468
666.559	0.0145268
666.637	0.0146204
666.715	0.0145564
666.793	0.0145882
666.871	0.0145039
666.949	0.0145242
667.028	0.0145868
667.106	0.0144935
667.184	0.0144329
667.262	0.0145197
667.340	0.0145273
667.418	0.0145378
667.496	0.0143922
667.574	0.0146385
667.653	0.0146561
667.731	0.0143561
667.809	0.0142809
667.887	0.0143925
667.965	0.0144616
668.043	0.0143864
668.121	0.0142860
668.199	0.0144308
668.278	0.0145338
668.356	0.0143412
668.434	0.0143105
668.512	0.0144312
668.590	0.0143347
668.668	0.0144682
668.746	0.0145259
668.824	0.0144907
668.903	0.0143608
668.981	0.0143028
669.059	0.0142495
669.137	0.0144138
669.215	0.0143890
669.293	0.0143557
669.371	0.0144032
669.449	0.0141879
669.528	0.0142845
669.606	0.0143277
669.684	0.0142722
669.762	0.0145502
669.840	0.0144431
669.918	0.0141459
669.996	0.0141407
670.074	0.0142985
670.153	0.0142815
670.231	0.0142674
670.309	0.0142297
670.387	0.0143107
670.465	0.0143565
670.543	0.0143503
670.621	0.0143986
670.699	0.0143859
670.778	0.0142671
670.856	0.0142770
670.934	0.0141558
671.012	0.0141796
671.090	0.0142706
671.168	0.0143244
671.246	0.0143537
671.324	0.0143337
671.403	0.0141277
671.481	0.0142072
671.559	0.0143770
671.637	0.0143091
671.715	0.0141562
671.793	0.0141573
671.871	0.0142358
671.949	0.0141759
672.028	0.0142260
672.106	0.0143063
672.184	0.0143360
672.262	0.0142150
672.340	0.0142313
672.418	0.0142410
672.496	0.0142986
672.574	0.0142076
672.653	0.0142213
672.731	0.0142722
672.809	0.0143232
672.887	0.0142613
672.965	0.0142264
673.043	0.0142834
673.121	0.0143708
673.199	0.0142356
673.278	0.0141293
673.356	0.0144002
673.434	0.0143458
673.512	0.0144321
673.590	0.0142074
673.668	0.0143520
673.746	0.0143729
673.824	0.0142657
673.903	0.0144305
673.981	0.0144861
674.059	0.0143582
674.137	0.0143085
674.215	0.0144157
674.293	0.0145016
674.371	0.0143880
674.449	0.0144334
674.528	0.0144733
674.606	0.0144933
674.684	0.0144046
674.762	0.0145963
674.840	0.0146143
674.918	0.0145419
674.996	0.0145437
675.074	0.0145390
675.153	0.0146260
675.231	0.0145670
675.309	0.0146108
675.387	0.0146198
675.465	0.0147288
675.543	0.0146508
675.621	0.0145897
675.699	0.0146052
675.778	0.0147581
675.856	0.0147765
675.934	0.0146201
676.012	0.0146971
676.090	0.0147412
676.168	0.0146066
676.246	0.0146336
676.324	0.0145928
676.403	0.0147217
676.481	0.0147633
676.559	0.0145136
676.637	0.0146101
676.715	0.0148046
676.793	0.0146697
676.871	0.0146765
676.949	0.0147247
677.028	0.0147054
677.106	0.0146272
677.184	0.0145000
677.262	0.0146684
677.340	0.0148258
677.418	0.0146979
677.496	0.0145118
677.574	0.0146145
677.653	0.0146603
677.731	0.0147292
677.809	0.0145973
677.887	0.0146098
677.965	0.0146344
678.043	0.0145383
678.121	0.0146225
678.199	0.0146273
678.278	0.0146958
678.356	0.0147627
678.434	0.0145508
678.512	0.0145912
678.590	0.0145831
678.668	0.0144300
678.746	0.0145449
678.824	0.0146722
678.903	0.0145116
678.981	0.0146326
679.059	0.0147701
679.137	0.0145966
679.215	0.0145496
679.293	0.0146778
679.371	0.0145194
679.449	0.0145685
679.528	0.0146006
679.606	0.0145113
679.684	0.0145982
679.762	0.0145835
679.840	0.0144894
679.918	0.0144520
679.996	0.0144686
680.074	0.0144614
680.153	0.0146255
680.231	0.0144561
680.309	0.0144838
680.387	0.0145479
680.465	0.0144997
680.543	0.0144630
680.621	0.0144629
680.699	0.0144680
680.778	0.0145026
680.856	0.0143961
680.934	0.0143124
681.012	0.0144368
681.090	0.0143304
681.168	0.0144669
681.246	0.0143143
681.324	0.0142536
681.403	0.0144225
681.481	0.0144464
681.559	0.0142233
681.637	0.0143771
681.715	0.0143504
681.793	0.0143571
681.871	0.0143591
681.949	0.0143963
682.028	0.0143678
682.106	0.0144221
682.184	0.0143016
682.262	0.0142811
682.340	0.0145417
682.418	0.0144038
682.496	0.0143587
682.574	0.0144109
682.653	0.0144617
682.731	0.0143785
682.809	0.0143056
682.887	0.0143383
682.965	0.0143504
683.043	0.0143652
683.121	0.0144108
683.199	0.0142867
683.278	0.0144009
683.356	0.0143769
683.434	0.0142139
683.512	0.0143803
683.590	0.0143980
683.668	0.0144062
683.746	0.0144592
683.824	0.0142824
683.903	0.0144040
683.981	0.0144865
684.059	0.0144606
684.137	0.0144083
684.215	0.0142872
684.293	0.0144118
684.371	0.0144434
684.449	0.0143217
684.528	0.0144619
684.606	0.0145587
684.684	0.0144032
684.762	0.0143398
684.840	0.0145106
684.918	0.0145516
684.996	0.0143862
685.074	0.0144987
685.153	0.0145264
685.231	0.0142772
685.309	0.0144661
685.387	0.0144630
685.465	0.0144810
685.543	0.0144272
685.621	0.0143819
685.699	0.0143742
685.778	0.0145313
685.856	0.0144150
685.934	0.0143439
686.012	0.0143551
686.090	0.0145204
686.168	0.0144516
686.246	0.0144466
686.324	0.0144423
686.403	0.0144534
686.481	0.0144040
686.559	0.0144164
686.637	0.0144007
686.715	0.0143814
686.793	0.0143270
686.871	0.0144958
686.949	0.0145260
687.028	0.0144517
687.106	0.0145086
687.184	0.0143856
687.262	0.0144783
687.340	0.0145632
687.418	0.0144503
687.496	0.0144563
687.574	0.0144543
687.653	0.0144498
687.731	0.0145059
687.809	0.0144545
687.887	0.0142609
687.965	0.0144486
688.043	0.0143923
688.121	0.0145082
688.199	0.0144383
688.278	0.0145304
688.356	0.0145395
688.434	0.0144056
688.512	0.0144163
688.590	0.0145408
688.668	0.0145242
688.746	0.0146429
688.824	0.0143705
688.903	0.0144105
688.981	0.0145241
689.059	0.0145699
689.137	0.0144572
689.215	0.0145120
689.293	0.0145564
689.371	0.0146013
689.449	0.0145110
689.528	0.0144904
689.606	0.0144653
689.684	0.0145129
689.762	0.0144534
689.840	0.0144505
689.918	0.0145527
689.996	0.0145216
690.074	0.0145910
690.153	0.0144671
690.231	0.0143655
690.309	0.0144980
690.387	0.0145020
690.465	0.0144641
690.543	0.0144132
690.621	0.0144600
690.699	0.0145181
690.778	0.0143590
690.856	0.0144633
690.934	0.0143974
691.012	0.0144868
691.090	0.0143392
691.168	0.0145646
691.246	0.0145571
691.324	0.0146012
691.403	0.0146034
691.481	0.0146370
691.559	0.0145754
691.637	0.0145666
691.715	0.0145436
691.793	0.0146647
691.871	0.0146375
691.949	0.0145805
692.028	0.0145742
692.106	0.0144662
692.184	0.0144702
692.262	0.0145545
692.340	0.0143896
692.418	0.0144276
692.496	0.0141753
692.574	0.0142096
692.653	0.0140849
692.731	0.0142662
692.809	0.0142712
692.887	0.0141882
692.965	0.0140750
693.043	0.0141618
693.121	0.0142268
693.199	0.0144059
693.278	0.0141790
693.356	0.0142965
693.434	0.0142375
693.512	0.0143791
693.590	0.0144646
693.668	0.0144397
693.746	0.0145838
693.824	0.0144976
693.903	0.0144485
693.981	0.0146278
694.059	0.0145629
694.137	0.0144537
694.215	0.0145403
694.293	0.0146387
694.371	0.0148410
694.449	0.0144901
694.528	0.0144571
694.606	0.0145003
694.684	0.0145780
694.762	0.0146143
694.840	0.0145211
694.918	0.0146524
694.996	0.0146508
695.074	0.0145549
695.153	0.0146410
695.231	0.0146971
695.309	0.0145048
695.387	0.0146441
695.465	0.0147697
695.543	0.0145366
695.621	0.0146345
695.699	0.0146710
695.778	0.0144360
695.856	0.0144051
695.934	0.0144312
696.012	0.0143993
696.090	0.0142109
696.168	0.0141589
696.246	0.0140121
696.324	0.0140161
696.403	0.0141138
696.481	0.0139876
696.559	0.0140881
696.637	0.0139804
696.715	0.0139979
696.793	0.0141372
696.871	0.0140538
696.949	0.0142466
697.028	0.0142494
697.106	0.0142851
697.184	0.0142326
697.262	0.0143433
697.340	0.0143549
697.418	0.0144039
697.496	0.0146008
697.574	0.0144396
697.653	0.0146437
697.731	0.0146786
697.809	0.0145415
697.887	0.0144421
697.965	0.0144947
698.043	0.0144460
698.121	0.0143876
698.199	0.0143821
698.278	0.0143042
698.356	0.0142268
698.434	0.0142203
698.512	0.0141888
698.590	0.0141840
698.668	0.0141747
698.746	0.0142274
698.824	0.0142265
698.903	0.0142021
698.981	0.0141961
699.059	0.0142653
699.137	0.0144128
699.215	0.0142448
699.293	0.0142930
699.371	0.0143766
699.449	0.0146263
699.528	0.0145374
699.606	0.0145518
699.684	0.0145181
699.762	0.0146587
699.840	0.0146922
699.918	0.0147282
699.996	0.0146053
700.074	0.0145670
700.153	0.0145506
700.231	0.0145605
700.309	0.0146181
700.387	0.0145831
700.465	0.0145702
700.543	0.0143607
700.621	0.0143993
700.699	0.0143893
700.778	0.0145000
700.856	0.0145712
700.934	0.0144768
701.012	0.0145672
701.090	0.0144439
701.168	0.0144925
701.246	0.0145409
701.324	0.0147234
701.403	0.0146056
701.481	0.0147044
701.559	0.0146672
701.637	0.0146069
701.715	0.0147408
701.793	0.0145827
701.871	0.0145245
701.949	0.0143971
702.028	0.0145456
702.106	0.0143981
702.184	0.0144700
702.262	0.0144112
702.340	0.0144060
702.418	0.0142458
702.496	0.0143615
702.574	0.0141210
702.653	0.0142535
702.731	0.0141802
702.809	0.0143205
702.887	0.0143880
702.965	0.0143877
703.043	0.0145182
703.121	0.0144402
703.199	0.0144661
703.278	0.0147154
703.356	0.0146502
703.434	0.0147273
703.512	0.0147904
703.590	0.0148290
703.668	0.0147572
703.746	0.0149046
703.824	0.0147758
703.903	0.0148010
703.981	0.0149168
704.059	0.0148660
704.137	0.0148888
704.215	0.0147424
704.293	0.0147626
704.371	0.0148338
704.449	0.0147554
704.528	0.0148456
704.606	0.0148439
704.684	0.0146856
704.762	0.0147882
704.840	0.0149501
704.918	0.0148301
704.996	0.0147977
705.074	0.0146964
705.153	0.0147223
705.231	0.0145834
705.309	0.0146588
705.387	0.0145712
705.465	0.0146479
705.543	0.0147560
705.621	0.0144730
705.699	0.0145923
705.778	0.0145418
705.856	0.0145143
705.934	0.0145086
706.012	0.0144244
706.090	0.0143260
706.168	0.0143904
706.246	0.0142454
706.324	0.0143103
706.403	0.0142786
706.481	0.0142002
706.559	0.0143170
706.637	0.0142368
706.715	0.0141085
706.793	0.0141875
706.871	0.0142740
706.949	0.0141562
707.028	0.0141115
707.106	0.0141071
707.184	0.0139863
707.262	0.0141378
707.340	0.0140276
707.418	0.0139912
707.496	0.0140276
707.574	0.0140593
707.653	0.0142303
707.731	0.0139522
707.809	0.0140439
707.887	0.0140551
707.965	0.0141088
708.043	0.0141298
708.121	0.0143909
708.199	0.0142738
708.278	0.0143208
708.356	0.0143233
708.434	0.0144156
708.512	0.0146304
708.590	0.0146194
708.668	0.0145689
708.746	0.0146708
708.824	0.0146479
708.903	0.0146183
708.981	0.0144572
709.059	0.0145779
709.137	0.0147869
709.215	0.0146159
709.293	0.0146714
709.371	0.0145628
709.449	0.0147083
709.528	0.0145713
709.606	0.0144311
709.684	0.0144204
709.762	0.0144798
709.840	0.0145982
709.918	0.0143852
709.996	0.0144266
710.074	0.0144328
710.153	0.0144430
710.231	0.0143926
710.309	0.0143486
710.387	0.0144791
710.465	0.0145348
710.543	0.0143855
710.621	0.0144675
710.699	0.0144621
710.778	0.0145296
710.856	0.0145016
710.934	0.0145202
711.012	0.0144300
711.090	0.0145207
711.168	0.0143886
711.246	0.0145091
711.324	0.0144401
711.403	0.0144700
711.481	0.0145290
711.559	0.0143982
711.637	0.0144769
711.715	0.0144343
711.793	0.0144744
711.871	0.0144305
711.949	0.0145045
712.028	0.0144901
712.106	0.0145483
712.184	0.0144811
712.262	0.0144971
712.340	0.0145541
712.418	0.0146167
712.496	0.0146145
712.574	0.0145375
712.653	0.0144991
712.731	0.0145658
712.809	0.0145255
712.887	0.0145765
712.965	0.0144701
713.043	0.0144191
713.121	0.0146378
713.199	0.0147221
713.278	0.0145101
713.356	0.0145415
713.434	0.0145258
713.512	0.0145315
713.590	0.0144947
713.668	0.0143660
713.746	0.0143716
713.824	0.0145511
713.903	0.0144395
713.981	0.0144296
714.059	0.0143836
714.137	0.0143697
714.215	0.0145157
714.293	0.0144818
714.371	0.0144482
714.449	0.0144222
714.528	0.0144585
714.606	0.0144874
714.684	0.0143937
714.762	0.0144530
714.840	0.0145439
714.918	0.0144760
714.996	0.0143705
715.074	0.0144169
715.153	0.0144643
715.231	0.0145129
715.309	0.0143869
715.387	0.0144250
715.465	0.0144509
715.543	0.0145107
715.621	0.0143974
715.699	0.0144350
715.778	0.0144057
715.856	0.0144202
715.934	0.0144353
716.012	0.0144099
716.090	0.0143484
716.168	0.0144190
716.246	0.0143768
716.324	0.0144630
716.403	0.0144213
716.481	0.0144030
716.559	0.0144582
716.637	0.0144428
716.715	0.0144460
716.793	0.0145551
716.871	0.0145295
716.949	0.0144272
717.028	0.0143375
717.106	0.0144273
717.184	0.0145312
717.262	0.0146121
717.340	0.0143894
717.418	0.0144467
717.496	0.0144860
717.574	0.0144979
717.653	0.0144437
717.731	0.0144940
717.809	0.0143550
717.887	0.0145209
717.965	0.0144014
718.043	0.0143427
718.121	0.0143221
718.199	0.0143581
718.278	0.0142382
718.356	0.0143573
718.434	0.0144199
718.512	0.0142242
718.590	0.0143038
718.668	0.0143365
718.746	0.0143909
718.824	0.0142489
718.903	0.0144901
718.981	0.0143732
719.059	0.0144337
719.137	0.0144321
719.215	0.0142878
719.293	0.0145132
719.371	0.0145753
719.449	0.0145382
719.528	0.0144401
719.606	0.0145412
719.684	0.0145300
719.762	0.0146066
719.840	0.0145248
719.918	0.0144406
719.996	0.0144686
720.074	0.0145300
720.153	0.0145364
720.231	0.0144781
720.309	0.0144438
720.387	0.0143528
720.465	0.0144587
720.543	0.0145291
720.621	0.0145154
720.699	0.0144524
720.778	0.0144781
720.856	0.0142701
720.934	0.0142642
721.012	0.0144391
721.090	0.0143549
721.168	0.0142622
721.246	0.0144037
721.324	0.0143661
721.403	0.0143360
721.481	0.0143923
721.559	0.0143768
721.637	0.0144289
721.715	0.0144048
721.793	0.0143775
721.871	0.0142462
721.949	0.0142426
722.028	0.0143831
722.106	0.0143718
722.184	0.0143410
722.262	0.0142496
722.340	0.0144224
722.418	0.0143255
722.496	0.0143432
722.574	0.0142796
722.653	0.0143430
722.731	0.0143476
722.809	0.0143163
722.887	0.0143941
722.965	0.0144052
723.043	0.0144269
723.121	0.0144967
723.199	0.0144121
723.278	0.0143842
723.356	0.0144656
723.434	0.0144357
723.512	0.0142790
723.590	0.0144167
723.668	0.0145339
723.746	0.0144955
723.824	0.0144315
723.903	0.0144608
723.981	0.0145504
724.059	0.0145274
724.137	0.0143999
724.215	0.0143694
724.293	0.0144427
724.371	0.0145335
724.449	0.0144033
724.528	0.0145515
724.606	0.0145109
724.684	0.0143673
724.762	0.0143797
724.840	0.0145658
724.918	0.0144392
724.996	0.0144463
725.074	0.0144600
725.153	0.0144743
725.231	0.0145129
725.309	0.0145940
725.387	0.0145636
725.465	0.0143726
725.543	0.0145842
725.621	0.0144895
725.699	0.0144417
725.778	0.0145081
725.856	0.0145000
725.934	0.0145832
726.012	0.0145077
726.090	0.0144400
726.168	0.0143642
726.246	0.0145103
726.324	0.0144397
726.403	0.0143974
726.481	0.0144930
726.559	0.0144785
726.637	0.0144796
726.715	0.0144850
726.793	0.0144936
726.871	0.0145230
726.949	0.0144341
727.028	0.0144940
727.106	0.0144900
727.184	0.0145224
727.262	0.0145000
727.340	0.0142844
727.418	0.0144962
727.496	0.0143488
727.574	0.0144538
727.653	0.0144675
727.731	0.0143930
727.809	0.0144398
727.887	0.0144662
727.965	0.0146072
728.043	0.0144719
728.121	0.0144521
728.199	0.0145024
728.278	0.0145380
728.356	0.0144804
728.434	0.0144580
728.512	0.0144489
728.590	0.0144241
728.668	0.0144370
728.746	0.0144614
728.824	0.0144571
728.903	0.0143296
728.981	0.0144650
729.059	0.0145531
729.137	0.0144675
729.215	0.0144323
729.293	0.0144720
729.371	0.0143707
729.449	0.0143708
729.528	0.0143246
729.606	0.0142863
729.684	0.0143924
729.762	0.0142871
729.840	0.0142841
729.918	0.0143984
729.996	0.0143674
730.074	0.0144032
730.153	0.0144353
730.231	0.0143380
730.309	0.0143993
730.387	0.0143510
730.465	0.0144097
730.543	0.0143223
730.621	0.0143430
730.699	0.0144193
730.778	0.0143517
730.856	0.0144028
730.934	0.0145160
731.012	0.0143649
731.090	0.0143650
731.168	0.0144618
731.246	0.0145351
731.324	0.0144448
731.403	0.0143597
731.481	0.0144106
731.559	0.0143201
731.637	0.0144700
731.715	0.0144835
731.793	0.0144689
731.871	0.0143917
731.949	0.0144198
732.028	0.0143837
732.106	0.0143626
732.184	0.0143748
732.262	0.0143411
732.340	0.0144237
732.418	0.0142820
732.496	0.0143257
732.574	0.0145451
732.653	0.0144449
732.731	0.0143806
732.809	0.0142910
732.887	0.0143204
732.965	0.0144411
733.043	0.0145244
733.121	0.0142555
733.199	0.0143821
733.278	0.0144403
733.356	0.0143316
733.434	0.0143875
733.512	0.0144444
733.590	0.0144474
733.668	0.0144104
733.746	0.0143441
733.824	0.0144726
733.903	0.0143444
733.981	0.0144567
734.059	0.0143658
734.137	0.0142455
734.215	0.0142893
734.293	0.0144475
734.371	0.0143925
734.449	0.0144204
734.528	0.0144592
734.606	0.0143719
734.684	0.0143744
734.762	0.0144746
734.840	0.0143798
734.918	0.0143227
734.996	0.0144003
735.074	0.0145339
735.153	0.0144715
735.231	0.0144434
735.309	0.0144733
735.387	0.0144336
735.465	0.0146045
735.543	0.0144422
735.621	0.0144559
735.699	0.0146481
