05/08/2022	20:28:07	Ver.	4.1	UNKNOWN
Optical Delay	600.015094	Delta X		0.078125	Sweeps	1	Scan Rate	0/0
Coordinates	Axis 1	NaN	Axis 2	NaN	Axis 3	NaN	Axis 4	NaN	Axis 5	NaN	Axis 6	0.000000
TX Power	0.000000	RX Power	0.000000

600.015	0.0131904
600.093	0.0133609
600.171	0.0133216
600.249	0.0132684
600.328	0.0133755
600.406	0.0134512
600.484	0.0134056
600.562	0.0132787
600.640	0.0133299
600.718	0.0134324
600.796	0.0133707
600.874	0.0134423
600.953	0.0133826
601.031	0.0134461
601.109	0.0132687
601.187	0.0133611
601.265	0.0134058
601.343	0.0135426
601.421	0.0133860
601.499	0.0132804
601.578	0.0133247
601.656	0.0134140
601.734	0.0132407
601.812	0.0131849
601.890	0.0132716
601.968	0.0132118
602.046	0.0130647
602.124	0.0131133
602.203	0.0132005
602.281	0.0130666
602.359	0.0131624
602.437	0.0132912
602.515	0.0131155
602.593	0.0131347
602.671	0.0130983
602.749	0.0130747
602.828	0.0130902
602.906	0.0130328
602.984	0.0130708
603.062	0.0131647
603.140	0.0130958
603.218	0.0131416
603.296	0.0131348
603.374	0.0131367
603.453	0.0130344
603.531	0.0132002
603.609	0.0131036
603.687	0.0130705
603.765	0.0130936
603.843	0.0130066
603.921	0.0130968
603.999	0.0131615
604.078	0.0129881
604.156	0.0130141
604.234	0.0131840
604.312	0.0130730
604.390	0.0130803
604.468	0.0131957
604.546	0.0130347
604.624	0.0130038
604.703	0.0130473
604.781	0.0131870
604.859	0.0131075
604.937	0.0132631
605.015	0.0133051
605.093	0.0131887
605.171	0.0130690
605.249	0.0130771
605.328	0.0130754
605.406	0.0131352
605.484	0.0131727
605.562	0.0129908
605.640	0.0131307
605.718	0.0130275
605.796	0.0130494
605.874	0.0130636
605.953	0.0128544
606.031	0.0128560
606.109	0.0129169
606.187	0.0128004
606.265	0.0127370
606.343	0.0128144
606.421	0.0128374
606.499	0.0128115
606.578	0.0128433
606.656	0.0128796
606.734	0.0129326
606.812	0.0128984
606.890	0.0129255
606.968	0.0128186
607.046	0.0127834
607.124	0.0128993
607.203	0.0129293
607.281	0.0128793
607.359	0.0128029
607.437	0.0129063
607.515	0.0129192
607.593	0.0129922
607.671	0.0129352
607.749	0.0129025
607.828	0.0129815
607.906	0.0128952
607.984	0.0128741
608.062	0.0129848
608.140	0.0129924
608.218	0.0128735
608.296	0.0128516
608.374	0.0129565
608.453	0.0130474
608.531	0.0130083
608.609	0.0130354
608.687	0.0129455
608.765	0.0130370
608.843	0.0131423
608.921	0.0131258
608.999	0.0131317
609.078	0.0131878
609.156	0.0131550
609.234	0.0131867
609.312	0.0132266
609.390	0.0131194
609.468	0.0132198
609.546	0.0132365
609.624	0.0131875
609.703	0.0130765
609.781	0.0132011
609.859	0.0133109
609.937	0.0132745
610.015	0.0132007
610.093	0.0131197
610.171	0.0131716
610.249	0.0131998
610.328	0.0132790
610.406	0.0131343
610.484	0.0131974
610.562	0.0132019
610.640	0.0131925
610.718	0.0132381
610.796	0.0131921
610.874	0.0131496
610.953	0.0133371
611.031	0.0133109
611.109	0.0133512
611.187	0.0131837
611.265	0.0131065
611.343	0.0133194
611.421	0.0132761
611.499	0.0131915
611.578	0.0131933
611.656	0.0131714
611.734	0.0133123
611.812	0.0132291
611.890	0.0133263
611.968	0.0131761
612.046	0.0129774
612.124	0.0132490
612.203	0.0131477
612.281	0.0131968
612.359	0.0130978
612.437	0.0131987
612.515	0.0131130
612.593	0.0130788
612.671	0.0130624
612.749	0.0130248
612.828	0.0130341
612.906	0.0129066
612.984	0.0128572
613.062	0.0128658
613.140	0.0130151
613.218	0.0129883
613.296	0.0128742
613.374	0.0130312
613.453	0.0130799
613.531	0.0130575
613.609	0.0131424
613.687	0.0130922
613.765	0.0130531
613.843	0.0130924
613.921	0.0130363
613.999	0.0130455
614.078	0.0132119
614.156	0.0132250
614.234	0.0132256
614.312	0.0131759
614.390	0.0131945
614.468	0.0132271
614.546	0.0131841
614.624	0.0132008
614.703	0.0132758
614.781	0.0132319
614.859	0.0131233
614.937	0.0131795
615.015	0.0131631
615.093	0.0131760
615.171	0.0131638
615.249	0.0131477
615.328	0.0131786
615.406	0.0132478
615.484	0.0131240
615.562	0.0132629
615.640	0.0132490
615.718	0.0132539
615.796	0.0131795
615.874	0.0131905
615.953	0.0132842
616.031	0.0133005
616.109	0.0133601
616.187	0.0132913
616.265	0.0132616
616.343	0.0133401
616.421	0.0133415
616.499	0.0133231
616.578	0.0133264
616.656	0.0133150
616.734	0.0134347
616.812	0.0134454
616.890	0.0132550
616.968	0.0133621
617.046	0.0133057
617.124	0.0132302
617.203	0.0133403
617.281	0.0131683
617.359	0.0133394
617.437	0.0133113
617.515	0.0132501
617.593	0.0131671
617.671	0.0131953
617.749	0.0132375
617.828	0.0131120
617.906	0.0131773
617.984	0.0132626
618.062	0.0132904
618.140	0.0131966
618.218	0.0131622
618.296	0.0131623
618.374	0.0131447
618.453	0.0131678
618.531	0.0131016
618.609	0.0130215
618.687	0.0131531
618.765	0.0131815
618.843	0.0130901
618.921	0.0131020
618.999	0.0132158
619.078	0.0130544
619.156	0.0131695
619.234	0.0132393
619.312	0.0130913
619.390	0.0132094
619.468	0.0131964
619.546	0.0130869
619.624	0.0130693
619.703	0.0131587
619.781	0.0131213
619.859	0.0132052
619.937	0.0130777
620.015	0.0129748
620.093	0.0130392
620.171	0.0129177
620.249	0.0131805
620.328	0.0130496
620.406	0.0130441
620.484	0.0131121
620.562	0.0129076
620.640	0.0129761
620.718	0.0131612
620.796	0.0131123
620.874	0.0131065
620.953	0.0130648
621.031	0.0132190
621.109	0.0130973
621.187	0.0131394
621.265	0.0130458
621.343	0.0131882
621.421	0.0131050
621.499	0.0132334
621.578	0.0131654
621.656	0.0133300
621.734	0.0131498
621.812	0.0130952
621.890	0.0131107
621.968	0.0131009
622.046	0.0131841
622.124	0.0130922
622.203	0.0131107
622.281	0.0130837
622.359	0.0132305
622.437	0.0130497
622.515	0.0130751
622.593	0.0131829
622.671	0.0130174
622.749	0.0131593
622.828	0.0132159
622.906	0.0132059
622.984	0.0132914
623.062	0.0131065
623.140	0.0131819
623.218	0.0132279
623.296	0.0131298
623.374	0.0130610
623.453	0.0130753
623.531	0.0132644
623.609	0.0132521
623.687	0.0131613
623.765	0.0131496
623.843	0.0132117
623.921	0.0132338
623.999	0.0130513
624.078	0.0131532
624.156	0.0132388
624.234	0.0132523
624.312	0.0130727
624.390	0.0131018
624.468	0.0130901
624.546	0.0131298
624.624	0.0132381
624.703	0.0130988
624.781	0.0129928
624.859	0.0129222
624.937	0.0130676
625.015	0.0130913
625.093	0.0131801
625.171	0.0131473
625.249	0.0131268
625.328	0.0130147
625.406	0.0132120
625.484	0.0131115
625.562	0.0131237
625.640	0.0131867
625.718	0.0131326
625.796	0.0130204
625.874	0.0132001
625.953	0.0130245
626.031	0.0130170
626.109	0.0130978
626.187	0.0131575
626.265	0.0131227
626.343	0.0131211
626.421	0.0130886
626.499	0.0130833
626.578	0.0131072
626.656	0.0131363
626.734	0.0130667
626.812	0.0131606
626.890	0.0131421
626.968	0.0131981
627.046	0.0130163
627.124	0.0131467
627.203	0.0133038
627.281	0.0129900
627.359	0.0130092
627.437	0.0131023
627.515	0.0130169
627.593	0.0129834
627.671	0.0130697
627.749	0.0130345
627.828	0.0129766
627.906	0.0131777
627.984	0.0130891
628.062	0.0131387
628.140	0.0131519
628.218	0.0129520
628.296	0.0129044
628.374	0.0131816
628.453	0.0129654
628.531	0.0131718
628.609	0.0131179
628.687	0.0130216
628.765	0.0131081
628.843	0.0130193
628.921	0.0130845
628.999	0.0128906
629.078	0.0130185
629.156	0.0129577
629.234	0.0130852
629.312	0.0130606
629.390	0.0130673
629.468	0.0130357
629.546	0.0130545
629.624	0.0130999
629.703	0.0131454
629.781	0.0129816
629.859	0.0130736
629.937	0.0131078
630.015	0.0132824
630.093	0.0131522
630.171	0.0131031
630.249	0.0130975
630.328	0.0132169
630.406	0.0130657
630.484	0.0131537
630.562	0.0130978
630.640	0.0130235
630.718	0.0130565
630.796	0.0130202
630.874	0.0130381
630.953	0.0130188
631.031	0.0130142
631.109	0.0131208
631.187	0.0131157
631.265	0.0130714
631.343	0.0130389
631.421	0.0131332
631.499	0.0131641
631.578	0.0130465
631.656	0.0130655
631.734	0.0131786
631.812	0.0130084
631.890	0.0132160
631.968	0.0132336
632.046	0.0130125
632.124	0.0131027
632.203	0.0132698
632.281	0.0132287
632.359	0.0131413
632.437	0.0133462
632.515	0.0133358
632.593	0.0133293
632.671	0.0133027
632.749	0.0132530
632.828	0.0134310
632.906	0.0134215
632.984	0.0133166
633.062	0.0132075
633.140	0.0133093
633.218	0.0132700
633.296	0.0132238
633.374	0.0131412
633.453	0.0132482
633.531	0.0132601
633.609	0.0130838
633.687	0.0131676
633.765	0.0131364
633.843	0.0131531
633.921	0.0130952
633.999	0.0130914
634.078	0.0129223
634.156	0.0130009
634.234	0.0130882
634.312	0.0131299
634.390	0.0129707
634.468	0.0131222
634.546	0.0130202
634.624	0.0130041
634.703	0.0131046
634.781	0.0131013
634.859	0.0130006
634.937	0.0131998
635.015	0.0130015
635.093	0.0130338
635.171	0.0130138
635.249	0.0131587
635.328	0.0131653
635.406	0.0131113
635.484	0.0130708
635.562	0.0130257
635.640	0.0130217
635.718	0.0128965
635.796	0.0129416
635.874	0.0129849
635.953	0.0130405
636.031	0.0129062
636.109	0.0129927
636.187	0.0128778
636.265	0.0128102
636.343	0.0128716
636.421	0.0128590
636.499	0.0127353
636.578	0.0127031
636.656	0.0127721
636.734	0.0128133
636.812	0.0126830
636.890	0.0127210
636.968	0.0127232
637.046	0.0127717
637.124	0.0126840
637.203	0.0128000
637.281	0.0129514
637.359	0.0128020
637.437	0.0127988
637.515	0.0130127
637.593	0.0129510
637.671	0.0129978
637.749	0.0130731
637.828	0.0128500
637.906	0.0129480
637.984	0.0128966
638.062	0.0128936
638.140	0.0130085
638.218	0.0128271
638.296	0.0126534
638.374	0.0128075
638.453	0.0127151
638.531	0.0127893
638.609	0.0128420
638.687	0.0127577
638.765	0.0127904
638.843	0.0128301
638.921	0.0127964
638.999	0.0127563
639.078	0.0129460
639.156	0.0129536
639.234	0.0128959
639.312	0.0128481
639.390	0.0129876
639.468	0.0129464
639.546	0.0129677
639.624	0.0130855
639.703	0.0129733
639.781	0.0129535
639.859	0.0130563
639.937	0.0128970
640.015	0.0129832
640.093	0.0130256
640.171	0.0130824
640.249	0.0131834
640.328	0.0130426
640.406	0.0130315
640.484	0.0130023
640.562	0.0130241
640.640	0.0129611
640.718	0.0129688
640.796	0.0130134
640.874	0.0130770
640.953	0.0129807
641.031	0.0128898
641.109	0.0128704
641.187	0.0128244
641.265	0.0129905
641.343	0.0129750
641.421	0.0128487
641.499	0.0129233
641.578	0.0129330
641.656	0.0130041
641.734	0.0130734
641.812	0.0130200
641.890	0.0129988
641.968	0.0132104
642.046	0.0131014
642.124	0.0131551
642.203	0.0132689
642.281	0.0131123
642.359	0.0132440
642.437	0.0133051
642.515	0.0131734
642.593	0.0131502
642.671	0.0131487
642.749	0.0132388
642.828	0.0131353
642.906	0.0131921
642.984	0.0133914
643.062	0.0131467
643.140	0.0131718
643.218	0.0132139
643.296	0.0130017
643.374	0.0129785
643.453	0.0128923
643.531	0.0128649
643.609	0.0127454
643.687	0.0126952
643.765	0.0125597
643.843	0.0124167
643.921	0.0124789
643.999	0.0124960
644.078	0.0123502
644.156	0.0123413
644.234	0.0123890
644.312	0.0124567
644.390	0.0124519
644.468	0.0124963
644.546	0.0125610
644.624	0.0127648
644.703	0.0129197
644.781	0.0129692
644.859	0.0129982
644.937	0.0132458
645.015	0.0133208
645.093	0.0135649
645.171	0.0137312
645.249	0.0139725
645.328	0.0140964
645.406	0.0141366
645.484	0.0141423
645.562	0.0143267
645.640	0.0143069
645.718	0.0141719
645.796	0.0143754
645.874	0.0140270
645.953	0.0140715
646.031	0.0139367
646.109	0.0137950
646.187	0.0135316
646.265	0.0132768
646.343	0.0132064
646.421	0.0129333
646.499	0.0129720
646.578	0.0125917
646.656	0.0123967
646.734	0.0122530
646.812	0.0122270
646.890	0.0119716
646.968	0.0118690
647.046	0.0118076
647.124	0.0118046
647.203	0.0118038
647.281	0.0118415
647.359	0.0117665
647.437	0.0118675
647.515	0.0119415
647.593	0.0121719
647.671	0.0121414
647.749	0.0125100
647.828	0.0128841
647.906	0.0129440
647.984	0.0130757
648.062	0.0134077
648.140	0.0136030
648.218	0.0138114
648.296	0.0140751
648.374	0.0140854
648.453	0.0142413
648.531	0.0145300
648.609	0.0145543
648.687	0.0146008
648.765	0.0146741
648.843	0.0146747
648.921	0.0146493
648.999	0.0145182
649.078	0.0145564
649.156	0.0145905
649.234	0.0144949
649.312	0.0142840
649.390	0.0142056
649.468	0.0140118
649.546	0.0137766
649.624	0.0135473
649.703	0.0134651
649.781	0.0130607
649.859	0.0128503
649.937	0.0125813
650.015	0.0124807
650.093	0.0122050
650.171	0.0120602
650.249	0.0119364
650.328	0.0117338
650.406	0.0118099
650.484	0.0116508
650.562	0.0116518
650.640	0.0115625
650.718	0.0117042
650.796	0.0116436
650.874	0.0116249
650.953	0.0116625
651.031	0.0118487
651.109	0.0118599
651.187	0.0118209
651.265	0.0120346
651.343	0.0121021
651.421	0.0122667
651.499	0.0123582
651.578	0.0123443
651.656	0.0126344
651.734	0.0131049
651.812	0.0130955
651.890	0.0132392
651.968	0.0134851
652.046	0.0135957
652.124	0.0136387
652.203	0.0136947
652.281	0.0138605
652.359	0.0138982
652.437	0.0140218
652.515	0.0142145
652.593	0.0141640
652.671	0.0140390
652.749	0.0140570
652.828	0.0140771
652.906	0.0141484
652.984	0.0139015
653.062	0.0139111
653.140	0.0140219
653.218	0.0138362
653.296	0.0139809
653.374	0.0137697
653.453	0.0137774
653.531	0.0136865
653.609	0.0137129
653.687	0.0138126
653.765	0.0135777
653.843	0.0134846
653.921	0.0134678
653.999	0.0132242
654.078	0.0130073
654.156	0.0129659
654.234	0.0129595
654.312	0.0127129
654.390	0.0126785
654.468	0.0124934
654.546	0.0122640
654.624	0.0122488
654.703	0.0118851
654.781	0.0117901
654.859	0.0116997
654.937	0.0116531
655.015	0.0114207
655.093	0.0115561
655.171	0.0114603
655.249	0.0113465
655.328	0.0112307
655.406	0.0111602
655.484	0.0112231
655.562	0.0113380
655.640	0.0114002
655.718	0.0114666
655.796	0.0113416
655.874	0.0116892
655.953	0.0117419
656.031	0.0120538
656.109	0.0122606
656.187	0.0124279
656.265	0.0127564
656.343	0.0131304
656.421	0.0133387
656.499	0.0135879
656.578	0.0138332
656.656	0.0140269
656.734	0.0144370
656.812	0.0147624
656.890	0.0148782
656.968	0.0151076
657.046	0.0153171
657.124	0.0154075
657.203	0.0155418
657.281	0.0155915
657.359	0.0157501
657.437	0.0156355
657.515	0.0154409
657.593	0.0153962
657.671	0.0152462
657.749	0.0149871
657.828	0.0149094
657.906	0.0146055
657.984	0.0141438
658.062	0.0139065
658.140	0.0134736
658.218	0.0131530
658.296	0.0127857
658.374	0.0123531
658.453	0.0119296
658.531	0.0115110
658.609	0.0111724
658.687	0.0109102
658.765	0.0108686
658.843	0.0103761
658.921	0.0101694
658.999	0.00996811
659.078	0.0100022
659.156	0.00995529
659.234	0.0100710
659.312	0.0100392
659.390	0.0100112
659.468	0.0100723
659.546	0.0103623
659.624	0.0105617
659.703	0.0106651
659.781	0.0110180
659.859	0.0113490
659.937	0.0117193
660.015	0.0120289
660.093	0.0123392
660.171	0.0128231
660.249	0.0130358
660.328	0.0133647
660.406	0.0137225
660.484	0.0140728
660.562	0.0143295
660.640	0.0146483
660.718	0.0148943
660.796	0.0150896
660.874	0.0151992
660.953	0.0154672
661.031	0.0156555
661.109	0.0156380
661.187	0.0158542
661.265	0.0157037
661.343	0.0157713
661.421	0.0158537
661.499	0.0157461
661.578	0.0156124
661.656	0.0154771
661.734	0.0152490
661.812	0.0150084
661.890	0.0149335
661.968	0.0147703
662.046	0.0145620
662.124	0.0141009
662.203	0.0138390
662.281	0.0135240
662.359	0.0132069
662.437	0.0129151
662.515	0.0127727
662.593	0.0123969
662.671	0.0122262
662.749	0.0119028
662.828	0.0117319
662.906	0.0113473
662.984	0.0112325
663.062	0.0112126
663.140	0.0108654
663.218	0.0107146
663.296	0.0106738
663.374	0.0105410
663.453	0.0105243
663.531	0.0105341
663.609	0.0104942
663.687	0.0105920
663.765	0.0106800
663.843	0.0107256
663.921	0.0107900
663.999	0.0109570
664.078	0.0111991
664.156	0.0112798
664.234	0.0115102
664.312	0.0117682
664.390	0.0122201
664.468	0.0123978
664.546	0.0128217
664.624	0.0131217
664.703	0.0135606
664.781	0.0138029
664.859	0.0140738
664.937	0.0146204
665.015	0.0146963
665.093	0.0148869
665.171	0.0151820
665.249	0.0154386
665.328	0.0154028
665.406	0.0155212
665.484	0.0155988
665.562	0.0156121
665.640	0.0155917
665.718	0.0155565
665.796	0.0155171
665.874	0.0155421
665.953	0.0152332
666.031	0.0151579
666.109	0.0149316
666.187	0.0146617
666.265	0.0144071
666.343	0.0142187
666.421	0.0140244
666.499	0.0137646
666.578	0.0136649
666.656	0.0132565
666.734	0.0130283
666.812	0.0128368
666.890	0.0126730
666.968	0.0124728
667.046	0.0125005
667.124	0.0123210
667.203	0.0121815
667.281	0.0120845
667.359	0.0119807
667.437	0.0118345
667.515	0.0117282
667.593	0.0118047
667.671	0.0116850
667.749	0.0116937
667.828	0.0116893
667.906	0.0117221
667.984	0.0117757
668.062	0.0118085
668.140	0.0118550
668.218	0.0116454
668.296	0.0117860
668.374	0.0120697
668.453	0.0121071
668.531	0.0120827
668.609	0.0122741
668.687	0.0123632
668.765	0.0126181
668.843	0.0126294
668.921	0.0128768
668.999	0.0129066
669.078	0.0130753
669.156	0.0131398
669.234	0.0132622
669.312	0.0134167
669.390	0.0134998
669.468	0.0137131
669.546	0.0136312
669.624	0.0137832
669.703	0.0140958
669.781	0.0141956
669.859	0.0141656
669.937	0.0143855
670.015	0.0143626
670.093	0.0145306
670.171	0.0145117
670.249	0.0145494
670.328	0.0146429
670.406	0.0146278
670.484	0.0145914
670.562	0.0145340
670.640	0.0145190
670.718	0.0144879
670.796	0.0143000
670.874	0.0142445
670.953	0.0141405
671.031	0.0138651
671.109	0.0137714
671.187	0.0134853
671.265	0.0133485
671.343	0.0132051
671.421	0.0131148
671.499	0.0129419
671.578	0.0127492
671.656	0.0124899
671.734	0.0124985
671.812	0.0123216
671.890	0.0123183
671.968	0.0122544
672.046	0.0122819
672.124	0.0121698
672.203	0.0122025
672.281	0.0122220
672.359	0.0122223
672.437	0.0121405
672.515	0.0122519
672.593	0.0122681
672.671	0.0122776
672.749	0.0124133
672.828	0.0123904
672.906	0.0124411
672.984	0.0124506
673.062	0.0126424
673.140	0.0127949
673.218	0.0128107
673.296	0.0127224
673.374	0.0128084
673.453	0.0129489
673.531	0.0127370
673.609	0.0129984
673.687	0.0129759
673.765	0.0129313
673.843	0.0129441
673.921	0.0128707
673.999	0.0129324
674.078	0.0131226
674.156	0.0130854
674.234	0.0130327
674.312	0.0129613
674.390	0.0129850
674.468	0.0129475
674.546	0.0130429
674.624	0.0129604
674.703	0.0128577
674.781	0.0129977
674.859	0.0129037
674.937	0.0129410
675.015	0.0128566
675.093	0.0128194
675.171	0.0128335
675.249	0.0129967
675.328	0.0128632
675.406	0.0129375
675.484	0.0130642
675.562	0.0130946
675.640	0.0132039
675.718	0.0131764
675.796	0.0132169
675.874	0.0132545
675.953	0.0133012
676.031	0.0134790
676.109	0.0135387
676.187	0.0135431
676.265	0.0135213
676.343	0.0136067
676.421	0.0135998
676.499	0.0135704
676.578	0.0136304
676.656	0.0137490
676.734	0.0135850
676.812	0.0135384
676.890	0.0135560
676.968	0.0135841
677.046	0.0134615
677.124	0.0134250
677.203	0.0133234
677.281	0.0133429
677.359	0.0131605
677.437	0.0130896
677.515	0.0130882
677.593	0.0130270
677.671	0.0129598
677.749	0.0129422
677.828	0.0128841
677.906	0.0130917
677.984	0.0130174
678.062	0.0130375
678.140	0.0130374
678.218	0.0130079
678.296	0.0130940
678.374	0.0131085
678.453	0.0132104
678.531	0.0131710
678.609	0.0130627
678.687	0.0131081
678.765	0.0130480
678.843	0.0133493
678.921	0.0132980
678.999	0.0132520
679.078	0.0131451
679.156	0.0131545
679.234	0.0133323
679.312	0.0131595
679.390	0.0131070
679.468	0.0132308
679.546	0.0133706
679.624	0.0131485
679.703	0.0132623
679.781	0.0132807
679.859	0.0132525
679.937	0.0132923
680.015	0.0133456
680.093	0.0134470
680.171	0.0132771
680.249	0.0134559
680.328	0.0133117
680.406	0.0132382
680.484	0.0134362
680.562	0.0133917
680.640	0.0132880
680.718	0.0132582
680.796	0.0133513
680.874	0.0133653
680.953	0.0133308
681.031	0.0132827
681.109	0.0131461
681.187	0.0129137
681.265	0.0130334
681.343	0.0128164
681.421	0.0127733
681.499	0.0129206
681.578	0.0126371
681.656	0.0126770
681.734	0.0126139
681.812	0.0127351
681.890	0.0127693
681.968	0.0126122
682.046	0.0127740
682.124	0.0127586
682.203	0.0127556
682.281	0.0128635
682.359	0.0128956
682.437	0.0129235
682.515	0.0129874
682.593	0.0129151
682.671	0.0130781
682.749	0.0130279
682.828	0.0129526
682.906	0.0129585
682.984	0.0129833
683.062	0.0130447
683.140	0.0129463
683.218	0.0130006
683.296	0.0130103
683.374	0.0128898
683.453	0.0129803
683.531	0.0128867
683.609	0.0129356
683.687	0.0130029
683.765	0.0129464
683.843	0.0129539
683.921	0.0130433
683.999	0.0130947
684.078	0.0129358
684.156	0.0130496
684.234	0.0130112
684.312	0.0132087
684.390	0.0131217
684.468	0.0132052
684.546	0.0133823
684.624	0.0132880
684.703	0.0130064
684.781	0.0132228
684.859	0.0132387
684.937	0.0133640
685.015	0.0133562
685.093	0.0133891
685.171	0.0136071
685.249	0.0136615
685.328	0.0136780
685.406	0.0136549
685.484	0.0137309
685.562	0.0137380
685.640	0.0139249
685.718	0.0137440
