05/08/2022	19:31:09	Ver.	4.1	UNKNOWN
Optical Delay	649.989667	Delta X		0.078125	Sweeps	1	Scan Rate	0/0
Coordinates	Axis 1	NaN	Axis 2	NaN	Axis 3	NaN	Axis 4	NaN	Axis 5	NaN	Axis 6	0.000000
TX Power	0.000000	RX Power	0.000000

649.990	0.0147849
650.068	0.0149174
650.146	0.0147680
650.224	0.0147211
650.302	0.0148830
650.380	0.0148139
650.458	0.0147930
650.537	0.0147888
650.615	0.0146842
650.693	0.0146861
650.771	0.0147446
650.849	0.0148087
650.927	0.0148705
651.005	0.0147595
651.083	0.0147587
651.162	0.0147522
651.240	0.0148259
651.318	0.0148547
651.396	0.0146458
651.474	0.0147936
651.552	0.0147496
651.630	0.0147758
651.708	0.0147427
651.787	0.0148726
651.865	0.0148449
651.943	0.0147861
652.021	0.0147057
652.099	0.0147960
652.177	0.0147836
652.255	0.0147196
652.333	0.0149689
652.412	0.0147858
652.490	0.0149156
652.568	0.0147300
652.646	0.0146675
652.724	0.0147890
652.802	0.0147784
652.880	0.0147688
652.958	0.0146646
653.037	0.0147989
653.115	0.0149267
653.193	0.0147540
653.271	0.0148584
653.349	0.0147737
653.427	0.0147057
653.505	0.0147345
653.583	0.0147237
653.662	0.0147409
653.740	0.0149355
653.818	0.0146959
653.896	0.0147447
653.974	0.0147601
654.052	0.0147791
654.130	0.0146784
654.208	0.0146261
654.287	0.0148441
654.365	0.0148597
654.443	0.0148746
654.521	0.0148496
654.599	0.0146664
654.677	0.0148928
654.755	0.0146534
654.833	0.0147629
654.912	0.0147055
654.990	0.0148411
655.068	0.0148367
655.146	0.0147712
655.224	0.0148415
655.302	0.0148602
655.380	0.0148226
655.458	0.0147374
655.537	0.0148791
655.615	0.0148993
655.693	0.0147647
655.771	0.0147584
655.849	0.0148908
655.927	0.0147884
656.005	0.0147151
656.083	0.0148254
656.162	0.0147410
656.240	0.0147580
656.318	0.0147929
656.396	0.0148851
656.474	0.0148689
656.552	0.0147811
656.630	0.0147369
656.708	0.0148504
656.787	0.0146680
656.865	0.0148618
656.943	0.0147485
657.021	0.0148250
657.099	0.0149042
657.177	0.0147821
657.255	0.0147787
657.333	0.0149175
657.412	0.0146606
657.490	0.0147955
657.568	0.0148473
657.646	0.0147723
657.724	0.0147409
657.802	0.0148203
657.880	0.0147087
657.958	0.0147951
658.037	0.0147649
658.115	0.0148127
658.193	0.0147440
658.271	0.0146828
658.349	0.0148521
658.427	0.0148506
658.505	0.0149267
658.583	0.0149000
658.662	0.0148811
658.740	0.0148028
658.818	0.0148492
658.896	0.0148544
658.974	0.0148281
659.052	0.0146378
659.130	0.0148358
659.208	0.0148933
659.287	0.0149119
659.365	0.0148136
659.443	0.0148191
659.521	0.0148503
659.599	0.0147122
659.677	0.0146885
659.755	0.0147969
659.833	0.0147432
659.912	0.0148190
659.990	0.0148672
660.068	0.0148502
660.146	0.0148083
660.224	0.0147861
660.302	0.0148265
660.380	0.0147887
660.458	0.0148125
660.537	0.0147770
660.615	0.0147686
660.693	0.0146453
660.771	0.0147333
660.849	0.0147816
660.927	0.0146805
661.005	0.0147736
661.083	0.0148376
661.162	0.0148008
661.240	0.0147408
661.318	0.0148090
661.396	0.0147432
661.474	0.0147726
661.552	0.0147477
661.630	0.0147895
661.708	0.0148035
661.787	0.0148064
661.865	0.0147068
661.943	0.0146422
662.021	0.0147161
662.099	0.0147813
662.177	0.0147650
662.255	0.0147656
662.333	0.0148579
662.412	0.0148034
662.490	0.0146589
662.568	0.0145869
662.646	0.0148752
662.724	0.0147664
662.802	0.0148675
662.880	0.0147312
662.958	0.0147283
663.037	0.0147704
663.115	0.0147417
663.193	0.0147002
663.271	0.0148045
663.349	0.0146741
663.427	0.0147420
663.505	0.0148122
663.583	0.0146807
663.662	0.0145851
663.740	0.0146967
663.818	0.0148763
663.896	0.0148110
663.974	0.0148061
664.052	0.0148724
664.130	0.0149121
664.208	0.0147495
664.287	0.0147996
664.365	0.0148885
664.443	0.0147626
664.521	0.0148624
664.599	0.0147319
664.677	0.0148790
664.755	0.0147350
664.833	0.0147919
664.912	0.0148665
664.990	0.0147663
665.068	0.0147832
665.146	0.0148492
665.224	0.0149699
665.302	0.0147685
665.380	0.0147719
665.458	0.0147771
665.537	0.0148447
665.615	0.0148412
665.693	0.0148467
665.771	0.0148405
665.849	0.0147484
665.927	0.0148984
666.005	0.0147790
666.083	0.0148561
666.162	0.0147984
666.240	0.0147030
666.318	0.0148590
666.396	0.0147618
666.474	0.0147599
666.552	0.0147412
666.630	0.0148474
666.708	0.0148674
666.787	0.0147639
666.865	0.0148268
666.943	0.0148502
667.021	0.0148976
667.099	0.0149034
667.177	0.0148893
667.255	0.0148189
667.333	0.0147572
667.412	0.0149297
667.490	0.0148561
667.568	0.0148821
667.646	0.0148184
667.724	0.0147626
667.802	0.0147245
667.880	0.0146455
667.958	0.0148017
668.037	0.0147825
668.115	0.0147643
668.193	0.0148851
668.271	0.0149240
668.349	0.0146764
668.427	0.0146897
668.505	0.0146437
668.583	0.0148110
668.662	0.0147787
668.740	0.0146242
668.818	0.0147053
668.896	0.0147289
668.974	0.0147218
669.052	0.0146626
669.130	0.0146014
669.208	0.0146405
669.287	0.0145479
669.365	0.0148047
669.443	0.0147742
669.521	0.0145595
669.599	0.0146361
669.677	0.0147826
669.755	0.0145651
669.833	0.0146819
669.912	0.0146190
669.990	0.0145453
670.068	0.0145701
670.146	0.0145617
670.224	0.0145383
670.302	0.0146107
670.380	0.0145106
670.458	0.0146781
670.537	0.0145667
670.615	0.0146492
670.693	0.0145636
670.771	0.0144712
670.849	0.0146047
670.927	0.0145009
671.005	0.0144698
671.083	0.0145245
671.162	0.0145274
671.240	0.0144966
671.318	0.0145528
671.396	0.0146161
671.474	0.0146565
671.552	0.0145107
671.630	0.0145876
671.708	0.0145991
671.787	0.0145841
671.865	0.0144924
671.943	0.0145300
672.021	0.0145363
672.099	0.0146292
672.177	0.0145439
672.255	0.0144339
672.333	0.0145437
672.412	0.0144788
672.490	0.0144817
672.568	0.0145795
672.646	0.0145122
672.724	0.0145170
672.802	0.0144827
672.880	0.0144366
672.958	0.0145921
673.037	0.0146379
673.115	0.0145027
673.193	0.0145574
673.271	0.0145570
673.349	0.0146246
673.427	0.0144610
673.505	0.0145270
673.583	0.0144760
673.662	0.0144136
673.740	0.0146368
673.818	0.0146432
673.896	0.0145423
673.974	0.0147413
674.052	0.0147755
674.130	0.0146483
674.208	0.0146327
674.287	0.0148074
674.365	0.0149046
674.443	0.0147966
674.521	0.0146623
674.599	0.0146952
674.677	0.0147937
674.755	0.0149471
674.833	0.0148337
674.912	0.0148595
674.990	0.0148103
675.068	0.0148891
675.146	0.0147829
675.224	0.0147456
675.302	0.0149873
675.380	0.0149893
675.458	0.0148652
675.537	0.0149788
675.615	0.0149538
675.693	0.0148168
675.771	0.0149615
675.849	0.0149612
675.927	0.0148801
676.005	0.0149274
676.083	0.0149849
676.162	0.0148686
676.240	0.0150323
676.318	0.0150871
676.396	0.0149645
676.474	0.0148255
676.552	0.0148444
676.630	0.0149044
676.708	0.0148087
676.787	0.0149655
676.865	0.0150445
676.943	0.0149795
677.021	0.0149509
677.099	0.0150160
677.177	0.0150878
677.255	0.0149545
677.333	0.0150188
677.412	0.0151293
677.490	0.0149335
677.568	0.0149106
677.646	0.0148703
677.724	0.0150041
677.802	0.0149213
677.880	0.0150011
677.958	0.0148885
678.037	0.0151185
678.115	0.0149762
678.193	0.0149277
678.271	0.0149472
678.349	0.0150391
678.427	0.0150473
678.505	0.0150422
678.583	0.0149015
678.662	0.0148798
678.740	0.0149872
678.818	0.0149525
678.896	0.0147266
678.974	0.0149427
679.052	0.0150410
679.130	0.0150432
679.208	0.0149480
679.287	0.0149010
679.365	0.0149998
679.443	0.0150177
679.521	0.0149683
679.599	0.0150025
679.677	0.0149847
679.755	0.0149157
679.833	0.0149776
679.912	0.0148880
679.990	0.0149130
680.068	0.0148415
680.146	0.0148562
680.224	0.0148055
680.302	0.0147822
680.380	0.0148694
680.458	0.0149669
680.537	0.0147536
680.615	0.0147464
680.693	0.0148827
680.771	0.0146651
680.849	0.0148418
680.927	0.0147752
681.005	0.0147187
681.083	0.0147646
681.162	0.0146476
681.240	0.0146683
681.318	0.0147736
681.396	0.0147174
681.474	0.0146387
681.552	0.0146578
681.630	0.0147409
681.708	0.0146227
681.787	0.0147813
681.865	0.0146943
681.943	0.0146153
682.021	0.0146729
682.099	0.0146528
682.177	0.0146478
682.255	0.0147871
682.333	0.0147025
682.412	0.0147524
682.490	0.0147459
682.568	0.0148399
682.646	0.0146043
682.724	0.0145820
682.802	0.0146661
682.880	0.0145635
682.958	0.0146917
683.037	0.0146168
683.115	0.0146613
683.193	0.0147427
683.271	0.0148005
683.349	0.0146883
683.427	0.0146998
683.505	0.0147553
683.583	0.0147308
683.662	0.0146730
683.740	0.0148051
683.818	0.0146309
683.896	0.0146317
683.974	0.0147025
684.052	0.0147222
684.130	0.0147079
684.208	0.0145423
684.287	0.0146807
684.365	0.0147637
684.443	0.0146476
684.521	0.0147902
684.599	0.0147592
684.677	0.0146390
684.755	0.0146570
684.833	0.0146568
684.912	0.0148112
684.990	0.0147684
685.068	0.0146954
685.146	0.0146789
685.224	0.0145937
685.302	0.0146055
685.380	0.0147557
685.458	0.0147378
685.537	0.0147042
685.615	0.0146886
685.693	0.0147628
685.771	0.0148453
685.849	0.0147157
685.927	0.0147710
686.005	0.0146102
686.083	0.0147701
686.162	0.0146381
686.240	0.0147011
686.318	0.0149206
686.396	0.0147545
686.474	0.0146900
686.552	0.0147522
686.630	0.0147127
686.708	0.0148045
686.787	0.0147673
686.865	0.0147144
686.943	0.0145724
687.021	0.0147414
687.099	0.0146906
687.177	0.0147318
687.255	0.0147010
687.333	0.0146581
687.412	0.0147779
687.490	0.0147089
687.568	0.0145740
687.646	0.0147369
687.724	0.0147394
687.802	0.0147107
687.880	0.0147175
687.958	0.0148117
688.037	0.0148560
688.115	0.0147066
688.193	0.0147813
688.271	0.0147929
688.349	0.0148175
688.427	0.0148676
688.505	0.0147972
688.583	0.0147633
688.662	0.0147467
688.740	0.0146478
688.818	0.0146466
688.896	0.0147477
688.974	0.0148953
689.052	0.0146684
689.130	0.0147531
689.208	0.0147796
689.287	0.0147171
689.365	0.0148106
689.443	0.0148381
689.521	0.0149699
689.599	0.0149427
689.677	0.0148114
689.755	0.0147250
689.833	0.0150185
689.912	0.0148762
689.990	0.0147883
690.068	0.0147807
690.146	0.0147993
690.224	0.0147919
690.302	0.0146423
690.380	0.0148774
690.458	0.0147874
690.537	0.0145754
690.615	0.0147023
690.693	0.0146018
690.771	0.0146761
690.849	0.0146211
690.927	0.0147668
691.005	0.0146691
691.083	0.0148781
691.162	0.0148018
691.240	0.0147870
691.318	0.0148524
691.396	0.0150119
691.474	0.0149551
691.552	0.0149638
691.630	0.0148550
691.708	0.0148367
691.787	0.0149454
691.865	0.0148901
691.943	0.0149331
692.021	0.0150439
692.099	0.0148214
692.177	0.0149156
692.255	0.0147524
692.333	0.0146996
692.412	0.0146964
692.490	0.0145744
692.568	0.0145781
692.646	0.0147039
692.724	0.0145151
692.802	0.0144672
692.880	0.0144108
692.958	0.0146848
693.037	0.0145907
693.115	0.0145131
693.193	0.0145943
693.271	0.0147186
693.349	0.0146059
693.427	0.0148843
693.505	0.0147728
693.583	0.0148696
693.662	0.0148926
693.740	0.0149751
693.818	0.0150789
693.896	0.0148602
693.974	0.0148383
694.052	0.0146633
694.130	0.0147272
694.208	0.0147891
694.287	0.0147246
694.365	0.0146001
694.443	0.0146169
694.521	0.0146194
694.599	0.0147075
694.677	0.0147792
694.755	0.0147280
694.833	0.0147649
694.912	0.0147104
694.990	0.0146163
695.068	0.0147833
695.146	0.0148627
695.224	0.0148027
695.302	0.0148987
695.380	0.0149903
695.458	0.0148986
695.537	0.0148801
695.615	0.0148014
695.693	0.0148645
695.771	0.0147602
695.849	0.0145590
695.927	0.0146772
696.005	0.0147544
696.083	0.0146313
696.162	0.0145744
696.240	0.0145302
696.318	0.0146055
696.396	0.0146718
696.474	0.0145518
696.552	0.0146222
696.630	0.0146175
696.708	0.0148294
696.787	0.0147922
696.865	0.0147522
696.943	0.0147647
697.021	0.0146999
697.099	0.0148328
697.177	0.0149522
697.255	0.0149380
697.333	0.0149201
697.412	0.0149284
697.490	0.0147240
697.568	0.0145969
697.646	0.0145491
697.724	0.0147430
697.802	0.0145135
697.880	0.0144050
697.958	0.0145658
698.037	0.0143008
698.115	0.0142094
698.193	0.0142915
698.271	0.0143592
698.349	0.0143605
698.427	0.0142944
698.505	0.0143050
698.583	0.0142518
698.662	0.0143844
698.740	0.0144693
698.818	0.0145924
698.896	0.0145099
698.974	0.0144791
699.052	0.0145658
699.130	0.0147928
699.208	0.0147443
699.287	0.0148009
699.365	0.0147320
699.443	0.0146858
699.521	0.0148528
699.599	0.0147588
699.677	0.0149228
699.755	0.0148867
699.833	0.0149446
699.912	0.0151526
699.990	0.0149175
700.068	0.0150235
700.146	0.0151257
700.224	0.0150909
700.302	0.0150478
700.380	0.0151355
700.458	0.0150658
700.537	0.0150517
700.615	0.0152286
700.693	0.0151204
700.771	0.0151031
700.849	0.0150076
700.927	0.0148744
701.005	0.0148098
701.083	0.0150011
701.162	0.0147849
701.240	0.0148505
701.318	0.0147190
701.396	0.0145498
701.474	0.0146512
701.552	0.0145028
701.630	0.0145573
701.708	0.0145242
701.787	0.0146164
701.865	0.0143874
701.943	0.0144073
702.021	0.0144855
702.099	0.0145931
702.177	0.0144412
702.255	0.0144439
702.333	0.0146825
702.412	0.0145178
702.490	0.0144877
702.568	0.0146395
702.646	0.0147433
702.724	0.0145915
702.802	0.0147522
702.880	0.0147800
702.958	0.0148271
703.037	0.0147859
703.115	0.0148149
703.193	0.0148991
703.271	0.0150262
703.349	0.0149687
703.427	0.0148507
703.505	0.0149641
703.583	0.0149722
703.662	0.0151397
703.740	0.0150834
703.818	0.0149974
703.896	0.0151331
703.974	0.0151242
704.052	0.0152981
704.130	0.0154096
704.208	0.0153625
704.287	0.0152608
704.365	0.0153155
704.443	0.0153324
704.521	0.0153914
704.599	0.0152841
704.677	0.0153957
704.755	0.0153960
704.833	0.0152975
704.912	0.0152054
704.990	0.0152216
705.068	0.0151834
705.146	0.0150244
705.224	0.0150256
705.302	0.0151437
705.380	0.0148557
705.458	0.0148901
705.537	0.0149216
705.615	0.0147939
705.693	0.0148676
705.771	0.0148022
705.849	0.0147131
705.927	0.0147475
706.005	0.0147482
706.083	0.0146632
706.162	0.0146127
706.240	0.0146507
706.318	0.0146159
706.396	0.0146616
706.474	0.0146404
706.552	0.0146049
706.630	0.0144903
706.708	0.0145025
706.787	0.0143684
706.865	0.0145341
706.943	0.0143607
707.021	0.0144158
707.099	0.0143483
707.177	0.0145226
707.255	0.0143343
707.333	0.0145112
707.412	0.0145267
707.490	0.0144331
707.568	0.0144888
707.646	0.0146827
707.724	0.0145692
707.802	0.0145767
707.880	0.0147434
707.958	0.0147139
708.037	0.0147191
708.115	0.0148751
708.193	0.0148917
708.271	0.0149203
708.349	0.0148450
708.427	0.0148124
708.505	0.0149487
708.583	0.0149355
708.662	0.0148882
708.740	0.0149796
708.818	0.0150047
708.896	0.0149746
708.974	0.0149113
709.052	0.0148309
709.130	0.0148631
709.208	0.0148252
709.287	0.0148779
709.365	0.0148161
709.443	0.0147562
709.521	0.0146410
709.599	0.0147167
709.677	0.0147662
709.755	0.0147638
709.833	0.0146115
709.912	0.0146360
709.990	0.0146940
710.068	0.0146971
710.146	0.0146576
710.224	0.0145747
710.302	0.0146484
710.380	0.0146590
710.458	0.0147569
710.537	0.0146735
710.615	0.0147003
710.693	0.0146949
710.771	0.0147121
710.849	0.0147839
710.927	0.0146909
711.005	0.0147205
711.083	0.0149039
711.162	0.0147047
711.240	0.0146908
711.318	0.0148482
711.396	0.0148101
711.474	0.0149042
711.552	0.0148566
711.630	0.0147831
711.708	0.0148081
711.787	0.0148289
711.865	0.0148587
711.943	0.0148529
712.021	0.0148395
712.099	0.0147992
712.177	0.0148387
712.255	0.0149328
712.333	0.0148038
712.412	0.0147522
712.490	0.0148243
712.568	0.0148393
712.646	0.0149478
712.724	0.0146638
712.802	0.0148290
712.880	0.0147206
712.958	0.0146787
713.037	0.0146782
713.115	0.0147424
713.193	0.0147922
713.271	0.0147499
713.349	0.0147839
713.427	0.0147707
713.505	0.0146304
713.583	0.0147726
713.662	0.0147131
713.740	0.0147934
713.818	0.0146690
713.896	0.0147859
713.974	0.0148302
714.052	0.0147682
714.130	0.0146844
714.208	0.0147900
714.287	0.0149581
714.365	0.0148793
714.443	0.0148586
714.521	0.0147742
714.599	0.0149172
714.677	0.0148669
714.755	0.0149531
714.833	0.0149082
714.912	0.0148509
714.990	0.0148171
715.068	0.0147186
715.146	0.0148401
715.224	0.0147106
715.302	0.0147965
715.380	0.0147437
715.458	0.0147559
715.537	0.0146427
715.615	0.0147206
715.693	0.0146695
715.771	0.0146845
715.849	0.0147293
715.927	0.0147331
716.005	0.0146506
716.083	0.0147182
716.162	0.0147006
716.240	0.0146658
716.318	0.0147912
716.396	0.0148145
716.474	0.0147647
716.552	0.0147640
716.630	0.0147073
716.708	0.0147707
716.787	0.0147922
716.865	0.0147392
716.943	0.0148522
717.021	0.0147772
717.099	0.0147251
717.177	0.0147939
717.255	0.0147367
717.333	0.0148026
717.412	0.0147314
717.490	0.0146596
717.568	0.0145241
717.646	0.0146551
717.724	0.0148603
717.802	0.0146799
717.880	0.0147485
717.958	0.0147946
718.037	0.0146492
718.115	0.0146289
718.193	0.0146399
718.271	0.0146972
718.349	0.0146185
718.427	0.0146139
718.505	0.0148139
718.583	0.0147636
718.662	0.0147405
718.740	0.0147847
718.818	0.0147203
718.896	0.0149495
718.974	0.0149117
719.052	0.0148582
719.130	0.0148718
719.208	0.0148207
719.287	0.0148547
719.365	0.0146706
719.443	0.0147878
719.521	0.0147745
719.599	0.0147363
719.677	0.0148359
719.755	0.0148199
719.833	0.0149336
719.912	0.0148804
719.990	0.0146970
720.068	0.0146327
720.146	0.0146342
720.224	0.0147607
720.302	0.0146721
720.380	0.0146343
720.458	0.0145432
720.537	0.0146806
720.615	0.0147507
720.693	0.0147346
720.771	0.0146554
720.849	0.0145612
720.927	0.0144965
721.005	0.0147121
721.083	0.0146659
721.162	0.0147466
721.240	0.0146409
721.318	0.0146661
721.396	0.0146532
721.474	0.0145541
721.552	0.0146132
721.630	0.0147450
721.708	0.0147079
721.787	0.0147469
721.865	0.0145564
721.943	0.0145377
722.021	0.0146313
722.099	0.0147134
722.177	0.0145576
722.255	0.0147820
722.333	0.0147707
722.412	0.0147792
722.490	0.0146062
722.568	0.0145911
722.646	0.0148666
722.724	0.0147325
722.802	0.0146766
722.880	0.0147947
722.958	0.0148051
723.037	0.0146347
723.115	0.0146320
723.193	0.0146617
723.271	0.0147961
723.349	0.0146897
723.427	0.0147230
723.505	0.0146822
723.583	0.0147965
723.662	0.0147674
723.740	0.0147930
723.818	0.0147477
723.896	0.0146312
723.974	0.0145711
724.052	0.0147060
724.130	0.0147498
724.208	0.0147805
724.287	0.0148485
724.365	0.0147935
724.443	0.0146320
724.521	0.0147009
724.599	0.0147004
724.677	0.0148808
724.755	0.0148257
724.833	0.0147193
724.912	0.0148370
724.990	0.0149009
725.068	0.0148428
725.146	0.0148108
725.224	0.0148498
725.302	0.0149001
725.380	0.0147749
725.458	0.0146249
725.537	0.0147275
725.615	0.0147578
725.693	0.0147963
725.771	0.0148693
725.849	0.0146442
725.927	0.0148373
726.005	0.0148056
726.083	0.0146361
726.162	0.0145885
726.240	0.0145726
726.318	0.0148014
726.396	0.0147713
726.474	0.0148001
726.552	0.0147844
726.630	0.0147292
726.708	0.0147271
726.787	0.0148055
726.865	0.0148687
726.943	0.0146967
727.021	0.0147330
727.099	0.0147759
727.177	0.0147760
727.255	0.0147398
727.333	0.0147486
727.412	0.0147730
727.490	0.0148991
727.568	0.0148003
727.646	0.0149668
727.724	0.0148839
727.802	0.0147128
727.880	0.0148572
727.958	0.0148534
728.037	0.0149113
728.115	0.0149489
728.193	0.0148741
728.271	0.0148925
728.349	0.0149126
728.427	0.0148152
728.505	0.0147729
728.583	0.0147620
728.662	0.0149578
728.740	0.0148869
728.818	0.0148978
728.896	0.0147824
728.974	0.0147234
729.052	0.0148831
729.130	0.0147832
729.208	0.0148452
729.287	0.0147923
729.365	0.0146606
729.443	0.0146303
729.521	0.0148419
729.599	0.0147459
729.677	0.0147285
729.755	0.0148067
729.833	0.0148456
729.912	0.0147913
729.990	0.0148763
730.068	0.0147482
730.146	0.0147446
730.224	0.0147433
730.302	0.0149182
730.380	0.0148421
730.458	0.0147959
730.537	0.0146404
730.615	0.0147693
730.693	0.0148010
730.771	0.0148461
730.849	0.0148486
730.927	0.0147451
731.005	0.0147582
731.083	0.0147819
731.162	0.0146644
731.240	0.0147301
731.318	0.0148186
731.396	0.0147281
731.474	0.0147524
731.552	0.0146689
731.630	0.0146754
731.708	0.0147380
731.787	0.0147498
731.865	0.0147446
731.943	0.0146754
732.021	0.0147386
732.099	0.0148175
732.177	0.0148774
732.255	0.0146303
732.333	0.0146353
732.412	0.0148018
732.490	0.0147205
732.568	0.0146403
732.646	0.0146058
732.724	0.0146228
732.802	0.0148215
732.880	0.0146615
732.958	0.0145672
733.037	0.0146478
733.115	0.0147328
733.193	0.0148065
733.271	0.0146886
733.349	0.0147883
733.427	0.0148070
733.505	0.0146865
733.583	0.0146800
733.662	0.0146585
733.740	0.0147742
733.818	0.0145753
733.896	0.0147071
733.974	0.0147960
734.052	0.0146639
734.130	0.0146119
734.208	0.0147836
734.287	0.0148196
734.365	0.0148309
734.443	0.0147296
734.521	0.0147422
734.599	0.0147332
734.677	0.0148088
734.755	0.0148700
734.833	0.0148204
734.912	0.0148479
734.990	0.0147993
735.068	0.0148151
735.146	0.0148809
735.224	0.0146833
735.302	0.0147643
735.380	0.0149203
735.458	0.0149767
735.537	0.0146868
735.615	0.0147144
735.693	0.0147650
