05/08/2022	19:41:10	Ver.	4.1	UNKNOWN
Optical Delay	649.989667	Delta X		0.078125	Sweeps	1	Scan Rate	0/0
Coordinates	Axis 1	NaN	Axis 2	NaN	Axis 3	NaN	Axis 4	NaN	Axis 5	NaN	Axis 6	0.000000
TX Power	0.000000	RX Power	0.000000

649.990	0.0141868
650.068	0.0142309
650.146	0.0143272
650.224	0.0140343
650.302	0.0141595
650.380	0.0141300
650.458	0.0142136
650.537	0.0141143
650.615	0.0140722
650.693	0.0141952
650.771	0.0142036
650.849	0.0142937
650.927	0.0142093
651.005	0.0141522
651.083	0.0141806
651.162	0.0142523
651.240	0.0141718
651.318	0.0141054
651.396	0.0141294
651.474	0.0142175
651.552	0.0141268
651.630	0.0141718
651.708	0.0142020
651.787	0.0140762
651.865	0.0141132
651.943	0.0142567
652.021	0.0142753
652.099	0.0143328
652.177	0.0141585
652.255	0.0142123
652.333	0.0142911
652.412	0.0141452
652.490	0.0143117
652.568	0.0141361
652.646	0.0142200
652.724	0.0143108
652.802	0.0142330
652.880	0.0142368
652.958	0.0141891
653.037	0.0142588
653.115	0.0141801
653.193	0.0141521
653.271	0.0140179
653.349	0.0143687
653.427	0.0143777
653.505	0.0142212
653.583	0.0141296
653.662	0.0141573
653.740	0.0141739
653.818	0.0143220
653.896	0.0142302
653.974	0.0142100
654.052	0.0142552
654.130	0.0141703
654.208	0.0143063
654.287	0.0143167
654.365	0.0143479
654.443	0.0143541
654.521	0.0141859
654.599	0.0142465
654.677	0.0142874
654.755	0.0142725
654.833	0.0141417
654.912	0.0144119
654.990	0.0142809
655.068	0.0142502
655.146	0.0143908
655.224	0.0142679
655.302	0.0141840
655.380	0.0142974
655.458	0.0143108
655.537	0.0141959
655.615	0.0141896
655.693	0.0143099
655.771	0.0142132
655.849	0.0141348
655.927	0.0143813
656.005	0.0143037
656.083	0.0141602
656.162	0.0143049
656.240	0.0141890
656.318	0.0141420
656.396	0.0142381
656.474	0.0142205
656.552	0.0140778
656.630	0.0142716
656.708	0.0142098
656.787	0.0141556
656.865	0.0141757
656.943	0.0142371
657.021	0.0141401
657.099	0.0141769
657.177	0.0141284
657.255	0.0142268
657.333	0.0141444
657.412	0.0141842
657.490	0.0142518
657.568	0.0141179
657.646	0.0142766
657.724	0.0142374
657.802	0.0142780
657.880	0.0141531
657.958	0.0142759
658.037	0.0142768
658.115	0.0141968
658.193	0.0142341
658.271	0.0142336
658.349	0.0142324
658.427	0.0141444
658.505	0.0140646
658.583	0.0140720
658.662	0.0141936
658.740	0.0141632
658.818	0.0141963
658.896	0.0142709
658.974	0.0141556
659.052	0.0140486
659.130	0.0141560
659.208	0.0141132
659.287	0.0142197
659.365	0.0142205
659.443	0.0141871
659.521	0.0141187
659.599	0.0140939
659.677	0.0142339
659.755	0.0141800
659.833	0.0141801
659.912	0.0141199
659.990	0.0142603
660.068	0.0141761
660.146	0.0140531
660.224	0.0141925
660.302	0.0141485
660.380	0.0141734
660.458	0.0142675
660.537	0.0142172
660.615	0.0141692
660.693	0.0145165
660.771	0.0142827
660.849	0.0141247
660.927	0.0142313
661.005	0.0141465
661.083	0.0142316
661.162	0.0141804
661.240	0.0141396
661.318	0.0142108
661.396	0.0141261
661.474	0.0141030
661.552	0.0142461
661.630	0.0143327
661.708	0.0141998
661.787	0.0140420
661.865	0.0142744
661.943	0.0142112
662.021	0.0142496
662.099	0.0142122
662.177	0.0143232
662.255	0.0143121
662.333	0.0142133
662.412	0.0142087
662.490	0.0142810
662.568	0.0143220
662.646	0.0142447
662.724	0.0141640
662.802	0.0142285
662.880	0.0142410
662.958	0.0142202
663.037	0.0142709
663.115	0.0142323
663.193	0.0142489
663.271	0.0141879
663.349	0.0141203
663.427	0.0144059
663.505	0.0144057
663.583	0.0142529
663.662	0.0141373
663.740	0.0143786
663.818	0.0142567
663.896	0.0142794
663.974	0.0141731
664.052	0.0142741
664.130	0.0143507
664.208	0.0142828
664.287	0.0142481
664.365	0.0144035
664.443	0.0142468
664.521	0.0142297
664.599	0.0143446
664.677	0.0144116
664.755	0.0143578
664.833	0.0143978
664.912	0.0142035
664.990	0.0141677
665.068	0.0143188
665.146	0.0143192
665.224	0.0144154
665.302	0.0143381
665.380	0.0143549
665.458	0.0144253
665.537	0.0142091
665.615	0.0142534
665.693	0.0143203
665.771	0.0142776
665.849	0.0141722
665.927	0.0143671
666.005	0.0143607
666.083	0.0143295
666.162	0.0143649
666.240	0.0143707
666.318	0.0143069
666.396	0.0142995
666.474	0.0142433
666.552	0.0143909
666.630	0.0144647
666.708	0.0142950
666.787	0.0142295
666.865	0.0142753
666.943	0.0143374
667.021	0.0142922
667.099	0.0143375
667.177	0.0142631
667.255	0.0142001
667.333	0.0143076
667.412	0.0142761
667.490	0.0143185
667.568	0.0143325
667.646	0.0142805
667.724	0.0143880
667.802	0.0143488
667.880	0.0142756
667.958	0.0142888
668.037	0.0142571
668.115	0.0142574
668.193	0.0142223
668.271	0.0141773
668.349	0.0143336
668.427	0.0142552
668.505	0.0142554
668.583	0.0142752
668.662	0.0141286
668.740	0.0143463
668.818	0.0143678
668.896	0.0142022
668.974	0.0142463
669.052	0.0142030
669.130	0.0142587
669.208	0.0142366
669.287	0.0142400
669.365	0.0142223
669.443	0.0141758
669.521	0.0142760
669.599	0.0142925
669.677	0.0142754
669.755	0.0143738
669.833	0.0141425
669.912	0.0141715
669.990	0.0143256
670.068	0.0141644
670.146	0.0142604
670.224	0.0141949
670.302	0.0142483
670.380	0.0141289
670.458	0.0140835
670.537	0.0142773
670.615	0.0142118
670.693	0.0141321
670.771	0.0141505
670.849	0.0142051
670.927	0.0142630
671.005	0.0142139
671.083	0.0141271
671.162	0.0141206
671.240	0.0142103
671.318	0.0140542
671.396	0.0141276
671.474	0.0141806
671.552	0.0141927
671.630	0.0142439
671.708	0.0142105
671.787	0.0142006
671.865	0.0141253
671.943	0.0141370
672.021	0.0139436
672.099	0.0140342
672.177	0.0142246
672.255	0.0142199
672.333	0.0141382
672.412	0.0142707
672.490	0.0141514
672.568	0.0140902
672.646	0.0140831
672.724	0.0140620
672.802	0.0141930
672.880	0.0143304
672.958	0.0140228
673.037	0.0141608
673.115	0.0141904
673.193	0.0141144
673.271	0.0142024
673.349	0.0141827
673.427	0.0141187
673.505	0.0142484
673.583	0.0141922
673.662	0.0140961
673.740	0.0140783
673.818	0.0141729
673.896	0.0141272
673.974	0.0141168
674.052	0.0142406
674.130	0.0141804
674.208	0.0141053
674.287	0.0141740
674.365	0.0141585
674.443	0.0141145
674.521	0.0141973
674.599	0.0141463
674.677	0.0141676
674.755	0.0141363
674.833	0.0141651
674.912	0.0141970
674.990	0.0141042
675.068	0.0140823
675.146	0.0141664
675.224	0.0140271
675.302	0.0140573
675.380	0.0140631
675.458	0.0140620
675.537	0.0141048
675.615	0.0142192
675.693	0.0141923
675.771	0.0142034
675.849	0.0142052
675.927	0.0141077
676.005	0.0141957
676.083	0.0142931
676.162	0.0140849
676.240	0.0142716
676.318	0.0141883
676.396	0.0140930
676.474	0.0142391
676.552	0.0142174
676.630	0.0141389
676.708	0.0141151
676.787	0.0142236
676.865	0.0141914
676.943	0.0142396
677.021	0.0142770
677.099	0.0142537
677.177	0.0142022
677.255	0.0141371
677.333	0.0142118
677.412	0.0142531
677.490	0.0141826
677.568	0.0141366
677.646	0.0143063
677.724	0.0142159
677.802	0.0143139
677.880	0.0141579
677.958	0.0142503
678.037	0.0142039
678.115	0.0142835
678.193	0.0141853
678.271	0.0141161
678.349	0.0140809
678.427	0.0142058
678.505	0.0141520
678.583	0.0142919
678.662	0.0142754
678.740	0.0143060
678.818	0.0144037
678.896	0.0143853
678.974	0.0145981
679.052	0.0145502
679.130	0.0143914
679.208	0.0143780
679.287	0.0143567
679.365	0.0142101
679.443	0.0140394
679.521	0.0138217
679.599	0.0136322
679.677	0.0136390
679.755	0.0136000
679.833	0.0138293
679.912	0.0138791
679.990	0.0139175
680.068	0.0140903
680.146	0.0141683
680.224	0.0142971
680.302	0.0143465
680.380	0.0143977
680.458	0.0146860
680.537	0.0148631
680.615	0.0150266
680.693	0.0151515
680.771	0.0151805
680.849	0.0150446
680.927	0.0150925
681.005	0.0148614
681.083	0.0146518
681.162	0.0144427
681.240	0.0139475
681.318	0.0136673
681.396	0.0133662
681.474	0.0129550
681.552	0.0126706
681.630	0.0125411
681.708	0.0124896
681.787	0.0125669
681.865	0.0128493
681.943	0.0131139
682.021	0.0134949
682.099	0.0138747
682.177	0.0143377
682.255	0.0147303
682.333	0.0150050
682.412	0.0153339
682.490	0.0154517
682.568	0.0154935
682.646	0.0155511
682.724	0.0155247
682.802	0.0153263
682.880	0.0154037
682.958	0.0155017
683.037	0.0155159
683.115	0.0155077
683.193	0.0156001
683.271	0.0155521
683.349	0.0152988
683.427	0.0150561
683.505	0.0149732
683.583	0.0146517
683.662	0.0141843
683.740	0.0136683
683.818	0.0132001
683.896	0.0126627
683.974	0.0117529
684.052	0.0110309
684.130	0.0105668
684.208	0.0100556
684.287	0.00980980
684.365	0.00989037
684.443	0.0101843
684.521	0.0108128
684.599	0.0117014
684.677	0.0129427
684.755	0.0140131
684.833	0.0153386
684.912	0.0163966
684.990	0.0173875
685.068	0.0182384
685.146	0.0186406
685.224	0.0189078
685.302	0.0188479
685.380	0.0186974
685.458	0.0182186
685.537	0.0177859
685.615	0.0172523
685.693	0.0168187
685.771	0.0162137
685.849	0.0158534
685.927	0.0152922
686.005	0.0149558
686.083	0.0144395
686.162	0.0137244
686.240	0.0132141
686.318	0.0124551
686.396	0.0115671
686.474	0.0108843
686.552	0.0101909
686.630	0.00931831
686.708	0.00890770
686.787	0.00850746
686.865	0.00858513
686.943	0.00873718
687.021	0.00920403
687.099	0.0101582
687.177	0.0109450
687.255	0.0119247
687.333	0.0132369
687.412	0.0144511
687.490	0.0153901
687.568	0.0164169
687.646	0.0172201
687.724	0.0176375
687.802	0.0179773
687.880	0.0181122
687.958	0.0181145
688.037	0.0181691
688.115	0.0180770
688.193	0.0179668
688.271	0.0180241
688.349	0.0180943
688.427	0.0181480
688.505	0.0182629
688.583	0.0182936
688.662	0.0182473
688.740	0.0179591
688.818	0.0175394
688.896	0.0166955
688.974	0.0158643
689.052	0.0149132
689.130	0.0136633
689.208	0.0125605
689.287	0.0111750
689.365	0.00984955
689.443	0.00888519
689.521	0.00796730
689.599	0.00732536
689.677	0.00689583
689.755	0.00676178
689.833	0.00694328
689.912	0.00736267
689.990	0.00807243
690.068	0.00903717
690.146	0.0101900
690.224	0.0114247
690.302	0.0126934
690.380	0.0140734
690.458	0.0150699
690.537	0.0161640
690.615	0.0173104
690.693	0.0181437
690.771	0.0188641
690.849	0.0194158
690.927	0.0199578
691.005	0.0200298
691.083	0.0201302
691.162	0.0201141
691.240	0.0198805
691.318	0.0193015
691.396	0.0186051
691.474	0.0180147
691.552	0.0171164
691.630	0.0161343
691.708	0.0153863
691.787	0.0146667
691.865	0.0136121
691.943	0.0128735
692.021	0.0121356
692.099	0.0115492
692.177	0.0112582
692.255	0.0108426
692.333	0.0105835
692.412	0.0104828
692.490	0.0104357
692.568	0.0104815
692.646	0.0106487
692.724	0.0109846
692.802	0.0113677
692.880	0.0118799
692.958	0.0122916
693.037	0.0128075
693.115	0.0133709
693.193	0.0138637
693.271	0.0144307
693.349	0.0150436
693.427	0.0154234
693.505	0.0159475
693.583	0.0163644
693.662	0.0166640
693.740	0.0169299
693.818	0.0169801
693.896	0.0171296
693.974	0.0168978
694.052	0.0166270
694.130	0.0162416
694.208	0.0158617
694.287	0.0153912
694.365	0.0150130
694.443	0.0145033
694.521	0.0139034
694.599	0.0135010
694.677	0.0131683
694.755	0.0130113
694.833	0.0126082
694.912	0.0124728
694.990	0.0124557
695.068	0.0125061
695.146	0.0124294
695.224	0.0125716
695.302	0.0126981
695.380	0.0129192
695.458	0.0132553
695.537	0.0134132
695.615	0.0136287
695.693	0.0138683
695.771	0.0140366
695.849	0.0142124
695.927	0.0143782
696.005	0.0145541
696.083	0.0149087
696.162	0.0150316
696.240	0.0151876
696.318	0.0153709
696.396	0.0154160
696.474	0.0154261
696.552	0.0154980
696.630	0.0154392
696.708	0.0152808
696.787	0.0154134
696.865	0.0153314
696.943	0.0152185
697.021	0.0151797
697.099	0.0152267
697.177	0.0151186
697.255	0.0149692
697.333	0.0150748
697.412	0.0151890
697.490	0.0148897
697.568	0.0148812
697.646	0.0148171
697.724	0.0148651
697.802	0.0147394
697.880	0.0144672
697.958	0.0141498
698.037	0.0137964
698.115	0.0132925
698.193	0.0128494
698.271	0.0125253
698.349	0.0123138
698.427	0.0119482
698.505	0.0115860
698.583	0.0115382
698.662	0.0116164
698.740	0.0115784
698.818	0.0118302
698.896	0.0119726
698.974	0.0123364
699.052	0.0127836
699.130	0.0131120
699.208	0.0134480
699.287	0.0141225
699.365	0.0144047
699.443	0.0145731
699.521	0.0150561
699.599	0.0153704
699.677	0.0155685
699.755	0.0158459
699.833	0.0158995
699.912	0.0160448
699.990	0.0159901
700.068	0.0158704
700.146	0.0159763
700.224	0.0157178
700.302	0.0153023
700.380	0.0149745
700.458	0.0148133
700.537	0.0145039
700.615	0.0140117
700.693	0.0137933
700.771	0.0136480
700.849	0.0134789
700.927	0.0134946
701.005	0.0135049
701.083	0.0137610
701.162	0.0139156
701.240	0.0141048
701.318	0.0144936
701.396	0.0149570
701.474	0.0151350
701.552	0.0157158
701.630	0.0158670
701.708	0.0160325
701.787	0.0160796
701.865	0.0161139
701.943	0.0159635
702.021	0.0159290
702.099	0.0156686
702.177	0.0154014
702.255	0.0152669
702.333	0.0149371
702.412	0.0145217
702.490	0.0143209
702.568	0.0140369
702.646	0.0136329
702.724	0.0131821
702.802	0.0127869
702.880	0.0123143
702.958	0.0120032
703.037	0.0115805
703.115	0.0112088
703.193	0.0110504
703.271	0.0106859
703.349	0.0104179
703.427	0.0104532
703.505	0.0104496
703.583	0.0105568
703.662	0.0106601
703.740	0.0110371
703.818	0.0115475
703.896	0.0122648
703.974	0.0128579
704.052	0.0135235
704.130	0.0145606
704.208	0.0150964
704.287	0.0157883
704.365	0.0163895
704.443	0.0168889
704.521	0.0173127
704.599	0.0176189
704.677	0.0179101
704.755	0.0177860
704.833	0.0177650
704.912	0.0175506
704.990	0.0172775
705.068	0.0169979
705.146	0.0166700
705.224	0.0163387
705.302	0.0159414
705.380	0.0156105
705.458	0.0152300
705.537	0.0150416
705.615	0.0147688
705.693	0.0145547
705.771	0.0144080
705.849	0.0142570
705.927	0.0139799
706.005	0.0140749
706.083	0.0141313
706.162	0.0140498
706.240	0.0140259
706.318	0.0141385
706.396	0.0141371
706.474	0.0140909
706.552	0.0139772
706.630	0.0139499
706.708	0.0136341
706.787	0.0135732
706.865	0.0134828
706.943	0.0133311
707.021	0.0132164
707.099	0.0129704
707.177	0.0128497
707.255	0.0127243
707.333	0.0124263
707.412	0.0124258
707.490	0.0121990
707.568	0.0120569
707.646	0.0119855
707.724	0.0118401
707.802	0.0117850
707.880	0.0118411
707.958	0.0118743
708.037	0.0121560
708.115	0.0122588
708.193	0.0124885
708.271	0.0127867
708.349	0.0130054
708.427	0.0134689
708.505	0.0138555
708.583	0.0142303
708.662	0.0145936
708.740	0.0148721
708.818	0.0152576
708.896	0.0155771
708.974	0.0157086
709.052	0.0162707
709.130	0.0162215
709.208	0.0162110
709.287	0.0165036
709.365	0.0164539
709.443	0.0165202
709.521	0.0165391
709.599	0.0164354
709.677	0.0162494
709.755	0.0161488
709.833	0.0158078
709.912	0.0155492
709.990	0.0154619
710.068	0.0151089
710.146	0.0149354
710.224	0.0148019
710.302	0.0143751
710.380	0.0140675
710.458	0.0139356
710.537	0.0138698
710.615	0.0137205
710.693	0.0134704
710.771	0.0134722
710.849	0.0133598
710.927	0.0134634
711.005	0.0134323
711.083	0.0134538
711.162	0.0133603
711.240	0.0133955
711.318	0.0133707
711.396	0.0133118
711.474	0.0133421
711.552	0.0135011
711.630	0.0133769
711.708	0.0133620
711.787	0.0134289
711.865	0.0134219
711.943	0.0132587
712.021	0.0133864
712.099	0.0132631
712.177	0.0133339
712.255	0.0133209
712.333	0.0133979
712.412	0.0136314
712.490	0.0136320
712.568	0.0137428
712.646	0.0138544
712.724	0.0139970
712.802	0.0140073
712.880	0.0142728
712.958	0.0142205
713.037	0.0141919
713.115	0.0142198
713.193	0.0143584
713.271	0.0143737
713.349	0.0143759
713.427	0.0144027
713.505	0.0144045
713.583	0.0143382
713.662	0.0145201
713.740	0.0143600
713.818	0.0144801
713.896	0.0143736
713.974	0.0144324
714.052	0.0145446
714.130	0.0144595
714.208	0.0144953
714.287	0.0146992
714.365	0.0144884
714.443	0.0145932
714.521	0.0146401
714.599	0.0145353
714.677	0.0145633
714.755	0.0145737
714.833	0.0143835
714.912	0.0145586
714.990	0.0143724
715.068	0.0144051
715.146	0.0143336
715.224	0.0143163
715.302	0.0145043
715.380	0.0142977
715.458	0.0144357
715.537	0.0143703
715.615	0.0145557
715.693	0.0143990
715.771	0.0143823
715.849	0.0144752
715.927	0.0143029
716.005	0.0143699
716.083	0.0142162
716.162	0.0142509
716.240	0.0143279
716.318	0.0142782
716.396	0.0143196
716.474	0.0143974
716.552	0.0143891
716.630	0.0144433
716.708	0.0143272
716.787	0.0143575
716.865	0.0141230
716.943	0.0143471
717.021	0.0142645
717.099	0.0143703
717.177	0.0141211
717.255	0.0141445
717.333	0.0141837
717.412	0.0141306
717.490	0.0140345
717.568	0.0140276
717.646	0.0139206
717.724	0.0139417
717.802	0.0139211
717.880	0.0139265
717.958	0.0138704
718.037	0.0136092
718.115	0.0136435
718.193	0.0135794
718.271	0.0135709
718.349	0.0136268
718.427	0.0134719
718.505	0.0135649
718.583	0.0135748
718.662	0.0135300
718.740	0.0137096
718.818	0.0138308
718.896	0.0139274
718.974	0.0139529
719.052	0.0140344
719.130	0.0142002
719.208	0.0142571
719.287	0.0142020
719.365	0.0142255
719.443	0.0143378
719.521	0.0143355
719.599	0.0142718
719.677	0.0144998
719.755	0.0146045
719.833	0.0146588
719.912	0.0146246
719.990	0.0149307
720.068	0.0149734
720.146	0.0148792
720.224	0.0150461
720.302	0.0152102
720.380	0.0150136
720.458	0.0149783
720.537	0.0151750
720.615	0.0149812
720.693	0.0149037
720.771	0.0148528
720.849	0.0147949
720.927	0.0147392
721.005	0.0145576
721.083	0.0145137
721.162	0.0144020
721.240	0.0143574
721.318	0.0142578
721.396	0.0141068
721.474	0.0140500
721.552	0.0140337
721.630	0.0140981
721.708	0.0139733
721.787	0.0139780
721.865	0.0140771
721.943	0.0138912
722.021	0.0138897
722.099	0.0140105
722.177	0.0139821
722.255	0.0139394
722.333	0.0140205
722.412	0.0141261
722.490	0.0142100
722.568	0.0141666
722.646	0.0140675
722.724	0.0142414
722.802	0.0142783
722.880	0.0141648
722.958	0.0142214
723.037	0.0143260
723.115	0.0141283
723.193	0.0141232
723.271	0.0140552
723.349	0.0139753
723.427	0.0140112
723.505	0.0139130
723.583	0.0137517
723.662	0.0139230
723.740	0.0137962
723.818	0.0138737
723.896	0.0138612
723.974	0.0139024
724.052	0.0137739
724.130	0.0139701
724.208	0.0139801
724.287	0.0141848
724.365	0.0141898
724.443	0.0142906
724.521	0.0144724
724.599	0.0143889
724.677	0.0144852
724.755	0.0143851
724.833	0.0145021
724.912	0.0143117
724.990	0.0141757
725.068	0.0141688
725.146	0.0141085
725.224	0.0140897
725.302	0.0140138
725.380	0.0138803
725.458	0.0138570
725.537	0.0138432
725.615	0.0139468
725.693	0.0139455
725.771	0.0141270
725.849	0.0140851
725.927	0.0142233
726.005	0.0141930
726.083	0.0143670
726.162	0.0144421
726.240	0.0144566
726.318	0.0145103
726.396	0.0146103
726.474	0.0147588
726.552	0.0145862
726.630	0.0146005
726.708	0.0147628
726.787	0.0146088
726.865	0.0145141
726.943	0.0145403
727.021	0.0144469
727.099	0.0144661
727.177	0.0144158
727.255	0.0142118
727.333	0.0142835
727.412	0.0141901
727.490	0.0141813
727.568	0.0141853
727.646	0.0141409
727.724	0.0140169
727.802	0.0141093
727.880	0.0141068
727.958	0.0139952
728.037	0.0138049
728.115	0.0138673
728.193	0.0139682
728.271	0.0139528
728.349	0.0139819
728.427	0.0139656
728.505	0.0141317
728.583	0.0140634
728.662	0.0141928
728.740	0.0142417
728.818	0.0141396
728.896	0.0143737
728.974	0.0146172
729.052	0.0146060
729.130	0.0146004
729.208	0.0145393
729.287	0.0147239
729.365	0.0146564
729.443	0.0144685
729.521	0.0145966
729.599	0.0144992
729.677	0.0145170
729.755	0.0144575
729.833	0.0144530
729.912	0.0143940
729.990	0.0143587
730.068	0.0140867
730.146	0.0140712
730.224	0.0139355
730.302	0.0138613
730.380	0.0138270
730.458	0.0138686
730.537	0.0135822
730.615	0.0135773
730.693	0.0136082
730.771	0.0134489
730.849	0.0133203
730.927	0.0133040
731.005	0.0134321
731.083	0.0133916
731.162	0.0134245
731.240	0.0134519
731.318	0.0135872
731.396	0.0137790
731.474	0.0138731
731.552	0.0139848
731.630	0.0142213
731.708	0.0142609
731.787	0.0144511
731.865	0.0145953
731.943	0.0146674
732.021	0.0148828
732.099	0.0150175
732.177	0.0149329
732.255	0.0148650
732.333	0.0150628
732.412	0.0150137
732.490	0.0148705
732.568	0.0148574
732.646	0.0146648
732.724	0.0144852
732.802	0.0144370
732.880	0.0143332
732.958	0.0141914
733.037	0.0143237
733.115	0.0142060
733.193	0.0142120
733.271	0.0141381
733.349	0.0141210
733.427	0.0140925
733.505	0.0140751
733.583	0.0139993
733.662	0.0140476
733.740	0.0141835
733.818	0.0142386
733.896	0.0141041
733.974	0.0141943
734.052	0.0140832
734.130	0.0143299
734.208	0.0143280
734.287	0.0142680
734.365	0.0144094
734.443	0.0145292
734.521	0.0143761
734.599	0.0144799
734.677	0.0146246
734.755	0.0146652
734.833	0.0144941
734.912	0.0144302
734.990	0.0144367
735.068	0.0143986
735.146	0.0143502
735.224	0.0142654
735.302	0.0142623
735.380	0.0140754
735.458	0.0139190
735.537	0.0137609
735.615	0.0136523
