05/08/2022	19:46:10	Ver.	4.1	UNKNOWN
Optical Delay	649.989667	Delta X		0.078125	Sweeps	1	Scan Rate	0/0
Coordinates	Axis 1	NaN	Axis 2	NaN	Axis 3	NaN	Axis 4	NaN	Axis 5	NaN	Axis 6	0.000000
TX Power	0.000000	RX Power	0.000000

649.990	0.0143733
650.068	0.0143959
650.146	0.0144833
650.224	0.0144104
650.302	0.0143964
650.380	0.0144247
650.458	0.0144348
650.537	0.0143716
650.615	0.0143872
650.693	0.0145143
650.771	0.0144218
650.849	0.0143013
650.927	0.0142508
651.005	0.0145063
651.083	0.0144021
651.162	0.0143340
651.240	0.0143002
651.318	0.0144141
651.396	0.0142680
651.474	0.0142384
651.552	0.0141922
651.630	0.0142262
651.708	0.0143587
651.787	0.0143576
651.865	0.0143546
651.943	0.0142699
652.021	0.0142841
652.099	0.0143643
652.177	0.0143843
652.255	0.0144241
652.333	0.0143118
652.412	0.0143439
652.490	0.0144569
652.568	0.0142905
652.646	0.0144247
652.724	0.0142648
652.802	0.0143048
652.880	0.0143695
652.958	0.0144757
653.037	0.0143578
653.115	0.0143089
653.193	0.0143990
653.271	0.0142995
653.349	0.0142679
653.427	0.0143259
653.505	0.0143919
653.583	0.0144489
653.662	0.0143440
653.740	0.0144221
653.818	0.0143188
653.896	0.0142759
653.974	0.0143554
654.052	0.0145142
654.130	0.0144376
654.208	0.0143119
654.287	0.0143663
654.365	0.0143201
654.443	0.0142512
654.521	0.0143461
654.599	0.0142568
654.677	0.0143378
654.755	0.0143226
654.833	0.0144061
654.912	0.0143405
654.990	0.0143958
655.068	0.0143210
655.146	0.0143790
655.224	0.0142899
655.302	0.0145638
655.380	0.0143958
655.458	0.0144136
655.537	0.0143247
655.615	0.0144580
655.693	0.0143979
655.771	0.0143501
655.849	0.0144082
655.927	0.0144034
656.005	0.0144435
656.083	0.0143088
656.162	0.0143552
656.240	0.0142422
656.318	0.0143063
656.396	0.0145486
656.474	0.0143784
656.552	0.0142967
656.630	0.0143002
656.708	0.0142294
656.787	0.0143207
656.865	0.0143575
656.943	0.0144097
657.021	0.0144274
657.099	0.0143693
657.177	0.0143571
657.255	0.0143878
657.333	0.0143246
657.412	0.0143493
657.490	0.0143986
657.568	0.0143140
657.646	0.0144247
657.724	0.0142604
657.802	0.0143720
657.880	0.0144524
657.958	0.0143221
658.037	0.0144691
658.115	0.0143497
658.193	0.0144137
658.271	0.0143206
658.349	0.0143793
658.427	0.0142891
658.505	0.0142482
658.583	0.0143225
658.662	0.0144540
658.740	0.0143750
658.818	0.0143027
658.896	0.0144032
658.974	0.0144028
659.052	0.0144711
659.130	0.0143961
659.208	0.0143857
659.287	0.0145284
659.365	0.0143726
659.443	0.0142849
659.521	0.0144373
659.599	0.0143598
659.677	0.0144553
659.755	0.0144946
659.833	0.0144034
659.912	0.0144966
659.990	0.0143343
660.068	0.0144028
660.146	0.0142390
660.224	0.0141950
660.302	0.0143597
660.380	0.0144289
660.458	0.0144083
660.537	0.0143195
660.615	0.0144293
660.693	0.0143517
660.771	0.0144432
660.849	0.0143613
660.927	0.0142908
661.005	0.0144602
661.083	0.0143616
661.162	0.0142982
661.240	0.0143879
661.318	0.0144206
661.396	0.0144444
661.474	0.0144426
661.552	0.0143550
661.630	0.0143491
661.708	0.0143610
661.787	0.0143516
661.865	0.0144044
661.943	0.0144543
662.021	0.0143934
662.099	0.0142843
662.177	0.0143188
662.255	0.0144309
662.333	0.0143640
662.412	0.0142703
662.490	0.0143649
662.568	0.0142676
662.646	0.0144566
662.724	0.0143735
662.802	0.0144859
662.880	0.0142944
662.958	0.0143108
663.037	0.0143905
663.115	0.0143961
663.193	0.0142790
663.271	0.0143490
663.349	0.0143540
663.427	0.0143628
663.505	0.0143300
663.583	0.0144135
663.662	0.0142953
663.740	0.0144350
663.818	0.0144838
663.896	0.0143766
663.974	0.0144115
664.052	0.0143666
664.130	0.0144278
664.208	0.0144122
664.287	0.0144027
664.365	0.0144196
664.443	0.0142645
664.521	0.0143546
664.599	0.0143736
664.677	0.0144790
664.755	0.0143923
664.833	0.0143674
664.912	0.0142733
664.990	0.0142532
665.068	0.0141971
665.146	0.0143700
665.224	0.0144287
665.302	0.0143660
665.380	0.0144109
665.458	0.0143275
665.537	0.0143431
665.615	0.0143406
665.693	0.0144183
665.771	0.0144218
665.849	0.0144449
665.927	0.0143832
666.005	0.0142825
666.083	0.0142275
666.162	0.0142403
666.240	0.0143188
666.318	0.0143539
666.396	0.0144824
666.474	0.0145427
666.552	0.0143522
666.630	0.0143489
666.708	0.0143185
666.787	0.0144453
666.865	0.0143376
666.943	0.0142823
667.021	0.0144885
667.099	0.0145254
667.177	0.0143671
667.255	0.0144173
667.333	0.0142495
667.412	0.0143373
667.490	0.0142200
667.568	0.0143381
667.646	0.0142181
667.724	0.0142668
667.802	0.0143868
667.880	0.0143189
667.958	0.0143520
668.037	0.0143839
668.115	0.0143242
668.193	0.0143611
668.271	0.0142581
668.349	0.0144096
668.427	0.0143368
668.505	0.0143684
668.583	0.0143821
668.662	0.0144178
668.740	0.0142103
668.818	0.0142685
668.896	0.0142294
668.974	0.0142954
669.052	0.0144036
669.130	0.0142424
669.208	0.0143449
669.287	0.0143751
669.365	0.0142624
669.443	0.0143505
669.521	0.0142040
669.599	0.0142144
669.677	0.0142958
669.755	0.0142583
669.833	0.0142659
669.912	0.0143508
669.990	0.0142706
670.068	0.0143214
670.146	0.0143755
670.224	0.0142695
670.302	0.0142914
670.380	0.0143871
670.458	0.0144952
670.537	0.0143302
670.615	0.0143247
670.693	0.0143744
670.771	0.0143269
670.849	0.0142382
670.927	0.0143209
671.005	0.0143005
671.083	0.0143311
671.162	0.0142194
671.240	0.0142850
671.318	0.0144994
671.396	0.0143671
671.474	0.0144028
671.552	0.0143381
671.630	0.0143773
671.708	0.0143237
671.787	0.0144144
671.865	0.0142921
671.943	0.0141869
672.021	0.0143556
672.099	0.0144324
672.177	0.0144958
672.255	0.0143803
672.333	0.0144004
672.412	0.0143166
672.490	0.0143384
672.568	0.0144157
672.646	0.0143749
672.724	0.0142747
672.802	0.0143586
672.880	0.0142654
672.958	0.0143860
673.037	0.0142714
673.115	0.0142784
673.193	0.0143842
673.271	0.0143930
673.349	0.0144449
673.427	0.0143548
673.505	0.0145271
673.583	0.0144875
673.662	0.0145782
673.740	0.0145435
673.818	0.0144579
673.896	0.0145651
673.974	0.0143420
674.052	0.0143205
674.130	0.0142635
674.208	0.0142605
674.287	0.0140627
674.365	0.0140973
674.443	0.0138956
674.521	0.0140481
674.599	0.0141061
674.677	0.0139507
674.755	0.0141186
674.833	0.0142112
674.912	0.0142873
674.990	0.0143206
675.068	0.0145837
675.146	0.0150631
675.224	0.0149458
675.302	0.0151363
675.380	0.0151348
675.458	0.0152264
675.537	0.0151403
675.615	0.0151482
675.693	0.0149154
675.771	0.0147355
675.849	0.0143489
675.927	0.0142319
676.005	0.0138004
676.083	0.0136589
676.162	0.0132590
676.240	0.0130888
676.318	0.0130594
676.396	0.0127882
676.474	0.0130163
676.552	0.0131487
676.630	0.0131855
676.708	0.0133923
676.787	0.0141174
676.865	0.0146703
676.943	0.0149712
677.021	0.0153436
677.099	0.0155634
677.177	0.0157414
677.255	0.0157568
677.333	0.0157547
677.412	0.0156310
677.490	0.0156275
677.568	0.0154579
677.646	0.0151138
677.724	0.0146890
677.802	0.0145422
677.880	0.0143367
677.958	0.0142834
678.037	0.0140573
678.115	0.0140316
678.193	0.0141333
678.271	0.0141480
678.349	0.0143021
678.427	0.0142413
678.505	0.0141759
678.583	0.0143511
678.662	0.0142001
678.740	0.0138939
678.818	0.0135209
678.896	0.0134186
678.974	0.0129966
679.052	0.0127673
679.130	0.0127200
679.208	0.0125887
679.287	0.0126437
679.365	0.0127748
679.443	0.0131672
679.521	0.0134299
679.599	0.0140355
679.677	0.0146320
679.755	0.0148688
679.833	0.0154375
679.912	0.0159180
679.990	0.0160091
680.068	0.0161590
680.146	0.0160667
680.224	0.0161045
680.302	0.0162045
680.380	0.0160131
680.458	0.0159451
680.537	0.0160616
680.615	0.0159971
680.693	0.0160573
680.771	0.0161484
680.849	0.0158994
680.927	0.0156905
681.005	0.0155458
681.083	0.0151982
681.162	0.0146262
681.240	0.0142163
681.318	0.0135885
681.396	0.0131099
681.474	0.0126054
681.552	0.0120483
681.630	0.0118024
681.708	0.0116252
681.787	0.0115121
681.865	0.0114782
681.943	0.0114736
682.021	0.0115393
682.099	0.0118805
682.177	0.0121016
682.255	0.0122916
682.333	0.0126442
682.412	0.0129114
682.490	0.0131572
682.568	0.0132240
682.646	0.0136279
682.724	0.0137068
682.802	0.0138859
682.880	0.0142883
682.958	0.0147296
683.037	0.0152583
683.115	0.0156670
683.193	0.0163509
683.271	0.0170359
683.349	0.0177528
683.427	0.0183984
683.505	0.0187909
683.583	0.0192625
683.662	0.0195718
683.740	0.0195251
683.818	0.0194402
683.896	0.0189848
683.974	0.0183559
684.052	0.0177141
684.130	0.0167556
684.208	0.0157118
684.287	0.0146133
684.365	0.0134369
684.443	0.0124978
684.521	0.0115900
684.599	0.0107674
684.677	0.00998909
684.755	0.00968483
684.833	0.00927055
684.912	0.00915497
684.990	0.00928986
685.068	0.00950569
685.146	0.00970879
685.224	0.0103450
685.302	0.0108196
685.380	0.0115363
685.458	0.0121915
685.537	0.0127878
685.615	0.0134370
685.693	0.0141612
685.771	0.0145972
685.849	0.0148329
685.927	0.0152088
686.005	0.0152955
686.083	0.0153671
686.162	0.0155730
686.240	0.0154334
686.318	0.0152233
686.396	0.0152282
686.474	0.0150420
686.552	0.0148728
686.630	0.0149924
686.708	0.0151167
686.787	0.0155569
686.865	0.0160232
686.943	0.0164151
687.021	0.0167665
687.099	0.0175613
687.177	0.0179085
687.255	0.0183091
687.333	0.0186432
687.412	0.0188745
687.490	0.0190482
687.568	0.0189500
687.646	0.0186880
687.724	0.0182887
687.802	0.0176692
687.880	0.0168605
687.958	0.0160976
688.037	0.0153555
688.115	0.0144794
688.193	0.0134946
688.271	0.0126422
688.349	0.0118246
688.427	0.0110988
688.505	0.0104416
688.583	0.00980957
688.662	0.00943710
688.740	0.00909729
688.818	0.00881432
688.896	0.00891426
688.974	0.00908600
689.052	0.00934540
689.130	0.00984009
689.208	0.0103751
689.287	0.0111881
689.365	0.0118956
689.443	0.0125047
689.521	0.0131530
689.599	0.0137074
689.677	0.0141562
689.755	0.0145444
689.833	0.0146296
689.912	0.0146964
689.990	0.0148200
690.068	0.0147013
690.146	0.0145477
690.224	0.0144002
690.302	0.0142918
690.380	0.0142821
690.458	0.0142766
690.537	0.0145269
690.615	0.0150405
690.693	0.0155521
690.771	0.0162617
690.849	0.0172177
690.927	0.0180986
691.005	0.0191239
691.083	0.0199173
691.162	0.0208247
691.240	0.0214994
691.318	0.0216845
691.396	0.0221059
691.474	0.0221688
691.552	0.0215279
691.630	0.0209150
691.708	0.0200698
691.787	0.0190563
691.865	0.0179006
691.943	0.0165424
692.021	0.0153559
692.099	0.0141626
692.177	0.0130714
692.255	0.0121896
692.333	0.0110678
692.412	0.0100859
692.490	0.00920113
692.568	0.00850845
692.646	0.00787216
692.724	0.00707512
692.802	0.00667595
692.880	0.00646980
692.958	0.00618805
693.037	0.00615028
693.115	0.00631729
693.193	0.00660362
693.271	0.00701431
693.349	0.00745911
693.427	0.00833267
693.505	0.00909309
693.583	0.00971947
693.662	0.0107062
693.740	0.0117616
693.818	0.0126262
693.896	0.0136401
693.974	0.0144987
694.052	0.0152225
694.130	0.0158939
694.208	0.0167420
694.287	0.0172474
694.365	0.0178712
694.443	0.0187183
694.521	0.0195523
694.599	0.0204048
694.677	0.0211975
694.755	0.0220222
694.833	0.0227487
694.912	0.0233782
694.990	0.0234666
695.068	0.0236376
695.146	0.0236172
695.224	0.0230236
695.302	0.0222639
695.380	0.0214491
695.458	0.0201602
695.537	0.0190484
695.615	0.0177821
695.693	0.0162885
695.771	0.0147909
695.849	0.0133363
695.927	0.0122647
696.005	0.0108952
696.083	0.00991837
696.162	0.00922302
696.240	0.00865349
696.318	0.00829765
696.396	0.00817360
696.474	0.00808418
696.552	0.00797333
696.630	0.00790329
696.708	0.00817711
696.787	0.00843567
696.865	0.00869469
696.943	0.00916435
697.021	0.00968109
697.099	0.0103265
697.177	0.0107693
697.255	0.0113708
697.333	0.0120164
697.412	0.0125088
697.490	0.0130544
697.568	0.0135184
697.646	0.0137793
697.724	0.0140064
697.802	0.0141744
697.880	0.0141787
697.958	0.0141846
698.037	0.0141827
698.115	0.0140900
698.193	0.0139301
698.271	0.0140696
698.349	0.0142548
698.427	0.0145473
698.505	0.0150000
698.583	0.0154194
698.662	0.0162460
698.740	0.0169943
698.818	0.0180347
698.896	0.0188638
698.974	0.0195566
699.052	0.0202414
699.130	0.0208777
699.208	0.0209888
699.287	0.0209653
699.365	0.0209357
699.443	0.0205379
699.521	0.0198163
699.599	0.0190490
699.677	0.0182150
699.755	0.0170226
699.833	0.0162631
699.912	0.0153033
699.990	0.0145018
700.068	0.0136436
700.146	0.0133116
700.224	0.0125771
700.302	0.0121568
700.380	0.0117100
700.458	0.0115324
700.537	0.0112131
700.615	0.0110085
700.693	0.0107931
700.771	0.0107005
700.849	0.0105735
700.927	0.0105602
701.005	0.0106729
701.083	0.0107250
701.162	0.0109014
701.240	0.0109185
701.318	0.0109645
701.396	0.0113420
701.474	0.0116800
701.552	0.0117649
701.630	0.0122271
701.708	0.0124333
701.787	0.0126245
701.865	0.0128447
701.943	0.0131742
702.021	0.0135307
702.099	0.0137776
702.177	0.0140211
702.255	0.0144508
702.333	0.0148948
702.412	0.0151637
702.490	0.0156345
702.568	0.0161363
702.646	0.0166846
702.724	0.0169334
702.802	0.0172990
702.880	0.0177550
702.958	0.0177769
703.037	0.0179636
703.115	0.0178896
703.193	0.0176199
703.271	0.0174435
703.349	0.0172416
703.427	0.0167797
703.505	0.0162302
703.583	0.0157761
703.662	0.0152102
703.740	0.0146695
703.818	0.0142240
703.896	0.0138586
703.974	0.0134576
704.052	0.0131853
704.130	0.0127966
704.208	0.0129034
704.287	0.0129969
704.365	0.0130479
704.443	0.0129951
704.521	0.0131190
704.599	0.0131890
704.677	0.0133473
704.755	0.0136231
704.833	0.0135389
704.912	0.0136433
704.990	0.0137952
705.068	0.0138271
705.146	0.0138274
705.224	0.0138752
705.302	0.0140089
705.380	0.0141744
705.458	0.0141891
705.537	0.0142814
705.615	0.0145600
705.693	0.0145457
705.771	0.0147627
705.849	0.0149347
705.927	0.0150314
706.005	0.0152492
706.083	0.0153363
706.162	0.0152126
706.240	0.0151733
706.318	0.0150151
706.396	0.0151623
706.474	0.0149316
706.552	0.0145791
706.630	0.0142593
706.708	0.0140544
706.787	0.0137492
706.865	0.0135815
706.943	0.0133598
707.021	0.0130702
707.099	0.0129889
707.177	0.0130346
707.255	0.0130939
707.333	0.0131113
707.412	0.0132649
707.490	0.0133624
707.568	0.0136060
707.646	0.0139633
707.724	0.0139629
707.802	0.0142091
707.880	0.0144714
707.958	0.0148569
708.037	0.0148747
708.115	0.0150647
708.193	0.0152760
708.271	0.0152690
708.349	0.0152389
708.427	0.0153863
708.505	0.0155339
708.583	0.0152805
708.662	0.0149870
708.740	0.0149933
708.818	0.0149440
708.896	0.0148270
708.974	0.0146514
709.052	0.0145652
709.130	0.0142303
709.208	0.0141256
709.287	0.0139069
709.365	0.0138874
709.443	0.0136113
709.521	0.0136786
709.599	0.0135859
709.677	0.0135412
709.755	0.0137303
709.833	0.0136781
709.912	0.0139773
709.990	0.0140254
710.068	0.0143509
710.146	0.0145499
710.224	0.0148259
710.302	0.0149239
710.380	0.0149859
710.458	0.0152478
710.537	0.0153797
710.615	0.0154921
710.693	0.0153427
710.771	0.0155770
710.849	0.0154846
710.927	0.0156237
711.005	0.0154688
711.083	0.0153162
711.162	0.0154175
711.240	0.0152153
711.318	0.0151697
711.396	0.0150506
711.474	0.0147075
711.552	0.0145351
711.630	0.0142406
711.708	0.0140386
711.787	0.0137271
711.865	0.0136743
711.943	0.0131561
712.021	0.0129539
712.099	0.0129703
712.177	0.0128635
712.255	0.0129224
712.333	0.0127374
712.412	0.0128712
712.490	0.0129432
712.568	0.0130137
712.646	0.0132923
712.724	0.0135384
712.802	0.0136028
712.880	0.0137282
712.958	0.0140401
713.037	0.0142700
713.115	0.0144022
713.193	0.0146348
713.271	0.0147905
713.349	0.0150138
713.427	0.0152101
713.505	0.0154580
713.583	0.0153787
713.662	0.0155374
713.740	0.0155495
713.818	0.0155938
713.896	0.0155366
713.974	0.0156066
714.052	0.0155476
714.130	0.0154808
714.208	0.0152934
714.287	0.0151976
714.365	0.0152206
714.443	0.0149786
714.521	0.0147134
714.599	0.0144032
714.677	0.0141763
714.755	0.0138847
714.833	0.0138109
714.912	0.0135851
714.990	0.0134364
715.068	0.0133037
715.146	0.0132777
715.224	0.0131598
715.302	0.0131759
715.380	0.0130582
715.458	0.0131542
715.537	0.0131374
715.615	0.0134323
715.693	0.0136761
715.771	0.0138900
715.849	0.0141732
715.927	0.0143263
716.005	0.0146490
716.083	0.0148552
716.162	0.0149603
716.240	0.0150266
716.318	0.0152000
716.396	0.0151692
716.474	0.0151782
716.552	0.0152171
716.630	0.0151645
716.708	0.0150822
716.787	0.0151431
716.865	0.0150429
716.943	0.0150309
717.021	0.0149269
717.099	0.0148927
717.177	0.0147611
717.255	0.0149686
717.333	0.0147675
717.412	0.0148090
717.490	0.0150152
717.568	0.0149418
717.646	0.0148080
717.724	0.0147939
717.802	0.0147398
717.880	0.0145659
717.958	0.0144703
718.037	0.0142986
718.115	0.0141045
718.193	0.0138912
718.271	0.0136680
718.349	0.0133511
718.427	0.0132911
718.505	0.0131523
718.583	0.0131463
718.662	0.0133543
718.740	0.0133922
718.818	0.0134911
718.896	0.0137128
718.974	0.0140153
719.052	0.0142634
719.130	0.0144521
719.208	0.0145928
719.287	0.0149292
719.365	0.0152431
719.443	0.0152670
719.521	0.0153539
719.599	0.0154115
719.677	0.0154362
719.755	0.0152397
719.833	0.0150462
719.912	0.0148638
719.990	0.0146558
720.068	0.0143520
720.146	0.0139952
720.224	0.0138496
720.302	0.0135070
720.380	0.0132674
720.458	0.0129894
720.537	0.0128357
720.615	0.0127862
720.693	0.0127980
720.771	0.0128520
720.849	0.0128144
720.927	0.0128815
721.005	0.0130984
721.083	0.0132446
721.162	0.0133566
721.240	0.0136551
721.318	0.0140252
721.396	0.0141812
721.474	0.0143733
721.552	0.0145342
721.630	0.0148058
721.708	0.0150325
721.787	0.0151775
721.865	0.0154128
721.943	0.0155216
722.021	0.0156479
722.099	0.0159208
722.177	0.0161819
722.255	0.0160487
722.333	0.0161002
722.412	0.0160249
722.490	0.0162215
722.568	0.0160873
722.646	0.0159900
722.724	0.0157237
722.802	0.0156470
722.880	0.0152820
722.958	0.0152160
723.037	0.0150755
723.115	0.0148223
723.193	0.0146124
723.271	0.0143976
723.349	0.0143598
723.427	0.0141925
723.505	0.0140511
723.583	0.0138413
723.662	0.0139034
723.740	0.0137171
723.818	0.0135173
723.896	0.0134068
723.974	0.0134528
724.052	0.0131670
724.130	0.0131377
724.208	0.0130946
724.287	0.0129253
724.365	0.0132067
724.443	0.0134265
724.521	0.0133141
724.599	0.0134482
724.677	0.0137787
724.755	0.0139165
724.833	0.0139638
724.912	0.0141557
724.990	0.0140003
725.068	0.0140756
725.146	0.0143830
725.224	0.0142808
725.302	0.0139794
725.380	0.0139895
725.458	0.0140034
725.537	0.0139060
725.615	0.0137868
725.693	0.0137907
725.771	0.0137909
725.849	0.0137215
725.927	0.0137425
726.005	0.0137736
726.083	0.0138552
726.162	0.0139994
726.240	0.0138511
726.318	0.0139422
726.396	0.0140927
726.474	0.0141739
726.552	0.0141852
726.630	0.0143393
726.708	0.0145415
726.787	0.0144971
726.865	0.0146431
726.943	0.0147650
727.021	0.0148667
727.099	0.0151028
727.177	0.0150676
727.255	0.0152373
727.333	0.0153732
727.412	0.0153124
727.490	0.0154995
727.568	0.0156192
727.646	0.0157284
727.724	0.0157089
727.802	0.0157156
727.880	0.0156294
727.958	0.0155814
728.037	0.0154970
728.115	0.0155686
728.193	0.0153843
728.271	0.0149596
728.349	0.0150219
728.427	0.0149681
728.505	0.0147105
728.583	0.0144359
728.662	0.0140192
728.740	0.0139646
728.818	0.0137228
728.896	0.0135027
728.974	0.0133382
729.052	0.0131973
729.130	0.0130270
729.208	0.0132612
729.287	0.0131556
729.365	0.0132351
729.443	0.0133971
729.521	0.0134918
729.599	0.0135465
729.677	0.0137789
729.755	0.0139706
729.833	0.0139702
729.912	0.0141367
729.990	0.0141796
730.068	0.0141436
730.146	0.0141150
730.224	0.0141391
730.302	0.0141055
730.380	0.0141309
730.458	0.0140237
730.537	0.0140935
730.615	0.0141917
730.693	0.0143030
730.771	0.0145142
730.849	0.0145003
730.927	0.0143491
731.005	0.0144980
731.083	0.0146729
731.162	0.0145488
731.240	0.0145836
731.318	0.0146192
731.396	0.0146048
731.474	0.0146169
731.552	0.0144366
731.630	0.0144182
731.708	0.0142970
731.787	0.0142161
731.865	0.0142833
731.943	0.0140782
732.021	0.0141175
732.099	0.0141471
732.177	0.0140071
732.255	0.0140008
732.333	0.0139816
732.412	0.0139746
732.490	0.0140490
732.568	0.0142713
732.646	0.0143529
732.724	0.0144612
732.802	0.0145520
732.880	0.0145950
732.958	0.0148524
733.037	0.0150031
733.115	0.0150250
733.193	0.0150494
733.271	0.0149716
733.349	0.0150547
733.427	0.0152250
733.505	0.0152431
733.583	0.0151134
733.662	0.0150702
733.740	0.0149788
733.818	0.0149163
733.896	0.0148374
733.974	0.0147669
734.052	0.0148244
734.130	0.0147481
734.208	0.0146107
734.287	0.0147356
734.365	0.0146087
734.443	0.0146660
734.521	0.0144553
734.599	0.0143944
734.677	0.0145738
734.755	0.0145190
734.833	0.0145036
734.912	0.0144153
734.990	0.0144482
735.068	0.0143678
735.146	0.0143761
735.224	0.0143332
735.302	0.0142056
735.380	0.0142986
735.458	0.0143251
735.537	0.0142953
