05/08/2022	19:50:30	Ver.	4.1	UNKNOWN
Optical Delay	649.989667	Delta X		0.078125	Sweeps	1	Scan Rate	0/0
Coordinates	Axis 1	NaN	Axis 2	NaN	Axis 3	NaN	Axis 4	NaN	Axis 5	NaN	Axis 6	0.000000
TX Power	0.000000	RX Power	0.000000

649.990	0.0129453
650.068	0.0129620
650.146	0.0129257
650.224	0.0129821
650.302	0.0129456
650.380	0.0129330
650.458	0.0129038
650.537	0.0129689
650.615	0.0129250
650.693	0.0129912
650.771	0.0129707
650.849	0.0129368
650.927	0.0129128
651.005	0.0130499
651.083	0.0129291
651.162	0.0129346
651.240	0.0130254
651.318	0.0131869
651.396	0.0129443
651.474	0.0129279
651.552	0.0131415
651.630	0.0130043
651.708	0.0129099
651.787	0.0130540
651.865	0.0130415
651.943	0.0129868
652.021	0.0130595
652.099	0.0129976
652.177	0.0128725
652.255	0.0129499
652.333	0.0129660
652.412	0.0130630
652.490	0.0129236
652.568	0.0129353
652.646	0.0129296
652.724	0.0130989
652.802	0.0130670
652.880	0.0129647
652.958	0.0130067
653.037	0.0130843
653.115	0.0129929
653.193	0.0129465
653.271	0.0129787
653.349	0.0130023
653.427	0.0130058
653.505	0.0131393
653.583	0.0131217
653.662	0.0129954
653.740	0.0128465
653.818	0.0129501
653.896	0.0130513
653.974	0.0129744
654.052	0.0130623
654.130	0.0131178
654.208	0.0130164
654.287	0.0129792
654.365	0.0130109
654.443	0.0129887
654.521	0.0130814
654.599	0.0130387
654.677	0.0130199
654.755	0.0128417
654.833	0.0129794
654.912	0.0131187
654.990	0.0130499
655.068	0.0129987
655.146	0.0130181
655.224	0.0130474
655.302	0.0130028
655.380	0.0130192
655.458	0.0129972
655.537	0.0129756
655.615	0.0130421
655.693	0.0130107
655.771	0.0130795
655.849	0.0131196
655.927	0.0129406
656.005	0.0129485
656.083	0.0128780
656.162	0.0129295
656.240	0.0129198
656.318	0.0130049
656.396	0.0130868
656.474	0.0130575
656.552	0.0129079
656.630	0.0129086
656.708	0.0129874
656.787	0.0130420
656.865	0.0128910
656.943	0.0130193
657.021	0.0129862
657.099	0.0129343
657.177	0.0129397
657.255	0.0130404
657.333	0.0128546
657.412	0.0129471
657.490	0.0130181
657.568	0.0129477
657.646	0.0129765
657.724	0.0131377
657.802	0.0130617
657.880	0.0128405
657.958	0.0129742
658.037	0.0130073
658.115	0.0130140
658.193	0.0129919
658.271	0.0129692
658.349	0.0129324
658.427	0.0129130
658.505	0.0129999
658.583	0.0129870
658.662	0.0130406
658.740	0.0130154
658.818	0.0129158
658.896	0.0127937
658.974	0.0129617
659.052	0.0129211
659.130	0.0128854
659.208	0.0128875
659.287	0.0128877
659.365	0.0130022
659.443	0.0131097
659.521	0.0128844
659.599	0.0128986
659.677	0.0129745
659.755	0.0130375
659.833	0.0130624
659.912	0.0130727
659.990	0.0129965
660.068	0.0129916
660.146	0.0129403
660.224	0.0130171
660.302	0.0129998
660.380	0.0130230
660.458	0.0130788
660.537	0.0129806
660.615	0.0130311
660.693	0.0129641
660.771	0.0130186
660.849	0.0129006
660.927	0.0129858
661.005	0.0129459
661.083	0.0130547
661.162	0.0128365
661.240	0.0128492
661.318	0.0130131
661.396	0.0130761
661.474	0.0130802
661.552	0.0128928
661.630	0.0130848
661.708	0.0130405
661.787	0.0130400
661.865	0.0129205
661.943	0.0130042
662.021	0.0129282
662.099	0.0130165
662.177	0.0128881
662.255	0.0130003
662.333	0.0129360
662.412	0.0129831
662.490	0.0128684
662.568	0.0129500
662.646	0.0128224
662.724	0.0129414
662.802	0.0129839
662.880	0.0129889
662.958	0.0130903
663.037	0.0130546
663.115	0.0131455
663.193	0.0130500
663.271	0.0129613
663.349	0.0129545
663.427	0.0129934
663.505	0.0130355
663.583	0.0130421
663.662	0.0130534
663.740	0.0130766
663.818	0.0130350
663.896	0.0129616
663.974	0.0127496
664.052	0.0129306
664.130	0.0130058
664.208	0.0128776
664.287	0.0129934
664.365	0.0130584
664.443	0.0129014
664.521	0.0129688
664.599	0.0129179
664.677	0.0129809
664.755	0.0130546
664.833	0.0131734
664.912	0.0130584
664.990	0.0129975
665.068	0.0130853
665.146	0.0130884
665.224	0.0130773
665.302	0.0130521
665.380	0.0129090
665.458	0.0127056
665.537	0.0127098
665.615	0.0126318
665.693	0.0126159
665.771	0.0126466
665.849	0.0126733
665.927	0.0127561
666.005	0.0128460
666.083	0.0129591
666.162	0.0130434
666.240	0.0132912
666.318	0.0133373
666.396	0.0134171
666.474	0.0134622
666.552	0.0136189
666.630	0.0134220
666.708	0.0134500
666.787	0.0133353
666.865	0.0131765
666.943	0.0130633
667.021	0.0130090
667.099	0.0129631
667.177	0.0127785
667.255	0.0124911
667.333	0.0125182
667.412	0.0125146
667.490	0.0122594
667.568	0.0123290
667.646	0.0124603
667.724	0.0123775
667.802	0.0125896
667.880	0.0126406
667.958	0.0126783
668.037	0.0130383
668.115	0.0132222
668.193	0.0134366
668.271	0.0135030
668.349	0.0135955
668.427	0.0134795
668.505	0.0134702
668.583	0.0133158
668.662	0.0131306
668.740	0.0130642
668.818	0.0129124
668.896	0.0129398
668.974	0.0130266
669.052	0.0130453
669.130	0.0131354
669.208	0.0131763
669.287	0.0132721
669.365	0.0134487
669.443	0.0134233
669.521	0.0135802
669.599	0.0134106
669.677	0.0133933
669.755	0.0132956
669.833	0.0130511
669.912	0.0127554
669.990	0.0125282
670.068	0.0121393
670.146	0.0122055
670.224	0.0121339
670.302	0.0118506
670.380	0.0119318
670.458	0.0121547
670.537	0.0123713
670.615	0.0125872
670.693	0.0127312
670.771	0.0129576
670.849	0.0133327
670.927	0.0134586
671.005	0.0135755
671.083	0.0134985
671.162	0.0135370
671.240	0.0135094
671.318	0.0130894
671.396	0.0128052
671.474	0.0128374
671.552	0.0126099
671.630	0.0124397
671.708	0.0125178
671.787	0.0126371
671.865	0.0128751
671.943	0.0133356
672.021	0.0135126
672.099	0.0138291
672.177	0.0143613
672.255	0.0145527
672.333	0.0147758
672.412	0.0148048
672.490	0.0146184
672.568	0.0143363
672.646	0.0139773
672.724	0.0135805
672.802	0.0131228
672.880	0.0126159
672.958	0.0123538
673.037	0.0120724
673.115	0.0116935
673.193	0.0116130
673.271	0.0114802
673.349	0.0115767
673.427	0.0117577
673.505	0.0117758
673.583	0.0117620
673.662	0.0117252
673.740	0.0119424
673.818	0.0118689
673.896	0.0119022
673.974	0.0120759
674.052	0.0119646
674.130	0.0119462
674.208	0.0122036
674.287	0.0122576
674.365	0.0123969
674.443	0.0126988
674.521	0.0129342
674.599	0.0132629
674.677	0.0137045
674.755	0.0138927
674.833	0.0140396
674.912	0.0142252
674.990	0.0142957
675.068	0.0144985
675.146	0.0145379
675.224	0.0147394
675.302	0.0146820
675.380	0.0149205
675.458	0.0150507
675.537	0.0151797
675.615	0.0153908
675.693	0.0152617
675.771	0.0153809
675.849	0.0154058
675.927	0.0150796
676.005	0.0145419
676.083	0.0141232
676.162	0.0136186
676.240	0.0128547
676.318	0.0121738
676.396	0.0115905
676.474	0.0110250
676.552	0.0106069
676.630	0.0104298
676.708	0.0101517
676.787	0.0101769
676.865	0.0103648
676.943	0.0107487
677.021	0.0109770
677.099	0.0112736
677.177	0.0116940
677.255	0.0120753
677.333	0.0120725
677.412	0.0120790
677.490	0.0119654
677.568	0.0117769
677.646	0.0116608
677.724	0.0112194
677.802	0.0109878
677.880	0.0108227
677.958	0.0106927
678.037	0.0107899
678.115	0.0110221
678.193	0.0113884
678.271	0.0120269
678.349	0.0126736
678.427	0.0135191
678.505	0.0142065
678.583	0.0148957
678.662	0.0156171
678.740	0.0164015
678.818	0.0169433
678.896	0.0174010
678.974	0.0178616
679.052	0.0181198
679.130	0.0180383
679.208	0.0180593
679.287	0.0178778
679.365	0.0176565
679.443	0.0172549
679.521	0.0168444
679.599	0.0164271
679.677	0.0158454
679.755	0.0155178
679.833	0.0150285
679.912	0.0143237
679.990	0.0138263
680.068	0.0130639
680.146	0.0124383
680.224	0.0114672
680.302	0.0104005
680.380	0.00948586
680.458	0.00831482
680.537	0.00755371
680.615	0.00656990
680.693	0.00582130
680.771	0.00543747
680.849	0.00513695
680.927	0.00495872
681.005	0.00530785
681.083	0.00562447
681.162	0.00622169
681.240	0.00711891
681.318	0.00813583
681.396	0.00926300
681.474	0.0105294
681.552	0.0119916
681.630	0.0131951
681.708	0.0145568
681.787	0.0156614
681.865	0.0165587
681.943	0.0175209
682.021	0.0181296
682.099	0.0183350
682.177	0.0189059
682.255	0.0188799
682.333	0.0189130
682.412	0.0186753
682.490	0.0186104
682.568	0.0183119
682.646	0.0178799
682.724	0.0175089
682.802	0.0169147
682.880	0.0163127
682.958	0.0157158
683.037	0.0152643
683.115	0.0146850
683.193	0.0141428
683.271	0.0140331
683.349	0.0137238
683.427	0.0133291
683.505	0.0131738
683.583	0.0129207
683.662	0.0126435
683.740	0.0123227
683.818	0.0121658
683.896	0.0119131
683.974	0.0118076
684.052	0.0115185
684.130	0.0110732
684.208	0.0106734
684.287	0.0104699
684.365	0.0100175
684.443	0.00983185
684.521	0.00951820
684.599	0.00913864
684.677	0.00891449
684.755	0.00898933
684.833	0.00882355
684.912	0.00890945
684.990	0.00904366
685.068	0.00907524
685.146	0.00928246
685.224	0.00932259
685.302	0.00968796
685.380	0.00987579
685.458	0.0103580
685.537	0.0107703
685.615	0.0112809
685.693	0.0117679
685.771	0.0123929
685.849	0.0130984
685.927	0.0138301
686.005	0.0145482
686.083	0.0154429
686.162	0.0160046
686.240	0.0165298
686.318	0.0170168
686.396	0.0174380
686.474	0.0177361
686.552	0.0178448
686.630	0.0175348
686.708	0.0175024
686.787	0.0172230
686.865	0.0168121
686.943	0.0164767
687.021	0.0158138
687.099	0.0152808
687.177	0.0147940
687.255	0.0143849
687.333	0.0140215
687.412	0.0134898
687.490	0.0133217
687.568	0.0129344
687.646	0.0127229
687.724	0.0124106
687.802	0.0122451
687.880	0.0120269
687.958	0.0117679
688.037	0.0116078
688.115	0.0114970
688.193	0.0113583
688.271	0.0112553
688.349	0.0110989
688.427	0.0113393
688.505	0.0114120
688.583	0.0114873
688.662	0.0115427
688.740	0.0118636
688.818	0.0120693
688.896	0.0121803
688.974	0.0122720
689.052	0.0121989
689.130	0.0121646
689.208	0.0121423
689.287	0.0122443
689.365	0.0121162
689.443	0.0122010
689.521	0.0119867
689.599	0.0120756
689.677	0.0120618
689.755	0.0117471
689.833	0.0115038
689.912	0.0114020
689.990	0.0113347
690.068	0.0111877
690.146	0.0108627
690.224	0.0109601
690.302	0.0111409
690.380	0.0111962
690.458	0.0114661
690.537	0.0118718
690.615	0.0123792
690.693	0.0127473
690.771	0.0130114
690.849	0.0134393
690.927	0.0137752
691.005	0.0143107
691.083	0.0144414
691.162	0.0146939
691.240	0.0149051
691.318	0.0151173
691.396	0.0150423
691.474	0.0150449
691.552	0.0150291
691.630	0.0149640
691.708	0.0147461
691.787	0.0146058
691.865	0.0143578
691.943	0.0142793
692.021	0.0142724
692.099	0.0142416
692.177	0.0140514
692.255	0.0142595
692.333	0.0143705
692.412	0.0144427
692.490	0.0144154
692.568	0.0144450
692.646	0.0145004
692.724	0.0144553
692.802	0.0144220
692.880	0.0141502
692.958	0.0137762
693.037	0.0135223
693.115	0.0131883
693.193	0.0129147
693.271	0.0126024
693.349	0.0122564
693.427	0.0119636
693.505	0.0116575
693.583	0.0114497
693.662	0.0112336
693.740	0.0110476
693.818	0.0110886
693.896	0.0110007
693.974	0.0111672
694.052	0.0113759
694.130	0.0115321
694.208	0.0117777
694.287	0.0120347
694.365	0.0122232
694.443	0.0124100
694.521	0.0126571
694.599	0.0126339
694.677	0.0127348
694.755	0.0127921
694.833	0.0126579
694.912	0.0126212
694.990	0.0124643
695.068	0.0122886
695.146	0.0119550
695.224	0.0117059
695.302	0.0114901
695.380	0.0112228
695.458	0.0112067
695.537	0.0110400
695.615	0.0108917
695.693	0.0108958
695.771	0.0109985
695.849	0.0109575
695.927	0.0113536
696.005	0.0112970
696.083	0.0115224
696.162	0.0115584
696.240	0.0118666
696.318	0.0120956
696.396	0.0122810
696.474	0.0126891
696.552	0.0131896
696.630	0.0137096
696.708	0.0142755
696.787	0.0149117
696.865	0.0156118
696.943	0.0162291
697.021	0.0166168
697.099	0.0171036
697.177	0.0175249
697.255	0.0179292
697.333	0.0183713
697.412	0.0185994
697.490	0.0185951
697.568	0.0186389
697.646	0.0185912
697.724	0.0181519
697.802	0.0175647
697.880	0.0169703
697.958	0.0161018
698.037	0.0153472
698.115	0.0144112
698.193	0.0134344
698.271	0.0125961
698.349	0.0115161
698.427	0.0106210
698.505	0.00979546
698.583	0.00917488
698.662	0.00853119
698.740	0.00810402
698.818	0.00775497
698.896	0.00743149
698.974	0.00731956
699.052	0.00744034
699.130	0.00769760
699.208	0.00808807
699.287	0.00845543
699.365	0.00903885
699.443	0.00976425
699.521	0.0103825
699.599	0.0109309
699.677	0.0115986
699.755	0.0123208
699.833	0.0129757
699.912	0.0133562
699.990	0.0139353
700.068	0.0144047
700.146	0.0146174
700.224	0.0148742
700.302	0.0149411
700.380	0.0147858
700.458	0.0147266
700.537	0.0142897
700.615	0.0139571
700.693	0.0135257
700.771	0.0130460
700.849	0.0128673
700.927	0.0124537
701.005	0.0123312
701.083	0.0120483
701.162	0.0119171
701.240	0.0120116
701.318	0.0120638
701.396	0.0123559
701.474	0.0125146
701.552	0.0126679
701.630	0.0130531
701.708	0.0132384
701.787	0.0132784
701.865	0.0136203
701.943	0.0139410
702.021	0.0140874
702.099	0.0143027
702.177	0.0147078
702.255	0.0152116
702.333	0.0154266
702.412	0.0157418
702.490	0.0160719
702.568	0.0163949
702.646	0.0165391
702.724	0.0166299
702.802	0.0166773
702.880	0.0164161
702.958	0.0163087
703.037	0.0157923
703.115	0.0150732
703.193	0.0145898
703.271	0.0140858
703.349	0.0135548
703.427	0.0128774
703.505	0.0123698
703.583	0.0119658
703.662	0.0115469
703.740	0.0113522
703.818	0.0112087
703.896	0.0108397
703.974	0.0107831
704.052	0.0105715
704.130	0.0105251
704.208	0.0105660
704.287	0.0102313
704.365	0.0102087
704.443	0.0102609
704.521	0.0101563
704.599	0.0101499
704.677	0.0104302
704.755	0.0104605
704.833	0.0104823
704.912	0.0107365
704.990	0.0108410
705.068	0.0108942
705.146	0.0112127
705.224	0.0114455
705.302	0.0116567
705.380	0.0120508
705.458	0.0124001
705.537	0.0126987
705.615	0.0133013
705.693	0.0138252
705.771	0.0141839
705.849	0.0147289
705.927	0.0151530
706.005	0.0155040
706.083	0.0156788
706.162	0.0159341
706.240	0.0159953
706.318	0.0156998
706.396	0.0153677
706.474	0.0149596
706.552	0.0144693
706.630	0.0137042
706.708	0.0130353
706.787	0.0124580
706.865	0.0120074
706.943	0.0114772
707.021	0.0111885
707.099	0.0110175
707.177	0.0109590
707.255	0.0109278
707.333	0.0112120
707.412	0.0113187
707.490	0.0115472
707.568	0.0119414
707.646	0.0123242
707.724	0.0126921
707.802	0.0130173
707.880	0.0134135
707.958	0.0138998
708.037	0.0140726
708.115	0.0143055
708.193	0.0146792
708.271	0.0150079
708.349	0.0152946
708.427	0.0153008
708.505	0.0154275
708.583	0.0154991
708.662	0.0156705
708.740	0.0156129
708.818	0.0154691
708.896	0.0155971
708.974	0.0154268
709.052	0.0152923
709.130	0.0149119
709.208	0.0145583
709.287	0.0143274
709.365	0.0139845
709.443	0.0136979
709.521	0.0133149
709.599	0.0129058
709.677	0.0124860
709.755	0.0121365
709.833	0.0117226
709.912	0.0113763
709.990	0.0108279
710.068	0.0104444
710.146	0.00998001
710.224	0.00957001
710.302	0.00938766
710.380	0.00940132
710.458	0.00923210
710.537	0.00919716
710.615	0.00940056
710.693	0.00954872
710.771	0.00982445
710.849	0.0100652
710.927	0.0107661
711.005	0.0112962
711.083	0.0116991
711.162	0.0121409
711.240	0.0127176
711.318	0.0133345
711.396	0.0137698
711.474	0.0143357
711.552	0.0146017
711.630	0.0150259
711.708	0.0152091
711.787	0.0153510
711.865	0.0154759
711.943	0.0153962
712.021	0.0150504
712.099	0.0146075
712.177	0.0145673
712.255	0.0138999
712.333	0.0133629
712.412	0.0128271
712.490	0.0123479
712.568	0.0119676
712.646	0.0116357
712.724	0.0111975
712.802	0.0111366
712.880	0.0109715
712.958	0.0111007
713.037	0.0112331
713.115	0.0113330
713.193	0.0116477
713.271	0.0119926
713.349	0.0124149
713.427	0.0128274
713.505	0.0132903
713.583	0.0135931
713.662	0.0140539
713.740	0.0143417
713.818	0.0147281
713.896	0.0150462
713.974	0.0152659
714.052	0.0155096
714.130	0.0156236
714.208	0.0158026
714.287	0.0159077
714.365	0.0158620
714.443	0.0159487
714.521	0.0159023
714.599	0.0158107
714.677	0.0157462
714.755	0.0154656
714.833	0.0153988
714.912	0.0150325
714.990	0.0145030
715.068	0.0141964
715.146	0.0137900
715.224	0.0133054
715.302	0.0128520
715.380	0.0124023
715.458	0.0118504
715.537	0.0111486
715.615	0.0107670
715.693	0.0104813
715.771	0.0101678
715.849	0.00976814
715.927	0.00957375
716.005	0.00956955
716.083	0.00946838
716.162	0.00947899
716.240	0.00937706
716.318	0.00937592
716.396	0.00962059
716.474	0.00995338
716.552	0.0102200
716.630	0.0105781
716.708	0.0107734
716.787	0.0112917
716.865	0.0118867
716.943	0.0123133
717.021	0.0127774
717.099	0.0132764
717.177	0.0134993
717.255	0.0141261
717.333	0.0144862
717.412	0.0147289
717.490	0.0149604
717.568	0.0151373
717.646	0.0150423
717.724	0.0149206
717.802	0.0148697
717.880	0.0145305
717.958	0.0140504
718.037	0.0136509
718.115	0.0131963
718.193	0.0126989
718.271	0.0124401
718.349	0.0119704
718.427	0.0117097
718.505	0.0115296
718.583	0.0115865
718.662	0.0114300
718.740	0.0116496
718.818	0.0121191
718.896	0.0122761
718.974	0.0127638
719.052	0.0130705
719.130	0.0136438
719.208	0.0141056
719.287	0.0145164
719.365	0.0148035
719.443	0.0152866
719.521	0.0153266
719.599	0.0156153
719.677	0.0155909
719.755	0.0155494
719.833	0.0155042
719.912	0.0153530
719.990	0.0151473
720.068	0.0148824
720.146	0.0146230
720.224	0.0142870
720.302	0.0141068
720.380	0.0138329
720.458	0.0135660
720.537	0.0133995
720.615	0.0133751
720.693	0.0132672
720.771	0.0130522
720.849	0.0129868
720.927	0.0129510
721.005	0.0127896
721.083	0.0125838
721.162	0.0123830
721.240	0.0123904
721.318	0.0119901
721.396	0.0119463
721.474	0.0116836
721.552	0.0114082
721.630	0.0113750
721.708	0.0111772
721.787	0.0110905
721.865	0.0109890
721.943	0.0109614
722.021	0.0110465
722.099	0.0109563
722.177	0.0111502
722.255	0.0112254
722.333	0.0112817
722.412	0.0115359
722.490	0.0116676
722.568	0.0118037
722.646	0.0120287
722.724	0.0121223
722.802	0.0123882
722.880	0.0126030
722.958	0.0128048
723.037	0.0130143
723.115	0.0131831
723.193	0.0132335
723.271	0.0132584
723.349	0.0133183
723.427	0.0133231
723.505	0.0130118
723.583	0.0129121
723.662	0.0126392
723.740	0.0123064
723.818	0.0121264
723.896	0.0119650
723.974	0.0117879
724.052	0.0117418
724.130	0.0119119
724.208	0.0119450
724.287	0.0123473
724.365	0.0125765
724.443	0.0129398
724.521	0.0133944
724.599	0.0138861
724.677	0.0143601
724.755	0.0145914
724.833	0.0152115
724.912	0.0155656
724.990	0.0157195
725.068	0.0158967
725.146	0.0159818
725.224	0.0161296
725.302	0.0160131
725.380	0.0159980
725.458	0.0157215
725.537	0.0153928
725.615	0.0149962
725.693	0.0147963
725.771	0.0145068
725.849	0.0141154
725.927	0.0136793
726.005	0.0132602
726.083	0.0129603
726.162	0.0127322
726.240	0.0125001
726.318	0.0122344
726.396	0.0119484
726.474	0.0118665
726.552	0.0118688
726.630	0.0117193
726.708	0.0116286
726.787	0.0116344
726.865	0.0115519
726.943	0.0117471
727.021	0.0119215
727.099	0.0119063
727.177	0.0118596
727.255	0.0117863
727.333	0.0118979
727.412	0.0119785
727.490	0.0119729
727.568	0.0119321
727.646	0.0121202
727.724	0.0119619
727.802	0.0120982
727.880	0.0121066
727.958	0.0121659
728.037	0.0121716
728.115	0.0123220
728.193	0.0125054
728.271	0.0125561
728.349	0.0127008
728.427	0.0128311
728.505	0.0129511
728.583	0.0129332
728.662	0.0129829
728.740	0.0131245
728.818	0.0131256
728.896	0.0129258
728.974	0.0130056
729.052	0.0129198
729.130	0.0128542
729.208	0.0125761
729.287	0.0122526
729.365	0.0121841
729.443	0.0120730
729.521	0.0118417
729.599	0.0117430
729.677	0.0117588
729.755	0.0117857
729.833	0.0119828
729.912	0.0121899
729.990	0.0123369
730.068	0.0126858
730.146	0.0129785
730.224	0.0133608
730.302	0.0136427
730.380	0.0140494
730.458	0.0142255
730.537	0.0145881
730.615	0.0148935
730.693	0.0149938
730.771	0.0149303
730.849	0.0150199
730.927	0.0151002
731.005	0.0150220
731.083	0.0147739
731.162	0.0147681
731.240	0.0145887
731.318	0.0141727
731.396	0.0140495
731.474	0.0140815
731.552	0.0137200
731.630	0.0136149
731.708	0.0137083
731.787	0.0134927
731.865	0.0134297
731.943	0.0133313
732.021	0.0133092
732.099	0.0132825
732.177	0.0133049
732.255	0.0132618
732.333	0.0132620
732.412	0.0131252
732.490	0.0129729
732.568	0.0129167
732.646	0.0127297
732.724	0.0126612
732.802	0.0124564
732.880	0.0122548
732.958	0.0121894
733.037	0.0120929
733.115	0.0117451
733.193	0.0118687
733.271	0.0118311
733.349	0.0116885
733.427	0.0116965
733.505	0.0117258
733.583	0.0118107
733.662	0.0119626
733.740	0.0120715
733.818	0.0123109
733.896	0.0125366
733.974	0.0125162
734.052	0.0126192
734.130	0.0125927
734.208	0.0126766
734.287	0.0126933
734.365	0.0127859
734.443	0.0127373
734.521	0.0127812
734.599	0.0128351
734.677	0.0128590
734.755	0.0129253
734.833	0.0127953
734.912	0.0126763
734.990	0.0127776
735.068	0.0127077
735.146	0.0126437
735.224	0.0125216
735.302	0.0125986
735.380	0.0124813
735.458	0.0123365
