05/08/2022	19:32:29	Ver.	4.1	UNKNOWN
Optical Delay	649.989667	Delta X		0.078125	Sweeps	1	Scan Rate	0/0
Coordinates	Axis 1	NaN	Axis 2	NaN	Axis 3	NaN	Axis 4	NaN	Axis 5	NaN	Axis 6	0.000000
TX Power	0.000000	RX Power	0.000000

649.990	0.0141740
650.068	0.0142549
650.146	0.0142382
650.224	0.0142107
650.302	0.0141690
650.380	0.0142108
650.458	0.0142488
650.537	0.0140564
650.615	0.0141362
650.693	0.0142210
650.771	0.0141159
650.849	0.0142495
650.927	0.0142626
651.005	0.0141278
651.083	0.0142651
651.162	0.0142615
651.240	0.0141209
651.318	0.0143669
651.396	0.0142384
651.474	0.0141580
651.552	0.0141013
651.630	0.0142912
651.708	0.0142467
651.787	0.0142336
651.865	0.0142174
651.943	0.0141609
652.021	0.0141819
652.099	0.0143346
652.177	0.0140957
652.255	0.0140973
652.333	0.0142165
652.412	0.0142097
652.490	0.0141830
652.568	0.0141518
652.646	0.0141251
652.724	0.0143395
652.802	0.0142477
652.880	0.0140945
652.958	0.0142250
653.037	0.0142887
653.115	0.0141951
653.193	0.0140704
653.271	0.0141921
653.349	0.0143499
653.427	0.0141862
653.505	0.0141264
653.583	0.0141502
653.662	0.0142204
653.740	0.0142262
653.818	0.0139687
653.896	0.0140974
653.974	0.0141827
654.052	0.0142442
654.130	0.0141537
654.208	0.0141890
654.287	0.0142638
654.365	0.0142044
654.443	0.0142300
654.521	0.0142126
654.599	0.0141934
654.677	0.0142226
654.755	0.0141342
654.833	0.0140049
654.912	0.0142506
654.990	0.0142836
655.068	0.0141525
655.146	0.0142412
655.224	0.0142780
655.302	0.0141216
655.380	0.0141258
655.458	0.0141472
655.537	0.0140284
655.615	0.0141154
655.693	0.0141330
655.771	0.0142276
655.849	0.0142113
655.927	0.0142881
656.005	0.0141538
656.083	0.0141426
656.162	0.0141881
656.240	0.0142623
656.318	0.0142433
656.396	0.0141851
656.474	0.0141795
656.552	0.0142624
656.630	0.0141632
656.708	0.0142497
656.787	0.0141759
656.865	0.0141321
656.943	0.0142138
657.021	0.0141852
657.099	0.0140663
657.177	0.0141975
657.255	0.0142052
657.333	0.0141425
657.412	0.0141449
657.490	0.0141531
657.568	0.0141364
657.646	0.0140671
657.724	0.0140039
657.802	0.0142603
657.880	0.0142329
657.958	0.0142371
658.037	0.0142737
658.115	0.0142765
658.193	0.0142352
658.271	0.0140812
658.349	0.0141467
658.427	0.0142421
658.505	0.0142863
658.583	0.0141573
658.662	0.0141309
658.740	0.0142629
658.818	0.0142693
658.896	0.0141250
658.974	0.0142727
659.052	0.0142396
659.130	0.0142190
659.208	0.0143387
659.287	0.0143152
659.365	0.0141160
659.443	0.0141304
659.521	0.0141836
659.599	0.0141916
659.677	0.0141920
659.755	0.0143689
659.833	0.0140664
659.912	0.0141817
659.990	0.0140845
660.068	0.0141747
660.146	0.0141034
660.224	0.0142139
660.302	0.0142470
660.380	0.0140502
660.458	0.0141442
660.537	0.0141767
660.615	0.0142734
660.693	0.0141684
660.771	0.0142104
660.849	0.0140964
660.927	0.0141203
661.005	0.0141301
661.083	0.0141556
661.162	0.0142105
661.240	0.0141880
661.318	0.0141661
661.396	0.0140326
661.474	0.0142255
661.552	0.0141969
661.630	0.0141290
661.708	0.0141132
661.787	0.0141767
661.865	0.0141576
661.943	0.0141885
662.021	0.0141443
662.099	0.0141780
662.177	0.0140171
662.255	0.0141862
662.333	0.0141825
662.412	0.0141122
662.490	0.0142577
662.568	0.0140412
662.646	0.0139972
662.724	0.0142533
662.802	0.0142867
662.880	0.0141120
662.958	0.0143294
663.037	0.0141611
663.115	0.0140275
663.193	0.0140417
663.271	0.0141257
663.349	0.0141425
663.427	0.0142490
663.505	0.0141421
663.583	0.0142049
663.662	0.0140607
663.740	0.0141351
663.818	0.0141483
663.896	0.0141571
663.974	0.0141135
664.052	0.0141093
664.130	0.0141240
664.208	0.0140830
664.287	0.0141689
664.365	0.0142725
664.443	0.0141474
664.521	0.0142471
664.599	0.0142393
664.677	0.0142126
664.755	0.0141217
664.833	0.0141615
664.912	0.0142464
664.990	0.0141565
665.068	0.0142937
665.146	0.0141203
665.224	0.0140481
665.302	0.0142850
665.380	0.0142179
665.458	0.0142010
665.537	0.0142169
665.615	0.0141844
665.693	0.0142072
665.771	0.0142597
665.849	0.0141782
665.927	0.0141666
666.005	0.0140688
666.083	0.0141507
666.162	0.0141138
666.240	0.0141457
666.318	0.0142847
666.396	0.0142078
666.474	0.0143143
666.552	0.0141265
666.630	0.0141110
666.708	0.0141506
666.787	0.0140602
666.865	0.0141531
666.943	0.0141950
667.021	0.0140995
667.099	0.0140677
667.177	0.0141890
667.255	0.0142995
667.333	0.0141311
667.412	0.0142505
667.490	0.0141373
667.568	0.0141138
667.646	0.0142207
667.724	0.0141808
667.802	0.0140804
667.880	0.0142194
667.958	0.0143354
668.037	0.0142313
668.115	0.0142308
668.193	0.0140596
668.271	0.0141057
668.349	0.0142233
668.427	0.0141895
668.505	0.0141856
668.583	0.0140700
668.662	0.0141217
668.740	0.0141626
668.818	0.0141735
668.896	0.0140221
668.974	0.0141193
669.052	0.0141817
669.130	0.0141178
669.208	0.0142107
669.287	0.0142551
669.365	0.0141532
669.443	0.0140905
669.521	0.0140695
669.599	0.0141908
669.677	0.0140691
669.755	0.0141482
669.833	0.0140627
669.912	0.0140456
669.990	0.0141058
670.068	0.0141268
670.146	0.0141123
670.224	0.0140469
670.302	0.0140072
670.380	0.0141528
670.458	0.0140739
670.537	0.0141967
670.615	0.0139534
670.693	0.0141113
670.771	0.0141335
670.849	0.0139740
670.927	0.0140823
671.005	0.0140772
671.083	0.0141304
671.162	0.0139722
671.240	0.0139906
671.318	0.0142337
671.396	0.0140416
671.474	0.0140347
671.552	0.0140371
671.630	0.0139468
671.708	0.0139905
671.787	0.0141178
671.865	0.0141610
671.943	0.0141796
672.021	0.0140273
672.099	0.0140131
672.177	0.0141090
672.255	0.0139249
672.333	0.0139783
672.412	0.0141141
672.490	0.0140890
672.568	0.0139942
672.646	0.0140054
672.724	0.0140968
672.802	0.0139961
672.880	0.0138599
672.958	0.0139917
673.037	0.0140180
673.115	0.0140538
673.193	0.0139563
673.271	0.0140181
673.349	0.0140636
673.427	0.0139931
673.505	0.0138949
673.583	0.0139121
673.662	0.0139278
673.740	0.0139679
673.818	0.0140564
673.896	0.0140606
673.974	0.0140360
674.052	0.0140472
674.130	0.0138677
674.208	0.0139710
674.287	0.0139651
674.365	0.0139776
674.443	0.0140540
674.521	0.0139375
674.599	0.0141585
674.677	0.0141682
674.755	0.0141032
674.833	0.0140151
674.912	0.0141122
674.990	0.0140309
675.068	0.0140881
675.146	0.0139892
675.224	0.0140637
675.302	0.0141473
675.380	0.0141003
675.458	0.0140514
675.537	0.0141687
675.615	0.0142643
675.693	0.0143045
675.771	0.0141042
675.849	0.0141033
675.927	0.0141821
676.005	0.0140884
676.083	0.0141467
676.162	0.0141885
676.240	0.0141946
676.318	0.0141954
676.396	0.0142470
676.474	0.0142616
676.552	0.0142920
676.630	0.0142519
676.708	0.0142312
676.787	0.0143227
676.865	0.0142917
676.943	0.0142681
677.021	0.0141882
677.099	0.0142400
677.177	0.0142320
677.255	0.0143150
677.333	0.0143111
677.412	0.0144891
677.490	0.0143359
677.568	0.0142767
677.646	0.0144443
677.724	0.0143534
677.802	0.0144331
677.880	0.0143468
677.958	0.0143029
678.037	0.0144396
678.115	0.0143733
678.193	0.0143957
678.271	0.0145048
678.349	0.0143381
678.427	0.0144576
678.505	0.0143266
678.583	0.0144572
678.662	0.0142761
678.740	0.0143375
678.818	0.0144440
678.896	0.0144785
678.974	0.0142628
679.052	0.0144636
679.130	0.0144767
679.208	0.0144240
679.287	0.0143005
679.365	0.0143425
679.443	0.0142768
679.521	0.0143172
679.599	0.0143867
679.677	0.0144052
679.755	0.0144521
679.833	0.0142678
679.912	0.0143085
679.990	0.0144073
680.068	0.0144054
680.146	0.0143902
680.224	0.0143849
680.302	0.0144104
680.380	0.0144041
680.458	0.0143279
680.537	0.0143797
680.615	0.0144527
680.693	0.0144450
680.771	0.0142203
680.849	0.0143828
680.927	0.0143212
681.005	0.0144327
681.083	0.0142437
681.162	0.0143021
681.240	0.0143388
681.318	0.0142983
681.396	0.0143217
681.474	0.0144419
681.552	0.0143569
681.630	0.0143900
681.708	0.0140744
681.787	0.0142362
681.865	0.0143030
681.943	0.0143273
682.021	0.0142570
682.099	0.0141270
682.177	0.0143532
682.255	0.0142937
682.333	0.0141579
682.412	0.0141878
682.490	0.0141095
682.568	0.0142514
682.646	0.0142259
682.724	0.0142034
682.802	0.0141658
682.880	0.0142272
682.958	0.0140626
683.037	0.0141402
683.115	0.0142321
683.193	0.0142842
683.271	0.0140366
683.349	0.0141650
683.427	0.0141674
683.505	0.0142277
683.583	0.0140795
683.662	0.0141566
683.740	0.0141921
683.818	0.0142163
683.896	0.0140728
683.974	0.0142467
684.052	0.0141597
684.130	0.0139980
684.208	0.0141402
684.287	0.0142283
684.365	0.0141889
684.443	0.0141079
684.521	0.0141035
684.599	0.0141989
684.677	0.0140727
684.755	0.0140072
684.833	0.0140432
684.912	0.0141344
684.990	0.0141462
685.068	0.0141150
685.146	0.0142064
685.224	0.0142286
685.302	0.0140976
685.380	0.0140429
685.458	0.0139680
685.537	0.0140987
685.615	0.0139454
685.693	0.0140937
685.771	0.0138717
685.849	0.0139811
685.927	0.0139365
686.005	0.0139848
686.083	0.0138953
686.162	0.0141021
686.240	0.0142993
686.318	0.0141837
686.396	0.0143212
686.474	0.0142720
686.552	0.0142829
686.630	0.0142297
686.708	0.0143406
686.787	0.0143203
686.865	0.0142484
686.943	0.0142375
687.021	0.0140575
687.099	0.0140745
687.177	0.0139542
687.255	0.0140233
687.333	0.0140835
687.412	0.0139041
687.490	0.0140684
687.568	0.0142091
687.646	0.0141893
687.724	0.0142100
687.802	0.0142333
687.880	0.0143140
687.958	0.0143908
688.037	0.0143889
688.115	0.0144933
688.193	0.0141769
688.271	0.0141275
688.349	0.0142898
688.427	0.0141833
688.505	0.0141613
688.583	0.0140328
688.662	0.0141074
688.740	0.0141601
688.818	0.0141190
688.896	0.0141116
688.974	0.0141389
689.052	0.0143156
689.130	0.0143197
689.208	0.0143292
689.287	0.0141950
689.365	0.0145251
689.443	0.0144448
689.521	0.0144144
689.599	0.0144183
689.677	0.0142449
689.755	0.0142673
689.833	0.0142199
689.912	0.0142004
689.990	0.0140092
690.068	0.0141940
690.146	0.0141068
690.224	0.0139104
690.302	0.0138264
690.380	0.0138608
690.458	0.0137659
690.537	0.0138187
690.615	0.0138573
690.693	0.0137431
690.771	0.0137999
690.849	0.0138978
690.927	0.0139824
691.005	0.0139642
691.083	0.0141207
691.162	0.0141325
691.240	0.0143089
691.318	0.0141961
691.396	0.0143807
691.474	0.0145605
691.552	0.0146983
691.630	0.0145857
691.708	0.0147579
691.787	0.0145988
691.865	0.0146207
691.943	0.0145669
692.021	0.0145210
692.099	0.0146064
692.177	0.0143702
692.255	0.0141856
692.333	0.0143311
692.412	0.0141330
692.490	0.0140462
692.568	0.0139831
692.646	0.0139780
692.724	0.0139072
692.802	0.0139700
692.880	0.0140380
692.958	0.0139518
693.037	0.0140814
693.115	0.0140571
693.193	0.0141212
693.271	0.0140129
693.349	0.0140693
693.427	0.0141361
693.505	0.0140697
693.583	0.0141444
693.662	0.0139840
693.740	0.0139409
693.818	0.0141621
693.896	0.0138691
693.974	0.0139713
694.052	0.0138223
694.130	0.0140198
694.208	0.0139281
694.287	0.0139611
694.365	0.0140469
694.443	0.0139970
694.521	0.0142434
694.599	0.0142267
694.677	0.0144694
694.755	0.0145364
694.833	0.0147325
694.912	0.0148161
694.990	0.0147971
695.068	0.0148055
695.146	0.0146849
695.224	0.0147191
695.302	0.0145669
695.380	0.0146204
695.458	0.0145602
695.537	0.0144763
695.615	0.0142616
695.693	0.0142121
695.771	0.0139491
695.849	0.0138298
695.927	0.0137784
696.005	0.0137441
696.083	0.0135645
696.162	0.0135797
696.240	0.0135229
696.318	0.0135195
696.396	0.0135004
696.474	0.0135311
696.552	0.0136162
696.630	0.0137756
696.708	0.0137834
696.787	0.0139177
696.865	0.0140327
696.943	0.0141640
697.021	0.0140669
697.099	0.0141942
697.177	0.0143948
697.255	0.0143114
697.333	0.0141954
697.412	0.0143881
697.490	0.0144675
697.568	0.0143800
697.646	0.0143540
697.724	0.0143756
697.802	0.0142381
697.880	0.0143248
697.958	0.0142614
698.037	0.0142617
698.115	0.0143227
698.193	0.0144218
698.271	0.0143559
698.349	0.0142818
698.427	0.0143955
698.505	0.0144209
698.583	0.0146320
698.662	0.0144162
698.740	0.0145042
698.818	0.0146536
698.896	0.0144740
698.974	0.0143385
699.052	0.0144977
699.130	0.0143761
699.208	0.0142247
699.287	0.0142072
699.365	0.0140289
699.443	0.0137936
699.521	0.0137890
699.599	0.0137563
699.677	0.0136469
699.755	0.0135833
699.833	0.0135316
699.912	0.0133953
699.990	0.0135429
700.068	0.0133921
700.146	0.0135390
700.224	0.0135555
700.302	0.0135397
700.380	0.0136597
700.458	0.0136522
700.537	0.0137909
700.615	0.0138933
700.693	0.0139305
700.771	0.0139820
700.849	0.0140501
700.927	0.0140807
701.005	0.0142171
701.083	0.0142830
701.162	0.0143773
701.240	0.0143316
701.318	0.0144023
701.396	0.0142804
701.474	0.0144109
701.552	0.0145014
701.630	0.0145660
701.708	0.0144759
701.787	0.0145791
701.865	0.0144441
701.943	0.0144420
702.021	0.0144736
702.099	0.0142845
702.177	0.0142583
702.255	0.0143218
702.333	0.0144067
702.412	0.0144346
702.490	0.0142855
702.568	0.0142915
702.646	0.0143538
702.724	0.0143739
702.802	0.0143231
702.880	0.0142835
702.958	0.0143372
703.037	0.0143426
703.115	0.0143974
703.193	0.0144247
703.271	0.0143013
703.349	0.0142559
703.427	0.0142422
703.505	0.0141618
703.583	0.0141960
703.662	0.0140033
703.740	0.0140661
703.818	0.0140082
703.896	0.0141003
703.974	0.0141134
704.052	0.0140250
704.130	0.0140541
704.208	0.0140451
704.287	0.0140105
704.365	0.0140049
704.443	0.0138880
704.521	0.0139278
704.599	0.0137556
704.677	0.0140388
704.755	0.0138586
704.833	0.0137991
704.912	0.0140376
704.990	0.0138385
705.068	0.0139213
705.146	0.0140368
705.224	0.0141948
705.302	0.0141784
705.380	0.0143118
705.458	0.0143909
705.537	0.0144314
705.615	0.0145072
705.693	0.0147088
705.771	0.0146660
705.849	0.0146652
705.927	0.0147566
706.005	0.0149475
706.083	0.0149597
706.162	0.0149024
706.240	0.0148935
706.318	0.0149257
706.396	0.0149590
706.474	0.0149204
706.552	0.0148813
706.630	0.0148611
706.708	0.0149326
706.787	0.0149200
706.865	0.0148785
706.943	0.0146944
707.021	0.0146895
707.099	0.0146980
707.177	0.0146315
707.255	0.0144666
707.333	0.0143343
707.412	0.0145101
707.490	0.0142540
707.568	0.0141050
707.646	0.0142004
707.724	0.0140460
707.802	0.0139343
707.880	0.0139999
707.958	0.0138448
708.037	0.0138151
708.115	0.0137885
708.193	0.0138974
708.271	0.0137406
708.349	0.0137887
708.427	0.0138150
708.505	0.0136728
708.583	0.0137963
708.662	0.0137336
708.740	0.0137357
708.818	0.0137548
708.896	0.0139003
708.974	0.0139328
709.052	0.0138969
709.130	0.0139669
709.208	0.0139025
709.287	0.0140215
709.365	0.0141073
709.443	0.0141081
709.521	0.0140517
709.599	0.0141336
709.677	0.0142592
709.755	0.0142647
709.833	0.0143598
709.912	0.0142996
709.990	0.0143141
710.068	0.0145445
710.146	0.0144265
710.224	0.0143848
710.302	0.0143484
710.380	0.0142268
710.458	0.0142809
710.537	0.0142094
710.615	0.0143089
710.693	0.0143357
710.771	0.0143781
710.849	0.0142485
710.927	0.0142607
711.005	0.0141318
711.083	0.0140289
711.162	0.0141386
711.240	0.0141385
711.318	0.0141599
711.396	0.0140421
711.474	0.0141785
711.552	0.0140870
711.630	0.0140817
711.708	0.0143539
711.787	0.0141515
711.865	0.0140856
711.943	0.0141376
712.021	0.0141073
712.099	0.0141114
712.177	0.0140930
712.255	0.0142616
712.333	0.0142871
712.412	0.0142232
712.490	0.0142690
712.568	0.0141472
712.646	0.0142546
712.724	0.0142657
712.802	0.0142411
712.880	0.0141904
712.958	0.0140877
713.037	0.0140177
713.115	0.0141004
713.193	0.0141913
713.271	0.0140218
713.349	0.0139772
713.427	0.0139737
713.505	0.0140832
713.583	0.0139072
713.662	0.0140582
713.740	0.0140002
713.818	0.0139925
713.896	0.0140432
713.974	0.0139671
714.052	0.0141089
714.130	0.0141180
714.208	0.0141600
714.287	0.0140756
714.365	0.0141504
714.443	0.0142271
714.521	0.0142966
714.599	0.0141739
714.677	0.0141518
714.755	0.0142559
714.833	0.0142294
714.912	0.0142893
714.990	0.0142019
715.068	0.0142290
715.146	0.0142576
715.224	0.0141303
715.302	0.0141400
715.380	0.0141544
715.458	0.0141600
715.537	0.0140923
715.615	0.0142110
715.693	0.0142619
715.771	0.0140329
715.849	0.0142098
715.927	0.0140936
716.005	0.0139777
716.083	0.0140539
716.162	0.0141559
716.240	0.0140714
716.318	0.0142146
716.396	0.0139114
716.474	0.0141384
716.552	0.0141638
716.630	0.0143255
716.708	0.0142278
716.787	0.0142478
716.865	0.0143734
716.943	0.0144544
717.021	0.0143800
717.099	0.0143864
717.177	0.0145090
717.255	0.0144786
717.333	0.0145374
717.412	0.0144176
717.490	0.0144786
717.568	0.0145519
717.646	0.0142434
717.724	0.0142687
717.802	0.0142972
717.880	0.0144360
717.958	0.0143279
718.037	0.0142336
718.115	0.0142316
718.193	0.0140359
718.271	0.0142715
718.349	0.0142331
718.427	0.0139066
718.505	0.0140134
718.583	0.0139606
718.662	0.0138771
718.740	0.0140581
718.818	0.0141142
718.896	0.0140237
718.974	0.0140912
719.052	0.0140562
719.130	0.0140762
719.208	0.0140982
719.287	0.0140605
719.365	0.0141573
719.443	0.0141589
719.521	0.0141109
719.599	0.0142294
719.677	0.0140732
719.755	0.0139550
719.833	0.0142312
719.912	0.0141255
719.990	0.0141164
720.068	0.0141571
720.146	0.0142686
720.224	0.0142340
720.302	0.0141859
720.380	0.0141791
720.458	0.0145049
720.537	0.0143545
720.615	0.0142039
720.693	0.0143439
720.771	0.0143205
720.849	0.0142999
720.927	0.0143444
721.005	0.0143871
721.083	0.0142739
721.162	0.0143882
721.240	0.0143600
721.318	0.0142300
721.396	0.0141951
721.474	0.0141154
721.552	0.0139474
721.630	0.0140055
721.708	0.0141130
721.787	0.0141110
721.865	0.0140765
721.943	0.0139630
722.021	0.0141239
722.099	0.0140803
722.177	0.0140032
722.255	0.0141173
722.333	0.0141250
722.412	0.0140530
722.490	0.0140088
722.568	0.0140989
722.646	0.0140490
722.724	0.0140204
722.802	0.0141344
722.880	0.0142072
722.958	0.0141946
723.037	0.0140504
723.115	0.0142106
723.193	0.0141483
723.271	0.0141142
723.349	0.0142390
723.427	0.0140469
723.505	0.0140529
723.583	0.0140641
723.662	0.0141055
723.740	0.0140721
723.818	0.0140815
723.896	0.0139481
723.974	0.0137580
724.052	0.0138642
724.130	0.0138849
724.208	0.0137682
724.287	0.0138062
724.365	0.0139567
724.443	0.0138632
724.521	0.0138928
724.599	0.0139189
724.677	0.0138060
724.755	0.0139018
724.833	0.0139477
724.912	0.0140557
724.990	0.0139888
725.068	0.0138462
725.146	0.0139983
725.224	0.0141321
725.302	0.0140668
725.380	0.0140879
725.458	0.0141341
725.537	0.0141522
725.615	0.0140822
725.693	0.0141676
725.771	0.0142688
725.849	0.0141147
725.927	0.0140293
726.005	0.0140163
726.083	0.0140501
726.162	0.0141216
726.240	0.0141404
726.318	0.0141739
726.396	0.0142263
726.474	0.0142150
726.552	0.0142076
726.630	0.0141938
726.708	0.0141838
726.787	0.0141846
726.865	0.0141852
726.943	0.0141347
727.021	0.0141528
727.099	0.0142266
727.177	0.0142156
727.255	0.0141702
727.333	0.0141475
727.412	0.0142328
727.490	0.0141978
727.568	0.0143700
727.646	0.0142813
727.724	0.0143743
727.802	0.0143723
727.880	0.0142440
727.958	0.0141734
728.037	0.0142122
728.115	0.0143192
728.193	0.0143855
728.271	0.0144688
728.349	0.0144624
728.427	0.0143401
728.505	0.0142688
728.583	0.0143970
728.662	0.0143785
728.740	0.0143464
728.818	0.0144115
728.896	0.0144038
728.974	0.0142676
729.052	0.0142989
729.130	0.0144041
729.208	0.0142793
729.287	0.0141107
729.365	0.0142713
729.443	0.0141676
729.521	0.0143105
729.599	0.0141791
729.677	0.0143346
729.755	0.0141717
729.833	0.0141869
729.912	0.0140556
729.990	0.0142372
730.068	0.0142778
730.146	0.0141415
730.224	0.0141926
730.302	0.0140699
730.380	0.0141187
730.458	0.0141666
730.537	0.0141129
730.615	0.0142459
730.693	0.0141302
730.771	0.0141453
730.849	0.0140706
730.927	0.0142232
731.005	0.0141080
731.083	0.0141010
731.162	0.0141165
731.240	0.0141035
731.318	0.0139071
731.396	0.0140068
731.474	0.0141235
731.552	0.0140285
731.630	0.0142290
731.708	0.0141837
731.787	0.0142429
731.865	0.0141508
731.943	0.0141504
732.021	0.0141916
732.099	0.0142260
732.177	0.0141100
732.255	0.0142280
732.333	0.0141663
732.412	0.0141560
732.490	0.0141850
732.568	0.0141763
732.646	0.0139899
732.724	0.0141372
732.802	0.0142868
732.880	0.0142991
732.958	0.0143364
733.037	0.0143601
733.115	0.0141801
733.193	0.0141856
733.271	0.0142040
733.349	0.0143150
733.427	0.0143793
733.505	0.0141468
733.583	0.0142382
733.662	0.0142842
733.740	0.0142548
733.818	0.0143636
733.896	0.0143081
733.974	0.0142928
734.052	0.0141289
734.130	0.0141974
734.208	0.0141150
734.287	0.0141312
734.365	0.0141510
734.443	0.0141323
734.521	0.0141417
734.599	0.0142174
734.677	0.0140766
734.755	0.0140904
734.833	0.0140799
734.912	0.0140810
734.990	0.0141815
735.068	0.0143219
735.146	0.0141919
735.224	0.0141467
735.302	0.0141704
735.380	0.0142226
735.458	0.0143050
735.537	0.0142832
735.615	0.0143106
735.693	0.0142696
