05/08/2022	19:53:50	Ver.	4.1	UNKNOWN
Optical Delay	649.989667	Delta X		0.078125	Sweeps	1	Scan Rate	0/0
Coordinates	Axis 1	NaN	Axis 2	NaN	Axis 3	NaN	Axis 4	NaN	Axis 5	NaN	Axis 6	0.000000
TX Power	0.000000	RX Power	0.000000

649.990	0.0142662
650.068	0.0142731
650.146	0.0142802
650.224	0.0141682
650.302	0.0142767
650.380	0.0142296
650.458	0.0142733
650.537	0.0143389
650.615	0.0143461
650.693	0.0141294
650.771	0.0142141
650.849	0.0142393
650.927	0.0142139
651.005	0.0140832
651.083	0.0143286
651.162	0.0143598
651.240	0.0143862
651.318	0.0142674
651.396	0.0141495
651.474	0.0142612
651.552	0.0141305
651.630	0.0141965
651.708	0.0142864
651.787	0.0141594
651.865	0.0141741
651.943	0.0142847
652.021	0.0141743
652.099	0.0144310
652.177	0.0142997
652.255	0.0142702
652.333	0.0142721
652.412	0.0141518
652.490	0.0142255
652.568	0.0142615
652.646	0.0143402
652.724	0.0141779
652.802	0.0141491
652.880	0.0142455
652.958	0.0143342
653.037	0.0141295
653.115	0.0143137
653.193	0.0143742
653.271	0.0142830
653.349	0.0142473
653.427	0.0142107
653.505	0.0141579
653.583	0.0142812
653.662	0.0141871
653.740	0.0142615
653.818	0.0142566
653.896	0.0142419
653.974	0.0141367
654.052	0.0141940
654.130	0.0142334
654.208	0.0142815
654.287	0.0141453
654.365	0.0140990
654.443	0.0141833
654.521	0.0142297
654.599	0.0142846
654.677	0.0141451
654.755	0.0141376
654.833	0.0141525
654.912	0.0141478
654.990	0.0141667
655.068	0.0141893
655.146	0.0141838
655.224	0.0142664
655.302	0.0142817
655.380	0.0143488
655.458	0.0141508
655.537	0.0142682
655.615	0.0141587
655.693	0.0141682
655.771	0.0142159
655.849	0.0142854
655.927	0.0142985
656.005	0.0142035
656.083	0.0141869
656.162	0.0142683
656.240	0.0142606
656.318	0.0141707
656.396	0.0143134
656.474	0.0142419
656.552	0.0142162
656.630	0.0142937
656.708	0.0143691
656.787	0.0142786
656.865	0.0141899
656.943	0.0142404
657.021	0.0143123
657.099	0.0142426
657.177	0.0142329
657.255	0.0142121
657.333	0.0141380
657.412	0.0143073
657.490	0.0142020
657.568	0.0142471
657.646	0.0141358
657.724	0.0141919
657.802	0.0141911
657.880	0.0141699
657.958	0.0143510
658.037	0.0143790
658.115	0.0144869
658.193	0.0143889
658.271	0.0143267
658.349	0.0143839
658.427	0.0143046
658.505	0.0143732
658.583	0.0142412
658.662	0.0142993
658.740	0.0142756
658.818	0.0141835
658.896	0.0141077
658.974	0.0142558
659.052	0.0142168
659.130	0.0140778
659.208	0.0141116
659.287	0.0140849
659.365	0.0142484
659.443	0.0141811
659.521	0.0141162
659.599	0.0142370
659.677	0.0142378
659.755	0.0143691
659.833	0.0144390
659.912	0.0145443
659.990	0.0146917
660.068	0.0148011
660.146	0.0147120
660.224	0.0147005
660.302	0.0145486
660.380	0.0144823
660.458	0.0145320
660.537	0.0145128
660.615	0.0141856
660.693	0.0140726
660.771	0.0139031
660.849	0.0138933
660.927	0.0138256
661.005	0.0138205
661.083	0.0137195
661.162	0.0136488
661.240	0.0138876
661.318	0.0138773
661.396	0.0139096
661.474	0.0139283
661.552	0.0139281
661.630	0.0142530
661.708	0.0143451
661.787	0.0143350
661.865	0.0144453
661.943	0.0145957
662.021	0.0147658
662.099	0.0149164
662.177	0.0150076
662.255	0.0150391
662.333	0.0149559
662.412	0.0149243
662.490	0.0148964
662.568	0.0148046
662.646	0.0147042
662.724	0.0146420
662.802	0.0145858
662.880	0.0146017
662.958	0.0144749
663.037	0.0144176
663.115	0.0143259
663.193	0.0140440
663.271	0.0142341
663.349	0.0139549
663.427	0.0138178
663.505	0.0134492
663.583	0.0133350
663.662	0.0131948
663.740	0.0131611
663.818	0.0130031
663.896	0.0131247
663.974	0.0129001
664.052	0.0130243
664.130	0.0132239
664.208	0.0134333
664.287	0.0137265
664.365	0.0139568
664.443	0.0141200
664.521	0.0145158
664.599	0.0147289
664.677	0.0151128
664.755	0.0153063
664.833	0.0156561
664.912	0.0157021
664.990	0.0158978
665.068	0.0159710
665.146	0.0158754
665.224	0.0158971
665.302	0.0157452
665.380	0.0156253
665.458	0.0153658
665.537	0.0151106
665.615	0.0146246
665.693	0.0143676
665.771	0.0141357
665.849	0.0138371
665.927	0.0135462
666.005	0.0133505
666.083	0.0131187
666.162	0.0129008
666.240	0.0127637
666.318	0.0127573
666.396	0.0126836
666.474	0.0127251
666.552	0.0126882
666.630	0.0126764
666.708	0.0127341
666.787	0.0128931
666.865	0.0130124
666.943	0.0132549
667.021	0.0133753
667.099	0.0135512
667.177	0.0136649
667.255	0.0136885
667.333	0.0137930
667.412	0.0140407
667.490	0.0144659
667.568	0.0145708
667.646	0.0146715
667.724	0.0150191
667.802	0.0153696
667.880	0.0157101
667.958	0.0159045
668.037	0.0162764
668.115	0.0165311
668.193	0.0166697
668.271	0.0165533
668.349	0.0165471
668.427	0.0166518
668.505	0.0163825
668.583	0.0161092
668.662	0.0155514
668.740	0.0151474
668.818	0.0145601
668.896	0.0141312
668.974	0.0135283
669.052	0.0129719
669.130	0.0125147
669.208	0.0121503
669.287	0.0117162
669.365	0.0115932
669.443	0.0115040
669.521	0.0114725
669.599	0.0114727
669.677	0.0118875
669.755	0.0120979
669.833	0.0123738
669.912	0.0127831
669.990	0.0131966
670.068	0.0135749
670.146	0.0142474
670.224	0.0146016
670.302	0.0150915
670.380	0.0155819
670.458	0.0160380
670.537	0.0160654
670.615	0.0163614
670.693	0.0164320
670.771	0.0164407
670.849	0.0163592
670.927	0.0161605
671.005	0.0157951
671.083	0.0154018
671.162	0.0150377
671.240	0.0147157
671.318	0.0143645
671.396	0.0139827
671.474	0.0136588
671.552	0.0133913
671.630	0.0130556
671.708	0.0127768
671.787	0.0126896
671.865	0.0127444
671.943	0.0126724
672.021	0.0126050
672.099	0.0128098
672.177	0.0129224
672.255	0.0131551
672.333	0.0130698
672.412	0.0132468
672.490	0.0134885
672.568	0.0135889
672.646	0.0139886
672.724	0.0142403
672.802	0.0142561
672.880	0.0145972
672.958	0.0149949
673.037	0.0153983
673.115	0.0156979
673.193	0.0162025
673.271	0.0163904
673.349	0.0165856
673.427	0.0168975
673.505	0.0170548
673.583	0.0171184
673.662	0.0173024
673.740	0.0171577
673.818	0.0168407
673.896	0.0164436
673.974	0.0162320
674.052	0.0157389
674.130	0.0150501
674.208	0.0144443
674.287	0.0137228
674.365	0.0131763
674.443	0.0126704
674.521	0.0120443
674.599	0.0114314
674.677	0.0112341
674.755	0.0108559
674.833	0.0104366
674.912	0.0101991
674.990	0.0101615
675.068	0.0100533
675.146	0.0102602
675.224	0.0105538
675.302	0.0107719
675.380	0.0109437
675.458	0.0113023
675.537	0.0118594
675.615	0.0124922
675.693	0.0128500
675.771	0.0135070
675.849	0.0141963
675.927	0.0147925
676.005	0.0155807
676.083	0.0162244
676.162	0.0169043
676.240	0.0175940
676.318	0.0180440
676.396	0.0185278
676.474	0.0188219
676.552	0.0191296
676.630	0.0190944
676.708	0.0188490
676.787	0.0187723
676.865	0.0185975
676.943	0.0181080
677.021	0.0177812
677.099	0.0172990
677.177	0.0166438
677.255	0.0161255
677.333	0.0156596
677.412	0.0151251
677.490	0.0145968
677.568	0.0142401
677.646	0.0136689
677.724	0.0133556
677.802	0.0128400
677.880	0.0124585
677.958	0.0121790
678.037	0.0118483
678.115	0.0113332
678.193	0.0109389
678.271	0.0108907
678.349	0.0106358
678.427	0.0105340
678.505	0.0102410
678.583	0.0104372
678.662	0.0105259
678.740	0.0107308
678.818	0.0111103
678.896	0.0116428
678.974	0.0120057
679.052	0.0126518
679.130	0.0132630
679.208	0.0138941
679.287	0.0144309
679.365	0.0151721
679.443	0.0156970
679.521	0.0159834
679.599	0.0162022
679.677	0.0162427
679.755	0.0160875
679.833	0.0159139
679.912	0.0156397
679.990	0.0152158
680.068	0.0146863
680.146	0.0142923
680.224	0.0140359
680.302	0.0136869
680.380	0.0137112
680.458	0.0135989
680.537	0.0137402
680.615	0.0141604
680.693	0.0145560
680.771	0.0150209
680.849	0.0153926
680.927	0.0159696
681.005	0.0165408
681.083	0.0166801
681.162	0.0170078
681.240	0.0172349
681.318	0.0171513
681.396	0.0171193
681.474	0.0170735
681.552	0.0168195
681.630	0.0164339
681.708	0.0159803
681.787	0.0157525
681.865	0.0154224
681.943	0.0153973
682.021	0.0150008
682.099	0.0147423
682.177	0.0146746
682.255	0.0144008
682.333	0.0142136
682.412	0.0139281
682.490	0.0136398
682.568	0.0134531
682.646	0.0131669
682.724	0.0127683
682.802	0.0125176
682.880	0.0121387
682.958	0.0119476
683.037	0.0116253
683.115	0.0112337
683.193	0.0113276
683.271	0.0110890
683.349	0.0111462
683.427	0.0110951
683.505	0.0113775
683.583	0.0115511
683.662	0.0117229
683.740	0.0119496
683.818	0.0124365
683.896	0.0126260
683.974	0.0129427
684.052	0.0134988
684.130	0.0137969
684.208	0.0139944
684.287	0.0144299
684.365	0.0145831
684.443	0.0147429
684.521	0.0150465
684.599	0.0152249
684.677	0.0153220
684.755	0.0154753
684.833	0.0156466
684.912	0.0157898
684.990	0.0158421
685.068	0.0157829
685.146	0.0160111
685.224	0.0161777
685.302	0.0161129
685.380	0.0162865
685.458	0.0163012
685.537	0.0165800
685.615	0.0167831
685.693	0.0167346
685.771	0.0166270
685.849	0.0167750
685.927	0.0164497
686.005	0.0162326
686.083	0.0160113
686.162	0.0155974
686.240	0.0149609
686.318	0.0146512
686.396	0.0144408
686.474	0.0141505
686.552	0.0137148
686.630	0.0135094
686.708	0.0133380
686.787	0.0133748
686.865	0.0133730
686.943	0.0134219
687.021	0.0135056
687.099	0.0137295
687.177	0.0137728
687.255	0.0140000
687.333	0.0140016
687.412	0.0140513
687.490	0.0137890
687.568	0.0138515
687.646	0.0139106
687.724	0.0137945
687.802	0.0136366
687.880	0.0136488
687.958	0.0137450
688.037	0.0136252
688.115	0.0135741
688.193	0.0135793
688.271	0.0135434
688.349	0.0135191
688.427	0.0134599
688.505	0.0133244
688.583	0.0133541
688.662	0.0131568
688.740	0.0130550
688.818	0.0129408
688.896	0.0127137
688.974	0.0128259
689.052	0.0126942
689.130	0.0126485
689.208	0.0125887
689.287	0.0127292
689.365	0.0127188
689.443	0.0126919
689.521	0.0129057
689.599	0.0130314
689.677	0.0131474
689.755	0.0131798
689.833	0.0131989
689.912	0.0133454
689.990	0.0134335
690.068	0.0135524
690.146	0.0139079
690.224	0.0141914
690.302	0.0144276
690.380	0.0149617
690.458	0.0155327
690.537	0.0158678
690.615	0.0163825
690.693	0.0168941
690.771	0.0171247
690.849	0.0176166
690.927	0.0178865
691.005	0.0182195
691.083	0.0184351
691.162	0.0185137
691.240	0.0184893
691.318	0.0183229
691.396	0.0182156
691.474	0.0179560
691.552	0.0175230
691.630	0.0172430
691.708	0.0169748
691.787	0.0165240
691.865	0.0159415
691.943	0.0157327
692.021	0.0152995
692.099	0.0146310
692.177	0.0142080
692.255	0.0138101
692.333	0.0133142
692.412	0.0128266
692.490	0.0123438
692.568	0.0116911
692.646	0.0113976
692.724	0.0110930
692.802	0.0108222
692.880	0.0107606
692.958	0.0105434
693.037	0.0105679
693.115	0.0104516
693.193	0.0105945
693.271	0.0106641
693.349	0.0107969
693.427	0.0109581
693.505	0.0111556
693.583	0.0114326
693.662	0.0115415
693.740	0.0120493
693.818	0.0121648
693.896	0.0125083
693.974	0.0126050
694.052	0.0128596
694.130	0.0131805
694.208	0.0134967
694.287	0.0137705
694.365	0.0139664
694.443	0.0141692
694.521	0.0146396
694.599	0.0150092
694.677	0.0150721
694.755	0.0155213
694.833	0.0155672
694.912	0.0158514
694.990	0.0159962
695.068	0.0161789
695.146	0.0161200
695.224	0.0161572
695.302	0.0163729
695.380	0.0163014
695.458	0.0164375
695.537	0.0168991
695.615	0.0170864
695.693	0.0171918
695.771	0.0173656
695.849	0.0176662
695.927	0.0177229
696.005	0.0177652
696.083	0.0176854
696.162	0.0175002
696.240	0.0174107
696.318	0.0170983
696.396	0.0168237
696.474	0.0163697
696.552	0.0157655
696.630	0.0155063
696.708	0.0150658
696.787	0.0146114
696.865	0.0142935
696.943	0.0140041
697.021	0.0135084
697.099	0.0132814
697.177	0.0130165
697.255	0.0126875
697.333	0.0124247
697.412	0.0120896
697.490	0.0119400
697.568	0.0116127
697.646	0.0113655
697.724	0.0111359
697.802	0.0108710
697.880	0.0108019
697.958	0.0108039
698.037	0.0109008
698.115	0.0110416
698.193	0.0111603
698.271	0.0115063
698.349	0.0119530
698.427	0.0122416
698.505	0.0125152
698.583	0.0128046
698.662	0.0130730
698.740	0.0135711
698.818	0.0136565
698.896	0.0139023
698.974	0.0139285
699.052	0.0142928
699.130	0.0145248
699.208	0.0147005
699.287	0.0148537
699.365	0.0152929
699.443	0.0156257
699.521	0.0158411
699.599	0.0161565
699.677	0.0162997
699.755	0.0167850
699.833	0.0168143
699.912	0.0169098
699.990	0.0168193
700.068	0.0167737
700.146	0.0166798
700.224	0.0163758
700.302	0.0161926
700.380	0.0158402
700.458	0.0153412
700.537	0.0149462
700.615	0.0146548
700.693	0.0145457
700.771	0.0142017
700.849	0.0138715
700.927	0.0137846
701.005	0.0136216
701.083	0.0132710
701.162	0.0130704
701.240	0.0130624
701.318	0.0129048
701.396	0.0127188
701.474	0.0126744
701.552	0.0126656
701.630	0.0126364
701.708	0.0127718
701.787	0.0129140
701.865	0.0131807
701.943	0.0134315
702.021	0.0136335
702.099	0.0140849
702.177	0.0144347
702.255	0.0148943
702.333	0.0153359
702.412	0.0157467
702.490	0.0161626
702.568	0.0164225
702.646	0.0168399
702.724	0.0169316
702.802	0.0170499
702.880	0.0171624
702.958	0.0172488
703.037	0.0169759
703.115	0.0169627
703.193	0.0166441
703.271	0.0161987
703.349	0.0158475
703.427	0.0154476
703.505	0.0149339
703.583	0.0143938
703.662	0.0137045
703.740	0.0131047
703.818	0.0126634
703.896	0.0122356
703.974	0.0116595
704.052	0.0114512
704.130	0.0110869
704.208	0.0109620
704.287	0.0109058
704.365	0.0106785
704.443	0.0107933
704.521	0.0107195
704.599	0.0109523
704.677	0.0109824
704.755	0.0111929
704.833	0.0116175
704.912	0.0119417
704.990	0.0122875
705.068	0.0124731
705.146	0.0128249
705.224	0.0134058
705.302	0.0139113
705.380	0.0144060
705.458	0.0151595
705.537	0.0155978
705.615	0.0159378
705.693	0.0162637
705.771	0.0165070
705.849	0.0167017
705.927	0.0169325
706.005	0.0170677
706.083	0.0171828
706.162	0.0168593
706.240	0.0169080
706.318	0.0166296
706.396	0.0166013
706.474	0.0162201
706.552	0.0160324
706.630	0.0157184
706.708	0.0155332
706.787	0.0151840
706.865	0.0148582
706.943	0.0146396
707.021	0.0142120
707.099	0.0139201
707.177	0.0138799
707.255	0.0135320
707.333	0.0132577
707.412	0.0132552
707.490	0.0131699
707.568	0.0131876
707.646	0.0134096
707.724	0.0135815
707.802	0.0138670
707.880	0.0141721
707.958	0.0143640
708.037	0.0147694
708.115	0.0147465
708.193	0.0150570
708.271	0.0150349
708.349	0.0149933
708.427	0.0149965
708.505	0.0151691
708.583	0.0148090
708.662	0.0147154
708.740	0.0145268
708.818	0.0143999
708.896	0.0142431
708.974	0.0139460
709.052	0.0137647
709.130	0.0135075
709.208	0.0134227
709.287	0.0133693
709.365	0.0132977
709.443	0.0132970
709.521	0.0133315
709.599	0.0133579
709.677	0.0133733
709.755	0.0134026
709.833	0.0133065
709.912	0.0134674
709.990	0.0134758
710.068	0.0133951
710.146	0.0133613
710.224	0.0133549
710.302	0.0133779
710.380	0.0131799
710.458	0.0134135
710.537	0.0136179
710.615	0.0134177
710.693	0.0135090
710.771	0.0136440
710.849	0.0137688
710.927	0.0139927
711.005	0.0139977
711.083	0.0142705
711.162	0.0144176
711.240	0.0146840
711.318	0.0148212
711.396	0.0152532
711.474	0.0154294
711.552	0.0156556
711.630	0.0159037
711.708	0.0159736
711.787	0.0160655
711.865	0.0161032
711.943	0.0160818
712.021	0.0160693
712.099	0.0158101
712.177	0.0157243
712.255	0.0154218
712.333	0.0151673
712.412	0.0150697
712.490	0.0148495
712.568	0.0145957
712.646	0.0143333
712.724	0.0140487
712.802	0.0136662
712.880	0.0134989
712.958	0.0133978
713.037	0.0133435
713.115	0.0130817
713.193	0.0130007
713.271	0.0131078
713.349	0.0129394
713.427	0.0128820
713.505	0.0129496
713.583	0.0130965
713.662	0.0131944
713.740	0.0134093
713.818	0.0134658
713.896	0.0136478
713.974	0.0138862
714.052	0.0140669
714.130	0.0142125
714.208	0.0144440
714.287	0.0146590
714.365	0.0148735
714.443	0.0151556
714.521	0.0153558
714.599	0.0154086
714.677	0.0155829
714.755	0.0157735
714.833	0.0156346
714.912	0.0157092
714.990	0.0156839
715.068	0.0155673
715.146	0.0153274
715.224	0.0152334
715.302	0.0151250
715.380	0.0149622
715.458	0.0147829
715.537	0.0144301
715.615	0.0142963
715.693	0.0141693
715.771	0.0141206
715.849	0.0137826
715.927	0.0136711
716.005	0.0136732
716.083	0.0134171
716.162	0.0134007
716.240	0.0136005
716.318	0.0135681
716.396	0.0134547
716.474	0.0136250
716.552	0.0135355
716.630	0.0136950
716.708	0.0137402
716.787	0.0135548
716.865	0.0135604
716.943	0.0135081
717.021	0.0136165
717.099	0.0133824
717.177	0.0133603
717.255	0.0133187
717.333	0.0133192
717.412	0.0133878
717.490	0.0134007
717.568	0.0133735
717.646	0.0134856
717.724	0.0137345
717.802	0.0139402
717.880	0.0139005
717.958	0.0141533
718.037	0.0142590
718.115	0.0143750
718.193	0.0145827
718.271	0.0146826
718.349	0.0147335
718.427	0.0147009
718.505	0.0146857
718.583	0.0146947
718.662	0.0147945
718.740	0.0148938
718.818	0.0147833
718.896	0.0147820
718.974	0.0149586
719.052	0.0150648
719.130	0.0149239
719.208	0.0151134
719.287	0.0150533
719.365	0.0149222
719.443	0.0148273
719.521	0.0147813
719.599	0.0146790
719.677	0.0145316
719.755	0.0146537
719.833	0.0144321
719.912	0.0142545
719.990	0.0140609
720.068	0.0139798
720.146	0.0138189
720.224	0.0139732
720.302	0.0139009
720.380	0.0139336
720.458	0.0138525
720.537	0.0138750
720.615	0.0139395
720.693	0.0141078
720.771	0.0139143
720.849	0.0139782
720.927	0.0141245
721.005	0.0141515
721.083	0.0145630
721.162	0.0145513
721.240	0.0146527
721.318	0.0148588
721.396	0.0150735
721.474	0.0152467
721.552	0.0153508
721.630	0.0151867
721.708	0.0151918
721.787	0.0152941
721.865	0.0152145
721.943	0.0149693
722.021	0.0147702
722.099	0.0147189
722.177	0.0145370
722.255	0.0142921
722.333	0.0139855
722.412	0.0138551
722.490	0.0136291
722.568	0.0134935
722.646	0.0133165
722.724	0.0131851
722.802	0.0131551
722.880	0.0131149
722.958	0.0129730
723.037	0.0130261
723.115	0.0130769
723.193	0.0131940
723.271	0.0132206
723.349	0.0130245
723.427	0.0130507
723.505	0.0132543
723.583	0.0132487
723.662	0.0133106
723.740	0.0134366
723.818	0.0134438
723.896	0.0137015
723.974	0.0137751
724.052	0.0140325
724.130	0.0141344
724.208	0.0143332
724.287	0.0143413
724.365	0.0145302
724.443	0.0145732
724.521	0.0144179
724.599	0.0145094
724.677	0.0143230
724.755	0.0143307
724.833	0.0145053
724.912	0.0144541
724.990	0.0144701
725.068	0.0145493
725.146	0.0147267
725.224	0.0148887
725.302	0.0151252
725.380	0.0154163
725.458	0.0153920
725.537	0.0154034
725.615	0.0156356
725.693	0.0156566
725.771	0.0156026
725.849	0.0156465
725.927	0.0152887
726.005	0.0152099
726.083	0.0151157
726.162	0.0149100
726.240	0.0145845
726.318	0.0143478
726.396	0.0140868
726.474	0.0139069
726.552	0.0137074
726.630	0.0134270
726.708	0.0134437
726.787	0.0134705
726.865	0.0134146
726.943	0.0132203
727.021	0.0134558
727.099	0.0136518
727.177	0.0137109
727.255	0.0138137
727.333	0.0140970
727.412	0.0141686
727.490	0.0143777
727.568	0.0144785
727.646	0.0145856
727.724	0.0147178
727.802	0.0149761
727.880	0.0150125
727.958	0.0150230
728.037	0.0150287
728.115	0.0150429
728.193	0.0149117
728.271	0.0148055
728.349	0.0147416
728.427	0.0146013
728.505	0.0144714
728.583	0.0142122
728.662	0.0142605
728.740	0.0141489
728.818	0.0141332
728.896	0.0139520
728.974	0.0138343
729.052	0.0137199
729.130	0.0137364
729.208	0.0136743
729.287	0.0133888
729.365	0.0133049
729.443	0.0132445
729.521	0.0130717
729.599	0.0129942
729.677	0.0129127
729.755	0.0127985
729.833	0.0127492
729.912	0.0128286
729.990	0.0128650
730.068	0.0128409
730.146	0.0130832
730.224	0.0132047
730.302	0.0134271
730.380	0.0135532
730.458	0.0140099
730.537	0.0141989
730.615	0.0144851
730.693	0.0146710
730.771	0.0148640
730.849	0.0150888
730.927	0.0152536
731.005	0.0151391
731.083	0.0151134
731.162	0.0152108
731.240	0.0151805
731.318	0.0149191
731.396	0.0150707
731.474	0.0149730
731.552	0.0149523
731.630	0.0149888
731.708	0.0149947
731.787	0.0149020
731.865	0.0150787
731.943	0.0151019
732.021	0.0151528
732.099	0.0153324
732.177	0.0154057
732.255	0.0154444
732.333	0.0156324
732.412	0.0154821
732.490	0.0154469
732.568	0.0153139
732.646	0.0151240
732.724	0.0150283
732.802	0.0149582
732.880	0.0147656
732.958	0.0144277
733.037	0.0142242
733.115	0.0140620
733.193	0.0138598
733.271	0.0136390
733.349	0.0134576
733.427	0.0132866
733.505	0.0132340
733.583	0.0131279
733.662	0.0131269
733.740	0.0131356
733.818	0.0132729
733.896	0.0134280
733.974	0.0134238
734.052	0.0136777
734.130	0.0139666
734.208	0.0139163
734.287	0.0141772
734.365	0.0142258
734.443	0.0142588
734.521	0.0143156
734.599	0.0143206
734.677	0.0143462
734.755	0.0143356
734.833	0.0143736
734.912	0.0143106
734.990	0.0143050
735.068	0.0143014
735.146	0.0143561
735.224	0.0141614
735.302	0.0143241
735.380	0.0141831
735.458	0.0141646
735.537	0.0141428
735.615	0.0140616
735.693	0.0141398
