05/08/2022	19:55:51	Ver.	4.1	UNKNOWN
Optical Delay	649.989667	Delta X		0.078125	Sweeps	1	Scan Rate	0/0
Coordinates	Axis 1	NaN	Axis 2	NaN	Axis 3	NaN	Axis 4	NaN	Axis 5	NaN	Axis 6	0.000000
TX Power	0.000000	RX Power	0.000000

649.990	0.0131585
650.068	0.0131179
650.146	0.0131524
650.224	0.0130743
650.302	0.0133022
650.380	0.0131273
650.458	0.0130492
650.537	0.0130322
650.615	0.0131940
650.693	0.0131408
650.771	0.0130630
650.849	0.0130818
650.927	0.0131249
651.005	0.0130228
651.083	0.0130746
651.162	0.0131398
651.240	0.0130076
651.318	0.0130453
651.396	0.0130015
651.474	0.0131079
651.552	0.0130308
651.630	0.0131122
651.708	0.0129858
651.787	0.0132016
651.865	0.0130795
651.943	0.0130766
652.021	0.0131075
652.099	0.0131866
652.177	0.0131927
652.255	0.0130984
652.333	0.0130401
652.412	0.0130887
652.490	0.0131618
652.568	0.0131841
652.646	0.0131281
652.724	0.0131056
652.802	0.0131818
652.880	0.0132143
652.958	0.0131763
653.037	0.0131414
653.115	0.0131745
653.193	0.0131390
653.271	0.0131334
653.349	0.0131693
653.427	0.0130516
653.505	0.0132194
653.583	0.0131815
653.662	0.0132040
653.740	0.0131213
653.818	0.0131337
653.896	0.0132174
653.974	0.0132447
654.052	0.0132073
654.130	0.0131210
654.208	0.0130434
654.287	0.0132077
654.365	0.0131895
654.443	0.0131829
654.521	0.0131525
654.599	0.0129601
654.677	0.0131441
654.755	0.0130915
654.833	0.0131873
654.912	0.0130089
654.990	0.0130349
655.068	0.0130720
655.146	0.0131139
655.224	0.0132067
655.302	0.0131603
655.380	0.0133012
655.458	0.0132729
655.537	0.0131364
655.615	0.0131575
655.693	0.0131540
655.771	0.0133123
655.849	0.0132621
655.927	0.0130875
656.005	0.0132185
656.083	0.0134544
656.162	0.0133813
656.240	0.0131496
656.318	0.0133164
656.396	0.0133289
656.474	0.0132977
656.552	0.0132240
656.630	0.0132685
656.708	0.0131004
656.787	0.0131036
656.865	0.0129643
656.943	0.0130030
657.021	0.0128221
657.099	0.0129424
657.177	0.0130009
657.255	0.0129423
657.333	0.0127760
657.412	0.0128044
657.490	0.0129555
657.568	0.0129244
657.646	0.0129388
657.724	0.0129932
657.802	0.0131953
657.880	0.0131250
657.958	0.0131270
658.037	0.0131488
658.115	0.0132925
658.193	0.0132773
658.271	0.0134186
658.349	0.0137764
658.427	0.0136897
658.505	0.0136160
658.583	0.0135320
658.662	0.0136983
658.740	0.0136144
658.818	0.0135941
658.896	0.0137000
658.974	0.0135828
659.052	0.0134811
659.130	0.0133733
659.208	0.0132980
659.287	0.0131182
659.365	0.0131490
659.443	0.0129699
659.521	0.0129469
659.599	0.0128093
659.677	0.0125942
659.755	0.0125783
659.833	0.0124120
659.912	0.0123233
659.990	0.0123270
660.068	0.0122724
660.146	0.0121252
660.224	0.0120502
660.302	0.0121454
660.380	0.0122133
660.458	0.0123972
660.537	0.0124554
660.615	0.0127765
660.693	0.0128745
660.771	0.0132968
660.849	0.0136671
660.927	0.0139989
661.005	0.0141491
661.083	0.0144055
661.162	0.0146667
661.240	0.0148071
661.318	0.0148353
661.396	0.0148460
661.474	0.0147636
661.552	0.0147072
661.630	0.0145742
661.708	0.0143059
661.787	0.0142191
661.865	0.0139297
661.943	0.0137196
662.021	0.0133806
662.099	0.0133109
662.177	0.0129637
662.255	0.0127866
662.333	0.0125599
662.412	0.0122009
662.490	0.0121053
662.568	0.0118393
662.646	0.0116271
662.724	0.0112780
662.802	0.0110897
662.880	0.0109993
662.958	0.0108598
663.037	0.0107831
663.115	0.0108279
663.193	0.0110265
663.271	0.0110539
663.349	0.0115388
663.427	0.0117805
663.505	0.0120635
663.583	0.0126903
663.662	0.0130382
663.740	0.0136298
663.818	0.0141186
663.896	0.0144614
663.974	0.0149075
664.052	0.0152504
664.130	0.0155547
664.208	0.0157481
664.287	0.0160659
664.365	0.0162772
664.443	0.0163366
664.521	0.0164072
664.599	0.0162272
664.677	0.0160960
664.755	0.0160602
664.833	0.0156242
664.912	0.0152042
664.990	0.0147080
665.068	0.0141473
665.146	0.0134778
665.224	0.0129948
665.302	0.0122200
665.380	0.0115643
665.458	0.0108872
665.537	0.0102371
665.615	0.0100822
665.693	0.00951485
665.771	0.00958641
665.849	0.00947357
665.927	0.00943382
666.005	0.00963425
666.083	0.0100123
666.162	0.0103917
666.240	0.0108305
666.318	0.0112718
666.396	0.0117853
666.474	0.0120221
666.552	0.0127314
666.630	0.0131400
666.708	0.0136284
666.787	0.0140523
666.865	0.0144887
666.943	0.0147684
667.021	0.0153088
667.099	0.0154738
667.177	0.0156175
667.255	0.0155620
667.333	0.0157413
667.412	0.0157121
667.490	0.0157379
667.568	0.0154720
667.646	0.0150863
667.724	0.0149239
667.802	0.0144744
667.880	0.0141295
667.958	0.0139464
668.037	0.0136959
668.115	0.0134821
668.193	0.0134286
668.271	0.0131761
668.349	0.0129273
668.427	0.0128551
668.505	0.0127927
668.583	0.0126173
668.662	0.0126397
668.740	0.0123436
668.818	0.0121977
668.896	0.0120611
668.974	0.0118774
669.052	0.0119387
669.130	0.0118578
669.208	0.0119614
669.287	0.0118192
669.365	0.0120548
669.443	0.0121326
669.521	0.0122734
669.599	0.0123304
669.677	0.0125254
669.755	0.0127475
669.833	0.0128313
669.912	0.0131078
669.990	0.0130935
670.068	0.0131898
670.146	0.0133800
670.224	0.0132036
670.302	0.0131584
670.380	0.0131713
670.458	0.0132800
670.537	0.0133402
670.615	0.0132156
670.693	0.0133781
670.771	0.0134471
670.849	0.0135658
670.927	0.0136555
671.005	0.0134534
671.083	0.0135703
671.162	0.0134518
671.240	0.0133266
671.318	0.0133103
671.396	0.0131659
671.474	0.0131329
671.552	0.0127843
671.630	0.0126265
671.708	0.0125652
671.787	0.0126167
671.865	0.0128213
671.943	0.0127785
672.021	0.0130691
672.099	0.0132137
672.177	0.0133571
672.255	0.0137102
672.333	0.0138979
672.412	0.0141682
672.490	0.0140939
672.568	0.0142445
672.646	0.0143909
672.724	0.0142850
672.802	0.0142134
672.880	0.0142692
672.958	0.0141679
673.037	0.0138406
673.115	0.0135355
673.193	0.0134812
673.271	0.0132272
673.349	0.0130732
673.427	0.0128448
673.505	0.0126328
673.583	0.0126148
673.662	0.0124510
673.740	0.0124141
673.818	0.0123528
673.896	0.0121693
673.974	0.0121182
674.052	0.0122835
674.130	0.0123343
674.208	0.0122416
674.287	0.0122192
674.365	0.0124448
674.443	0.0123763
674.521	0.0124594
674.599	0.0125975
674.677	0.0126374
674.755	0.0129581
674.833	0.0131834
674.912	0.0132964
674.990	0.0135962
675.068	0.0137330
675.146	0.0138162
675.224	0.0141135
675.302	0.0144071
675.380	0.0142790
675.458	0.0143748
675.537	0.0143472
675.615	0.0142981
675.693	0.0140002
675.771	0.0139203
675.849	0.0138103
675.927	0.0132793
676.005	0.0130017
676.083	0.0125113
676.162	0.0123030
676.240	0.0117580
676.318	0.0114568
676.396	0.0113564
676.474	0.0112397
676.552	0.0111845
676.630	0.0111557
676.708	0.0112093
676.787	0.0114351
676.865	0.0117961
676.943	0.0120420
677.021	0.0124532
677.099	0.0128712
677.177	0.0132818
677.255	0.0137537
677.333	0.0142049
677.412	0.0147060
677.490	0.0150367
677.568	0.0154079
677.646	0.0154775
677.724	0.0156233
677.802	0.0158301
677.880	0.0159110
677.958	0.0158713
678.037	0.0156998
678.115	0.0154992
678.193	0.0154431
678.271	0.0151996
678.349	0.0149476
678.427	0.0148575
678.505	0.0145531
678.583	0.0142943
678.662	0.0141109
678.740	0.0137968
678.818	0.0134514
678.896	0.0130654
678.974	0.0125889
679.052	0.0122169
679.130	0.0117481
679.208	0.0113862
679.287	0.0108087
679.365	0.0104417
679.443	0.0102222
679.521	0.00989517
679.599	0.00955353
679.677	0.00939369
679.755	0.00949501
679.833	0.00964806
679.912	0.00978683
679.990	0.00988144
680.068	0.0102970
680.146	0.0107782
680.224	0.0112872
680.302	0.0118116
680.380	0.0122296
680.458	0.0127637
680.537	0.0132493
680.615	0.0138290
680.693	0.0141246
680.771	0.0144096
680.849	0.0146937
680.927	0.0149010
681.005	0.0151702
681.083	0.0153600
681.162	0.0153957
681.240	0.0155230
681.318	0.0157219
681.396	0.0158169
681.474	0.0157802
681.552	0.0157795
681.630	0.0158296
681.708	0.0157964
681.787	0.0156799
681.865	0.0155617
681.943	0.0153967
682.021	0.0152007
682.099	0.0150596
682.177	0.0148226
682.255	0.0145481
682.333	0.0139188
682.412	0.0137064
682.490	0.0132018
682.568	0.0127837
682.646	0.0124165
682.724	0.0120750
682.802	0.0117799
682.880	0.0114204
682.958	0.0111751
683.037	0.0109572
683.115	0.0108633
683.193	0.0109307
683.271	0.0110784
683.349	0.0111418
683.427	0.0114909
683.505	0.0118195
683.583	0.0120432
683.662	0.0125708
683.740	0.0129202
683.818	0.0133601
683.896	0.0137558
683.974	0.0141554
684.052	0.0144048
684.130	0.0146077
684.208	0.0145591
684.287	0.0144598
684.365	0.0143432
684.443	0.0141633
684.521	0.0137891
684.599	0.0133214
684.677	0.0129807
684.755	0.0125008
684.833	0.0121578
684.912	0.0119820
684.990	0.0115304
685.068	0.0115018
685.146	0.0113720
685.224	0.0112537
685.302	0.0114297
685.380	0.0116132
685.458	0.0116171
685.537	0.0119254
685.615	0.0121246
685.693	0.0124200
685.771	0.0126801
685.849	0.0129089
685.927	0.0131423
686.005	0.0134025
686.083	0.0135955
686.162	0.0138448
686.240	0.0138534
686.318	0.0140022
686.396	0.0140974
686.474	0.0141935
686.552	0.0142779
686.630	0.0142776
686.708	0.0143421
686.787	0.0144012
686.865	0.0145543
686.943	0.0145019
687.021	0.0144257
687.099	0.0145668
687.177	0.0147176
687.255	0.0147883
687.333	0.0147960
687.412	0.0147498
687.490	0.0148002
687.568	0.0147833
687.646	0.0145184
687.724	0.0144720
687.802	0.0143777
687.880	0.0141152
687.958	0.0139554
688.037	0.0134969
688.115	0.0132787
688.193	0.0130937
688.271	0.0127547
688.349	0.0124902
688.427	0.0122189
688.505	0.0120505
688.583	0.0119135
688.662	0.0116453
688.740	0.0116537
688.818	0.0116116
688.896	0.0115132
688.974	0.0116334
689.052	0.0118995
689.130	0.0118975
689.208	0.0120668
689.287	0.0124053
689.365	0.0125267
689.443	0.0125374
689.521	0.0125732
689.599	0.0126103
689.677	0.0123991
689.755	0.0122586
689.833	0.0122684
689.912	0.0120666
689.990	0.0119536
690.068	0.0118880
690.146	0.0118306
690.224	0.0121209
690.302	0.0122038
690.380	0.0123460
690.458	0.0127280
690.537	0.0132022
690.615	0.0134873
690.693	0.0138596
690.771	0.0140989
690.849	0.0145015
690.927	0.0145833
691.005	0.0145899
691.083	0.0147021
691.162	0.0145913
691.240	0.0144117
691.318	0.0139999
691.396	0.0139490
691.474	0.0136263
691.552	0.0134006
691.630	0.0131485
691.708	0.0131718
691.787	0.0129575
691.865	0.0127335
691.943	0.0128902
692.021	0.0129659
692.099	0.0130306
692.177	0.0131385
692.255	0.0132230
692.333	0.0130608
692.412	0.0131491
692.490	0.0133558
692.568	0.0134415
692.646	0.0133564
692.724	0.0135183
692.802	0.0135877
692.880	0.0137178
692.958	0.0140092
693.037	0.0139391
693.115	0.0140780
693.193	0.0142098
693.271	0.0142253
693.349	0.0144302
693.427	0.0144321
693.505	0.0143641
693.583	0.0142038
693.662	0.0141016
693.740	0.0138510
693.818	0.0136276
693.896	0.0133530
693.974	0.0131569
694.052	0.0130365
694.130	0.0128041
694.208	0.0125398
694.287	0.0124117
694.365	0.0122115
694.443	0.0121677
694.521	0.0121658
694.599	0.0119003
694.677	0.0119673
694.755	0.0120681
694.833	0.0120023
694.912	0.0121162
694.990	0.0122590
695.068	0.0122501
695.146	0.0122650
695.224	0.0123399
695.302	0.0124355
695.380	0.0127278
695.458	0.0128439
695.537	0.0130619
695.615	0.0132650
695.693	0.0136440
695.771	0.0135977
695.849	0.0136994
695.927	0.0136666
696.005	0.0136271
696.083	0.0135050
696.162	0.0135684
696.240	0.0133224
696.318	0.0130003
696.396	0.0125591
696.474	0.0123512
696.552	0.0122465
696.630	0.0120171
696.708	0.0119991
696.787	0.0119087
696.865	0.0118255
696.943	0.0118851
697.021	0.0119309
697.099	0.0118344
697.177	0.0119501
697.255	0.0121406
697.333	0.0121064
697.412	0.0122456
697.490	0.0124296
697.568	0.0122957
697.646	0.0125410
697.724	0.0127809
697.802	0.0130492
697.880	0.0133662
697.958	0.0136155
698.037	0.0137767
698.115	0.0139913
698.193	0.0144371
698.271	0.0147153
698.349	0.0147806
698.427	0.0150646
698.505	0.0152145
698.583	0.0151027
698.662	0.0152272
698.740	0.0152422
698.818	0.0152232
698.896	0.0152887
698.974	0.0152632
699.052	0.0151933
699.130	0.0151002
699.208	0.0150938
699.287	0.0149004
699.365	0.0149212
699.443	0.0149240
699.521	0.0149384
699.599	0.0147882
699.677	0.0144859
699.755	0.0144799
699.833	0.0142213
699.912	0.0138385
699.990	0.0135764
700.068	0.0130971
700.146	0.0123840
700.224	0.0119402
700.302	0.0112850
700.380	0.0108439
700.458	0.0103799
700.537	0.0100897
700.615	0.00985313
700.693	0.00967033
700.771	0.00965996
700.849	0.00970795
700.927	0.00976234
701.005	0.0101605
701.083	0.0105128
701.162	0.0108212
701.240	0.0111602
701.318	0.0116124
701.396	0.0120377
701.474	0.0122706
701.552	0.0125014
701.630	0.0127027
701.708	0.0129542
701.787	0.0130494
701.865	0.0130387
701.943	0.0131564
702.021	0.0131207
702.099	0.0132348
702.177	0.0133538
702.255	0.0133327
702.333	0.0134096
702.412	0.0135851
702.490	0.0136917
702.568	0.0138504
702.646	0.0140565
702.724	0.0141643
702.802	0.0141722
702.880	0.0143400
702.958	0.0144760
703.037	0.0145532
703.115	0.0146404
703.193	0.0147160
703.271	0.0145390
703.349	0.0145851
703.427	0.0145105
703.505	0.0143435
703.583	0.0141991
703.662	0.0139373
703.740	0.0136888
703.818	0.0135960
703.896	0.0135384
703.974	0.0134020
704.052	0.0134134
704.130	0.0133610
704.208	0.0134869
704.287	0.0138173
704.365	0.0139291
704.443	0.0143166
704.521	0.0144849
704.599	0.0147783
704.677	0.0150985
704.755	0.0151876
704.833	0.0153859
704.912	0.0153755
704.990	0.0153363
705.068	0.0151699
705.146	0.0149368
705.224	0.0146416
705.302	0.0141280
705.380	0.0137405
705.458	0.0133570
705.537	0.0130086
705.615	0.0125540
705.693	0.0121413
705.771	0.0118703
705.849	0.0115427
705.927	0.0114195
706.005	0.0110776
706.083	0.0108537
706.162	0.0106619
706.240	0.0107561
706.318	0.0105901
706.396	0.0105121
706.474	0.0106902
706.552	0.0106898
706.630	0.0106915
706.708	0.0107136
706.787	0.0108729
706.865	0.0108432
706.943	0.0112937
707.021	0.0113339
707.099	0.0114043
707.177	0.0115796
707.255	0.0117574
707.333	0.0117478
707.412	0.0119083
707.490	0.0120773
707.568	0.0121886
707.646	0.0123264
707.724	0.0124639
707.802	0.0129008
707.880	0.0131293
707.958	0.0133723
708.037	0.0137980
708.115	0.0142317
708.193	0.0146333
708.271	0.0149595
708.349	0.0154030
708.427	0.0155421
708.505	0.0159075
708.583	0.0161462
708.662	0.0162923
708.740	0.0160783
708.818	0.0162724
708.896	0.0161828
708.974	0.0161073
709.052	0.0160291
709.130	0.0158592
709.208	0.0155663
709.287	0.0152428
709.365	0.0148529
709.443	0.0146373
709.521	0.0142123
709.599	0.0138377
709.677	0.0133739
709.755	0.0130900
709.833	0.0128644
709.912	0.0124660
709.990	0.0121146
710.068	0.0121456
710.146	0.0118325
710.224	0.0116847
710.302	0.0118639
710.380	0.0118721
710.458	0.0119779
710.537	0.0121944
710.615	0.0122220
710.693	0.0124215
710.771	0.0123575
710.849	0.0127300
710.927	0.0126415
711.005	0.0128581
711.083	0.0128268
711.162	0.0127338
711.240	0.0129037
711.318	0.0128853
711.396	0.0128479
711.474	0.0128392
711.552	0.0128114
711.630	0.0129048
711.708	0.0127726
711.787	0.0127862
711.865	0.0127975
711.943	0.0126743
712.021	0.0127148
712.099	0.0126365
712.177	0.0124837
712.255	0.0124877
712.333	0.0125357
712.412	0.0123787
712.490	0.0124903
712.568	0.0124142
712.646	0.0123534
712.724	0.0125305
712.802	0.0126218
712.880	0.0126882
712.958	0.0127880
713.037	0.0129926
713.115	0.0130505
713.193	0.0133648
713.271	0.0132642
713.349	0.0132458
713.427	0.0133956
713.505	0.0133807
713.583	0.0132056
713.662	0.0133294
713.740	0.0132291
713.818	0.0130530
713.896	0.0130249
713.974	0.0131194
714.052	0.0129631
714.130	0.0131458
714.208	0.0131174
714.287	0.0130676
714.365	0.0131392
714.443	0.0132552
714.521	0.0134193
714.599	0.0133469
714.677	0.0133270
714.755	0.0134842
714.833	0.0136129
714.912	0.0136459
714.990	0.0135304
715.068	0.0137322
715.146	0.0137594
715.224	0.0138654
715.302	0.0138393
715.380	0.0138008
715.458	0.0139584
715.537	0.0139370
715.615	0.0138728
715.693	0.0139555
715.771	0.0138217
715.849	0.0137933
715.927	0.0137006
716.005	0.0135572
716.083	0.0135141
716.162	0.0134663
716.240	0.0133770
716.318	0.0134151
716.396	0.0132751
716.474	0.0130978
716.552	0.0131158
716.630	0.0130073
716.708	0.0130977
716.787	0.0131028
716.865	0.0129717
716.943	0.0130905
717.021	0.0129745
717.099	0.0128298
717.177	0.0129916
717.255	0.0129137
717.333	0.0128620
717.412	0.0126447
717.490	0.0124129
717.568	0.0124787
717.646	0.0126628
717.724	0.0124372
717.802	0.0122646
717.880	0.0123988
717.958	0.0123345
718.037	0.0123309
718.115	0.0122758
718.193	0.0123357
718.271	0.0123955
718.349	0.0125142
718.427	0.0125570
718.505	0.0126303
718.583	0.0127783
718.662	0.0128712
718.740	0.0127220
718.818	0.0128191
718.896	0.0129584
718.974	0.0129445
719.052	0.0130027
719.130	0.0128912
719.208	0.0129010
719.287	0.0129804
719.365	0.0128155
719.443	0.0127612
719.521	0.0126636
719.599	0.0126797
719.677	0.0125549
719.755	0.0125813
719.833	0.0125661
719.912	0.0126399
719.990	0.0126781
720.068	0.0128248
720.146	0.0129649
720.224	0.0132090
720.302	0.0133762
720.380	0.0136478
720.458	0.0138178
720.537	0.0141297
720.615	0.0142461
720.693	0.0142421
720.771	0.0144301
720.849	0.0146096
720.927	0.0146699
721.005	0.0148482
721.083	0.0146671
721.162	0.0145428
721.240	0.0144727
721.318	0.0143979
721.396	0.0141708
721.474	0.0140955
721.552	0.0139970
721.630	0.0137490
721.708	0.0136295
721.787	0.0134943
721.865	0.0133657
721.943	0.0130848
722.021	0.0130072
722.099	0.0129188
722.177	0.0128119
722.255	0.0125930
722.333	0.0125554
722.412	0.0123564
722.490	0.0122708
722.568	0.0122533
722.646	0.0122227
722.724	0.0121054
722.802	0.0120137
722.880	0.0121433
722.958	0.0121745
723.037	0.0121820
723.115	0.0123041
723.193	0.0122634
723.271	0.0122912
723.349	0.0124397
723.427	0.0123081
723.505	0.0125203
723.583	0.0126847
723.662	0.0128404
723.740	0.0129711
723.818	0.0131532
723.896	0.0134042
723.974	0.0136578
724.052	0.0139552
724.130	0.0140503
724.208	0.0142622
724.287	0.0144520
724.365	0.0146561
724.443	0.0145632
724.521	0.0143766
724.599	0.0146028
724.677	0.0142879
724.755	0.0142816
724.833	0.0139146
724.912	0.0136983
724.990	0.0133667
725.068	0.0131808
725.146	0.0129346
725.224	0.0125813
725.302	0.0122904
725.380	0.0118989
725.458	0.0118827
725.537	0.0118639
725.615	0.0118858
725.693	0.0117796
725.771	0.0118991
725.849	0.0119753
725.927	0.0120307
726.005	0.0123588
726.083	0.0124140
726.162	0.0125191
726.240	0.0128690
726.318	0.0129745
726.396	0.0131668
726.474	0.0132680
726.552	0.0132293
726.630	0.0133672
726.708	0.0132663
726.787	0.0132508
726.865	0.0134117
726.943	0.0133367
727.021	0.0133782
727.099	0.0133040
727.177	0.0133519
727.255	0.0133385
727.333	0.0133467
727.412	0.0133858
727.490	0.0134835
727.568	0.0137627
727.646	0.0138625
727.724	0.0140421
727.802	0.0141792
727.880	0.0142638
727.958	0.0143375
728.037	0.0144439
728.115	0.0144708
728.193	0.0142556
728.271	0.0142432
728.349	0.0141949
728.427	0.0140744
728.505	0.0138351
728.583	0.0137022
728.662	0.0134963
728.740	0.0131847
728.818	0.0131303
728.896	0.0129288
728.974	0.0128716
729.052	0.0128487
729.130	0.0125787
729.208	0.0125021
729.287	0.0122255
729.365	0.0122491
729.443	0.0121552
729.521	0.0121511
729.599	0.0118867
729.677	0.0118713
729.755	0.0119850
729.833	0.0118677
729.912	0.0119586
729.990	0.0121200
730.068	0.0121759
730.146	0.0121922
730.224	0.0124107
730.302	0.0123812
730.380	0.0126534
730.458	0.0130017
730.537	0.0129605
730.615	0.0132193
730.693	0.0134576
730.771	0.0135767
730.849	0.0136815
730.927	0.0137613
731.005	0.0139439
731.083	0.0140530
731.162	0.0142603
731.240	0.0143912
731.318	0.0142588
731.396	0.0143372
731.474	0.0141968
731.552	0.0141145
731.630	0.0139912
731.708	0.0137846
731.787	0.0136054
731.865	0.0134740
731.943	0.0133321
732.021	0.0131547
732.099	0.0130299
732.177	0.0128815
732.255	0.0125790
732.333	0.0124923
732.412	0.0124442
732.490	0.0123450
732.568	0.0123370
732.646	0.0121230
732.724	0.0121467
732.802	0.0121485
732.880	0.0123106
732.958	0.0122401
733.037	0.0123052
733.115	0.0124408
733.193	0.0123655
733.271	0.0125636
733.349	0.0126682
733.427	0.0127559
733.505	0.0129688
733.583	0.0130421
733.662	0.0131504
733.740	0.0134204
733.818	0.0136393
733.896	0.0136794
733.974	0.0137846
734.052	0.0138768
734.130	0.0140157
734.208	0.0139123
734.287	0.0138582
734.365	0.0138322
734.443	0.0137440
734.521	0.0134885
734.599	0.0134278
734.677	0.0136299
734.755	0.0134133
734.833	0.0132083
734.912	0.0133011
734.990	0.0133820
735.068	0.0135880
735.146	0.0134452
735.224	0.0136366
735.302	0.0137311
735.380	0.0136325
735.458	0.0135011
735.537	0.0135258
735.615	0.0135508
