05/08/2022	19:32:44	Ver.	4.1	UNKNOWN
Optical Delay	649.996338	Delta X		0.078125	Sweeps	1	Scan Rate	0/0
Coordinates	Axis 1	NaN	Axis 2	NaN	Axis 3	NaN	Axis 4	NaN	Axis 5	NaN	Axis 6	0.000000
TX Power	0.000000	RX Power	0.000000

649.996	0.0141513
650.074	0.0141176
650.153	0.0141129
650.231	0.0142007
650.309	0.0142374
650.387	0.0141074
650.465	0.0141015
650.543	0.0142426
650.621	0.0140269
650.699	0.0142432
650.778	0.0142350
650.856	0.0141010
650.934	0.0140442
651.012	0.0140437
651.090	0.0142344
651.168	0.0142010
651.246	0.0141553
651.324	0.0141951
651.403	0.0141447
651.481	0.0141993
651.559	0.0142136
651.637	0.0140690
651.715	0.0141792
651.793	0.0142091
651.871	0.0141904
651.949	0.0142192
652.028	0.0141109
652.106	0.0141409
652.184	0.0142873
652.262	0.0142293
652.340	0.0142307
652.418	0.0140237
652.496	0.0140656
652.574	0.0142683
652.653	0.0142017
652.731	0.0141562
652.809	0.0140628
652.887	0.0141314
652.965	0.0141570
653.043	0.0141102
653.121	0.0139484
653.199	0.0141320
653.278	0.0141602
653.356	0.0140797
653.434	0.0140101
653.512	0.0140762
653.590	0.0141704
653.668	0.0141038
653.746	0.0141541
653.824	0.0141195
653.903	0.0142319
653.981	0.0141733
654.059	0.0140583
654.137	0.0141822
654.215	0.0140894
654.293	0.0140820
654.371	0.0142053
654.449	0.0141273
654.528	0.0140594
654.606	0.0140989
654.684	0.0140682
654.762	0.0142002
654.840	0.0141061
654.918	0.0140833
654.996	0.0141275
655.074	0.0140276
655.153	0.0140533
655.231	0.0141879
655.309	0.0141338
655.387	0.0141457
655.465	0.0141930
655.543	0.0141154
655.621	0.0140942
655.699	0.0141908
655.778	0.0140545
655.856	0.0140613
655.934	0.0140458
656.012	0.0141225
656.090	0.0141055
656.168	0.0141635
656.246	0.0141555
656.324	0.0140424
656.403	0.0142641
656.481	0.0140371
656.559	0.0140692
656.637	0.0140944
656.715	0.0140544
656.793	0.0140549
656.871	0.0140988
656.949	0.0141789
657.028	0.0140365
657.106	0.0140641
657.184	0.0140468
657.262	0.0140775
657.340	0.0141490
657.418	0.0142326
657.496	0.0140654
657.574	0.0140219
657.653	0.0140692
657.731	0.0141389
657.809	0.0141929
657.887	0.0142124
657.965	0.0141311
658.043	0.0141317
658.121	0.0140721
658.199	0.0141447
658.278	0.0141285
658.356	0.0140055
658.434	0.0141052
658.512	0.0141322
658.590	0.0140651
658.668	0.0142477
658.746	0.0140808
658.824	0.0141662
658.903	0.0141866
658.981	0.0141088
659.059	0.0140192
659.137	0.0141650
659.215	0.0140898
659.293	0.0141723
659.371	0.0141396
659.449	0.0141626
659.528	0.0140624
659.606	0.0141940
659.684	0.0140456
659.762	0.0141766
659.840	0.0142216
659.918	0.0140777
659.996	0.0141489
660.074	0.0140770
660.153	0.0141480
660.231	0.0140791
660.309	0.0140541
660.387	0.0141519
660.465	0.0140652
660.543	0.0141397
660.621	0.0143791
660.699	0.0141093
660.778	0.0141491
660.856	0.0142290
660.934	0.0143227
661.012	0.0141519
661.090	0.0140570
661.168	0.0142664
661.246	0.0141558
661.324	0.0141322
661.403	0.0140810
661.481	0.0141523
661.559	0.0141101
661.637	0.0140277
661.715	0.0139902
661.793	0.0141199
661.871	0.0141560
661.949	0.0142989
662.028	0.0141293
662.106	0.0141937
662.184	0.0140615
662.262	0.0141173
662.340	0.0141154
662.418	0.0140193
662.496	0.0142162
662.574	0.0141365
662.653	0.0140807
662.731	0.0140567
662.809	0.0141708
662.887	0.0141000
662.965	0.0141544
663.043	0.0141376
663.121	0.0142287
663.199	0.0140387
663.278	0.0141609
663.356	0.0141240
663.434	0.0141720
663.512	0.0141426
663.590	0.0141513
663.668	0.0142219
663.746	0.0141864
663.824	0.0141486
663.903	0.0141656
663.981	0.0141048
664.059	0.0140247
664.137	0.0140187
664.215	0.0140454
664.293	0.0141797
664.371	0.0141321
664.449	0.0141085
664.528	0.0142850
664.606	0.0141107
664.684	0.0140558
664.762	0.0141766
664.840	0.0141890
664.918	0.0140294
664.996	0.0141693
665.074	0.0142336
665.153	0.0141685
665.231	0.0142710
665.309	0.0142254
665.387	0.0142715
665.465	0.0141957
665.543	0.0141550
665.621	0.0141245
665.699	0.0142674
665.778	0.0141314
665.856	0.0141752
665.934	0.0142718
666.012	0.0141891
666.090	0.0140385
666.168	0.0140811
666.246	0.0142065
666.324	0.0141911
666.403	0.0141694
666.481	0.0141395
666.559	0.0139907
666.637	0.0141529
666.715	0.0140404
666.793	0.0141538
666.871	0.0142455
666.949	0.0142456
667.028	0.0140497
667.106	0.0140364
667.184	0.0141869
667.262	0.0140940
667.340	0.0140299
667.418	0.0141376
667.496	0.0142623
667.574	0.0142551
667.653	0.0140475
667.731	0.0139912
667.809	0.0142207
667.887	0.0142865
667.965	0.0140265
668.043	0.0141244
668.121	0.0142027
668.199	0.0141097
668.278	0.0142158
668.356	0.0142731
668.434	0.0140761
668.512	0.0140032
668.590	0.0141254
668.668	0.0140878
668.746	0.0141113
668.824	0.0140832
668.903	0.0141234
668.981	0.0141022
669.059	0.0140582
669.137	0.0139806
669.215	0.0141571
669.293	0.0142715
669.371	0.0141076
669.449	0.0140424
669.528	0.0140517
669.606	0.0141756
669.684	0.0141158
669.762	0.0140585
669.840	0.0141486
669.918	0.0141975
669.996	0.0140756
670.074	0.0141283
670.153	0.0142172
670.231	0.0141514
670.309	0.0140798
670.387	0.0141505
670.465	0.0140193
670.543	0.0141987
670.621	0.0140304
670.699	0.0140133
670.778	0.0139413
670.856	0.0140753
670.934	0.0141752
671.012	0.0141084
671.090	0.0140359
671.168	0.0140493
671.246	0.0140412
671.324	0.0139293
671.403	0.0139298
671.481	0.0139845
671.559	0.0139024
671.637	0.0140623
671.715	0.0139189
671.793	0.0140053
671.871	0.0139698
671.949	0.0138334
672.028	0.0138686
672.106	0.0138718
672.184	0.0139747
672.262	0.0140703
672.340	0.0137981
672.418	0.0139914
672.496	0.0140411
672.574	0.0139587
672.653	0.0139515
672.731	0.0139993
672.809	0.0138945
672.887	0.0141031
672.965	0.0140826
673.043	0.0140563
673.121	0.0139742
673.199	0.0139842
673.278	0.0139934
673.356	0.0140681
673.434	0.0139310
673.512	0.0140470
673.590	0.0139701
673.668	0.0140702
673.746	0.0140293
673.824	0.0139277
673.903	0.0140147
673.981	0.0140610
674.059	0.0140001
674.137	0.0141752
674.215	0.0140164
674.293	0.0141697
674.371	0.0140031
674.449	0.0139516
674.528	0.0139848
674.606	0.0142392
674.684	0.0140443
674.762	0.0138980
674.840	0.0140894
674.918	0.0140598
674.996	0.0140417
675.074	0.0140221
675.153	0.0141335
675.231	0.0141526
675.309	0.0142304
675.387	0.0140397
675.465	0.0141308
675.543	0.0141471
675.621	0.0140501
675.699	0.0140380
675.778	0.0140645
675.856	0.0140453
675.934	0.0141678
676.012	0.0140582
676.090	0.0141138
676.168	0.0140434
676.246	0.0141812
676.324	0.0142194
676.403	0.0142194
676.481	0.0141702
676.559	0.0140807
676.637	0.0143478
676.715	0.0142271
676.793	0.0142438
676.871	0.0141625
676.949	0.0141510
677.028	0.0141591
677.106	0.0143613
677.184	0.0142706
677.262	0.0143056
677.340	0.0142567
677.418	0.0144539
677.496	0.0142549
677.574	0.0143393
677.653	0.0142745
677.731	0.0143787
677.809	0.0143005
677.887	0.0141237
677.965	0.0143743
678.043	0.0144271
678.121	0.0142059
678.199	0.0143546
678.278	0.0144036
678.356	0.0143603
678.434	0.0144546
678.512	0.0143051
678.590	0.0143404
678.668	0.0143036
678.746	0.0144109
678.824	0.0143114
678.903	0.0142800
678.981	0.0143741
679.059	0.0143591
679.137	0.0142827
679.215	0.0142680
679.293	0.0143787
679.371	0.0144347
679.449	0.0143221
679.528	0.0143350
679.606	0.0144249
679.684	0.0143580
679.762	0.0142679
679.840	0.0141353
679.918	0.0142766
679.996	0.0143060
680.074	0.0143044
680.153	0.0143423
680.231	0.0143886
680.309	0.0145042
680.387	0.0143348
680.465	0.0142325
680.543	0.0142929
680.621	0.0143243
680.699	0.0142955
680.778	0.0142493
680.856	0.0143360
680.934	0.0142332
681.012	0.0143468
681.090	0.0142484
681.168	0.0143973
681.246	0.0141782
681.324	0.0142508
681.403	0.0142507
681.481	0.0142670
681.559	0.0142720
681.637	0.0141982
681.715	0.0143413
681.793	0.0143269
681.871	0.0142658
681.949	0.0142899
682.028	0.0141354
682.106	0.0142295
682.184	0.0142587
682.262	0.0140728
682.340	0.0142116
682.418	0.0143533
682.496	0.0142137
682.574	0.0142104
682.653	0.0140686
682.731	0.0141713
682.809	0.0142323
682.887	0.0143249
682.965	0.0141632
683.043	0.0142036
683.121	0.0142545
683.199	0.0142886
683.278	0.0141317
683.356	0.0141257
683.434	0.0141302
683.512	0.0140541
683.590	0.0141578
683.668	0.0139719
683.746	0.0140443
683.824	0.0142031
683.903	0.0141646
683.981	0.0139703
684.059	0.0139896
684.137	0.0140355
684.215	0.0141857
684.293	0.0141132
684.371	0.0139386
684.449	0.0141372
684.528	0.0141134
684.606	0.0141821
684.684	0.0142284
684.762	0.0142354
684.840	0.0142562
684.918	0.0140802
684.996	0.0140539
685.074	0.0140990
685.153	0.0139317
685.231	0.0138607
685.309	0.0138354
685.387	0.0139562
685.465	0.0139425
685.543	0.0139029
685.621	0.0140367
685.699	0.0141190
685.778	0.0141460
685.856	0.0142654
685.934	0.0143121
686.012	0.0143645
686.090	0.0143307
686.168	0.0142224
686.246	0.0143114
686.324	0.0142595
686.403	0.0141703
686.481	0.0141392
686.559	0.0141705
686.637	0.0140511
686.715	0.0140813
686.793	0.0139932
686.871	0.0139618
686.949	0.0138828
687.028	0.0139069
687.106	0.0139397
687.184	0.0141061
687.262	0.0140744
687.340	0.0140007
687.418	0.0140983
687.496	0.0142582
687.574	0.0142139
687.653	0.0142888
687.731	0.0142973
687.809	0.0143461
687.887	0.0143217
687.965	0.0141447
688.043	0.0142791
688.121	0.0142425
688.199	0.0142409
688.278	0.0141302
688.356	0.0139696
688.434	0.0142145
688.512	0.0140880
688.590	0.0140700
688.668	0.0141180
688.746	0.0142053
688.824	0.0142233
688.903	0.0142091
688.981	0.0143844
689.059	0.0144077
689.137	0.0143526
689.215	0.0144366
689.293	0.0143329
689.371	0.0142312
689.449	0.0141666
689.528	0.0141429
689.606	0.0139671
689.684	0.0139364
689.762	0.0139606
689.840	0.0140190
689.918	0.0138601
689.996	0.0137388
690.074	0.0137063
690.153	0.0136185
690.231	0.0136259
690.309	0.0136692
690.387	0.0137799
690.465	0.0138183
690.543	0.0139262
690.621	0.0138674
690.699	0.0141150
690.778	0.0141019
690.856	0.0143739
690.934	0.0145071
691.012	0.0144408
691.090	0.0144396
691.168	0.0146682
691.246	0.0146783
691.324	0.0144573
691.403	0.0146474
691.481	0.0146867
691.559	0.0146503
691.637	0.0145570
691.715	0.0144662
691.793	0.0143225
691.871	0.0142016
691.949	0.0141518
692.028	0.0140507
692.106	0.0139150
692.184	0.0138024
692.262	0.0137568
692.340	0.0137531
692.418	0.0137866
692.496	0.0137867
692.574	0.0135258
692.653	0.0137705
692.731	0.0137109
692.809	0.0138952
692.887	0.0138779
692.965	0.0137419
693.043	0.0139523
693.121	0.0139375
693.199	0.0138051
693.278	0.0139467
693.356	0.0138701
693.434	0.0139401
693.512	0.0137612
693.590	0.0138855
693.668	0.0138628
693.746	0.0139820
693.824	0.0139611
693.903	0.0140230
693.981	0.0142799
694.059	0.0143288
694.137	0.0143062
694.215	0.0144375
694.293	0.0146155
694.371	0.0147182
694.449	0.0148231
694.528	0.0149158
694.606	0.0150397
694.684	0.0148422
694.762	0.0146158
694.840	0.0146969
694.918	0.0145510
694.996	0.0145054
695.074	0.0144010
695.153	0.0142338
695.231	0.0141251
695.309	0.0141059
695.387	0.0139069
695.465	0.0138264
695.543	0.0136773
695.621	0.0136586
695.699	0.0135358
695.778	0.0134100
695.856	0.0133244
695.934	0.0134296
696.012	0.0133129
696.090	0.0134177
696.168	0.0134595
696.246	0.0135001
696.324	0.0135057
696.403	0.0135779
696.481	0.0137929
696.559	0.0138101
696.637	0.0138559
696.715	0.0139413
696.793	0.0140993
696.871	0.0141670
696.949	0.0141940
697.028	0.0142313
697.106	0.0142389
697.184	0.0142965
697.262	0.0144086
697.340	0.0142612
697.418	0.0142876
697.496	0.0143728
697.574	0.0143722
697.653	0.0143267
697.731	0.0144781
697.809	0.0145408
697.887	0.0146352
697.965	0.0147166
698.043	0.0146377
698.121	0.0147454
698.199	0.0146384
698.278	0.0147411
698.356	0.0146670
698.434	0.0145686
698.512	0.0146167
698.590	0.0143966
698.668	0.0143002
698.746	0.0141684
698.824	0.0141417
698.903	0.0140025
698.981	0.0138421
699.059	0.0138135
699.137	0.0137393
699.215	0.0134417
699.293	0.0135390
699.371	0.0133362
699.449	0.0132475
699.528	0.0132356
699.606	0.0133073
699.684	0.0134485
699.762	0.0133624
699.840	0.0133604
699.918	0.0134951
699.996	0.0136034
700.074	0.0135500
700.153	0.0136163
700.231	0.0138399
700.309	0.0138035
700.387	0.0137351
700.465	0.0137814
700.543	0.0140393
700.621	0.0141262
700.699	0.0142124
700.778	0.0142047
700.856	0.0142144
700.934	0.0142780
701.012	0.0142248
701.090	0.0144360
701.168	0.0143351
701.246	0.0144019
701.324	0.0142575
701.403	0.0142896
701.481	0.0142551
701.559	0.0143639
701.637	0.0143082
701.715	0.0142591
701.793	0.0142305
701.871	0.0142267
701.949	0.0143534
702.028	0.0144756
702.106	0.0145047
702.184	0.0146013
702.262	0.0145131
702.340	0.0145284
702.418	0.0144679
702.496	0.0144317
702.574	0.0144874
702.653	0.0145932
702.731	0.0145055
702.809	0.0144115
702.887	0.0141769
702.965	0.0142806
703.043	0.0141867
703.121	0.0139743
703.199	0.0138351
703.278	0.0139254
703.356	0.0138956
703.434	0.0138512
703.512	0.0138175
703.590	0.0138968
703.668	0.0138925
703.746	0.0138564
703.824	0.0137123
703.903	0.0137014
703.981	0.0136850
704.059	0.0136469
704.137	0.0136546
704.215	0.0136750
704.293	0.0134924
704.371	0.0137372
704.449	0.0136462
704.528	0.0136470
704.606	0.0137381
704.684	0.0139218
704.762	0.0140061
704.840	0.0140614
704.918	0.0140172
704.996	0.0142281
705.074	0.0144095
705.153	0.0144746
705.231	0.0145277
705.309	0.0145790
705.387	0.0147276
705.465	0.0148291
705.543	0.0149014
705.621	0.0148051
705.699	0.0148198
705.778	0.0149237
705.856	0.0149969
705.934	0.0148963
706.012	0.0148853
706.090	0.0150351
706.168	0.0149684
706.246	0.0148775
706.324	0.0148852
706.403	0.0148997
706.481	0.0147691
706.559	0.0147137
706.637	0.0145600
706.715	0.0145513
706.793	0.0144062
706.871	0.0144759
706.949	0.0144466
707.028	0.0142962
707.106	0.0141624
707.184	0.0142262
707.262	0.0140733
707.340	0.0139151
707.418	0.0139551
707.496	0.0138475
707.574	0.0136534
707.653	0.0136744
707.731	0.0137071
707.809	0.0136699
707.887	0.0136893
707.965	0.0137216
708.043	0.0136818
708.121	0.0137646
708.199	0.0138231
708.278	0.0138615
708.356	0.0138963
708.434	0.0137936
708.512	0.0139480
708.590	0.0140301
708.668	0.0140427
708.746	0.0139275
708.824	0.0140334
708.903	0.0140002
708.981	0.0142003
709.059	0.0141925
709.137	0.0142976
709.215	0.0143903
709.293	0.0143682
709.371	0.0144259
709.449	0.0145072
709.528	0.0143213
709.606	0.0143654
709.684	0.0143462
709.762	0.0143009
709.840	0.0143244
709.918	0.0142580
709.996	0.0142830
710.074	0.0144431
710.153	0.0142427
710.231	0.0141811
710.309	0.0140261
710.387	0.0143016
710.465	0.0141783
710.543	0.0141603
710.621	0.0141383
710.699	0.0140218
710.778	0.0139905
710.856	0.0140520
710.934	0.0141259
711.012	0.0140775
711.090	0.0141283
711.168	0.0140772
711.246	0.0140030
711.324	0.0138116
711.403	0.0140726
711.481	0.0141007
711.559	0.0141463
711.637	0.0139332
711.715	0.0140588
711.793	0.0139863
711.871	0.0140843
711.949	0.0140950
712.028	0.0142583
712.106	0.0143686
712.184	0.0142029
712.262	0.0141785
712.340	0.0142658
712.418	0.0141952
712.496	0.0140876
712.574	0.0141665
712.653	0.0140079
712.731	0.0139749
712.809	0.0140974
712.887	0.0140551
712.965	0.0139185
713.043	0.0139591
713.121	0.0139977
713.199	0.0138694
713.278	0.0138113
713.356	0.0139796
713.434	0.0138067
713.512	0.0139404
713.590	0.0139259
713.668	0.0140025
713.746	0.0141148
713.824	0.0139775
713.903	0.0140656
713.981	0.0141822
714.059	0.0142226
714.137	0.0142103
714.215	0.0141217
714.293	0.0142494
714.371	0.0142330
714.449	0.0142529
714.528	0.0141364
714.606	0.0142252
714.684	0.0142381
714.762	0.0142565
714.840	0.0140289
714.918	0.0141947
714.996	0.0142186
715.074	0.0139722
715.153	0.0140535
715.231	0.0140667
715.309	0.0140420
715.387	0.0139692
715.465	0.0139559
715.543	0.0139898
715.621	0.0139672
715.699	0.0139526
715.778	0.0140051
715.856	0.0139491
715.934	0.0140851
716.012	0.0141544
716.090	0.0140662
716.168	0.0142188
716.246	0.0142394
716.324	0.0142533
716.403	0.0141865
716.481	0.0143758
716.559	0.0144202
716.637	0.0143826
716.715	0.0142764
716.793	0.0144459
716.871	0.0145276
716.949	0.0145263
717.028	0.0144504
717.106	0.0143389
717.184	0.0143271
717.262	0.0142425
717.340	0.0141834
717.418	0.0142843
717.496	0.0144077
717.574	0.0141934
717.653	0.0140562
717.731	0.0140630
717.809	0.0140617
717.887	0.0140278
717.965	0.0140040
718.043	0.0140105
718.121	0.0139812
718.199	0.0139442
718.278	0.0138580
718.356	0.0139505
718.434	0.0138918
718.512	0.0139212
718.590	0.0139664
718.668	0.0139874
718.746	0.0140159
718.824	0.0139162
718.903	0.0139621
718.981	0.0139342
719.059	0.0140376
719.137	0.0140160
719.215	0.0140205
719.293	0.0140672
719.371	0.0141595
719.449	0.0141897
719.528	0.0141498
719.606	0.0142912
719.684	0.0143613
719.762	0.0142632
719.840	0.0142652
719.918	0.0143330
719.996	0.0144511
720.074	0.0143703
720.153	0.0144587
720.231	0.0142841
720.309	0.0143794
720.387	0.0143802
720.465	0.0143822
720.543	0.0143944
720.621	0.0142339
720.699	0.0142456
720.778	0.0143385
720.856	0.0142770
720.934	0.0142024
721.012	0.0141422
721.090	0.0141864
721.168	0.0140766
721.246	0.0141291
721.324	0.0142445
721.403	0.0140572
721.481	0.0141020
721.559	0.0139694
721.637	0.0139925
721.715	0.0139439
721.793	0.0141022
721.871	0.0138790
721.949	0.0138792
722.028	0.0140688
722.106	0.0140928
722.184	0.0140339
722.262	0.0140253
722.340	0.0140112
722.418	0.0142230
722.496	0.0142312
722.574	0.0140552
722.653	0.0139983
722.731	0.0142349
722.809	0.0141803
722.887	0.0141026
722.965	0.0140577
723.043	0.0141301
723.121	0.0141151
723.199	0.0139646
723.278	0.0138972
723.356	0.0140993
723.434	0.0139375
723.512	0.0138866
723.590	0.0139065
723.668	0.0138621
723.746	0.0137991
723.824	0.0136303
723.903	0.0138218
723.981	0.0137981
724.059	0.0137433
724.137	0.0138472
724.215	0.0138158
724.293	0.0137415
724.371	0.0138208
724.449	0.0139017
724.528	0.0138127
724.606	0.0138083
724.684	0.0137849
724.762	0.0138967
724.840	0.0139362
724.918	0.0140404
724.996	0.0139657
725.074	0.0139252
725.153	0.0139384
725.231	0.0139022
725.309	0.0139449
725.387	0.0140021
725.465	0.0139761
725.543	0.0141454
725.621	0.0140224
725.699	0.0140508
725.778	0.0140448
725.856	0.0142551
725.934	0.0140462
726.012	0.0141657
726.090	0.0139709
726.168	0.0140136
726.246	0.0140920
726.324	0.0139676
726.403	0.0141389
726.481	0.0141210
726.559	0.0140720
726.637	0.0141124
726.715	0.0139946
726.793	0.0139824
726.871	0.0141351
726.949	0.0141142
727.028	0.0141634
727.106	0.0140767
727.184	0.0141907
727.262	0.0141103
727.340	0.0142699
727.418	0.0141388
727.496	0.0141773
727.574	0.0141221
727.653	0.0142040
727.731	0.0141594
727.809	0.0142159
727.887	0.0141547
727.965	0.0142820
728.043	0.0143069
728.121	0.0143407
728.199	0.0143631
728.278	0.0143060
728.356	0.0143317
728.434	0.0142803
728.512	0.0141825
728.590	0.0142639
728.668	0.0141539
728.746	0.0141280
728.824	0.0142252
728.903	0.0142375
728.981	0.0141397
729.059	0.0141573
729.137	0.0141341
729.215	0.0140919
729.293	0.0140637
729.371	0.0141209
729.449	0.0141605
729.528	0.0142525
729.606	0.0141932
729.684	0.0141846
729.762	0.0140195
729.840	0.0142831
729.918	0.0142046
729.996	0.0140989
730.074	0.0141310
730.153	0.0140295
730.231	0.0141456
730.309	0.0140913
730.387	0.0141199
730.465	0.0141823
730.543	0.0141557
730.621	0.0142876
730.699	0.0142657
730.778	0.0142141
730.856	0.0140974
730.934	0.0139649
731.012	0.0141638
731.090	0.0142216
731.168	0.0139910
731.246	0.0140232
731.324	0.0140405
731.403	0.0142504
731.481	0.0141405
731.559	0.0142755
731.637	0.0142396
731.715	0.0142498
731.793	0.0142311
731.871	0.0142370
731.949	0.0141695
732.028	0.0142080
732.106	0.0142333
732.184	0.0142074
732.262	0.0142123
732.340	0.0142394
732.418	0.0143097
732.496	0.0143221
732.574	0.0143899
732.653	0.0142165
732.731	0.0141545
732.809	0.0142899
732.887	0.0141785
732.965	0.0142908
733.043	0.0142878
733.121	0.0142348
733.199	0.0142270
733.278	0.0142412
733.356	0.0142838
733.434	0.0142471
733.512	0.0142940
733.590	0.0141734
733.668	0.0141666
733.746	0.0142165
733.824	0.0142967
733.903	0.0140993
733.981	0.0140660
734.059	0.0140724
734.137	0.0141829
734.215	0.0142621
734.293	0.0141982
734.371	0.0142180
734.449	0.0141620
734.528	0.0141679
734.606	0.0142127
734.684	0.0142138
734.762	0.0141519
734.840	0.0140856
734.918	0.0142117
734.996	0.0141068
735.074	0.0141513
735.153	0.0141250
735.231	0.0141428
735.309	0.0141597
735.387	0.0141884
735.465	0.0141055
735.543	0.0142265
735.621	0.0140548
735.699	0.0140469
