05/08/2022	20:05:26	Ver.	4.1	UNKNOWN
Optical Delay	649.982996	Delta X		0.078125	Sweeps	1	Scan Rate	0/0
Coordinates	Axis 1	NaN	Axis 2	NaN	Axis 3	NaN	Axis 4	NaN	Axis 5	NaN	Axis 6	0.000000
TX Power	0.000000	RX Power	0.000000

649.983	0.0128348
650.061	0.0127087
650.139	0.0126248
650.217	0.0126980
650.295	0.0127256
650.374	0.0127523
650.452	0.0126082
650.530	0.0128167
650.608	0.0128056
650.686	0.0128571
650.764	0.0128843
650.842	0.0129297
650.920	0.0129453
650.999	0.0128492
651.077	0.0129457
651.155	0.0128371
651.233	0.0126914
651.311	0.0127743
651.389	0.0127197
651.467	0.0126990
651.545	0.0126986
651.624	0.0128348
651.702	0.0126540
651.780	0.0125443
651.858	0.0126996
651.936	0.0126373
652.014	0.0126936
652.092	0.0126101
652.170	0.0126047
652.249	0.0125552
652.327	0.0125721
652.405	0.0123591
652.483	0.0125226
652.561	0.0124837
652.639	0.0125565
652.717	0.0125147
652.795	0.0126138
652.874	0.0126514
652.952	0.0126514
653.030	0.0127384
653.108	0.0127368
653.186	0.0129688
653.264	0.0128938
653.342	0.0131553
653.420	0.0132671
653.499	0.0133803
653.577	0.0134885
653.655	0.0133508
653.733	0.0132856
653.811	0.0134684
653.889	0.0135445
653.967	0.0133227
654.045	0.0132328
654.124	0.0132914
654.202	0.0131389
654.280	0.0128299
654.358	0.0126513
654.436	0.0125693
654.514	0.0123968
654.592	0.0122805
654.670	0.0122325
654.749	0.0121283
654.827	0.0119090
654.905	0.0118198
654.983	0.0118060
655.061	0.0116884
655.139	0.0116764
655.217	0.0118172
655.295	0.0116345
655.374	0.0118149
655.452	0.0120539
655.530	0.0121154
655.608	0.0123267
655.686	0.0124904
655.764	0.0126707
655.842	0.0127192
655.920	0.0130463
655.999	0.0132628
656.077	0.0131074
656.155	0.0132166
656.233	0.0133540
656.311	0.0134259
656.389	0.0134963
656.467	0.0135829
656.545	0.0135881
656.624	0.0136910
656.702	0.0137286
656.780	0.0139182
656.858	0.0140712
656.936	0.0141793
657.014	0.0142243
657.092	0.0141472
657.170	0.0142067
657.249	0.0144061
657.327	0.0140657
657.405	0.0138795
657.483	0.0138726
657.561	0.0136546
657.639	0.0133006
657.717	0.0129874
657.795	0.0125317
657.874	0.0122604
657.952	0.0120364
658.030	0.0117368
658.108	0.0114413
658.186	0.0112797
658.264	0.0111739
658.342	0.0108721
658.420	0.0109651
658.499	0.0107257
658.577	0.0104436
658.655	0.0105630
658.733	0.0107677
658.811	0.0107877
658.889	0.0108259
658.967	0.0109487
659.045	0.0112302
659.124	0.0115129
659.202	0.0118028
659.280	0.0119490
659.358	0.0124378
659.436	0.0126837
659.514	0.0129971
659.592	0.0135313
659.670	0.0139462
659.749	0.0141697
659.827	0.0144822
659.905	0.0147607
659.983	0.0151826
660.061	0.0154526
660.139	0.0155907
660.217	0.0159016
660.295	0.0160038
660.374	0.0162543
660.452	0.0162264
660.530	0.0163189
660.608	0.0163559
660.686	0.0159723
660.764	0.0158388
660.842	0.0156212
660.920	0.0150511
660.999	0.0146034
661.077	0.0141099
661.155	0.0135356
661.233	0.0128223
661.311	0.0123672
661.389	0.0117500
661.467	0.0112044
661.545	0.0108066
661.624	0.0103378
661.702	0.0102402
661.780	0.00979080
661.858	0.00951080
661.936	0.00941544
662.014	0.00931236
662.092	0.00932373
662.170	0.00933273
662.249	0.00944496
662.327	0.00965767
662.405	0.00982658
662.483	0.0101764
662.561	0.0103021
662.639	0.0107478
662.717	0.0108534
662.795	0.0112573
662.874	0.0115793
662.952	0.0119938
663.030	0.0124254
663.108	0.0128405
663.186	0.0132938
663.264	0.0136474
663.342	0.0140475
663.420	0.0145941
663.499	0.0151419
663.577	0.0154050
663.655	0.0157062
663.733	0.0160234
663.811	0.0163844
663.889	0.0165417
663.967	0.0165986
664.045	0.0166782
664.124	0.0166339
664.202	0.0166797
664.280	0.0165747
664.358	0.0161777
664.436	0.0159093
664.514	0.0156224
664.592	0.0151268
664.670	0.0147456
664.749	0.0142278
664.827	0.0138145
664.905	0.0132899
664.983	0.0128400
665.061	0.0124686
665.139	0.0118055
665.217	0.0115321
665.295	0.0112243
665.374	0.0109877
665.452	0.0105352
665.530	0.0104115
665.608	0.0103737
665.686	0.0101269
665.764	0.0101093
665.842	0.0100263
665.920	0.00987846
665.999	0.00986748
666.077	0.00975899
666.155	0.00983765
666.233	0.00983345
666.311	0.00992821
666.389	0.0100091
666.467	0.0103611
666.545	0.0104237
666.624	0.0107159
666.702	0.0109898
666.780	0.0113227
666.858	0.0115845
666.936	0.0119633
667.014	0.0123701
667.092	0.0128948
667.170	0.0130845
667.249	0.0134737
667.327	0.0139043
667.405	0.0142503
667.483	0.0145696
667.561	0.0148903
667.639	0.0152239
667.717	0.0154939
667.795	0.0157294
667.874	0.0160049
667.952	0.0161559
668.030	0.0161491
668.108	0.0164832
668.186	0.0162390
668.264	0.0161943
668.342	0.0160874
668.420	0.0158205
668.499	0.0155608
668.577	0.0153403
668.655	0.0148782
668.733	0.0145490
668.811	0.0142120
668.889	0.0136654
668.967	0.0131963
669.045	0.0126511
669.124	0.0123531
669.202	0.0119283
669.280	0.0117563
669.358	0.0113662
669.436	0.0111375
669.514	0.0110555
669.592	0.0108157
669.670	0.0107590
669.749	0.0107258
669.827	0.0105071
669.905	0.0105894
669.983	0.0105504
670.061	0.0104398
670.139	0.0105006
670.217	0.0105666
670.295	0.0106986
670.374	0.0108253
670.452	0.0108188
670.530	0.0110307
670.608	0.0113416
670.686	0.0116460
670.764	0.0119871
670.842	0.0123293
670.920	0.0127094
670.999	0.0129840
671.077	0.0131904
671.155	0.0136158
671.233	0.0138635
671.311	0.0137798
671.389	0.0138928
671.467	0.0138990
671.545	0.0137701
671.624	0.0135679
671.702	0.0134499
671.780	0.0132535
671.858	0.0130397
671.936	0.0128240
672.014	0.0126347
672.092	0.0126405
672.170	0.0125105
672.249	0.0122902
672.327	0.0124661
672.405	0.0127295
672.483	0.0126288
672.561	0.0128032
672.639	0.0129530
672.717	0.0131320
672.795	0.0132701
672.874	0.0134692
672.952	0.0136725
673.030	0.0138102
673.108	0.0140337
673.186	0.0140275
673.264	0.0142299
673.342	0.0143062
673.420	0.0142626
673.499	0.0143020
673.577	0.0142593
673.655	0.0142472
673.733	0.0140362
673.811	0.0139838
673.889	0.0139187
673.967	0.0138010
674.045	0.0136498
674.124	0.0132400
674.202	0.0129246
674.280	0.0127295
674.358	0.0125804
674.436	0.0122816
674.514	0.0120426
674.592	0.0119681
674.670	0.0117877
674.749	0.0115154
674.827	0.0115240
674.905	0.0113181
674.983	0.0113347
675.061	0.0113725
675.139	0.0111867
675.217	0.0112259
675.295	0.0112610
675.374	0.0112556
675.452	0.0113567
675.530	0.0113772
675.608	0.0114121
675.686	0.0115192
675.764	0.0116998
675.842	0.0119879
675.920	0.0121302
675.999	0.0122988
676.077	0.0123930
676.155	0.0127452
676.233	0.0128724
676.311	0.0128740
676.389	0.0130272
676.467	0.0131467
676.545	0.0130801
676.624	0.0130638
676.702	0.0129292
676.780	0.0127595
676.858	0.0126753
676.936	0.0126113
677.014	0.0122932
677.092	0.0122305
677.170	0.0122145
677.249	0.0122803
677.327	0.0123314
677.405	0.0124389
677.483	0.0126462
677.561	0.0129457
677.639	0.0131673
677.717	0.0132655
677.795	0.0134517
677.874	0.0136105
677.952	0.0139589
678.030	0.0141188
678.108	0.0141978
678.186	0.0141618
678.264	0.0143040
678.342	0.0142978
678.420	0.0144350
678.499	0.0146079
678.577	0.0144741
678.655	0.0144750
678.733	0.0144702
678.811	0.0145590
678.889	0.0146742
678.967	0.0145803
679.045	0.0145385
679.124	0.0142704
679.202	0.0142529
679.280	0.0143206
679.358	0.0142827
679.436	0.0139366
679.514	0.0137338
679.592	0.0135885
679.670	0.0133283
679.749	0.0129768
679.827	0.0124915
679.905	0.0122426
679.983	0.0116880
680.061	0.0112415
680.139	0.0108015
680.217	0.0105854
680.295	0.00999054
680.374	0.00960632
680.452	0.00931404
680.530	0.00910149
680.608	0.00907150
680.686	0.00885109
680.764	0.00894989
680.842	0.00924568
680.920	0.00939011
680.999	0.00971313
681.077	0.0100174
681.155	0.0103040
681.233	0.0106784
681.311	0.0110638
681.389	0.0113459
681.467	0.0120945
681.545	0.0123397
681.624	0.0129066
681.702	0.0133309
681.780	0.0139768
681.858	0.0143789
681.936	0.0148872
682.014	0.0151728
682.092	0.0156233
682.170	0.0159534
682.249	0.0162052
682.327	0.0164620
682.405	0.0166183
682.483	0.0165436
682.561	0.0167027
682.639	0.0165724
682.717	0.0161349
682.795	0.0160577
682.874	0.0160033
682.952	0.0154446
683.030	0.0150838
683.108	0.0147861
683.186	0.0143275
683.264	0.0139140
683.342	0.0135390
683.420	0.0131410
683.499	0.0127189
683.577	0.0124025
683.655	0.0120210
683.733	0.0117535
683.811	0.0113826
683.889	0.0113195
683.967	0.0109975
684.045	0.0109483
684.124	0.0106485
684.202	0.0106520
684.280	0.0105611
684.358	0.0106036
684.436	0.0107340
684.514	0.0108545
684.592	0.0111998
684.670	0.0113833
684.749	0.0115804
684.827	0.0118937
684.905	0.0121038
684.983	0.0123597
685.061	0.0124671
685.139	0.0127466
685.217	0.0129230
685.295	0.0128619
685.374	0.0128425
685.452	0.0127203
685.530	0.0125325
685.608	0.0124660
685.686	0.0123790
685.764	0.0122266
685.842	0.0121432
685.920	0.0120147
685.999	0.0120178
686.077	0.0122200
686.155	0.0122205
686.233	0.0122596
686.311	0.0124669
686.389	0.0127248
686.467	0.0131491
686.545	0.0131679
686.624	0.0137466
686.702	0.0140569
686.780	0.0141026
686.858	0.0144950
686.936	0.0146967
687.014	0.0147958
687.092	0.0149046
687.170	0.0149580
687.249	0.0148376
687.327	0.0147225
687.405	0.0145998
687.483	0.0142877
687.561	0.0140841
687.639	0.0139731
687.717	0.0137405
687.795	0.0135114
687.874	0.0133489
687.952	0.0130459
688.030	0.0127512
688.108	0.0127486
688.186	0.0124930
688.264	0.0122529
688.342	0.0120922
688.420	0.0119968
688.499	0.0117427
688.577	0.0117015
688.655	0.0115204
688.733	0.0114829
688.811	0.0114822
688.889	0.0113152
688.967	0.0113685
689.045	0.0114302
689.124	0.0113232
689.202	0.0114073
689.280	0.0116609
689.358	0.0117464
689.436	0.0120724
689.514	0.0119870
689.592	0.0121567
689.670	0.0122784
689.749	0.0124839
689.827	0.0127776
689.905	0.0130448
689.983	0.0132054
690.061	0.0133573
690.139	0.0135866
690.217	0.0135821
690.295	0.0136850
690.374	0.0137365
690.452	0.0137565
690.530	0.0136677
690.608	0.0135744
690.686	0.0133636
690.764	0.0131814
690.842	0.0130682
690.920	0.0129218
690.999	0.0127609
691.077	0.0127512
691.155	0.0125784
691.233	0.0124702
691.311	0.0126714
691.389	0.0128276
691.467	0.0128348
691.545	0.0130306
691.624	0.0132184
691.702	0.0133064
691.780	0.0134618
691.858	0.0137060
691.936	0.0137507
692.014	0.0139969
692.092	0.0141465
692.170	0.0138982
692.249	0.0139905
692.327	0.0139172
692.405	0.0139615
692.483	0.0137823
692.561	0.0135337
692.639	0.0134806
692.717	0.0134243
692.795	0.0132240
692.874	0.0128712
692.952	0.0126990
693.030	0.0125977
693.108	0.0126329
693.186	0.0123431
693.264	0.0122562
693.342	0.0121439
693.420	0.0120741
693.499	0.0121632
693.577	0.0121317
693.655	0.0120129
693.733	0.0119511
693.811	0.0119598
693.889	0.0119524
693.967	0.0120907
694.045	0.0120865
694.124	0.0120972
694.202	0.0121617
694.280	0.0121900
694.358	0.0122883
694.436	0.0122165
694.514	0.0119564
694.592	0.0118772
694.670	0.0118390
694.749	0.0115931
694.827	0.0115026
694.905	0.0113585
694.983	0.0112688
695.061	0.0113475
695.139	0.0112118
695.217	0.0112333
695.295	0.0114560
695.374	0.0115778
695.452	0.0117488
695.530	0.0121520
695.608	0.0126797
695.686	0.0131112
695.764	0.0134131
695.842	0.0138360
695.920	0.0141762
695.999	0.0144065
696.077	0.0147127
696.155	0.0150489
696.233	0.0152692
696.311	0.0152616
696.389	0.0153886
696.467	0.0154646
696.545	0.0154753
696.624	0.0152791
696.702	0.0152152
696.780	0.0152048
696.858	0.0150238
696.936	0.0146377
697.014	0.0145505
697.092	0.0143635
697.170	0.0138668
697.249	0.0136890
697.327	0.0134970
697.405	0.0131240
697.483	0.0126644
697.561	0.0123553
697.639	0.0122002
697.717	0.0117986
697.795	0.0116428
697.874	0.0115636
697.952	0.0115146
698.030	0.0115194
698.108	0.0114771
698.186	0.0113477
698.264	0.0112737
698.342	0.0113628
698.420	0.0114233
698.499	0.0113074
698.577	0.0116051
698.655	0.0113120
698.733	0.0113734
698.811	0.0112009
698.889	0.0113891
698.967	0.0113239
699.045	0.0115412
699.124	0.0114355
699.202	0.0115119
699.280	0.0118256
699.358	0.0117953
699.436	0.0119768
699.514	0.0121585
699.592	0.0123167
699.670	0.0125751
699.749	0.0126492
699.827	0.0126979
699.905	0.0128410
699.983	0.0129716
700.061	0.0130446
700.139	0.0130564
700.217	0.0132680
700.295	0.0133565
700.374	0.0134132
700.452	0.0134319
700.530	0.0134886
700.608	0.0136692
700.686	0.0138529
700.764	0.0138591
700.842	0.0139049
700.920	0.0142260
700.999	0.0141842
701.077	0.0141465
701.155	0.0143928
701.233	0.0143446
701.311	0.0141863
701.389	0.0143270
701.467	0.0144480
701.545	0.0143540
701.624	0.0141501
701.702	0.0139719
701.780	0.0138570
701.858	0.0136721
701.936	0.0134969
702.014	0.0135176
702.092	0.0132298
702.170	0.0130527
702.249	0.0130017
702.327	0.0128133
702.405	0.0127721
702.483	0.0125677
702.561	0.0123743
702.639	0.0124055
702.717	0.0122395
702.795	0.0121629
702.874	0.0120653
702.952	0.0119843
703.030	0.0121185
703.108	0.0118148
703.186	0.0116602
703.264	0.0118459
703.342	0.0117425
703.420	0.0117010
703.499	0.0117450
703.577	0.0117274
703.655	0.0118966
703.733	0.0120686
703.811	0.0121075
703.889	0.0122829
703.967	0.0123634
704.045	0.0126116
704.124	0.0126797
704.202	0.0126240
704.280	0.0127917
704.358	0.0129374
704.436	0.0127815
704.514	0.0127283
704.592	0.0128040
704.670	0.0126389
704.749	0.0125899
704.827	0.0125925
704.905	0.0125119
704.983	0.0126070
705.061	0.0126011
705.139	0.0126154
705.217	0.0126327
705.295	0.0127998
705.374	0.0128600
705.452	0.0128667
705.530	0.0129488
705.608	0.0130999
705.686	0.0131304
705.764	0.0130634
705.842	0.0131493
705.920	0.0130601
705.999	0.0130115
706.077	0.0131039
706.155	0.0130201
706.233	0.0129893
706.311	0.0129416
706.389	0.0130166
706.467	0.0128623
706.545	0.0131651
706.624	0.0131886
706.702	0.0131972
706.780	0.0132498
706.858	0.0133138
706.936	0.0133188
707.014	0.0132959
707.092	0.0133884
707.170	0.0133766
707.249	0.0133588
707.327	0.0133649
707.405	0.0134629
707.483	0.0133992
707.561	0.0131739
707.639	0.0132452
707.717	0.0131726
707.795	0.0128564
707.874	0.0127772
707.952	0.0126276
708.030	0.0126375
708.108	0.0124189
708.186	0.0122379
708.264	0.0120113
708.342	0.0119772
708.420	0.0119727
708.499	0.0118578
708.577	0.0119102
708.655	0.0118437
708.733	0.0119627
708.811	0.0119924
708.889	0.0122318
708.967	0.0124557
709.045	0.0126344
709.124	0.0129749
709.202	0.0130211
709.280	0.0131912
709.358	0.0133927
709.436	0.0135468
709.514	0.0136253
709.592	0.0137524
709.670	0.0138268
709.749	0.0136825
709.827	0.0138145
709.905	0.0135509
709.983	0.0134702
710.061	0.0135394
710.139	0.0134703
710.217	0.0134072
710.295	0.0130841
710.374	0.0130116
710.452	0.0129163
710.530	0.0129196
710.608	0.0127425
710.686	0.0124424
710.764	0.0123181
710.842	0.0122245
710.920	0.0120386
710.999	0.0117426
711.077	0.0117914
711.155	0.0116972
711.233	0.0115746
711.311	0.0116680
711.389	0.0116790
711.467	0.0116187
711.545	0.0118094
711.624	0.0119939
711.702	0.0122015
711.780	0.0122451
711.858	0.0124532
711.936	0.0125727
712.014	0.0125958
712.092	0.0126884
712.170	0.0127434
712.249	0.0129524
712.327	0.0130820
712.405	0.0132600
712.483	0.0132484
712.561	0.0132059
712.639	0.0133785
712.717	0.0135242
712.795	0.0136266
712.874	0.0137493
712.952	0.0138692
713.030	0.0136447
713.108	0.0136581
713.186	0.0137480
713.264	0.0136248
713.342	0.0136288
713.420	0.0135301
713.499	0.0135616
713.577	0.0132215
713.655	0.0131828
713.733	0.0131779
713.811	0.0129316
713.889	0.0129582
713.967	0.0129342
714.045	0.0127080
714.124	0.0127296
714.202	0.0127528
714.280	0.0126801
714.358	0.0125785
714.436	0.0125104
714.514	0.0125798
714.592	0.0124735
714.670	0.0123735
714.749	0.0124508
714.827	0.0123942
714.905	0.0123418
714.983	0.0124355
715.061	0.0124259
715.139	0.0125015
715.217	0.0126418
715.295	0.0127410
715.374	0.0127058
715.452	0.0128409
715.530	0.0128437
715.608	0.0129399
715.686	0.0130097
715.764	0.0130704
715.842	0.0129531
715.920	0.0129656
715.999	0.0129793
716.077	0.0129553
716.155	0.0129247
716.233	0.0128896
716.311	0.0127849
716.389	0.0127585
716.467	0.0128771
716.545	0.0126640
716.624	0.0127107
716.702	0.0127067
716.780	0.0126633
716.858	0.0125826
716.936	0.0125198
717.014	0.0126649
717.092	0.0127597
717.170	0.0127608
717.249	0.0128432
717.327	0.0129387
717.405	0.0129945
717.483	0.0130047
717.561	0.0129679
717.639	0.0131445
717.717	0.0131240
717.795	0.0131450
717.874	0.0132637
717.952	0.0131022
718.030	0.0130361
718.108	0.0132353
718.186	0.0131393
718.264	0.0129216
718.342	0.0130188
718.420	0.0129910
718.499	0.0128616
718.577	0.0128005
718.655	0.0128071
718.733	0.0126772
718.811	0.0127339
718.889	0.0127419
718.967	0.0126131
719.045	0.0127028
719.124	0.0126884
719.202	0.0126342
719.280	0.0125141
719.358	0.0126919
719.436	0.0126788
719.514	0.0128732
719.592	0.0129044
719.670	0.0128799
719.749	0.0129749
719.827	0.0129913
719.905	0.0130893
719.983	0.0132174
720.061	0.0132648
720.139	0.0132552
720.217	0.0133217
720.295	0.0133075
720.374	0.0132524
720.452	0.0132195
720.530	0.0133524
720.608	0.0133932
720.686	0.0131467
720.764	0.0131111
720.842	0.0131029
720.920	0.0127519
720.999	0.0127820
721.077	0.0129048
721.155	0.0127165
721.233	0.0127150
721.311	0.0126488
721.389	0.0127196
721.467	0.0127869
721.545	0.0127341
721.624	0.0128945
721.702	0.0128815
721.780	0.0130896
721.858	0.0131294
721.936	0.0130688
722.014	0.0133470
722.092	0.0134024
722.170	0.0132314
722.249	0.0134357
722.327	0.0135232
722.405	0.0134836
722.483	0.0135084
722.561	0.0135328
722.639	0.0134180
722.717	0.0132416
722.795	0.0131176
722.874	0.0130634
722.952	0.0129364
723.030	0.0127081
723.108	0.0123779
723.186	0.0123891
723.264	0.0123276
723.342	0.0122431
723.420	0.0119693
723.499	0.0120275
723.577	0.0119765
723.655	0.0118774
723.733	0.0118026
723.811	0.0118755
723.889	0.0121533
723.967	0.0120461
724.045	0.0122448
724.124	0.0123253
724.202	0.0125577
724.280	0.0126247
724.358	0.0127644
724.436	0.0127899
724.514	0.0130711
724.592	0.0132681
724.670	0.0135170
724.749	0.0136132
724.827	0.0137134
724.905	0.0137491
724.983	0.0138082
725.061	0.0137376
725.139	0.0138522
725.217	0.0138643
725.295	0.0136782
725.374	0.0136398
725.452	0.0134389
725.530	0.0133717
725.608	0.0133284
725.686	0.0131203
725.764	0.0130271
725.842	0.0128857
725.920	0.0129213
725.999	0.0128075
726.077	0.0127290
726.155	0.0126330
726.233	0.0126340
726.311	0.0125943
726.389	0.0126400
726.467	0.0127054
726.545	0.0126611
726.624	0.0128859
726.702	0.0127119
726.780	0.0128088
726.858	0.0127543
726.936	0.0127497
727.014	0.0126311
727.092	0.0126355
727.170	0.0126262
727.249	0.0125644
727.327	0.0123624
727.405	0.0122211
727.483	0.0120905
727.561	0.0120890
727.639	0.0121646
727.717	0.0120670
727.795	0.0120107
727.874	0.0121096
727.952	0.0122202
728.030	0.0121630
728.108	0.0125332
728.186	0.0126295
728.264	0.0127094
728.342	0.0128830
728.420	0.0130512
728.499	0.0132426
728.577	0.0132926
728.655	0.0134383
728.733	0.0136358
728.811	0.0133759
728.889	0.0134206
728.967	0.0133754
729.045	0.0132629
729.124	0.0132281
729.202	0.0132187
729.280	0.0129377
729.358	0.0127595
729.436	0.0127117
729.514	0.0125105
729.592	0.0126781
729.670	0.0124976
729.749	0.0125199
729.827	0.0124854
729.905	0.0125507
729.983	0.0125252
730.061	0.0124345
730.139	0.0125444
730.217	0.0126604
730.295	0.0126564
730.374	0.0125703
730.452	0.0124869
730.530	0.0125723
730.608	0.0126286
730.686	0.0126650
730.764	0.0126601
730.842	0.0127415
730.920	0.0129049
730.999	0.0129256
731.077	0.0126734
731.155	0.0128453
731.233	0.0129649
731.311	0.0129522
731.389	0.0129250
731.467	0.0127835
731.545	0.0128845
731.624	0.0128870
731.702	0.0130374
731.780	0.0129655
731.858	0.0129636
731.936	0.0126909
732.014	0.0126608
732.092	0.0126736
732.170	0.0127829
732.249	0.0126662
732.327	0.0126950
732.405	0.0127473
732.483	0.0127889
732.561	0.0127097
732.639	0.0129226
732.717	0.0127766
732.795	0.0129105
732.874	0.0129715
732.952	0.0130042
733.030	0.0130627
733.108	0.0129990
733.186	0.0131997
733.264	0.0132231
733.342	0.0131499
733.420	0.0132466
733.499	0.0132090
733.577	0.0131969
733.655	0.0132054
733.733	0.0131635
733.811	0.0130049
733.889	0.0130898
733.967	0.0130035
734.045	0.0128611
734.124	0.0127046
734.202	0.0127190
734.280	0.0125121
734.358	0.0125031
734.436	0.0125211
734.514	0.0123353
734.592	0.0123328
734.670	0.0122383
734.749	0.0122826
734.827	0.0121364
734.905	0.0121938
734.983	0.0123470
735.061	0.0123294
735.139	0.0124082
735.217	0.0123713
735.295	0.0124890
735.374	0.0126692
735.452	0.0126254
735.530	0.0126189
735.608	0.0127713
