05/08/2022	20:12:36	Ver.	4.1	UNKNOWN
Optical Delay	600.015094	Delta X		0.078125	Sweeps	1	Scan Rate	0/0
Coordinates	Axis 1	NaN	Axis 2	NaN	Axis 3	NaN	Axis 4	NaN	Axis 5	NaN	Axis 6	0.000000
TX Power	0.000000	RX Power	0.000000

600.015	0.0130628
600.093	0.0128288
600.171	0.0129530
600.249	0.0129775
600.328	0.0129568
600.406	0.0128438
600.484	0.0130656
600.562	0.0129652
600.640	0.0128722
600.718	0.0129066
600.796	0.0129880
600.874	0.0128863
600.953	0.0127840
601.031	0.0128254
601.109	0.0128471
601.187	0.0128731
601.265	0.0129505
601.343	0.0128936
601.421	0.0128854
601.499	0.0128965
601.578	0.0129384
601.656	0.0128274
601.734	0.0129058
601.812	0.0127110
601.890	0.0129550
601.968	0.0129021
602.046	0.0129517
602.124	0.0129789
602.203	0.0129876
602.281	0.0129512
602.359	0.0128732
602.437	0.0128023
602.515	0.0130283
602.593	0.0129197
602.671	0.0128532
602.749	0.0128767
602.828	0.0130455
602.906	0.0128724
602.984	0.0127477
603.062	0.0130005
603.140	0.0130225
603.218	0.0129471
603.296	0.0128325
603.374	0.0130419
603.453	0.0130820
603.531	0.0130167
603.609	0.0129440
603.687	0.0131033
603.765	0.0130861
603.843	0.0129607
603.921	0.0129388
603.999	0.0129427
604.078	0.0130016
604.156	0.0129390
604.234	0.0129089
604.312	0.0128632
604.390	0.0129095
604.468	0.0129416
604.546	0.0129613
604.624	0.0129848
604.703	0.0128190
604.781	0.0129216
604.859	0.0129661
604.937	0.0129067
605.015	0.0129827
605.093	0.0128648
605.171	0.0129605
605.249	0.0130579
605.328	0.0128865
605.406	0.0129337
605.484	0.0131187
605.562	0.0129037
605.640	0.0129094
605.718	0.0128937
605.796	0.0129668
605.874	0.0129173
605.953	0.0128640
606.031	0.0129433
606.109	0.0129417
606.187	0.0128740
606.265	0.0129884
606.343	0.0129147
606.421	0.0128001
606.499	0.0128778
606.578	0.0129603
606.656	0.0128398
606.734	0.0129646
606.812	0.0129491
606.890	0.0129699
606.968	0.0129510
607.046	0.0128903
607.124	0.0129722
607.203	0.0130302
607.281	0.0128802
607.359	0.0129317
607.437	0.0130583
607.515	0.0131629
607.593	0.0129707
607.671	0.0131029
607.749	0.0131232
607.828	0.0131724
607.906	0.0131925
607.984	0.0130193
608.062	0.0131424
608.140	0.0131167
608.218	0.0132110
608.296	0.0130711
608.374	0.0131093
608.453	0.0130843
608.531	0.0132057
608.609	0.0130587
608.687	0.0130758
608.765	0.0129416
608.843	0.0130052
608.921	0.0130788
608.999	0.0130478
609.078	0.0131206
609.156	0.0131435
609.234	0.0130502
609.312	0.0131116
609.390	0.0130641
609.468	0.0131316
609.546	0.0131026
609.624	0.0130922
609.703	0.0132162
609.781	0.0132710
609.859	0.0130881
609.937	0.0130837
610.015	0.0130725
610.093	0.0130819
610.171	0.0130369
610.249	0.0130630
610.328	0.0130312
610.406	0.0130493
610.484	0.0129588
610.562	0.0130779
610.640	0.0130601
610.718	0.0129970
610.796	0.0130404
610.874	0.0130698
610.953	0.0129736
611.031	0.0129774
611.109	0.0131110
611.187	0.0130879
611.265	0.0130009
611.343	0.0130759
611.421	0.0130708
611.499	0.0130382
611.578	0.0129459
611.656	0.0130800
611.734	0.0130627
611.812	0.0130334
611.890	0.0130404
611.968	0.0130362
612.046	0.0130775
612.124	0.0129814
612.203	0.0130825
612.281	0.0130308
612.359	0.0129169
612.437	0.0130068
612.515	0.0129181
612.593	0.0130006
612.671	0.0130327
612.749	0.0130563
612.828	0.0131711
612.906	0.0130247
612.984	0.0129838
613.062	0.0128968
613.140	0.0130442
613.218	0.0130843
613.296	0.0131595
613.374	0.0130447
613.453	0.0130978
613.531	0.0130080
613.609	0.0129723
613.687	0.0130764
613.765	0.0130124
613.843	0.0130011
613.921	0.0132130
613.999	0.0131291
614.078	0.0131071
614.156	0.0132657
614.234	0.0132343
614.312	0.0131902
614.390	0.0131960
614.468	0.0132881
614.546	0.0132384
614.624	0.0131991
614.703	0.0133047
614.781	0.0132075
614.859	0.0133087
614.937	0.0132762
615.015	0.0132166
615.093	0.0131826
615.171	0.0132100
615.249	0.0132775
615.328	0.0132934
615.406	0.0132702
615.484	0.0132685
615.562	0.0133760
615.640	0.0132935
615.718	0.0132668
615.796	0.0133250
615.874	0.0132035
615.953	0.0132067
616.031	0.0131870
616.109	0.0133442
616.187	0.0132658
616.265	0.0131509
616.343	0.0131569
616.421	0.0132373
616.499	0.0132330
616.578	0.0132722
616.656	0.0132919
616.734	0.0132467
616.812	0.0132240
616.890	0.0132077
616.968	0.0131603
617.046	0.0131464
617.124	0.0132169
617.203	0.0131740
617.281	0.0132953
617.359	0.0131294
617.437	0.0131902
617.515	0.0131041
617.593	0.0131532
617.671	0.0132025
617.749	0.0131549
617.828	0.0130510
617.906	0.0130579
617.984	0.0130922
618.062	0.0129639
618.140	0.0130363
618.218	0.0131669
618.296	0.0130986
618.374	0.0130152
618.453	0.0130296
618.531	0.0130435
618.609	0.0130091
618.687	0.0130304
618.765	0.0129643
618.843	0.0130515
618.921	0.0132082
618.999	0.0130698
619.078	0.0129485
619.156	0.0128976
619.234	0.0130278
619.312	0.0129285
619.390	0.0129726
619.468	0.0130599
619.546	0.0128770
619.624	0.0129020
619.703	0.0130334
619.781	0.0129790
619.859	0.0129251
619.937	0.0128532
620.015	0.0127895
620.093	0.0128339
620.171	0.0128613
620.249	0.0128610
620.328	0.0130595
620.406	0.0129364
620.484	0.0127811
620.562	0.0128290
620.640	0.0130751
620.718	0.0129031
620.796	0.0128451
620.874	0.0127589
620.953	0.0128654
621.031	0.0127886
621.109	0.0129639
621.187	0.0128478
621.265	0.0129025
621.343	0.0127858
621.421	0.0128198
621.499	0.0127903
621.578	0.0128558
621.656	0.0128318
621.734	0.0127915
621.812	0.0129248
621.890	0.0128029
621.968	0.0128149
622.046	0.0129247
622.124	0.0129102
622.203	0.0128696
622.281	0.0129144
622.359	0.0126762
622.437	0.0128013
622.515	0.0127802
622.593	0.0127624
622.671	0.0127225
622.749	0.0127169
622.828	0.0126238
622.906	0.0128101
622.984	0.0129109
623.062	0.0128619
623.140	0.0127495
623.218	0.0126665
623.296	0.0127708
623.374	0.0127732
623.453	0.0127913
623.531	0.0127146
623.609	0.0126907
623.687	0.0129599
623.765	0.0126886
623.843	0.0126274
623.921	0.0126857
623.999	0.0127651
624.078	0.0127746
624.156	0.0127759
624.234	0.0127600
624.312	0.0128584
624.390	0.0128906
624.468	0.0126867
624.546	0.0127345
624.624	0.0128130
624.703	0.0127677
624.781	0.0128416
624.859	0.0126950
624.937	0.0127995
625.015	0.0128494
625.093	0.0129491
625.171	0.0128348
625.249	0.0127695
625.328	0.0127329
625.406	0.0128295
625.484	0.0128384
625.562	0.0127753
625.640	0.0128897
625.718	0.0129399
625.796	0.0128468
625.874	0.0128189
625.953	0.0128828
626.031	0.0129317
626.109	0.0129374
626.187	0.0129351
626.265	0.0127937
626.343	0.0128697
626.421	0.0129512
626.499	0.0129883
626.578	0.0128760
626.656	0.0129022
626.734	0.0129584
626.812	0.0128725
626.890	0.0129726
626.968	0.0127819
627.046	0.0129922
627.124	0.0129810
627.203	0.0129330
627.281	0.0129952
627.359	0.0129764
627.437	0.0129256
627.515	0.0128905
627.593	0.0129292
627.671	0.0130333
627.749	0.0129424
627.828	0.0129226
627.906	0.0131132
627.984	0.0130360
628.062	0.0129816
628.140	0.0129958
628.218	0.0129291
628.296	0.0129414
628.374	0.0129984
628.453	0.0129616
628.531	0.0130558
628.609	0.0129250
628.687	0.0129343
628.765	0.0128562
628.843	0.0129215
628.921	0.0129317
628.999	0.0129813
629.078	0.0131201
629.156	0.0129516
629.234	0.0129091
629.312	0.0128873
629.390	0.0129124
629.468	0.0129230
629.546	0.0129488
629.624	0.0128941
629.703	0.0128453
629.781	0.0130754
629.859	0.0130990
629.937	0.0128942
630.015	0.0130048
630.093	0.0131002
630.171	0.0129974
630.249	0.0129672
630.328	0.0129242
630.406	0.0130048
630.484	0.0129610
630.562	0.0129705
630.640	0.0130214
630.718	0.0129650
630.796	0.0128754
630.874	0.0129681
630.953	0.0129353
631.031	0.0129377
631.109	0.0129113
631.187	0.0129462
631.265	0.0129230
631.343	0.0129139
631.421	0.0128908
631.499	0.0129753
631.578	0.0130485
631.656	0.0128635
631.734	0.0128252
631.812	0.0127624
631.890	0.0129917
631.968	0.0129051
632.046	0.0129803
632.124	0.0128407
632.203	0.0129467
632.281	0.0129720
632.359	0.0129925
632.437	0.0129522
632.515	0.0129105
632.593	0.0128757
632.671	0.0129565
632.749	0.0129836
632.828	0.0128661
632.906	0.0129700
632.984	0.0129639
633.062	0.0126816
633.140	0.0129897
633.218	0.0129628
633.296	0.0128265
633.374	0.0128849
633.453	0.0129850
633.531	0.0127880
633.609	0.0129349
633.687	0.0128812
633.765	0.0129247
633.843	0.0127311
633.921	0.0129169
633.999	0.0128899
634.078	0.0128449
634.156	0.0128991
634.234	0.0130036
634.312	0.0127469
634.390	0.0128600
634.468	0.0128671
634.546	0.0129065
634.624	0.0129476
634.703	0.0128635
634.781	0.0130217
634.859	0.0129655
634.937	0.0128350
635.015	0.0128672
635.093	0.0129011
635.171	0.0128902
635.249	0.0129602
635.328	0.0129301
635.406	0.0128322
635.484	0.0127960
635.562	0.0129662
635.640	0.0128533
635.718	0.0128983
635.796	0.0129503
635.874	0.0128719
635.953	0.0129601
636.031	0.0128231
636.109	0.0128421
636.187	0.0130132
636.265	0.0129582
636.343	0.0128296
636.421	0.0129057
636.499	0.0129353
636.578	0.0129811
636.656	0.0129837
636.734	0.0130598
636.812	0.0129553
636.890	0.0130137
636.968	0.0129617
637.046	0.0130756
637.124	0.0130410
637.203	0.0129360
637.281	0.0130209
637.359	0.0129716
637.437	0.0130440
637.515	0.0130614
637.593	0.0129863
637.671	0.0130977
637.749	0.0130526
637.828	0.0131044
637.906	0.0129942
637.984	0.0129700
638.062	0.0131281
638.140	0.0131122
638.218	0.0131322
638.296	0.0130578
638.374	0.0131290
638.453	0.0131662
638.531	0.0130389
638.609	0.0129887
638.687	0.0129492
638.765	0.0131507
638.843	0.0130662
638.921	0.0129698
638.999	0.0130350
639.078	0.0130679
639.156	0.0131993
639.234	0.0131292
639.312	0.0131538
639.390	0.0130090
639.468	0.0130372
639.546	0.0130424
639.624	0.0130760
639.703	0.0130137
639.781	0.0130064
639.859	0.0132051
639.937	0.0131193
640.015	0.0130139
640.093	0.0129524
640.171	0.0129781
640.249	0.0128416
640.328	0.0129690
640.406	0.0129899
640.484	0.0130425
640.562	0.0130304
640.640	0.0129678
640.718	0.0129829
640.796	0.0130405
640.874	0.0130132
640.953	0.0130149
641.031	0.0130154
641.109	0.0129020
641.187	0.0129768
641.265	0.0129642
641.343	0.0130732
641.421	0.0128442
641.499	0.0129590
641.578	0.0129507
641.656	0.0129977
641.734	0.0129074
641.812	0.0128336
641.890	0.0129842
641.968	0.0128269
642.046	0.0129814
642.124	0.0129135
642.203	0.0127065
642.281	0.0128424
642.359	0.0127221
642.437	0.0129039
642.515	0.0128077
642.593	0.0128880
642.671	0.0128261
642.749	0.0128827
642.828	0.0129379
642.906	0.0130081
642.984	0.0130314
643.062	0.0130309
643.140	0.0128867
643.218	0.0130696
643.296	0.0130322
643.374	0.0130120
643.453	0.0130141
643.531	0.0129364
643.609	0.0130259
643.687	0.0130937
643.765	0.0129842
643.843	0.0131166
643.921	0.0130486
643.999	0.0130001
644.078	0.0130035
644.156	0.0129877
644.234	0.0129444
644.312	0.0129214
644.390	0.0127119
644.468	0.0127303
644.546	0.0127732
644.624	0.0127622
644.703	0.0128155
644.781	0.0126698
644.859	0.0127938
644.937	0.0127781
645.015	0.0127628
645.093	0.0128030
645.171	0.0129564
645.249	0.0130530
645.328	0.0129391
645.406	0.0129723
645.484	0.0129961
645.562	0.0130644
645.640	0.0130157
645.718	0.0131063
645.796	0.0131818
645.874	0.0130898
645.953	0.0131050
646.031	0.0131322
646.109	0.0130812
646.187	0.0131738
646.265	0.0130862
646.343	0.0131335
646.421	0.0129620
646.499	0.0129433
646.578	0.0129167
646.656	0.0128127
646.734	0.0128432
646.812	0.0127797
646.890	0.0126085
646.968	0.0127197
647.046	0.0127256
647.124	0.0127516
647.203	0.0126858
647.281	0.0125882
647.359	0.0126128
647.437	0.0126984
647.515	0.0127496
647.593	0.0128710
647.671	0.0129248
647.749	0.0128901
647.828	0.0128598
647.906	0.0129960
647.984	0.0131664
648.062	0.0131971
648.140	0.0131513
648.218	0.0132030
648.296	0.0132024
648.374	0.0132365
648.453	0.0131799
648.531	0.0132607
648.609	0.0130074
648.687	0.0131342
648.765	0.0129630
648.843	0.0129739
648.921	0.0130016
648.999	0.0129025
649.078	0.0129369
649.156	0.0128336
649.234	0.0126804
649.312	0.0126937
649.390	0.0126813
649.468	0.0125347
649.546	0.0124629
649.624	0.0124526
649.703	0.0124738
649.781	0.0124964
649.859	0.0124229
649.937	0.0124641
650.015	0.0123901
650.093	0.0124318
650.171	0.0125344
650.249	0.0124765
650.328	0.0126151
650.406	0.0127802
650.484	0.0129053
650.562	0.0130171
650.640	0.0130553
650.718	0.0131571
650.796	0.0132990
650.874	0.0132598
650.953	0.0133855
651.031	0.0134923
651.109	0.0135380
651.187	0.0135590
651.265	0.0135277
651.343	0.0136062
651.421	0.0135984
651.499	0.0137370
651.578	0.0135897
651.656	0.0133739
651.734	0.0133560
651.812	0.0130734
651.890	0.0129831
651.968	0.0128111
652.046	0.0124905
652.124	0.0123730
652.203	0.0121840
652.281	0.0118938
652.359	0.0117944
652.437	0.0117739
652.515	0.0114876
652.593	0.0113719
652.671	0.0114625
652.749	0.0114276
652.828	0.0114455
652.906	0.0116395
652.984	0.0116515
653.062	0.0115895
653.140	0.0116343
653.218	0.0119347
653.296	0.0121111
653.374	0.0122306
653.453	0.0123423
653.531	0.0125794
653.609	0.0128484
653.687	0.0130314
653.765	0.0132524
653.843	0.0136145
653.921	0.0136024
653.999	0.0138861
654.078	0.0138746
654.156	0.0140414
654.234	0.0142599
654.312	0.0142456
654.390	0.0144188
654.468	0.0145045
654.546	0.0142156
654.624	0.0141190
654.703	0.0142194
654.781	0.0140529
654.859	0.0139069
654.937	0.0138084
655.015	0.0136691
655.093	0.0135828
655.171	0.0133208
655.249	0.0132043
655.328	0.0130702
655.406	0.0129368
655.484	0.0128150
655.562	0.0127471
655.640	0.0126028
655.718	0.0125729
655.796	0.0124908
655.874	0.0123637
655.953	0.0122665
656.031	0.0122360
656.109	0.0123017
656.187	0.0122810
656.265	0.0122587
656.343	0.0121867
656.421	0.0121892
656.499	0.0121666
656.578	0.0120897
656.656	0.0121668
656.734	0.0121183
656.812	0.0120551
656.890	0.0121708
656.968	0.0121207
657.046	0.0121789
657.124	0.0123263
657.203	0.0122166
657.281	0.0124290
657.359	0.0124368
657.437	0.0125797
657.515	0.0128707
657.593	0.0129961
657.671	0.0131179
657.749	0.0132564
657.828	0.0135954
657.906	0.0138518
657.984	0.0138694
658.062	0.0139156
658.140	0.0141485
658.218	0.0142767
658.296	0.0142143
658.374	0.0143607
658.453	0.0143336
658.531	0.0145967
658.609	0.0145370
658.687	0.0145001
658.765	0.0145286
658.843	0.0144720
658.921	0.0144962
658.999	0.0144424
659.078	0.0142774
659.156	0.0141788
659.234	0.0140010
659.312	0.0137797
659.390	0.0138204
659.468	0.0136744
659.546	0.0134393
659.624	0.0131868
659.703	0.0131499
659.781	0.0130787
659.859	0.0129330
659.937	0.0126871
660.015	0.0125526
660.093	0.0123832
660.171	0.0122705
660.249	0.0120473
660.328	0.0119374
660.406	0.0118723
660.484	0.0116678
660.562	0.0114932
660.640	0.0112585
660.718	0.0110830
660.796	0.0111124
660.874	0.0110406
660.953	0.0109652
661.031	0.0109817
661.109	0.0112128
661.187	0.0110966
661.265	0.0110424
661.343	0.0111860
661.421	0.0111671
661.499	0.0112720
661.578	0.0116248
661.656	0.0118150
661.734	0.0120030
661.812	0.0124380
661.890	0.0125066
661.968	0.0128531
662.046	0.0132465
662.124	0.0134902
662.203	0.0137648
662.281	0.0140441
662.359	0.0143621
662.437	0.0146677
662.515	0.0146825
662.593	0.0149920
662.671	0.0150752
662.749	0.0152383
662.828	0.0153822
662.906	0.0152221
662.984	0.0149913
663.062	0.0151614
663.140	0.0149652
663.218	0.0149398
663.296	0.0145951
663.374	0.0142365
663.453	0.0140403
663.531	0.0140081
663.609	0.0136577
663.687	0.0133954
663.765	0.0130857
663.843	0.0129964
663.921	0.0126969
663.999	0.0124979
664.078	0.0122498
664.156	0.0120397
664.234	0.0117739
664.312	0.0114769
664.390	0.0116700
664.468	0.0113268
664.546	0.0112665
664.624	0.0113589
664.703	0.0112453
664.781	0.0111906
664.859	0.0114052
664.937	0.0114957
665.015	0.0114230
665.093	0.0116114
665.171	0.0115491
665.249	0.0118050
665.328	0.0118573
665.406	0.0119553
665.484	0.0120741
665.562	0.0120850
665.640	0.0121904
665.718	0.0121454
665.796	0.0122966
665.874	0.0124111
665.953	0.0123595
666.031	0.0124386
666.109	0.0124127
666.187	0.0123882
666.265	0.0125635
666.343	0.0126802
666.421	0.0127733
666.499	0.0128355
666.578	0.0127883
666.656	0.0129749
666.734	0.0130933
666.812	0.0132382
666.890	0.0133633
666.968	0.0135411
667.046	0.0136041
667.124	0.0137103
667.203	0.0138564
667.281	0.0140489
667.359	0.0141064
667.437	0.0141563
667.515	0.0143717
667.593	0.0146316
667.671	0.0145912
667.749	0.0146184
667.828	0.0147982
667.906	0.0149095
667.984	0.0149665
668.062	0.0148830
668.140	0.0149324
668.218	0.0149302
668.296	0.0148291
668.374	0.0147565
668.453	0.0145811
668.531	0.0145285
668.609	0.0145010
668.687	0.0142856
668.765	0.0141657
668.843	0.0138757
668.921	0.0137286
668.999	0.0134907
669.078	0.0133363
669.156	0.0129479
669.234	0.0128186
669.312	0.0126010
669.390	0.0123956
669.468	0.0120883
669.546	0.0117237
669.624	0.0115180
669.703	0.0112493
669.781	0.0109001
669.859	0.0109318
669.937	0.0106775
670.015	0.0104079
670.093	0.0104904
670.171	0.0102205
670.249	0.0102480
670.328	0.0101564
670.406	0.0102344
670.484	0.0102988
670.562	0.0104294
670.640	0.0105678
670.718	0.0107282
670.796	0.0110325
670.874	0.0112606
670.953	0.0114975
671.031	0.0118634
671.109	0.0123151
671.187	0.0124548
671.265	0.0128479
671.343	0.0133028
671.421	0.0135406
671.499	0.0138351
671.578	0.0141978
671.656	0.0143197
671.734	0.0145049
671.812	0.0149001
671.890	0.0150077
671.968	0.0151505
672.046	0.0152927
672.124	0.0153338
672.203	0.0154045
672.281	0.0154846
672.359	0.0155919
672.437	0.0155228
672.515	0.0156915
672.593	0.0156587
672.671	0.0155074
672.749	0.0155533
672.828	0.0154346
672.906	0.0153149
672.984	0.0153368
673.062	0.0149917
673.140	0.0147150
673.218	0.0145232
673.296	0.0141624
673.374	0.0139619
673.453	0.0135471
673.531	0.0131290
673.609	0.0128064
673.687	0.0125291
673.765	0.0121369
673.843	0.0118753
673.921	0.0116386
673.999	0.0114568
674.078	0.0109899
674.156	0.0108258
674.234	0.0107501
674.312	0.0107371
674.390	0.0106398
674.468	0.0106371
674.546	0.0106297
674.624	0.0107457
674.703	0.0106980
674.781	0.0107291
674.859	0.0107475
674.937	0.0108946
675.015	0.0109392
675.093	0.0111005
675.171	0.0111042
675.249	0.0113073
675.328	0.0114579
675.406	0.0115408
675.484	0.0115511
675.562	0.0116837
675.640	0.0117898
675.718	0.0120069
675.796	0.0122742
675.874	0.0124560
675.953	0.0127026
676.031	0.0127316
676.109	0.0130322
676.187	0.0134672
676.265	0.0135594
676.343	0.0140587
676.421	0.0144908
676.499	0.0146207
676.578	0.0148092
676.656	0.0151118
676.734	0.0152512
676.812	0.0151816
676.890	0.0153060
676.968	0.0153296
677.046	0.0152678
677.124	0.0151579
677.203	0.0150640
677.281	0.0147993
677.359	0.0147662
677.437	0.0146264
677.515	0.0141741
677.593	0.0140991
677.671	0.0139841
677.749	0.0138388
677.828	0.0135255
677.906	0.0133311
677.984	0.0132798
678.062	0.0132601
678.140	0.0131100
678.218	0.0128176
678.296	0.0126938
678.374	0.0126994
678.453	0.0125459
678.531	0.0126710
678.609	0.0125671
678.687	0.0124151
678.765	0.0124597
678.843	0.0123920
678.921	0.0123853
678.999	0.0123471
679.078	0.0123984
679.156	0.0124107
679.234	0.0123370
679.312	0.0124438
679.390	0.0126179
679.468	0.0127959
679.546	0.0126684
679.624	0.0128441
679.703	0.0128383
679.781	0.0129350
679.859	0.0128270
679.937	0.0127003
680.015	0.0128725
680.093	0.0129414
680.171	0.0129528
680.249	0.0129170
680.328	0.0127762
680.406	0.0127827
680.484	0.0126128
680.562	0.0126307
680.640	0.0125414
680.718	0.0125192
680.796	0.0124819
680.874	0.0123099
680.953	0.0123125
681.031	0.0123596
681.109	0.0123699
681.187	0.0124889
681.265	0.0123614
681.343	0.0123956
681.421	0.0125790
681.499	0.0126362
681.578	0.0127873
681.656	0.0129585
681.734	0.0133003
681.812	0.0133987
681.890	0.0133643
681.968	0.0135987
682.046	0.0137790
682.124	0.0139622
682.203	0.0139917
682.281	0.0140470
682.359	0.0140669
682.437	0.0141970
682.515	0.0141075
682.593	0.0142813
682.671	0.0142239
682.749	0.0142448
682.828	0.0140705
682.906	0.0141030
682.984	0.0139622
683.062	0.0137607
683.140	0.0135779
683.218	0.0133791
683.296	0.0134124
683.374	0.0132848
683.453	0.0131574
683.531	0.0129253
683.609	0.0127952
683.687	0.0128314
683.765	0.0126414
683.843	0.0126571
683.921	0.0128640
683.999	0.0127456
684.078	0.0126265
684.156	0.0126656
684.234	0.0127058
684.312	0.0127769
684.390	0.0126958
684.468	0.0126988
684.546	0.0125283
684.624	0.0124734
684.703	0.0124635
684.781	0.0125494
684.859	0.0124591
684.937	0.0124180
685.015	0.0125013
685.093	0.0123631
685.171	0.0126412
685.249	0.0125443
685.328	0.0125858
685.406	0.0126609
685.484	0.0125143
685.562	0.0126750
685.640	0.0127369
685.718	0.0125716
