05/14/2022	19:35:21	Ver.	4.1	UNKNOWN
Optical Delay	650.009681	Delta X		0.078125	Sweeps	1	Scan Rate	0/0
Coordinates	Axis 1	NaN	Axis 2	NaN	Axis 3	NaN	Axis 4	NaN	Axis 5	NaN	Axis 6	0.000000
TX Power	0.000000	RX Power	0.000000

650.010	0.0145182
650.088	0.0144569
650.166	0.0143941
650.244	0.0143867
650.322	0.0145293
650.400	0.0142445
650.478	0.0141499
650.557	0.0142366
650.635	0.0143212
650.713	0.0143230
650.791	0.0143182
650.869	0.0143358
650.947	0.0142342
651.025	0.0142569
651.103	0.0143210
651.182	0.0143141
651.260	0.0144524
651.338	0.0143073
651.416	0.0142812
651.494	0.0143773
651.572	0.0142950
651.650	0.0142916
651.728	0.0143279
651.807	0.0143352
651.885	0.0142915
651.963	0.0144934
652.041	0.0143430
652.119	0.0142883
652.197	0.0143872
652.275	0.0143096
652.353	0.0141277
652.432	0.0142971
652.510	0.0143236
652.588	0.0142630
652.666	0.0144016
652.744	0.0142735
652.822	0.0143428
652.900	0.0144269
652.978	0.0142982
653.057	0.0143627
653.135	0.0141807
653.213	0.0142944
653.291	0.0141945
653.369	0.0142165
653.447	0.0142823
653.525	0.0142632
653.603	0.0142738
653.682	0.0142746
653.760	0.0143839
653.838	0.0144117
653.916	0.0144380
653.994	0.0144509
654.072	0.0144724
654.150	0.0143267
654.228	0.0143920
654.307	0.0145442
654.385	0.0144741
654.463	0.0143914
654.541	0.0144057
654.619	0.0145300
654.697	0.0143655
654.775	0.0143550
654.853	0.0144898
654.932	0.0143614
655.010	0.0144781
655.088	0.0144355
655.166	0.0144232
655.244	0.0143455
655.322	0.0143914
655.400	0.0143875
655.478	0.0144200
655.557	0.0143002
655.635	0.0142813
655.713	0.0143672
655.791	0.0142110
655.869	0.0140617
655.947	0.0142449
656.025	0.0141051
656.103	0.0141230
656.182	0.0142742
656.260	0.0142578
656.338	0.0141943
656.416	0.0143376
656.494	0.0143604
656.572	0.0143812
656.650	0.0144079
656.728	0.0144080
656.807	0.0146256
656.885	0.0144923
656.963	0.0145554
657.041	0.0144672
657.119	0.0143546
657.197	0.0144022
657.275	0.0142626
657.353	0.0143269
657.432	0.0142683
657.510	0.0141643
657.588	0.0142231
657.666	0.0142739
657.744	0.0144099
657.822	0.0143394
657.900	0.0142077
657.978	0.0142601
658.057	0.0143426
658.135	0.0142628
658.213	0.0144223
658.291	0.0144330
658.369	0.0145000
658.447	0.0146097
658.525	0.0143853
658.603	0.0144743
658.682	0.0146452
658.760	0.0146027
658.838	0.0144118
658.916	0.0143996
658.994	0.0143999
659.072	0.0145926
659.150	0.0144646
659.228	0.0144720
659.307	0.0144424
659.385	0.0144896
659.463	0.0144530
659.541	0.0143457
659.619	0.0145574
659.697	0.0144917
659.775	0.0145950
659.853	0.0145680
659.932	0.0144833
660.010	0.0145684
660.088	0.0146623
660.166	0.0146482
660.244	0.0146857
660.322	0.0147561
660.400	0.0147890
660.478	0.0148600
660.557	0.0146854
660.635	0.0148339
660.713	0.0146794
660.791	0.0147066
660.869	0.0146723
660.947	0.0146285
661.025	0.0145635
661.103	0.0142818
661.182	0.0142561
661.260	0.0141101
661.338	0.0140190
661.416	0.0140112
661.494	0.0139439
661.572	0.0139416
661.650	0.0138239
661.728	0.0137347
661.807	0.0136578
661.885	0.0137871
661.963	0.0139185
662.041	0.0139806
662.119	0.0139034
662.197	0.0141761
662.275	0.0141862
662.353	0.0143081
662.432	0.0143990
662.510	0.0145431
662.588	0.0145449
662.666	0.0146798
662.744	0.0148593
662.822	0.0148909
662.900	0.0149883
662.978	0.0151776
663.057	0.0154633
663.135	0.0154211
663.213	0.0156638
663.291	0.0157392
663.369	0.0156767
663.447	0.0156480
663.525	0.0159210
663.603	0.0156445
663.682	0.0154990
663.760	0.0155753
663.838	0.0154910
663.916	0.0151124
663.994	0.0150571
664.072	0.0148055
664.150	0.0145283
664.228	0.0141656
664.307	0.0140397
664.385	0.0136592
664.463	0.0135844
664.541	0.0136214
664.619	0.0131532
664.697	0.0129266
664.775	0.0129649
664.853	0.0128580
664.932	0.0127332
665.010	0.0125753
665.088	0.0125217
665.166	0.0124727
665.244	0.0124271
665.322	0.0124526
665.400	0.0126547
665.478	0.0129024
665.557	0.0129881
665.635	0.0132236
665.713	0.0134784
665.791	0.0137140
665.869	0.0141335
665.947	0.0145686
666.025	0.0148576
666.103	0.0153368
666.182	0.0157294
666.260	0.0160406
666.338	0.0163509
666.416	0.0167532
666.494	0.0170097
666.572	0.0173367
666.650	0.0173822
666.728	0.0177058
666.807	0.0177544
666.885	0.0176617
666.963	0.0176865
667.041	0.0174660
667.119	0.0171419
667.197	0.0169644
667.275	0.0165450
667.353	0.0161331
667.432	0.0158102
667.510	0.0153728
667.588	0.0147029
667.666	0.0141610
667.744	0.0135809
667.822	0.0131045
667.900	0.0128045
667.978	0.0120400
668.057	0.0116305
668.135	0.0114901
668.213	0.0111930
668.291	0.0109486
668.369	0.0106894
668.447	0.0107161
668.525	0.0106030
668.603	0.0105456
668.682	0.0109002
668.760	0.0109911
668.838	0.0112649
668.916	0.0116484
668.994	0.0121860
669.072	0.0126365
669.150	0.0131525
669.228	0.0136045
669.307	0.0142984
669.385	0.0149545
669.463	0.0154387
669.541	0.0160020
669.619	0.0165344
669.697	0.0173460
669.775	0.0177240
669.853	0.0179684
669.932	0.0184446
670.010	0.0187901
670.088	0.0190099
670.166	0.0190874
670.244	0.0190852
670.322	0.0191168
670.400	0.0189271
670.478	0.0188570
670.557	0.0185984
670.635	0.0181943
670.713	0.0178223
670.791	0.0172353
670.869	0.0167239
670.947	0.0160538
671.025	0.0154976
671.103	0.0148459
671.182	0.0141650
671.260	0.0135714
671.338	0.0129087
671.416	0.0123438
671.494	0.0118499
671.572	0.0113384
671.650	0.0108023
671.728	0.0106553
671.807	0.0103575
671.885	0.0102083
671.963	0.00984940
672.041	0.00985237
672.119	0.00993317
672.197	0.0103729
672.275	0.0104755
672.353	0.0106744
672.432	0.0110391
672.510	0.0114285
672.588	0.0118595
672.666	0.0122932
672.744	0.0129644
672.822	0.0134724
672.900	0.0138544
672.978	0.0143875
673.057	0.0148402
673.135	0.0152264
673.213	0.0157457
673.291	0.0160358
673.369	0.0163721
673.447	0.0166889
673.525	0.0167696
673.603	0.0168021
673.682	0.0169077
673.760	0.0170067
673.838	0.0169264
673.916	0.0168312
673.994	0.0167005
674.072	0.0165814
674.150	0.0164780
674.228	0.0161794
674.307	0.0159830
674.385	0.0157493
674.463	0.0155826
674.541	0.0152959
674.619	0.0151754
674.697	0.0149139
674.775	0.0149232
674.853	0.0147665
674.932	0.0146613
675.010	0.0144394
675.088	0.0144312
675.166	0.0146088
675.244	0.0145159
675.322	0.0145780
675.400	0.0147153
675.478	0.0147972
675.557	0.0149459
675.635	0.0152005
675.713	0.0151256
675.791	0.0150060
675.869	0.0150351
675.947	0.0149287
676.025	0.0147093
676.103	0.0145107
676.182	0.0143279
676.260	0.0140852
676.338	0.0138126
676.416	0.0134592
676.494	0.0131322
676.572	0.0129401
676.650	0.0126633
676.728	0.0123126
676.807	0.0120374
676.885	0.0119275
676.963	0.0117672
677.041	0.0114447
677.119	0.0114861
677.197	0.0115519
677.275	0.0115940
677.353	0.0116071
677.432	0.0116500
677.510	0.0117690
677.588	0.0121480
677.666	0.0123883
677.744	0.0125786
677.822	0.0131085
677.900	0.0135069
677.978	0.0137424
678.057	0.0142754
678.135	0.0147019
678.213	0.0152808
678.291	0.0158757
678.369	0.0162761
678.447	0.0166234
678.525	0.0171327
678.603	0.0175988
678.682	0.0177685
678.760	0.0182414
678.838	0.0184829
678.916	0.0186634
678.994	0.0186847
679.072	0.0185949
679.150	0.0185382
679.228	0.0183021
679.307	0.0180000
679.385	0.0176412
679.463	0.0174557
679.541	0.0171773
679.619	0.0165823
679.697	0.0162061
679.775	0.0158632
679.853	0.0154234
679.932	0.0149353
680.010	0.0145126
680.088	0.0140762
680.166	0.0136963
680.244	0.0131382
680.322	0.0126791
680.400	0.0123971
680.478	0.0121987
680.557	0.0118121
680.635	0.0114488
680.713	0.0112358
680.791	0.0113287
680.869	0.0111782
680.947	0.0111178
681.025	0.0109956
681.103	0.0111034
681.182	0.0114674
681.260	0.0113661
681.338	0.0116119
681.416	0.0119246
681.494	0.0121877
681.572	0.0123274
681.650	0.0125315
681.728	0.0129202
681.807	0.0131934
681.885	0.0134798
681.963	0.0138907
682.041	0.0143168
682.119	0.0145124
682.197	0.0148819
682.275	0.0151328
682.353	0.0156537
682.432	0.0158154
682.510	0.0161211
682.588	0.0164683
682.666	0.0167693
682.744	0.0169434
682.822	0.0173341
682.900	0.0174005
682.978	0.0175394
683.057	0.0175618
683.135	0.0175695
683.213	0.0175905
683.291	0.0174198
683.369	0.0172341
683.447	0.0170408
683.525	0.0168022
683.603	0.0164790
683.682	0.0161663
683.760	0.0156910
683.838	0.0151944
683.916	0.0148333
683.994	0.0143469
684.072	0.0139695
684.150	0.0135130
684.228	0.0132580
684.307	0.0128233
684.385	0.0124624
684.463	0.0122028
684.541	0.0122108
684.619	0.0120633
684.697	0.0119582
684.775	0.0117371
684.853	0.0116367
684.932	0.0117861
685.010	0.0119552
685.088	0.0119073
685.166	0.0120947
685.244	0.0122455
685.322	0.0125573
685.400	0.0128829
685.478	0.0130953
685.557	0.0133429
685.635	0.0136221
685.713	0.0138515
685.791	0.0144550
685.869	0.0146985
685.947	0.0149506
686.025	0.0153854
686.103	0.0155705
686.182	0.0159350
686.260	0.0159209
686.338	0.0161728
686.416	0.0163166
686.494	0.0163781
686.572	0.0164440
686.650	0.0162718
686.728	0.0163171
686.807	0.0161360
686.885	0.0159476
686.963	0.0158283
687.041	0.0154104
687.119	0.0151202
687.197	0.0150037
687.275	0.0147178
687.353	0.0143243
687.432	0.0142161
687.510	0.0140729
687.588	0.0139481
687.666	0.0137045
687.744	0.0136705
687.822	0.0135430
687.900	0.0136466
687.978	0.0135773
688.057	0.0136195
688.135	0.0134957
688.213	0.0134285
688.291	0.0134542
688.369	0.0136428
688.447	0.0137043
688.525	0.0137633
688.603	0.0137247
688.682	0.0138527
688.760	0.0137827
688.838	0.0139973
688.916	0.0141789
688.994	0.0140459
689.072	0.0140791
689.150	0.0143077
689.228	0.0143806
689.307	0.0144196
689.385	0.0143262
689.463	0.0144773
689.541	0.0145105
689.619	0.0145629
689.697	0.0144286
689.775	0.0144157
689.853	0.0144757
689.932	0.0145422
690.010	0.0145160
690.088	0.0145052
690.166	0.0145927
690.244	0.0146059
690.322	0.0144749
690.400	0.0146748
690.478	0.0146631
690.557	0.0147019
690.635	0.0148917
690.713	0.0149683
690.791	0.0150474
690.869	0.0149544
690.947	0.0151875
691.025	0.0153299
691.103	0.0152795
691.182	0.0152646
691.260	0.0153174
691.338	0.0152521
691.416	0.0151775
691.494	0.0152888
691.572	0.0152596
691.650	0.0150453
691.728	0.0151204
691.807	0.0150521
691.885	0.0148367
691.963	0.0149142
692.041	0.0148652
692.119	0.0146371
692.197	0.0145650
692.275	0.0144051
692.353	0.0143098
692.432	0.0143073
692.510	0.0141083
692.588	0.0140579
692.666	0.0139323
692.744	0.0139011
692.822	0.0138838
692.900	0.0137070
692.978	0.0136496
693.057	0.0136066
693.135	0.0135538
693.213	0.0136027
693.291	0.0138046
693.369	0.0138596
693.447	0.0138599
693.525	0.0139127
693.603	0.0140734
693.682	0.0140755
693.760	0.0142482
693.838	0.0143008
693.916	0.0144660
693.994	0.0146403
694.072	0.0146716
694.150	0.0145136
694.228	0.0145830
694.307	0.0147141
694.385	0.0146637
694.463	0.0147022
694.541	0.0144947
694.619	0.0144875
694.697	0.0143814
694.775	0.0143171
694.853	0.0141312
694.932	0.0141554
695.010	0.0139256
695.088	0.0140358
695.166	0.0139898
695.244	0.0139523
695.322	0.0139207
695.400	0.0141013
695.478	0.0139938
695.557	0.0141242
695.635	0.0140388
695.713	0.0140475
695.791	0.0141895
695.869	0.0143213
695.947	0.0144723
696.025	0.0143324
696.103	0.0143507
696.182	0.0143269
696.260	0.0143645
696.338	0.0142315
696.416	0.0143363
696.494	0.0142757
696.572	0.0144115
696.650	0.0142815
696.728	0.0143584
696.807	0.0145335
696.885	0.0144810
696.963	0.0147160
697.041	0.0146783
697.119	0.0147827
697.197	0.0148354
697.275	0.0150160
697.353	0.0151260
697.432	0.0151521
697.510	0.0152857
697.588	0.0155249
697.666	0.0156195
697.744	0.0156523
697.822	0.0157285
697.900	0.0160520
697.978	0.0160654
698.057	0.0161865
698.135	0.0164216
698.213	0.0162337
698.291	0.0162720
698.369	0.0163785
698.447	0.0161875
698.525	0.0162482
698.603	0.0159583
698.682	0.0158227
698.760	0.0153588
698.838	0.0152856
698.916	0.0151543
698.994	0.0146984
699.072	0.0142374
699.150	0.0138936
699.228	0.0137771
699.307	0.0133150
699.385	0.0131225
699.463	0.0126778
699.541	0.0125037
699.619	0.0122167
699.697	0.0119938
699.775	0.0116073
699.853	0.0115648
699.932	0.0113625
700.010	0.0111140
700.088	0.0110706
700.166	0.0109927
700.244	0.0110406
700.322	0.0110437
700.400	0.0111583
700.478	0.0112670
700.557	0.0115423
700.635	0.0116975
700.713	0.0120488
700.791	0.0122192
700.869	0.0124899
700.947	0.0129502
701.025	0.0132880
701.103	0.0135157
701.182	0.0140781
701.260	0.0142751
701.338	0.0148029
701.416	0.0150417
701.494	0.0156781
701.572	0.0160654
701.650	0.0164946
701.728	0.0167871
701.807	0.0171572
701.885	0.0176224
701.963	0.0178753
702.041	0.0182161
702.119	0.0184369
702.197	0.0187295
702.275	0.0189010
702.353	0.0188979
702.432	0.0187633
702.510	0.0187674
702.588	0.0187064
702.666	0.0184677
702.744	0.0181429
702.822	0.0177348
702.900	0.0174539
702.978	0.0171255
703.057	0.0167528
703.135	0.0160609
703.213	0.0155064
703.291	0.0150781
703.369	0.0146156
703.447	0.0142414
703.525	0.0136544
703.603	0.0132318
703.682	0.0128907
703.760	0.0125359
703.838	0.0121056
703.916	0.0117590
703.994	0.0116443
704.072	0.0113834
704.150	0.0115032
704.228	0.0112836
704.307	0.0112959
704.385	0.0115098
704.463	0.0113456
704.541	0.0114481
704.619	0.0115588
704.697	0.0117468
704.775	0.0119493
704.853	0.0121191
704.932	0.0123080
705.010	0.0125421
705.088	0.0128090
705.166	0.0130907
705.244	0.0130959
705.322	0.0134050
705.400	0.0137110
705.478	0.0138977
705.557	0.0140281
705.635	0.0145171
705.713	0.0147359
705.791	0.0149675
705.869	0.0150764
705.947	0.0153547
706.025	0.0156071
706.103	0.0158700
706.182	0.0158153
706.260	0.0158693
706.338	0.0161257
706.416	0.0161116
706.494	0.0159785
706.572	0.0159692
706.650	0.0158105
706.728	0.0156622
706.807	0.0154532
706.885	0.0155370
706.963	0.0152828
707.041	0.0151948
707.119	0.0150904
707.197	0.0148804
707.275	0.0145585
707.353	0.0145602
707.432	0.0145387
707.510	0.0143974
707.588	0.0140784
707.666	0.0140955
707.744	0.0140635
707.822	0.0140675
707.900	0.0143238
707.978	0.0141784
708.057	0.0144142
708.135	0.0144991
708.213	0.0144678
708.291	0.0147924
708.369	0.0148956
708.447	0.0148811
708.525	0.0149840
708.603	0.0151263
708.682	0.0150513
708.760	0.0152067
708.838	0.0151535
708.916	0.0151282
708.994	0.0152136
709.072	0.0150905
709.150	0.0151260
709.228	0.0150448
709.307	0.0150713
709.385	0.0149647
709.463	0.0148913
709.541	0.0150028
709.619	0.0149229
709.697	0.0148969
709.775	0.0148799
709.853	0.0147406
709.932	0.0146320
710.010	0.0145399
710.088	0.0144855
710.166	0.0145660
710.244	0.0144246
710.322	0.0145748
710.400	0.0143143
710.478	0.0142213
710.557	0.0142487
710.635	0.0139760
710.713	0.0139555
710.791	0.0138475
710.869	0.0138573
710.947	0.0135665
711.025	0.0134682
711.103	0.0136096
711.182	0.0135040
711.260	0.0132924
711.338	0.0132555
711.416	0.0130886
711.494	0.0132458
711.572	0.0133724
711.650	0.0132457
711.728	0.0132412
711.807	0.0133287
711.885	0.0136040
711.963	0.0136918
712.041	0.0138576
712.119	0.0138083
712.197	0.0138943
712.275	0.0140261
712.353	0.0140736
712.432	0.0141003
712.510	0.0141646
712.588	0.0142319
712.666	0.0141896
712.744	0.0141637
712.822	0.0140872
712.900	0.0141821
712.978	0.0140356
713.057	0.0139850
713.135	0.0139655
713.213	0.0139412
713.291	0.0138194
713.369	0.0138673
713.447	0.0137491
713.525	0.0137113
713.603	0.0137429
713.682	0.0138522
713.760	0.0140528
713.838	0.0142505
713.916	0.0141685
713.994	0.0144518
714.072	0.0146434
714.150	0.0148827
714.228	0.0152155
714.307	0.0154851
714.385	0.0158318
714.463	0.0159621
714.541	0.0161079
714.619	0.0162317
714.697	0.0163749
714.775	0.0163948
714.853	0.0165041
714.932	0.0165666
715.010	0.0163729
715.088	0.0163364
715.166	0.0161705
715.244	0.0159653
715.322	0.0161268
715.400	0.0158826
715.478	0.0154684
715.557	0.0153878
715.635	0.0152923
715.713	0.0152905
715.791	0.0149432
715.869	0.0145802
715.947	0.0144819
716.025	0.0142103
716.103	0.0141367
716.182	0.0140937
716.260	0.0137341
716.338	0.0135551
716.416	0.0135136
716.494	0.0133549
716.572	0.0131789
716.650	0.0132648
716.728	0.0131433
716.807	0.0128430
716.885	0.0128966
716.963	0.0128669
717.041	0.0128726
717.119	0.0126058
717.197	0.0125375
717.275	0.0126317
717.353	0.0126048
717.432	0.0126395
717.510	0.0126546
717.588	0.0125379
717.666	0.0125849
717.744	0.0126504
717.822	0.0128758
717.900	0.0130152
717.978	0.0132019
718.057	0.0132301
718.135	0.0134264
718.213	0.0136456
718.291	0.0138711
718.369	0.0140411
718.447	0.0141647
718.525	0.0142059
718.603	0.0143391
718.682	0.0145393
718.760	0.0145773
718.838	0.0147992
718.916	0.0148366
718.994	0.0147764
719.072	0.0150237
719.150	0.0151012
719.228	0.0152100
719.307	0.0151942
719.385	0.0152681
719.463	0.0153119
719.541	0.0154514
719.619	0.0152929
719.697	0.0155537
719.775	0.0155473
719.853	0.0155045
719.932	0.0155225
720.010	0.0155523
720.088	0.0154273
720.166	0.0155364
720.244	0.0154956
720.322	0.0153811
720.400	0.0155136
720.478	0.0156123
720.557	0.0152547
720.635	0.0152471
720.713	0.0152266
720.791	0.0151289
720.869	0.0150629
720.947	0.0150578
721.025	0.0150414
721.103	0.0150610
721.182	0.0149020
721.260	0.0147977
721.338	0.0149786
721.416	0.0148754
721.494	0.0145786
721.572	0.0145768
721.650	0.0145393
721.728	0.0144180
721.807	0.0143306
721.885	0.0142823
721.963	0.0141814
722.041	0.0141302
722.119	0.0139714
722.197	0.0138230
722.275	0.0138054
722.353	0.0137843
722.432	0.0136998
722.510	0.0137653
722.588	0.0137959
722.666	0.0137971
722.744	0.0137496
722.822	0.0138405
722.900	0.0138553
722.978	0.0138029
723.057	0.0140186
723.135	0.0140588
723.213	0.0141560
723.291	0.0138691
723.369	0.0140713
723.447	0.0140723
723.525	0.0140942
723.603	0.0139303
723.682	0.0140061
723.760	0.0138404
723.838	0.0140232
723.916	0.0139735
723.994	0.0139079
724.072	0.0139224
724.150	0.0141784
724.228	0.0140531
724.307	0.0140141
724.385	0.0142329
724.463	0.0141261
724.541	0.0141547
724.619	0.0143295
724.697	0.0144432
724.775	0.0145102
724.853	0.0145525
724.932	0.0146523
725.010	0.0147723
725.088	0.0147789
725.166	0.0148241
725.244	0.0149928
725.322	0.0150330
725.400	0.0150513
725.478	0.0148174
725.557	0.0150250
725.635	0.0150901
725.713	0.0152321
725.791	0.0151728
725.869	0.0149342
725.947	0.0151048
726.025	0.0151978
726.103	0.0150888
726.182	0.0150077
726.260	0.0149548
726.338	0.0150040
726.416	0.0150213
726.494	0.0151056
726.572	0.0150136
726.650	0.0150857
726.728	0.0149777
726.807	0.0151623
726.885	0.0150633
726.963	0.0150596
727.041	0.0150280
727.119	0.0150542
727.197	0.0151382
727.275	0.0149287
727.353	0.0147916
727.432	0.0148183
727.510	0.0149888
727.588	0.0149174
727.666	0.0148421
727.744	0.0147520
727.822	0.0147018
727.900	0.0146484
727.978	0.0146390
728.057	0.0145526
728.135	0.0144078
728.213	0.0143054
728.291	0.0142753
728.369	0.0140693
728.447	0.0139307
728.525	0.0139989
728.603	0.0139566
728.682	0.0138206
728.760	0.0136872
728.838	0.0136299
728.916	0.0138458
728.994	0.0138135
729.072	0.0138518
729.150	0.0139828
729.228	0.0137932
729.307	0.0138768
729.385	0.0139603
729.463	0.0140843
729.541	0.0139290
729.619	0.0140234
729.697	0.0140606
729.775	0.0141637
729.853	0.0140981
729.932	0.0140315
730.010	0.0139105
730.088	0.0141601
730.166	0.0141461
730.244	0.0140147
730.322	0.0138897
730.400	0.0137217
730.478	0.0137461
730.557	0.0139543
730.635	0.0138753
730.713	0.0139102
730.791	0.0138956
730.869	0.0139074
730.947	0.0139529
731.025	0.0138516
731.103	0.0140096
731.182	0.0140594
731.260	0.0142371
731.338	0.0143363
731.416	0.0143785
731.494	0.0143289
731.572	0.0145020
731.650	0.0145061
731.728	0.0147159
731.807	0.0148293
731.885	0.0148766
731.963	0.0149474
732.041	0.0150642
732.119	0.0151501
732.197	0.0151191
732.275	0.0151055
732.353	0.0150617
732.432	0.0150998
732.510	0.0152505
732.588	0.0151447
732.666	0.0152402
732.744	0.0150919
732.822	0.0151516
732.900	0.0150187
732.978	0.0151456
733.057	0.0150214
733.135	0.0150509
733.213	0.0149547
733.291	0.0149976
733.369	0.0148507
733.447	0.0148058
733.525	0.0147766
733.603	0.0147243
733.682	0.0145582
733.760	0.0145872
733.838	0.0144227
733.916	0.0144473
733.994	0.0143388
734.072	0.0140937
734.150	0.0141484
734.228	0.0139014
734.307	0.0138409
734.385	0.0137595
734.463	0.0137960
734.541	0.0138454
734.619	0.0138504
734.697	0.0137698
734.775	0.0137951
734.853	0.0137070
734.932	0.0139433
735.010	0.0139095
735.088	0.0139935
735.166	0.0139648
735.244	0.0140258
735.322	0.0140664
735.400	0.0141443
735.478	0.0141740
735.557	0.0142465
735.635	0.0144448
735.713	0.0144537
