05/14/2022	19:35:51	Ver.	4.1	UNKNOWN
Optical Delay	650.009681	Delta X		0.078125	Sweeps	1	Scan Rate	0/0
Coordinates	Axis 1	NaN	Axis 2	NaN	Axis 3	NaN	Axis 4	NaN	Axis 5	NaN	Axis 6	0.000000
TX Power	0.000000	RX Power	0.000000

650.010	0.0141769
650.088	0.0142585
650.166	0.0143382
650.244	0.0142715
650.322	0.0143737
650.400	0.0142987
650.478	0.0144151
650.557	0.0144798
650.635	0.0143806
650.713	0.0144537
650.791	0.0144229
650.869	0.0144997
650.947	0.0144389
651.025	0.0142500
651.103	0.0144518
651.182	0.0143962
651.260	0.0142768
651.338	0.0143340
651.416	0.0143495
651.494	0.0143568
651.572	0.0143356
651.650	0.0143484
651.728	0.0143707
651.807	0.0143035
651.885	0.0142804
651.963	0.0143268
652.041	0.0143681
652.119	0.0142100
652.197	0.0141901
652.275	0.0141110
652.353	0.0143350
652.432	0.0142886
652.510	0.0142020
652.588	0.0142601
652.666	0.0142397
652.744	0.0142538
652.822	0.0143571
652.900	0.0141765
652.978	0.0144002
653.057	0.0142831
653.135	0.0144569
653.213	0.0142905
653.291	0.0143121
653.369	0.0143854
653.447	0.0144489
653.525	0.0143385
653.603	0.0143066
653.682	0.0143752
653.760	0.0144170
653.838	0.0143184
653.916	0.0142850
653.994	0.0143690
654.072	0.0143020
654.150	0.0143734
654.228	0.0143591
654.307	0.0141734
654.385	0.0141857
654.463	0.0142963
654.541	0.0143060
654.619	0.0141335
654.697	0.0143224
654.775	0.0142380
654.853	0.0140797
654.932	0.0142496
655.010	0.0141438
655.088	0.0141800
655.166	0.0140912
655.244	0.0140311
655.322	0.0142507
655.400	0.0142357
655.478	0.0142699
655.557	0.0143347
655.635	0.0141108
655.713	0.0142838
655.791	0.0143359
655.869	0.0143345
655.947	0.0142366
656.025	0.0143559
656.103	0.0144904
656.182	0.0144196
656.260	0.0143540
656.338	0.0144209
656.416	0.0144416
656.494	0.0144495
656.572	0.0144101
656.650	0.0141525
656.728	0.0141989
656.807	0.0143122
656.885	0.0141638
656.963	0.0141554
657.041	0.0141323
657.119	0.0142375
657.197	0.0141152
657.275	0.0140881
657.353	0.0142876
657.432	0.0142802
657.510	0.0143404
657.588	0.0144182
657.666	0.0142648
657.744	0.0144112
657.822	0.0144270
657.900	0.0143871
657.978	0.0144474
658.057	0.0143821
658.135	0.0143629
658.213	0.0143639
658.291	0.0144340
658.369	0.0144118
658.447	0.0143581
658.525	0.0143642
658.603	0.0143991
658.682	0.0144232
658.760	0.0143547
658.838	0.0142490
658.916	0.0144888
658.994	0.0142998
659.072	0.0144584
659.150	0.0144555
659.228	0.0143514
659.307	0.0146046
659.385	0.0146478
659.463	0.0144844
659.541	0.0145764
659.619	0.0146747
659.697	0.0146272
659.775	0.0145421
659.853	0.0146428
659.932	0.0146886
660.010	0.0146582
660.088	0.0147465
660.166	0.0146231
660.244	0.0144120
660.322	0.0144058
660.400	0.0143525
660.478	0.0143047
660.557	0.0142023
660.635	0.0140076
660.713	0.0138683
660.791	0.0138141
660.869	0.0137503
660.947	0.0137450
661.025	0.0136690
661.103	0.0137590
661.182	0.0137458
661.260	0.0138810
661.338	0.0139455
661.416	0.0140286
661.494	0.0140865
661.572	0.0140885
661.650	0.0142394
661.728	0.0143498
661.807	0.0145809
661.885	0.0145165
661.963	0.0146037
662.041	0.0147314
662.119	0.0149754
662.197	0.0149632
662.275	0.0151396
662.353	0.0151414
662.432	0.0153256
662.510	0.0152850
662.588	0.0155061
662.666	0.0155750
662.744	0.0154853
662.822	0.0154712
662.900	0.0155724
662.978	0.0153329
663.057	0.0153241
663.135	0.0152328
663.213	0.0148670
663.291	0.0147777
663.369	0.0145962
663.447	0.0144492
663.525	0.0142136
663.603	0.0139369
663.682	0.0136092
663.760	0.0132872
663.838	0.0131038
663.916	0.0129434
663.994	0.0127606
664.072	0.0124957
664.150	0.0124215
664.228	0.0122787
664.307	0.0121416
664.385	0.0122663
664.463	0.0121216
664.541	0.0121324
664.619	0.0122465
664.697	0.0123507
664.775	0.0125802
664.853	0.0124540
664.932	0.0127663
665.010	0.0131244
665.088	0.0134516
665.166	0.0135818
665.244	0.0141058
665.322	0.0144599
665.400	0.0146500
665.478	0.0149712
665.557	0.0153374
665.635	0.0156474
665.713	0.0159062
665.791	0.0164770
665.869	0.0165012
665.947	0.0167302
666.025	0.0168816
666.103	0.0170557
666.182	0.0171837
666.260	0.0170648
666.338	0.0168944
666.416	0.0170012
666.494	0.0167173
666.572	0.0164175
666.650	0.0161870
666.728	0.0157272
666.807	0.0152693
666.885	0.0147523
666.963	0.0142869
667.041	0.0136868
667.119	0.0132065
667.197	0.0127576
667.275	0.0122170
667.353	0.0118176
667.432	0.0113825
667.510	0.0112069
667.588	0.0108784
667.666	0.0107059
667.744	0.0106502
667.822	0.0105620
667.900	0.0106527
667.978	0.0107321
668.057	0.0107381
668.135	0.0109157
668.213	0.0111834
668.291	0.0114333
668.369	0.0117641
668.447	0.0123637
668.525	0.0128600
668.603	0.0132333
668.682	0.0137647
668.760	0.0145207
668.838	0.0150796
668.916	0.0156051
668.994	0.0163455
669.072	0.0168684
669.150	0.0173517
669.228	0.0176578
669.307	0.0181257
669.385	0.0185452
669.463	0.0185995
669.541	0.0188744
669.619	0.0190112
669.697	0.0187157
669.775	0.0185864
669.853	0.0184648
669.932	0.0183568
670.010	0.0178278
670.088	0.0173876
670.166	0.0170970
670.244	0.0165234
670.322	0.0159955
670.400	0.0154362
670.478	0.0147796
670.557	0.0141810
670.635	0.0136036
670.713	0.0128625
670.791	0.0122919
670.869	0.0117853
670.947	0.0113095
671.025	0.0106925
671.103	0.0104877
671.182	0.0101353
671.260	0.00958618
671.338	0.00959862
671.416	0.00958885
671.494	0.00970207
671.572	0.00979065
671.650	0.0101872
671.728	0.0102239
671.807	0.0106994
671.885	0.0112529
671.963	0.0115208
672.041	0.0119041
672.119	0.0124985
672.197	0.0130530
672.275	0.0134719
672.353	0.0142120
672.432	0.0147381
672.510	0.0153446
672.588	0.0158424
672.666	0.0163153
672.744	0.0168517
672.822	0.0169061
672.900	0.0174140
672.978	0.0175347
673.057	0.0176688
673.135	0.0178826
673.213	0.0176671
673.291	0.0176429
673.369	0.0174622
673.447	0.0173640
673.525	0.0173718
673.603	0.0169843
673.682	0.0167797
673.760	0.0164267
673.838	0.0162457
673.916	0.0158039
673.994	0.0155138
674.072	0.0152661
674.150	0.0151578
674.228	0.0148418
674.307	0.0145210
674.385	0.0140628
674.463	0.0138567
674.541	0.0135793
674.619	0.0134807
674.697	0.0134368
674.775	0.0133450
674.853	0.0132119
674.932	0.0134283
675.010	0.0134099
675.088	0.0133779
675.166	0.0132412
675.244	0.0134408
675.322	0.0136298
675.400	0.0135807
675.478	0.0136250
675.557	0.0137608
675.635	0.0135687
675.713	0.0132800
675.791	0.0132552
675.869	0.0131413
675.947	0.0128990
676.025	0.0127065
676.103	0.0125005
676.182	0.0123757
676.260	0.0121738
676.338	0.0120324
676.416	0.0119751
676.494	0.0119594
676.572	0.0120493
676.650	0.0120021
676.728	0.0119630
676.807	0.0121552
676.885	0.0123371
676.963	0.0124152
677.041	0.0126758
677.119	0.0130616
677.197	0.0132149
677.275	0.0135926
677.353	0.0138351
677.432	0.0141354
677.510	0.0145370
677.588	0.0148991
677.666	0.0153537
677.744	0.0158366
677.822	0.0162104
677.900	0.0165746
677.978	0.0168044
678.057	0.0171763
678.135	0.0174738
678.213	0.0176277
678.291	0.0177451
678.369	0.0180228
678.447	0.0180520
678.525	0.0179199
678.603	0.0177881
678.682	0.0176395
678.760	0.0174487
678.838	0.0171168
678.916	0.0167358
678.994	0.0163536
679.072	0.0158904
679.150	0.0155749
679.228	0.0151889
679.307	0.0146609
679.385	0.0142892
679.463	0.0140334
679.541	0.0133624
679.619	0.0130447
679.697	0.0125611
679.775	0.0122997
679.853	0.0120020
679.932	0.0117025
680.010	0.0114419
680.088	0.0112112
680.166	0.0110371
680.244	0.0109734
680.322	0.0109199
680.400	0.0107301
680.478	0.0107018
680.557	0.0110787
680.635	0.0113055
680.713	0.0113432
680.791	0.0115926
680.869	0.0118475
680.947	0.0121078
681.025	0.0125297
681.103	0.0126427
681.182	0.0130357
681.260	0.0132980
681.338	0.0134861
681.416	0.0138581
681.494	0.0140903
681.572	0.0142261
681.650	0.0146069
681.728	0.0149081
681.807	0.0150735
681.885	0.0154142
681.963	0.0155882
682.041	0.0157958
682.119	0.0159489
682.197	0.0160656
682.275	0.0162653
682.353	0.0164259
682.432	0.0166036
682.510	0.0167617
682.588	0.0167120
682.666	0.0167220
682.744	0.0167702
682.822	0.0166246
682.900	0.0166234
682.978	0.0166792
683.057	0.0165589
683.135	0.0162650
683.213	0.0161584
683.291	0.0159383
683.369	0.0156982
683.447	0.0154165
683.525	0.0151063
683.603	0.0147587
683.682	0.0145131
683.760	0.0142773
683.838	0.0140093
683.916	0.0137834
683.994	0.0135030
684.072	0.0132316
684.150	0.0129954
684.228	0.0128525
684.307	0.0127082
684.385	0.0125735
684.463	0.0124161
684.541	0.0123595
684.619	0.0124913
684.697	0.0124460
684.775	0.0122941
684.853	0.0121107
684.932	0.0122240
685.010	0.0123655
685.088	0.0123581
685.166	0.0125717
685.244	0.0128987
685.322	0.0129034
685.400	0.0132285
685.478	0.0135165
685.557	0.0140397
685.635	0.0142921
685.713	0.0144812
685.791	0.0148345
685.869	0.0151154
685.947	0.0154410
686.025	0.0154952
686.103	0.0155361
686.182	0.0156817
686.260	0.0156532
686.338	0.0156080
686.416	0.0154565
686.494	0.0154451
686.572	0.0153980
686.650	0.0153117
686.728	0.0153460
686.807	0.0152963
686.885	0.0152057
686.963	0.0152657
687.041	0.0149937
687.119	0.0151044
687.197	0.0151813
687.275	0.0149023
687.353	0.0148651
687.432	0.0147890
687.510	0.0144890
687.588	0.0143390
687.666	0.0141708
687.744	0.0140822
687.822	0.0139597
687.900	0.0137221
687.978	0.0134798
688.057	0.0135229
688.135	0.0135364
688.213	0.0134341
688.291	0.0133723
688.369	0.0134399
688.447	0.0134592
688.525	0.0133064
688.603	0.0134382
688.682	0.0135214
688.760	0.0135226
688.838	0.0135371
688.916	0.0135564
688.994	0.0137051
689.072	0.0139598
689.150	0.0139336
689.228	0.0139886
689.307	0.0141726
689.385	0.0142194
689.463	0.0143413
689.541	0.0146578
689.619	0.0147065
689.697	0.0148102
689.775	0.0148910
689.853	0.0149590
689.932	0.0148965
690.010	0.0150831
690.088	0.0152849
690.166	0.0151466
690.244	0.0152333
690.322	0.0152690
690.400	0.0150320
690.478	0.0151591
690.557	0.0151080
690.635	0.0151985
690.713	0.0150300
690.791	0.0149894
690.869	0.0148712
690.947	0.0149199
691.025	0.0146741
691.103	0.0144136
691.182	0.0145346
691.260	0.0143378
691.338	0.0141747
691.416	0.0140520
691.494	0.0139796
691.572	0.0138802
691.650	0.0139552
691.728	0.0138910
691.807	0.0136572
691.885	0.0136433
691.963	0.0136296
692.041	0.0136835
692.119	0.0137239
692.197	0.0135703
692.275	0.0135858
692.353	0.0136449
692.432	0.0135480
692.510	0.0134291
692.588	0.0135632
692.666	0.0139366
692.744	0.0137897
692.822	0.0139169
692.900	0.0140372
692.978	0.0140736
693.057	0.0141257
693.135	0.0142240
693.213	0.0142756
693.291	0.0144865
693.369	0.0145994
693.447	0.0147500
693.525	0.0146214
693.603	0.0146977
693.682	0.0148849
693.760	0.0146503
693.838	0.0146758
693.916	0.0146703
693.994	0.0146182
694.072	0.0146382
694.150	0.0146459
694.228	0.0143609
694.307	0.0143885
694.385	0.0142490
694.463	0.0142459
694.541	0.0141045
694.619	0.0140519
694.697	0.0139614
694.775	0.0139197
694.853	0.0139024
694.932	0.0141091
695.010	0.0139588
695.088	0.0138781
695.166	0.0139531
695.244	0.0141091
695.322	0.0140115
695.400	0.0140672
695.478	0.0141032
695.557	0.0142868
695.635	0.0143575
695.713	0.0144619
695.791	0.0146848
695.869	0.0145831
695.947	0.0148190
696.025	0.0147112
696.103	0.0146650
696.182	0.0146522
696.260	0.0149003
696.338	0.0147837
696.416	0.0145626
696.494	0.0148066
696.572	0.0148088
696.650	0.0146407
696.728	0.0145328
696.807	0.0144829
696.885	0.0145013
696.963	0.0145419
697.041	0.0144419
697.119	0.0143465
697.197	0.0144183
697.275	0.0142989
697.353	0.0143917
697.432	0.0143768
697.510	0.0143345
697.588	0.0144362
697.666	0.0145547
697.744	0.0145691
697.822	0.0144521
697.900	0.0145385
697.978	0.0145837
698.057	0.0147455
698.135	0.0147944
698.213	0.0147310
698.291	0.0148873
698.369	0.0149136
698.447	0.0149237
698.525	0.0150202
698.603	0.0149854
698.682	0.0148788
698.760	0.0148299
698.838	0.0147585
698.916	0.0146124
698.994	0.0146452
699.072	0.0144482
699.150	0.0142634
699.228	0.0141645
699.307	0.0138129
699.385	0.0137888
699.463	0.0135412
699.541	0.0133749
699.619	0.0131459
699.697	0.0128873
699.775	0.0126926
699.853	0.0125259
699.932	0.0121468
700.010	0.0121440
700.088	0.0117464
700.166	0.0117405
700.244	0.0117730
700.322	0.0116213
700.400	0.0115255
700.478	0.0116679
700.557	0.0118261
700.635	0.0119846
700.713	0.0120502
700.791	0.0123886
700.869	0.0126948
700.947	0.0129536
701.025	0.0135313
701.103	0.0138726
701.182	0.0143097
701.260	0.0146418
701.338	0.0150135
701.416	0.0154469
701.494	0.0159543
701.572	0.0162666
701.650	0.0166293
701.728	0.0168423
701.807	0.0171024
701.885	0.0173737
701.963	0.0175657
702.041	0.0176279
702.119	0.0177619
702.197	0.0179540
702.275	0.0180502
702.353	0.0179882
702.432	0.0177702
702.510	0.0177157
702.588	0.0175083
702.666	0.0174727
702.744	0.0172519
702.822	0.0169238
702.900	0.0164769
702.978	0.0160699
703.057	0.0157353
703.135	0.0152798
703.213	0.0148934
703.291	0.0143365
703.369	0.0139369
703.447	0.0135319
703.525	0.0130277
703.603	0.0124917
703.682	0.0121984
703.760	0.0116905
703.838	0.0114822
703.916	0.0112063
703.994	0.0109545
704.072	0.0105972
704.150	0.0106431
704.228	0.0105638
704.307	0.0105016
704.385	0.0105306
704.463	0.0107658
704.541	0.0107671
704.619	0.0109391
704.697	0.0111738
704.775	0.0115657
704.853	0.0118777
704.932	0.0121333
705.010	0.0123203
705.088	0.0126411
705.166	0.0130662
705.244	0.0134711
705.322	0.0136983
705.400	0.0141552
705.478	0.0143191
705.557	0.0145013
705.635	0.0150424
705.713	0.0151143
705.791	0.0153265
705.869	0.0155994
705.947	0.0157245
706.025	0.0157336
706.103	0.0158138
706.182	0.0157092
706.260	0.0158194
706.338	0.0159515
706.416	0.0157758
706.494	0.0157611
706.572	0.0156926
706.650	0.0155505
706.728	0.0155059
706.807	0.0155186
706.885	0.0153406
706.963	0.0152138
707.041	0.0152032
707.119	0.0148891
707.197	0.0147419
707.275	0.0147343
707.353	0.0149155
707.432	0.0145997
707.510	0.0145790
707.588	0.0145733
707.666	0.0145745
707.744	0.0144025
707.822	0.0142732
707.900	0.0142757
707.978	0.0143428
708.057	0.0143295
708.135	0.0140855
708.213	0.0141563
708.291	0.0142143
708.369	0.0142392
708.447	0.0141401
708.525	0.0142137
708.603	0.0142391
708.682	0.0142166
708.760	0.0142437
708.838	0.0143665
708.916	0.0143541
708.994	0.0141267
709.072	0.0142456
709.150	0.0142044
709.228	0.0142885
709.307	0.0141737
709.385	0.0141053
709.463	0.0140260
709.541	0.0138393
709.619	0.0138452
709.697	0.0137901
709.775	0.0136418
709.853	0.0136638
709.932	0.0136102
710.010	0.0136366
710.088	0.0136472
710.166	0.0135004
710.244	0.0134296
710.322	0.0135102
710.400	0.0134424
710.478	0.0133875
710.557	0.0132828
710.635	0.0132542
710.713	0.0131334
710.791	0.0130982
710.869	0.0131840
710.947	0.0132220
711.025	0.0134163
711.103	0.0134782
711.182	0.0135842
711.260	0.0136303
711.338	0.0138586
711.416	0.0139377
711.494	0.0142017
711.572	0.0143336
711.650	0.0144830
711.728	0.0148035
711.807	0.0147314
711.885	0.0147202
711.963	0.0147456
712.041	0.0148864
712.119	0.0149411
712.197	0.0147821
712.275	0.0146442
712.353	0.0145889
712.432	0.0146929
712.510	0.0145206
712.588	0.0144606
712.666	0.0143618
712.744	0.0141643
712.822	0.0140762
712.900	0.0139574
712.978	0.0139971
713.057	0.0139558
713.135	0.0139025
713.213	0.0137457
713.291	0.0138104
713.369	0.0138408
713.447	0.0138937
713.525	0.0139180
713.603	0.0141149
713.682	0.0143715
713.760	0.0144201
713.838	0.0145762
713.916	0.0146295
713.994	0.0148241
714.072	0.0149232
714.150	0.0152080
714.228	0.0151317
714.307	0.0152384
714.385	0.0153416
714.463	0.0154669
714.541	0.0155574
714.619	0.0154935
714.697	0.0156358
714.775	0.0155914
714.853	0.0155699
714.932	0.0154431
715.010	0.0153735
715.088	0.0154572
715.166	0.0153024
715.244	0.0153544
715.322	0.0152696
715.400	0.0151550
715.478	0.0150976
715.557	0.0150787
715.635	0.0149028
715.713	0.0147768
715.791	0.0146922
715.869	0.0146085
715.947	0.0143997
716.025	0.0143060
716.103	0.0140755
716.182	0.0139391
716.260	0.0139529
716.338	0.0137357
716.416	0.0135745
716.494	0.0134809
716.572	0.0134541
716.650	0.0132148
716.728	0.0131069
716.807	0.0130248
716.885	0.0130494
716.963	0.0130029
717.041	0.0129131
717.119	0.0128516
717.197	0.0128956
717.275	0.0129523
717.353	0.0130342
717.432	0.0132027
717.510	0.0133040
717.588	0.0132838
717.666	0.0134987
717.744	0.0136929
717.822	0.0136619
717.900	0.0137534
717.978	0.0137676
718.057	0.0140298
718.135	0.0140137
718.213	0.0141441
718.291	0.0140533
718.369	0.0144078
718.447	0.0143967
718.525	0.0143570
718.603	0.0144077
718.682	0.0144370
718.760	0.0145569
718.838	0.0144311
718.916	0.0146375
718.994	0.0146542
719.072	0.0146849
719.150	0.0147697
719.228	0.0149259
719.307	0.0149375
719.385	0.0150385
719.463	0.0151068
719.541	0.0151460
719.619	0.0152480
719.697	0.0152860
719.775	0.0153438
719.853	0.0153211
719.932	0.0156064
720.010	0.0155686
720.088	0.0155207
720.166	0.0156351
720.244	0.0156593
720.322	0.0156242
720.400	0.0155111
720.478	0.0153662
720.557	0.0154704
720.635	0.0152888
720.713	0.0151772
720.791	0.0149767
720.869	0.0147317
720.947	0.0148301
721.025	0.0146999
721.103	0.0144915
721.182	0.0143555
721.260	0.0142493
721.338	0.0141702
721.416	0.0140498
721.494	0.0140576
721.572	0.0139608
721.650	0.0139349
721.728	0.0138519
721.807	0.0137273
721.885	0.0138280
721.963	0.0136586
722.041	0.0135257
722.119	0.0135928
722.197	0.0134406
722.275	0.0135583
722.353	0.0134689
722.432	0.0135184
722.510	0.0135024
722.588	0.0133799
722.666	0.0133517
722.744	0.0133356
722.822	0.0133717
722.900	0.0132403
722.978	0.0132404
723.057	0.0131998
723.135	0.0131371
723.213	0.0131136
723.291	0.0130386
723.369	0.0130026
723.447	0.0130741
723.525	0.0131580
723.603	0.0131144
723.682	0.0131921
723.760	0.0132564
723.838	0.0135362
723.916	0.0133443
723.994	0.0136192
724.072	0.0136884
724.150	0.0139220
724.228	0.0140780
724.307	0.0141796
724.385	0.0143559
724.463	0.0144428
724.541	0.0145539
724.619	0.0146725
724.697	0.0147810
724.775	0.0149775
724.853	0.0150311
724.932	0.0152049
725.010	0.0152065
725.088	0.0151818
725.166	0.0152763
725.244	0.0152454
725.322	0.0153009
725.400	0.0154623
725.478	0.0154025
725.557	0.0153099
725.635	0.0152614
725.713	0.0151283
725.791	0.0151408
725.869	0.0152083
725.947	0.0151241
726.025	0.0150309
726.103	0.0149413
726.182	0.0148524
726.260	0.0147672
726.338	0.0146709
726.416	0.0148584
726.494	0.0146588
726.572	0.0145409
726.650	0.0145576
726.728	0.0145457
726.807	0.0142783
726.885	0.0143134
726.963	0.0142731
727.041	0.0141299
727.119	0.0141825
727.197	0.0140396
727.275	0.0138710
727.353	0.0136884
727.432	0.0138377
727.510	0.0136230
727.588	0.0135503
727.666	0.0134007
727.744	0.0134600
727.822	0.0134802
727.900	0.0136763
727.978	0.0136462
728.057	0.0135169
728.135	0.0134734
728.213	0.0137027
728.291	0.0136209
728.369	0.0137315
728.447	0.0138518
728.525	0.0138499
728.603	0.0139067
728.682	0.0140541
728.760	0.0140092
728.838	0.0141432
728.916	0.0141061
728.994	0.0142335
729.072	0.0142921
729.150	0.0143974
729.228	0.0142542
729.307	0.0142202
729.385	0.0143404
729.463	0.0142143
729.541	0.0142177
729.619	0.0142279
729.697	0.0139809
729.775	0.0139988
729.853	0.0139661
729.932	0.0139517
730.010	0.0138911
730.088	0.0138792
730.166	0.0138311
730.244	0.0138105
730.322	0.0137922
730.400	0.0138253
730.478	0.0138745
730.557	0.0137856
730.635	0.0138289
730.713	0.0138425
730.791	0.0140656
730.869	0.0141119
730.947	0.0139353
731.025	0.0141588
731.103	0.0141649
731.182	0.0141717
731.260	0.0142048
731.338	0.0141606
731.416	0.0141635
731.494	0.0142761
731.572	0.0141927
731.650	0.0141381
731.728	0.0142191
731.807	0.0142956
731.885	0.0143218
731.963	0.0143099
732.041	0.0144228
732.119	0.0143256
732.197	0.0145687
732.275	0.0143987
732.353	0.0146620
732.432	0.0146015
732.510	0.0146705
732.588	0.0147741
732.666	0.0147816
732.744	0.0149891
732.822	0.0149444
732.900	0.0147988
732.978	0.0147583
733.057	0.0149612
733.135	0.0149865
733.213	0.0149663
733.291	0.0149702
733.369	0.0147910
733.447	0.0147180
733.525	0.0148330
733.603	0.0148428
733.682	0.0146388
733.760	0.0147874
733.838	0.0146181
733.916	0.0144884
733.994	0.0144620
734.072	0.0141486
734.150	0.0141063
734.228	0.0141956
734.307	0.0140510
734.385	0.0139373
734.463	0.0138393
734.541	0.0138654
734.619	0.0138041
734.697	0.0136169
734.775	0.0136686
734.853	0.0138209
734.932	0.0136433
735.010	0.0136969
735.088	0.0138516
735.166	0.0138628
735.244	0.0138441
735.322	0.0140045
735.400	0.0141547
735.478	0.0140882
735.557	0.0141987
735.635	0.0141959
735.713	0.0142202
