05/14/2022	19:36:36	Ver.	4.1	UNKNOWN
Optical Delay	650.009681	Delta X		0.078125	Sweeps	1	Scan Rate	0/0
Coordinates	Axis 1	NaN	Axis 2	NaN	Axis 3	NaN	Axis 4	NaN	Axis 5	NaN	Axis 6	0.000000
TX Power	0.000000	RX Power	0.000000

650.010	0.0142864
650.088	0.0144360
650.166	0.0143629
650.244	0.0143212
650.322	0.0143116
650.400	0.0143348
650.478	0.0142862
650.557	0.0143565
650.635	0.0143068
650.713	0.0144835
650.791	0.0144782
650.869	0.0144057
650.947	0.0143449
651.025	0.0144811
651.103	0.0143530
651.182	0.0143616
651.260	0.0144907
651.338	0.0143981
651.416	0.0144759
651.494	0.0145848
651.572	0.0144802
651.650	0.0144698
651.728	0.0147004
651.807	0.0144849
651.885	0.0146297
651.963	0.0145415
652.041	0.0146511
652.119	0.0145273
652.197	0.0144633
652.275	0.0144377
652.353	0.0143027
652.432	0.0142346
652.510	0.0144041
652.588	0.0142040
652.666	0.0142870
652.744	0.0142531
652.822	0.0140816
652.900	0.0140982
652.978	0.0141009
653.057	0.0142200
653.135	0.0141859
653.213	0.0141421
653.291	0.0139748
653.369	0.0139515
653.447	0.0139977
653.525	0.0141075
653.603	0.0140175
653.682	0.0139293
653.760	0.0140105
653.838	0.0139374
653.916	0.0139903
653.994	0.0140644
654.072	0.0141571
654.150	0.0140284
654.228	0.0139893
654.307	0.0142841
654.385	0.0140718
654.463	0.0141684
654.541	0.0143031
654.619	0.0143623
654.697	0.0144004
654.775	0.0145049
654.853	0.0145177
654.932	0.0145420
655.010	0.0143776
655.088	0.0143614
655.166	0.0142146
655.244	0.0141903
655.322	0.0141766
655.400	0.0141072
655.478	0.0139960
655.557	0.0140413
655.635	0.0139957
655.713	0.0139521
655.791	0.0140128
655.869	0.0139584
655.947	0.0138224
656.025	0.0139285
656.103	0.0141016
656.182	0.0141860
656.260	0.0140413
656.338	0.0140081
656.416	0.0141760
656.494	0.0142395
656.572	0.0142665
656.650	0.0143491
656.728	0.0143880
656.807	0.0143156
656.885	0.0143885
656.963	0.0144913
657.041	0.0145560
657.119	0.0144511
657.197	0.0145217
657.275	0.0144675
657.353	0.0143517
657.432	0.0143555
657.510	0.0143151
657.588	0.0143784
657.666	0.0142489
657.744	0.0142633
657.822	0.0144404
657.900	0.0142746
657.978	0.0143128
658.057	0.0144305
658.135	0.0143076
658.213	0.0142837
658.291	0.0144804
658.369	0.0144844
658.447	0.0143919
658.525	0.0143866
658.603	0.0144587
658.682	0.0144989
658.760	0.0144573
658.838	0.0143508
658.916	0.0143811
658.994	0.0144632
659.072	0.0143378
659.150	0.0142239
659.228	0.0143008
659.307	0.0140131
659.385	0.0138046
659.463	0.0139795
659.541	0.0137447
659.619	0.0138032
659.697	0.0137568
659.775	0.0136636
659.853	0.0136697
659.932	0.0136916
660.010	0.0137483
660.088	0.0138892
660.166	0.0139259
660.244	0.0139658
660.322	0.0140440
660.400	0.0142231
660.478	0.0142651
660.557	0.0143392
660.635	0.0146563
660.713	0.0146817
660.791	0.0146861
660.869	0.0147379
660.947	0.0149137
661.025	0.0149284
661.103	0.0150270
661.182	0.0150679
661.260	0.0152658
661.338	0.0154555
661.416	0.0152743
661.494	0.0152128
661.572	0.0153520
661.650	0.0152779
661.728	0.0152026
661.807	0.0151810
661.885	0.0148750
661.963	0.0148962
662.041	0.0147610
662.119	0.0144358
662.197	0.0142696
662.275	0.0141940
662.353	0.0139902
662.432	0.0137524
662.510	0.0136700
662.588	0.0133716
662.666	0.0133576
662.744	0.0132460
662.822	0.0130340
662.900	0.0129601
662.978	0.0128764
663.057	0.0126134
663.135	0.0127334
663.213	0.0127390
663.291	0.0126768
663.369	0.0128864
663.447	0.0128596
663.525	0.0129488
663.603	0.0130550
663.682	0.0132146
663.760	0.0134933
663.838	0.0137174
663.916	0.0139803
663.994	0.0142369
664.072	0.0145535
664.150	0.0147001
664.228	0.0150477
664.307	0.0153246
664.385	0.0156625
664.463	0.0158723
664.541	0.0160277
664.619	0.0163033
664.697	0.0164655
664.775	0.0166721
664.853	0.0167084
664.932	0.0167173
665.010	0.0167421
665.088	0.0168551
665.166	0.0165759
665.244	0.0165489
665.322	0.0162799
665.400	0.0160341
665.478	0.0158151
665.557	0.0153632
665.635	0.0148309
665.713	0.0144920
665.791	0.0140179
665.869	0.0134138
665.947	0.0128307
666.025	0.0123862
666.103	0.0119683
666.182	0.0115182
666.260	0.0111984
666.338	0.0108604
666.416	0.0106281
666.494	0.0104197
666.572	0.0105322
666.650	0.0103651
666.728	0.0103345
666.807	0.0105743
666.885	0.0107697
666.963	0.0110963
667.041	0.0112611
667.119	0.0115832
667.197	0.0121409
667.275	0.0124410
667.353	0.0128216
667.432	0.0133372
667.510	0.0139474
667.588	0.0145635
667.666	0.0150970
667.744	0.0157618
667.822	0.0162937
667.900	0.0168636
667.978	0.0175379
668.057	0.0180023
668.135	0.0183274
668.213	0.0186980
668.291	0.0188495
668.369	0.0191163
668.447	0.0190006
668.525	0.0188665
668.603	0.0187762
668.682	0.0184174
668.760	0.0180612
668.838	0.0177335
668.916	0.0174025
668.994	0.0167558
669.072	0.0163652
669.150	0.0157674
669.228	0.0151670
669.307	0.0145773
669.385	0.0138271
669.463	0.0133218
669.541	0.0126353
669.619	0.0121104
669.697	0.0113580
669.775	0.0109519
669.853	0.0105148
669.932	0.0100671
670.010	0.00953178
670.088	0.00946114
670.166	0.00924919
670.244	0.00924835
670.322	0.00934135
670.400	0.00931625
670.478	0.00962166
670.557	0.00990135
670.635	0.0103253
670.713	0.0107755
670.791	0.0112682
670.869	0.0117720
670.947	0.0121970
671.025	0.0128493
671.103	0.0134109
671.182	0.0141184
671.260	0.0146140
671.338	0.0152409
671.416	0.0159687
671.494	0.0164299
671.572	0.0169595
671.650	0.0172821
671.728	0.0176224
671.807	0.0178368
671.885	0.0180586
671.963	0.0182348
672.041	0.0181984
672.119	0.0181264
672.197	0.0180727
672.275	0.0179478
672.353	0.0177541
672.432	0.0175935
672.510	0.0173251
672.588	0.0171066
672.666	0.0167378
672.744	0.0166264
672.822	0.0161179
672.900	0.0157649
672.978	0.0154113
673.057	0.0150254
673.135	0.0145689
673.213	0.0140531
673.291	0.0138004
673.369	0.0133841
673.447	0.0130713
673.525	0.0127674
673.603	0.0125502
673.682	0.0122116
673.760	0.0122804
673.838	0.0122270
673.916	0.0122011
673.994	0.0121432
674.072	0.0123296
674.150	0.0125999
674.228	0.0125574
674.307	0.0124843
674.385	0.0125850
674.463	0.0126613
674.541	0.0126229
674.619	0.0127490
674.697	0.0127301
674.775	0.0127953
674.853	0.0128322
674.932	0.0129462
675.010	0.0129148
675.088	0.0129888
675.166	0.0130010
675.244	0.0131767
675.322	0.0133685
675.400	0.0132099
675.478	0.0132852
675.557	0.0133429
675.635	0.0133764
675.713	0.0133179
675.791	0.0136146
675.869	0.0138396
675.947	0.0140038
676.025	0.0142086
676.103	0.0144158
676.182	0.0147432
676.260	0.0149852
676.338	0.0150874
676.416	0.0154743
676.494	0.0158002
676.572	0.0160249
676.650	0.0162844
676.728	0.0165795
676.807	0.0167634
676.885	0.0168890
676.963	0.0169859
677.041	0.0171555
677.119	0.0172688
677.197	0.0174825
677.275	0.0171824
677.353	0.0173006
677.432	0.0172614
677.510	0.0170354
677.588	0.0169762
677.666	0.0168224
677.744	0.0164584
677.822	0.0162105
677.900	0.0157267
677.978	0.0153186
678.057	0.0148474
678.135	0.0144563
678.213	0.0141121
678.291	0.0136197
678.369	0.0130921
678.447	0.0128356
678.525	0.0124033
678.603	0.0121722
678.682	0.0120576
678.760	0.0117902
678.838	0.0115778
678.916	0.0114191
678.994	0.0113443
679.072	0.0114433
679.150	0.0112498
679.228	0.0113190
679.307	0.0114042
679.385	0.0114115
679.463	0.0116116
679.541	0.0116142
679.619	0.0119032
679.697	0.0121204
679.775	0.0123328
679.853	0.0127037
679.932	0.0129141
680.010	0.0133060
680.088	0.0137209
680.166	0.0140177
680.244	0.0142639
680.322	0.0143552
680.400	0.0147974
680.478	0.0149303
680.557	0.0151720
680.635	0.0154590
680.713	0.0154275
680.791	0.0154763
680.869	0.0157182
680.947	0.0156839
681.025	0.0157333
681.103	0.0157656
681.182	0.0158028
681.260	0.0159776
681.338	0.0158793
681.416	0.0158396
681.494	0.0159123
681.572	0.0158946
681.650	0.0159873
681.728	0.0159930
681.807	0.0159107
681.885	0.0160213
681.963	0.0157535
682.041	0.0158390
682.119	0.0156689
682.197	0.0158194
682.275	0.0157082
682.353	0.0155978
682.432	0.0157384
682.510	0.0155972
682.588	0.0155001
682.666	0.0154465
682.744	0.0152751
682.822	0.0149277
682.900	0.0148165
682.978	0.0147606
683.057	0.0144056
683.135	0.0142355
683.213	0.0141577
683.291	0.0138614
683.369	0.0136258
683.447	0.0134054
683.525	0.0132319
683.603	0.0130566
683.682	0.0130308
683.760	0.0127428
683.838	0.0127159
683.916	0.0124372
683.994	0.0123750
684.072	0.0121361
684.150	0.0123022
684.228	0.0122128
684.307	0.0121334
684.385	0.0121152
684.463	0.0123556
684.541	0.0122807
684.619	0.0125890
684.697	0.0127283
684.775	0.0128619
684.853	0.0129519
684.932	0.0131299
685.010	0.0133784
685.088	0.0135130
685.166	0.0139008
685.244	0.0141580
685.322	0.0143454
685.400	0.0145101
685.478	0.0147610
685.557	0.0150302
685.635	0.0152323
685.713	0.0154449
685.791	0.0157625
685.869	0.0158197
685.947	0.0160755
686.025	0.0162891
686.103	0.0163725
686.182	0.0165820
686.260	0.0166741
686.338	0.0166036
686.416	0.0165426
686.494	0.0166657
686.572	0.0164233
686.650	0.0162598
686.728	0.0160602
686.807	0.0158267
686.885	0.0154781
686.963	0.0153047
687.041	0.0149688
687.119	0.0145984
687.197	0.0142522
687.275	0.0140585
687.353	0.0138896
687.432	0.0135531
687.510	0.0134091
687.588	0.0131763
687.666	0.0129526
687.744	0.0126505
687.822	0.0127671
687.900	0.0125883
687.978	0.0126410
688.057	0.0124888
688.135	0.0124931
688.213	0.0126028
688.291	0.0126817
688.369	0.0128374
688.447	0.0128100
688.525	0.0129899
688.603	0.0133198
688.682	0.0134483
688.760	0.0136239
688.838	0.0139146
688.916	0.0140879
688.994	0.0143373
689.072	0.0146210
689.150	0.0149695
689.228	0.0151097
689.307	0.0152138
689.385	0.0155108
689.463	0.0154788
689.541	0.0155538
689.619	0.0155342
689.697	0.0154961
689.775	0.0154182
689.853	0.0154124
689.932	0.0153248
690.010	0.0150640
690.088	0.0150129
690.166	0.0147679
690.244	0.0145390
690.322	0.0143102
690.400	0.0139796
690.478	0.0137354
690.557	0.0134869
690.635	0.0132336
690.713	0.0130830
690.791	0.0129499
690.869	0.0128222
690.947	0.0127602
691.025	0.0126534
691.103	0.0128320
691.182	0.0129028
691.260	0.0129853
691.338	0.0132156
691.416	0.0132935
691.494	0.0133982
691.572	0.0137543
691.650	0.0139071
691.728	0.0141106
691.807	0.0143695
691.885	0.0144330
691.963	0.0145520
692.041	0.0147629
692.119	0.0149202
692.197	0.0148997
692.275	0.0150591
692.353	0.0150148
692.432	0.0149136
692.510	0.0148650
692.588	0.0147329
692.666	0.0148115
692.744	0.0146294
692.822	0.0146046
692.900	0.0144650
692.978	0.0144124
693.057	0.0143164
693.135	0.0142468
693.213	0.0142822
693.291	0.0141254
693.369	0.0142101
693.447	0.0140893
693.525	0.0139603
693.603	0.0139452
693.682	0.0139696
693.760	0.0140709
693.838	0.0139509
693.916	0.0140067
693.994	0.0140426
694.072	0.0140527
694.150	0.0141891
694.228	0.0141185
694.307	0.0142120
694.385	0.0142797
694.463	0.0142132
694.541	0.0142405
694.619	0.0143266
694.697	0.0144079
694.775	0.0143465
694.853	0.0144772
694.932	0.0144070
695.010	0.0143645
695.088	0.0143447
695.166	0.0142815
695.244	0.0142920
695.322	0.0143572
695.400	0.0142820
695.478	0.0142765
695.557	0.0141502
695.635	0.0142941
695.713	0.0140804
695.791	0.0141478
695.869	0.0141785
695.947	0.0141370
696.025	0.0142238
696.103	0.0142887
696.182	0.0141307
696.260	0.0143650
696.338	0.0142215
696.416	0.0141819
696.494	0.0140641
696.572	0.0139693
696.650	0.0140593
696.728	0.0140474
696.807	0.0139706
696.885	0.0140209
696.963	0.0141354
697.041	0.0139901
697.119	0.0141189
697.197	0.0140509
697.275	0.0142429
697.353	0.0141848
697.432	0.0143913
697.510	0.0145083
697.588	0.0143882
697.666	0.0145632
697.744	0.0144242
697.822	0.0144852
697.900	0.0145838
697.978	0.0146748
698.057	0.0145580
698.135	0.0143859
698.213	0.0144759
698.291	0.0145127
698.369	0.0143839
698.447	0.0143156
698.525	0.0142222
698.603	0.0140903
698.682	0.0141147
698.760	0.0140179
698.838	0.0138696
698.916	0.0136808
698.994	0.0136003
699.072	0.0136863
699.150	0.0134071
699.228	0.0134243
699.307	0.0133481
699.385	0.0131934
699.463	0.0133645
699.541	0.0130404
699.619	0.0130206
699.697	0.0132256
699.775	0.0130560
699.853	0.0130665
699.932	0.0129851
700.010	0.0130077
700.088	0.0133022
700.166	0.0134228
700.244	0.0133780
700.322	0.0135168
700.400	0.0137766
700.478	0.0139250
700.557	0.0140604
700.635	0.0141782
700.713	0.0144362
700.791	0.0145794
700.869	0.0146870
700.947	0.0147846
701.025	0.0150381
701.103	0.0152360
701.182	0.0154233
701.260	0.0155323
701.338	0.0157603
701.416	0.0158926
701.494	0.0160244
701.572	0.0162051
701.650	0.0162350
701.728	0.0161900
701.807	0.0164057
701.885	0.0163306
701.963	0.0162846
702.041	0.0160678
702.119	0.0159086
702.197	0.0158249
702.275	0.0156171
702.353	0.0152763
702.432	0.0152100
702.510	0.0150076
702.588	0.0145734
702.666	0.0144157
702.744	0.0141547
702.822	0.0137716
702.900	0.0135321
702.978	0.0133633
703.057	0.0130715
703.135	0.0129021
703.213	0.0128154
703.291	0.0125652
703.369	0.0122810
703.447	0.0122910
703.525	0.0121007
703.603	0.0120827
703.682	0.0121806
703.760	0.0121404
703.838	0.0119752
703.916	0.0119138
703.994	0.0121115
704.072	0.0120931
704.150	0.0121642
704.228	0.0123766
704.307	0.0122771
704.385	0.0126174
704.463	0.0127592
704.541	0.0129783
704.619	0.0132279
704.697	0.0132730
704.775	0.0135807
704.853	0.0138439
704.932	0.0140814
705.010	0.0144439
705.088	0.0145609
705.166	0.0147630
705.244	0.0148921
705.322	0.0150312
705.400	0.0152647
705.478	0.0154887
705.557	0.0155832
705.635	0.0157827
705.713	0.0158434
705.791	0.0160179
705.869	0.0160423
705.947	0.0161060
706.025	0.0163295
706.103	0.0163522
706.182	0.0161221
706.260	0.0163212
706.338	0.0162745
706.416	0.0161280
706.494	0.0161877
706.572	0.0162069
706.650	0.0159371
706.728	0.0159579
706.807	0.0157902
706.885	0.0156927
706.963	0.0156447
707.041	0.0155757
707.119	0.0154896
707.197	0.0152149
707.275	0.0150345
707.353	0.0149676
707.432	0.0149506
707.510	0.0148295
707.588	0.0146588
707.666	0.0145348
707.744	0.0142717
707.822	0.0140348
707.900	0.0140486
707.978	0.0138735
708.057	0.0137320
708.135	0.0137534
708.213	0.0135194
708.291	0.0134117
708.369	0.0130697
708.447	0.0131871
708.525	0.0130251
708.603	0.0129770
708.682	0.0129873
708.760	0.0130672
708.838	0.0129626
708.916	0.0129659
708.994	0.0130264
709.072	0.0130061
709.150	0.0129251
709.228	0.0129637
709.307	0.0129625
709.385	0.0129613
709.463	0.0131065
709.541	0.0129726
709.619	0.0129402
709.697	0.0132847
709.775	0.0131948
709.853	0.0132949
709.932	0.0132607
710.010	0.0133441
710.088	0.0133256
710.166	0.0134981
710.244	0.0136731
710.322	0.0137381
710.400	0.0137750
710.478	0.0141590
710.557	0.0143165
710.635	0.0144115
710.713	0.0146631
710.791	0.0149211
710.869	0.0149413
710.947	0.0150877
711.025	0.0153638
711.103	0.0153297
711.182	0.0154906
711.260	0.0156113
711.338	0.0155271
711.416	0.0156423
711.494	0.0154322
711.572	0.0154411
711.650	0.0152242
711.728	0.0151246
711.807	0.0150566
711.885	0.0149987
711.963	0.0148641
712.041	0.0144482
712.119	0.0143950
712.197	0.0145295
712.275	0.0142641
712.353	0.0141396
712.432	0.0140877
712.510	0.0139926
712.588	0.0139453
712.666	0.0137653
712.744	0.0136643
712.822	0.0137228
712.900	0.0137114
712.978	0.0137281
713.057	0.0136440
713.135	0.0136974
713.213	0.0135942
713.291	0.0137120
713.369	0.0138964
713.447	0.0138671
713.525	0.0139935
713.603	0.0141641
713.682	0.0142802
713.760	0.0144057
713.838	0.0145611
713.916	0.0145582
713.994	0.0145959
714.072	0.0148029
714.150	0.0147643
714.228	0.0147797
714.307	0.0149379
714.385	0.0149224
714.463	0.0148177
714.541	0.0148249
714.619	0.0147438
714.697	0.0147401
714.775	0.0146158
714.853	0.0146083
714.932	0.0145638
715.010	0.0143504
715.088	0.0143103
715.166	0.0142130
715.244	0.0141059
715.322	0.0139517
715.400	0.0141237
715.478	0.0138634
715.557	0.0136745
715.635	0.0135806
715.713	0.0135064
715.791	0.0135691
715.869	0.0133247
715.947	0.0132692
716.025	0.0133734
716.103	0.0132827
716.182	0.0131388
716.260	0.0131056
716.338	0.0132655
716.416	0.0131086
716.494	0.0131973
716.572	0.0133797
716.650	0.0134919
716.728	0.0135999
716.807	0.0135995
716.885	0.0137482
716.963	0.0137971
717.041	0.0138118
717.119	0.0139398
717.197	0.0138525
717.275	0.0139453
717.353	0.0139957
717.432	0.0139616
717.510	0.0141051
717.588	0.0140475
717.666	0.0141007
717.744	0.0139320
717.822	0.0139541
717.900	0.0138615
717.978	0.0139742
718.057	0.0141744
718.135	0.0140763
718.213	0.0141222
718.291	0.0141260
718.369	0.0142555
718.447	0.0144425
718.525	0.0143552
718.603	0.0145784
718.682	0.0146520
718.760	0.0147729
718.838	0.0147121
718.916	0.0147781
718.994	0.0148347
719.072	0.0148783
719.150	0.0151099
719.228	0.0150240
719.307	0.0148095
719.385	0.0149484
719.463	0.0148534
719.541	0.0146774
719.619	0.0147198
719.697	0.0146781
719.775	0.0146318
719.853	0.0145682
719.932	0.0146166
720.010	0.0145151
720.088	0.0144630
720.166	0.0142884
720.244	0.0144228
720.322	0.0144440
720.400	0.0144778
720.478	0.0144605
720.557	0.0143359
720.635	0.0144023
720.713	0.0144962
720.791	0.0143185
720.869	0.0143651
720.947	0.0144360
721.025	0.0143775
721.103	0.0142937
721.182	0.0143437
721.260	0.0142110
721.338	0.0143000
721.416	0.0141944
721.494	0.0140495
721.572	0.0140046
721.650	0.0139170
721.728	0.0139618
721.807	0.0138494
721.885	0.0138453
721.963	0.0136782
722.041	0.0136422
722.119	0.0135284
722.197	0.0133423
722.275	0.0133978
722.353	0.0134271
722.432	0.0132758
722.510	0.0132175
722.588	0.0132209
722.666	0.0131676
722.744	0.0130513
722.822	0.0131658
722.900	0.0132479
722.978	0.0132261
723.057	0.0133118
723.135	0.0132076
723.213	0.0133091
723.291	0.0135454
723.369	0.0134403
723.447	0.0135115
723.525	0.0134509
723.603	0.0135403
723.682	0.0136472
723.760	0.0138135
723.838	0.0138210
723.916	0.0140761
723.994	0.0141565
724.072	0.0142534
724.150	0.0145373
724.228	0.0145254
724.307	0.0147371
724.385	0.0148795
724.463	0.0149364
724.541	0.0150357
724.619	0.0152728
724.697	0.0153913
724.775	0.0154215
724.853	0.0155331
724.932	0.0156739
725.010	0.0156387
725.088	0.0158392
725.166	0.0158260
725.244	0.0159680
725.322	0.0159040
725.400	0.0159439
725.478	0.0157703
725.557	0.0157106
725.635	0.0158244
725.713	0.0156190
725.791	0.0155592
725.869	0.0154447
725.947	0.0152036
726.025	0.0150870
726.103	0.0149073
726.182	0.0147048
726.260	0.0146281
726.338	0.0142435
726.416	0.0141226
726.494	0.0138875
726.572	0.0137250
726.650	0.0136623
726.728	0.0133968
726.807	0.0131200
726.885	0.0132525
726.963	0.0130559
727.041	0.0129172
727.119	0.0129095
727.197	0.0127717
727.275	0.0126820
727.353	0.0128535
727.432	0.0128106
727.510	0.0129548
727.588	0.0131184
727.666	0.0132089
727.744	0.0134448
727.822	0.0134648
727.900	0.0135492
727.978	0.0137546
728.057	0.0138361
728.135	0.0139691
728.213	0.0138731
728.291	0.0139268
728.369	0.0141622
728.447	0.0142691
728.525	0.0143212
728.603	0.0143811
728.682	0.0144843
728.760	0.0144903
728.838	0.0145179
728.916	0.0143937
728.994	0.0145267
729.072	0.0145963
729.150	0.0146139
729.228	0.0145977
729.307	0.0145628
729.385	0.0146688
729.463	0.0147070
729.541	0.0146603
729.619	0.0147985
729.697	0.0147475
729.775	0.0146410
729.853	0.0145581
729.932	0.0144299
730.010	0.0145085
730.088	0.0143715
730.166	0.0142342
730.244	0.0141737
730.322	0.0141388
730.400	0.0141051
730.478	0.0139093
730.557	0.0138536
730.635	0.0138821
730.713	0.0137832
730.791	0.0138564
730.869	0.0136391
730.947	0.0136877
731.025	0.0136954
731.103	0.0136721
731.182	0.0138445
731.260	0.0138174
731.338	0.0139499
731.416	0.0140136
731.494	0.0140699
731.572	0.0140610
731.650	0.0141969
731.728	0.0144070
731.807	0.0144057
731.885	0.0146257
731.963	0.0146279
732.041	0.0147210
732.119	0.0148788
732.197	0.0147312
732.275	0.0148009
732.353	0.0149026
732.432	0.0148883
732.510	0.0148093
732.588	0.0148644
732.666	0.0149377
732.744	0.0148127
732.822	0.0147218
732.900	0.0147038
732.978	0.0147406
733.057	0.0146613
733.135	0.0146422
733.213	0.0145912
733.291	0.0145135
733.369	0.0143530
733.447	0.0142966
733.525	0.0144041
733.603	0.0142349
733.682	0.0142778
733.760	0.0142724
733.838	0.0141048
733.916	0.0140457
733.994	0.0142234
734.072	0.0140788
734.150	0.0141064
734.228	0.0139811
734.307	0.0139872
734.385	0.0141590
734.463	0.0141807
734.541	0.0140050
734.619	0.0140403
734.697	0.0140591
734.775	0.0140331
734.853	0.0140781
734.932	0.0139536
735.010	0.0139037
735.088	0.0139738
735.166	0.0137972
735.244	0.0138573
735.322	0.0137042
735.400	0.0136600
735.478	0.0136862
735.557	0.0137573
735.635	0.0136462
735.713	0.0133614
