05/14/2022	19:36:51	Ver.	4.1	UNKNOWN
Optical Delay	650.009681	Delta X		0.078125	Sweeps	1	Scan Rate	0/0
Coordinates	Axis 1	NaN	Axis 2	NaN	Axis 3	NaN	Axis 4	NaN	Axis 5	NaN	Axis 6	0.000000
TX Power	0.000000	RX Power	0.000000

650.010	0.0141437
650.088	0.0140585
650.166	0.0140422
650.244	0.0140804
650.322	0.0139573
650.400	0.0139070
650.478	0.0140551
650.557	0.0139714
650.635	0.0140227
650.713	0.0140742
650.791	0.0142051
650.869	0.0139803
650.947	0.0140279
651.025	0.0140903
651.103	0.0140041
651.182	0.0140260
651.260	0.0141441
651.338	0.0140648
651.416	0.0139821
651.494	0.0140988
651.572	0.0140894
651.650	0.0140881
651.728	0.0141026
651.807	0.0141266
651.885	0.0140903
651.963	0.0140273
652.041	0.0141454
652.119	0.0141759
652.197	0.0140196
652.275	0.0141026
652.353	0.0141878
652.432	0.0139862
652.510	0.0139600
652.588	0.0141573
652.666	0.0140423
652.744	0.0139648
652.822	0.0141008
652.900	0.0141181
652.978	0.0140308
653.057	0.0141964
653.135	0.0142181
653.213	0.0140973
653.291	0.0141534
653.369	0.0140653
653.447	0.0142005
653.525	0.0141367
653.603	0.0142340
653.682	0.0141499
653.760	0.0141579
653.838	0.0139133
653.916	0.0139478
653.994	0.0139250
654.072	0.0139974
654.150	0.0139146
654.228	0.0138836
654.307	0.0138856
654.385	0.0139600
654.463	0.0140071
654.541	0.0140799
654.619	0.0140204
654.697	0.0141121
654.775	0.0140968
654.853	0.0141946
654.932	0.0142337
655.010	0.0141468
655.088	0.0141343
655.166	0.0142758
655.244	0.0141821
655.322	0.0140611
655.400	0.0142438
655.478	0.0142891
655.557	0.0141290
655.635	0.0141106
655.713	0.0139465
655.791	0.0141804
655.869	0.0139710
655.947	0.0138554
656.025	0.0138553
656.103	0.0138657
656.182	0.0139098
656.260	0.0140103
656.338	0.0140522
656.416	0.0140582
656.494	0.0141037
656.572	0.0139397
656.650	0.0142382
656.728	0.0143102
656.807	0.0142260
656.885	0.0141060
656.963	0.0141598
657.041	0.0142746
657.119	0.0142941
657.197	0.0143183
657.275	0.0143089
657.353	0.0142256
657.432	0.0143870
657.510	0.0140786
657.588	0.0142384
657.666	0.0141946
657.744	0.0140873
657.822	0.0143127
657.900	0.0142376
657.978	0.0142400
658.057	0.0141990
658.135	0.0140779
658.213	0.0141179
658.291	0.0141067
658.369	0.0141668
658.447	0.0142262
658.525	0.0142864
658.603	0.0143642
658.682	0.0143292
658.760	0.0142048
658.838	0.0142531
658.916	0.0143990
658.994	0.0142507
659.072	0.0143121
659.150	0.0142950
659.228	0.0143092
659.307	0.0142919
659.385	0.0142652
659.463	0.0141602
659.541	0.0139966
659.619	0.0138886
659.697	0.0139207
659.775	0.0137820
659.853	0.0136602
659.932	0.0135783
660.010	0.0134471
660.088	0.0133881
660.166	0.0134477
660.244	0.0135151
660.322	0.0133360
660.400	0.0136492
660.478	0.0136229
660.557	0.0137190
660.635	0.0138675
660.713	0.0139551
660.791	0.0140874
660.869	0.0139668
660.947	0.0142892
661.025	0.0143618
661.103	0.0144814
661.182	0.0143844
661.260	0.0144170
661.338	0.0146385
661.416	0.0147285
661.494	0.0147361
661.572	0.0148293
661.650	0.0148651
661.728	0.0149105
661.807	0.0149098
661.885	0.0146568
661.963	0.0147822
662.041	0.0148045
662.119	0.0148573
662.197	0.0145713
662.275	0.0144825
662.353	0.0144456
662.432	0.0143048
662.510	0.0140996
662.588	0.0140099
662.666	0.0139220
662.744	0.0136275
662.822	0.0134053
662.900	0.0132144
662.978	0.0129449
663.057	0.0130335
663.135	0.0128216
663.213	0.0125388
663.291	0.0126043
663.369	0.0125485
663.447	0.0124655
663.525	0.0125354
663.603	0.0125843
663.682	0.0126499
663.760	0.0127123
663.838	0.0127298
663.916	0.0128669
663.994	0.0129916
664.072	0.0130691
664.150	0.0133786
664.228	0.0136833
664.307	0.0139351
664.385	0.0140407
664.463	0.0142370
664.541	0.0146016
664.619	0.0149567
664.697	0.0151826
664.775	0.0153259
664.853	0.0157242
664.932	0.0159048
665.010	0.0160957
665.088	0.0161254
665.166	0.0163232
665.244	0.0162353
665.322	0.0164668
665.400	0.0165468
665.478	0.0163818
665.557	0.0164075
665.635	0.0162273
665.713	0.0162258
665.791	0.0159097
665.869	0.0156146
665.947	0.0152195
666.025	0.0146526
666.103	0.0143925
666.182	0.0139034
666.260	0.0133698
666.338	0.0129248
666.416	0.0125188
666.494	0.0119820
666.572	0.0114166
666.650	0.0110497
666.728	0.0108016
666.807	0.0105672
666.885	0.0104676
666.963	0.0103825
667.041	0.0102855
667.119	0.0103436
667.197	0.0104739
667.275	0.0105996
667.353	0.0108721
667.432	0.0111591
667.510	0.0114146
667.588	0.0118689
667.666	0.0123106
667.744	0.0128345
667.822	0.0133504
667.900	0.0137816
667.978	0.0144533
668.057	0.0150420
668.135	0.0157037
668.213	0.0161742
668.291	0.0168478
668.369	0.0173908
668.447	0.0178453
668.525	0.0182819
668.603	0.0184236
668.682	0.0186491
668.760	0.0187401
668.838	0.0188361
668.916	0.0187670
668.994	0.0185710
669.072	0.0183418
669.150	0.0179713
669.228	0.0176390
669.307	0.0171955
669.385	0.0166898
669.463	0.0160567
669.541	0.0156262
669.619	0.0149711
669.697	0.0143587
669.775	0.0137800
669.853	0.0131059
669.932	0.0124875
670.010	0.0118765
670.088	0.0113306
670.166	0.0109490
670.244	0.0104198
670.322	0.00999290
670.400	0.00956680
670.478	0.00933212
670.557	0.00942337
670.635	0.00925232
670.713	0.00920578
670.791	0.00940315
670.869	0.00952988
670.947	0.00973701
671.025	0.0101530
671.103	0.0105646
671.182	0.0108743
671.260	0.0115247
671.338	0.0120439
671.416	0.0125726
671.494	0.0132360
671.572	0.0137705
671.650	0.0144689
671.728	0.0150861
671.807	0.0157245
671.885	0.0161938
671.963	0.0165934
672.041	0.0169292
672.119	0.0174006
672.197	0.0177039
672.275	0.0179757
672.353	0.0181355
672.432	0.0181088
672.510	0.0183179
672.588	0.0182104
672.666	0.0180434
672.744	0.0179209
672.822	0.0176367
672.900	0.0175060
672.978	0.0171937
673.057	0.0170348
673.135	0.0166687
673.213	0.0162457
673.291	0.0157366
673.369	0.0153854
673.447	0.0149057
673.525	0.0144361
673.603	0.0140137
673.682	0.0134956
673.760	0.0129713
673.838	0.0126034
673.916	0.0122866
673.994	0.0118830
674.072	0.0118298
674.150	0.0116584
674.228	0.0115411
674.307	0.0114243
674.385	0.0114426
674.463	0.0115063
674.541	0.0115586
674.619	0.0116798
674.697	0.0117525
674.775	0.0118411
674.853	0.0118253
674.932	0.0119514
675.010	0.0119290
675.088	0.0121952
675.166	0.0121886
675.244	0.0123514
675.322	0.0124266
675.400	0.0125263
675.478	0.0126362
675.557	0.0127214
675.635	0.0130277
675.713	0.0131795
675.791	0.0132653
675.869	0.0136588
675.947	0.0137173
676.025	0.0137657
676.103	0.0138521
676.182	0.0141219
676.260	0.0142148
676.338	0.0141380
676.416	0.0145264
676.494	0.0145857
676.572	0.0148957
676.650	0.0149466
676.728	0.0151466
676.807	0.0154467
676.885	0.0158057
676.963	0.0158967
677.041	0.0160007
677.119	0.0162446
677.197	0.0164532
677.275	0.0167130
677.353	0.0167353
677.432	0.0167258
677.510	0.0167983
677.588	0.0168661
677.666	0.0168800
677.744	0.0167754
677.822	0.0166555
677.900	0.0165484
677.978	0.0163365
678.057	0.0162650
678.135	0.0160168
678.213	0.0158433
678.291	0.0153961
678.369	0.0151587
678.447	0.0147598
678.525	0.0145776
678.603	0.0141234
678.682	0.0136314
678.760	0.0133141
678.838	0.0130463
678.916	0.0126650
678.994	0.0123033
679.072	0.0121750
679.150	0.0118360
679.228	0.0116678
679.307	0.0115804
679.385	0.0114611
679.463	0.0114581
679.541	0.0115327
679.619	0.0115041
679.697	0.0115176
679.775	0.0115935
679.853	0.0116309
679.932	0.0118410
680.010	0.0119455
680.088	0.0121567
680.166	0.0123608
680.244	0.0125192
680.322	0.0128401
680.400	0.0130161
680.478	0.0133789
680.557	0.0137852
680.635	0.0138721
680.713	0.0142201
680.791	0.0143439
680.869	0.0146420
680.947	0.0148807
681.025	0.0149628
681.103	0.0151628
681.182	0.0153126
681.260	0.0153355
681.338	0.0154195
681.416	0.0154599
681.494	0.0155506
681.572	0.0156624
681.650	0.0155988
681.728	0.0157124
681.807	0.0157227
681.885	0.0157471
681.963	0.0156241
682.041	0.0155431
682.119	0.0155943
682.197	0.0155433
682.275	0.0154785
682.353	0.0151987
682.432	0.0152770
682.510	0.0152139
682.588	0.0151204
682.666	0.0151469
682.744	0.0151492
682.822	0.0150117
682.900	0.0151003
682.978	0.0149451
683.057	0.0149494
683.135	0.0148851
683.213	0.0149122
683.291	0.0147231
683.369	0.0147615
683.447	0.0146164
683.525	0.0142335
683.603	0.0141037
683.682	0.0140932
683.760	0.0140285
683.838	0.0137496
683.916	0.0134353
683.994	0.0133187
684.072	0.0131158
684.150	0.0127971
684.228	0.0127159
684.307	0.0125027
684.385	0.0123391
684.463	0.0121776
684.541	0.0120441
684.619	0.0120525
684.697	0.0118188
684.775	0.0119149
684.853	0.0118526
684.932	0.0119880
685.010	0.0119269
685.088	0.0120596
685.166	0.0119645
685.244	0.0121062
685.322	0.0122456
685.400	0.0122991
685.478	0.0124636
685.557	0.0125498
685.635	0.0128539
685.713	0.0130753
685.791	0.0133864
685.869	0.0136209
685.947	0.0139697
686.025	0.0141897
686.103	0.0146539
686.182	0.0150912
686.260	0.0152943
686.338	0.0156481
686.416	0.0159991
686.494	0.0163291
686.572	0.0163845
686.650	0.0166006
686.728	0.0165932
686.807	0.0168060
686.885	0.0169372
686.963	0.0168249
687.041	0.0168341
687.119	0.0165385
687.197	0.0163170
687.275	0.0162518
687.353	0.0159747
687.432	0.0157384
687.510	0.0154070
687.588	0.0150494
687.666	0.0147019
687.744	0.0144772
687.822	0.0139777
687.900	0.0139020
687.978	0.0133646
688.057	0.0131521
688.135	0.0130388
688.213	0.0128814
688.291	0.0124191
688.369	0.0121980
688.447	0.0121397
688.525	0.0118941
688.603	0.0117803
688.682	0.0117836
688.760	0.0118130
688.838	0.0118071
688.916	0.0119227
688.994	0.0121053
689.072	0.0121030
689.150	0.0124875
689.228	0.0128619
689.307	0.0129587
689.385	0.0132965
689.463	0.0135273
689.541	0.0139864
689.619	0.0143168
689.697	0.0146323
689.775	0.0147059
689.853	0.0150883
689.932	0.0152445
690.010	0.0155330
690.088	0.0156244
690.166	0.0157215
690.244	0.0157203
690.322	0.0155787
690.400	0.0156046
690.478	0.0153992
690.557	0.0151431
690.635	0.0150022
690.713	0.0150200
690.791	0.0146104
690.869	0.0144786
690.947	0.0141769
691.025	0.0137498
691.103	0.0134870
691.182	0.0133428
691.260	0.0130730
691.338	0.0128563
691.416	0.0125839
691.494	0.0125558
691.572	0.0127433
691.650	0.0125993
691.728	0.0127821
691.807	0.0129880
691.885	0.0129591
691.963	0.0130306
692.041	0.0133761
692.119	0.0135883
692.197	0.0137865
692.275	0.0140811
692.353	0.0142592
692.432	0.0143231
692.510	0.0144625
692.588	0.0147789
692.666	0.0147427
692.744	0.0148567
692.822	0.0148396
692.900	0.0148556
692.978	0.0149863
693.057	0.0148700
693.135	0.0147218
693.213	0.0146091
693.291	0.0145415
693.369	0.0142437
693.447	0.0142772
693.525	0.0142762
693.603	0.0142117
693.682	0.0141035
693.760	0.0139935
693.838	0.0138264
693.916	0.0140137
693.994	0.0138703
694.072	0.0138749
694.150	0.0137014
694.228	0.0138085
694.307	0.0137483
694.385	0.0138139
694.463	0.0136405
694.541	0.0137849
694.619	0.0137525
694.697	0.0138512
694.775	0.0138586
694.853	0.0138367
694.932	0.0138202
695.010	0.0138903
695.088	0.0139828
695.166	0.0140051
695.244	0.0141655
695.322	0.0142854
695.400	0.0141856
695.478	0.0141046
695.557	0.0140342
695.635	0.0142074
695.713	0.0141797
695.791	0.0139341
695.869	0.0139129
695.947	0.0139428
696.025	0.0138137
696.103	0.0135536
696.182	0.0134927
696.260	0.0135940
696.338	0.0136212
696.416	0.0136938
696.494	0.0135551
696.572	0.0135505
696.650	0.0135555
696.728	0.0136044
696.807	0.0136880
696.885	0.0137177
696.963	0.0137258
697.041	0.0137028
697.119	0.0138050
697.197	0.0137966
697.275	0.0138838
697.353	0.0139700
697.432	0.0139665
697.510	0.0140497
697.588	0.0140730
697.666	0.0142106
697.744	0.0141353
697.822	0.0141568
697.900	0.0142459
697.978	0.0143723
698.057	0.0144317
698.135	0.0143039
698.213	0.0143866
698.291	0.0144606
698.369	0.0143163
698.447	0.0142164
698.525	0.0143567
698.603	0.0140601
698.682	0.0140880
698.760	0.0139818
698.838	0.0138507
698.916	0.0139077
698.994	0.0137289
699.072	0.0136474
699.150	0.0135500
699.228	0.0135844
699.307	0.0134637
699.385	0.0134116
699.463	0.0134528
699.541	0.0134360
699.619	0.0134937
699.697	0.0134218
699.775	0.0134809
699.853	0.0134846
699.932	0.0135433
700.010	0.0135515
700.088	0.0136956
700.166	0.0137115
700.244	0.0136835
700.322	0.0138629
700.400	0.0139507
700.478	0.0138291
700.557	0.0139299
700.635	0.0140391
700.713	0.0140025
700.791	0.0140816
700.869	0.0141353
700.947	0.0140524
701.025	0.0144274
701.103	0.0144614
701.182	0.0144661
701.260	0.0144749
701.338	0.0145793
701.416	0.0146604
701.494	0.0146883
701.572	0.0147811
701.650	0.0148971
701.728	0.0148666
701.807	0.0148827
701.885	0.0151575
701.963	0.0149696
702.041	0.0150674
702.119	0.0150345
702.197	0.0151200
702.275	0.0153304
702.353	0.0152565
702.432	0.0153162
702.510	0.0153496
702.588	0.0153959
702.666	0.0152843
702.744	0.0152795
702.822	0.0151867
702.900	0.0151463
702.978	0.0149375
703.057	0.0150105
703.135	0.0147417
703.213	0.0145423
703.291	0.0142930
703.369	0.0139139
703.447	0.0140263
703.525	0.0138438
703.603	0.0136574
703.682	0.0134945
703.760	0.0134751
703.838	0.0132735
703.916	0.0133140
703.994	0.0130789
704.072	0.0131812
704.150	0.0131322
704.228	0.0128717
704.307	0.0129247
704.385	0.0127798
704.463	0.0128033
704.541	0.0127244
704.619	0.0125514
704.697	0.0124051
704.775	0.0122725
704.853	0.0122715
704.932	0.0122485
705.010	0.0122562
705.088	0.0122323
705.166	0.0124071
705.244	0.0124306
705.322	0.0126749
705.400	0.0127258
705.478	0.0128696
705.557	0.0130971
705.635	0.0135085
705.713	0.0136237
705.791	0.0138120
705.869	0.0140777
705.947	0.0141529
706.025	0.0142325
706.103	0.0146201
706.182	0.0146951
706.260	0.0150445
706.338	0.0150171
706.416	0.0150458
706.494	0.0151172
706.572	0.0152493
706.650	0.0154358
706.728	0.0154020
706.807	0.0156167
706.885	0.0155244
706.963	0.0155185
707.041	0.0158030
707.119	0.0157697
707.197	0.0157102
707.275	0.0157069
707.353	0.0158594
707.432	0.0157930
707.510	0.0156864
707.588	0.0155924
707.666	0.0155354
707.744	0.0154906
707.822	0.0153247
707.900	0.0151013
707.978	0.0149813
708.057	0.0149272
708.135	0.0146979
708.213	0.0146304
708.291	0.0142834
708.369	0.0139951
708.447	0.0139226
708.525	0.0138553
708.603	0.0136500
708.682	0.0134786
708.760	0.0132929
708.838	0.0131268
708.916	0.0129911
708.994	0.0128701
709.072	0.0126128
709.150	0.0125687
709.228	0.0125890
709.307	0.0123463
709.385	0.0122586
709.463	0.0122302
709.541	0.0121732
709.619	0.0121204
709.697	0.0120383
709.775	0.0120090
709.853	0.0122372
709.932	0.0123151
710.010	0.0123673
710.088	0.0125272
710.166	0.0126959
710.244	0.0127652
710.322	0.0130244
710.400	0.0131685
710.478	0.0132399
710.557	0.0133615
710.635	0.0137942
710.713	0.0137709
710.791	0.0140187
710.869	0.0141143
710.947	0.0141812
711.025	0.0143646
711.103	0.0145415
711.182	0.0147029
711.260	0.0146498
711.338	0.0149780
711.416	0.0149206
711.494	0.0149639
711.572	0.0152452
711.650	0.0153749
711.728	0.0154153
711.807	0.0155654
711.885	0.0156577
711.963	0.0156319
712.041	0.0156106
712.119	0.0155477
712.197	0.0154020
712.275	0.0154409
712.353	0.0153963
712.432	0.0150319
712.510	0.0150306
712.588	0.0149480
712.666	0.0147034
712.744	0.0146441
712.822	0.0144598
712.900	0.0143636
712.978	0.0143337
713.057	0.0138484
713.135	0.0137676
713.213	0.0139038
713.291	0.0137334
713.369	0.0135736
713.447	0.0135217
713.525	0.0133414
713.603	0.0135854
713.682	0.0133743
713.760	0.0132232
713.838	0.0132183
713.916	0.0132039
713.994	0.0133256
714.072	0.0134052
714.150	0.0132500
714.228	0.0132675
714.307	0.0134077
714.385	0.0135107
714.463	0.0135274
714.541	0.0136918
714.619	0.0136958
714.697	0.0138950
714.775	0.0139162
714.853	0.0139827
714.932	0.0138959
715.010	0.0139944
715.088	0.0141022
715.166	0.0141157
715.244	0.0142049
715.322	0.0141599
715.400	0.0140872
715.478	0.0138969
715.557	0.0139421
715.635	0.0139324
715.713	0.0138762
715.791	0.0137534
715.869	0.0137210
715.947	0.0136907
716.025	0.0137997
716.103	0.0135388
716.182	0.0136208
716.260	0.0136425
716.338	0.0134228
716.416	0.0133585
716.494	0.0134270
716.572	0.0134077
716.650	0.0132884
716.728	0.0134861
716.807	0.0133548
716.885	0.0132754
716.963	0.0134306
717.041	0.0134656
717.119	0.0134214
717.197	0.0134861
717.275	0.0135766
717.353	0.0134974
717.432	0.0135152
717.510	0.0135642
717.588	0.0137421
717.666	0.0137289
717.744	0.0139082
717.822	0.0138847
717.900	0.0138567
717.978	0.0139445
718.057	0.0139661
718.135	0.0140623
718.213	0.0140930
718.291	0.0140827
718.369	0.0141380
718.447	0.0141321
718.525	0.0142025
718.603	0.0141503
718.682	0.0141135
718.760	0.0142141
718.838	0.0144115
718.916	0.0143893
718.994	0.0143476
719.072	0.0144225
719.150	0.0145042
719.228	0.0146381
719.307	0.0146017
719.385	0.0146612
719.463	0.0147605
719.541	0.0146802
719.619	0.0148019
719.697	0.0146908
719.775	0.0145827
719.853	0.0147941
719.932	0.0146207
720.010	0.0145607
720.088	0.0144736
720.166	0.0146031
720.244	0.0143835
720.322	0.0143612
720.400	0.0144799
720.478	0.0144009
720.557	0.0142389
720.635	0.0142487
720.713	0.0143613
720.791	0.0142163
720.869	0.0141667
720.947	0.0141864
721.025	0.0140499
721.103	0.0141516
721.182	0.0143116
721.260	0.0142393
721.338	0.0142252
721.416	0.0141977
721.494	0.0142570
721.572	0.0143421
721.650	0.0141990
721.728	0.0142072
721.807	0.0141027
721.885	0.0141073
721.963	0.0140627
722.041	0.0140591
722.119	0.0140684
722.197	0.0139883
722.275	0.0139700
722.353	0.0137667
722.432	0.0136875
722.510	0.0137952
722.588	0.0137089
722.666	0.0135301
722.744	0.0134389
722.822	0.0134679
722.900	0.0134328
722.978	0.0134467
723.057	0.0134191
723.135	0.0134022
723.213	0.0133513
723.291	0.0134344
723.369	0.0134396
723.447	0.0133549
723.525	0.0132671
723.603	0.0132223
723.682	0.0133114
723.760	0.0132462
723.838	0.0131644
723.916	0.0129691
723.994	0.0132040
724.072	0.0132485
724.150	0.0130894
724.228	0.0132496
724.307	0.0131227
724.385	0.0132198
724.463	0.0131934
724.541	0.0132664
724.619	0.0135712
724.697	0.0134454
724.775	0.0136517
724.853	0.0138783
724.932	0.0140911
725.010	0.0142899
725.088	0.0143706
725.166	0.0144570
725.244	0.0148668
725.322	0.0149506
725.400	0.0151512
725.478	0.0152383
725.557	0.0153351
725.635	0.0153319
725.713	0.0156570
725.791	0.0156842
725.869	0.0157857
725.947	0.0157175
726.025	0.0155937
726.103	0.0154925
726.182	0.0156265
726.260	0.0155771
726.338	0.0155411
726.416	0.0153633
726.494	0.0152937
726.572	0.0150129
726.650	0.0150130
726.728	0.0146804
726.807	0.0145285
726.885	0.0144357
726.963	0.0142609
727.041	0.0140577
727.119	0.0139600
727.197	0.0136602
727.275	0.0134695
727.353	0.0132072
727.432	0.0130879
727.510	0.0130655
727.588	0.0127879
727.666	0.0128430
727.744	0.0127932
727.822	0.0128043
727.900	0.0127957
727.978	0.0126437
728.057	0.0126540
728.135	0.0128029
728.213	0.0129169
728.291	0.0129078
728.369	0.0127943
728.447	0.0130054
728.525	0.0130948
728.603	0.0131767
728.682	0.0132936
728.760	0.0133187
728.838	0.0134039
728.916	0.0134813
728.994	0.0137134
729.072	0.0138026
729.150	0.0138669
729.228	0.0138990
729.307	0.0140850
729.385	0.0142467
729.463	0.0142334
729.541	0.0143410
729.619	0.0144630
729.697	0.0145093
729.775	0.0146289
729.853	0.0146820
729.932	0.0145751
730.010	0.0146445
730.088	0.0144946
730.166	0.0146570
730.244	0.0146449
730.322	0.0145946
730.400	0.0144598
730.478	0.0144917
730.557	0.0145967
730.635	0.0144057
730.713	0.0142947
730.791	0.0142813
730.869	0.0143709
730.947	0.0142344
731.025	0.0141230
731.103	0.0140074
731.182	0.0139337
731.260	0.0138150
731.338	0.0136739
731.416	0.0137818
731.494	0.0136800
731.572	0.0138441
731.650	0.0137542
731.728	0.0135607
731.807	0.0135424
731.885	0.0136585
731.963	0.0136681
732.041	0.0137592
732.119	0.0137783
732.197	0.0137505
732.275	0.0138829
732.353	0.0139334
732.432	0.0140134
732.510	0.0140829
732.588	0.0138531
732.666	0.0139542
732.744	0.0141290
732.822	0.0142486
732.900	0.0140508
732.978	0.0140704
733.057	0.0141466
733.135	0.0141901
733.213	0.0141582
733.291	0.0140987
733.369	0.0141695
733.447	0.0141915
733.525	0.0141228
733.603	0.0142374
733.682	0.0142213
733.760	0.0141758
733.838	0.0142357
733.916	0.0140603
733.994	0.0141650
734.072	0.0142054
734.150	0.0143049
734.228	0.0143294
734.307	0.0141768
734.385	0.0141144
734.463	0.0141874
734.541	0.0139828
734.619	0.0140650
734.697	0.0139639
734.775	0.0139699
734.853	0.0141043
734.932	0.0140753
735.010	0.0139019
735.088	0.0137843
735.166	0.0138727
735.244	0.0140018
735.322	0.0138972
735.400	0.0136227
735.478	0.0137033
735.557	0.0137912
735.635	0.0136116
735.713	0.0136649
