05/14/2022	19:09:09	Ver.	4.1	UNKNOWN
Optical Delay	650.016352	Delta X		0.078125	Sweeps	1	Scan Rate	0/0
Coordinates	Axis 1	NaN	Axis 2	NaN	Axis 3	NaN	Axis 4	NaN	Axis 5	NaN	Axis 6	0.000000
TX Power	0.000000	RX Power	0.000000

650.016	0.0145113
650.094	0.0146080
650.173	0.0146563
650.251	0.0146629
650.329	0.0146017
650.407	0.0144440
650.485	0.0144530
650.563	0.0145517
650.641	0.0145886
650.719	0.0145408
650.798	0.0145573
650.876	0.0145823
650.954	0.0144651
651.032	0.0145953
651.110	0.0145922
651.188	0.0145730
651.266	0.0145032
651.344	0.0145629
651.423	0.0145360
651.501	0.0145526
651.579	0.0146029
651.657	0.0145521
651.735	0.0145087
651.813	0.0145170
651.891	0.0145739
651.969	0.0145669
652.048	0.0146774
652.126	0.0146037
652.204	0.0144927
652.282	0.0145622
652.360	0.0146044
652.438	0.0145861
652.516	0.0145744
652.594	0.0146142
652.673	0.0145299
652.751	0.0147247
652.829	0.0144949
652.907	0.0144804
652.985	0.0146135
653.063	0.0146947
653.141	0.0144383
653.219	0.0145446
653.298	0.0146204
653.376	0.0145216
653.454	0.0144521
653.532	0.0145559
653.610	0.0146500
653.688	0.0146325
653.766	0.0145515
653.844	0.0146244
653.923	0.0145876
654.001	0.0146668
654.079	0.0146591
654.157	0.0146605
654.235	0.0144814
654.313	0.0146184
654.391	0.0146296
654.469	0.0146236
654.548	0.0145439
654.626	0.0144180
654.704	0.0145308
654.782	0.0145888
654.860	0.0144479
654.938	0.0145592
655.016	0.0145764
655.094	0.0145108
655.173	0.0145976
655.251	0.0145013
655.329	0.0145612
655.407	0.0145354
655.485	0.0145771
655.563	0.0146573
655.641	0.0146669
655.719	0.0147533
655.798	0.0144676
655.876	0.0145982
655.954	0.0144898
656.032	0.0145297
656.110	0.0145294
656.188	0.0146695
656.266	0.0146941
656.344	0.0145926
656.423	0.0145691
656.501	0.0145541
656.579	0.0144901
656.657	0.0145640
656.735	0.0144644
656.813	0.0144566
656.891	0.0146472
656.969	0.0146326
657.048	0.0144816
657.126	0.0145726
657.204	0.0145762
657.282	0.0143722
657.360	0.0146066
657.438	0.0145530
657.516	0.0145541
657.594	0.0146127
657.673	0.0145474
657.751	0.0144939
657.829	0.0146185
657.907	0.0146143
657.985	0.0145992
658.063	0.0144901
658.141	0.0144405
658.219	0.0145719
658.298	0.0143655
658.376	0.0145542
658.454	0.0145287
658.532	0.0145721
658.610	0.0145931
658.688	0.0145918
658.766	0.0145776
658.844	0.0145790
658.923	0.0143862
659.001	0.0146655
659.079	0.0144830
659.157	0.0145951
659.235	0.0146381
659.313	0.0144310
659.391	0.0145579
659.469	0.0145180
659.548	0.0146352
659.626	0.0145132
659.704	0.0144927
659.782	0.0145650
659.860	0.0146996
659.938	0.0145658
660.016	0.0145663
660.094	0.0145621
660.173	0.0146422
660.251	0.0145065
660.329	0.0145719
660.407	0.0145096
660.485	0.0145812
660.563	0.0146019
660.641	0.0146267
660.719	0.0145433
660.798	0.0146254
660.876	0.0145641
660.954	0.0144827
661.032	0.0145564
661.110	0.0145415
661.188	0.0146083
661.266	0.0146745
661.344	0.0145378
661.423	0.0144819
661.501	0.0145965
661.579	0.0145792
661.657	0.0145692
661.735	0.0145621
661.813	0.0144923
661.891	0.0145872
661.969	0.0145413
662.048	0.0146449
662.126	0.0146301
662.204	0.0144745
662.282	0.0144530
662.360	0.0145962
662.438	0.0146976
662.516	0.0145889
662.594	0.0145647
662.673	0.0145513
662.751	0.0145084
662.829	0.0145518
662.907	0.0145802
662.985	0.0144578
663.063	0.0146242
663.141	0.0145104
663.219	0.0144386
663.298	0.0144852
663.376	0.0144937
663.454	0.0146642
663.532	0.0145721
663.610	0.0146284
663.688	0.0146519
663.766	0.0147111
663.844	0.0146600
663.923	0.0146341
664.001	0.0146923
664.079	0.0145573
664.157	0.0146006
664.235	0.0145509
664.313	0.0146283
664.391	0.0145359
664.469	0.0144839
664.548	0.0145657
664.626	0.0145820
664.704	0.0144832
664.782	0.0146194
664.860	0.0146757
664.938	0.0146120
665.016	0.0145157
665.094	0.0145892
665.173	0.0146060
665.251	0.0145153
665.329	0.0145103
665.407	0.0146655
665.485	0.0145631
665.563	0.0146570
665.641	0.0145124
665.719	0.0146107
665.798	0.0146961
665.876	0.0145717
665.954	0.0145763
666.032	0.0145010
666.110	0.0145566
666.188	0.0146124
666.266	0.0146453
666.344	0.0147253
666.423	0.0146053
666.501	0.0145422
666.579	0.0145448
666.657	0.0144815
666.735	0.0145695
666.813	0.0146820
666.891	0.0146838
666.969	0.0146236
667.048	0.0145747
667.126	0.0144749
667.204	0.0144881
667.282	0.0145826
667.360	0.0145736
667.438	0.0145617
667.516	0.0146462
667.594	0.0145022
667.673	0.0145383
667.751	0.0146294
667.829	0.0145367
667.907	0.0145699
667.985	0.0145441
668.063	0.0146429
668.141	0.0145718
668.219	0.0145542
668.298	0.0144510
668.376	0.0145905
668.454	0.0147059
668.532	0.0145664
668.610	0.0145308
668.688	0.0145701
668.766	0.0145518
668.844	0.0144545
668.923	0.0145383
669.001	0.0145326
669.079	0.0145820
669.157	0.0145087
669.235	0.0144976
669.313	0.0144212
669.391	0.0143865
669.469	0.0143806
669.548	0.0144996
669.626	0.0144923
669.704	0.0145117
669.782	0.0146353
669.860	0.0146333
669.938	0.0144731
670.016	0.0145468
670.094	0.0143866
670.173	0.0144714
670.251	0.0145394
670.329	0.0144627
670.407	0.0145257
670.485	0.0145689
670.563	0.0146458
670.641	0.0144543
670.719	0.0143878
670.798	0.0143947
670.876	0.0145371
670.954	0.0144796
671.032	0.0142838
671.110	0.0145435
671.188	0.0143089
671.266	0.0143044
671.344	0.0145634
671.423	0.0144278
671.501	0.0144028
671.579	0.0144829
671.657	0.0145556
671.735	0.0144323
671.813	0.0144696
671.891	0.0144595
671.969	0.0145799
672.048	0.0144082
672.126	0.0144753
672.204	0.0145120
672.282	0.0145486
672.360	0.0145392
672.438	0.0143432
672.516	0.0145468
672.594	0.0144312
672.673	0.0142740
672.751	0.0145214
672.829	0.0145432
672.907	0.0144616
672.985	0.0143993
673.063	0.0144266
673.141	0.0144621
673.219	0.0144943
673.298	0.0144117
673.376	0.0144863
673.454	0.0145251
673.532	0.0144753
673.610	0.0144301
673.688	0.0144809
673.766	0.0144894
673.844	0.0146248
673.923	0.0145778
674.001	0.0145637
674.079	0.0144951
674.157	0.0144865
674.235	0.0144563
674.313	0.0146174
674.391	0.0145304
674.469	0.0144521
674.548	0.0145010
674.626	0.0145058
674.704	0.0143769
674.782	0.0145872
674.860	0.0144999
674.938	0.0144661
675.016	0.0145562
675.094	0.0145499
675.173	0.0144917
675.251	0.0145277
675.329	0.0145966
675.407	0.0147133
675.485	0.0146291
675.563	0.0144460
675.641	0.0146070
675.719	0.0146632
675.798	0.0146056
675.876	0.0145236
675.954	0.0147520
676.032	0.0146867
676.110	0.0145594
676.188	0.0145899
676.266	0.0147687
676.344	0.0147302
676.423	0.0145520
676.501	0.0145292
676.579	0.0146361
676.657	0.0146970
676.735	0.0146282
676.813	0.0146371
676.891	0.0148290
676.969	0.0147773
677.048	0.0147093
677.126	0.0146974
677.204	0.0146725
677.282	0.0147035
677.360	0.0148087
677.438	0.0146096
677.516	0.0146719
677.594	0.0146838
677.673	0.0145909
677.751	0.0146123
677.829	0.0147160
677.907	0.0147128
677.985	0.0147702
678.063	0.0145618
678.141	0.0147430
678.219	0.0147929
678.298	0.0147601
678.376	0.0146384
678.454	0.0146475
678.532	0.0146566
678.610	0.0147839
678.688	0.0146786
678.766	0.0147261
678.844	0.0145906
678.923	0.0146034
679.001	0.0146481
679.079	0.0147581
679.157	0.0145586
679.235	0.0146813
679.313	0.0147754
679.391	0.0146240
679.469	0.0145133
679.548	0.0145515
679.626	0.0147221
679.704	0.0147207
679.782	0.0145427
679.860	0.0147088
679.938	0.0146117
680.016	0.0147697
680.094	0.0146471
680.173	0.0145998
680.251	0.0145892
680.329	0.0146370
680.407	0.0146125
680.485	0.0144453
680.563	0.0146268
680.641	0.0145404
680.719	0.0145048
680.798	0.0145150
680.876	0.0145164
680.954	0.0145744
681.032	0.0147197
681.110	0.0145854
681.188	0.0144898
681.266	0.0144824
681.344	0.0144913
681.423	0.0145416
681.501	0.0146926
681.579	0.0145839
681.657	0.0145938
681.735	0.0144668
681.813	0.0144886
681.891	0.0145035
681.969	0.0144982
682.048	0.0145270
682.126	0.0144631
682.204	0.0144817
682.282	0.0144040
682.360	0.0144666
682.438	0.0145045
682.516	0.0144971
682.594	0.0144337
682.673	0.0144131
682.751	0.0145773
682.829	0.0144670
682.907	0.0144822
682.985	0.0143413
683.063	0.0144929
683.141	0.0145680
683.219	0.0143350
683.298	0.0143600
683.376	0.0144202
683.454	0.0144310
683.532	0.0144965
683.610	0.0144985
683.688	0.0145401
683.766	0.0144201
683.844	0.0144318
683.923	0.0145591
684.001	0.0144571
684.079	0.0145377
684.157	0.0145570
684.235	0.0144955
684.313	0.0146848
684.391	0.0145559
684.469	0.0144934
684.548	0.0145734
684.626	0.0146590
684.704	0.0146319
684.782	0.0145888
684.860	0.0144264
684.938	0.0144424
685.016	0.0145100
685.094	0.0146051
685.173	0.0145227
685.251	0.0145850
685.329	0.0145367
685.407	0.0145748
685.485	0.0145530
685.563	0.0145152
685.641	0.0144798
685.719	0.0145202
685.798	0.0145782
685.876	0.0145180
685.954	0.0145107
686.032	0.0143625
686.110	0.0145161
686.188	0.0145255
686.266	0.0145131
686.344	0.0145147
686.423	0.0144781
686.501	0.0144400
686.579	0.0145169
686.657	0.0145301
686.735	0.0144852
686.813	0.0145667
686.891	0.0145215
686.969	0.0146102
687.048	0.0144692
687.126	0.0144676
687.204	0.0145266
687.282	0.0145118
687.360	0.0146034
687.438	0.0145934
687.516	0.0145374
687.594	0.0144833
687.673	0.0145851
687.751	0.0147565
687.829	0.0145572
687.907	0.0145370
687.985	0.0146831
688.063	0.0146210
688.141	0.0146143
688.219	0.0145550
688.298	0.0145909
688.376	0.0145795
688.454	0.0145737
688.532	0.0146996
688.610	0.0145410
688.688	0.0145486
688.766	0.0146774
688.844	0.0146102
688.923	0.0143810
689.001	0.0145358
689.079	0.0145839
689.157	0.0144276
689.235	0.0144735
689.313	0.0144707
689.391	0.0144218
689.469	0.0145408
689.548	0.0146693
689.626	0.0147395
689.704	0.0151244
689.782	0.0152322
689.860	0.0154134
689.938	0.0156108
690.016	0.0154516
690.094	0.0153249
690.173	0.0149396
690.251	0.0144642
690.329	0.0140515
690.407	0.0135189
690.485	0.0131109
690.563	0.0128352
690.641	0.0128322
690.719	0.0128111
690.798	0.0128806
690.876	0.0136174
690.954	0.0141154
691.032	0.0149181
691.110	0.0157588
691.188	0.0162409
691.266	0.0168795
691.344	0.0170570
691.423	0.0172990
691.501	0.0173023
691.579	0.0169350
691.657	0.0164179
691.735	0.0156322
691.813	0.0147847
691.891	0.0138163
691.969	0.0131325
692.048	0.0124477
692.126	0.0117081
692.204	0.0113073
692.282	0.0111351
692.360	0.0111397
692.438	0.0114451
692.516	0.0118414
692.594	0.0123793
692.673	0.0130074
692.751	0.0138076
692.829	0.0145130
692.907	0.0154831
692.985	0.0162472
693.063	0.0166884
693.141	0.0173099
693.219	0.0178160
693.298	0.0177225
693.376	0.0179096
693.454	0.0176723
693.532	0.0175214
693.610	0.0171960
693.688	0.0166816
693.766	0.0161695
693.844	0.0157470
693.923	0.0152100
694.001	0.0144086
694.079	0.0139743
694.157	0.0134946
694.235	0.0127499
694.313	0.0124503
694.391	0.0120797
694.469	0.0118419
694.548	0.0116297
694.626	0.0117068
694.704	0.0116346
694.782	0.0116649
694.860	0.0117163
694.938	0.0121764
695.016	0.0124194
695.094	0.0126942
695.173	0.0131953
695.251	0.0135482
695.329	0.0141959
695.407	0.0146451
695.485	0.0151137
695.563	0.0156500
695.641	0.0161166
695.719	0.0164599
695.798	0.0169492
695.876	0.0173750
695.954	0.0176128
696.032	0.0177511
696.110	0.0179004
696.188	0.0179536
696.266	0.0177683
696.344	0.0177029
696.423	0.0174200
696.501	0.0169505
696.579	0.0165059
696.657	0.0159845
696.735	0.0154190
696.813	0.0147899
696.891	0.0141553
696.969	0.0136723
697.048	0.0128477
697.126	0.0124393
697.204	0.0119087
697.282	0.0115022
697.360	0.0113638
697.438	0.0110710
697.516	0.0110009
697.594	0.0110983
697.673	0.0112712
697.751	0.0115881
697.829	0.0115449
697.907	0.0120742
697.985	0.0126026
698.063	0.0129874
698.141	0.0133665
698.219	0.0138863
698.298	0.0145528
698.376	0.0149316
698.454	0.0153134
698.532	0.0158215
698.610	0.0160060
698.688	0.0163380
698.766	0.0165900
698.844	0.0168552
698.923	0.0171120
699.001	0.0171294
699.079	0.0170752
699.157	0.0171206
699.235	0.0170958
699.313	0.0170043
699.391	0.0168808
699.469	0.0166805
699.548	0.0164870
699.626	0.0162840
699.704	0.0159782
699.782	0.0156819
699.860	0.0153455
699.938	0.0151635
700.016	0.0148370
700.094	0.0144058
700.173	0.0141676
700.251	0.0138058
700.329	0.0135541
700.407	0.0133656
700.485	0.0130439
700.563	0.0127640
700.641	0.0127114
700.719	0.0126711
700.798	0.0124353
700.876	0.0124946
700.954	0.0124776
701.032	0.0123809
701.110	0.0124344
701.188	0.0124966
701.266	0.0126335
701.344	0.0127869
701.423	0.0128403
701.501	0.0129440
701.579	0.0132616
701.657	0.0134077
701.735	0.0135914
701.813	0.0140150
701.891	0.0143644
701.969	0.0146815
702.048	0.0150737
702.126	0.0152467
702.204	0.0155674
702.282	0.0158291
702.360	0.0160989
702.438	0.0164018
702.516	0.0165102
702.594	0.0166356
702.673	0.0166789
702.751	0.0167016
702.829	0.0167043
702.907	0.0167293
702.985	0.0165677
703.063	0.0165792
703.141	0.0164065
703.219	0.0163445
703.298	0.0161988
703.376	0.0159673
703.454	0.0157494
703.532	0.0156108
703.610	0.0154184
703.688	0.0152644
703.766	0.0151234
703.844	0.0147875
703.923	0.0146758
704.001	0.0143944
704.079	0.0142538
704.157	0.0141850
704.235	0.0138628
704.313	0.0137962
704.391	0.0137484
704.469	0.0134485
704.548	0.0132466
704.626	0.0133053
704.704	0.0131489
704.782	0.0131560
704.860	0.0131561
704.938	0.0130552
705.016	0.0130747
705.094	0.0130985
705.173	0.0130246
705.251	0.0132439
705.329	0.0131329
705.407	0.0130591
705.485	0.0131711
705.563	0.0132099
705.641	0.0132468
705.719	0.0134264
705.798	0.0133222
705.876	0.0135694
705.954	0.0139987
706.032	0.0141251
706.110	0.0143694
706.188	0.0147280
706.266	0.0150717
706.344	0.0153797
706.423	0.0156621
706.501	0.0160657
706.579	0.0162032
706.657	0.0164407
706.735	0.0166047
706.813	0.0166158
706.891	0.0166552
706.969	0.0167040
707.048	0.0165789
707.126	0.0163256
707.204	0.0160596
707.282	0.0158891
707.360	0.0156670
707.438	0.0154024
707.516	0.0151028
707.594	0.0149741
707.673	0.0148700
707.751	0.0146892
707.829	0.0146101
707.907	0.0144672
707.985	0.0143414
708.063	0.0143383
708.141	0.0142833
708.219	0.0141184
708.298	0.0141219
708.376	0.0139730
708.454	0.0140757
708.532	0.0139619
708.610	0.0138628
708.688	0.0138707
708.766	0.0138988
708.844	0.0137378
708.923	0.0136920
709.001	0.0137389
709.079	0.0137618
709.157	0.0137170
709.235	0.0137306
709.313	0.0137314
709.391	0.0135915
709.469	0.0137622
709.548	0.0136093
709.626	0.0136768
709.704	0.0137123
709.782	0.0137168
709.860	0.0138026
709.938	0.0138670
710.016	0.0139474
710.094	0.0139785
710.173	0.0140903
710.251	0.0140995
710.329	0.0142132
710.407	0.0143121
710.485	0.0143412
710.563	0.0144768
710.641	0.0146142
710.719	0.0146245
710.798	0.0148193
710.876	0.0148641
710.954	0.0148119
711.032	0.0150087
711.110	0.0152345
711.188	0.0151345
711.266	0.0152049
711.344	0.0151535
711.423	0.0154447
711.501	0.0154280
711.579	0.0153784
711.657	0.0155363
711.735	0.0154932
711.813	0.0155334
711.891	0.0154984
711.969	0.0155432
712.048	0.0156689
712.126	0.0155666
712.204	0.0155064
712.282	0.0152904
712.360	0.0152907
712.438	0.0151283
712.516	0.0150716
712.594	0.0148735
712.673	0.0148756
712.751	0.0146585
712.829	0.0146053
712.907	0.0144813
712.985	0.0144808
713.063	0.0144914
713.141	0.0146297
713.219	0.0144978
713.298	0.0143670
713.376	0.0143363
713.454	0.0144088
713.532	0.0144283
713.610	0.0142481
713.688	0.0141496
713.766	0.0142405
713.844	0.0141615
713.923	0.0140015
714.001	0.0138721
714.079	0.0139092
714.157	0.0138966
714.235	0.0136814
714.313	0.0136763
714.391	0.0135464
714.469	0.0137163
714.548	0.0136254
714.626	0.0137591
714.704	0.0137448
714.782	0.0139031
714.860	0.0140285
714.938	0.0139700
715.016	0.0141066
715.094	0.0141326
715.173	0.0142951
715.251	0.0145872
715.329	0.0147053
715.407	0.0147170
715.485	0.0149565
715.563	0.0149329
715.641	0.0150359
715.719	0.0152039
715.798	0.0153503
715.876	0.0154313
715.954	0.0153747
716.032	0.0155870
716.110	0.0155547
716.188	0.0154381
716.266	0.0154632
716.344	0.0154203
716.423	0.0154181
716.501	0.0153423
716.579	0.0152719
716.657	0.0152513
716.735	0.0150869
716.813	0.0152996
716.891	0.0151846
716.969	0.0152621
717.048	0.0151308
717.126	0.0150570
717.204	0.0150485
717.282	0.0149580
717.360	0.0149509
717.438	0.0148209
717.516	0.0147740
717.594	0.0146314
717.673	0.0144386
717.751	0.0144118
717.829	0.0142007
717.907	0.0139690
717.985	0.0139724
718.063	0.0139651
718.141	0.0137424
718.219	0.0138175
718.298	0.0138881
718.376	0.0138747
718.454	0.0138499
718.532	0.0138849
718.610	0.0140344
718.688	0.0141199
718.766	0.0141151
718.844	0.0142871
718.923	0.0143970
719.001	0.0144000
719.079	0.0143499
719.157	0.0143328
719.235	0.0143134
719.313	0.0144935
719.391	0.0143747
719.469	0.0144321
719.548	0.0142788
719.626	0.0143908
719.704	0.0145352
719.782	0.0144316
719.860	0.0144102
719.938	0.0144202
720.016	0.0145099
720.094	0.0144640
720.173	0.0143721
720.251	0.0146300
720.329	0.0147031
720.407	0.0146624
720.485	0.0146864
720.563	0.0147797
720.641	0.0145920
720.719	0.0146659
720.798	0.0146896
720.876	0.0147418
720.954	0.0146895
721.032	0.0147733
721.110	0.0148160
721.188	0.0147237
721.266	0.0146236
721.344	0.0148548
721.423	0.0146783
721.501	0.0146938
721.579	0.0145528
721.657	0.0145863
721.735	0.0146500
721.813	0.0147078
721.891	0.0145914
721.969	0.0144511
722.048	0.0145319
722.126	0.0146585
722.204	0.0145733
722.282	0.0144703
722.360	0.0145369
722.438	0.0145596
722.516	0.0146242
722.594	0.0146708
722.673	0.0149296
722.751	0.0147614
722.829	0.0147784
722.907	0.0148617
722.985	0.0148132
723.063	0.0146043
723.141	0.0146224
723.219	0.0145685
723.298	0.0145545
723.376	0.0144574
723.454	0.0143483
723.532	0.0143839
723.610	0.0143510
723.688	0.0141454
723.766	0.0141888
723.844	0.0141002
723.923	0.0141119
724.001	0.0139877
724.079	0.0140209
724.157	0.0141473
724.235	0.0141673
724.313	0.0141749
724.391	0.0143030
724.469	0.0142816
724.548	0.0142629
724.626	0.0143968
724.704	0.0144141
724.782	0.0144320
724.860	0.0145332
724.938	0.0144401
725.016	0.0145032
725.094	0.0144032
725.173	0.0143955
725.251	0.0145451
725.329	0.0144582
725.407	0.0143617
725.485	0.0143835
725.563	0.0144103
725.641	0.0145117
725.719	0.0146558
725.798	0.0148111
725.876	0.0147261
725.954	0.0147298
726.032	0.0148145
726.110	0.0148502
726.188	0.0149773
726.266	0.0150224
726.344	0.0151199
726.423	0.0150861
726.501	0.0150877
726.579	0.0151879
726.657	0.0149638
726.735	0.0149467
726.813	0.0147443
726.891	0.0147122
726.969	0.0145918
727.048	0.0144587
727.126	0.0145103
727.204	0.0144173
727.282	0.0142732
727.360	0.0142193
727.438	0.0142204
727.516	0.0142860
727.594	0.0143665
727.673	0.0143550
727.751	0.0144342
727.829	0.0145370
727.907	0.0146762
727.985	0.0148672
728.063	0.0147911
728.141	0.0148572
728.219	0.0148940
728.298	0.0150698
728.376	0.0150119
728.454	0.0149902
728.532	0.0150380
728.610	0.0149125
728.688	0.0150261
728.766	0.0146959
728.844	0.0148270
728.923	0.0147652
729.001	0.0146888
729.079	0.0144978
729.157	0.0144603
729.235	0.0145172
729.313	0.0145351
729.391	0.0144787
729.469	0.0145118
729.548	0.0143748
729.626	0.0143992
729.704	0.0142982
729.782	0.0145442
729.860	0.0144698
729.938	0.0144562
730.016	0.0144604
730.094	0.0144937
730.173	0.0143715
730.251	0.0144831
730.329	0.0143765
730.407	0.0144376
730.485	0.0143842
730.563	0.0144537
730.641	0.0144671
730.719	0.0145138
730.798	0.0145248
730.876	0.0145136
730.954	0.0145644
731.032	0.0144374
731.110	0.0145590
731.188	0.0145247
731.266	0.0145437
731.344	0.0144919
731.423	0.0145240
731.501	0.0146015
731.579	0.0144325
731.657	0.0145267
731.735	0.0146138
731.813	0.0146030
731.891	0.0147671
731.969	0.0147664
732.048	0.0147047
732.126	0.0146313
732.204	0.0147078
732.282	0.0146312
732.360	0.0147013
732.438	0.0146065
732.516	0.0144835
732.594	0.0144453
732.673	0.0143398
732.751	0.0143124
732.829	0.0144336
732.907	0.0143487
732.985	0.0143246
733.063	0.0143398
733.141	0.0144367
733.219	0.0144736
733.298	0.0145527
733.376	0.0145074
733.454	0.0145899
733.532	0.0147189
733.610	0.0147639
733.688	0.0146780
733.766	0.0148418
733.844	0.0147997
733.923	0.0149432
734.001	0.0148859
734.079	0.0147836
734.157	0.0148932
734.235	0.0148736
734.313	0.0147806
734.391	0.0149169
734.469	0.0147688
734.548	0.0148618
734.626	0.0146886
734.704	0.0146239
734.782	0.0146541
734.860	0.0146666
734.938	0.0145752
735.016	0.0145000
735.094	0.0144078
735.173	0.0143817
735.251	0.0144857
735.329	0.0143803
735.407	0.0142217
735.485	0.0141837
735.563	0.0142558
735.641	0.0141143
735.719	0.0141968
