05/14/2022	19:39:36	Ver.	4.1	UNKNOWN
Optical Delay	650.009681	Delta X		0.078125	Sweeps	1	Scan Rate	0/0
Coordinates	Axis 1	NaN	Axis 2	NaN	Axis 3	NaN	Axis 4	NaN	Axis 5	NaN	Axis 6	0.000000
TX Power	0.000000	RX Power	0.000000

650.010	0.0139940
650.088	0.0140620
650.166	0.0141389
650.244	0.0139532
650.322	0.0139449
650.400	0.0140008
650.478	0.0139060
650.557	0.0140855
650.635	0.0140364
650.713	0.0140424
650.791	0.0140958
650.869	0.0140311
650.947	0.0141523
651.025	0.0141371
651.103	0.0139623
651.182	0.0141166
651.260	0.0142270
651.338	0.0142387
651.416	0.0143127
651.494	0.0141815
651.572	0.0140578
651.650	0.0141734
651.728	0.0141077
651.807	0.0143172
651.885	0.0140903
651.963	0.0140710
652.041	0.0141788
652.119	0.0141911
652.197	0.0142569
652.275	0.0141449
652.353	0.0140279
652.432	0.0141151
652.510	0.0142763
652.588	0.0141125
652.666	0.0140050
652.744	0.0140644
652.822	0.0140964
652.900	0.0140359
652.978	0.0139547
653.057	0.0141203
653.135	0.0140672
653.213	0.0140665
653.291	0.0139686
653.369	0.0140247
653.447	0.0140342
653.525	0.0140010
653.603	0.0140376
653.682	0.0139169
653.760	0.0138174
653.838	0.0137153
653.916	0.0136794
653.994	0.0135331
654.072	0.0137344
654.150	0.0136784
654.228	0.0137244
654.307	0.0137627
654.385	0.0137345
654.463	0.0137393
654.541	0.0139221
654.619	0.0139695
654.697	0.0139958
654.775	0.0140584
654.853	0.0140857
654.932	0.0140984
655.010	0.0142223
655.088	0.0142270
655.166	0.0141908
655.244	0.0141553
655.322	0.0140513
655.400	0.0139044
655.478	0.0140403
655.557	0.0140706
655.635	0.0139445
655.713	0.0138754
655.791	0.0138727
655.869	0.0138416
655.947	0.0137301
656.025	0.0137768
656.103	0.0137393
656.182	0.0137395
656.260	0.0138065
656.338	0.0138053
656.416	0.0137359
656.494	0.0136700
656.572	0.0138203
656.650	0.0138020
656.728	0.0138285
656.807	0.0139317
656.885	0.0140572
656.963	0.0139258
657.041	0.0137921
657.119	0.0140263
657.197	0.0141744
657.275	0.0140959
657.353	0.0139302
657.432	0.0139851
657.510	0.0141052
657.588	0.0140137
657.666	0.0139504
657.744	0.0139822
657.822	0.0139343
657.900	0.0138920
657.978	0.0137251
658.057	0.0137894
658.135	0.0136493
658.213	0.0136419
658.291	0.0135596
658.369	0.0135254
658.447	0.0133535
658.525	0.0133752
658.603	0.0133965
658.682	0.0132203
658.760	0.0132888
658.838	0.0134525
658.916	0.0133766
658.994	0.0136484
659.072	0.0137141
659.150	0.0137404
659.228	0.0137827
659.307	0.0138806
659.385	0.0141019
659.463	0.0143518
659.541	0.0143873
659.619	0.0143810
659.697	0.0143884
659.775	0.0144537
659.853	0.0145429
659.932	0.0147643
660.010	0.0145333
660.088	0.0145477
660.166	0.0145635
660.244	0.0143344
660.322	0.0144569
660.400	0.0143340
660.478	0.0141090
660.557	0.0141251
660.635	0.0140513
660.713	0.0138701
660.791	0.0138472
660.869	0.0136384
660.947	0.0134986
661.025	0.0133481
661.103	0.0132538
661.182	0.0130617
661.260	0.0129491
661.338	0.0128524
661.416	0.0128321
661.494	0.0128177
661.572	0.0127601
661.650	0.0127005
661.728	0.0127351
661.807	0.0127407
661.885	0.0128587
661.963	0.0130729
662.041	0.0131230
662.119	0.0134492
662.197	0.0135669
662.275	0.0138641
662.353	0.0139124
662.432	0.0141466
662.510	0.0142977
662.588	0.0145510
662.666	0.0147320
662.744	0.0149543
662.822	0.0149895
662.900	0.0151301
662.978	0.0153677
663.057	0.0154792
663.135	0.0152779
663.213	0.0153758
663.291	0.0155372
663.369	0.0155225
663.447	0.0155079
663.525	0.0153912
663.603	0.0154229
663.682	0.0152790
663.760	0.0152644
663.838	0.0151144
663.916	0.0149054
663.994	0.0147741
664.072	0.0147861
664.150	0.0146072
664.228	0.0143725
664.307	0.0142280
664.385	0.0139544
664.463	0.0137504
664.541	0.0135374
664.619	0.0132455
664.697	0.0129622
664.775	0.0128304
664.853	0.0124258
664.932	0.0122310
665.010	0.0121620
665.088	0.0118102
665.166	0.0115675
665.244	0.0115811
665.322	0.0115485
665.400	0.0114412
665.478	0.0115637
665.557	0.0115228
665.635	0.0115842
665.713	0.0117560
665.791	0.0119683
665.869	0.0121056
665.947	0.0124287
666.025	0.0129302
666.103	0.0131487
666.182	0.0136752
666.260	0.0140389
666.338	0.0145153
666.416	0.0151128
666.494	0.0157212
666.572	0.0160618
666.650	0.0164142
666.728	0.0168698
666.807	0.0172565
666.885	0.0175758
666.963	0.0177577
667.041	0.0180042
667.119	0.0180927
667.197	0.0179449
667.275	0.0179533
667.353	0.0176125
667.432	0.0172868
667.510	0.0171301
667.588	0.0168072
667.666	0.0165057
667.744	0.0160289
667.822	0.0155202
667.900	0.0149934
667.978	0.0144873
668.057	0.0139661
668.135	0.0132569
668.213	0.0128098
668.291	0.0123872
668.369	0.0117203
668.447	0.0110830
668.525	0.0106025
668.603	0.0101351
668.682	0.00984299
668.760	0.00953987
668.838	0.00930481
668.916	0.00931412
668.994	0.00919182
669.072	0.00939163
669.150	0.00957138
669.228	0.00977882
669.307	0.00998558
669.385	0.0104297
669.463	0.0107541
669.541	0.0113104
669.619	0.0117133
669.697	0.0121825
669.775	0.0126382
669.853	0.0132514
669.932	0.0135371
670.010	0.0140564
670.088	0.0145104
670.166	0.0149736
670.244	0.0152821
670.322	0.0157727
670.400	0.0159980
670.478	0.0164373
670.557	0.0168280
670.635	0.0171748
670.713	0.0173952
670.791	0.0174977
670.869	0.0177364
670.947	0.0179724
671.025	0.0179607
671.103	0.0180652
671.182	0.0181154
671.260	0.0179096
671.338	0.0178493
671.416	0.0177921
671.494	0.0172617
671.572	0.0171036
671.650	0.0167968
671.728	0.0165499
671.807	0.0161076
671.885	0.0156800
671.963	0.0153448
672.041	0.0148768
672.119	0.0143616
672.197	0.0138728
672.275	0.0133895
672.353	0.0129918
672.432	0.0124883
672.510	0.0119429
672.588	0.0114359
672.666	0.0110763
672.744	0.0105918
672.822	0.0101229
672.900	0.00982765
672.978	0.00949043
673.057	0.00935402
673.135	0.00916496
673.213	0.00905533
673.291	0.00897675
673.369	0.00921486
673.447	0.00932846
673.525	0.00954559
673.603	0.00984306
673.682	0.0102444
673.760	0.0107970
673.838	0.0112313
673.916	0.0117274
673.994	0.0122612
674.072	0.0128537
674.150	0.0134064
674.228	0.0141487
674.307	0.0145138
674.385	0.0152334
674.463	0.0156373
674.541	0.0163957
674.619	0.0168044
674.697	0.0172083
674.775	0.0175073
674.853	0.0179604
674.932	0.0181459
675.010	0.0183762
675.088	0.0184201
675.166	0.0185254
675.244	0.0186752
675.322	0.0184839
675.400	0.0184735
675.478	0.0181393
675.557	0.0178006
675.635	0.0173819
675.713	0.0172646
675.791	0.0167298
675.869	0.0163242
675.947	0.0158451
676.025	0.0154639
676.103	0.0153026
676.182	0.0147363
676.260	0.0142442
676.338	0.0138933
676.416	0.0134074
676.494	0.0129761
676.572	0.0126492
676.650	0.0121253
676.728	0.0117354
676.807	0.0114601
676.885	0.0111033
676.963	0.0109104
677.041	0.0106970
677.119	0.0105418
677.197	0.0104576
677.275	0.0104929
677.353	0.0105894
677.432	0.0108682
677.510	0.0108868
677.588	0.0112625
677.666	0.0114355
677.744	0.0118146
677.822	0.0119135
677.900	0.0121652
677.978	0.0125368
678.057	0.0128225
678.135	0.0129765
678.213	0.0130708
678.291	0.0133045
678.369	0.0137180
678.447	0.0137988
678.525	0.0140301
678.603	0.0142525
678.682	0.0143195
678.760	0.0146164
678.838	0.0147986
678.916	0.0148280
678.994	0.0150625
679.072	0.0150567
679.150	0.0151897
679.228	0.0151039
679.307	0.0151321
679.385	0.0150347
679.463	0.0150916
679.541	0.0149948
679.619	0.0149780
679.697	0.0147182
679.775	0.0147020
679.853	0.0148270
679.932	0.0144397
680.010	0.0145475
680.088	0.0143528
680.166	0.0144485
680.244	0.0142414
680.322	0.0142276
680.400	0.0142545
680.478	0.0142432
680.557	0.0142319
680.635	0.0142560
680.713	0.0143401
680.791	0.0143252
680.869	0.0143977
680.947	0.0142396
681.025	0.0142561
681.103	0.0142059
681.182	0.0142548
681.260	0.0143146
681.338	0.0141419
681.416	0.0141732
681.494	0.0141164
681.572	0.0142710
681.650	0.0140949
681.728	0.0141348
681.807	0.0141296
681.885	0.0141778
681.963	0.0141715
682.041	0.0142278
682.119	0.0142133
682.197	0.0141104
682.275	0.0139076
682.353	0.0137990
682.432	0.0138181
682.510	0.0136817
682.588	0.0134681
682.666	0.0135749
682.744	0.0134798
682.822	0.0134043
682.900	0.0134734
682.978	0.0133707
683.057	0.0133572
683.135	0.0133523
683.213	0.0132129
683.291	0.0132630
683.369	0.0132842
683.447	0.0132230
683.525	0.0129952
683.603	0.0128682
683.682	0.0127898
683.760	0.0126633
683.838	0.0126031
683.916	0.0125386
683.994	0.0123398
684.072	0.0123275
684.150	0.0122730
684.228	0.0121937
684.307	0.0123415
684.385	0.0124606
684.463	0.0125612
684.541	0.0128307
684.619	0.0129085
684.697	0.0130431
684.775	0.0133373
684.853	0.0134046
684.932	0.0136879
685.010	0.0139776
685.088	0.0140350
685.166	0.0143324
685.244	0.0146460
685.322	0.0148091
685.400	0.0149394
685.478	0.0151655
685.557	0.0154661
685.635	0.0156910
685.713	0.0157130
685.791	0.0158490
685.869	0.0161362
685.947	0.0162490
686.025	0.0163409
686.103	0.0164246
686.182	0.0165107
686.260	0.0164120
686.338	0.0164428
686.416	0.0165380
686.494	0.0163359
686.572	0.0162080
686.650	0.0161357
686.728	0.0159610
686.807	0.0156564
686.885	0.0154028
686.963	0.0152721
687.041	0.0150603
687.119	0.0149100
687.197	0.0147382
687.275	0.0145361
687.353	0.0140817
687.432	0.0140469
687.510	0.0137329
687.588	0.0136023
687.666	0.0132383
687.744	0.0131091
687.822	0.0128014
687.900	0.0125632
687.978	0.0124388
688.057	0.0120824
688.135	0.0118451
688.213	0.0117553
688.291	0.0115489
688.369	0.0114075
688.447	0.0110917
688.525	0.0110328
688.603	0.0110852
688.682	0.0109907
688.760	0.0108805
688.838	0.0107903
688.916	0.0109296
688.994	0.0110856
689.072	0.0111371
689.150	0.0113540
689.228	0.0116510
689.307	0.0117342
689.385	0.0119756
689.463	0.0122730
689.541	0.0126015
689.619	0.0128957
689.697	0.0132364
689.775	0.0134096
689.853	0.0138662
689.932	0.0140836
690.010	0.0144203
690.088	0.0148664
690.166	0.0152673
690.244	0.0155355
690.322	0.0158313
690.400	0.0162062
690.478	0.0162877
690.557	0.0165756
690.635	0.0167219
690.713	0.0169746
690.791	0.0169181
690.869	0.0170840
690.947	0.0170525
691.025	0.0170258
691.103	0.0169126
691.182	0.0167258
691.260	0.0165477
691.338	0.0163808
691.416	0.0159634
691.494	0.0158698
691.572	0.0155711
691.650	0.0151677
691.728	0.0149706
691.807	0.0145787
691.885	0.0142469
691.963	0.0140274
692.041	0.0138167
692.119	0.0134428
692.197	0.0131264
692.275	0.0128850
692.353	0.0126657
692.432	0.0125426
692.510	0.0123629
692.588	0.0121870
692.666	0.0121136
692.744	0.0119541
692.822	0.0119975
692.900	0.0121064
692.978	0.0118614
693.057	0.0120564
693.135	0.0121143
693.213	0.0121072
693.291	0.0122511
693.369	0.0123985
693.447	0.0123611
693.525	0.0124327
693.603	0.0127155
693.682	0.0129752
693.760	0.0129987
693.838	0.0133410
693.916	0.0135541
693.994	0.0138037
694.072	0.0140300
694.150	0.0141457
694.228	0.0144818
694.307	0.0146548
694.385	0.0146728
694.463	0.0147984
694.541	0.0149345
694.619	0.0149302
694.697	0.0148408
694.775	0.0147314
694.853	0.0146263
694.932	0.0146832
695.010	0.0144254
695.088	0.0142199
695.166	0.0140273
695.244	0.0138123
695.322	0.0136616
695.400	0.0135619
695.478	0.0133921
695.557	0.0133053
695.635	0.0132635
695.713	0.0131792
695.791	0.0131232
695.869	0.0130972
695.947	0.0131795
696.025	0.0132833
696.103	0.0132471
696.182	0.0131876
696.260	0.0134776
696.338	0.0135426
696.416	0.0136015
696.494	0.0137679
696.572	0.0139564
696.650	0.0142328
696.728	0.0142219
696.807	0.0143346
696.885	0.0144511
696.963	0.0145519
697.041	0.0147398
697.119	0.0147816
697.197	0.0149236
697.275	0.0150749
697.353	0.0152296
697.432	0.0151971
697.510	0.0152814
697.588	0.0152502
697.666	0.0154097
697.744	0.0154117
697.822	0.0152666
697.900	0.0151183
697.978	0.0151480
698.057	0.0149289
698.135	0.0148891
698.213	0.0146526
698.291	0.0144563
698.369	0.0142953
698.447	0.0140352
698.525	0.0137910
698.603	0.0136708
698.682	0.0134319
698.760	0.0131878
698.838	0.0129336
698.916	0.0128070
698.994	0.0127149
699.072	0.0127690
699.150	0.0126878
699.228	0.0125762
699.307	0.0126268
699.385	0.0126762
699.463	0.0126328
699.541	0.0129355
699.619	0.0131854
699.697	0.0131039
699.775	0.0132740
699.853	0.0133401
699.932	0.0134118
700.010	0.0133917
700.088	0.0134319
700.166	0.0134041
700.244	0.0133916
700.322	0.0134424
700.400	0.0135645
700.478	0.0133947
700.557	0.0133583
700.635	0.0133768
700.713	0.0134739
700.791	0.0135016
700.869	0.0134776
700.947	0.0134180
701.025	0.0135786
701.103	0.0137439
701.182	0.0138263
701.260	0.0140730
701.338	0.0143121
701.416	0.0143098
701.494	0.0143546
701.572	0.0145988
701.650	0.0145959
701.728	0.0147354
701.807	0.0149097
701.885	0.0150945
701.963	0.0151106
702.041	0.0152079
702.119	0.0152456
702.197	0.0154823
702.275	0.0154384
702.353	0.0153753
702.432	0.0152415
702.510	0.0152940
702.588	0.0152018
702.666	0.0151324
702.744	0.0149528
702.822	0.0148349
702.900	0.0146547
702.978	0.0144613
703.057	0.0142242
703.135	0.0140736
703.213	0.0137979
703.291	0.0135127
703.369	0.0133472
703.447	0.0131557
703.525	0.0131667
703.603	0.0129239
703.682	0.0127707
703.760	0.0126837
703.838	0.0125394
703.916	0.0126664
703.994	0.0126313
704.072	0.0126347
704.150	0.0126376
704.228	0.0126884
704.307	0.0129328
704.385	0.0130664
704.463	0.0132867
704.541	0.0135835
704.619	0.0137849
704.697	0.0140826
704.775	0.0141794
704.853	0.0144759
704.932	0.0146795
705.010	0.0151323
705.088	0.0150804
705.166	0.0151025
705.244	0.0152459
705.322	0.0152957
705.400	0.0153169
705.478	0.0152502
705.557	0.0153036
705.635	0.0150829
705.713	0.0151353
705.791	0.0147423
705.869	0.0147224
705.947	0.0145139
706.025	0.0143736
706.103	0.0141531
706.182	0.0138796
706.260	0.0138020
706.338	0.0135680
706.416	0.0134979
706.494	0.0132472
706.572	0.0131818
706.650	0.0129812
706.728	0.0127597
706.807	0.0127133
706.885	0.0125359
706.963	0.0123694
707.041	0.0124249
707.119	0.0125080
707.197	0.0123930
707.275	0.0122449
707.353	0.0124143
707.432	0.0124416
707.510	0.0126138
707.588	0.0126453
707.666	0.0129441
707.744	0.0131760
707.822	0.0132845
707.900	0.0134233
707.978	0.0136224
708.057	0.0138686
708.135	0.0140690
708.213	0.0143410
708.291	0.0145464
708.369	0.0146696
708.447	0.0149438
708.525	0.0150385
708.603	0.0151557
708.682	0.0151442
708.760	0.0151574
708.838	0.0153048
708.916	0.0155112
708.994	0.0153088
709.072	0.0154544
709.150	0.0154773
709.228	0.0153995
709.307	0.0152597
709.385	0.0152922
709.463	0.0150446
709.541	0.0150610
709.619	0.0148851
709.697	0.0148453
709.775	0.0146185
709.853	0.0144690
709.932	0.0142715
710.010	0.0142191
710.088	0.0141012
710.166	0.0140700
710.244	0.0136644
710.322	0.0136646
710.400	0.0136197
710.478	0.0134254
710.557	0.0134283
710.635	0.0130979
710.713	0.0130299
710.791	0.0130833
710.869	0.0128259
710.947	0.0128736
711.025	0.0128339
711.103	0.0126177
711.182	0.0125863
711.260	0.0126711
711.338	0.0125247
711.416	0.0126652
711.494	0.0125317
711.572	0.0127796
711.650	0.0127342
711.728	0.0129602
711.807	0.0130410
711.885	0.0132371
711.963	0.0133278
712.041	0.0134563
712.119	0.0136751
712.197	0.0138287
712.275	0.0138625
712.353	0.0140385
712.432	0.0141204
712.510	0.0142896
712.588	0.0142181
712.666	0.0145067
712.744	0.0145772
712.822	0.0146788
712.900	0.0147929
712.978	0.0147653
713.057	0.0149039
713.135	0.0148613
713.213	0.0150556
713.291	0.0150137
713.369	0.0150051
713.447	0.0149190
713.525	0.0150414
713.603	0.0149662
713.682	0.0150845
713.760	0.0148344
713.838	0.0149165
713.916	0.0147526
713.994	0.0146617
714.072	0.0146997
714.150	0.0145602
714.228	0.0144292
714.307	0.0145615
714.385	0.0142873
714.463	0.0140647
714.541	0.0140587
714.619	0.0140008
714.697	0.0138405
714.775	0.0138338
714.853	0.0138165
714.932	0.0134993
715.010	0.0135276
715.088	0.0135403
715.166	0.0135888
715.244	0.0135707
715.322	0.0134492
715.400	0.0133804
715.478	0.0133614
715.557	0.0133039
715.635	0.0130977
715.713	0.0132176
715.791	0.0131521
715.869	0.0131319
715.947	0.0131377
716.025	0.0131229
716.103	0.0133450
716.182	0.0132656
716.260	0.0133978
716.338	0.0134033
716.416	0.0135646
716.494	0.0136985
716.572	0.0137860
716.650	0.0137612
716.728	0.0137876
716.807	0.0138889
716.885	0.0141668
716.963	0.0141319
717.041	0.0142802
717.119	0.0142902
717.197	0.0142858
717.275	0.0142763
717.353	0.0145645
717.432	0.0144753
717.510	0.0145686
717.588	0.0145398
717.666	0.0146947
717.744	0.0146253
717.822	0.0145535
717.900	0.0146893
717.978	0.0147646
718.057	0.0147285
718.135	0.0147045
718.213	0.0147276
718.291	0.0147097
718.369	0.0146745
718.447	0.0146022
718.525	0.0145782
718.603	0.0145427
718.682	0.0144065
718.760	0.0143809
718.838	0.0144003
718.916	0.0143494
718.994	0.0141895
719.072	0.0140803
719.150	0.0140488
719.228	0.0139137
719.307	0.0136623
719.385	0.0136784
719.463	0.0136771
719.541	0.0134225
719.619	0.0134277
719.697	0.0135966
719.775	0.0134025
719.853	0.0132725
719.932	0.0134943
720.010	0.0134874
720.088	0.0135310
720.166	0.0134899
720.244	0.0134589
720.322	0.0134028
720.400	0.0134303
720.478	0.0132224
720.557	0.0134254
720.635	0.0135204
720.713	0.0133383
720.791	0.0134370
720.869	0.0134868
720.947	0.0134129
721.025	0.0135941
721.103	0.0136305
721.182	0.0136486
721.260	0.0137447
721.338	0.0138752
721.416	0.0136580
721.494	0.0137960
721.572	0.0140018
721.650	0.0141388
721.728	0.0141670
721.807	0.0141232
721.885	0.0142728
721.963	0.0143863
722.041	0.0142888
722.119	0.0145473
722.197	0.0143680
722.275	0.0144942
722.353	0.0144720
722.432	0.0145330
722.510	0.0145960
722.588	0.0144101
722.666	0.0145087
722.744	0.0145294
722.822	0.0144595
722.900	0.0143863
722.978	0.0142823
723.057	0.0142316
723.135	0.0142028
723.213	0.0142905
723.291	0.0141341
723.369	0.0141959
723.447	0.0140887
723.525	0.0141878
723.603	0.0141228
723.682	0.0140788
723.760	0.0139274
723.838	0.0139528
723.916	0.0138499
723.994	0.0140487
724.072	0.0140979
724.150	0.0140921
724.228	0.0139500
724.307	0.0139986
724.385	0.0138910
724.463	0.0138256
724.541	0.0137564
724.619	0.0137569
724.697	0.0138122
724.775	0.0137382
724.853	0.0136478
724.932	0.0138080
725.010	0.0135897
725.088	0.0136195
725.166	0.0136593
725.244	0.0136903
725.322	0.0136979
725.400	0.0138410
725.478	0.0139088
725.557	0.0139058
725.635	0.0140972
725.713	0.0141779
725.791	0.0142357
725.869	0.0142490
725.947	0.0143088
726.025	0.0143519
726.103	0.0143260
726.182	0.0143206
726.260	0.0143747
726.338	0.0144461
726.416	0.0142836
726.494	0.0143118
726.572	0.0142796
726.650	0.0141931
726.728	0.0142200
726.807	0.0143407
726.885	0.0141631
726.963	0.0141422
727.041	0.0140974
727.119	0.0139674
727.197	0.0138588
727.275	0.0140389
727.353	0.0140294
727.432	0.0139500
727.510	0.0138422
727.588	0.0140262
727.666	0.0138920
727.744	0.0137933
727.822	0.0140430
727.900	0.0139359
727.978	0.0138266
728.057	0.0139988
728.135	0.0140049
728.213	0.0140353
728.291	0.0140337
728.369	0.0141892
728.447	0.0142189
728.525	0.0143424
728.603	0.0143440
728.682	0.0144434
728.760	0.0144270
728.838	0.0144462
728.916	0.0144464
728.994	0.0144913
729.072	0.0145188
729.150	0.0144627
729.228	0.0144604
729.307	0.0142432
729.385	0.0144467
729.463	0.0142797
729.541	0.0140292
729.619	0.0140137
729.697	0.0139035
729.775	0.0137766
729.853	0.0135781
729.932	0.0136903
730.010	0.0134944
730.088	0.0133981
730.166	0.0133107
730.244	0.0131393
730.322	0.0129653
730.400	0.0128743
730.478	0.0131224
730.557	0.0130896
730.635	0.0129813
730.713	0.0131490
730.791	0.0130065
730.869	0.0130585
730.947	0.0131334
731.025	0.0131439
731.103	0.0132378
731.182	0.0133908
731.260	0.0134058
731.338	0.0136216
731.416	0.0137780
731.494	0.0137402
731.572	0.0138313
731.650	0.0139354
731.728	0.0140581
731.807	0.0140495
731.885	0.0141199
731.963	0.0141905
732.041	0.0142590
732.119	0.0143005
732.197	0.0143690
732.275	0.0145721
732.353	0.0143910
732.432	0.0145455
732.510	0.0146616
732.588	0.0147273
732.666	0.0147443
732.744	0.0149181
732.822	0.0149676
732.900	0.0148190
732.978	0.0148779
733.057	0.0148394
733.135	0.0148444
733.213	0.0148144
733.291	0.0147704
733.369	0.0148159
733.447	0.0148167
733.525	0.0146926
733.603	0.0145757
733.682	0.0147637
733.760	0.0145420
733.838	0.0144164
733.916	0.0143539
733.994	0.0142865
734.072	0.0141708
734.150	0.0141241
734.228	0.0139709
734.307	0.0138953
734.385	0.0139024
734.463	0.0137936
734.541	0.0137561
734.619	0.0136321
734.697	0.0135866
734.775	0.0136486
734.853	0.0135763
734.932	0.0135952
735.010	0.0134650
735.088	0.0134657
735.166	0.0133140
735.244	0.0134100
735.322	0.0133823
735.400	0.0134401
735.478	0.0135166
735.557	0.0134876
735.635	0.0134864
