05/14/2022	19:39:51	Ver.	4.1	UNKNOWN
Optical Delay	650.009681	Delta X		0.078125	Sweeps	1	Scan Rate	0/0
Coordinates	Axis 1	NaN	Axis 2	NaN	Axis 3	NaN	Axis 4	NaN	Axis 5	NaN	Axis 6	0.000000
TX Power	0.000000	RX Power	0.000000

650.010	0.0145715
650.088	0.0144022
650.166	0.0143309
650.244	0.0144939
650.322	0.0143770
650.400	0.0143272
650.478	0.0142644
650.557	0.0142741
650.635	0.0144092
650.713	0.0142617
650.791	0.0143266
650.869	0.0144189
650.947	0.0145000
651.025	0.0145844
651.103	0.0144314
651.182	0.0144823
651.260	0.0145197
651.338	0.0146179
651.416	0.0146827
651.494	0.0145164
651.572	0.0146019
651.650	0.0146584
651.728	0.0144801
651.807	0.0145293
651.885	0.0145969
651.963	0.0147390
652.041	0.0144704
652.119	0.0145667
652.197	0.0145747
652.275	0.0144932
652.353	0.0143972
652.432	0.0144216
652.510	0.0144028
652.588	0.0143591
652.666	0.0144917
652.744	0.0144942
652.822	0.0144476
652.900	0.0144685
652.978	0.0145090
653.057	0.0144844
653.135	0.0145454
653.213	0.0145063
653.291	0.0143494
653.369	0.0143553
653.447	0.0143738
653.525	0.0143212
653.603	0.0141956
653.682	0.0143041
653.760	0.0141870
653.838	0.0140449
653.916	0.0140765
653.994	0.0141174
654.072	0.0139681
654.150	0.0140202
654.228	0.0140477
654.307	0.0141440
654.385	0.0140964
654.463	0.0141574
654.541	0.0142583
654.619	0.0143449
654.697	0.0143306
654.775	0.0143907
654.853	0.0144385
654.932	0.0144465
655.010	0.0146470
655.088	0.0147459
655.166	0.0144816
655.244	0.0146358
655.322	0.0146638
655.400	0.0144418
655.478	0.0144570
655.557	0.0144642
655.635	0.0145477
655.713	0.0144971
655.791	0.0142860
655.869	0.0142359
655.947	0.0142858
656.025	0.0142846
656.103	0.0142556
656.182	0.0143049
656.260	0.0142221
656.338	0.0141789
656.416	0.0142222
656.494	0.0142997
656.572	0.0142792
656.650	0.0142788
656.728	0.0143713
656.807	0.0144363
656.885	0.0145552
656.963	0.0144184
657.041	0.0146123
657.119	0.0146852
657.197	0.0146685
657.275	0.0145735
657.353	0.0146408
657.432	0.0145948
657.510	0.0145798
657.588	0.0145142
657.666	0.0145259
657.744	0.0145434
657.822	0.0144294
657.900	0.0145331
657.978	0.0143819
658.057	0.0142915
658.135	0.0142125
658.213	0.0140355
658.291	0.0139429
658.369	0.0139298
658.447	0.0139108
658.525	0.0139430
658.603	0.0139011
658.682	0.0138087
658.760	0.0138479
658.838	0.0138599
658.916	0.0138999
658.994	0.0140533
659.072	0.0142071
659.150	0.0144493
659.228	0.0144499
659.307	0.0145515
659.385	0.0147287
659.463	0.0148270
659.541	0.0149508
659.619	0.0151360
659.697	0.0150677
659.775	0.0151767
659.853	0.0152547
659.932	0.0152713
660.010	0.0151699
660.088	0.0151311
660.166	0.0152048
660.244	0.0152277
660.322	0.0150712
660.400	0.0148780
660.478	0.0147788
660.557	0.0147451
660.635	0.0147154
660.713	0.0145257
660.791	0.0143743
660.869	0.0140816
660.947	0.0140558
661.025	0.0139877
661.103	0.0138696
661.182	0.0136935
661.260	0.0136323
661.338	0.0135618
661.416	0.0135125
661.494	0.0135153
661.572	0.0134937
661.650	0.0135139
661.728	0.0134106
661.807	0.0136628
661.885	0.0137069
661.963	0.0137560
662.041	0.0139532
662.119	0.0141187
662.197	0.0141922
662.275	0.0143633
662.353	0.0147343
662.432	0.0148453
662.510	0.0151125
662.588	0.0151765
662.666	0.0152462
662.744	0.0156095
662.822	0.0157683
662.900	0.0158350
662.978	0.0159296
663.057	0.0159386
663.135	0.0159882
663.213	0.0159351
663.291	0.0159796
663.369	0.0158207
663.447	0.0159093
663.525	0.0158114
663.603	0.0158752
663.682	0.0157274
663.760	0.0154903
663.838	0.0153240
663.916	0.0153087
663.994	0.0152540
664.072	0.0150600
664.150	0.0148880
664.228	0.0145361
664.307	0.0144694
664.385	0.0142688
664.463	0.0140283
664.541	0.0136679
664.619	0.0135719
664.697	0.0133783
664.775	0.0131647
664.853	0.0128795
664.932	0.0126009
665.010	0.0126076
665.088	0.0124702
665.166	0.0121947
665.244	0.0118986
665.322	0.0119669
665.400	0.0118178
665.478	0.0118369
665.557	0.0119478
665.635	0.0121357
665.713	0.0120719
665.791	0.0122633
665.869	0.0127998
665.947	0.0129679
666.025	0.0130821
666.103	0.0137197
666.182	0.0139685
666.260	0.0144661
666.338	0.0149009
666.416	0.0153165
666.494	0.0159420
666.572	0.0163372
666.650	0.0167807
666.728	0.0172455
666.807	0.0176435
666.885	0.0179243
666.963	0.0182890
667.041	0.0183998
667.119	0.0185272
667.197	0.0184988
667.275	0.0183825
667.353	0.0181604
667.432	0.0180750
667.510	0.0177837
667.588	0.0173565
667.666	0.0168569
667.744	0.0166094
667.822	0.0159315
667.900	0.0155465
667.978	0.0149508
668.057	0.0145454
668.135	0.0139165
668.213	0.0132523
668.291	0.0127537
668.369	0.0121859
668.447	0.0116386
668.525	0.0112571
668.603	0.0109329
668.682	0.0104686
668.760	0.0101331
668.838	0.00997284
668.916	0.00984604
668.994	0.00982063
669.072	0.00999001
669.150	0.0101801
669.228	0.0104550
669.307	0.0106758
669.385	0.0110500
669.463	0.0113497
669.541	0.0117790
669.619	0.0122697
669.697	0.0129216
669.775	0.0133218
669.853	0.0138567
669.932	0.0143662
670.010	0.0146877
670.088	0.0151301
670.166	0.0156383
670.244	0.0158850
670.322	0.0162766
670.400	0.0167280
670.478	0.0170711
670.557	0.0174652
670.635	0.0177151
670.713	0.0177669
670.791	0.0180962
670.869	0.0181211
670.947	0.0184206
671.025	0.0185090
671.103	0.0185606
671.182	0.0185583
671.260	0.0185245
671.338	0.0183578
671.416	0.0181921
671.494	0.0179262
671.572	0.0176357
671.650	0.0174461
671.728	0.0169669
671.807	0.0168094
671.885	0.0163963
671.963	0.0157668
672.041	0.0155688
672.119	0.0150085
672.197	0.0145869
672.275	0.0141486
672.353	0.0136605
672.432	0.0131989
672.510	0.0126839
672.588	0.0121814
672.666	0.0118123
672.744	0.0111292
672.822	0.0107378
672.900	0.0103489
672.978	0.0102526
673.057	0.00984413
673.135	0.00958397
673.213	0.00957970
673.291	0.00941574
673.369	0.00949516
673.447	0.00970200
673.525	0.00977852
673.603	0.0101452
673.682	0.0106220
673.760	0.0108777
673.838	0.0113924
673.916	0.0119572
673.994	0.0124934
674.072	0.0130059
674.150	0.0136271
674.228	0.0141100
674.307	0.0146791
674.385	0.0153848
674.463	0.0158099
674.541	0.0165057
674.619	0.0170792
674.697	0.0174510
674.775	0.0178657
674.853	0.0182815
674.932	0.0185963
675.010	0.0188895
675.088	0.0190941
675.166	0.0191207
675.244	0.0193330
675.322	0.0191952
675.400	0.0189916
675.478	0.0186429
675.557	0.0185732
675.635	0.0181417
675.713	0.0176504
675.791	0.0174126
675.869	0.0169503
675.947	0.0163414
676.025	0.0159836
676.103	0.0156581
676.182	0.0151137
676.260	0.0147511
676.338	0.0143758
676.416	0.0137178
676.494	0.0134517
676.572	0.0130970
676.650	0.0127281
676.728	0.0122037
676.807	0.0118654
676.885	0.0115528
676.963	0.0112451
677.041	0.0110210
677.119	0.0109192
677.197	0.0108937
677.275	0.0109270
677.353	0.0107583
677.432	0.0110575
677.510	0.0112268
677.588	0.0114465
677.666	0.0116534
677.744	0.0119897
677.822	0.0123324
677.900	0.0124876
677.978	0.0129668
678.057	0.0131389
678.135	0.0133886
678.213	0.0137270
678.291	0.0138887
678.369	0.0140845
678.447	0.0143291
678.525	0.0146127
678.603	0.0149544
678.682	0.0151097
678.760	0.0153463
678.838	0.0154210
678.916	0.0155257
678.994	0.0157059
679.072	0.0158504
679.150	0.0160654
679.228	0.0160299
679.307	0.0159349
679.385	0.0159226
679.463	0.0159584
679.541	0.0157687
679.619	0.0156869
679.697	0.0156543
679.775	0.0156523
679.853	0.0154262
679.932	0.0152731
680.010	0.0153244
680.088	0.0151558
680.166	0.0149587
680.244	0.0150477
680.322	0.0148985
680.400	0.0148628
680.478	0.0148141
680.557	0.0148441
680.635	0.0148104
680.713	0.0146575
680.791	0.0146780
680.869	0.0147940
680.947	0.0148056
681.025	0.0147616
681.103	0.0147677
681.182	0.0147414
681.260	0.0148444
681.338	0.0148669
681.416	0.0146777
681.494	0.0146920
681.572	0.0146910
681.650	0.0146428
681.728	0.0147603
681.807	0.0146051
681.885	0.0145795
681.963	0.0147328
682.041	0.0146432
682.119	0.0146256
682.197	0.0146545
682.275	0.0145198
682.353	0.0143629
682.432	0.0143061
682.510	0.0144511
682.588	0.0143057
682.666	0.0142312
682.744	0.0140752
682.822	0.0139727
682.900	0.0140560
682.978	0.0139921
683.057	0.0139470
683.135	0.0139535
683.213	0.0138853
683.291	0.0138582
683.369	0.0138973
683.447	0.0137598
683.525	0.0135100
683.603	0.0135542
683.682	0.0133966
683.760	0.0133303
683.838	0.0131527
683.916	0.0130372
683.994	0.0128883
684.072	0.0129429
684.150	0.0127105
684.228	0.0127318
684.307	0.0128246
684.385	0.0127733
684.463	0.0129356
684.541	0.0130894
684.619	0.0131245
684.697	0.0133781
684.775	0.0137437
684.853	0.0138061
684.932	0.0138702
685.010	0.0142604
685.088	0.0145339
685.166	0.0147371
685.244	0.0149017
685.322	0.0151694
685.400	0.0155373
685.478	0.0155374
685.557	0.0156547
685.635	0.0159620
685.713	0.0161357
685.791	0.0161587
685.869	0.0163643
685.947	0.0166840
686.025	0.0166348
686.103	0.0166250
686.182	0.0166560
686.260	0.0167085
686.338	0.0165531
686.416	0.0165299
686.494	0.0166039
686.572	0.0166064
686.650	0.0161901
686.728	0.0161934
686.807	0.0160142
686.885	0.0157937
686.963	0.0156261
687.041	0.0153730
687.119	0.0152905
687.197	0.0149422
687.275	0.0148463
687.353	0.0145678
687.432	0.0143059
687.510	0.0142249
687.588	0.0140739
687.666	0.0137900
687.744	0.0136353
687.822	0.0134856
687.900	0.0133314
687.978	0.0129772
688.057	0.0128320
688.135	0.0128524
688.213	0.0125613
688.291	0.0124183
688.369	0.0122813
688.447	0.0121016
688.525	0.0120863
688.603	0.0119308
688.682	0.0118079
688.760	0.0115836
688.838	0.0116399
688.916	0.0117023
688.994	0.0118943
689.072	0.0117780
689.150	0.0118848
689.228	0.0119904
689.307	0.0120367
689.385	0.0122711
689.463	0.0124908
689.541	0.0127578
689.619	0.0128668
689.697	0.0132042
689.775	0.0135136
689.853	0.0138689
689.932	0.0141483
690.010	0.0145119
690.088	0.0149527
690.166	0.0152417
690.244	0.0155476
690.322	0.0160785
690.400	0.0163531
690.478	0.0164600
690.557	0.0169651
690.635	0.0173106
690.713	0.0173820
690.791	0.0176307
690.869	0.0176558
690.947	0.0177272
691.025	0.0176805
691.103	0.0177374
691.182	0.0176038
691.260	0.0174929
691.338	0.0172950
691.416	0.0171654
691.494	0.0169731
691.572	0.0166490
691.650	0.0163903
691.728	0.0160603
691.807	0.0157597
691.885	0.0154443
691.963	0.0149915
692.041	0.0147170
692.119	0.0144427
692.197	0.0140513
692.275	0.0137908
692.353	0.0135919
692.432	0.0133088
692.510	0.0130943
692.588	0.0127876
692.666	0.0125656
692.744	0.0124569
692.822	0.0124275
692.900	0.0123802
692.978	0.0122275
693.057	0.0121059
693.135	0.0123820
693.213	0.0123292
693.291	0.0124454
693.369	0.0123854
693.447	0.0125676
693.525	0.0126133
693.603	0.0127888
693.682	0.0130229
693.760	0.0130604
693.838	0.0132652
693.916	0.0135741
693.994	0.0136557
694.072	0.0140337
694.150	0.0141785
694.228	0.0142411
694.307	0.0145775
694.385	0.0148154
694.463	0.0149244
694.541	0.0150223
694.619	0.0151108
694.697	0.0153616
694.775	0.0153448
694.853	0.0152151
694.932	0.0152180
695.010	0.0152193
695.088	0.0149892
695.166	0.0148179
695.244	0.0148125
695.322	0.0147461
695.400	0.0144379
695.478	0.0146055
695.557	0.0144570
695.635	0.0143485
695.713	0.0142194
695.791	0.0143196
695.869	0.0140913
695.947	0.0140136
696.025	0.0141506
696.103	0.0142155
696.182	0.0139794
696.260	0.0140604
696.338	0.0141271
696.416	0.0141332
696.494	0.0142355
696.572	0.0142590
696.650	0.0142987
696.728	0.0144019
696.807	0.0144325
696.885	0.0146942
696.963	0.0148903
697.041	0.0148386
697.119	0.0150082
697.197	0.0149955
697.275	0.0151393
697.353	0.0152799
697.432	0.0154038
697.510	0.0155305
697.588	0.0155405
697.666	0.0157111
697.744	0.0157373
697.822	0.0157440
697.900	0.0157047
697.978	0.0156326
698.057	0.0156596
698.135	0.0154810
698.213	0.0154887
698.291	0.0152871
698.369	0.0151579
698.447	0.0148644
698.525	0.0146793
698.603	0.0144857
698.682	0.0141972
698.760	0.0140813
698.838	0.0139713
698.916	0.0136452
698.994	0.0135577
699.072	0.0134634
699.150	0.0133389
699.228	0.0132835
699.307	0.0133800
699.385	0.0132585
699.463	0.0132269
699.541	0.0133038
699.619	0.0134418
699.697	0.0135252
699.775	0.0136275
699.853	0.0137399
699.932	0.0137482
700.010	0.0138777
700.088	0.0139925
700.166	0.0140759
700.244	0.0139960
700.322	0.0140659
700.400	0.0140505
700.478	0.0140971
700.557	0.0140379
700.635	0.0140572
700.713	0.0140720
700.791	0.0141396
700.869	0.0140936
700.947	0.0142222
701.025	0.0141743
701.103	0.0140659
701.182	0.0143399
701.260	0.0144036
701.338	0.0144196
701.416	0.0144886
701.494	0.0145347
701.572	0.0145476
701.650	0.0148230
701.728	0.0149669
701.807	0.0150704
701.885	0.0150558
701.963	0.0152348
702.041	0.0153762
702.119	0.0153287
702.197	0.0155628
702.275	0.0157002
702.353	0.0156651
702.432	0.0158233
702.510	0.0157191
702.588	0.0157960
702.666	0.0159823
702.744	0.0158185
702.822	0.0156445
702.900	0.0156329
702.978	0.0154387
703.057	0.0151317
703.135	0.0150757
703.213	0.0148704
703.291	0.0146814
703.369	0.0144178
703.447	0.0141142
703.525	0.0141251
703.603	0.0138696
703.682	0.0135916
703.760	0.0134100
703.838	0.0134164
703.916	0.0132514
703.994	0.0131508
704.072	0.0131122
704.150	0.0130934
704.228	0.0128958
704.307	0.0130109
704.385	0.0131875
704.463	0.0133030
704.541	0.0134917
704.619	0.0136091
704.697	0.0138980
704.775	0.0140421
704.853	0.0142352
704.932	0.0144604
705.010	0.0147533
705.088	0.0148392
705.166	0.0151140
705.244	0.0154553
705.322	0.0155444
705.400	0.0154832
705.478	0.0156406
705.557	0.0157113
705.635	0.0156409
705.713	0.0157134
705.791	0.0155069
705.869	0.0153786
705.947	0.0154597
706.025	0.0151709
706.103	0.0151099
706.182	0.0148737
706.260	0.0147510
706.338	0.0145789
706.416	0.0143401
706.494	0.0143799
706.572	0.0140472
706.650	0.0137648
706.728	0.0138243
706.807	0.0136351
706.885	0.0135692
706.963	0.0133711
707.041	0.0132139
707.119	0.0130472
707.197	0.0130670
707.275	0.0129478
707.353	0.0129193
707.432	0.0130685
707.510	0.0129624
707.588	0.0129877
707.666	0.0130389
707.744	0.0130734
707.822	0.0132570
707.900	0.0133670
707.978	0.0135913
708.057	0.0136859
708.135	0.0141235
708.213	0.0142606
708.291	0.0146845
708.369	0.0147479
708.447	0.0149620
708.525	0.0149415
708.603	0.0151864
708.682	0.0153042
708.760	0.0155505
708.838	0.0156155
708.916	0.0157357
708.994	0.0158504
709.072	0.0159500
709.150	0.0159612
709.228	0.0158670
709.307	0.0159164
709.385	0.0159961
709.463	0.0160084
709.541	0.0157951
709.619	0.0159264
709.697	0.0156424
709.775	0.0156657
709.853	0.0154469
709.932	0.0153737
710.010	0.0151918
710.088	0.0150721
710.166	0.0149506
710.244	0.0149227
710.322	0.0146644
710.400	0.0144959
710.478	0.0142173
710.557	0.0141711
710.635	0.0140607
710.713	0.0138219
710.791	0.0136700
710.869	0.0135857
710.947	0.0135411
711.025	0.0133820
711.103	0.0135056
711.182	0.0133485
711.260	0.0131282
711.338	0.0129902
711.416	0.0130217
711.494	0.0130258
711.572	0.0129887
711.650	0.0129890
711.728	0.0130341
711.807	0.0132022
711.885	0.0133039
711.963	0.0132303
712.041	0.0133598
712.119	0.0135159
712.197	0.0137080
712.275	0.0140145
712.353	0.0140868
712.432	0.0141613
712.510	0.0144124
712.588	0.0145034
712.666	0.0146457
712.744	0.0146564
712.822	0.0149706
712.900	0.0150256
712.978	0.0149937
713.057	0.0152125
713.135	0.0152618
713.213	0.0152936
713.291	0.0153595
713.369	0.0152442
713.447	0.0154179
713.525	0.0154289
713.603	0.0153944
713.682	0.0155951
713.760	0.0156104
713.838	0.0155966
713.916	0.0155222
713.994	0.0155653
714.072	0.0154350
714.150	0.0153809
714.228	0.0153866
714.307	0.0153899
714.385	0.0152554
714.463	0.0152532
714.541	0.0150655
714.619	0.0149164
714.697	0.0148042
714.775	0.0146798
714.853	0.0146636
714.932	0.0145289
715.010	0.0143060
715.088	0.0143484
715.166	0.0143623
715.244	0.0143700
715.322	0.0142540
715.400	0.0142305
715.478	0.0140613
715.557	0.0140292
715.635	0.0141685
715.713	0.0139401
715.791	0.0139545
715.869	0.0138397
715.947	0.0137054
716.025	0.0137111
716.103	0.0136341
716.182	0.0136712
716.260	0.0136090
716.338	0.0136265
716.416	0.0136501
716.494	0.0136727
716.572	0.0136196
716.650	0.0137751
716.728	0.0138647
716.807	0.0139144
716.885	0.0139088
716.963	0.0140601
717.041	0.0141161
717.119	0.0140377
717.197	0.0142654
717.275	0.0143447
717.353	0.0143747
717.432	0.0144995
717.510	0.0146864
717.588	0.0147530
717.666	0.0147728
717.744	0.0147323
717.822	0.0150681
717.900	0.0150343
717.978	0.0149397
718.057	0.0151761
718.135	0.0152110
718.213	0.0153220
718.291	0.0153683
718.369	0.0151375
718.447	0.0153024
718.525	0.0153986
718.603	0.0152274
718.682	0.0152544
718.760	0.0151585
718.838	0.0151020
718.916	0.0151377
718.994	0.0149907
719.072	0.0149920
719.150	0.0149117
719.228	0.0147920
719.307	0.0145931
719.385	0.0145906
719.463	0.0145200
719.541	0.0144656
719.619	0.0142782
719.697	0.0141132
719.775	0.0140857
719.853	0.0141376
719.932	0.0140286
720.010	0.0140065
720.088	0.0140305
720.166	0.0138882
720.244	0.0138663
720.322	0.0140726
720.400	0.0139340
720.478	0.0139587
720.557	0.0139156
720.635	0.0138873
720.713	0.0139362
720.791	0.0139632
720.869	0.0138538
720.947	0.0139879
721.025	0.0139508
721.103	0.0139909
721.182	0.0139842
721.260	0.0140105
721.338	0.0142329
721.416	0.0140911
721.494	0.0142001
721.572	0.0143990
721.650	0.0144544
721.728	0.0146423
721.807	0.0145274
721.885	0.0146293
721.963	0.0146729
722.041	0.0147535
722.119	0.0149458
722.197	0.0148952
722.275	0.0149427
722.353	0.0149802
722.432	0.0149519
722.510	0.0149195
722.588	0.0149931
722.666	0.0149710
722.744	0.0149622
722.822	0.0150732
722.900	0.0149530
722.978	0.0149940
723.057	0.0149595
723.135	0.0150615
723.213	0.0149796
723.291	0.0148569
723.369	0.0147979
723.447	0.0148041
723.525	0.0149161
723.603	0.0148411
723.682	0.0147408
723.760	0.0145977
723.838	0.0146178
723.916	0.0146812
723.994	0.0146102
724.072	0.0145722
724.150	0.0146561
724.228	0.0145937
724.307	0.0146508
724.385	0.0145546
724.463	0.0144294
724.541	0.0144299
724.619	0.0143465
724.697	0.0142442
724.775	0.0143573
724.853	0.0141090
724.932	0.0142597
725.010	0.0141084
725.088	0.0142163
725.166	0.0141230
725.244	0.0140711
725.322	0.0141240
725.400	0.0140756
725.478	0.0142653
725.557	0.0141131
725.635	0.0141013
725.713	0.0143698
725.791	0.0144621
725.869	0.0144485
725.947	0.0146003
726.025	0.0145708
726.103	0.0146383
726.182	0.0145677
726.260	0.0146568
726.338	0.0146748
726.416	0.0144592
726.494	0.0147060
726.572	0.0146318
726.650	0.0145027
726.728	0.0144515
726.807	0.0146515
726.885	0.0145635
726.963	0.0143762
727.041	0.0144064
727.119	0.0143803
727.197	0.0145435
727.275	0.0145500
727.353	0.0142931
727.432	0.0141224
727.510	0.0142642
727.588	0.0141183
727.666	0.0142197
727.744	0.0141402
727.822	0.0141163
727.900	0.0142263
727.978	0.0142838
728.057	0.0142358
728.135	0.0144054
728.213	0.0144534
728.291	0.0144553
728.369	0.0144582
728.447	0.0146223
728.525	0.0147977
728.603	0.0145628
728.682	0.0149001
728.760	0.0149167
728.838	0.0150330
728.916	0.0149471
728.994	0.0150720
729.072	0.0149642
729.150	0.0150456
729.228	0.0151568
729.307	0.0150554
729.385	0.0149979
729.463	0.0147894
729.541	0.0147900
729.619	0.0147713
729.697	0.0147073
729.775	0.0148473
729.853	0.0146027
729.932	0.0145281
730.010	0.0145302
730.088	0.0143359
730.166	0.0141963
730.244	0.0141811
730.322	0.0141193
730.400	0.0141060
730.478	0.0138864
730.557	0.0138689
730.635	0.0137144
730.713	0.0136218
730.791	0.0136152
730.869	0.0137244
730.947	0.0137576
731.025	0.0135697
731.103	0.0136849
731.182	0.0135878
731.260	0.0136882
731.338	0.0137528
731.416	0.0138883
731.494	0.0139224
731.572	0.0141895
731.650	0.0141309
731.728	0.0140782
731.807	0.0143778
731.885	0.0142604
731.963	0.0144122
732.041	0.0144438
732.119	0.0145967
732.197	0.0147973
732.275	0.0147750
732.353	0.0148852
732.432	0.0149574
732.510	0.0150335
732.588	0.0149648
732.666	0.0151065
732.744	0.0152464
732.822	0.0153319
732.900	0.0152979
732.978	0.0153555
733.057	0.0152710
733.135	0.0153345
733.213	0.0151892
733.291	0.0152265
733.369	0.0152406
733.447	0.0152333
733.525	0.0151659
733.603	0.0150719
733.682	0.0151665
733.760	0.0149969
733.838	0.0150542
733.916	0.0148515
733.994	0.0147323
734.072	0.0147243
734.150	0.0146786
734.228	0.0146415
734.307	0.0146189
734.385	0.0146000
734.463	0.0145118
734.541	0.0144485
734.619	0.0143750
734.697	0.0142474
734.775	0.0142949
734.853	0.0141233
734.932	0.0141971
735.010	0.0141062
735.088	0.0141093
735.166	0.0139212
735.244	0.0139375
735.322	0.0139729
735.400	0.0137863
735.478	0.0139687
735.557	0.0139871
735.635	0.0138643
735.713	0.0138607
