05/14/2022	19:41:46	Ver.	4.1	UNKNOWN
Optical Delay	650.009681	Delta X		0.078125	Sweeps	1	Scan Rate	0/0
Coordinates	Axis 1	NaN	Axis 2	NaN	Axis 3	NaN	Axis 4	NaN	Axis 5	NaN	Axis 6	0.000000
TX Power	0.000000	RX Power	0.000000

650.010	0.0139436
650.088	0.0138281
650.166	0.0139124
650.244	0.0140536
650.322	0.0139601
650.400	0.0140418
650.478	0.0140378
650.557	0.0139548
650.635	0.0140833
650.713	0.0139507
650.791	0.0140411
650.869	0.0140684
650.947	0.0140195
651.025	0.0138853
651.103	0.0139920
651.182	0.0139680
651.260	0.0140250
651.338	0.0140180
651.416	0.0138331
651.494	0.0138119
651.572	0.0139290
651.650	0.0137407
651.728	0.0135706
651.807	0.0137392
651.885	0.0139603
651.963	0.0137603
652.041	0.0137835
652.119	0.0137748
652.197	0.0138933
652.275	0.0139339
652.353	0.0141299
652.432	0.0140371
652.510	0.0139859
652.588	0.0142193
652.666	0.0142548
652.744	0.0142017
652.822	0.0142422
652.900	0.0141814
652.978	0.0143009
653.057	0.0143414
653.135	0.0141771
653.213	0.0139977
653.291	0.0141219
653.369	0.0141145
653.447	0.0140332
653.525	0.0140200
653.603	0.0137854
653.682	0.0138210
653.760	0.0138203
653.838	0.0136953
653.916	0.0137703
653.994	0.0137384
654.072	0.0136590
654.150	0.0134759
654.228	0.0136712
654.307	0.0137132
654.385	0.0137047
654.463	0.0136526
654.541	0.0137562
654.619	0.0137479
654.697	0.0138713
654.775	0.0139760
654.853	0.0139990
654.932	0.0140278
655.010	0.0141452
655.088	0.0140810
655.166	0.0141308
655.244	0.0140302
655.322	0.0141882
655.400	0.0141643
655.478	0.0141010
655.557	0.0141096
655.635	0.0139225
655.713	0.0139094
655.791	0.0140100
655.869	0.0140671
655.947	0.0136969
656.025	0.0137363
656.103	0.0137222
656.182	0.0135598
656.260	0.0136395
656.338	0.0135048
656.416	0.0134966
656.494	0.0133759
656.572	0.0133940
656.650	0.0133271
656.728	0.0132388
656.807	0.0133078
656.885	0.0135656
656.963	0.0135532
657.041	0.0136070
657.119	0.0138169
657.197	0.0140679
657.275	0.0139762
657.353	0.0143088
657.432	0.0143444
657.510	0.0145961
657.588	0.0146759
657.666	0.0148956
657.744	0.0149344
657.822	0.0149696
657.900	0.0149736
657.978	0.0149671
658.057	0.0147505
658.135	0.0146722
658.213	0.0146796
658.291	0.0145596
658.369	0.0143991
658.447	0.0141329
658.525	0.0140868
658.603	0.0139577
658.682	0.0135548
658.760	0.0135328
658.838	0.0133273
658.916	0.0131515
658.994	0.0132079
659.072	0.0128975
659.150	0.0127528
659.228	0.0127970
659.307	0.0128205
659.385	0.0127442
659.463	0.0128252
659.541	0.0129793
659.619	0.0130020
659.697	0.0130354
659.775	0.0131974
659.853	0.0132891
659.932	0.0134904
660.010	0.0136115
660.088	0.0138268
660.166	0.0140698
660.244	0.0142493
660.322	0.0144149
660.400	0.0145243
660.478	0.0147262
660.557	0.0147963
660.635	0.0151616
660.713	0.0151284
660.791	0.0151896
660.869	0.0152608
660.947	0.0153080
661.025	0.0152208
661.103	0.0151447
661.182	0.0152940
661.260	0.0149581
661.338	0.0148558
661.416	0.0147364
661.494	0.0146577
661.572	0.0146037
661.650	0.0144637
661.728	0.0143490
661.807	0.0143028
661.885	0.0140190
661.963	0.0137993
662.041	0.0137952
662.119	0.0137203
662.197	0.0136046
662.275	0.0136687
662.353	0.0134043
662.432	0.0133340
662.510	0.0132634
662.588	0.0132659
662.666	0.0129778
662.744	0.0129020
662.822	0.0128024
662.900	0.0127506
662.978	0.0126823
663.057	0.0125710
663.135	0.0125228
663.213	0.0124415
663.291	0.0124434
663.369	0.0123418
663.447	0.0123355
663.525	0.0122901
663.603	0.0124841
663.682	0.0125716
663.760	0.0127441
663.838	0.0127532
663.916	0.0128819
663.994	0.0133009
664.072	0.0135225
664.150	0.0138910
664.228	0.0141323
664.307	0.0145024
664.385	0.0148245
664.463	0.0151466
664.541	0.0156289
664.619	0.0160108
664.697	0.0162713
664.775	0.0164119
664.853	0.0166453
664.932	0.0168153
665.010	0.0170389
665.088	0.0170469
665.166	0.0170525
665.244	0.0172751
665.322	0.0171317
665.400	0.0170320
665.478	0.0168494
665.557	0.0164628
665.635	0.0161314
665.713	0.0159323
665.791	0.0154560
665.869	0.0149718
665.947	0.0144976
666.025	0.0139832
666.103	0.0133502
666.182	0.0128734
666.260	0.0123183
666.338	0.0118474
666.416	0.0112920
666.494	0.0108875
666.572	0.0104865
666.650	0.0101607
666.728	0.0100213
666.807	0.00981041
666.885	0.00955902
666.963	0.00977798
667.041	0.0100022
667.119	0.00994263
667.197	0.0102253
667.275	0.0105964
667.353	0.0109071
667.432	0.0113980
667.510	0.0117401
667.588	0.0120116
667.666	0.0125912
667.744	0.0130396
667.822	0.0134074
667.900	0.0138816
667.978	0.0144454
668.057	0.0147418
668.135	0.0153979
668.213	0.0156139
668.291	0.0160282
668.369	0.0164169
668.447	0.0165397
668.525	0.0169350
668.603	0.0172867
668.682	0.0172713
668.760	0.0173759
668.838	0.0176403
668.916	0.0175643
668.994	0.0175809
669.072	0.0174886
669.150	0.0173551
669.228	0.0171976
669.307	0.0170180
669.385	0.0165796
669.463	0.0164037
669.541	0.0161644
669.619	0.0159619
669.697	0.0155680
669.775	0.0151659
669.853	0.0148481
669.932	0.0144012
670.010	0.0141305
670.088	0.0138517
670.166	0.0136356
670.244	0.0132767
670.322	0.0129478
670.400	0.0127574
670.478	0.0123901
670.557	0.0120161
670.635	0.0116901
670.713	0.0113577
670.791	0.0110049
670.869	0.0107012
670.947	0.0104173
671.025	0.0100954
671.103	0.00982071
671.182	0.00975929
671.260	0.00957481
671.338	0.00970284
671.416	0.00972763
671.494	0.00975952
671.572	0.00999496
671.650	0.0102924
671.728	0.0105015
671.807	0.0108789
671.885	0.0113609
671.963	0.0117879
672.041	0.0121766
672.119	0.0126591
672.197	0.0129988
672.275	0.0135902
672.353	0.0141087
672.432	0.0147117
672.510	0.0151632
672.588	0.0157954
672.666	0.0161335
672.744	0.0166670
672.822	0.0171527
672.900	0.0174889
672.978	0.0178625
673.057	0.0182749
673.135	0.0184187
673.213	0.0186993
673.291	0.0188566
673.369	0.0187197
673.447	0.0188604
673.525	0.0188536
673.603	0.0186519
673.682	0.0183112
673.760	0.0180032
673.838	0.0177132
673.916	0.0173908
673.994	0.0169024
674.072	0.0163815
674.150	0.0159273
674.228	0.0154409
674.307	0.0149020
674.385	0.0143096
674.463	0.0138882
674.541	0.0133179
674.619	0.0127855
674.697	0.0121867
674.775	0.0118760
674.853	0.0113723
674.932	0.0110318
675.010	0.0107240
675.088	0.0104460
675.166	0.0102338
675.244	0.0100494
675.322	0.00992752
675.400	0.00968643
675.478	0.00984123
675.557	0.00975494
675.635	0.00978065
675.713	0.00988739
675.791	0.0102209
675.869	0.0103759
675.947	0.0105746
676.025	0.0108862
676.103	0.0111583
676.182	0.0115835
676.260	0.0119299
676.338	0.0123882
676.416	0.0128507
676.494	0.0132776
676.572	0.0135974
676.650	0.0140366
676.728	0.0144775
676.807	0.0149990
676.885	0.0154749
676.963	0.0158221
677.041	0.0161596
677.119	0.0165401
677.197	0.0167835
677.275	0.0170908
677.353	0.0170941
677.432	0.0171205
677.510	0.0172369
677.588	0.0173545
677.666	0.0173239
677.744	0.0172997
677.822	0.0171704
677.900	0.0169164
677.978	0.0167146
678.057	0.0164953
678.135	0.0163599
678.213	0.0159061
678.291	0.0156098
678.369	0.0152740
678.447	0.0150011
678.525	0.0147868
678.603	0.0143174
678.682	0.0139573
678.760	0.0138207
678.838	0.0135680
678.916	0.0131195
678.994	0.0130610
679.072	0.0128399
679.150	0.0124664
679.228	0.0124812
679.307	0.0123082
679.385	0.0121117
679.463	0.0120415
679.541	0.0122239
679.619	0.0120768
679.697	0.0120341
679.775	0.0121313
679.853	0.0120819
679.932	0.0121896
680.010	0.0125178
680.088	0.0127246
680.166	0.0127596
680.244	0.0130489
680.322	0.0130784
680.400	0.0134546
680.478	0.0135917
680.557	0.0137547
680.635	0.0139966
680.713	0.0142290
680.791	0.0141579
680.869	0.0143482
680.947	0.0144043
681.025	0.0145187
681.103	0.0144469
681.182	0.0143765
681.260	0.0143748
681.338	0.0145163
681.416	0.0143020
681.494	0.0142391
681.572	0.0141724
681.650	0.0140984
681.728	0.0141059
681.807	0.0139881
681.885	0.0138488
681.963	0.0138804
682.041	0.0138502
682.119	0.0135828
682.197	0.0135751
682.275	0.0133985
682.353	0.0132599
682.432	0.0131399
682.510	0.0131581
682.588	0.0131023
682.666	0.0130714
682.744	0.0129682
682.822	0.0131535
682.900	0.0132968
682.978	0.0132348
683.057	0.0134367
683.135	0.0136472
683.213	0.0136957
683.291	0.0140151
683.369	0.0142511
683.447	0.0144471
683.525	0.0146859
683.603	0.0148626
683.682	0.0150680
683.760	0.0152155
683.838	0.0154492
683.916	0.0154301
683.994	0.0155428
684.072	0.0156744
684.150	0.0157672
684.228	0.0157776
684.307	0.0157148
684.385	0.0157932
684.463	0.0158147
684.541	0.0158482
684.619	0.0156926
684.697	0.0154948
684.775	0.0155089
684.853	0.0154205
684.932	0.0150635
685.010	0.0149800
685.088	0.0147009
685.166	0.0145682
685.244	0.0142854
685.322	0.0141593
685.400	0.0137738
685.478	0.0134608
685.557	0.0132299
685.635	0.0129204
685.713	0.0128842
685.791	0.0125838
685.869	0.0124304
685.947	0.0123124
686.025	0.0121701
686.103	0.0120653
686.182	0.0119333
686.260	0.0119181
686.338	0.0120290
686.416	0.0122926
686.494	0.0122743
686.572	0.0123381
686.650	0.0125589
686.728	0.0125954
686.807	0.0127841
686.885	0.0130811
686.963	0.0129552
687.041	0.0132338
687.119	0.0133260
687.197	0.0134103
687.275	0.0134745
687.353	0.0137180
687.432	0.0136919
687.510	0.0138920
687.588	0.0138483
687.666	0.0138618
687.744	0.0142344
687.822	0.0141798
687.900	0.0141227
687.978	0.0143669
688.057	0.0144533
688.135	0.0145542
688.213	0.0145613
688.291	0.0146205
688.369	0.0147337
688.447	0.0147673
688.525	0.0148184
688.603	0.0146079
688.682	0.0147019
688.760	0.0147292
688.838	0.0147873
688.916	0.0146854
688.994	0.0147651
689.072	0.0147655
689.150	0.0148283
689.228	0.0149174
689.307	0.0149848
689.385	0.0149384
689.463	0.0151268
689.541	0.0151839
689.619	0.0151746
689.697	0.0153081
689.775	0.0152929
689.853	0.0154559
689.932	0.0152688
690.010	0.0151736
690.088	0.0152502
690.166	0.0152205
690.244	0.0150326
690.322	0.0151086
690.400	0.0148428
690.478	0.0147406
690.557	0.0146337
690.635	0.0145157
690.713	0.0144630
690.791	0.0141895
690.869	0.0140592
690.947	0.0138199
691.025	0.0137425
691.103	0.0135854
691.182	0.0134306
691.260	0.0133545
691.338	0.0135126
691.416	0.0131922
691.494	0.0129626
691.572	0.0128407
691.650	0.0127736
691.728	0.0124061
691.807	0.0124012
691.885	0.0123363
691.963	0.0124019
692.041	0.0123873
692.119	0.0121907
692.197	0.0119681
692.275	0.0120977
692.353	0.0122029
692.432	0.0122488
692.510	0.0123116
692.588	0.0122487
692.666	0.0123244
692.744	0.0124078
692.822	0.0125359
692.900	0.0128162
692.978	0.0128566
693.057	0.0129205
693.135	0.0131023
693.213	0.0132993
693.291	0.0134321
693.369	0.0135590
693.447	0.0138832
693.525	0.0138642
693.603	0.0142489
693.682	0.0143513
693.760	0.0145528
693.838	0.0148449
693.916	0.0149088
693.994	0.0151410
694.072	0.0153773
694.150	0.0153875
694.228	0.0157089
694.307	0.0157612
694.385	0.0159884
694.463	0.0160110
694.541	0.0160648
694.619	0.0162400
694.697	0.0164139
694.775	0.0164095
694.853	0.0162125
694.932	0.0164071
695.010	0.0162819
695.088	0.0162054
695.166	0.0160326
695.244	0.0159232
695.322	0.0158327
695.400	0.0155569
695.478	0.0151093
695.557	0.0148535
695.635	0.0145341
695.713	0.0142258
695.791	0.0137685
695.869	0.0135400
695.947	0.0132816
696.025	0.0128183
696.103	0.0126836
696.182	0.0123972
696.260	0.0120805
696.338	0.0119913
696.416	0.0119633
696.494	0.0119976
696.572	0.0120459
696.650	0.0120382
696.728	0.0121374
696.807	0.0122158
696.885	0.0123251
696.963	0.0125735
697.041	0.0128362
697.119	0.0129517
697.197	0.0131738
697.275	0.0134722
697.353	0.0137852
697.432	0.0140486
697.510	0.0142781
697.588	0.0144653
697.666	0.0146729
697.744	0.0146583
697.822	0.0148904
697.900	0.0150285
697.978	0.0150787
698.057	0.0149017
698.135	0.0148260
698.213	0.0147783
698.291	0.0147509
698.369	0.0145447
698.447	0.0142890
698.525	0.0141582
698.603	0.0140659
698.682	0.0137813
698.760	0.0135746
698.838	0.0133802
698.916	0.0132115
698.994	0.0132436
699.072	0.0130625
699.150	0.0128858
699.228	0.0127668
699.307	0.0128265
699.385	0.0128303
699.463	0.0129175
699.541	0.0130009
699.619	0.0130051
699.697	0.0130758
699.775	0.0131461
699.853	0.0133450
699.932	0.0135544
700.010	0.0137561
700.088	0.0140998
700.166	0.0142786
700.244	0.0144201
700.322	0.0145882
700.400	0.0148120
700.478	0.0150348
700.557	0.0151115
700.635	0.0151333
700.713	0.0154162
700.791	0.0154665
700.869	0.0155418
700.947	0.0154621
701.025	0.0154486
701.103	0.0153862
701.182	0.0153770
701.260	0.0152177
701.338	0.0151209
701.416	0.0150573
701.494	0.0149294
701.572	0.0148575
701.650	0.0147000
701.728	0.0143319
701.807	0.0144119
701.885	0.0144463
701.963	0.0140986
702.041	0.0140915
702.119	0.0139178
702.197	0.0138894
702.275	0.0138022
702.353	0.0137003
702.432	0.0137302
702.510	0.0137353
702.588	0.0135810
702.666	0.0135551
702.744	0.0136568
702.822	0.0135932
702.900	0.0134833
702.978	0.0134863
703.057	0.0134071
703.135	0.0133853
703.213	0.0133617
703.291	0.0132616
703.369	0.0133253
703.447	0.0132501
703.525	0.0131798
703.603	0.0130685
703.682	0.0131212
703.760	0.0130901
703.838	0.0128862
703.916	0.0128690
703.994	0.0128970
704.072	0.0129154
704.150	0.0129789
704.228	0.0129930
704.307	0.0129437
704.385	0.0130151
704.463	0.0130172
704.541	0.0131310
704.619	0.0131458
704.697	0.0133754
704.775	0.0134769
704.853	0.0137402
704.932	0.0138203
705.010	0.0139016
705.088	0.0141192
705.166	0.0141551
705.244	0.0143490
705.322	0.0143410
705.400	0.0146818
705.478	0.0146952
705.557	0.0148652
705.635	0.0150790
705.713	0.0151505
705.791	0.0150293
705.869	0.0150704
705.947	0.0152109
706.025	0.0150751
706.103	0.0152669
706.182	0.0151703
706.260	0.0150899
706.338	0.0151110
706.416	0.0149912
706.494	0.0148769
706.572	0.0148487
706.650	0.0146621
706.728	0.0146379
706.807	0.0144685
706.885	0.0142622
706.963	0.0141398
707.041	0.0139703
707.119	0.0138807
707.197	0.0138853
707.275	0.0139264
707.353	0.0137481
707.432	0.0136697
707.510	0.0134920
707.588	0.0137520
707.666	0.0136536
707.744	0.0136024
707.822	0.0136826
707.900	0.0138278
707.978	0.0138760
708.057	0.0139645
708.135	0.0138418
708.213	0.0137605
708.291	0.0139491
708.369	0.0139447
708.447	0.0140170
708.525	0.0141167
708.603	0.0139800
708.682	0.0140296
708.760	0.0140181
708.838	0.0140050
708.916	0.0139774
708.994	0.0140215
709.072	0.0140661
709.150	0.0139159
709.228	0.0138562
709.307	0.0139767
709.385	0.0138370
709.463	0.0137474
709.541	0.0137208
709.619	0.0137495
709.697	0.0138371
709.775	0.0138173
709.853	0.0137347
709.932	0.0136719
710.010	0.0137598
710.088	0.0138914
710.166	0.0138635
710.244	0.0138203
710.322	0.0137939
710.400	0.0138773
710.478	0.0137791
710.557	0.0137382
710.635	0.0137892
710.713	0.0138459
710.791	0.0137899
710.869	0.0136792
710.947	0.0137840
711.025	0.0136871
711.103	0.0135713
711.182	0.0136225
711.260	0.0135283
711.338	0.0134267
711.416	0.0133320
711.494	0.0131307
711.572	0.0133482
711.650	0.0131946
711.728	0.0130084
711.807	0.0132423
711.885	0.0130464
711.963	0.0132082
712.041	0.0131449
712.119	0.0132708
712.197	0.0133848
712.275	0.0134672
712.353	0.0136992
712.432	0.0137898
712.510	0.0138593
712.588	0.0140228
712.666	0.0141071
712.744	0.0143277
712.822	0.0144821
712.900	0.0147000
712.978	0.0147446
713.057	0.0147758
713.135	0.0148914
713.213	0.0151745
713.291	0.0151905
713.369	0.0153545
713.447	0.0154193
713.525	0.0153214
713.603	0.0154422
713.682	0.0156053
713.760	0.0155601
713.838	0.0155785
713.916	0.0154297
713.994	0.0154810
714.072	0.0155496
714.150	0.0154650
714.228	0.0150811
714.307	0.0149832
714.385	0.0146763
714.463	0.0146512
714.541	0.0144788
714.619	0.0142391
714.697	0.0138967
714.775	0.0137641
714.853	0.0135028
714.932	0.0134550
715.010	0.0133054
715.088	0.0129580
715.166	0.0129057
715.244	0.0127114
715.322	0.0125158
715.400	0.0125301
715.478	0.0124537
715.557	0.0124047
715.635	0.0123533
715.713	0.0121912
715.791	0.0122246
715.869	0.0123959
715.947	0.0124662
716.025	0.0124734
716.103	0.0125543
716.182	0.0126504
716.260	0.0126074
716.338	0.0130090
716.416	0.0131276
716.494	0.0133658
716.572	0.0134866
716.650	0.0136324
716.728	0.0137395
716.807	0.0139952
716.885	0.0142052
716.963	0.0142610
717.041	0.0144517
717.119	0.0144794
717.197	0.0146214
717.275	0.0145979
717.353	0.0148389
717.432	0.0149334
717.510	0.0149629
717.588	0.0148837
717.666	0.0150758
717.744	0.0150676
717.822	0.0150375
717.900	0.0151466
717.978	0.0151531
718.057	0.0152915
718.135	0.0150860
718.213	0.0150659
718.291	0.0152234
718.369	0.0152197
718.447	0.0150636
718.525	0.0149936
718.603	0.0151544
718.682	0.0150458
718.760	0.0151592
718.838	0.0149119
718.916	0.0149100
718.994	0.0148103
719.072	0.0148188
719.150	0.0148325
719.228	0.0146875
719.307	0.0144578
719.385	0.0144817
719.463	0.0143481
719.541	0.0141723
719.619	0.0142332
719.697	0.0141111
719.775	0.0138724
719.853	0.0138006
719.932	0.0137317
720.010	0.0136755
720.088	0.0135875
720.166	0.0134505
720.244	0.0133245
720.322	0.0132961
720.400	0.0131911
720.478	0.0131264
720.557	0.0130064
720.635	0.0129418
720.713	0.0130057
720.791	0.0128409
720.869	0.0128384
720.947	0.0128344
721.025	0.0128900
721.103	0.0128038
721.182	0.0128761
721.260	0.0130176
721.338	0.0129855
721.416	0.0130646
721.494	0.0132346
721.572	0.0132975
721.650	0.0132774
721.728	0.0134656
721.807	0.0136705
721.885	0.0136333
721.963	0.0138393
722.041	0.0138128
722.119	0.0139809
722.197	0.0140981
722.275	0.0141785
722.353	0.0142951
722.432	0.0143381
722.510	0.0143037
722.588	0.0144814
722.666	0.0145319
722.744	0.0146422
722.822	0.0145742
722.900	0.0143823
722.978	0.0145058
723.057	0.0146695
723.135	0.0146367
723.213	0.0145499
723.291	0.0144837
723.369	0.0145291
723.447	0.0145185
723.525	0.0142878
723.603	0.0143919
723.682	0.0141894
723.760	0.0142641
723.838	0.0142656
723.916	0.0142049
723.994	0.0141373
724.072	0.0142560
724.150	0.0142422
724.228	0.0140286
724.307	0.0140717
724.385	0.0141513
724.463	0.0141096
724.541	0.0139912
724.619	0.0140671
724.697	0.0140121
724.775	0.0141337
724.853	0.0140557
724.932	0.0139330
725.010	0.0139568
725.088	0.0139965
725.166	0.0141131
725.244	0.0140380
725.322	0.0138458
725.400	0.0136745
725.478	0.0138776
725.557	0.0137868
725.635	0.0138117
725.713	0.0136404
725.791	0.0137675
725.869	0.0136487
725.947	0.0137545
726.025	0.0135932
726.103	0.0136143
726.182	0.0136381
726.260	0.0136291
726.338	0.0136894
726.416	0.0136043
726.494	0.0136301
726.572	0.0136333
726.650	0.0137694
726.728	0.0138291
726.807	0.0137823
726.885	0.0139838
726.963	0.0139462
727.041	0.0139471
727.119	0.0139017
727.197	0.0139172
727.275	0.0138640
727.353	0.0139434
727.432	0.0139885
727.510	0.0140013
727.588	0.0138126
727.666	0.0137676
727.744	0.0137630
727.822	0.0138235
727.900	0.0136870
727.978	0.0137997
728.057	0.0138176
728.135	0.0136933
728.213	0.0137818
728.291	0.0139286
728.369	0.0139641
728.447	0.0140633
728.525	0.0140753
728.603	0.0141554
728.682	0.0140257
728.760	0.0140585
728.838	0.0140556
728.916	0.0141223
728.994	0.0142076
729.072	0.0141998
729.150	0.0141899
729.228	0.0142164
729.307	0.0141074
729.385	0.0143128
729.463	0.0142332
729.541	0.0141740
729.619	0.0142728
729.697	0.0141157
729.775	0.0140652
729.853	0.0141625
729.932	0.0142420
730.010	0.0141206
730.088	0.0141614
730.166	0.0140308
730.244	0.0139268
730.322	0.0139897
730.400	0.0140899
730.478	0.0139548
730.557	0.0140907
730.635	0.0140785
730.713	0.0138982
730.791	0.0138303
730.869	0.0137110
730.947	0.0137582
731.025	0.0137793
731.103	0.0137510
731.182	0.0136324
731.260	0.0136423
731.338	0.0136955
731.416	0.0135879
731.494	0.0137047
731.572	0.0136394
731.650	0.0137589
731.728	0.0136523
731.807	0.0138123
731.885	0.0137976
731.963	0.0139619
732.041	0.0138296
732.119	0.0140188
732.197	0.0140929
732.275	0.0142902
732.353	0.0143584
732.432	0.0141097
732.510	0.0144147
732.588	0.0144655
732.666	0.0144392
732.744	0.0144384
732.822	0.0144981
732.900	0.0144017
732.978	0.0144525
733.057	0.0142399
733.135	0.0144543
733.213	0.0143317
733.291	0.0141659
733.369	0.0141507
733.447	0.0141361
733.525	0.0139625
733.603	0.0140755
733.682	0.0140016
733.760	0.0138298
733.838	0.0138049
733.916	0.0138208
733.994	0.0135681
734.072	0.0136567
734.150	0.0136488
734.228	0.0135363
734.307	0.0136652
734.385	0.0135910
734.463	0.0135963
734.541	0.0135324
734.619	0.0135992
734.697	0.0137718
734.775	0.0137145
734.853	0.0135935
734.932	0.0136766
735.010	0.0138915
735.088	0.0138641
735.166	0.0139294
735.244	0.0138087
735.322	0.0141045
735.400	0.0140987
735.478	0.0139503
735.557	0.0141582
735.635	0.0141022
