05/14/2022	19:42:01	Ver.	4.1	UNKNOWN
Optical Delay	650.009681	Delta X		0.078125	Sweeps	1	Scan Rate	0/0
Coordinates	Axis 1	NaN	Axis 2	NaN	Axis 3	NaN	Axis 4	NaN	Axis 5	NaN	Axis 6	0.000000
TX Power	0.000000	RX Power	0.000000

650.010	0.0139859
650.088	0.0138580
650.166	0.0137919
650.244	0.0138465
650.322	0.0139558
650.400	0.0141233
650.478	0.0138052
650.557	0.0138083
650.635	0.0138961
650.713	0.0139914
650.791	0.0140073
650.869	0.0139390
650.947	0.0139596
651.025	0.0139364
651.103	0.0139361
651.182	0.0139146
651.260	0.0136529
651.338	0.0137125
651.416	0.0137714
651.494	0.0137791
651.572	0.0137602
651.650	0.0137196
651.728	0.0136315
651.807	0.0137978
651.885	0.0136618
651.963	0.0137141
652.041	0.0136847
652.119	0.0138340
652.197	0.0138511
652.275	0.0138506
652.353	0.0138757
652.432	0.0140414
652.510	0.0140054
652.588	0.0140710
652.666	0.0140865
652.744	0.0140356
652.822	0.0140895
652.900	0.0140429
652.978	0.0141709
653.057	0.0141598
653.135	0.0141044
653.213	0.0138000
653.291	0.0139333
653.369	0.0138939
653.447	0.0138577
653.525	0.0137459
653.603	0.0137706
653.682	0.0137550
653.760	0.0135739
653.838	0.0135020
653.916	0.0135366
653.994	0.0135247
654.072	0.0136481
654.150	0.0137492
654.228	0.0136387
654.307	0.0137832
654.385	0.0138434
654.463	0.0137608
654.541	0.0139308
654.619	0.0139551
654.697	0.0140550
654.775	0.0141312
654.853	0.0141116
654.932	0.0141261
655.010	0.0141598
655.088	0.0141852
655.166	0.0143137
655.244	0.0142760
655.322	0.0141582
655.400	0.0140675
655.478	0.0141260
655.557	0.0140736
655.635	0.0141160
655.713	0.0139783
655.791	0.0140187
655.869	0.0138935
655.947	0.0137495
656.025	0.0137113
656.103	0.0135947
656.182	0.0136112
656.260	0.0135038
656.338	0.0135518
656.416	0.0133310
656.494	0.0135005
656.572	0.0134607
656.650	0.0134409
656.728	0.0135215
656.807	0.0135316
656.885	0.0134621
656.963	0.0138998
657.041	0.0141336
657.119	0.0141128
657.197	0.0142964
657.275	0.0143423
657.353	0.0145200
657.432	0.0148490
657.510	0.0147171
657.588	0.0149612
657.666	0.0150839
657.744	0.0148924
657.822	0.0148556
657.900	0.0148895
657.978	0.0149438
658.057	0.0147024
658.135	0.0146081
658.213	0.0145146
658.291	0.0143269
658.369	0.0141586
658.447	0.0139902
658.525	0.0138848
658.603	0.0135571
658.682	0.0134518
658.760	0.0132620
658.838	0.0132066
658.916	0.0129650
658.994	0.0129179
659.072	0.0129478
659.150	0.0129435
659.228	0.0129414
659.307	0.0129278
659.385	0.0127303
659.463	0.0128889
659.541	0.0130873
659.619	0.0131010
659.697	0.0132714
659.775	0.0134225
659.853	0.0135820
659.932	0.0137267
660.010	0.0140320
660.088	0.0140985
660.166	0.0143964
660.244	0.0144167
660.322	0.0145731
660.400	0.0148019
660.478	0.0148909
660.557	0.0151013
660.635	0.0150632
660.713	0.0153168
660.791	0.0153170
660.869	0.0153778
660.947	0.0152206
661.025	0.0152548
661.103	0.0151762
661.182	0.0148500
661.260	0.0147672
661.338	0.0146844
661.416	0.0147090
661.494	0.0143504
661.572	0.0142301
661.650	0.0142954
661.728	0.0141028
661.807	0.0140166
661.885	0.0138407
661.963	0.0137200
662.041	0.0138588
662.119	0.0135894
662.197	0.0134884
662.275	0.0133844
662.353	0.0132190
662.432	0.0131047
662.510	0.0131394
662.588	0.0130370
662.666	0.0127944
662.744	0.0127104
662.822	0.0128254
662.900	0.0126608
662.978	0.0124685
663.057	0.0125018
663.135	0.0124593
663.213	0.0124963
663.291	0.0125578
663.369	0.0125561
663.447	0.0125291
663.525	0.0125397
663.603	0.0126834
663.682	0.0129134
663.760	0.0130216
663.838	0.0133121
663.916	0.0134426
663.994	0.0137926
664.072	0.0140043
664.150	0.0143368
664.228	0.0148206
664.307	0.0150980
664.385	0.0154086
664.463	0.0155654
664.541	0.0158584
664.619	0.0161520
664.697	0.0163676
664.775	0.0165437
664.853	0.0167204
664.932	0.0170139
665.010	0.0168719
665.088	0.0167976
665.166	0.0167562
665.244	0.0166908
665.322	0.0164777
665.400	0.0163313
665.478	0.0161537
665.557	0.0158247
665.635	0.0154352
665.713	0.0149877
665.791	0.0145618
665.869	0.0140503
665.947	0.0135004
666.025	0.0131733
666.103	0.0124996
666.182	0.0120607
666.260	0.0115141
666.338	0.0110609
666.416	0.0107210
666.494	0.0105066
666.572	0.0100520
666.650	0.00976463
666.728	0.00983185
666.807	0.00981850
666.885	0.00982567
666.963	0.00988594
667.041	0.0101637
667.119	0.0103645
667.197	0.0107285
667.275	0.0110176
667.353	0.0114925
667.432	0.0119742
667.510	0.0123743
667.588	0.0128117
667.666	0.0133173
667.744	0.0137441
667.822	0.0141541
667.900	0.0146956
667.978	0.0151563
668.057	0.0154562
668.135	0.0159050
668.213	0.0161446
668.291	0.0163802
668.369	0.0167171
668.447	0.0170546
668.525	0.0172713
668.603	0.0173043
668.682	0.0174967
668.760	0.0176601
668.838	0.0175680
668.916	0.0174210
668.994	0.0173947
669.072	0.0172271
669.150	0.0169318
669.228	0.0167363
669.307	0.0164605
669.385	0.0162536
669.463	0.0158729
669.541	0.0156573
669.619	0.0153918
669.697	0.0150134
669.775	0.0147711
669.853	0.0143844
669.932	0.0141392
670.010	0.0136856
670.088	0.0135844
670.166	0.0131455
670.244	0.0130550
670.322	0.0126583
670.400	0.0122710
670.478	0.0119913
670.557	0.0118135
670.635	0.0114528
670.713	0.0111380
670.791	0.0108528
670.869	0.0105777
670.947	0.0103609
671.025	0.0102686
671.103	0.0100584
671.182	0.0100022
671.260	0.0100208
671.338	0.00993690
671.416	0.0102187
671.494	0.0103503
671.572	0.0107681
671.650	0.0109543
671.728	0.0112925
671.807	0.0116758
671.885	0.0120808
671.963	0.0125199
672.041	0.0131217
672.119	0.0134457
672.197	0.0137756
672.275	0.0143291
672.353	0.0147711
672.432	0.0152530
672.510	0.0156551
672.588	0.0162254
672.666	0.0166325
672.744	0.0171343
672.822	0.0173428
672.900	0.0179224
672.978	0.0180479
673.057	0.0181618
673.135	0.0183908
673.213	0.0184009
673.291	0.0186257
673.369	0.0185315
673.447	0.0184506
673.525	0.0181953
673.603	0.0180334
673.682	0.0177325
673.760	0.0173849
673.838	0.0170808
673.916	0.0166267
673.994	0.0162531
674.072	0.0156972
674.150	0.0151042
674.228	0.0146684
674.307	0.0141869
674.385	0.0137646
674.463	0.0131624
674.541	0.0126168
674.619	0.0121940
674.697	0.0118616
674.775	0.0112987
674.853	0.0110751
674.932	0.0107036
675.010	0.0104870
675.088	0.0102135
675.166	0.0100533
675.244	0.00990921
675.322	0.00981438
675.400	0.00991714
675.478	0.00987450
675.557	0.00989502
675.635	0.0100846
675.713	0.0101868
675.791	0.0105153
675.869	0.0107417
675.947	0.0110670
676.025	0.0112267
676.103	0.0115647
676.182	0.0119040
676.260	0.0123637
676.338	0.0129092
676.416	0.0133086
676.494	0.0137823
676.572	0.0141965
676.650	0.0146967
676.728	0.0150500
676.807	0.0153185
676.885	0.0157944
676.963	0.0161475
677.041	0.0164539
677.119	0.0166997
677.197	0.0169636
677.275	0.0171417
677.353	0.0174273
677.432	0.0173183
677.510	0.0174928
677.588	0.0174508
677.666	0.0173574
677.744	0.0171862
677.822	0.0170770
677.900	0.0170508
677.978	0.0167290
678.057	0.0164504
678.135	0.0160151
678.213	0.0158774
678.291	0.0154786
678.369	0.0151103
678.447	0.0146581
678.525	0.0143896
678.603	0.0139885
678.682	0.0136578
678.760	0.0135078
678.838	0.0132025
678.916	0.0129330
678.994	0.0126731
679.072	0.0123997
679.150	0.0122926
679.228	0.0121304
679.307	0.0120230
679.385	0.0119662
679.463	0.0118846
679.541	0.0118203
679.619	0.0118819
679.697	0.0118839
679.775	0.0121255
679.853	0.0121020
679.932	0.0122047
680.010	0.0123944
680.088	0.0125173
680.166	0.0128954
680.244	0.0130828
680.322	0.0133630
680.400	0.0135326
680.478	0.0138188
680.557	0.0140750
680.635	0.0142920
680.713	0.0145908
680.791	0.0145930
680.869	0.0146760
680.947	0.0146967
681.025	0.0146848
681.103	0.0147587
681.182	0.0146634
681.260	0.0146980
681.338	0.0145842
681.416	0.0145270
681.494	0.0144531
681.572	0.0143908
681.650	0.0142519
681.728	0.0141252
681.807	0.0139175
681.885	0.0138602
681.963	0.0138654
682.041	0.0136533
682.119	0.0135043
682.197	0.0133480
682.275	0.0133927
682.353	0.0130807
682.432	0.0130162
682.510	0.0130034
682.588	0.0127940
682.666	0.0130135
682.744	0.0129768
682.822	0.0128693
682.900	0.0130406
682.978	0.0131100
683.057	0.0133315
683.135	0.0134921
683.213	0.0136602
683.291	0.0139565
683.369	0.0142824
683.447	0.0144476
683.525	0.0146827
683.603	0.0148529
683.682	0.0150991
683.760	0.0152097
683.838	0.0152209
683.916	0.0154482
683.994	0.0154850
684.072	0.0155990
684.150	0.0156950
684.228	0.0158283
684.307	0.0158862
684.385	0.0157122
684.463	0.0157051
684.541	0.0155866
684.619	0.0156047
684.697	0.0155167
684.775	0.0153375
684.853	0.0152848
684.932	0.0149254
685.010	0.0148467
685.088	0.0147530
685.166	0.0144857
685.244	0.0141551
685.322	0.0138739
685.400	0.0136668
685.478	0.0134799
685.557	0.0131389
685.635	0.0129317
685.713	0.0128229
685.791	0.0126319
685.869	0.0123711
685.947	0.0123296
686.025	0.0122618
686.103	0.0120361
686.182	0.0120850
686.260	0.0121454
686.338	0.0122379
686.416	0.0122261
686.494	0.0123833
686.572	0.0123763
686.650	0.0126871
686.728	0.0126734
686.807	0.0128795
686.885	0.0131501
686.963	0.0131962
687.041	0.0133002
687.119	0.0134361
687.197	0.0135062
687.275	0.0136613
687.353	0.0139287
687.432	0.0138879
687.510	0.0139909
687.588	0.0141394
687.666	0.0142717
687.744	0.0143159
687.822	0.0143417
687.900	0.0144072
687.978	0.0144721
688.057	0.0146457
688.135	0.0145126
688.213	0.0146300
688.291	0.0146931
688.369	0.0147005
688.447	0.0146162
688.525	0.0146493
688.603	0.0145760
688.682	0.0146278
688.760	0.0146869
688.838	0.0145542
688.916	0.0146088
688.994	0.0145285
689.072	0.0144906
689.150	0.0145004
689.228	0.0145734
689.307	0.0143764
689.385	0.0146702
689.463	0.0146095
689.541	0.0146235
689.619	0.0148595
689.697	0.0147967
689.775	0.0148788
689.853	0.0149361
689.932	0.0149859
690.010	0.0151134
690.088	0.0149936
690.166	0.0149496
690.244	0.0150487
690.322	0.0149303
690.400	0.0149364
690.478	0.0149874
690.557	0.0147476
690.635	0.0147965
690.713	0.0144984
690.791	0.0146189
690.869	0.0144897
690.947	0.0143819
691.025	0.0142593
691.103	0.0140878
691.182	0.0140073
691.260	0.0138252
691.338	0.0137576
691.416	0.0134806
691.494	0.0133094
691.572	0.0132478
691.650	0.0131157
691.728	0.0128951
691.807	0.0126725
691.885	0.0123756
691.963	0.0123602
692.041	0.0121901
692.119	0.0120605
692.197	0.0121155
692.275	0.0121810
692.353	0.0119947
692.432	0.0120042
692.510	0.0121156
692.588	0.0121114
692.666	0.0123409
692.744	0.0123129
692.822	0.0124780
692.900	0.0125188
692.978	0.0125871
693.057	0.0127522
693.135	0.0128440
693.213	0.0131149
693.291	0.0131597
693.369	0.0134019
693.447	0.0136263
693.525	0.0136639
693.603	0.0137032
693.682	0.0141676
693.760	0.0143855
693.838	0.0146737
693.916	0.0149459
693.994	0.0151408
694.072	0.0154297
694.150	0.0155399
694.228	0.0157856
694.307	0.0159602
694.385	0.0160880
694.463	0.0161798
694.541	0.0164142
694.619	0.0164158
694.697	0.0165094
694.775	0.0164366
694.853	0.0165663
694.932	0.0165327
695.010	0.0165742
695.088	0.0163723
695.166	0.0163850
695.244	0.0161115
695.322	0.0158321
695.400	0.0156862
695.478	0.0153977
695.557	0.0150824
695.635	0.0148590
695.713	0.0144152
695.791	0.0138968
695.869	0.0138658
695.947	0.0133386
696.025	0.0129819
696.103	0.0126460
696.182	0.0122871
696.260	0.0121487
696.338	0.0119686
696.416	0.0118252
696.494	0.0117051
696.572	0.0115836
696.650	0.0115553
696.728	0.0119267
696.807	0.0118419
696.885	0.0118932
696.963	0.0121183
697.041	0.0124581
697.119	0.0125594
697.197	0.0129600
697.275	0.0132123
697.353	0.0133837
697.432	0.0136769
697.510	0.0138178
697.588	0.0141446
697.666	0.0143505
697.744	0.0145524
697.822	0.0146720
697.900	0.0147955
697.978	0.0149899
698.057	0.0148531
698.135	0.0149892
698.213	0.0149834
698.291	0.0149052
698.369	0.0148848
698.447	0.0148479
698.525	0.0145908
698.603	0.0145023
698.682	0.0142692
698.760	0.0140026
698.838	0.0140077
698.916	0.0138300
698.994	0.0135966
699.072	0.0134045
699.150	0.0132700
699.228	0.0130352
699.307	0.0130661
699.385	0.0129557
699.463	0.0126377
699.541	0.0127626
699.619	0.0127849
699.697	0.0128923
699.775	0.0127915
699.853	0.0130539
699.932	0.0132309
700.010	0.0132957
700.088	0.0136523
700.166	0.0138328
700.244	0.0139663
700.322	0.0143196
700.400	0.0144964
700.478	0.0147871
700.557	0.0149171
700.635	0.0152930
700.713	0.0153230
700.791	0.0153812
700.869	0.0154206
700.947	0.0154166
701.025	0.0154906
701.103	0.0155179
701.182	0.0154448
701.260	0.0154879
701.338	0.0153728
701.416	0.0151212
701.494	0.0152129
701.572	0.0148711
701.650	0.0148306
701.728	0.0146368
701.807	0.0144790
701.885	0.0140855
701.963	0.0139872
702.041	0.0139882
702.119	0.0138615
702.197	0.0135825
702.275	0.0135593
702.353	0.0133383
702.432	0.0135397
702.510	0.0134722
702.588	0.0134219
702.666	0.0136140
702.744	0.0134400
702.822	0.0135944
702.900	0.0135803
702.978	0.0136370
703.057	0.0135667
703.135	0.0135004
703.213	0.0135674
703.291	0.0137971
703.369	0.0136252
703.447	0.0134357
703.525	0.0136161
703.603	0.0134329
703.682	0.0133543
703.760	0.0133488
703.838	0.0134917
703.916	0.0133959
703.994	0.0133654
704.072	0.0132662
704.150	0.0132199
704.228	0.0134349
704.307	0.0134039
704.385	0.0132683
704.463	0.0131432
704.541	0.0131857
704.619	0.0134081
704.697	0.0133361
704.775	0.0135017
704.853	0.0133801
704.932	0.0136044
705.010	0.0138853
705.088	0.0139397
705.166	0.0141376
705.244	0.0142876
705.322	0.0143040
705.400	0.0145284
705.478	0.0145536
705.557	0.0146770
705.635	0.0148560
705.713	0.0147952
705.791	0.0149653
705.869	0.0150904
705.947	0.0150148
706.025	0.0150089
706.103	0.0151599
706.182	0.0152203
706.260	0.0150002
706.338	0.0151162
706.416	0.0150315
706.494	0.0150411
706.572	0.0148841
706.650	0.0148107
706.728	0.0147411
706.807	0.0145872
706.885	0.0143372
706.963	0.0143449
707.041	0.0142838
707.119	0.0141058
707.197	0.0138902
707.275	0.0139678
707.353	0.0137848
707.432	0.0136768
707.510	0.0136578
707.588	0.0136710
707.666	0.0135490
707.744	0.0136333
707.822	0.0136449
707.900	0.0136500
707.978	0.0136794
708.057	0.0136877
708.135	0.0137592
708.213	0.0137261
708.291	0.0138900
708.369	0.0138627
708.447	0.0139146
708.525	0.0139105
708.603	0.0139081
708.682	0.0139394
708.760	0.0138612
708.838	0.0138733
708.916	0.0138860
708.994	0.0138269
709.072	0.0137177
709.150	0.0137053
709.228	0.0138912
709.307	0.0137518
709.385	0.0138151
709.463	0.0135738
709.541	0.0136440
709.619	0.0137642
709.697	0.0136662
709.775	0.0137890
709.853	0.0138929
709.932	0.0140186
710.010	0.0140208
710.088	0.0139776
710.166	0.0140382
710.244	0.0141843
710.322	0.0141737
710.400	0.0140301
710.478	0.0141132
710.557	0.0142252
710.635	0.0141457
710.713	0.0139589
710.791	0.0138620
710.869	0.0138922
710.947	0.0138004
711.025	0.0137737
711.103	0.0135896
711.182	0.0135046
711.260	0.0134721
711.338	0.0133324
711.416	0.0133131
711.494	0.0132229
711.572	0.0131889
711.650	0.0131270
711.728	0.0131059
711.807	0.0132295
711.885	0.0130836
711.963	0.0131746
712.041	0.0132199
712.119	0.0131238
712.197	0.0133312
712.275	0.0135595
712.353	0.0135029
712.432	0.0135930
712.510	0.0138826
712.588	0.0139001
712.666	0.0141380
712.744	0.0143130
712.822	0.0145785
712.900	0.0146539
712.978	0.0146672
713.057	0.0148174
713.135	0.0150127
713.213	0.0150346
713.291	0.0152923
713.369	0.0154327
713.447	0.0153809
713.525	0.0155496
713.603	0.0154747
713.682	0.0156327
713.760	0.0157212
713.838	0.0155915
713.916	0.0155357
713.994	0.0155292
714.072	0.0156174
714.150	0.0155219
714.228	0.0154008
714.307	0.0152719
714.385	0.0150417
714.463	0.0148089
714.541	0.0147283
714.619	0.0145020
714.697	0.0141376
714.775	0.0139813
714.853	0.0138551
714.932	0.0135934
715.010	0.0134959
715.088	0.0131736
715.166	0.0129350
715.244	0.0127917
715.322	0.0128017
715.400	0.0126371
715.478	0.0126305
715.557	0.0125862
715.635	0.0124644
715.713	0.0126832
715.791	0.0125407
715.869	0.0125153
715.947	0.0126237
716.025	0.0126508
716.103	0.0128612
716.182	0.0128898
716.260	0.0129147
716.338	0.0129861
716.416	0.0132581
716.494	0.0133630
716.572	0.0135384
716.650	0.0136549
716.728	0.0137244
716.807	0.0138921
716.885	0.0139722
716.963	0.0140736
717.041	0.0143751
717.119	0.0143320
717.197	0.0142374
717.275	0.0145314
717.353	0.0147144
717.432	0.0148468
717.510	0.0149040
717.588	0.0148040
717.666	0.0147794
717.744	0.0150154
717.822	0.0148228
717.900	0.0148992
717.978	0.0147366
718.057	0.0147617
718.135	0.0148900
718.213	0.0147871
718.291	0.0147939
718.369	0.0148457
718.447	0.0150243
718.525	0.0147907
718.603	0.0148035
718.682	0.0147207
718.760	0.0146400
718.838	0.0146645
718.916	0.0148878
718.994	0.0146830
719.072	0.0145438
719.150	0.0146720
719.228	0.0145695
719.307	0.0145357
719.385	0.0143867
719.463	0.0142689
719.541	0.0143279
719.619	0.0143959
719.697	0.0139959
719.775	0.0138213
719.853	0.0138710
719.932	0.0137108
720.010	0.0135676
720.088	0.0135922
720.166	0.0134226
720.244	0.0133208
720.322	0.0131981
720.400	0.0130634
720.478	0.0130805
720.557	0.0129063
720.635	0.0130083
720.713	0.0128738
720.791	0.0128489
720.869	0.0128133
720.947	0.0128356
721.025	0.0127096
721.103	0.0127031
721.182	0.0125879
721.260	0.0127806
721.338	0.0128951
721.416	0.0129733
721.494	0.0128843
721.572	0.0129765
721.650	0.0130398
721.728	0.0132074
721.807	0.0133681
721.885	0.0134219
721.963	0.0137930
722.041	0.0138355
722.119	0.0137211
722.197	0.0140142
722.275	0.0139745
722.353	0.0142731
722.432	0.0142765
722.510	0.0144209
722.588	0.0145695
722.666	0.0145562
722.744	0.0146728
722.822	0.0147089
722.900	0.0149187
722.978	0.0148858
723.057	0.0149796
723.135	0.0147866
723.213	0.0148554
723.291	0.0148903
723.369	0.0150509
723.447	0.0148679
723.525	0.0146614
723.603	0.0146912
723.682	0.0145847
723.760	0.0146131
723.838	0.0145361
723.916	0.0141247
723.994	0.0143013
724.072	0.0141271
724.150	0.0140967
724.228	0.0141106
724.307	0.0141351
724.385	0.0140813
724.463	0.0141170
724.541	0.0141229
724.619	0.0140715
724.697	0.0140329
724.775	0.0140502
724.853	0.0140168
724.932	0.0139687
725.010	0.0140538
725.088	0.0139677
725.166	0.0139730
725.244	0.0139739
725.322	0.0139572
725.400	0.0137997
725.478	0.0138621
725.557	0.0137929
725.635	0.0137063
725.713	0.0137681
725.791	0.0136634
725.869	0.0136996
725.947	0.0135232
726.025	0.0136919
726.103	0.0137378
726.182	0.0136836
726.260	0.0134624
726.338	0.0135548
726.416	0.0136798
726.494	0.0136005
726.572	0.0136694
726.650	0.0136271
726.728	0.0136216
726.807	0.0136761
726.885	0.0139038
726.963	0.0138461
727.041	0.0136623
727.119	0.0138000
727.197	0.0138467
727.275	0.0138585
727.353	0.0137274
727.432	0.0137874
727.510	0.0138306
727.588	0.0137624
727.666	0.0136433
727.744	0.0138379
727.822	0.0139013
727.900	0.0136847
727.978	0.0136358
728.057	0.0137579
728.135	0.0137006
728.213	0.0137611
728.291	0.0138345
728.369	0.0139306
728.447	0.0139418
728.525	0.0139675
728.603	0.0142313
728.682	0.0140621
728.760	0.0141079
728.838	0.0140459
728.916	0.0141862
728.994	0.0141770
729.072	0.0142651
729.150	0.0143156
729.228	0.0140842
729.307	0.0141537
729.385	0.0143839
729.463	0.0141286
729.541	0.0141219
729.619	0.0141897
729.697	0.0142239
729.775	0.0142497
729.853	0.0142242
729.932	0.0144128
730.010	0.0143187
730.088	0.0143959
730.166	0.0143954
730.244	0.0142771
730.322	0.0142580
730.400	0.0143833
730.478	0.0143029
730.557	0.0143144
730.635	0.0141125
730.713	0.0141785
730.791	0.0139350
730.869	0.0139873
730.947	0.0140558
731.025	0.0140215
731.103	0.0139989
731.182	0.0140926
731.260	0.0138086
731.338	0.0139783
731.416	0.0138992
731.494	0.0138911
731.572	0.0138209
731.650	0.0138457
731.728	0.0137354
731.807	0.0136909
731.885	0.0138570
731.963	0.0136514
732.041	0.0136353
732.119	0.0136707
732.197	0.0136425
732.275	0.0137916
732.353	0.0136649
732.432	0.0138937
732.510	0.0139281
732.588	0.0139603
732.666	0.0139781
732.744	0.0140906
732.822	0.0141657
732.900	0.0142447
732.978	0.0143437
733.057	0.0144824
733.135	0.0143541
733.213	0.0145010
733.291	0.0144388
733.369	0.0144798
733.447	0.0144378
733.525	0.0142798
733.603	0.0142264
733.682	0.0141913
733.760	0.0141547
733.838	0.0139298
733.916	0.0138611
733.994	0.0138377
734.072	0.0136263
734.150	0.0136980
734.228	0.0138041
734.307	0.0136734
734.385	0.0135832
734.463	0.0136900
734.541	0.0136377
734.619	0.0136230
734.697	0.0136845
734.775	0.0137892
734.853	0.0138243
734.932	0.0136327
735.010	0.0138194
735.088	0.0139287
735.166	0.0138755
735.244	0.0139235
735.322	0.0139371
735.400	0.0140347
735.478	0.0141599
735.557	0.0141793
735.635	0.0141135
735.713	0.0142126
