05/14/2022	19:42:16	Ver.	4.1	UNKNOWN
Optical Delay	650.009681	Delta X		0.078125	Sweeps	1	Scan Rate	0/0
Coordinates	Axis 1	NaN	Axis 2	NaN	Axis 3	NaN	Axis 4	NaN	Axis 5	NaN	Axis 6	0.000000
TX Power	0.000000	RX Power	0.000000

650.010	0.0139552
650.088	0.0139079
650.166	0.0138937
650.244	0.0139493
650.322	0.0139553
650.400	0.0138699
650.478	0.0140701
650.557	0.0140410
650.635	0.0140218
650.713	0.0139613
650.791	0.0140073
650.869	0.0139441
650.947	0.0139695
651.025	0.0140335
651.103	0.0139069
651.182	0.0139176
651.260	0.0139660
651.338	0.0139172
651.416	0.0139709
651.494	0.0139265
651.572	0.0137322
651.650	0.0136941
651.728	0.0138828
651.807	0.0139028
651.885	0.0137866
651.963	0.0139231
652.041	0.0139122
652.119	0.0141510
652.197	0.0141822
652.275	0.0140338
652.353	0.0142153
652.432	0.0142693
652.510	0.0142503
652.588	0.0143738
652.666	0.0144190
652.744	0.0143617
652.822	0.0143973
652.900	0.0144500
652.978	0.0143838
653.057	0.0143362
653.135	0.0142642
653.213	0.0142578
653.291	0.0142839
653.369	0.0141467
653.447	0.0141607
653.525	0.0139558
653.603	0.0138211
653.682	0.0139899
653.760	0.0138914
653.838	0.0138908
653.916	0.0138150
653.994	0.0138081
654.072	0.0139271
654.150	0.0138663
654.228	0.0138482
654.307	0.0138646
654.385	0.0139270
654.463	0.0140034
654.541	0.0139368
654.619	0.0140447
654.697	0.0141411
654.775	0.0141862
654.853	0.0143166
654.932	0.0144011
655.010	0.0142850
655.088	0.0144126
655.166	0.0143505
655.244	0.0143092
655.322	0.0143755
655.400	0.0141908
655.478	0.0141959
655.557	0.0142876
655.635	0.0140145
655.713	0.0141396
655.791	0.0139944
655.869	0.0139807
655.947	0.0139297
656.025	0.0137461
656.103	0.0136988
656.182	0.0138061
656.260	0.0136452
656.338	0.0135983
656.416	0.0135346
656.494	0.0133986
656.572	0.0133880
656.650	0.0135064
656.728	0.0134937
656.807	0.0137157
656.885	0.0138484
656.963	0.0137997
657.041	0.0139130
657.119	0.0142191
657.197	0.0141880
657.275	0.0145066
657.353	0.0145646
657.432	0.0146323
657.510	0.0148377
657.588	0.0148903
657.666	0.0149180
657.744	0.0149622
657.822	0.0150543
657.900	0.0149490
657.978	0.0148582
658.057	0.0148996
658.135	0.0148466
658.213	0.0146003
658.291	0.0144078
658.369	0.0142329
658.447	0.0138959
658.525	0.0139104
658.603	0.0136643
658.682	0.0136027
658.760	0.0132923
658.838	0.0130814
658.916	0.0129568
658.994	0.0129594
659.072	0.0127461
659.150	0.0129484
659.228	0.0128680
659.307	0.0129797
659.385	0.0129558
659.463	0.0129720
659.541	0.0130359
659.619	0.0131306
659.697	0.0135889
659.775	0.0135976
659.853	0.0136925
659.932	0.0139943
660.010	0.0140911
660.088	0.0144206
660.166	0.0144928
660.244	0.0147435
660.322	0.0148950
660.400	0.0149297
660.478	0.0150632
660.557	0.0152142
660.635	0.0153384
660.713	0.0154618
660.791	0.0153695
660.869	0.0153657
660.947	0.0153372
661.025	0.0153642
661.103	0.0150745
661.182	0.0149471
661.260	0.0147742
661.338	0.0147456
661.416	0.0146392
661.494	0.0144425
661.572	0.0140447
661.650	0.0140936
661.728	0.0140004
661.807	0.0138843
661.885	0.0136607
661.963	0.0135970
662.041	0.0135328
662.119	0.0132796
662.197	0.0132947
662.275	0.0131425
662.353	0.0132001
662.432	0.0130184
662.510	0.0129751
662.588	0.0128687
662.666	0.0127439
662.744	0.0128220
662.822	0.0127885
662.900	0.0127847
662.978	0.0127169
663.057	0.0126909
663.135	0.0127374
663.213	0.0125926
663.291	0.0126270
663.369	0.0128104
663.447	0.0126421
663.525	0.0127213
663.603	0.0128030
663.682	0.0132017
663.760	0.0134216
663.838	0.0135442
663.916	0.0136759
663.994	0.0138805
664.072	0.0142003
664.150	0.0144144
664.228	0.0146997
664.307	0.0149693
664.385	0.0153544
664.463	0.0156133
664.541	0.0157946
664.619	0.0161620
664.697	0.0162749
664.775	0.0163737
664.853	0.0164597
664.932	0.0165279
665.010	0.0166721
665.088	0.0166610
665.166	0.0166126
665.244	0.0164803
665.322	0.0162947
665.400	0.0161222
665.478	0.0159792
665.557	0.0157046
665.635	0.0154542
665.713	0.0150040
665.791	0.0145758
665.869	0.0142506
665.947	0.0136980
666.025	0.0132619
666.103	0.0127291
666.182	0.0122952
666.260	0.0118700
666.338	0.0114468
666.416	0.0111348
666.494	0.0106634
666.572	0.0104930
666.650	0.0103670
666.728	0.0102214
666.807	0.0100430
666.885	0.0100951
666.963	0.0102945
667.041	0.0102611
667.119	0.0106709
667.197	0.0109730
667.275	0.0112394
667.353	0.0116520
667.432	0.0121481
667.510	0.0126160
667.588	0.0131513
667.666	0.0134130
667.744	0.0138445
667.822	0.0143085
667.900	0.0148457
667.978	0.0151096
668.057	0.0156434
668.135	0.0160132
668.213	0.0163107
668.291	0.0166859
668.369	0.0167835
668.447	0.0170234
668.525	0.0172667
668.603	0.0174541
668.682	0.0176999
668.760	0.0178023
668.838	0.0175783
668.916	0.0175188
668.994	0.0175605
669.072	0.0173013
669.150	0.0171503
669.228	0.0170006
669.307	0.0166924
669.385	0.0164504
669.463	0.0160453
669.541	0.0157055
669.619	0.0155257
669.697	0.0150762
669.775	0.0147048
669.853	0.0144505
669.932	0.0141822
670.010	0.0137478
670.088	0.0135987
670.166	0.0133315
670.244	0.0129650
670.322	0.0127797
670.400	0.0123774
670.478	0.0120284
670.557	0.0117924
670.635	0.0115123
670.713	0.0112257
670.791	0.0109965
670.869	0.0106892
670.947	0.0105666
671.025	0.0104606
671.103	0.0102523
671.182	0.0102267
671.260	0.0100618
671.338	0.0101756
671.416	0.0103403
671.494	0.0105307
671.572	0.0107100
671.650	0.0111977
671.728	0.0114657
671.807	0.0118398
671.885	0.0121527
671.963	0.0125580
672.041	0.0129660
672.119	0.0133945
672.197	0.0139154
672.275	0.0142798
672.353	0.0148478
672.432	0.0151477
672.510	0.0154931
672.588	0.0159373
672.666	0.0162788
672.744	0.0167662
672.822	0.0171307
672.900	0.0172846
672.978	0.0176857
673.057	0.0178475
673.135	0.0180116
673.213	0.0181126
673.291	0.0182671
673.369	0.0182893
673.447	0.0180299
673.525	0.0178536
673.603	0.0177219
673.682	0.0176298
673.760	0.0172139
673.838	0.0169389
673.916	0.0167319
673.994	0.0161936
674.072	0.0158501
674.150	0.0155003
674.228	0.0148717
674.307	0.0144209
674.385	0.0140125
674.463	0.0134338
674.541	0.0129671
674.619	0.0126056
674.697	0.0123037
674.775	0.0118593
674.853	0.0115189
674.932	0.0111323
675.010	0.0109465
675.088	0.0105689
675.166	0.0104272
675.244	0.0103143
675.322	0.0101517
675.400	0.0100359
675.478	0.0102364
675.557	0.00999763
675.635	0.0100980
675.713	0.0103763
675.791	0.0106513
675.869	0.0105624
675.947	0.0110426
676.025	0.0114344
676.103	0.0116779
676.182	0.0119988
676.260	0.0123972
676.338	0.0126691
676.416	0.0131236
676.494	0.0135728
676.572	0.0140247
676.650	0.0145247
676.728	0.0147108
676.807	0.0151520
676.885	0.0155814
676.963	0.0160927
677.041	0.0162543
677.119	0.0166460
677.197	0.0170522
677.275	0.0172842
677.353	0.0172697
677.432	0.0174921
677.510	0.0176834
677.588	0.0175845
677.666	0.0176327
677.744	0.0175391
677.822	0.0173241
677.900	0.0172388
677.978	0.0170205
678.057	0.0167554
678.135	0.0164809
678.213	0.0161607
678.291	0.0157301
678.369	0.0154602
678.447	0.0150977
678.525	0.0147850
678.603	0.0143433
678.682	0.0138197
678.760	0.0133940
678.838	0.0133169
678.916	0.0130894
678.994	0.0126796
679.072	0.0124750
679.150	0.0122785
679.228	0.0120951
679.307	0.0120499
679.385	0.0118443
679.463	0.0118209
679.541	0.0118580
679.619	0.0116599
679.697	0.0116634
679.775	0.0116338
679.853	0.0117432
679.932	0.0118797
680.010	0.0119527
680.088	0.0122008
680.166	0.0124246
680.244	0.0126775
680.322	0.0129230
680.400	0.0132639
680.478	0.0135567
680.557	0.0138547
680.635	0.0139412
680.713	0.0144122
680.791	0.0146793
680.869	0.0149275
680.947	0.0150259
681.025	0.0150336
681.103	0.0150134
681.182	0.0151295
681.260	0.0149570
681.338	0.0149494
681.416	0.0149477
681.494	0.0148284
681.572	0.0148214
681.650	0.0146720
681.728	0.0145219
681.807	0.0144193
681.885	0.0142048
681.963	0.0141334
682.041	0.0139569
682.119	0.0137551
682.197	0.0137543
682.275	0.0136453
682.353	0.0134378
682.432	0.0132275
682.510	0.0131265
682.588	0.0131276
682.666	0.0130251
682.744	0.0130436
682.822	0.0129694
682.900	0.0129752
682.978	0.0131973
683.057	0.0132384
683.135	0.0134468
683.213	0.0135654
683.291	0.0138473
683.369	0.0141837
683.447	0.0142630
683.525	0.0145547
683.603	0.0147630
683.682	0.0149903
683.760	0.0151064
683.838	0.0152740
683.916	0.0153832
683.994	0.0155367
684.072	0.0154647
684.150	0.0156841
684.228	0.0155051
684.307	0.0155441
684.385	0.0156194
684.463	0.0155367
684.541	0.0155836
684.619	0.0155972
684.697	0.0154941
684.775	0.0153702
684.853	0.0152245
684.932	0.0151331
685.010	0.0150700
685.088	0.0148581
685.166	0.0146418
685.244	0.0146497
685.322	0.0143552
685.400	0.0139908
685.478	0.0138068
685.557	0.0137299
685.635	0.0134901
685.713	0.0132806
685.791	0.0130210
685.869	0.0129933
685.947	0.0127145
686.025	0.0125498
686.103	0.0125587
686.182	0.0125223
686.260	0.0124435
686.338	0.0123824
686.416	0.0121872
686.494	0.0123576
686.572	0.0124666
686.650	0.0125524
686.728	0.0127428
686.807	0.0126978
686.885	0.0127591
686.963	0.0129155
687.041	0.0131030
687.119	0.0132678
687.197	0.0133878
687.275	0.0136106
687.353	0.0136388
687.432	0.0138383
687.510	0.0139290
687.588	0.0141483
687.666	0.0139844
687.744	0.0142075
687.822	0.0143109
687.900	0.0144818
687.978	0.0144620
688.057	0.0146138
688.135	0.0145438
688.213	0.0146523
688.291	0.0147795
688.369	0.0146806
688.447	0.0147931
688.525	0.0147907
688.603	0.0148499
688.682	0.0146238
688.760	0.0146706
688.838	0.0147311
688.916	0.0146487
688.994	0.0146371
689.072	0.0145385
689.150	0.0145802
689.228	0.0144845
689.307	0.0144530
689.385	0.0143894
689.463	0.0144069
689.541	0.0145669
689.619	0.0146575
689.697	0.0145258
689.775	0.0146651
689.853	0.0147144
689.932	0.0147926
690.010	0.0149283
690.088	0.0150025
690.166	0.0150613
690.244	0.0150809
690.322	0.0149743
690.400	0.0150928
690.478	0.0149509
690.557	0.0149310
690.635	0.0150499
690.713	0.0151318
690.791	0.0149929
690.869	0.0149228
690.947	0.0149753
691.025	0.0149805
691.103	0.0148061
691.182	0.0147964
691.260	0.0146014
691.338	0.0144524
691.416	0.0143004
691.494	0.0139472
691.572	0.0138248
691.650	0.0135159
691.728	0.0134100
691.807	0.0131857
691.885	0.0129906
691.963	0.0128130
692.041	0.0125775
692.119	0.0123927
692.197	0.0122363
692.275	0.0120135
692.353	0.0119944
692.432	0.0118387
692.510	0.0117788
692.588	0.0118468
692.666	0.0119016
692.744	0.0118166
692.822	0.0117869
692.900	0.0118933
692.978	0.0121268
693.057	0.0121714
693.135	0.0122845
693.213	0.0124070
693.291	0.0124369
693.369	0.0126218
693.447	0.0128125
693.525	0.0129726
693.603	0.0131858
693.682	0.0133943
693.760	0.0136917
693.838	0.0139601
693.916	0.0143066
693.994	0.0148096
694.072	0.0150623
694.150	0.0154388
694.228	0.0155533
694.307	0.0157980
694.385	0.0159892
694.463	0.0163530
694.541	0.0164226
694.619	0.0166139
694.697	0.0165790
694.775	0.0166579
694.853	0.0168490
694.932	0.0167506
695.010	0.0166993
695.088	0.0166861
695.166	0.0166387
695.244	0.0163633
695.322	0.0163089
695.400	0.0161337
695.478	0.0159406
695.557	0.0157381
695.635	0.0154475
695.713	0.0151656
695.791	0.0146561
695.869	0.0145289
695.947	0.0140031
696.025	0.0136699
696.103	0.0134267
696.182	0.0131469
696.260	0.0128985
696.338	0.0126021
696.416	0.0121600
696.494	0.0120937
696.572	0.0120113
696.650	0.0117817
696.728	0.0115879
696.807	0.0114817
696.885	0.0114993
696.963	0.0117106
697.041	0.0116816
697.119	0.0118085
697.197	0.0120964
697.275	0.0121521
697.353	0.0124926
697.432	0.0126409
697.510	0.0128149
697.588	0.0129823
697.666	0.0133355
697.744	0.0135670
697.822	0.0138486
697.900	0.0141533
697.978	0.0141972
698.057	0.0144060
698.135	0.0146027
698.213	0.0147961
698.291	0.0147314
698.369	0.0148898
698.447	0.0150104
698.525	0.0149891
698.603	0.0148853
698.682	0.0149278
698.760	0.0147552
698.838	0.0148479
698.916	0.0147147
698.994	0.0144402
699.072	0.0142369
699.150	0.0139727
699.228	0.0139187
699.307	0.0135873
699.385	0.0134258
699.463	0.0134587
699.541	0.0132233
699.619	0.0130568
699.697	0.0128812
699.775	0.0130037
699.853	0.0128563
699.932	0.0128622
700.010	0.0131325
700.088	0.0131714
700.166	0.0134030
700.244	0.0137102
700.322	0.0139979
700.400	0.0142574
700.478	0.0145660
700.557	0.0146694
700.635	0.0148922
700.713	0.0151453
700.791	0.0154242
700.869	0.0156142
700.947	0.0157444
701.025	0.0159515
701.103	0.0159666
701.182	0.0159462
701.260	0.0159901
701.338	0.0159532
701.416	0.0158743
701.494	0.0157185
701.572	0.0156311
701.650	0.0154966
701.728	0.0153696
701.807	0.0151266
701.885	0.0149651
701.963	0.0146856
702.041	0.0145287
702.119	0.0143443
702.197	0.0140993
702.275	0.0138309
702.353	0.0138139
702.432	0.0136584
702.510	0.0135648
702.588	0.0134674
702.666	0.0133798
702.744	0.0133987
702.822	0.0133984
702.900	0.0133020
702.978	0.0132596
703.057	0.0134081
703.135	0.0133344
703.213	0.0132939
703.291	0.0134535
703.369	0.0134976
703.447	0.0133602
703.525	0.0135190
703.603	0.0134232
703.682	0.0134431
703.760	0.0135178
703.838	0.0134926
703.916	0.0134438
703.994	0.0135519
704.072	0.0133544
704.150	0.0132726
704.228	0.0132566
704.307	0.0133005
704.385	0.0131594
704.463	0.0132715
704.541	0.0130229
704.619	0.0130873
704.697	0.0131090
704.775	0.0131332
704.853	0.0130827
704.932	0.0132059
705.010	0.0133681
705.088	0.0133016
705.166	0.0133958
705.244	0.0136020
705.322	0.0138129
705.400	0.0138385
705.478	0.0139507
705.557	0.0141010
705.635	0.0141727
705.713	0.0143893
705.791	0.0146077
705.869	0.0147738
705.947	0.0149578
706.025	0.0151136
706.103	0.0150693
706.182	0.0151536
706.260	0.0153229
706.338	0.0152369
706.416	0.0153098
706.494	0.0153012
706.572	0.0153152
706.650	0.0153096
706.728	0.0151759
706.807	0.0151105
706.885	0.0151108
706.963	0.0149270
707.041	0.0148874
707.119	0.0146981
707.197	0.0146610
707.275	0.0145287
707.353	0.0144827
707.432	0.0141983
707.510	0.0142507
707.588	0.0141719
707.666	0.0139445
707.744	0.0139613
707.822	0.0138850
707.900	0.0136781
707.978	0.0137325
708.057	0.0134924
708.135	0.0134525
708.213	0.0134464
708.291	0.0135384
708.369	0.0133308
708.447	0.0133928
708.525	0.0133757
708.603	0.0134021
708.682	0.0135725
708.760	0.0134647
708.838	0.0135000
708.916	0.0135538
708.994	0.0137019
709.072	0.0136864
709.150	0.0135511
709.228	0.0136473
709.307	0.0136121
709.385	0.0134702
709.463	0.0134854
709.541	0.0135964
709.619	0.0135587
709.697	0.0136794
709.775	0.0138371
709.853	0.0138535
709.932	0.0139655
710.010	0.0141144
710.088	0.0142144
710.166	0.0143295
710.244	0.0143190
710.322	0.0144685
710.400	0.0144627
710.478	0.0145626
710.557	0.0146554
710.635	0.0147602
710.713	0.0148032
710.791	0.0146424
710.869	0.0147546
710.947	0.0146429
711.025	0.0147117
711.103	0.0144832
711.182	0.0143366
711.260	0.0143295
711.338	0.0141320
711.416	0.0140206
711.494	0.0140263
711.572	0.0139172
711.650	0.0138696
711.728	0.0138081
711.807	0.0135640
711.885	0.0134886
711.963	0.0134976
712.041	0.0134595
712.119	0.0133932
712.197	0.0132748
712.275	0.0133272
712.353	0.0133850
712.432	0.0133115
712.510	0.0135012
712.588	0.0136002
712.666	0.0136803
712.744	0.0137334
712.822	0.0137643
712.900	0.0140164
712.978	0.0141364
713.057	0.0142857
713.135	0.0144059
713.213	0.0145281
713.291	0.0149850
713.369	0.0151092
713.447	0.0151492
713.525	0.0153304
713.603	0.0152930
713.682	0.0153870
713.760	0.0155533
713.838	0.0156107
713.916	0.0156358
713.994	0.0156525
714.072	0.0156044
714.150	0.0155580
714.228	0.0154921
714.307	0.0153317
714.385	0.0153640
714.463	0.0152040
714.541	0.0152751
714.619	0.0149479
714.697	0.0146170
714.775	0.0145911
714.853	0.0142972
714.932	0.0140927
715.010	0.0139455
715.088	0.0136624
715.166	0.0134444
715.244	0.0132489
715.322	0.0131162
715.400	0.0128638
715.478	0.0127356
715.557	0.0126488
715.635	0.0126727
715.713	0.0125200
715.791	0.0125431
715.869	0.0125488
715.947	0.0125090
716.025	0.0125353
716.103	0.0126039
716.182	0.0128757
716.260	0.0127614
716.338	0.0128632
716.416	0.0130779
716.494	0.0131905
716.572	0.0133138
716.650	0.0132758
716.728	0.0135040
716.807	0.0135746
716.885	0.0135319
716.963	0.0136081
717.041	0.0139243
717.119	0.0141029
717.197	0.0139346
717.275	0.0141222
717.353	0.0141472
717.432	0.0143168
717.510	0.0143605
717.588	0.0142181
717.666	0.0143291
717.744	0.0144177
717.822	0.0144746
717.900	0.0145612
717.978	0.0145704
718.057	0.0147652
718.135	0.0146893
718.213	0.0145753
718.291	0.0145341
718.369	0.0145860
718.447	0.0145052
718.525	0.0145345
718.603	0.0145677
718.682	0.0144757
718.760	0.0145446
718.838	0.0145404
718.916	0.0145665
718.994	0.0144776
719.072	0.0145261
719.150	0.0145523
719.228	0.0145934
719.307	0.0146534
719.385	0.0146055
719.463	0.0146829
719.541	0.0144978
719.619	0.0145713
719.697	0.0145700
719.775	0.0145432
719.853	0.0143584
719.932	0.0144350
720.010	0.0142039
720.088	0.0141366
720.166	0.0140825
720.244	0.0141560
720.322	0.0139066
720.400	0.0137519
720.478	0.0137611
720.557	0.0135668
720.635	0.0135572
720.713	0.0135366
720.791	0.0135107
720.869	0.0133832
720.947	0.0133418
721.025	0.0134559
721.103	0.0133777
721.182	0.0131918
721.260	0.0132716
721.338	0.0132687
721.416	0.0131204
721.494	0.0130283
721.572	0.0130869
721.650	0.0131813
721.728	0.0130080
721.807	0.0131709
721.885	0.0132313
721.963	0.0132432
722.041	0.0132362
722.119	0.0133820
722.197	0.0135909
722.275	0.0136033
722.353	0.0137714
722.432	0.0138885
722.510	0.0139527
722.588	0.0142451
722.666	0.0143713
722.744	0.0144195
722.822	0.0146510
722.900	0.0146308
722.978	0.0145586
723.057	0.0147546
723.135	0.0147805
723.213	0.0147253
723.291	0.0147283
723.369	0.0148775
723.447	0.0147538
723.525	0.0148335
723.603	0.0146777
723.682	0.0145022
723.760	0.0145663
723.838	0.0145415
723.916	0.0146210
723.994	0.0142990
724.072	0.0142846
724.150	0.0141759
724.228	0.0139892
724.307	0.0140200
724.385	0.0139587
724.463	0.0138081
724.541	0.0137234
724.619	0.0137722
724.697	0.0136808
724.775	0.0137762
724.853	0.0136590
724.932	0.0137053
725.010	0.0137693
725.088	0.0138051
725.166	0.0137333
725.244	0.0137566
725.322	0.0138098
725.400	0.0137488
725.478	0.0138316
725.557	0.0139193
725.635	0.0139312
725.713	0.0139558
725.791	0.0137043
725.869	0.0136745
725.947	0.0137273
726.025	0.0137342
726.103	0.0137572
726.182	0.0137062
726.260	0.0137650
726.338	0.0138765
726.416	0.0137549
726.494	0.0137247
726.572	0.0137627
726.650	0.0138398
726.728	0.0138223
726.807	0.0138457
726.885	0.0138766
726.963	0.0138195
727.041	0.0138974
727.119	0.0138403
727.197	0.0138258
727.275	0.0137120
727.353	0.0139177
727.432	0.0139362
727.510	0.0139252
727.588	0.0138389
727.666	0.0139071
727.744	0.0139822
727.822	0.0140733
727.900	0.0139774
727.978	0.0140317
728.057	0.0141815
728.135	0.0139359
728.213	0.0140235
728.291	0.0141304
728.369	0.0142075
728.447	0.0141328
728.525	0.0140824
728.603	0.0140636
728.682	0.0142280
728.760	0.0142683
728.838	0.0143595
728.916	0.0142851
728.994	0.0143161
729.072	0.0142684
729.150	0.0144585
729.228	0.0144115
729.307	0.0143109
729.385	0.0144054
729.463	0.0143202
729.541	0.0142374
729.619	0.0142989
729.697	0.0141732
729.775	0.0143306
729.853	0.0142509
729.932	0.0142017
730.010	0.0141608
730.088	0.0141785
730.166	0.0142718
730.244	0.0142750
730.322	0.0142530
730.400	0.0142618
730.478	0.0142164
730.557	0.0143287
730.635	0.0143536
730.713	0.0143064
730.791	0.0142150
730.869	0.0142641
730.947	0.0141674
731.025	0.0140311
731.103	0.0141059
731.182	0.0138017
731.260	0.0139722
731.338	0.0138985
731.416	0.0139151
731.494	0.0138395
731.572	0.0137854
731.650	0.0139242
731.728	0.0138150
731.807	0.0138869
731.885	0.0138609
731.963	0.0138236
732.041	0.0138873
732.119	0.0138302
732.197	0.0138390
732.275	0.0138612
732.353	0.0138163
732.432	0.0139161
732.510	0.0139959
732.588	0.0139682
732.666	0.0139868
732.744	0.0142147
732.822	0.0142068
732.900	0.0141850
732.978	0.0143517
733.057	0.0144759
733.135	0.0145582
733.213	0.0144360
733.291	0.0145300
733.369	0.0145483
733.447	0.0145332
733.525	0.0146431
733.603	0.0144587
733.682	0.0146142
733.760	0.0145071
733.838	0.0144312
733.916	0.0142767
733.994	0.0143906
734.072	0.0140469
734.150	0.0140235
734.228	0.0139469
734.307	0.0139140
734.385	0.0138574
734.463	0.0138132
734.541	0.0135519
734.619	0.0135986
734.697	0.0134969
734.775	0.0135008
734.853	0.0135110
734.932	0.0135532
735.010	0.0133763
735.088	0.0133662
735.166	0.0134203
735.244	0.0133984
735.322	0.0135622
735.400	0.0136012
735.478	0.0136724
735.557	0.0136424
735.635	0.0137695
735.713	0.0138992
