05/14/2022	19:43:06	Ver.	4.1	UNKNOWN
Optical Delay	650.009681	Delta X		0.078125	Sweeps	1	Scan Rate	0/0
Coordinates	Axis 1	NaN	Axis 2	NaN	Axis 3	NaN	Axis 4	NaN	Axis 5	NaN	Axis 6	0.000000
TX Power	0.000000	RX Power	0.000000

650.010	0.0144327
650.088	0.0145881
650.166	0.0145280
650.244	0.0144529
650.322	0.0145065
650.400	0.0147079
650.478	0.0146068
650.557	0.0147153
650.635	0.0145456
650.713	0.0143610
650.791	0.0144381
650.869	0.0144672
650.947	0.0144129
651.025	0.0144529
651.103	0.0143510
651.182	0.0142449
651.260	0.0143250
651.338	0.0144149
651.416	0.0143403
651.494	0.0144627
651.572	0.0144530
651.650	0.0144617
651.728	0.0146293
651.807	0.0146061
651.885	0.0147303
651.963	0.0146622
652.041	0.0148999
652.119	0.0149379
652.197	0.0148484
652.275	0.0149487
652.353	0.0148527
652.432	0.0147406
652.510	0.0147210
652.588	0.0147035
652.666	0.0147511
652.744	0.0146979
652.822	0.0145483
652.900	0.0145031
652.978	0.0143377
653.057	0.0144329
653.135	0.0142612
653.213	0.0142389
653.291	0.0140961
653.369	0.0139984
653.447	0.0140465
653.525	0.0140972
653.603	0.0140371
653.682	0.0140584
653.760	0.0141370
653.838	0.0142500
653.916	0.0143728
653.994	0.0143391
654.072	0.0144594
654.150	0.0144827
654.228	0.0147918
654.307	0.0146882
654.385	0.0148247
654.463	0.0148036
654.541	0.0148674
654.619	0.0148211
654.697	0.0148730
654.775	0.0147810
654.853	0.0147133
654.932	0.0147336
655.010	0.0148469
655.088	0.0145891
655.166	0.0146106
655.244	0.0144303
655.322	0.0143797
655.400	0.0142609
655.478	0.0142239
655.557	0.0140617
655.635	0.0140294
655.713	0.0138639
655.791	0.0138844
655.869	0.0138183
655.947	0.0138613
656.025	0.0138567
656.103	0.0137276
656.182	0.0137847
656.260	0.0138546
656.338	0.0140018
656.416	0.0140078
656.494	0.0141325
656.572	0.0143999
656.650	0.0144487
656.728	0.0147002
656.807	0.0149599
656.885	0.0149441
656.963	0.0150804
657.041	0.0152834
657.119	0.0154909
657.197	0.0154669
657.275	0.0157248
657.353	0.0154745
657.432	0.0154551
657.510	0.0154076
657.588	0.0153894
657.666	0.0152677
657.744	0.0150149
657.822	0.0149423
657.900	0.0146670
657.978	0.0142898
658.057	0.0141413
658.135	0.0138920
658.213	0.0136606
658.291	0.0135387
658.369	0.0132687
658.447	0.0131902
658.525	0.0129953
658.603	0.0129278
658.682	0.0130448
658.760	0.0130022
658.838	0.0128952
658.916	0.0132091
658.994	0.0133315
659.072	0.0135782
659.150	0.0137640
659.228	0.0137409
659.307	0.0140413
659.385	0.0142735
659.463	0.0144476
659.541	0.0148005
659.619	0.0149236
659.697	0.0152600
659.775	0.0153419
659.853	0.0155395
659.932	0.0157993
660.010	0.0157848
660.088	0.0159740
660.166	0.0159029
660.244	0.0160110
660.322	0.0159565
660.400	0.0158275
660.478	0.0159018
660.557	0.0156309
660.635	0.0155095
660.713	0.0151727
660.791	0.0151818
660.869	0.0149704
660.947	0.0147913
661.025	0.0145551
661.103	0.0143246
661.182	0.0141385
661.260	0.0140305
661.338	0.0139512
661.416	0.0138528
661.494	0.0136429
661.572	0.0137956
661.650	0.0136769
661.728	0.0136353
661.807	0.0136190
661.885	0.0136288
661.963	0.0135557
662.041	0.0135167
662.119	0.0135659
662.197	0.0135204
662.275	0.0135655
662.353	0.0136794
662.432	0.0136971
662.510	0.0137569
662.588	0.0138905
662.666	0.0137367
662.744	0.0137995
662.822	0.0138332
662.900	0.0139011
662.978	0.0138841
663.057	0.0139373
663.135	0.0140834
663.213	0.0141319
663.291	0.0140911
663.369	0.0141345
663.447	0.0143520
663.525	0.0144626
663.603	0.0145341
663.682	0.0147241
663.760	0.0150007
663.838	0.0151705
663.916	0.0153989
663.994	0.0155012
664.072	0.0155939
664.150	0.0159496
664.228	0.0161718
664.307	0.0161903
664.385	0.0164780
664.463	0.0164696
664.541	0.0165324
664.619	0.0165423
664.697	0.0164548
664.775	0.0164645
664.853	0.0163879
664.932	0.0164152
665.010	0.0161131
665.088	0.0158933
665.166	0.0157707
665.244	0.0156542
665.322	0.0154621
665.400	0.0150499
665.478	0.0146819
665.557	0.0145419
665.635	0.0140984
665.713	0.0136230
665.791	0.0131791
665.869	0.0127505
665.947	0.0124045
666.025	0.0121030
666.103	0.0118124
666.182	0.0116474
666.260	0.0113742
666.338	0.0112395
666.416	0.0111598
666.494	0.0113001
666.572	0.0112183
666.650	0.0114514
666.728	0.0115504
666.807	0.0116742
666.885	0.0121759
666.963	0.0124066
667.041	0.0129105
667.119	0.0132244
667.197	0.0137672
667.275	0.0139968
667.353	0.0144307
667.432	0.0148039
667.510	0.0152090
667.588	0.0155572
667.666	0.0160081
667.744	0.0162619
667.822	0.0165715
667.900	0.0169861
667.978	0.0169736
668.057	0.0172589
668.135	0.0174490
668.213	0.0177150
668.291	0.0176782
668.369	0.0177583
668.447	0.0178320
668.525	0.0175781
668.603	0.0176908
668.682	0.0175700
668.760	0.0173462
668.838	0.0170902
668.916	0.0167659
668.994	0.0165089
669.072	0.0162086
669.150	0.0159522
669.228	0.0156271
669.307	0.0152386
669.385	0.0148847
669.463	0.0145152
669.541	0.0142835
669.619	0.0140456
669.697	0.0137280
669.775	0.0134637
669.853	0.0130066
669.932	0.0128265
670.010	0.0126067
670.088	0.0123396
670.166	0.0119646
670.244	0.0117497
670.322	0.0115490
670.400	0.0113944
670.478	0.0111346
670.557	0.0110874
670.635	0.0111026
670.713	0.0111238
670.791	0.0109648
670.869	0.0111677
670.947	0.0111662
671.025	0.0114492
671.103	0.0116443
671.182	0.0119645
671.260	0.0122691
671.338	0.0126572
671.416	0.0128245
671.494	0.0133395
671.572	0.0136903
671.650	0.0138972
671.728	0.0142374
671.807	0.0146264
671.885	0.0149717
671.963	0.0153409
672.041	0.0157290
672.119	0.0160433
672.197	0.0162084
672.275	0.0163031
672.353	0.0166641
672.432	0.0169773
672.510	0.0169962
672.588	0.0172372
672.666	0.0174400
672.744	0.0175102
672.822	0.0177246
672.900	0.0178131
672.978	0.0177682
673.057	0.0177850
673.135	0.0176673
673.213	0.0175495
673.291	0.0175388
673.369	0.0172648
673.447	0.0170228
673.525	0.0168362
673.603	0.0166179
673.682	0.0163375
673.760	0.0159685
673.838	0.0157364
673.916	0.0156362
673.994	0.0151022
674.072	0.0146491
674.150	0.0143992
674.228	0.0140726
674.307	0.0137490
674.385	0.0134325
674.463	0.0130163
674.541	0.0126936
674.619	0.0124010
674.697	0.0122259
674.775	0.0120550
674.853	0.0116376
674.932	0.0115009
675.010	0.0111470
675.088	0.0111023
675.166	0.0109734
675.244	0.0108891
675.322	0.0107433
675.400	0.0109254
675.478	0.0108324
675.557	0.0110582
675.635	0.0113139
675.713	0.0114872
675.791	0.0115089
675.869	0.0118225
675.947	0.0122118
676.025	0.0125709
676.103	0.0130672
676.182	0.0136667
676.260	0.0140394
676.338	0.0143963
676.416	0.0148560
676.494	0.0153245
676.572	0.0157089
676.650	0.0161803
676.728	0.0163973
676.807	0.0168498
676.885	0.0171529
676.963	0.0174689
677.041	0.0176833
677.119	0.0179273
677.197	0.0181535
677.275	0.0181249
677.353	0.0182951
677.432	0.0182082
677.510	0.0181126
677.588	0.0181980
677.666	0.0180636
677.744	0.0177406
677.822	0.0177041
677.900	0.0172800
677.978	0.0170575
678.057	0.0164194
678.135	0.0161456
678.213	0.0157554
678.291	0.0152766
678.369	0.0148866
678.447	0.0145389
678.525	0.0141167
678.603	0.0138129
678.682	0.0134345
678.760	0.0130625
678.838	0.0128675
678.916	0.0127455
678.994	0.0125555
679.072	0.0123585
679.150	0.0121275
679.228	0.0120169
679.307	0.0119758
679.385	0.0118800
679.463	0.0119328
679.541	0.0119714
679.619	0.0119518
679.697	0.0120872
679.775	0.0123821
679.853	0.0125441
679.932	0.0126391
680.010	0.0130038
680.088	0.0133109
680.166	0.0134471
680.244	0.0137357
680.322	0.0141257
680.400	0.0143877
680.478	0.0145506
680.557	0.0148649
680.635	0.0150358
680.713	0.0153358
680.791	0.0155786
680.869	0.0156512
680.947	0.0157023
681.025	0.0158033
681.103	0.0157703
681.182	0.0156890
681.260	0.0156245
681.338	0.0156038
681.416	0.0153925
681.494	0.0152177
681.572	0.0150539
681.650	0.0148960
681.728	0.0146203
681.807	0.0145872
681.885	0.0144294
681.963	0.0143304
682.041	0.0140250
682.119	0.0139789
682.197	0.0138483
682.275	0.0137523
682.353	0.0136389
682.432	0.0135088
682.510	0.0134467
682.588	0.0135689
682.666	0.0135461
682.744	0.0135167
682.822	0.0137834
682.900	0.0138597
682.978	0.0139968
683.057	0.0142783
683.135	0.0143919
683.213	0.0144419
683.291	0.0148253
683.369	0.0149427
683.447	0.0151256
683.525	0.0153523
683.603	0.0154412
683.682	0.0155978
683.760	0.0156764
683.838	0.0157786
683.916	0.0156617
683.994	0.0157849
684.072	0.0158410
684.150	0.0158821
684.228	0.0157244
684.307	0.0156545
684.385	0.0159297
684.463	0.0156776
684.541	0.0156217
684.619	0.0155222
684.697	0.0156779
684.775	0.0155263
684.853	0.0153139
684.932	0.0151591
685.010	0.0150883
685.088	0.0151101
685.166	0.0148405
685.244	0.0144756
685.322	0.0144442
685.400	0.0142622
685.478	0.0141209
685.557	0.0138136
685.635	0.0135951
685.713	0.0133868
685.791	0.0132736
685.869	0.0130489
685.947	0.0129311
686.025	0.0128070
686.103	0.0127319
686.182	0.0124883
686.260	0.0125980
686.338	0.0124379
686.416	0.0123569
686.494	0.0122044
686.572	0.0122034
686.650	0.0123011
686.728	0.0124455
686.807	0.0125932
686.885	0.0126603
686.963	0.0128646
687.041	0.0131106
687.119	0.0133853
687.197	0.0135429
687.275	0.0136954
687.353	0.0140272
687.432	0.0142712
687.510	0.0144837
687.588	0.0146784
687.666	0.0150592
687.744	0.0154030
687.822	0.0154588
687.900	0.0158051
687.978	0.0158833
688.057	0.0158328
688.135	0.0162082
688.213	0.0161742
688.291	0.0162794
688.369	0.0163330
688.447	0.0164689
688.525	0.0161456
688.603	0.0162305
688.682	0.0161011
688.760	0.0159678
688.838	0.0158408
688.916	0.0155817
688.994	0.0154701
689.072	0.0153091
689.150	0.0153022
689.228	0.0149576
689.307	0.0147632
689.385	0.0145697
689.463	0.0144401
689.541	0.0144562
689.619	0.0144219
689.697	0.0142339
689.775	0.0142368
689.853	0.0142383
689.932	0.0141676
690.010	0.0140600
690.088	0.0141115
690.166	0.0141496
690.244	0.0141405
690.322	0.0142367
690.400	0.0143391
690.478	0.0147099
690.557	0.0145949
690.635	0.0148009
690.713	0.0148716
690.791	0.0150478
690.869	0.0152281
690.947	0.0153410
691.025	0.0153048
691.103	0.0154231
691.182	0.0153846
691.260	0.0154225
691.338	0.0152255
691.416	0.0151596
691.494	0.0149665
691.572	0.0147938
691.650	0.0144260
691.728	0.0142188
691.807	0.0141088
691.885	0.0136637
691.963	0.0133890
692.041	0.0130773
692.119	0.0128053
692.197	0.0126292
692.275	0.0124040
692.353	0.0123071
692.432	0.0119915
692.510	0.0119839
692.588	0.0120191
692.666	0.0120200
692.744	0.0119364
692.822	0.0120502
692.900	0.0121936
692.978	0.0122551
693.057	0.0124546
693.135	0.0125950
693.213	0.0128658
693.291	0.0129981
693.369	0.0134279
693.447	0.0135479
693.525	0.0138822
693.603	0.0142352
693.682	0.0146534
693.760	0.0150430
693.838	0.0153230
693.916	0.0156313
693.994	0.0159555
694.072	0.0162832
694.150	0.0166007
694.228	0.0167396
694.307	0.0171393
694.385	0.0172794
694.463	0.0175483
694.541	0.0174876
694.619	0.0174871
694.697	0.0175140
694.775	0.0174870
694.853	0.0175701
694.932	0.0175132
695.010	0.0172907
695.088	0.0172386
695.166	0.0171383
695.244	0.0169759
695.322	0.0167603
695.400	0.0164325
695.478	0.0160410
695.557	0.0158626
695.635	0.0154596
695.713	0.0151728
695.791	0.0149541
695.869	0.0146504
695.947	0.0141448
696.025	0.0139238
696.103	0.0136543
696.182	0.0131912
696.260	0.0129120
696.338	0.0126855
696.416	0.0126177
696.494	0.0122971
696.572	0.0121094
696.650	0.0121120
696.728	0.0119621
696.807	0.0118144
696.885	0.0117386
696.963	0.0117993
697.041	0.0119080
697.119	0.0121003
697.197	0.0120585
697.275	0.0121426
697.353	0.0120386
697.432	0.0123444
697.510	0.0125410
697.588	0.0125318
697.666	0.0128496
697.744	0.0133018
697.822	0.0133710
697.900	0.0138132
697.978	0.0139912
698.057	0.0143516
698.135	0.0146223
698.213	0.0148939
698.291	0.0150932
698.369	0.0153268
698.447	0.0155296
698.525	0.0158221
698.603	0.0158450
698.682	0.0159651
698.760	0.0159790
698.838	0.0158772
698.916	0.0158592
698.994	0.0159042
699.072	0.0157323
699.150	0.0156206
699.228	0.0155275
699.307	0.0152657
699.385	0.0152541
699.463	0.0148717
699.541	0.0148930
699.619	0.0145645
699.697	0.0145017
699.775	0.0144804
699.853	0.0142416
699.932	0.0143352
700.010	0.0143686
700.088	0.0142812
700.166	0.0141133
700.244	0.0141515
700.322	0.0143807
700.400	0.0143633
700.478	0.0144673
700.557	0.0145860
700.635	0.0147215
700.713	0.0147227
700.791	0.0149640
700.869	0.0151942
700.947	0.0151505
701.025	0.0153455
701.103	0.0154832
701.182	0.0154191
701.260	0.0156418
701.338	0.0156004
701.416	0.0156280
701.494	0.0156448
701.572	0.0156905
701.650	0.0155833
701.728	0.0155627
701.807	0.0154832
701.885	0.0153384
701.963	0.0152742
702.041	0.0151419
702.119	0.0150183
702.197	0.0147401
702.275	0.0146033
702.353	0.0144929
702.432	0.0145070
702.510	0.0142780
702.588	0.0139668
702.666	0.0140363
702.744	0.0138513
702.822	0.0136661
702.900	0.0135651
702.978	0.0133694
703.057	0.0133974
703.135	0.0135496
703.213	0.0133431
703.291	0.0134602
703.369	0.0132693
703.447	0.0133786
703.525	0.0134945
703.603	0.0136350
703.682	0.0136002
703.760	0.0134396
703.838	0.0137505
703.916	0.0137957
703.994	0.0138033
704.072	0.0139600
704.150	0.0139323
704.228	0.0140171
704.307	0.0139754
704.385	0.0141749
704.463	0.0142142
704.541	0.0140734
704.619	0.0142776
704.697	0.0143526
704.775	0.0142728
704.853	0.0141683
704.932	0.0143189
705.010	0.0142594
705.088	0.0141789
705.166	0.0140701
705.244	0.0141452
705.322	0.0142154
705.400	0.0141830
705.478	0.0141458
705.557	0.0143153
705.635	0.0142460
705.713	0.0143295
705.791	0.0144794
705.869	0.0148920
705.947	0.0150076
706.025	0.0150919
706.103	0.0153073
706.182	0.0155209
706.260	0.0155750
706.338	0.0155562
706.416	0.0157124
706.494	0.0158739
706.572	0.0160014
706.650	0.0158150
706.728	0.0160625
706.807	0.0158421
706.885	0.0158885
706.963	0.0158671
707.041	0.0158371
707.119	0.0156922
707.197	0.0156848
707.275	0.0155910
707.353	0.0154144
707.432	0.0153846
707.510	0.0150598
707.588	0.0150630
707.666	0.0148129
707.744	0.0146447
707.822	0.0145719
707.900	0.0145454
707.978	0.0143137
708.057	0.0143098
708.135	0.0142383
708.213	0.0141006
708.291	0.0139162
708.369	0.0139028
708.447	0.0136944
708.525	0.0137576
708.603	0.0135606
708.682	0.0135678
708.760	0.0133911
708.838	0.0132659
708.916	0.0131480
708.994	0.0130691
709.072	0.0129770
709.150	0.0132027
709.228	0.0130337
709.307	0.0130411
709.385	0.0130263
709.463	0.0130467
709.541	0.0132130
709.619	0.0133916
709.697	0.0134987
709.775	0.0135025
709.853	0.0136555
709.932	0.0136902
710.010	0.0138777
710.088	0.0140819
710.166	0.0141247
710.244	0.0142329
710.322	0.0142843
710.400	0.0144437
710.478	0.0146350
710.557	0.0146536
710.635	0.0145997
710.713	0.0148638
710.791	0.0148580
710.869	0.0149605
710.947	0.0150868
711.025	0.0150121
711.103	0.0149465
711.182	0.0151241
711.260	0.0152428
711.338	0.0152489
711.416	0.0150541
711.494	0.0150885
711.572	0.0151840
711.650	0.0150893
711.728	0.0150382
711.807	0.0150543
711.885	0.0149146
711.963	0.0148624
712.041	0.0145789
712.119	0.0146539
712.197	0.0146662
712.275	0.0145747
712.353	0.0145554
712.432	0.0143807
712.510	0.0143520
712.588	0.0142764
712.666	0.0143844
712.744	0.0142485
712.822	0.0141400
712.900	0.0141479
712.978	0.0143383
713.057	0.0144037
713.135	0.0143449
713.213	0.0145415
713.291	0.0145861
713.369	0.0147317
713.447	0.0148431
713.525	0.0149145
713.603	0.0149667
713.682	0.0150925
713.760	0.0150494
713.838	0.0149696
713.916	0.0151564
713.994	0.0151601
714.072	0.0150186
714.150	0.0151385
714.228	0.0151008
714.307	0.0150967
714.385	0.0150314
714.463	0.0147921
714.541	0.0146707
714.619	0.0145831
714.697	0.0146695
714.775	0.0144554
714.853	0.0143281
714.932	0.0140200
715.010	0.0139301
715.088	0.0138529
715.166	0.0138775
715.244	0.0137075
715.322	0.0136044
715.400	0.0136105
715.478	0.0135725
715.557	0.0135163
715.635	0.0136835
715.713	0.0136789
715.791	0.0136846
715.869	0.0136955
715.947	0.0137833
716.025	0.0139318
716.103	0.0140923
716.182	0.0140804
716.260	0.0142120
716.338	0.0141757
716.416	0.0139793
716.494	0.0141401
716.572	0.0141079
716.650	0.0142880
716.728	0.0141192
716.807	0.0142194
716.885	0.0142923
716.963	0.0141273
717.041	0.0142224
717.119	0.0141409
717.197	0.0141899
717.275	0.0142062
717.353	0.0141441
717.432	0.0140185
717.510	0.0140372
717.588	0.0142181
717.666	0.0141222
717.744	0.0141326
717.822	0.0142026
717.900	0.0142126
717.978	0.0143349
718.057	0.0143159
718.135	0.0144511
718.213	0.0146511
718.291	0.0146786
718.369	0.0147704
718.447	0.0149403
718.525	0.0151534
718.603	0.0152474
718.682	0.0152256
718.760	0.0152544
718.838	0.0154578
718.916	0.0156561
718.994	0.0156256
719.072	0.0155978
719.150	0.0156981
719.228	0.0158041
719.307	0.0157517
719.385	0.0158552
719.463	0.0157071
719.541	0.0157269
719.619	0.0156828
719.697	0.0155795
719.775	0.0155031
719.853	0.0154041
719.932	0.0153357
720.010	0.0153965
720.088	0.0153672
720.166	0.0151250
720.244	0.0148956
720.322	0.0148668
720.400	0.0146901
720.478	0.0147000
720.557	0.0146608
720.635	0.0144171
720.713	0.0143446
720.791	0.0141926
720.869	0.0140158
720.947	0.0140333
721.025	0.0139751
721.103	0.0138782
721.182	0.0136858
721.260	0.0137883
721.338	0.0137231
721.416	0.0135326
721.494	0.0134853
721.572	0.0136977
721.650	0.0135925
721.728	0.0136682
721.807	0.0136371
721.885	0.0135482
721.963	0.0135945
722.041	0.0137613
722.119	0.0137820
722.197	0.0138847
722.275	0.0138770
722.353	0.0140003
722.432	0.0140802
722.510	0.0140839
722.588	0.0142387
722.666	0.0142308
722.744	0.0143884
722.822	0.0144968
722.900	0.0145038
722.978	0.0144749
723.057	0.0145005
723.135	0.0145775
723.213	0.0145677
723.291	0.0146542
723.369	0.0147254
723.447	0.0148129
723.525	0.0147856
723.603	0.0147574
723.682	0.0148825
723.760	0.0149719
723.838	0.0148857
723.916	0.0149315
723.994	0.0149449
724.072	0.0151506
724.150	0.0147631
724.228	0.0149352
724.307	0.0149601
724.385	0.0149716
724.463	0.0148852
724.541	0.0150175
724.619	0.0149184
724.697	0.0150278
724.775	0.0148965
724.853	0.0148389
724.932	0.0148973
725.010	0.0148698
725.088	0.0147975
725.166	0.0148158
725.244	0.0148759
725.322	0.0146998
725.400	0.0146646
725.478	0.0146225
725.557	0.0144960
725.635	0.0146046
725.713	0.0148595
725.791	0.0147105
725.869	0.0147448
725.947	0.0147873
726.025	0.0148556
726.103	0.0146850
726.182	0.0147220
726.260	0.0146152
726.338	0.0146045
726.416	0.0147283
726.494	0.0145734
726.572	0.0143536
726.650	0.0144124
726.728	0.0144429
726.807	0.0143549
726.885	0.0141971
726.963	0.0140393
727.041	0.0140056
727.119	0.0138369
727.197	0.0138130
727.275	0.0137886
727.353	0.0137369
727.432	0.0137379
727.510	0.0136436
727.588	0.0135938
727.666	0.0136601
727.744	0.0136852
727.822	0.0136313
727.900	0.0136343
727.978	0.0138509
728.057	0.0138509
728.135	0.0138271
728.213	0.0138879
728.291	0.0141190
728.369	0.0141219
728.447	0.0142214
728.525	0.0141096
728.603	0.0144013
728.682	0.0144899
728.760	0.0144456
728.838	0.0145493
728.916	0.0146619
728.994	0.0145432
729.072	0.0146023
729.150	0.0145573
729.228	0.0145677
729.307	0.0146062
729.385	0.0145773
729.463	0.0145997
729.541	0.0146025
729.619	0.0147475
729.697	0.0148703
729.775	0.0149373
729.853	0.0147991
729.932	0.0149445
730.010	0.0150195
730.088	0.0149182
730.166	0.0150609
730.244	0.0149363
730.322	0.0150984
730.400	0.0149529
730.478	0.0150245
730.557	0.0150967
730.635	0.0148499
730.713	0.0148287
730.791	0.0147700
730.869	0.0148544
730.947	0.0147424
731.025	0.0145325
731.103	0.0146446
731.182	0.0147429
731.260	0.0145151
731.338	0.0146365
731.416	0.0146600
731.494	0.0146034
731.572	0.0145616
731.650	0.0145340
731.728	0.0146022
731.807	0.0145525
731.885	0.0144024
731.963	0.0144233
732.041	0.0145303
732.119	0.0144891
732.197	0.0144427
732.275	0.0143416
732.353	0.0143664
732.432	0.0145492
732.510	0.0146289
732.588	0.0146260
732.666	0.0145172
732.744	0.0146806
732.822	0.0146560
732.900	0.0146826
732.978	0.0148092
733.057	0.0147898
733.135	0.0148332
733.213	0.0148148
733.291	0.0148415
733.369	0.0147803
733.447	0.0147850
733.525	0.0147926
733.603	0.0146702
733.682	0.0146595
733.760	0.0146197
733.838	0.0145334
733.916	0.0144659
733.994	0.0143164
734.072	0.0143098
734.150	0.0141804
734.228	0.0141544
734.307	0.0139777
734.385	0.0139131
734.463	0.0138522
734.541	0.0138862
734.619	0.0137695
734.697	0.0137573
734.775	0.0136608
734.853	0.0136871
734.932	0.0137514
735.010	0.0139283
735.088	0.0136903
735.166	0.0137312
735.244	0.0138812
735.322	0.0139044
735.400	0.0139131
735.478	0.0140775
735.557	0.0140176
735.635	0.0140670
735.713	0.0143285
