05/14/2022	19:10:09	Ver.	4.1	UNKNOWN
Optical Delay	650.016352	Delta X		0.078125	Sweeps	1	Scan Rate	0/0
Coordinates	Axis 1	NaN	Axis 2	NaN	Axis 3	NaN	Axis 4	NaN	Axis 5	NaN	Axis 6	0.000000
TX Power	0.000000	RX Power	0.000000

650.016	0.0149181
650.094	0.0149932
650.173	0.0148611
650.251	0.0148569
650.329	0.0148237
650.407	0.0149127
650.485	0.0148562
650.563	0.0148873
650.641	0.0148650
650.719	0.0148492
650.798	0.0148388
650.876	0.0149187
650.954	0.0148178
651.032	0.0149429
651.110	0.0149821
651.188	0.0149284
651.266	0.0148417
651.344	0.0149532
651.423	0.0149693
651.501	0.0149372
651.579	0.0149934
651.657	0.0150587
651.735	0.0149345
651.813	0.0148570
651.891	0.0147437
651.969	0.0149258
652.048	0.0150155
652.126	0.0147936
652.204	0.0148240
652.282	0.0150038
652.360	0.0149092
652.438	0.0149181
652.516	0.0150049
652.594	0.0148779
652.673	0.0148730
652.751	0.0148190
652.829	0.0148079
652.907	0.0149062
652.985	0.0149372
653.063	0.0150193
653.141	0.0148454
653.219	0.0148885
653.298	0.0148882
653.376	0.0149039
653.454	0.0148934
653.532	0.0148952
653.610	0.0150351
653.688	0.0148142
653.766	0.0148894
653.844	0.0148204
653.923	0.0148035
654.001	0.0150031
654.079	0.0150574
654.157	0.0148610
654.235	0.0148024
654.313	0.0149402
654.391	0.0148049
654.469	0.0148656
654.548	0.0149809
654.626	0.0150198
654.704	0.0149433
654.782	0.0148882
654.860	0.0148759
654.938	0.0148735
655.016	0.0148676
655.094	0.0148027
655.173	0.0148996
655.251	0.0147764
655.329	0.0147798
655.407	0.0148210
655.485	0.0149036
655.563	0.0148347
655.641	0.0146693
655.719	0.0149604
655.798	0.0149733
655.876	0.0149004
655.954	0.0148875
656.032	0.0148750
656.110	0.0148362
656.188	0.0147852
656.266	0.0148623
656.344	0.0147848
656.423	0.0149200
656.501	0.0150050
656.579	0.0148957
656.657	0.0148170
656.735	0.0148068
656.813	0.0150057
656.891	0.0148563
656.969	0.0148328
657.048	0.0148412
657.126	0.0149094
657.204	0.0148544
657.282	0.0149644
657.360	0.0148468
657.438	0.0148556
657.516	0.0149560
657.594	0.0150243
657.673	0.0149678
657.751	0.0149324
657.829	0.0147417
657.907	0.0148679
657.985	0.0148884
658.063	0.0148965
658.141	0.0149268
658.219	0.0149165
658.298	0.0149809
658.376	0.0148552
658.454	0.0148901
658.532	0.0149460
658.610	0.0148728
658.688	0.0148884
658.766	0.0148157
658.844	0.0149259
658.923	0.0149245
659.001	0.0148093
659.079	0.0149132
659.157	0.0148414
659.235	0.0149139
659.313	0.0149029
659.391	0.0149333
659.469	0.0148354
659.548	0.0149311
659.626	0.0148632
659.704	0.0149240
659.782	0.0148991
659.860	0.0149131
659.938	0.0148468
660.016	0.0148302
660.094	0.0148711
660.173	0.0149010
660.251	0.0150031
660.329	0.0149297
660.407	0.0149490
660.485	0.0148874
660.563	0.0149634
660.641	0.0148403
660.719	0.0150645
660.798	0.0148818
660.876	0.0149196
660.954	0.0148904
661.032	0.0149400
661.110	0.0149969
661.188	0.0150950
661.266	0.0150524
661.344	0.0148932
661.423	0.0148608
661.501	0.0149315
661.579	0.0149096
661.657	0.0148283
661.735	0.0149554
661.813	0.0148525
661.891	0.0149231
661.969	0.0149646
662.048	0.0150410
662.126	0.0150519
662.204	0.0149722
662.282	0.0148582
662.360	0.0150215
662.438	0.0149734
662.516	0.0149488
662.594	0.0149140
662.673	0.0148402
662.751	0.0148280
662.829	0.0149431
662.907	0.0150232
662.985	0.0149760
663.063	0.0149347
663.141	0.0149884
663.219	0.0150711
663.298	0.0149741
663.376	0.0149879
663.454	0.0149442
663.532	0.0149298
663.610	0.0149165
663.688	0.0150478
663.766	0.0149995
663.844	0.0149140
663.923	0.0148775
664.001	0.0149940
664.079	0.0149921
664.157	0.0148505
664.235	0.0148890
664.313	0.0150194
664.391	0.0149393
664.469	0.0150555
664.548	0.0150202
664.626	0.0149744
664.704	0.0149638
664.782	0.0148713
664.860	0.0149466
664.938	0.0149277
665.016	0.0150277
665.094	0.0149304
665.173	0.0149221
665.251	0.0147576
665.329	0.0149487
665.407	0.0149766
665.485	0.0149804
665.563	0.0149464
665.641	0.0148642
665.719	0.0149513
665.798	0.0149331
665.876	0.0150716
665.954	0.0150334
666.032	0.0149339
666.110	0.0148594
666.188	0.0149770
666.266	0.0149696
666.344	0.0148716
666.423	0.0149603
666.501	0.0147961
666.579	0.0149242
666.657	0.0150420
666.735	0.0148817
666.813	0.0148832
666.891	0.0148806
666.969	0.0147754
667.048	0.0149548
667.126	0.0149580
667.204	0.0149393
667.282	0.0149155
667.360	0.0149552
667.438	0.0148827
667.516	0.0148428
667.594	0.0147410
667.673	0.0148707
667.751	0.0149550
667.829	0.0149536
667.907	0.0149298
667.985	0.0148702
668.063	0.0146751
668.141	0.0149522
668.219	0.0148592
668.298	0.0148746
668.376	0.0148688
668.454	0.0148019
668.532	0.0148699
668.610	0.0148058
668.688	0.0148540
668.766	0.0149809
668.844	0.0150253
668.923	0.0148797
669.001	0.0147898
669.079	0.0147342
669.157	0.0147116
669.235	0.0148390
669.313	0.0148399
669.391	0.0148354
669.469	0.0148839
669.548	0.0148534
669.626	0.0147035
669.704	0.0149784
669.782	0.0149146
669.860	0.0147992
669.938	0.0148438
670.016	0.0149342
670.094	0.0150171
670.173	0.0148701
670.251	0.0148978
670.329	0.0148447
670.407	0.0148264
670.485	0.0148474
670.563	0.0149229
670.641	0.0148363
670.719	0.0148679
670.798	0.0149599
670.876	0.0146981
670.954	0.0150017
671.032	0.0150452
671.110	0.0149297
671.188	0.0149062
671.266	0.0150329
671.344	0.0148338
671.423	0.0149731
671.501	0.0149011
671.579	0.0148943
671.657	0.0149036
671.735	0.0147510
671.813	0.0148400
671.891	0.0149227
671.969	0.0149189
672.048	0.0150778
672.126	0.0149917
672.204	0.0148347
672.282	0.0149614
672.360	0.0148177
672.438	0.0150280
672.516	0.0149145
672.594	0.0149438
672.673	0.0147653
672.751	0.0149123
672.829	0.0148339
672.907	0.0150037
672.985	0.0148874
673.063	0.0149216
673.141	0.0150167
673.219	0.0149937
673.298	0.0148611
673.376	0.0149509
673.454	0.0150011
673.532	0.0150203
673.610	0.0149123
673.688	0.0150290
673.766	0.0149539
673.844	0.0149955
673.923	0.0150063
674.001	0.0150627
674.079	0.0150238
674.157	0.0148643
674.235	0.0148119
674.313	0.0149493
674.391	0.0150497
674.469	0.0149528
674.548	0.0150535
674.626	0.0149215
674.704	0.0149917
674.782	0.0150404
674.860	0.0151099
674.938	0.0149609
675.016	0.0149781
675.094	0.0151305
675.173	0.0150632
675.251	0.0149518
675.329	0.0149838
675.407	0.0149118
675.485	0.0150906
675.563	0.0150917
675.641	0.0150842
675.719	0.0149537
675.798	0.0150673
675.876	0.0149384
675.954	0.0149163
676.032	0.0150274
676.110	0.0150101
676.188	0.0149980
676.266	0.0150451
676.344	0.0149700
676.423	0.0151263
676.501	0.0149994
676.579	0.0149778
676.657	0.0150898
676.735	0.0148757
676.813	0.0150262
676.891	0.0150753
676.969	0.0149429
677.048	0.0149693
677.126	0.0149957
677.204	0.0149442
677.282	0.0150887
677.360	0.0150459
677.438	0.0151353
677.516	0.0149055
677.594	0.0149334
677.673	0.0150241
677.751	0.0148968
677.829	0.0149681
677.907	0.0149933
677.985	0.0151408
678.063	0.0149567
678.141	0.0148622
678.219	0.0149683
678.298	0.0151300
678.376	0.0150052
678.454	0.0150295
678.532	0.0149645
678.610	0.0149297
678.688	0.0150558
678.766	0.0150288
678.844	0.0148743
678.923	0.0149258
679.001	0.0149618
679.079	0.0148874
679.157	0.0148927
679.235	0.0148070
679.313	0.0149699
679.391	0.0149625
679.469	0.0150249
679.548	0.0148327
679.626	0.0148435
679.704	0.0148700
679.782	0.0149812
679.860	0.0149646
679.938	0.0147766
680.016	0.0149213
680.094	0.0149213
680.173	0.0148971
680.251	0.0149362
680.329	0.0147981
680.407	0.0148344
680.485	0.0148879
680.563	0.0147840
680.641	0.0147272
680.719	0.0148969
680.798	0.0148956
680.876	0.0149301
680.954	0.0149512
681.032	0.0149097
681.110	0.0149474
681.188	0.0149426
681.266	0.0148462
681.344	0.0148947
681.423	0.0149680
681.501	0.0149611
681.579	0.0149366
681.657	0.0147851
681.735	0.0148347
681.813	0.0149157
681.891	0.0148321
681.969	0.0148290
682.048	0.0147366
682.126	0.0148854
682.204	0.0148863
682.282	0.0148544
682.360	0.0148297
682.438	0.0149223
682.516	0.0147881
682.594	0.0148991
682.673	0.0149676
682.751	0.0149530
682.829	0.0149436
682.907	0.0148679
682.985	0.0149134
683.063	0.0148470
683.141	0.0147337
683.219	0.0147852
683.298	0.0148820
683.376	0.0147855
683.454	0.0148898
683.532	0.0149151
683.610	0.0149155
683.688	0.0148639
683.766	0.0149105
683.844	0.0149973
683.923	0.0149768
684.001	0.0149596
684.079	0.0148368
684.157	0.0147920
684.235	0.0148374
684.313	0.0148367
684.391	0.0148196
684.469	0.0148443
684.548	0.0149793
684.626	0.0148560
684.704	0.0149932
684.782	0.0148238
684.860	0.0148368
684.938	0.0150041
685.016	0.0148691
685.094	0.0149680
685.173	0.0148761
685.251	0.0148938
685.329	0.0149367
685.407	0.0149670
685.485	0.0148881
685.563	0.0148907
685.641	0.0147465
685.719	0.0148594
685.798	0.0150262
685.876	0.0148719
685.954	0.0148532
686.032	0.0149583
686.110	0.0149818
686.188	0.0149441
686.266	0.0148540
686.344	0.0149443
686.423	0.0149226
686.501	0.0150486
686.579	0.0148720
686.657	0.0148733
686.735	0.0150031
686.813	0.0149681
686.891	0.0149510
686.969	0.0149099
687.048	0.0149249
687.126	0.0148215
687.204	0.0149406
687.282	0.0149115
687.360	0.0149906
687.438	0.0149324
687.516	0.0148380
687.594	0.0149637
687.673	0.0149909
687.751	0.0149599
687.829	0.0148331
687.907	0.0149277
687.985	0.0149177
688.063	0.0148760
688.141	0.0149131
688.219	0.0150673
688.298	0.0148331
688.376	0.0148226
688.454	0.0148666
688.532	0.0148869
688.610	0.0148835
688.688	0.0146857
688.766	0.0147488
688.844	0.0148548
688.923	0.0148560
689.001	0.0148942
689.079	0.0150463
689.157	0.0151819
689.235	0.0155517
689.313	0.0156863
689.391	0.0158650
689.469	0.0157632
689.548	0.0157584
689.626	0.0157090
689.704	0.0154476
689.782	0.0149712
689.860	0.0145778
689.938	0.0140341
690.016	0.0135294
690.094	0.0132937
690.173	0.0129935
690.251	0.0127517
690.329	0.0130026
690.407	0.0134733
690.485	0.0139602
690.563	0.0147014
690.641	0.0156218
690.719	0.0165724
690.798	0.0173383
690.876	0.0179266
690.954	0.0184466
691.032	0.0188800
691.110	0.0186970
691.188	0.0181807
691.266	0.0173943
691.344	0.0164664
691.423	0.0155405
691.501	0.0142152
691.579	0.0129986
691.657	0.0118733
691.735	0.0110040
691.813	0.0101786
691.891	0.00976906
691.969	0.00976250
692.048	0.00993301
692.126	0.0104082
692.204	0.0112054
692.282	0.0122533
692.360	0.0135249
692.438	0.0147381
692.516	0.0161867
692.594	0.0174551
692.673	0.0186903
692.751	0.0194169
692.829	0.0202057
692.907	0.0207741
692.985	0.0209536
693.063	0.0208660
693.141	0.0206663
693.219	0.0200453
693.298	0.0191740
693.376	0.0180473
693.454	0.0168914
693.532	0.0154708
693.610	0.0142580
693.688	0.0130032
693.766	0.0118663
693.844	0.0108205
693.923	0.00976898
694.001	0.00926323
694.079	0.00891167
694.157	0.00874481
694.235	0.00887894
694.313	0.00912567
694.391	0.00957436
694.469	0.0103255
694.548	0.0110876
694.626	0.0121563
694.704	0.0131542
694.782	0.0141586
694.860	0.0150808
694.938	0.0162457
695.016	0.0172152
695.094	0.0178858
695.173	0.0188037
695.251	0.0193968
695.329	0.0198144
695.407	0.0203127
695.485	0.0203236
695.563	0.0204051
695.641	0.0203043
695.719	0.0197855
695.798	0.0194940
695.876	0.0189243
695.954	0.0181491
696.032	0.0173991
696.110	0.0166386
696.188	0.0158028
696.266	0.0148827
696.344	0.0140746
696.423	0.0133342
696.501	0.0124712
696.579	0.0119653
696.657	0.0112489
696.735	0.0106092
696.813	0.0102415
696.891	0.00994698
696.969	0.00996895
697.048	0.0100468
697.126	0.0102268
697.204	0.0105667
697.282	0.0110017
697.360	0.0114317
697.438	0.0119214
697.516	0.0126030
697.594	0.0132148
697.673	0.0137913
697.751	0.0143872
697.829	0.0150164
697.907	0.0156255
697.985	0.0162296
698.063	0.0168112
698.141	0.0172200
698.219	0.0176910
698.298	0.0178467
698.376	0.0182425
698.454	0.0183466
698.532	0.0185674
698.610	0.0185104
698.688	0.0184874
698.766	0.0184937
698.844	0.0183858
698.923	0.0182261
699.001	0.0178770
699.079	0.0175944
699.157	0.0174741
699.235	0.0167529
699.313	0.0163188
699.391	0.0161246
699.469	0.0155452
699.548	0.0149889
699.626	0.0146156
699.704	0.0137840
699.782	0.0134543
699.860	0.0131379
699.938	0.0128372
700.016	0.0124600
700.094	0.0123340
700.173	0.0121145
700.251	0.0120208
700.329	0.0119966
700.407	0.0118044
700.485	0.0119643
700.563	0.0121892
700.641	0.0122871
700.719	0.0123119
700.798	0.0126183
700.876	0.0128377
700.954	0.0132794
701.032	0.0135463
701.110	0.0139716
701.188	0.0144485
701.266	0.0146886
701.344	0.0149352
701.423	0.0152810
701.501	0.0155848
701.579	0.0159013
701.657	0.0160496
701.735	0.0162735
701.813	0.0165624
701.891	0.0167271
701.969	0.0167484
702.048	0.0168115
702.126	0.0167904
702.204	0.0167767
702.282	0.0168913
702.360	0.0169775
702.438	0.0170256
702.516	0.0170565
702.594	0.0169829
702.673	0.0170098
702.751	0.0169505
702.829	0.0168706
702.907	0.0168678
702.985	0.0168202
703.063	0.0165323
703.141	0.0163069
703.219	0.0161157
703.298	0.0160059
703.376	0.0156257
703.454	0.0153951
703.532	0.0151522
703.610	0.0149216
703.688	0.0144254
703.766	0.0143000
703.844	0.0140417
703.923	0.0138665
704.001	0.0135708
704.079	0.0136160
704.157	0.0133481
704.235	0.0130805
704.313	0.0129891
704.391	0.0128035
704.469	0.0125681
704.548	0.0125350
704.626	0.0125030
704.704	0.0125151
704.782	0.0126328
704.860	0.0127131
704.938	0.0126611
705.016	0.0127753
705.094	0.0129421
705.173	0.0131789
705.251	0.0132500
705.329	0.0136533
705.407	0.0139252
705.485	0.0142643
705.563	0.0144527
705.641	0.0148379
705.719	0.0153226
705.798	0.0156895
705.876	0.0159579
705.954	0.0163370
706.032	0.0166532
706.110	0.0167706
706.188	0.0171738
706.266	0.0172800
706.344	0.0173458
706.423	0.0173272
706.501	0.0173190
706.579	0.0171337
706.657	0.0171555
706.735	0.0169217
706.813	0.0167149
706.891	0.0162976
706.969	0.0161660
707.048	0.0158582
707.126	0.0156428
707.204	0.0155289
707.282	0.0153813
707.360	0.0150801
707.438	0.0150153
707.516	0.0150218
707.594	0.0148434
707.673	0.0148370
707.751	0.0148050
707.829	0.0147888
707.907	0.0148072
707.985	0.0148670
708.063	0.0147562
708.141	0.0147506
708.219	0.0146110
708.298	0.0145101
708.376	0.0144384
708.454	0.0143065
708.532	0.0143330
708.610	0.0140943
708.688	0.0140929
708.766	0.0140203
708.844	0.0138920
708.923	0.0137668
709.001	0.0135799
709.079	0.0133304
709.157	0.0133818
709.235	0.0133706
709.313	0.0133336
709.391	0.0132584
709.469	0.0133364
709.548	0.0133545
709.626	0.0132520
709.704	0.0135213
709.782	0.0137105
709.860	0.0137006
709.938	0.0140385
710.016	0.0144476
710.094	0.0145181
710.173	0.0147320
710.251	0.0149955
710.329	0.0151602
710.407	0.0153165
710.485	0.0156192
710.563	0.0157240
710.641	0.0158932
710.719	0.0160461
710.798	0.0163470
710.876	0.0162166
710.954	0.0163835
711.032	0.0162795
711.110	0.0164086
711.188	0.0164375
711.266	0.0164342
711.344	0.0164822
711.423	0.0165376
711.501	0.0166270
711.579	0.0166788
711.657	0.0166892
711.735	0.0166069
711.813	0.0164484
711.891	0.0164095
711.969	0.0163412
712.048	0.0160413
712.126	0.0157370
712.204	0.0155438
712.282	0.0154745
712.360	0.0152419
712.438	0.0149072
712.516	0.0148158
712.594	0.0146674
712.673	0.0146167
712.751	0.0144392
712.829	0.0143564
712.907	0.0142800
712.985	0.0143429
713.063	0.0142079
713.141	0.0140105
713.219	0.0141425
713.298	0.0141151
713.376	0.0140376
713.454	0.0138850
713.532	0.0137599
713.610	0.0139333
713.688	0.0138354
713.766	0.0137218
713.844	0.0137180
713.923	0.0135916
714.001	0.0136612
714.079	0.0135731
714.157	0.0136037
714.235	0.0136078
714.313	0.0137776
714.391	0.0136869
714.469	0.0136546
714.548	0.0138921
714.626	0.0138186
714.704	0.0140101
714.782	0.0141679
714.860	0.0144255
714.938	0.0145280
715.016	0.0149436
715.094	0.0152343
715.173	0.0157653
715.251	0.0159626
715.329	0.0159721
715.407	0.0162371
715.485	0.0163841
715.563	0.0165144
715.641	0.0165572
715.719	0.0165952
715.798	0.0166696
715.876	0.0166536
715.954	0.0164886
716.032	0.0163219
716.110	0.0164213
716.188	0.0162236
716.266	0.0159216
716.344	0.0158833
716.423	0.0157735
716.501	0.0157384
716.579	0.0156044
716.657	0.0154587
716.735	0.0154485
716.813	0.0153947
716.891	0.0152801
716.969	0.0151792
717.048	0.0149295
717.126	0.0148798
717.204	0.0147507
717.282	0.0146892
717.360	0.0143963
717.438	0.0141471
717.516	0.0138495
717.594	0.0138302
717.673	0.0137705
717.751	0.0135721
717.829	0.0135155
717.907	0.0136116
717.985	0.0137485
718.063	0.0136777
718.141	0.0140079
718.219	0.0138313
718.298	0.0139648
718.376	0.0141969
718.454	0.0144668
718.532	0.0144907
718.610	0.0146947
718.688	0.0146793
718.766	0.0148196
718.844	0.0148247
718.923	0.0147455
719.001	0.0149481
719.079	0.0148515
719.157	0.0148241
719.235	0.0147723
719.313	0.0147739
719.391	0.0147817
719.469	0.0147171
719.548	0.0147983
719.626	0.0148010
719.704	0.0148705
719.782	0.0148544
719.860	0.0149574
719.938	0.0149472
720.016	0.0149179
720.094	0.0150199
720.173	0.0149840
720.251	0.0149711
720.329	0.0150557
720.407	0.0151254
720.485	0.0152390
720.563	0.0152879
720.641	0.0153519
720.719	0.0153661
720.798	0.0154260
720.876	0.0152879
720.954	0.0153236
721.032	0.0153114
721.110	0.0152587
721.188	0.0153766
721.266	0.0153240
721.344	0.0152424
721.423	0.0150852
721.501	0.0151486
721.579	0.0152180
721.657	0.0150642
721.735	0.0149696
721.813	0.0150370
721.891	0.0150612
721.969	0.0149689
722.048	0.0151671
722.126	0.0151235
722.204	0.0151141
722.282	0.0150597
722.360	0.0151937
722.438	0.0152142
722.516	0.0151431
722.594	0.0151500
722.673	0.0150912
722.751	0.0150594
722.829	0.0150185
722.907	0.0150243
722.985	0.0147125
723.063	0.0147220
723.141	0.0145223
723.219	0.0145659
723.298	0.0145789
723.376	0.0144865
723.454	0.0143919
723.532	0.0142873
723.610	0.0142313
723.688	0.0143080
723.766	0.0142068
723.844	0.0143877
723.923	0.0144071
724.001	0.0143626
724.079	0.0144154
724.157	0.0144254
724.235	0.0145495
724.313	0.0146370
724.391	0.0147085
724.469	0.0145813
724.548	0.0146951
724.626	0.0147296
724.704	0.0147972
724.782	0.0147810
724.860	0.0148029
724.938	0.0147965
725.016	0.0146315
725.094	0.0148722
725.173	0.0148462
725.251	0.0147501
725.329	0.0148885
725.407	0.0148502
725.485	0.0149831
725.563	0.0151240
725.641	0.0151691
725.719	0.0152714
725.798	0.0153829
725.876	0.0155026
725.954	0.0156506
726.032	0.0156709
726.110	0.0156111
726.188	0.0155827
726.266	0.0155969
726.344	0.0155573
726.423	0.0154764
726.501	0.0153017
726.579	0.0152168
726.657	0.0151246
726.735	0.0150430
726.813	0.0148442
726.891	0.0146075
726.969	0.0146530
727.048	0.0145499
727.126	0.0144498
727.204	0.0145385
727.282	0.0147530
727.360	0.0146888
727.438	0.0146196
727.516	0.0149190
727.594	0.0150644
727.673	0.0152421
727.751	0.0152975
727.829	0.0153619
727.907	0.0152898
727.985	0.0152968
728.063	0.0153487
728.141	0.0153363
728.219	0.0151988
728.298	0.0151132
728.376	0.0151797
728.454	0.0148209
728.532	0.0148377
728.610	0.0147213
728.688	0.0147066
728.766	0.0146540
728.844	0.0146432
728.923	0.0145516
729.001	0.0146134
729.079	0.0145116
729.157	0.0146339
729.235	0.0146319
729.313	0.0147034
729.391	0.0145638
729.469	0.0145868
729.548	0.0145715
729.626	0.0145202
729.704	0.0146650
729.782	0.0146483
729.860	0.0146650
729.938	0.0147800
730.016	0.0147861
730.094	0.0147031
730.173	0.0147784
730.251	0.0147771
730.329	0.0147350
730.407	0.0147038
730.485	0.0147594
730.563	0.0149500
730.641	0.0146071
730.719	0.0148152
730.798	0.0148262
730.876	0.0148007
730.954	0.0148180
731.032	0.0147715
731.110	0.0148526
731.188	0.0149885
731.266	0.0150414
731.344	0.0149330
731.423	0.0150834
731.501	0.0150306
731.579	0.0149644
731.657	0.0149918
731.735	0.0150204
731.813	0.0150600
731.891	0.0148839
731.969	0.0148913
732.048	0.0149538
732.126	0.0147304
732.204	0.0147791
732.282	0.0147066
732.360	0.0147163
732.438	0.0146095
732.516	0.0147633
732.594	0.0148138
732.673	0.0147070
732.751	0.0149207
732.829	0.0148211
732.907	0.0150049
732.985	0.0151796
733.063	0.0151088
733.141	0.0152547
733.219	0.0151268
733.298	0.0152747
733.376	0.0154758
733.454	0.0153149
733.532	0.0154411
733.610	0.0154801
733.688	0.0153307
733.766	0.0152941
733.844	0.0154502
733.923	0.0154047
734.001	0.0153293
734.079	0.0151861
734.157	0.0151065
734.235	0.0150905
734.313	0.0148837
734.391	0.0148281
734.469	0.0149043
734.548	0.0146100
734.626	0.0146438
734.704	0.0146867
734.782	0.0145341
734.860	0.0144902
734.938	0.0147015
735.016	0.0144178
735.094	0.0143905
735.173	0.0146301
735.251	0.0145123
735.329	0.0145023
735.407	0.0145081
735.485	0.0145388
735.563	0.0144477
735.641	0.0144658
735.719	0.0145453
