05/14/2022	19:12:19	Ver.	4.1	UNKNOWN
Optical Delay	650.016352	Delta X		0.078125	Sweeps	1	Scan Rate	0/0
Coordinates	Axis 1	NaN	Axis 2	NaN	Axis 3	NaN	Axis 4	NaN	Axis 5	NaN	Axis 6	0.000000
TX Power	0.000000	RX Power	0.000000

650.016	0.0145331
650.094	0.0144376
650.173	0.0145390
650.251	0.0145805
650.329	0.0144202
650.407	0.0145145
650.485	0.0144521
650.563	0.0145151
650.641	0.0145839
650.719	0.0145874
650.798	0.0145848
650.876	0.0145078
650.954	0.0144517
651.032	0.0144479
651.110	0.0145381
651.188	0.0145364
651.266	0.0145604
651.344	0.0145972
651.423	0.0145844
651.501	0.0144437
651.579	0.0145205
651.657	0.0145772
651.735	0.0146014
651.813	0.0143608
651.891	0.0144851
651.969	0.0144005
652.048	0.0146290
652.126	0.0144987
652.204	0.0145258
652.282	0.0144282
652.360	0.0143837
652.438	0.0145994
652.516	0.0144412
652.594	0.0146337
652.673	0.0146983
652.751	0.0144729
652.829	0.0143845
652.907	0.0146494
652.985	0.0144862
653.063	0.0144475
653.141	0.0146983
653.219	0.0145724
653.298	0.0145145
653.376	0.0145373
653.454	0.0144597
653.532	0.0145235
653.610	0.0146236
653.688	0.0145335
653.766	0.0145341
653.844	0.0145264
653.923	0.0144019
654.001	0.0143708
654.079	0.0144471
654.157	0.0145145
654.235	0.0145146
654.313	0.0144199
654.391	0.0146307
654.469	0.0145679
654.548	0.0145426
654.626	0.0145660
654.704	0.0143842
654.782	0.0144867
654.860	0.0146309
654.938	0.0145958
655.016	0.0145411
655.094	0.0145731
655.173	0.0145878
655.251	0.0145476
655.329	0.0145770
655.407	0.0146168
655.485	0.0146743
655.563	0.0144009
655.641	0.0145000
655.719	0.0145085
655.798	0.0144411
655.876	0.0145510
655.954	0.0145367
656.032	0.0144698
656.110	0.0144670
656.188	0.0144055
656.266	0.0145210
656.344	0.0144800
656.423	0.0146098
656.501	0.0144954
656.579	0.0144765
656.657	0.0145526
656.735	0.0145922
656.813	0.0146558
656.891	0.0144851
656.969	0.0145798
657.048	0.0144062
657.126	0.0145941
657.204	0.0145808
657.282	0.0144497
657.360	0.0144739
657.438	0.0145278
657.516	0.0144786
657.594	0.0144443
657.673	0.0145708
657.751	0.0146753
657.829	0.0145183
657.907	0.0145450
657.985	0.0144106
658.063	0.0144619
658.141	0.0145869
658.219	0.0144631
658.298	0.0146250
658.376	0.0144334
658.454	0.0145411
658.532	0.0145170
658.610	0.0143789
658.688	0.0145461
658.766	0.0145203
658.844	0.0145213
658.923	0.0145522
659.001	0.0144213
659.079	0.0144634
659.157	0.0145015
659.235	0.0145403
659.313	0.0145158
659.391	0.0146147
659.469	0.0144795
659.548	0.0143399
659.626	0.0145597
659.704	0.0145894
659.782	0.0145245
659.860	0.0145085
659.938	0.0144825
660.016	0.0146949
660.094	0.0145790
660.173	0.0144658
660.251	0.0145679
660.329	0.0145136
660.407	0.0144047
660.485	0.0145222
660.563	0.0146063
660.641	0.0145037
660.719	0.0145674
660.798	0.0146535
660.876	0.0145424
660.954	0.0146420
661.032	0.0144810
661.110	0.0145242
661.188	0.0144721
661.266	0.0145361
661.344	0.0145172
661.423	0.0146113
661.501	0.0145279
661.579	0.0144675
661.657	0.0146030
661.735	0.0144921
661.813	0.0145296
661.891	0.0144738
661.969	0.0144070
662.048	0.0144307
662.126	0.0145200
662.204	0.0145948
662.282	0.0145243
662.360	0.0144542
662.438	0.0144667
662.516	0.0146672
662.594	0.0145428
662.673	0.0145891
662.751	0.0144910
662.829	0.0144432
662.907	0.0145535
662.985	0.0146358
663.063	0.0145249
663.141	0.0144516
663.219	0.0145914
663.298	0.0144879
663.376	0.0144842
663.454	0.0144542
663.532	0.0145320
663.610	0.0144990
663.688	0.0144947
663.766	0.0144473
663.844	0.0144039
663.923	0.0145640
664.001	0.0144939
664.079	0.0144831
664.157	0.0145212
664.235	0.0146352
664.313	0.0144974
664.391	0.0144992
664.469	0.0144933
664.548	0.0146242
664.626	0.0145223
664.704	0.0145276
664.782	0.0145605
664.860	0.0144089
664.938	0.0146217
665.016	0.0144901
665.094	0.0144781
665.173	0.0145498
665.251	0.0145638
665.329	0.0144491
665.407	0.0144470
665.485	0.0145751
665.563	0.0145867
665.641	0.0145170
665.719	0.0146242
665.798	0.0145719
665.876	0.0145560
665.954	0.0145797
666.032	0.0145544
666.110	0.0145049
666.188	0.0144348
666.266	0.0145145
666.344	0.0144228
666.423	0.0145928
666.501	0.0145235
666.579	0.0145168
666.657	0.0144729
666.735	0.0144691
666.813	0.0143569
666.891	0.0146304
666.969	0.0146066
667.048	0.0143764
667.126	0.0145075
667.204	0.0144761
667.282	0.0144585
667.360	0.0146384
667.438	0.0145660
667.516	0.0144715
667.594	0.0144254
667.673	0.0144118
667.751	0.0145003
667.829	0.0146905
667.907	0.0144759
667.985	0.0145170
668.063	0.0144689
668.141	0.0146938
668.219	0.0146359
668.298	0.0145199
668.376	0.0145458
668.454	0.0146455
668.532	0.0145643
668.610	0.0144726
668.688	0.0146223
668.766	0.0145594
668.844	0.0145918
668.923	0.0145870
669.001	0.0146278
669.079	0.0145777
669.157	0.0146853
669.235	0.0145905
669.313	0.0145398
669.391	0.0145245
669.469	0.0145784
669.548	0.0145295
669.626	0.0145852
669.704	0.0146259
669.782	0.0145508
669.860	0.0146279
669.938	0.0146713
670.016	0.0144592
670.094	0.0145714
670.173	0.0145206
670.251	0.0146490
670.329	0.0145217
670.407	0.0144421
670.485	0.0145722
670.563	0.0147380
670.641	0.0145055
670.719	0.0146876
670.798	0.0147250
670.876	0.0146328
670.954	0.0146309
671.032	0.0145969
671.110	0.0146362
671.188	0.0145762
671.266	0.0146880
671.344	0.0145398
671.423	0.0146612
671.501	0.0147075
671.579	0.0145987
671.657	0.0146304
671.735	0.0146628
671.813	0.0145492
671.891	0.0145866
671.969	0.0147083
672.048	0.0146280
672.126	0.0145774
672.204	0.0146904
672.282	0.0146189
672.360	0.0145546
672.438	0.0145555
672.516	0.0145515
672.594	0.0146098
672.673	0.0145631
672.751	0.0145325
672.829	0.0145715
672.907	0.0144512
672.985	0.0145179
673.063	0.0145208
673.141	0.0145500
673.219	0.0146341
673.298	0.0147105
673.376	0.0145530
673.454	0.0146488
673.532	0.0145461
673.610	0.0145829
673.688	0.0145269
673.766	0.0146319
673.844	0.0145683
673.923	0.0146357
674.001	0.0146245
674.079	0.0145611
674.157	0.0145818
674.235	0.0146994
674.313	0.0146434
674.391	0.0145958
674.469	0.0145856
674.548	0.0144882
674.626	0.0145264
674.704	0.0145547
674.782	0.0146182
674.860	0.0145586
674.938	0.0145284
675.016	0.0145220
675.094	0.0144169
675.173	0.0145882
675.251	0.0146951
675.329	0.0145660
675.407	0.0144149
675.485	0.0144685
675.563	0.0145863
675.641	0.0145085
675.719	0.0144968
675.798	0.0145776
675.876	0.0145203
675.954	0.0145725
676.032	0.0145566
676.110	0.0145739
676.188	0.0145539
676.266	0.0144795
676.344	0.0146724
676.423	0.0145113
676.501	0.0144243
676.579	0.0143856
676.657	0.0145195
676.735	0.0145154
676.813	0.0146304
676.891	0.0145560
676.969	0.0144250
677.048	0.0146197
677.126	0.0144523
677.204	0.0144247
677.282	0.0145261
677.360	0.0145620
677.438	0.0145205
677.516	0.0146399
677.594	0.0146246
677.673	0.0145353
677.751	0.0145376
677.829	0.0145512
677.907	0.0145751
677.985	0.0145004
678.063	0.0144987
678.141	0.0144978
678.219	0.0144788
678.298	0.0143771
678.376	0.0145245
678.454	0.0145023
678.532	0.0143473
678.610	0.0145071
678.688	0.0146432
678.766	0.0144207
678.844	0.0144916
678.923	0.0145782
679.001	0.0144524
679.079	0.0145358
679.157	0.0146725
679.235	0.0145093
679.313	0.0146617
679.391	0.0144470
679.469	0.0145947
679.548	0.0146151
679.626	0.0146507
679.704	0.0145360
679.782	0.0144799
679.860	0.0144769
679.938	0.0145669
680.016	0.0145197
680.094	0.0145207
680.173	0.0145327
680.251	0.0143698
680.329	0.0143616
680.407	0.0143842
680.485	0.0146003
680.563	0.0145371
680.641	0.0144405
680.719	0.0144669
680.798	0.0144003
680.876	0.0145527
680.954	0.0144980
681.032	0.0143916
681.110	0.0145019
681.188	0.0144731
681.266	0.0144554
681.344	0.0145275
681.423	0.0146134
681.501	0.0145410
681.579	0.0143954
681.657	0.0144055
681.735	0.0144888
681.813	0.0144026
681.891	0.0145342
681.969	0.0145218
682.048	0.0145940
682.126	0.0146176
682.204	0.0145891
682.282	0.0146696
682.360	0.0145102
682.438	0.0145328
682.516	0.0144983
682.594	0.0145168
682.673	0.0145991
682.751	0.0145597
682.829	0.0145721
682.907	0.0145800
682.985	0.0145522
683.063	0.0145439
683.141	0.0145206
683.219	0.0145325
683.298	0.0146224
683.376	0.0145033
683.454	0.0145401
683.532	0.0145045
683.610	0.0144242
683.688	0.0146626
683.766	0.0145512
683.844	0.0144207
683.923	0.0145351
684.001	0.0145889
684.079	0.0145810
684.157	0.0144680
684.235	0.0145280
684.313	0.0146481
684.391	0.0144530
684.469	0.0144748
684.548	0.0145766
684.626	0.0146815
684.704	0.0146429
684.782	0.0145830
684.860	0.0145404
684.938	0.0144991
685.016	0.0146127
685.094	0.0144851
685.173	0.0145142
685.251	0.0146754
685.329	0.0145875
685.407	0.0145699
685.485	0.0144930
685.563	0.0144920
685.641	0.0144219
685.719	0.0145812
685.798	0.0144918
685.876	0.0145137
685.954	0.0146597
686.032	0.0143601
686.110	0.0145744
686.188	0.0145477
686.266	0.0143406
686.344	0.0145412
686.423	0.0144733
686.501	0.0144916
686.579	0.0144309
686.657	0.0145277
686.735	0.0142495
686.813	0.0144366
686.891	0.0145848
686.969	0.0146327
687.048	0.0145555
687.126	0.0147518
687.204	0.0148885
687.282	0.0146991
687.360	0.0148393
687.438	0.0148472
687.516	0.0149043
687.594	0.0147551
687.673	0.0147267
687.751	0.0145849
687.829	0.0144709
687.907	0.0143136
687.985	0.0141826
688.063	0.0138629
688.141	0.0137148
688.219	0.0133476
688.298	0.0134344
688.376	0.0134905
688.454	0.0136429
688.532	0.0138599
688.610	0.0142591
688.688	0.0147800
688.766	0.0152273
688.844	0.0158321
688.923	0.0163694
689.001	0.0169271
689.079	0.0170448
689.157	0.0172641
689.235	0.0172932
689.313	0.0169148
689.391	0.0165017
689.469	0.0158895
689.548	0.0152598
689.626	0.0143900
689.704	0.0134969
689.782	0.0128076
689.860	0.0120591
689.938	0.0114349
690.016	0.0109816
690.094	0.0106078
690.173	0.0102835
690.251	0.0102200
690.329	0.0104479
690.407	0.0107861
690.485	0.0112371
690.563	0.0118729
690.641	0.0127843
690.719	0.0136436
690.798	0.0147324
690.876	0.0158900
690.954	0.0170675
691.032	0.0182872
691.110	0.0194467
691.188	0.0203522
691.266	0.0209818
691.344	0.0215602
691.423	0.0216277
691.501	0.0215884
691.579	0.0212692
691.657	0.0204375
691.735	0.0194686
691.813	0.0184267
691.891	0.0169083
691.969	0.0153564
692.048	0.0135760
692.126	0.0121762
692.204	0.0103523
692.282	0.00879059
692.360	0.00757431
692.438	0.00639931
692.516	0.00521034
692.594	0.00466507
692.673	0.00436485
692.751	0.00426254
692.829	0.00474136
692.907	0.00550285
692.985	0.00645782
693.063	0.00770897
693.141	0.00956184
693.219	0.0113244
693.298	0.0133270
693.376	0.0152889
693.454	0.0175943
693.532	0.0199923
693.610	0.0219377
693.688	0.0238297
693.766	0.0257319
693.844	0.0272413
693.923	0.0281276
694.001	0.0286597
694.079	0.0289560
694.157	0.0285066
694.235	0.0274247
694.313	0.0259620
694.391	0.0241888
694.469	0.0221806
694.548	0.0196801
694.626	0.0170498
694.704	0.0144073
694.782	0.0115428
694.860	0.00871902
694.938	0.00622620
695.016	0.00382462
695.094	0.00196693
695.173	0.000257263
695.251	-0.000961456
695.329	-0.00165878
695.407	-0.00183472
695.485	-0.00160789
695.563	-0.000893173
695.641	0.000150299
695.719	0.00183929
695.798	0.00396088
695.876	0.00605316
695.954	0.00874443
696.032	0.0114429
696.110	0.0142951
696.188	0.0172025
696.266	0.0200213
696.344	0.0228996
696.423	0.0255112
696.501	0.0276255
696.579	0.0293420
696.657	0.0306119
696.735	0.0315350
696.813	0.0318678
696.891	0.0317001
696.969	0.0309682
697.048	0.0297075
697.126	0.0280254
697.204	0.0262237
697.282	0.0238932
697.360	0.0213099
697.438	0.0187837
697.516	0.0160459
697.594	0.0134225
697.673	0.0109132
697.751	0.00834671
697.829	0.00635277
697.907	0.00446861
697.985	0.00277985
698.063	0.00164268
698.141	0.000826569
698.219	0.000357056
698.298	0.000263519
698.376	0.000812149
698.454	0.00148575
698.532	0.00271912
698.610	0.00413338
698.688	0.00563667
698.766	0.00721336
698.844	0.00907402
698.923	0.0108984
699.001	0.0128632
699.079	0.0148119
699.157	0.0164774
699.235	0.0180807
699.313	0.0196084
699.391	0.0208823
699.469	0.0219284
699.548	0.0227823
699.626	0.0232211
699.704	0.0236813
699.782	0.0237189
699.860	0.0234396
699.938	0.0227197
700.016	0.0222220
700.094	0.0211995
700.173	0.0200879
700.251	0.0191649
700.329	0.0180518
700.407	0.0171111
700.485	0.0160928
700.563	0.0151316
700.641	0.0143488
700.719	0.0136445
700.798	0.0130610
700.876	0.0126634
700.954	0.0121637
701.032	0.0117945
701.110	0.0119833
701.188	0.0118201
701.266	0.0118153
701.344	0.0118443
701.423	0.0119694
701.501	0.0121295
701.579	0.0122407
701.657	0.0125382
701.735	0.0128181
701.813	0.0130423
701.891	0.0134812
701.969	0.0136243
702.048	0.0139184
702.126	0.0141254
702.204	0.0143103
702.282	0.0144659
702.360	0.0145408
702.438	0.0144940
702.516	0.0143105
702.594	0.0142632
702.673	0.0138220
702.751	0.0137073
702.829	0.0134108
702.907	0.0131704
702.985	0.0130370
703.063	0.0126965
703.141	0.0126285
703.219	0.0125500
703.298	0.0125690
703.376	0.0126974
703.454	0.0128453
703.532	0.0128953
703.610	0.0131952
703.688	0.0134303
703.766	0.0139272
703.844	0.0140765
703.923	0.0143008
704.001	0.0148083
704.079	0.0152572
704.157	0.0157619
704.235	0.0161495
704.313	0.0165454
704.391	0.0170040
704.469	0.0173080
704.548	0.0176428
704.626	0.0178033
704.704	0.0179270
704.782	0.0180779
704.860	0.0179256
704.938	0.0178364
705.016	0.0177329
705.094	0.0175036
705.173	0.0172260
705.251	0.0168423
705.329	0.0163415
705.407	0.0159201
705.485	0.0153992
705.563	0.0147211
705.641	0.0140672
705.719	0.0136128
705.798	0.0131947
705.876	0.0127576
705.954	0.0123605
706.032	0.0122559
706.110	0.0120577
706.188	0.0119149
706.266	0.0119488
706.344	0.0120330
706.423	0.0122089
706.501	0.0126681
706.579	0.0128181
706.657	0.0131001
706.735	0.0133499
706.813	0.0136981
706.891	0.0139122
706.969	0.0141285
707.048	0.0142562
707.126	0.0143384
707.204	0.0147254
707.282	0.0147989
707.360	0.0148038
707.438	0.0147519
707.516	0.0147918
707.594	0.0146479
707.673	0.0145057
707.751	0.0143604
707.829	0.0140686
707.907	0.0140450
707.985	0.0139235
708.063	0.0137728
708.141	0.0135932
708.219	0.0134117
708.298	0.0133215
708.376	0.0133218
708.454	0.0131004
708.532	0.0130142
708.610	0.0130314
708.688	0.0130353
708.766	0.0131066
708.844	0.0132347
708.923	0.0135464
709.001	0.0138226
709.079	0.0139743
709.157	0.0142782
709.235	0.0145882
709.313	0.0148933
709.391	0.0151987
709.469	0.0154413
709.548	0.0157404
709.626	0.0162124
709.704	0.0164540
709.782	0.0167919
709.860	0.0170429
709.938	0.0172561
710.016	0.0173058
710.094	0.0174242
710.173	0.0175658
710.251	0.0174019
710.329	0.0173728
710.407	0.0171844
710.485	0.0171081
710.563	0.0168401
710.641	0.0164789
710.719	0.0162231
710.798	0.0158809
710.876	0.0156715
710.954	0.0151843
711.032	0.0148481
711.110	0.0145237
711.188	0.0141628
711.266	0.0138176
711.344	0.0136744
711.423	0.0132816
711.501	0.0133420
711.579	0.0130524
711.657	0.0127674
711.735	0.0126637
711.813	0.0123809
711.891	0.0123618
711.969	0.0120969
712.048	0.0120763
712.126	0.0118943
712.204	0.0118700
712.282	0.0118307
712.360	0.0117816
712.438	0.0117119
712.516	0.0117118
712.594	0.0117779
712.673	0.0119614
712.751	0.0119700
712.829	0.0120650
712.907	0.0123306
712.985	0.0125581
713.063	0.0129746
713.141	0.0133784
713.219	0.0136185
713.298	0.0140012
713.376	0.0144912
713.454	0.0148186
713.532	0.0152383
713.610	0.0154701
713.688	0.0158347
713.766	0.0162688
713.844	0.0165231
713.923	0.0167159
714.001	0.0168555
714.079	0.0170304
714.157	0.0170554
714.235	0.0172605
714.313	0.0172702
714.391	0.0172326
714.469	0.0171658
714.548	0.0170081
714.626	0.0169810
714.704	0.0167712
714.782	0.0167908
714.860	0.0165116
714.938	0.0163871
715.016	0.0160461
715.094	0.0160464
715.173	0.0157769
715.251	0.0156532
715.329	0.0153347
715.407	0.0150413
715.485	0.0147832
715.563	0.0146544
715.641	0.0143977
715.719	0.0141560
715.798	0.0139644
715.876	0.0137805
715.954	0.0134859
716.032	0.0135063
716.110	0.0133120
716.188	0.0132680
716.266	0.0131541
716.344	0.0130518
716.423	0.0130186
716.501	0.0129140
716.579	0.0129718
716.657	0.0129725
716.735	0.0131528
716.813	0.0130770
716.891	0.0132982
716.969	0.0131950
717.048	0.0132944
717.126	0.0135141
717.204	0.0136287
717.282	0.0137386
717.360	0.0137846
717.438	0.0137833
717.516	0.0138613
717.594	0.0138943
717.673	0.0137974
717.751	0.0138857
717.829	0.0136813
717.907	0.0136864
717.985	0.0135937
718.063	0.0134206
718.141	0.0133176
718.219	0.0133894
718.298	0.0136366
718.376	0.0135117
718.454	0.0137942
718.532	0.0138963
718.610	0.0139865
718.688	0.0142337
718.766	0.0144873
718.844	0.0148161
718.923	0.0150482
719.001	0.0151349
719.079	0.0154827
719.157	0.0156925
719.235	0.0157101
719.313	0.0158284
719.391	0.0159609
719.469	0.0160373
719.548	0.0160901
719.626	0.0160938
719.704	0.0159542
719.782	0.0160575
719.860	0.0161874
719.938	0.0160828
720.016	0.0159883
720.094	0.0159800
720.173	0.0157967
720.251	0.0159900
720.329	0.0157133
720.407	0.0156212
720.485	0.0156198
720.563	0.0156571
720.641	0.0153974
720.719	0.0154236
720.798	0.0152676
720.876	0.0149904
720.954	0.0150029
721.032	0.0148956
721.110	0.0146913
721.188	0.0145877
721.266	0.0144124
721.344	0.0142311
721.423	0.0141875
721.501	0.0140131
721.579	0.0139518
721.657	0.0139604
721.735	0.0139089
721.813	0.0137446
721.891	0.0138077
721.969	0.0135570
722.048	0.0134988
722.126	0.0135459
722.204	0.0134126
722.282	0.0132443
722.360	0.0132293
722.438	0.0130469
722.516	0.0130752
722.594	0.0129684
722.673	0.0130199
722.751	0.0130920
722.829	0.0129926
722.907	0.0131218
722.985	0.0132476
723.063	0.0132587
723.141	0.0131281
723.219	0.0133881
723.298	0.0135326
723.376	0.0135858
723.454	0.0137528
723.532	0.0138821
723.610	0.0141096
723.688	0.0140777
723.766	0.0142430
723.844	0.0144659
723.923	0.0147417
724.001	0.0148392
724.079	0.0150415
724.157	0.0152637
724.235	0.0153038
724.313	0.0154966
724.391	0.0155804
724.469	0.0156084
724.548	0.0157465
724.626	0.0158060
724.704	0.0158915
724.782	0.0159130
724.860	0.0158420
724.938	0.0157848
725.016	0.0157094
725.094	0.0157234
725.173	0.0156648
725.251	0.0156659
725.329	0.0155496
725.407	0.0155192
725.485	0.0154531
725.563	0.0154097
725.641	0.0153640
725.719	0.0152791
725.798	0.0150730
725.876	0.0148755
725.954	0.0148579
726.032	0.0146500
726.110	0.0146070
726.188	0.0145250
726.266	0.0144846
726.344	0.0144589
726.423	0.0144759
726.501	0.0143125
726.579	0.0143098
726.657	0.0145546
726.735	0.0145576
726.813	0.0143392
726.891	0.0144997
726.969	0.0144782
727.048	0.0144644
727.126	0.0143882
727.204	0.0142067
727.282	0.0143356
727.360	0.0141628
727.438	0.0140065
727.516	0.0140203
727.594	0.0139183
727.673	0.0137519
727.751	0.0138339
727.829	0.0138152
727.907	0.0136588
727.985	0.0134965
728.063	0.0135881
728.141	0.0136350
728.219	0.0134971
728.298	0.0136084
728.376	0.0135843
728.454	0.0136272
728.532	0.0138380
728.610	0.0137206
728.688	0.0137064
728.766	0.0139120
728.844	0.0141434
728.923	0.0142014
729.001	0.0143779
729.079	0.0146104
729.157	0.0146110
729.235	0.0146989
729.313	0.0150341
729.391	0.0150166
729.469	0.0149414
729.548	0.0149993
729.626	0.0151752
729.704	0.0151346
729.782	0.0151460
729.860	0.0151491
729.938	0.0150765
730.016	0.0150578
730.094	0.0148730
730.173	0.0148390
730.251	0.0148989
730.329	0.0148765
730.407	0.0146762
730.485	0.0145691
730.563	0.0148127
730.641	0.0147980
730.719	0.0147593
730.798	0.0149218
730.876	0.0147043
730.954	0.0149728
731.032	0.0150204
731.110	0.0149508
731.188	0.0149122
731.266	0.0149200
731.344	0.0150182
731.423	0.0150342
731.501	0.0150958
731.579	0.0152650
731.657	0.0153828
731.735	0.0153188
731.813	0.0153843
731.891	0.0153459
731.969	0.0154781
732.048	0.0155414
732.126	0.0153107
732.204	0.0153040
732.282	0.0151055
732.360	0.0150819
732.438	0.0150140
732.516	0.0149279
732.594	0.0147900
732.673	0.0147754
732.751	0.0147368
732.829	0.0144887
732.907	0.0143021
732.985	0.0141693
733.063	0.0141605
733.141	0.0137573
733.219	0.0137852
733.298	0.0137334
733.376	0.0135580
733.454	0.0134551
733.532	0.0133459
733.610	0.0132652
733.688	0.0132584
733.766	0.0132541
733.844	0.0133292
733.923	0.0132954
734.001	0.0134940
734.079	0.0134578
734.157	0.0136496
734.235	0.0137291
734.313	0.0139460
734.391	0.0140990
734.469	0.0140663
734.548	0.0144103
734.626	0.0146384
734.704	0.0146342
734.782	0.0147893
734.860	0.0148997
734.938	0.0150068
735.016	0.0150056
735.094	0.0150046
735.173	0.0151359
735.251	0.0151360
735.329	0.0151664
735.407	0.0152076
735.485	0.0152580
