05/14/2022	19:14:39	Ver.	4.1	UNKNOWN
Optical Delay	650.016352	Delta X		0.078125	Sweeps	1	Scan Rate	0/0
Coordinates	Axis 1	NaN	Axis 2	NaN	Axis 3	NaN	Axis 4	NaN	Axis 5	NaN	Axis 6	0.000000
TX Power	0.000000	RX Power	0.000000

650.016	0.0144202
650.094	0.0145057
650.173	0.0143761
650.251	0.0144141
650.329	0.0143317
650.407	0.0143973
650.485	0.0145494
650.563	0.0145467
650.641	0.0144390
650.719	0.0143803
650.798	0.0143136
650.876	0.0144845
650.954	0.0145135
651.032	0.0145413
651.110	0.0143809
651.188	0.0143252
651.266	0.0143618
651.344	0.0143572
651.423	0.0145251
651.501	0.0144864
651.579	0.0143591
651.657	0.0143412
651.735	0.0144246
651.813	0.0144485
651.891	0.0143024
651.969	0.0144271
652.048	0.0143788
652.126	0.0144076
652.204	0.0143445
652.282	0.0143532
652.360	0.0144447
652.438	0.0143156
652.516	0.0143643
652.594	0.0143609
652.673	0.0143448
652.751	0.0145129
652.829	0.0144373
652.907	0.0145013
652.985	0.0145394
653.063	0.0142725
653.141	0.0142878
653.219	0.0143309
653.298	0.0143760
653.376	0.0144357
653.454	0.0144471
653.532	0.0144954
653.610	0.0144950
653.688	0.0144735
653.766	0.0145451
653.844	0.0144968
653.923	0.0143913
654.001	0.0143958
654.079	0.0145382
654.157	0.0144569
654.235	0.0144538
654.313	0.0144568
654.391	0.0145927
654.469	0.0145233
654.548	0.0143469
654.626	0.0144664
654.704	0.0145055
654.782	0.0144375
654.860	0.0142738
654.938	0.0144552
655.016	0.0144603
655.094	0.0144957
655.173	0.0143475
655.251	0.0145391
655.329	0.0144359
655.407	0.0144209
655.485	0.0145618
655.563	0.0142778
655.641	0.0143858
655.719	0.0145059
655.798	0.0144210
655.876	0.0142724
655.954	0.0144458
656.032	0.0144094
656.110	0.0144092
656.188	0.0144437
656.266	0.0146324
656.344	0.0145175
656.423	0.0143290
656.501	0.0143371
656.579	0.0144360
656.657	0.0144291
656.735	0.0143282
656.813	0.0144250
656.891	0.0142723
656.969	0.0143926
657.048	0.0144180
657.126	0.0143766
657.204	0.0143826
657.282	0.0143935
657.360	0.0143891
657.438	0.0144736
657.516	0.0144538
657.594	0.0142670
657.673	0.0143358
657.751	0.0143912
657.829	0.0144653
657.907	0.0144476
657.985	0.0144198
658.063	0.0145051
658.141	0.0142329
658.219	0.0143385
658.298	0.0143806
658.376	0.0143937
658.454	0.0142593
658.532	0.0143880
658.610	0.0145044
658.688	0.0143561
658.766	0.0143370
658.844	0.0143951
658.923	0.0143881
659.001	0.0141705
659.079	0.0144441
659.157	0.0144152
659.235	0.0143017
659.313	0.0144468
659.391	0.0143829
659.469	0.0143888
659.548	0.0144838
659.626	0.0144831
659.704	0.0143781
659.782	0.0145963
659.860	0.0143734
659.938	0.0144039
660.016	0.0143430
660.094	0.0145010
660.173	0.0144354
660.251	0.0143045
660.329	0.0143874
660.407	0.0145090
660.485	0.0143762
660.563	0.0143510
660.641	0.0144965
660.719	0.0144733
660.798	0.0145105
660.876	0.0144493
660.954	0.0144450
661.032	0.0145435
661.110	0.0145624
661.188	0.0144057
661.266	0.0144962
661.344	0.0144778
661.423	0.0143472
661.501	0.0144857
661.579	0.0145385
661.657	0.0145099
661.735	0.0143655
661.813	0.0143587
661.891	0.0144525
661.969	0.0144112
662.048	0.0144364
662.126	0.0144424
662.204	0.0144403
662.282	0.0143688
662.360	0.0145994
662.438	0.0144667
662.516	0.0145040
662.594	0.0144202
662.673	0.0145197
662.751	0.0143513
662.829	0.0143675
662.907	0.0144961
662.985	0.0144298
663.063	0.0144254
663.141	0.0144806
663.219	0.0144821
663.298	0.0143197
663.376	0.0143439
663.454	0.0144765
663.532	0.0144525
663.610	0.0143377
663.688	0.0144037
663.766	0.0144231
663.844	0.0144270
663.923	0.0143108
664.001	0.0144939
664.079	0.0144843
664.157	0.0144276
664.235	0.0144965
664.313	0.0144197
664.391	0.0144732
664.469	0.0145222
664.548	0.0145124
664.626	0.0144466
664.704	0.0144553
664.782	0.0144256
664.860	0.0143669
664.938	0.0144301
665.016	0.0145175
665.094	0.0144704
665.173	0.0144589
665.251	0.0145004
665.329	0.0144091
665.407	0.0143437
665.485	0.0143940
665.563	0.0144428
665.641	0.0145242
665.719	0.0143734
665.798	0.0143521
665.876	0.0144702
665.954	0.0144880
666.032	0.0143174
666.110	0.0143340
666.188	0.0144157
666.266	0.0144294
666.344	0.0143152
666.423	0.0143764
666.501	0.0145055
666.579	0.0144189
666.657	0.0144691
666.735	0.0144635
666.813	0.0144830
666.891	0.0142756
666.969	0.0145008
667.048	0.0144131
667.126	0.0142789
667.204	0.0143663
667.282	0.0144588
667.360	0.0143584
667.438	0.0143754
667.516	0.0144198
667.594	0.0144882
667.673	0.0143976
667.751	0.0142464
667.829	0.0143979
667.907	0.0143888
667.985	0.0143900
668.063	0.0144258
668.141	0.0143951
668.219	0.0143925
668.298	0.0143697
668.376	0.0145001
668.454	0.0143359
668.532	0.0144034
668.610	0.0144854
668.688	0.0143794
668.766	0.0145522
668.844	0.0145776
668.923	0.0143514
669.001	0.0143847
669.079	0.0143625
669.157	0.0145126
669.235	0.0145176
669.313	0.0144206
669.391	0.0144324
669.469	0.0143607
669.548	0.0143475
669.626	0.0144138
669.704	0.0144571
669.782	0.0145724
669.860	0.0143524
669.938	0.0144712
670.016	0.0144117
670.094	0.0143578
670.173	0.0143988
670.251	0.0144545
670.329	0.0145269
670.407	0.0144611
670.485	0.0145366
670.563	0.0144589
670.641	0.0144662
670.719	0.0145766
670.798	0.0145700
670.876	0.0143545
670.954	0.0144131
671.032	0.0142826
671.110	0.0144707
671.188	0.0144118
671.266	0.0144595
671.344	0.0143865
671.423	0.0144037
671.501	0.0144213
671.579	0.0144099
671.657	0.0144549
671.735	0.0144442
671.813	0.0144936
671.891	0.0143263
671.969	0.0145138
672.048	0.0143794
672.126	0.0143882
672.204	0.0143436
672.282	0.0143880
672.360	0.0143290
672.438	0.0144992
672.516	0.0144057
672.594	0.0143969
672.673	0.0145782
672.751	0.0143630
672.829	0.0143427
672.907	0.0144606
672.985	0.0144558
673.063	0.0144717
673.141	0.0143842
673.219	0.0144097
673.298	0.0143896
673.376	0.0144618
673.454	0.0143787
673.532	0.0144124
673.610	0.0144463
673.688	0.0144814
673.766	0.0142854
673.844	0.0144608
673.923	0.0145719
674.001	0.0143758
674.079	0.0144492
674.157	0.0144792
674.235	0.0145471
674.313	0.0144801
674.391	0.0144127
674.469	0.0145419
674.548	0.0144056
674.626	0.0144293
674.704	0.0144257
674.782	0.0144936
674.860	0.0144280
674.938	0.0143933
675.016	0.0144185
675.094	0.0143865
675.173	0.0145061
675.251	0.0142485
675.329	0.0145590
675.407	0.0144154
675.485	0.0145114
675.563	0.0145177
675.641	0.0143822
675.719	0.0144134
675.798	0.0144701
675.876	0.0144350
675.954	0.0143230
676.032	0.0143275
676.110	0.0145718
676.188	0.0145007
676.266	0.0144202
676.344	0.0143471
676.423	0.0143571
676.501	0.0143794
676.579	0.0143488
676.657	0.0143839
676.735	0.0143555
676.813	0.0144287
676.891	0.0143610
676.969	0.0144602
677.048	0.0143597
677.126	0.0143576
677.204	0.0145844
677.282	0.0142748
677.360	0.0142735
677.438	0.0143263
677.516	0.0144744
677.594	0.0143057
677.673	0.0143683
677.751	0.0144825
677.829	0.0142556
677.907	0.0143578
677.985	0.0143211
678.063	0.0144048
678.141	0.0142912
678.219	0.0143556
678.298	0.0143752
678.376	0.0143410
678.454	0.0143803
678.532	0.0143652
678.610	0.0144055
678.688	0.0143460
678.766	0.0144543
678.844	0.0144489
678.923	0.0143861
679.001	0.0144563
679.079	0.0145216
679.157	0.0144908
679.235	0.0143427
679.313	0.0143216
679.391	0.0142699
679.469	0.0143320
679.548	0.0143162
679.626	0.0145477
679.704	0.0143329
679.782	0.0143752
679.860	0.0144506
679.938	0.0144259
680.016	0.0144997
680.094	0.0145355
680.173	0.0144427
680.251	0.0144563
680.329	0.0143953
680.407	0.0144244
680.485	0.0145316
680.563	0.0144353
680.641	0.0143820
680.719	0.0144601
680.798	0.0144789
680.876	0.0144173
680.954	0.0145517
681.032	0.0143241
681.110	0.0143409
681.188	0.0143847
681.266	0.0143951
681.344	0.0143752
681.423	0.0142871
681.501	0.0144322
681.579	0.0144543
681.657	0.0144328
681.735	0.0143385
681.813	0.0143930
681.891	0.0144529
681.969	0.0144849
682.048	0.0145012
682.126	0.0144314
682.204	0.0144585
682.282	0.0143455
682.360	0.0144896
682.438	0.0145013
682.516	0.0143579
682.594	0.0143686
682.673	0.0145061
682.751	0.0143517
682.829	0.0144264
682.907	0.0144187
682.985	0.0144633
683.063	0.0143414
683.141	0.0144757
683.219	0.0144356
683.298	0.0144038
683.376	0.0144005
683.454	0.0145456
683.532	0.0143719
683.610	0.0143614
683.688	0.0142863
683.766	0.0143353
683.844	0.0142780
683.923	0.0143270
684.001	0.0143373
684.079	0.0144747
684.157	0.0144408
684.235	0.0146370
684.313	0.0146374
684.391	0.0145446
684.469	0.0148616
684.548	0.0146293
684.626	0.0144192
684.704	0.0143295
684.782	0.0142605
684.860	0.0141775
684.938	0.0142749
685.016	0.0141024
685.094	0.0140028
685.173	0.0140631
685.251	0.0138345
685.329	0.0140791
685.407	0.0140570
685.485	0.0140240
685.563	0.0140707
685.641	0.0143365
685.719	0.0145107
685.798	0.0144985
685.876	0.0147993
685.954	0.0150174
686.032	0.0150925
686.110	0.0151733
686.188	0.0151644
686.266	0.0152320
686.344	0.0153330
686.423	0.0150676
686.501	0.0148734
686.579	0.0147472
686.657	0.0145080
686.735	0.0143527
686.813	0.0139773
686.891	0.0139264
686.969	0.0136344
687.048	0.0136102
687.126	0.0134869
687.204	0.0135028
687.282	0.0135088
687.360	0.0135502
687.438	0.0134393
687.516	0.0134904
687.594	0.0135668
687.673	0.0136279
687.751	0.0137203
687.829	0.0136488
687.907	0.0139095
687.985	0.0139177
688.063	0.0143571
688.141	0.0147226
688.219	0.0148343
688.298	0.0153583
688.376	0.0156915
688.454	0.0158553
688.532	0.0163682
688.610	0.0165451
688.688	0.0168465
688.766	0.0170055
688.844	0.0170631
688.923	0.0170885
689.001	0.0168516
689.079	0.0164357
689.157	0.0161665
689.235	0.0155959
689.313	0.0149845
689.391	0.0144794
689.469	0.0138746
689.548	0.0132487
689.626	0.0124216
689.704	0.0119224
689.782	0.0114026
689.860	0.0109443
689.938	0.0105912
690.016	0.0102859
690.094	0.0101234
690.173	0.0101197
690.251	0.0101964
690.329	0.0103686
690.407	0.0106905
690.485	0.0112106
690.563	0.0118854
690.641	0.0124043
690.719	0.0132244
690.798	0.0137883
690.876	0.0148413
690.954	0.0156636
691.032	0.0166109
691.110	0.0177033
691.188	0.0185010
691.266	0.0194527
691.344	0.0203141
691.423	0.0209367
691.501	0.0213491
691.579	0.0217614
691.657	0.0218002
691.735	0.0215964
691.813	0.0210509
691.891	0.0202210
691.969	0.0193833
692.048	0.0184416
692.126	0.0172466
692.204	0.0157957
692.282	0.0145363
692.360	0.0134013
692.438	0.0120850
692.516	0.0109637
692.594	0.0101042
692.673	0.00910461
692.751	0.00826447
692.829	0.00738304
692.907	0.00696655
692.985	0.00645500
693.063	0.00614960
693.141	0.00590263
693.219	0.00589470
693.298	0.00606697
693.376	0.00623093
693.454	0.00695107
693.532	0.00783211
693.610	0.00890709
693.688	0.00998093
693.766	0.0113488
693.844	0.0129123
693.923	0.0144692
694.001	0.0157986
694.079	0.0173052
694.157	0.0185640
694.235	0.0196628
694.313	0.0208973
694.391	0.0218317
694.469	0.0226611
694.548	0.0235476
694.626	0.0240708
694.704	0.0245814
694.782	0.0249045
694.860	0.0252261
694.938	0.0250656
695.016	0.0247769
695.094	0.0243349
695.173	0.0234148
695.251	0.0223083
695.329	0.0208475
695.407	0.0191902
695.485	0.0174021
695.563	0.0154005
695.641	0.0135347
695.719	0.0116288
695.798	0.00987099
695.876	0.00825050
695.954	0.00691566
696.032	0.00583878
696.110	0.00493896
696.188	0.00431831
696.266	0.00403595
696.344	0.00363533
696.423	0.00366638
696.501	0.00358192
696.579	0.00378304
696.657	0.00390350
696.735	0.00419365
696.813	0.00479553
696.891	0.00513588
696.969	0.00602989
697.048	0.00719536
697.126	0.00833069
697.204	0.00987274
697.282	0.0115014
697.360	0.0132316
697.438	0.0148655
697.516	0.0166222
697.594	0.0183448
697.673	0.0199825
697.751	0.0212724
697.829	0.0223222
697.907	0.0234096
697.985	0.0240264
698.063	0.0245476
698.141	0.0249631
698.219	0.0250221
698.298	0.0250574
698.376	0.0250797
698.454	0.0250205
698.532	0.0248594
698.610	0.0244023
698.688	0.0241450
698.766	0.0237055
698.844	0.0229952
698.923	0.0219360
699.001	0.0206562
699.079	0.0193034
699.157	0.0178304
699.235	0.0162064
699.313	0.0144416
699.391	0.0125686
699.469	0.0112134
699.548	0.00973656
699.626	0.00818565
699.704	0.00692894
699.782	0.00583702
699.860	0.00502625
699.938	0.00444496
700.016	0.00380280
700.094	0.00358856
700.173	0.00349869
700.251	0.00352783
700.329	0.00373932
700.407	0.00420624
700.485	0.00432800
700.563	0.00482925
700.641	0.00535103
700.719	0.00596275
700.798	0.00670578
700.876	0.00763649
700.954	0.00858826
701.032	0.00950737
701.110	0.0109730
701.188	0.0122939
701.266	0.0136657
701.344	0.0149530
701.423	0.0160709
701.501	0.0175769
701.579	0.0189997
701.657	0.0202178
701.735	0.0213053
701.813	0.0223540
701.891	0.0234626
701.969	0.0240733
702.048	0.0250151
702.126	0.0254866
702.204	0.0259499
702.282	0.0261901
702.360	0.0262789
702.438	0.0259836
702.516	0.0255585
702.594	0.0248892
702.673	0.0242326
702.751	0.0231353
702.829	0.0219518
702.907	0.0206689
702.985	0.0192992
703.063	0.0178623
703.141	0.0163246
703.219	0.0147525
703.298	0.0133378
703.376	0.0118435
703.454	0.0105533
703.532	0.00921089
703.610	0.00801788
703.688	0.00717873
703.766	0.00633339
703.844	0.00547874
703.923	0.00489716
704.001	0.00459099
704.079	0.00435516
704.157	0.00410133
704.235	0.00429779
704.313	0.00443344
704.391	0.00485451
704.469	0.00541985
704.548	0.00616364
704.626	0.00670113
704.704	0.00798019
704.782	0.00897743
704.860	0.00999016
704.938	0.0109853
705.016	0.0123087
705.094	0.0132334
705.173	0.0143050
705.251	0.0154471
705.329	0.0162783
705.407	0.0169332
705.485	0.0178503
705.563	0.0184406
705.641	0.0190035
705.719	0.0194009
705.798	0.0198403
705.876	0.0202138
705.954	0.0203600
706.032	0.0205090
706.110	0.0207207
706.188	0.0206249
706.266	0.0205451
706.344	0.0205064
706.423	0.0203133
706.501	0.0197845
706.579	0.0193415
706.657	0.0189137
706.735	0.0184057
706.813	0.0176756
706.891	0.0171487
706.969	0.0165422
707.048	0.0158021
707.126	0.0152805
707.204	0.0147961
707.282	0.0143861
707.360	0.0140956
707.438	0.0137370
707.516	0.0133113
707.594	0.0132012
707.673	0.0132225
707.751	0.0129567
707.829	0.0129023
707.907	0.0128049
707.985	0.0125826
708.063	0.0123369
708.141	0.0125055
708.219	0.0122282
708.298	0.0121636
708.376	0.0121439
708.454	0.0119003
708.532	0.0118882
708.610	0.0120519
708.688	0.0118697
708.766	0.0120255
708.844	0.0120380
708.923	0.0121677
709.001	0.0123506
709.079	0.0125276
709.157	0.0126079
709.235	0.0128323
709.313	0.0128844
709.391	0.0128898
709.469	0.0128826
709.548	0.0129974
709.626	0.0132122
709.704	0.0132059
709.782	0.0133453
709.860	0.0135823
709.938	0.0138071
710.016	0.0139976
710.094	0.0140946
710.173	0.0145181
710.251	0.0146436
710.329	0.0147493
710.407	0.0150383
710.485	0.0151133
710.563	0.0153733
710.641	0.0153716
710.719	0.0153554
710.798	0.0152688
710.876	0.0151696
710.954	0.0152280
711.032	0.0151268
711.110	0.0149626
711.188	0.0149236
711.266	0.0147540
711.344	0.0148477
711.423	0.0150468
711.501	0.0151819
711.579	0.0151441
711.657	0.0154637
711.735	0.0156687
711.813	0.0159119
711.891	0.0161012
711.969	0.0162051
712.048	0.0162066
712.126	0.0163856
712.204	0.0163458
712.282	0.0164345
712.360	0.0164790
712.438	0.0165592
712.516	0.0163238
712.594	0.0164217
712.673	0.0162690
712.751	0.0162151
712.829	0.0157530
712.907	0.0157095
712.985	0.0154208
713.063	0.0151736
713.141	0.0149945
713.219	0.0145518
713.298	0.0143418
713.376	0.0138871
713.454	0.0136805
713.532	0.0135189
713.610	0.0132664
713.688	0.0131195
713.766	0.0130128
713.844	0.0128246
713.923	0.0128871
714.001	0.0127853
714.079	0.0127943
714.157	0.0127251
714.235	0.0127985
714.313	0.0127377
714.391	0.0127897
714.469	0.0127551
714.548	0.0127554
714.626	0.0125899
714.704	0.0125188
714.782	0.0125700
714.860	0.0124947
714.938	0.0125684
715.016	0.0123730
715.094	0.0123906
715.173	0.0125400
715.251	0.0127046
715.329	0.0127776
715.407	0.0128792
715.485	0.0131458
715.563	0.0134158
715.641	0.0135085
715.719	0.0137229
715.798	0.0139935
715.876	0.0141774
715.954	0.0142385
716.032	0.0145570
716.110	0.0147992
716.188	0.0148739
716.266	0.0149561
716.344	0.0150723
716.423	0.0152448
716.501	0.0155534
716.579	0.0156521
716.657	0.0159077
716.735	0.0161562
716.813	0.0161703
716.891	0.0162889
716.969	0.0165475
717.048	0.0166747
717.126	0.0165392
717.204	0.0165146
717.282	0.0163571
717.360	0.0162612
717.438	0.0164038
717.516	0.0161007
717.594	0.0158184
717.673	0.0157453
717.751	0.0154363
717.829	0.0153121
717.907	0.0151595
717.985	0.0151711
718.063	0.0150324
718.141	0.0149816
718.219	0.0150182
718.298	0.0150253
718.376	0.0150403
718.454	0.0149852
718.532	0.0148641
718.610	0.0148302
718.688	0.0147531
718.766	0.0145753
718.844	0.0143943
718.923	0.0142914
719.001	0.0142023
719.079	0.0139919
719.157	0.0139320
719.235	0.0137727
719.313	0.0137262
719.391	0.0136851
719.469	0.0135900
719.548	0.0135526
719.626	0.0135979
719.704	0.0134710
719.782	0.0132818
719.860	0.0133360
719.938	0.0132796
720.016	0.0130795
720.094	0.0130277
720.173	0.0128873
720.251	0.0128796
720.329	0.0126506
720.407	0.0127216
720.485	0.0126092
720.563	0.0124588
720.641	0.0125249
720.719	0.0124783
720.798	0.0125085
720.876	0.0125989
720.954	0.0128130
721.032	0.0127262
721.110	0.0129988
721.188	0.0132742
721.266	0.0134340
721.344	0.0135709
721.423	0.0137135
721.501	0.0140311
721.579	0.0142854
721.657	0.0145589
721.735	0.0147541
721.813	0.0149650
721.891	0.0152305
721.969	0.0153990
722.048	0.0155180
722.126	0.0158425
722.204	0.0161884
722.282	0.0163257
722.360	0.0165757
722.438	0.0165845
722.516	0.0166490
722.594	0.0167181
722.673	0.0166565
722.751	0.0166031
722.829	0.0165192
722.907	0.0164146
722.985	0.0162781
723.063	0.0159442
723.141	0.0156341
723.219	0.0154169
723.298	0.0152402
723.376	0.0149656
723.454	0.0148952
723.532	0.0147281
723.610	0.0146449
723.688	0.0146606
723.766	0.0146043
723.844	0.0147214
723.923	0.0146230
724.001	0.0146892
724.079	0.0146313
724.157	0.0147529
724.235	0.0146213
724.313	0.0146032
724.391	0.0146036
724.469	0.0145531
724.548	0.0145570
724.626	0.0143674
724.704	0.0144695
724.782	0.0143414
724.860	0.0140471
724.938	0.0140407
725.016	0.0140376
725.094	0.0139355
725.173	0.0136753
725.251	0.0137666
725.329	0.0135686
725.407	0.0134715
725.485	0.0133892
725.563	0.0132642
725.641	0.0133112
725.719	0.0134174
725.798	0.0132967
725.876	0.0132539
725.954	0.0133762
726.032	0.0133564
726.110	0.0134669
726.188	0.0134655
726.266	0.0134740
726.344	0.0135361
726.423	0.0135569
726.501	0.0134600
726.579	0.0135324
726.657	0.0135433
726.735	0.0135498
726.813	0.0134347
726.891	0.0134713
726.969	0.0136018
727.048	0.0135202
727.126	0.0136060
727.204	0.0134983
727.282	0.0137173
727.360	0.0137803
727.438	0.0139532
727.516	0.0140578
727.594	0.0142134
727.673	0.0144257
727.751	0.0146232
727.829	0.0147141
727.907	0.0148525
727.985	0.0150274
728.063	0.0151187
728.141	0.0151944
728.219	0.0154313
728.298	0.0154136
728.376	0.0155472
728.454	0.0156538
728.532	0.0157791
728.610	0.0158386
728.688	0.0158858
728.766	0.0159541
728.844	0.0160381
728.923	0.0159373
729.001	0.0160877
729.079	0.0161073
729.157	0.0160993
729.235	0.0159169
729.313	0.0159888
729.391	0.0160149
729.469	0.0158846
729.548	0.0157722
729.626	0.0157974
729.704	0.0157027
729.782	0.0157092
729.860	0.0156536
729.938	0.0155701
730.016	0.0153431
730.094	0.0152725
730.173	0.0151815
730.251	0.0149300
730.329	0.0146549
730.407	0.0145686
730.485	0.0143051
730.563	0.0140930
730.641	0.0140057
730.719	0.0136619
730.798	0.0134401
730.876	0.0133226
730.954	0.0132355
731.032	0.0130345
731.110	0.0130221
731.188	0.0128995
731.266	0.0128229
731.344	0.0127531
731.423	0.0125753
731.501	0.0127747
731.579	0.0129362
731.657	0.0128272
731.735	0.0127506
731.813	0.0127891
731.891	0.0126739
731.969	0.0128699
732.048	0.0128233
732.126	0.0127090
732.204	0.0128965
732.282	0.0128809
732.360	0.0128255
732.438	0.0128695
732.516	0.0130177
732.594	0.0129719
732.673	0.0131776
732.751	0.0133415
732.829	0.0135848
732.907	0.0137598
732.985	0.0138806
733.063	0.0143423
733.141	0.0145936
733.219	0.0148247
733.298	0.0149680
733.376	0.0150540
733.454	0.0152988
733.532	0.0154539
733.610	0.0155561
733.688	0.0157297
733.766	0.0158871
733.844	0.0160699
733.923	0.0161018
734.001	0.0162640
734.079	0.0161127
734.157	0.0160332
734.235	0.0159968
734.313	0.0161248
734.391	0.0160504
734.469	0.0160755
734.548	0.0157727
734.626	0.0158002
734.704	0.0159553
734.782	0.0157954
734.860	0.0155504
734.938	0.0156146
735.016	0.0154486
735.094	0.0154443
735.173	0.0154134
735.251	0.0153517
735.329	0.0150627
735.407	0.0151278
