05/14/2022	19:14:59	Ver.	4.1	UNKNOWN
Optical Delay	650.016352	Delta X		0.078125	Sweeps	1	Scan Rate	0/0
Coordinates	Axis 1	NaN	Axis 2	NaN	Axis 3	NaN	Axis 4	NaN	Axis 5	NaN	Axis 6	0.000000
TX Power	0.000000	RX Power	0.000000

650.016	0.0143662
650.094	0.0144262
650.173	0.0145920
650.251	0.0143755
650.329	0.0143787
650.407	0.0143459
650.485	0.0144213
650.563	0.0144761
650.641	0.0143645
650.719	0.0145003
650.798	0.0143917
650.876	0.0143702
650.954	0.0144539
651.032	0.0144191
651.110	0.0143614
651.188	0.0141911
651.266	0.0144453
651.344	0.0143803
651.423	0.0143745
651.501	0.0144969
651.579	0.0143919
651.657	0.0143441
651.735	0.0144072
651.813	0.0143831
651.891	0.0144961
651.969	0.0142890
652.048	0.0144170
652.126	0.0143465
652.204	0.0144468
652.282	0.0144355
652.360	0.0143314
652.438	0.0144900
652.516	0.0144178
652.594	0.0143253
652.673	0.0143436
652.751	0.0143722
652.829	0.0143122
652.907	0.0142842
652.985	0.0144090
653.063	0.0144621
653.141	0.0144467
653.219	0.0143967
653.298	0.0144534
653.376	0.0145151
653.454	0.0143436
653.532	0.0143803
653.610	0.0144154
653.688	0.0144611
653.766	0.0144158
653.844	0.0144107
653.923	0.0144010
654.001	0.0143464
654.079	0.0145029
654.157	0.0145033
654.235	0.0142567
654.313	0.0142682
654.391	0.0143671
654.469	0.0143919
654.548	0.0145167
654.626	0.0144263
654.704	0.0143279
654.782	0.0143835
654.860	0.0143563
654.938	0.0143181
655.016	0.0143535
655.094	0.0144304
655.173	0.0143993
655.251	0.0143433
655.329	0.0144569
655.407	0.0143654
655.485	0.0144994
655.563	0.0143342
655.641	0.0142790
655.719	0.0144640
655.798	0.0143924
655.876	0.0143349
655.954	0.0142731
656.032	0.0145158
656.110	0.0142406
656.188	0.0142283
656.266	0.0143525
656.344	0.0143980
656.423	0.0144252
656.501	0.0143110
656.579	0.0143232
656.657	0.0144498
656.735	0.0143368
656.813	0.0143570
656.891	0.0143980
656.969	0.0143195
657.048	0.0142170
657.126	0.0143919
657.204	0.0145578
657.282	0.0143947
657.360	0.0143849
657.438	0.0143846
657.516	0.0141786
657.594	0.0143288
657.673	0.0145134
657.751	0.0143435
657.829	0.0143833
657.907	0.0144449
657.985	0.0144715
658.063	0.0142595
658.141	0.0143980
658.219	0.0144767
658.298	0.0144581
658.376	0.0144402
658.454	0.0143908
658.532	0.0143141
658.610	0.0143910
658.688	0.0144502
658.766	0.0142887
658.844	0.0143287
658.923	0.0144287
659.001	0.0144619
659.079	0.0143780
659.157	0.0143990
659.235	0.0144273
659.313	0.0144911
659.391	0.0146149
659.469	0.0144897
659.548	0.0142956
659.626	0.0144981
659.704	0.0144460
659.782	0.0142899
659.860	0.0143081
659.938	0.0143902
660.016	0.0145787
660.094	0.0144502
660.173	0.0143598
660.251	0.0143776
660.329	0.0145098
660.407	0.0144128
660.485	0.0144659
660.563	0.0144265
660.641	0.0144357
660.719	0.0145222
660.798	0.0145154
660.876	0.0145282
660.954	0.0145089
661.032	0.0145322
661.110	0.0144598
661.188	0.0144181
661.266	0.0144673
661.344	0.0144288
661.423	0.0143517
661.501	0.0144678
661.579	0.0146192
661.657	0.0144157
661.735	0.0144310
661.813	0.0143845
661.891	0.0144141
661.969	0.0144272
662.048	0.0145017
662.126	0.0144715
662.204	0.0143226
662.282	0.0143609
662.360	0.0145762
662.438	0.0144654
662.516	0.0144872
662.594	0.0144490
662.673	0.0144698
662.751	0.0144634
662.829	0.0144193
662.907	0.0145306
662.985	0.0144398
663.063	0.0144691
663.141	0.0143015
663.219	0.0144250
663.298	0.0143857
663.376	0.0143517
663.454	0.0143971
663.532	0.0144449
663.610	0.0145008
663.688	0.0144427
663.766	0.0144563
663.844	0.0145651
663.923	0.0142932
664.001	0.0143445
664.079	0.0145105
664.157	0.0144431
664.235	0.0143771
664.313	0.0143319
664.391	0.0144212
664.469	0.0143868
664.548	0.0143642
664.626	0.0144498
664.704	0.0144897
664.782	0.0143467
664.860	0.0144622
664.938	0.0144128
665.016	0.0144733
665.094	0.0144089
665.173	0.0144326
665.251	0.0144115
665.329	0.0144607
665.407	0.0144843
665.485	0.0143713
665.563	0.0143961
665.641	0.0145889
665.719	0.0143754
665.798	0.0143855
665.876	0.0143721
665.954	0.0144315
666.032	0.0143562
666.110	0.0144875
666.188	0.0145151
666.266	0.0144952
666.344	0.0145014
666.423	0.0144447
666.501	0.0143694
666.579	0.0145271
666.657	0.0144586
666.735	0.0143709
666.813	0.0144144
666.891	0.0143507
666.969	0.0143639
667.048	0.0142681
667.126	0.0144261
667.204	0.0144727
667.282	0.0143461
667.360	0.0143233
667.438	0.0143940
667.516	0.0144299
667.594	0.0144241
667.673	0.0144307
667.751	0.0144231
667.829	0.0143432
667.907	0.0144092
667.985	0.0144796
668.063	0.0144787
668.141	0.0144494
668.219	0.0143322
668.298	0.0143873
668.376	0.0144101
668.454	0.0144852
668.532	0.0144334
668.610	0.0143896
668.688	0.0143277
668.766	0.0143439
668.844	0.0144651
668.923	0.0145443
669.001	0.0143991
669.079	0.0144244
669.157	0.0144019
669.235	0.0143039
669.313	0.0144781
669.391	0.0144113
669.469	0.0143481
669.548	0.0144645
669.626	0.0143851
669.704	0.0143766
669.782	0.0143665
669.860	0.0141646
669.938	0.0143027
670.016	0.0145106
670.094	0.0144209
670.173	0.0145391
670.251	0.0144261
670.329	0.0143931
670.407	0.0143986
670.485	0.0142505
670.563	0.0144390
670.641	0.0143815
670.719	0.0143950
670.798	0.0142826
670.876	0.0144236
670.954	0.0143604
671.032	0.0144354
671.110	0.0144570
671.188	0.0144881
671.266	0.0144883
671.344	0.0144304
671.423	0.0143761
671.501	0.0143259
671.579	0.0144766
671.657	0.0145110
671.735	0.0143326
671.813	0.0143468
671.891	0.0144510
671.969	0.0144401
672.048	0.0143140
672.126	0.0145548
672.204	0.0145175
672.282	0.0144088
672.360	0.0143150
672.438	0.0144384
672.516	0.0145627
672.594	0.0145467
672.673	0.0144450
672.751	0.0144650
672.829	0.0144698
672.907	0.0144083
672.985	0.0144598
673.063	0.0144086
673.141	0.0143624
673.219	0.0144246
673.298	0.0143469
673.376	0.0143694
673.454	0.0145294
673.532	0.0143709
673.610	0.0144765
673.688	0.0144200
673.766	0.0144496
673.844	0.0143430
673.923	0.0143751
674.001	0.0143746
674.079	0.0144370
674.157	0.0143689
674.235	0.0143011
674.313	0.0143376
674.391	0.0144360
674.469	0.0144485
674.548	0.0143385
674.626	0.0144210
674.704	0.0143308
674.782	0.0144618
674.860	0.0142767
674.938	0.0143313
675.016	0.0143742
675.094	0.0141998
675.173	0.0143007
675.251	0.0143501
675.329	0.0143093
675.407	0.0142754
675.485	0.0142852
675.563	0.0144125
675.641	0.0145426
675.719	0.0144020
675.798	0.0143433
675.876	0.0141487
675.954	0.0143582
676.032	0.0144328
676.110	0.0144743
676.188	0.0143719
676.266	0.0143114
676.344	0.0142870
676.423	0.0143842
676.501	0.0144554
676.579	0.0143158
676.657	0.0143742
676.735	0.0143906
676.813	0.0145065
676.891	0.0145177
676.969	0.0143211
677.048	0.0142442
677.126	0.0142691
677.204	0.0144800
677.282	0.0143730
677.360	0.0143741
677.438	0.0143824
677.516	0.0143748
677.594	0.0142451
677.673	0.0142853
677.751	0.0142700
677.829	0.0144621
677.907	0.0143983
677.985	0.0142937
678.063	0.0143848
678.141	0.0144012
678.219	0.0143768
678.298	0.0143316
678.376	0.0143253
678.454	0.0143211
678.532	0.0143683
678.610	0.0143097
678.688	0.0143656
678.766	0.0145147
678.844	0.0143974
678.923	0.0142867
679.001	0.0143507
679.079	0.0143581
679.157	0.0143488
679.235	0.0142931
679.313	0.0143250
679.391	0.0142626
679.469	0.0144318
679.548	0.0143436
679.626	0.0144331
679.704	0.0143835
679.782	0.0143806
679.860	0.0145629
679.938	0.0144118
680.016	0.0143852
680.094	0.0144122
680.173	0.0144688
680.251	0.0144880
680.329	0.0144738
680.407	0.0144322
680.485	0.0143707
680.563	0.0143719
680.641	0.0145171
680.719	0.0143684
680.798	0.0144341
680.876	0.0144439
680.954	0.0143870
681.032	0.0144677
681.110	0.0143816
681.188	0.0143790
681.266	0.0143646
681.344	0.0143360
681.423	0.0143311
681.501	0.0143056
681.579	0.0144411
681.657	0.0144820
681.735	0.0144524
681.813	0.0142976
681.891	0.0144509
681.969	0.0144780
682.048	0.0143668
682.126	0.0143681
682.204	0.0144097
682.282	0.0142480
682.360	0.0144379
682.438	0.0143015
682.516	0.0144344
682.594	0.0146169
682.673	0.0144092
682.751	0.0144259
682.829	0.0144438
682.907	0.0144518
682.985	0.0144688
683.063	0.0144508
683.141	0.0143452
683.219	0.0143419
683.298	0.0143580
683.376	0.0143073
683.454	0.0145063
683.532	0.0144455
683.610	0.0143023
683.688	0.0144491
683.766	0.0144927
683.844	0.0145381
683.923	0.0145495
684.001	0.0146418
684.079	0.0145723
684.157	0.0145316
684.235	0.0146748
684.313	0.0145618
684.391	0.0144597
684.469	0.0143648
684.548	0.0141912
684.626	0.0140950
684.704	0.0140411
684.782	0.0139710
684.860	0.0137970
684.938	0.0139296
685.016	0.0139599
685.094	0.0138596
685.173	0.0139597
685.251	0.0140865
685.329	0.0143139
685.407	0.0145076
685.485	0.0145452
685.563	0.0147169
685.641	0.0147309
685.719	0.0148775
685.798	0.0152055
685.876	0.0152718
685.954	0.0152574
686.032	0.0153076
686.110	0.0151311
686.188	0.0148083
686.266	0.0148013
686.344	0.0145152
686.423	0.0142844
686.501	0.0139778
686.579	0.0137975
686.657	0.0135960
686.735	0.0134228
686.813	0.0133208
686.891	0.0134196
686.969	0.0133278
687.048	0.0135575
687.126	0.0136590
687.204	0.0136158
687.282	0.0138723
687.360	0.0140699
687.438	0.0139389
687.516	0.0140401
687.594	0.0142313
687.673	0.0143008
687.751	0.0144778
687.829	0.0147647
687.907	0.0147890
687.985	0.0150768
688.063	0.0152341
688.141	0.0155639
688.219	0.0157672
688.298	0.0161713
688.376	0.0163039
688.454	0.0163839
688.532	0.0165021
688.610	0.0165347
688.688	0.0164789
688.766	0.0161615
688.844	0.0159208
688.923	0.0155698
689.001	0.0151273
689.079	0.0144666
689.157	0.0139025
689.235	0.0135578
689.313	0.0129784
689.391	0.0125552
689.469	0.0120580
689.548	0.0115686
689.626	0.0113969
689.704	0.0111647
689.782	0.0110098
689.860	0.0107322
689.938	0.0107637
690.016	0.0110539
690.094	0.0109990
690.173	0.0114994
690.251	0.0118330
690.329	0.0123345
690.407	0.0128973
690.485	0.0133767
690.563	0.0140452
690.641	0.0149273
690.719	0.0155866
690.798	0.0164424
690.876	0.0173868
690.954	0.0181972
691.032	0.0188051
691.110	0.0197570
691.188	0.0203276
691.266	0.0206478
691.344	0.0207491
691.423	0.0208456
691.501	0.0207500
691.579	0.0202127
691.657	0.0196117
691.735	0.0189847
691.813	0.0179101
691.891	0.0167698
691.969	0.0158060
692.048	0.0145958
692.126	0.0133012
692.204	0.0121773
692.282	0.0110761
692.360	0.0101772
692.438	0.00925079
692.516	0.00846863
692.594	0.00762985
692.673	0.00695381
692.751	0.00661285
692.829	0.00616432
692.907	0.00609123
692.985	0.00620697
693.063	0.00644073
693.141	0.00687401
693.219	0.00762840
693.298	0.00835335
693.376	0.00935806
693.454	0.0105855
693.532	0.0121502
693.610	0.0133444
693.688	0.0148331
693.766	0.0164754
693.844	0.0178195
693.923	0.0190378
694.001	0.0202271
694.079	0.0211712
694.157	0.0220746
694.235	0.0229069
694.313	0.0233736
694.391	0.0239334
694.469	0.0241305
694.548	0.0242856
694.626	0.0242831
694.704	0.0241194
694.782	0.0235255
694.860	0.0227385
694.938	0.0217062
695.016	0.0205561
695.094	0.0191938
695.173	0.0175990
695.251	0.0159457
695.329	0.0143863
695.407	0.0127614
695.485	0.0112717
695.563	0.00990120
695.641	0.00885818
695.719	0.00786423
695.798	0.00698051
695.876	0.00633545
695.954	0.00587151
696.032	0.00559990
696.110	0.00555595
696.188	0.00552055
696.266	0.00553093
696.344	0.00545631
696.423	0.00552917
696.501	0.00557495
696.579	0.00573128
696.657	0.00599876
696.735	0.00651886
696.813	0.00740341
696.891	0.00829636
696.969	0.00950386
697.048	0.0107379
697.126	0.0123688
697.204	0.0139114
697.282	0.0154355
697.360	0.0171042
697.438	0.0185319
697.516	0.0198173
697.594	0.0208503
697.673	0.0219772
697.751	0.0227699
697.829	0.0234448
697.907	0.0236547
697.985	0.0240558
698.063	0.0244116
698.141	0.0243954
698.219	0.0245335
698.298	0.0245466
698.376	0.0244995
698.454	0.0244399
698.532	0.0240395
698.610	0.0234750
698.688	0.0227386
698.766	0.0216065
698.844	0.0203235
698.923	0.0189330
699.001	0.0172775
699.079	0.0156409
699.157	0.0138073
699.235	0.0119882
699.313	0.0104910
699.391	0.00879639
699.469	0.00738945
699.548	0.00612015
699.626	0.00518906
699.704	0.00456261
699.782	0.00407074
699.860	0.00384071
699.938	0.00378510
700.016	0.00395988
700.094	0.00417900
700.173	0.00462479
700.251	0.00502197
700.329	0.00543060
700.407	0.00590843
700.485	0.00635452
700.563	0.00692703
700.641	0.00752815
700.719	0.00850540
700.798	0.00930840
700.876	0.0101582
700.954	0.0113036
701.032	0.0123132
701.110	0.0134895
701.188	0.0147545
701.266	0.0159747
701.344	0.0171046
701.423	0.0183909
701.501	0.0194277
701.579	0.0205466
701.657	0.0216440
701.735	0.0225775
701.813	0.0233060
701.891	0.0239827
701.969	0.0248272
702.048	0.0252805
702.126	0.0254223
702.204	0.0254988
702.282	0.0255270
702.360	0.0253866
702.438	0.0250285
702.516	0.0246175
702.594	0.0238479
702.673	0.0229510
702.751	0.0218926
702.829	0.0206554
702.907	0.0192986
702.985	0.0178374
703.063	0.0162481
703.141	0.0146419
703.219	0.0129732
703.298	0.0114670
703.376	0.00989960
703.454	0.00874908
703.532	0.00731720
703.610	0.00622597
703.688	0.00544540
703.766	0.00470703
703.844	0.00396690
703.923	0.00373367
704.001	0.00359657
704.079	0.00353027
704.157	0.00353081
704.235	0.00395645
704.313	0.00431572
704.391	0.00498001
704.469	0.00569633
704.548	0.00661354
704.626	0.00764549
704.704	0.00860291
704.782	0.00971527
704.860	0.0108737
704.938	0.0121263
705.016	0.0132896
705.094	0.0143719
705.173	0.0153851
705.251	0.0163165
705.329	0.0172256
705.407	0.0179760
705.485	0.0186816
705.563	0.0193776
705.641	0.0197837
705.719	0.0202325
705.798	0.0206538
705.876	0.0209234
705.954	0.0211647
706.032	0.0214801
706.110	0.0216177
706.188	0.0216644
706.266	0.0215668
706.344	0.0215838
706.423	0.0212151
706.501	0.0208318
706.579	0.0203513
706.657	0.0198861
706.735	0.0193104
706.813	0.0186604
706.891	0.0179614
706.969	0.0170744
707.048	0.0162788
707.126	0.0154334
707.204	0.0147836
707.282	0.0141730
707.360	0.0133979
707.438	0.0129778
707.516	0.0125430
707.594	0.0120362
707.673	0.0115823
707.751	0.0114161
707.829	0.0112049
707.907	0.0110857
707.985	0.0107538
708.063	0.0103878
708.141	0.0104308
708.219	0.0103825
708.298	0.0101865
708.376	0.0100794
708.454	0.0100137
708.532	0.0101958
708.610	0.0102697
708.688	0.0104206
708.766	0.0106948
708.844	0.0108715
708.923	0.0110873
709.001	0.0113966
709.079	0.0118569
709.157	0.0122224
709.235	0.0124900
709.313	0.0128748
709.391	0.0132283
709.469	0.0134755
709.548	0.0138092
709.626	0.0140679
709.704	0.0143804
709.782	0.0146836
709.860	0.0149264
709.938	0.0153068
710.016	0.0155733
710.094	0.0157264
710.173	0.0158111
710.251	0.0161748
710.329	0.0165247
710.407	0.0164459
710.485	0.0165591
710.563	0.0167040
710.641	0.0166246
710.719	0.0166628
710.798	0.0163377
710.876	0.0160959
710.954	0.0159824
711.032	0.0158527
711.110	0.0155809
711.188	0.0154610
711.266	0.0153913
711.344	0.0152871
711.423	0.0154050
711.501	0.0154669
711.579	0.0155333
711.657	0.0155499
711.735	0.0157112
711.813	0.0157355
711.891	0.0157568
711.969	0.0158100
712.048	0.0157325
712.126	0.0157320
712.204	0.0156927
712.282	0.0155620
712.360	0.0153701
712.438	0.0154155
712.516	0.0153682
712.594	0.0152542
712.673	0.0149799
712.751	0.0146416
712.829	0.0144736
712.907	0.0143548
712.985	0.0142422
713.063	0.0141428
713.141	0.0138428
713.219	0.0135357
713.298	0.0134428
713.376	0.0133232
713.454	0.0129813
713.532	0.0129639
713.610	0.0130418
713.688	0.0130091
713.766	0.0128725
713.844	0.0127976
713.923	0.0129051
714.001	0.0131106
714.079	0.0129690
714.157	0.0130083
714.235	0.0131038
714.313	0.0132519
714.391	0.0131766
714.469	0.0131558
714.548	0.0130344
714.626	0.0128941
714.704	0.0127860
714.782	0.0127336
714.860	0.0129066
714.938	0.0127180
715.016	0.0126841
715.094	0.0129450
715.173	0.0129880
715.251	0.0132600
715.329	0.0133117
715.407	0.0134502
715.485	0.0138979
715.563	0.0139526
715.641	0.0141496
715.719	0.0145333
715.798	0.0143867
715.876	0.0144003
715.954	0.0146826
716.032	0.0148074
716.110	0.0148874
716.188	0.0150372
716.266	0.0153572
716.344	0.0154950
716.423	0.0156889
716.501	0.0158422
716.579	0.0160252
716.657	0.0162875
716.735	0.0163926
716.813	0.0164568
716.891	0.0165012
716.969	0.0165537
717.048	0.0167865
717.126	0.0167108
717.204	0.0165425
717.282	0.0164418
717.360	0.0163274
717.438	0.0161156
717.516	0.0158990
717.594	0.0156631
717.673	0.0155328
717.751	0.0153875
717.829	0.0151815
717.907	0.0152846
717.985	0.0152500
718.063	0.0151751
718.141	0.0152435
718.219	0.0150150
718.298	0.0149892
718.376	0.0149227
718.454	0.0149022
718.532	0.0146521
718.610	0.0143809
718.688	0.0143684
718.766	0.0141827
718.844	0.0138862
718.923	0.0136785
719.001	0.0136256
719.079	0.0132906
719.157	0.0132798
719.235	0.0133091
719.313	0.0131516
719.391	0.0129768
719.469	0.0130389
719.548	0.0130871
719.626	0.0130917
719.704	0.0131136
719.782	0.0129287
719.860	0.0131170
719.938	0.0129646
720.016	0.0130373
720.094	0.0129254
720.173	0.0126899
720.251	0.0127428
720.329	0.0127110
720.407	0.0127576
720.485	0.0126862
720.563	0.0126058
720.641	0.0126505
720.719	0.0127484
720.798	0.0127628
720.876	0.0129720
720.954	0.0131169
721.032	0.0133411
721.110	0.0134715
721.188	0.0137087
721.266	0.0141277
721.344	0.0144810
721.423	0.0145911
721.501	0.0148315
721.579	0.0151094
721.657	0.0153992
721.735	0.0157401
721.813	0.0158681
721.891	0.0161411
721.969	0.0161741
722.048	0.0164426
722.126	0.0165612
722.204	0.0165295
722.282	0.0166235
722.360	0.0168140
722.438	0.0167892
722.516	0.0166872
722.594	0.0165012
722.673	0.0163314
722.751	0.0162106
722.829	0.0158918
722.907	0.0157331
722.985	0.0155025
723.063	0.0153491
723.141	0.0152003
723.219	0.0149112
723.298	0.0150017
723.376	0.0148167
723.454	0.0146201
723.532	0.0147263
723.610	0.0145032
723.688	0.0145090
723.766	0.0146053
723.844	0.0145554
723.923	0.0145964
724.001	0.0146290
724.079	0.0145148
724.157	0.0145705
724.235	0.0143420
724.313	0.0144485
724.391	0.0143420
724.469	0.0141822
724.548	0.0142246
724.626	0.0142164
724.704	0.0141711
724.782	0.0139413
724.860	0.0139198
724.938	0.0137798
725.016	0.0135921
725.094	0.0134996
725.173	0.0132565
725.251	0.0132395
725.329	0.0132536
725.407	0.0130524
725.485	0.0130630
725.563	0.0132532
725.641	0.0132332
725.719	0.0132800
725.798	0.0131503
725.876	0.0133075
725.954	0.0134809
726.032	0.0133717
726.110	0.0136285
726.188	0.0134951
726.266	0.0135108
726.344	0.0135252
726.423	0.0136319
726.501	0.0135514
726.579	0.0136089
726.657	0.0134494
726.735	0.0133560
726.813	0.0135055
726.891	0.0135828
726.969	0.0137283
727.048	0.0137379
727.126	0.0139148
727.204	0.0139163
727.282	0.0140910
727.360	0.0142548
727.438	0.0143867
727.516	0.0147334
727.594	0.0149318
727.673	0.0149348
727.751	0.0150897
727.829	0.0151723
727.907	0.0152260
727.985	0.0151863
728.063	0.0153182
728.141	0.0153728
728.219	0.0154346
728.298	0.0154231
728.376	0.0156076
728.454	0.0156980
728.532	0.0158520
728.610	0.0159138
728.688	0.0159790
728.766	0.0159418
728.844	0.0160465
728.923	0.0160161
729.001	0.0160514
729.079	0.0159883
729.157	0.0158530
729.235	0.0158971
729.313	0.0159744
729.391	0.0158179
729.469	0.0157173
729.548	0.0155710
729.626	0.0154815
729.704	0.0154442
729.782	0.0152243
729.860	0.0150533
729.938	0.0147723
730.016	0.0148079
730.094	0.0147626
730.173	0.0143917
730.251	0.0143098
730.329	0.0141285
730.407	0.0139171
730.485	0.0134870
730.563	0.0134781
730.641	0.0135385
730.719	0.0132404
730.798	0.0131619
730.876	0.0129296
730.954	0.0128969
731.032	0.0129436
731.110	0.0128860
731.188	0.0128184
731.266	0.0127083
731.344	0.0128613
731.423	0.0129585
731.501	0.0130403
731.579	0.0129258
731.657	0.0129419
731.735	0.0130408
731.813	0.0129844
731.891	0.0130994
731.969	0.0129527
732.048	0.0130515
732.126	0.0131596
732.204	0.0130505
732.282	0.0128651
732.360	0.0131342
732.438	0.0130981
732.516	0.0132465
732.594	0.0133724
732.673	0.0133616
732.751	0.0137985
732.829	0.0139792
732.907	0.0139249
732.985	0.0142648
733.063	0.0144728
733.141	0.0148589
733.219	0.0149104
733.298	0.0150684
733.376	0.0152648
733.454	0.0153751
733.532	0.0155833
733.610	0.0159852
733.688	0.0158742
733.766	0.0160553
733.844	0.0160951
733.923	0.0161010
734.001	0.0161373
734.079	0.0162534
734.157	0.0162631
734.235	0.0162315
734.313	0.0162546
734.391	0.0161349
734.469	0.0162236
734.548	0.0159935
734.626	0.0159151
734.704	0.0158123
734.782	0.0156487
734.860	0.0156673
734.938	0.0154555
735.016	0.0153278
735.094	0.0153374
735.173	0.0152319
735.251	0.0149401
735.329	0.0147842
735.407	0.0147190
