05/14/2022	19:15:14	Ver.	4.1	UNKNOWN
Optical Delay	650.016352	Delta X		0.078125	Sweeps	1	Scan Rate	0/0
Coordinates	Axis 1	NaN	Axis 2	NaN	Axis 3	NaN	Axis 4	NaN	Axis 5	NaN	Axis 6	0.000000
TX Power	0.000000	RX Power	0.000000

650.016	0.0146844
650.094	0.0147389
650.173	0.0147031
650.251	0.0146827
650.329	0.0146828
650.407	0.0146837
650.485	0.0144982
650.563	0.0147939
650.641	0.0147627
650.719	0.0146348
650.798	0.0145907
650.876	0.0145348
650.954	0.0147387
651.032	0.0146696
651.110	0.0147975
651.188	0.0147803
651.266	0.0146932
651.344	0.0146152
651.423	0.0145310
651.501	0.0147102
651.579	0.0146302
651.657	0.0147818
651.735	0.0146555
651.813	0.0146806
651.891	0.0148190
651.969	0.0145827
652.048	0.0145909
652.126	0.0146195
652.204	0.0146297
652.282	0.0147803
652.360	0.0147200
652.438	0.0145379
652.516	0.0146838
652.594	0.0146718
652.673	0.0146915
652.751	0.0145848
652.829	0.0145940
652.907	0.0146262
652.985	0.0147900
653.063	0.0145965
653.141	0.0147148
653.219	0.0147116
653.298	0.0146430
653.376	0.0147063
653.454	0.0147922
653.532	0.0146249
653.610	0.0146307
653.688	0.0147034
653.766	0.0145393
653.844	0.0147233
653.923	0.0145627
654.001	0.0146317
654.079	0.0147297
654.157	0.0147153
654.235	0.0146674
654.313	0.0147710
654.391	0.0146050
654.469	0.0145522
654.548	0.0145229
654.626	0.0146263
654.704	0.0146550
654.782	0.0147536
654.860	0.0147161
654.938	0.0145233
655.016	0.0146723
655.094	0.0146217
655.173	0.0146596
655.251	0.0146868
655.329	0.0147050
655.407	0.0147854
655.485	0.0146126
655.563	0.0146327
655.641	0.0146483
655.719	0.0146964
655.798	0.0147524
655.876	0.0146817
655.954	0.0146934
656.032	0.0145173
656.110	0.0145756
656.188	0.0147114
656.266	0.0145429
656.344	0.0146592
656.423	0.0145923
656.501	0.0146171
656.579	0.0146568
656.657	0.0147064
656.735	0.0146795
656.813	0.0148012
656.891	0.0147729
656.969	0.0146722
657.048	0.0148101
657.126	0.0147761
657.204	0.0146986
657.282	0.0145889
657.360	0.0146342
657.438	0.0145925
657.516	0.0145930
657.594	0.0147247
657.673	0.0147429
657.751	0.0146162
657.829	0.0146633
657.907	0.0146809
657.985	0.0147321
658.063	0.0147098
658.141	0.0147052
658.219	0.0146487
658.298	0.0147999
658.376	0.0147080
658.454	0.0146722
658.532	0.0146138
658.610	0.0146556
658.688	0.0147293
658.766	0.0148154
658.844	0.0146822
658.923	0.0146250
659.001	0.0147790
659.079	0.0146606
659.157	0.0147909
659.235	0.0146864
659.313	0.0146862
659.391	0.0148512
659.469	0.0147018
659.548	0.0147364
659.626	0.0146469
659.704	0.0146131
659.782	0.0147636
659.860	0.0146275
659.938	0.0146090
660.016	0.0147502
660.094	0.0146859
660.173	0.0147210
660.251	0.0147109
660.329	0.0147583
660.407	0.0147337
660.485	0.0148293
660.563	0.0146330
660.641	0.0147321
660.719	0.0148270
660.798	0.0147882
660.876	0.0147761
660.954	0.0147137
661.032	0.0146600
661.110	0.0147358
661.188	0.0147288
661.266	0.0145941
661.344	0.0146960
661.423	0.0147736
661.501	0.0146667
661.579	0.0147897
661.657	0.0147511
661.735	0.0146863
661.813	0.0145878
661.891	0.0146922
661.969	0.0148803
662.048	0.0147179
662.126	0.0146103
662.204	0.0146078
662.282	0.0146470
662.360	0.0147889
662.438	0.0147848
662.516	0.0147210
662.594	0.0147053
662.673	0.0147112
662.751	0.0147781
662.829	0.0147025
662.907	0.0148026
662.985	0.0149233
663.063	0.0147984
663.141	0.0147049
663.219	0.0146906
663.298	0.0148396
663.376	0.0147172
663.454	0.0147324
663.532	0.0146815
663.610	0.0147243
663.688	0.0148117
663.766	0.0148093
663.844	0.0145948
663.923	0.0148389
664.001	0.0147994
664.079	0.0146453
664.157	0.0146947
664.235	0.0146606
664.313	0.0146876
664.391	0.0147024
664.469	0.0148289
664.548	0.0147779
664.626	0.0146829
664.704	0.0147428
664.782	0.0146792
664.860	0.0146162
664.938	0.0148113
665.016	0.0146835
665.094	0.0147822
665.173	0.0147394
665.251	0.0146663
665.329	0.0146590
665.407	0.0146682
665.485	0.0147080
665.563	0.0147890
665.641	0.0146417
665.719	0.0147153
665.798	0.0146457
665.876	0.0146799
665.954	0.0145866
666.032	0.0147297
666.110	0.0147665
666.188	0.0146222
666.266	0.0147095
666.344	0.0147422
666.423	0.0146918
666.501	0.0146435
666.579	0.0145727
666.657	0.0146482
666.735	0.0146529
666.813	0.0146975
666.891	0.0145838
666.969	0.0146803
667.048	0.0147791
667.126	0.0147636
667.204	0.0146407
667.282	0.0146642
667.360	0.0147023
667.438	0.0146934
667.516	0.0148037
667.594	0.0146295
667.673	0.0147491
667.751	0.0147667
667.829	0.0146174
667.907	0.0145844
667.985	0.0147098
668.063	0.0146664
668.141	0.0147068
668.219	0.0147602
668.298	0.0146871
668.376	0.0146463
668.454	0.0148772
668.532	0.0148632
668.610	0.0146590
668.688	0.0146821
668.766	0.0146970
668.844	0.0148563
668.923	0.0147393
669.001	0.0149065
669.079	0.0148029
669.157	0.0147548
669.235	0.0147716
669.313	0.0146770
669.391	0.0146054
669.469	0.0147038
669.548	0.0148708
669.626	0.0147961
669.704	0.0147221
669.782	0.0148315
669.860	0.0145830
669.938	0.0146328
670.016	0.0148016
670.094	0.0147593
670.173	0.0145970
670.251	0.0147677
670.329	0.0146301
670.407	0.0146887
670.485	0.0147490
670.563	0.0147012
670.641	0.0148104
670.719	0.0145319
670.798	0.0147588
670.876	0.0147211
670.954	0.0146631
671.032	0.0146680
671.110	0.0148119
671.188	0.0146635
671.266	0.0147333
671.344	0.0146832
671.423	0.0147949
671.501	0.0146571
671.579	0.0146786
671.657	0.0146409
671.735	0.0145586
671.813	0.0146372
671.891	0.0147137
671.969	0.0146388
672.048	0.0147184
672.126	0.0146219
672.204	0.0146534
672.282	0.0147150
672.360	0.0146117
672.438	0.0145988
672.516	0.0145914
672.594	0.0147345
672.673	0.0147273
672.751	0.0147122
672.829	0.0148710
672.907	0.0147707
672.985	0.0147149
673.063	0.0147132
673.141	0.0146973
673.219	0.0146585
673.298	0.0146278
673.376	0.0147659
673.454	0.0147695
673.532	0.0146873
673.610	0.0146366
673.688	0.0146580
673.766	0.0147668
673.844	0.0147617
673.923	0.0146851
674.001	0.0146647
674.079	0.0147454
674.157	0.0146516
674.235	0.0146647
674.313	0.0146069
674.391	0.0147291
674.469	0.0146225
674.548	0.0147062
674.626	0.0146938
674.704	0.0146777
674.782	0.0146809
674.860	0.0147194
674.938	0.0146468
675.016	0.0146187
675.094	0.0145740
675.173	0.0146939
675.251	0.0145766
675.329	0.0145620
675.407	0.0147578
675.485	0.0146399
675.563	0.0147036
675.641	0.0148299
675.719	0.0146279
675.798	0.0147655
675.876	0.0145200
675.954	0.0145527
676.032	0.0147362
676.110	0.0147047
676.188	0.0146586
676.266	0.0146407
676.344	0.0146445
676.423	0.0148551
676.501	0.0146926
676.579	0.0146535
676.657	0.0147082
676.735	0.0146202
676.813	0.0147406
676.891	0.0147369
676.969	0.0146484
677.048	0.0146632
677.126	0.0147061
677.204	0.0145909
677.282	0.0146837
677.360	0.0146043
677.438	0.0146407
677.516	0.0146143
677.594	0.0145643
677.673	0.0146408
677.751	0.0148186
677.829	0.0145967
677.907	0.0147037
677.985	0.0146262
678.063	0.0146888
678.141	0.0146198
678.219	0.0147524
678.298	0.0147578
678.376	0.0147639
678.454	0.0146322
678.532	0.0146201
678.610	0.0147342
678.688	0.0146031
678.766	0.0147446
678.844	0.0146621
678.923	0.0147703
679.001	0.0146536
679.079	0.0148869
679.157	0.0147301
679.235	0.0146481
679.313	0.0147581
679.391	0.0146976
679.469	0.0145605
679.548	0.0148413
679.626	0.0146352
679.704	0.0146562
679.782	0.0146935
679.860	0.0147128
679.938	0.0147576
680.016	0.0148177
680.094	0.0146133
680.173	0.0148253
680.251	0.0147816
680.329	0.0148235
680.407	0.0146705
680.485	0.0148470
680.563	0.0147355
680.641	0.0146037
680.719	0.0145554
680.798	0.0145966
680.876	0.0147390
680.954	0.0146383
681.032	0.0146757
681.110	0.0147619
681.188	0.0147453
681.266	0.0146072
681.344	0.0146117
681.423	0.0146571
681.501	0.0147751
681.579	0.0147521
681.657	0.0146494
681.735	0.0147564
681.813	0.0145810
681.891	0.0146858
681.969	0.0145860
682.048	0.0147952
682.126	0.0147359
682.204	0.0147571
682.282	0.0148172
682.360	0.0146492
682.438	0.0147472
682.516	0.0146989
682.594	0.0146867
682.673	0.0147726
682.751	0.0147561
682.829	0.0145881
682.907	0.0147167
682.985	0.0146913
683.063	0.0147001
683.141	0.0147385
683.219	0.0146935
683.298	0.0146989
683.376	0.0148009
683.454	0.0147333
683.532	0.0148009
683.610	0.0148697
683.688	0.0150271
683.766	0.0149584
683.844	0.0148340
683.923	0.0146369
684.001	0.0145176
684.079	0.0144975
684.157	0.0144695
684.235	0.0144077
684.313	0.0141643
684.391	0.0143209
684.469	0.0141522
684.548	0.0142789
684.626	0.0143684
684.704	0.0144303
684.782	0.0144276
684.860	0.0145207
684.938	0.0148445
685.016	0.0148159
685.094	0.0150218
685.173	0.0150521
685.251	0.0152428
685.329	0.0153259
685.407	0.0154939
685.485	0.0156370
685.563	0.0155540
685.641	0.0155065
685.719	0.0153333
685.798	0.0150896
685.876	0.0150766
685.954	0.0147988
686.032	0.0145216
686.110	0.0141997
686.188	0.0139079
686.266	0.0137510
686.344	0.0135876
686.423	0.0134448
686.501	0.0134653
686.579	0.0135552
686.657	0.0135554
686.735	0.0139312
686.813	0.0140646
686.891	0.0144122
686.969	0.0145470
687.048	0.0145206
687.126	0.0147810
687.204	0.0149155
687.282	0.0148822
687.360	0.0152293
687.438	0.0153130
687.516	0.0153951
687.594	0.0154678
687.673	0.0154832
687.751	0.0157978
687.829	0.0159067
687.907	0.0159834
687.985	0.0161024
688.063	0.0162505
688.141	0.0163966
688.219	0.0164381
688.298	0.0162988
688.376	0.0162476
688.454	0.0158282
688.532	0.0155972
688.610	0.0152482
688.688	0.0149101
688.766	0.0143354
688.844	0.0138227
688.923	0.0132626
689.001	0.0128678
689.079	0.0125762
689.157	0.0123059
689.235	0.0120698
689.313	0.0118700
689.391	0.0117345
689.469	0.0117925
689.548	0.0118177
689.626	0.0119505
689.704	0.0121846
689.782	0.0125050
689.860	0.0126313
689.938	0.0131043
690.016	0.0134613
690.094	0.0137300
690.173	0.0144169
690.251	0.0151248
690.329	0.0157351
690.407	0.0164055
690.485	0.0171304
690.563	0.0178160
690.641	0.0184772
690.719	0.0192128
690.798	0.0197204
690.876	0.0200402
690.954	0.0203137
691.032	0.0203713
691.110	0.0200637
691.188	0.0198894
691.266	0.0194273
691.344	0.0187440
691.423	0.0180456
691.501	0.0172834
691.579	0.0163709
691.657	0.0154295
691.735	0.0143990
691.813	0.0134058
691.891	0.0124200
691.969	0.0115117
692.048	0.0103753
692.126	0.00954285
692.204	0.00881256
692.282	0.00806389
692.360	0.00734421
692.438	0.00680519
692.516	0.00675095
692.594	0.00667160
692.673	0.00681015
692.751	0.00731529
692.829	0.00789207
692.907	0.00865540
692.985	0.00969910
693.063	0.0107597
693.141	0.0120221
693.219	0.0134184
693.298	0.0148100
693.376	0.0162843
693.454	0.0174785
693.532	0.0187363
693.610	0.0199694
693.688	0.0210056
693.766	0.0220941
693.844	0.0229610
693.923	0.0235403
694.001	0.0242103
694.079	0.0244828
694.157	0.0246815
694.235	0.0247115
694.313	0.0242463
694.391	0.0237630
694.469	0.0229613
694.548	0.0218870
694.626	0.0206500
694.704	0.0192436
694.782	0.0176612
694.860	0.0159899
694.938	0.0142382
695.016	0.0126254
695.094	0.0111272
695.173	0.00997314
695.251	0.00888222
695.329	0.00803459
695.407	0.00737000
695.485	0.00687889
695.563	0.00675392
695.641	0.00685226
695.719	0.00693520
695.798	0.00681290
695.876	0.00700836
695.954	0.00723198
696.032	0.00730446
696.110	0.00743286
696.188	0.00755127
696.266	0.00777367
696.344	0.00794647
696.423	0.00842049
696.501	0.00909744
696.579	0.0100920
696.657	0.0110941
696.735	0.0122639
696.813	0.0134502
696.891	0.0147618
696.969	0.0161428
697.048	0.0172980
697.126	0.0185792
697.204	0.0194411
697.282	0.0204993
697.360	0.0212943
697.438	0.0218671
697.516	0.0225211
697.594	0.0229276
697.673	0.0233682
697.751	0.0235743
697.829	0.0238100
697.907	0.0241930
697.985	0.0242181
698.063	0.0244756
698.141	0.0242638
698.219	0.0240035
698.298	0.0237241
698.376	0.0229675
698.454	0.0220375
698.532	0.0207346
698.610	0.0193357
698.688	0.0178046
698.766	0.0159986
698.844	0.0141093
698.923	0.0123981
699.001	0.0107697
699.079	0.00914757
699.157	0.00760239
699.235	0.00643311
699.313	0.00542397
699.391	0.00463539
699.469	0.00420441
699.548	0.00389145
699.626	0.00415161
699.704	0.00436211
699.782	0.00462074
699.860	0.00509483
699.938	0.00566116
700.016	0.00616829
700.094	0.00656502
700.173	0.00705978
700.251	0.00768097
700.329	0.00847946
700.407	0.00914619
700.485	0.00989143
700.563	0.0108764
700.641	0.0118971
700.719	0.0130329
700.798	0.0140856
700.876	0.0151221
700.954	0.0164294
701.032	0.0174847
701.110	0.0185885
701.188	0.0198187
701.266	0.0208950
701.344	0.0217261
701.423	0.0224319
701.501	0.0231231
701.579	0.0237331
701.657	0.0239524
701.735	0.0243699
701.813	0.0246292
701.891	0.0247290
701.969	0.0249467
702.048	0.0248386
702.126	0.0247242
702.204	0.0243833
702.282	0.0239368
702.360	0.0234062
702.438	0.0226842
702.516	0.0216699
702.594	0.0205634
702.673	0.0193832
702.751	0.0179175
702.829	0.0162175
702.907	0.0146780
702.985	0.0129305
703.063	0.0113065
703.141	0.00969734
703.219	0.00832321
703.298	0.00703392
703.376	0.00597252
703.454	0.00517883
703.532	0.00448631
703.610	0.00415565
703.688	0.00391930
703.766	0.00383141
703.844	0.00389694
703.923	0.00419373
704.001	0.00438919
704.079	0.00471916
704.157	0.00543396
704.235	0.00608200
704.313	0.00704636
704.391	0.00796364
704.469	0.00884468
704.548	0.00994957
704.626	0.0109196
704.704	0.0122041
704.782	0.0131690
704.860	0.0141676
704.938	0.0152378
705.016	0.0162946
705.094	0.0172449
705.173	0.0181110
705.251	0.0187099
705.329	0.0193780
705.407	0.0201608
705.485	0.0207477
705.563	0.0211381
705.641	0.0217226
705.719	0.0220631
705.798	0.0224818
705.876	0.0227168
705.954	0.0229298
706.032	0.0229301
706.110	0.0228067
706.188	0.0227219
706.266	0.0226231
706.344	0.0222838
706.423	0.0217331
706.501	0.0211490
706.579	0.0204605
706.657	0.0197306
706.735	0.0186375
706.813	0.0176604
706.891	0.0167926
706.969	0.0157671
707.048	0.0146823
707.126	0.0138915
707.204	0.0131037
707.282	0.0123221
707.360	0.0115540
707.438	0.0111349
707.516	0.0106810
707.594	0.0101475
707.673	0.00974876
707.751	0.00951256
707.829	0.00920563
707.907	0.00882446
707.985	0.00885254
708.063	0.00879341
708.141	0.00861069
708.219	0.00876335
708.298	0.00881714
708.376	0.00913368
708.454	0.00916588
708.532	0.00952881
708.610	0.00988571
708.688	0.0103950
708.766	0.0110194
708.844	0.0115127
708.923	0.0121161
709.001	0.0125714
709.079	0.0132531
709.157	0.0139294
709.235	0.0144278
709.313	0.0147581
709.391	0.0153627
709.469	0.0157515
709.548	0.0160363
709.626	0.0164008
709.704	0.0168708
709.782	0.0170255
709.860	0.0172296
709.938	0.0175426
710.016	0.0177863
710.094	0.0179784
710.173	0.0181286
710.251	0.0181346
710.329	0.0180551
710.407	0.0180580
710.485	0.0179864
710.563	0.0178009
710.641	0.0175756
710.719	0.0172961
710.798	0.0169859
710.876	0.0168888
710.954	0.0166254
711.032	0.0162889
711.110	0.0161600
711.188	0.0160617
711.266	0.0158096
711.344	0.0158019
711.423	0.0158338
711.501	0.0156664
711.579	0.0156564
711.657	0.0154475
711.735	0.0155581
711.813	0.0153720
711.891	0.0152787
711.969	0.0153158
712.048	0.0150307
712.126	0.0150776
712.204	0.0148764
712.282	0.0145790
712.360	0.0144518
712.438	0.0142829
712.516	0.0139262
712.594	0.0138567
712.673	0.0136005
712.751	0.0133411
712.829	0.0131541
712.907	0.0131688
712.985	0.0131133
713.063	0.0130453
713.141	0.0132014
713.219	0.0131902
713.298	0.0132751
713.376	0.0132798
713.454	0.0133931
713.532	0.0132668
713.610	0.0133316
713.688	0.0133979
713.766	0.0134686
713.844	0.0134747
713.923	0.0136120
714.001	0.0136480
714.079	0.0135439
714.157	0.0134428
714.235	0.0134866
714.313	0.0135855
714.391	0.0135627
714.469	0.0136350
714.548	0.0137286
714.626	0.0137334
714.704	0.0139348
714.782	0.0139835
714.860	0.0141286
714.938	0.0142642
715.016	0.0145244
715.094	0.0143883
715.173	0.0145605
715.251	0.0146187
715.329	0.0145909
715.407	0.0147510
715.485	0.0147382
715.563	0.0149268
715.641	0.0149511
715.719	0.0149698
715.798	0.0149799
715.876	0.0151828
715.954	0.0152319
716.032	0.0155159
716.110	0.0157446
716.188	0.0160474
716.266	0.0163295
716.344	0.0163905
716.423	0.0166206
716.501	0.0165427
716.579	0.0167546
716.657	0.0167834
716.735	0.0168137
716.813	0.0168378
716.891	0.0167740
716.969	0.0167039
717.048	0.0165528
717.126	0.0164175
717.204	0.0163473
717.282	0.0161655
717.360	0.0159396
717.438	0.0158875
717.516	0.0157210
717.594	0.0155829
717.673	0.0155090
717.751	0.0154961
717.829	0.0154002
717.907	0.0151789
717.985	0.0151074
718.063	0.0148730
718.141	0.0148485
718.219	0.0147269
718.298	0.0145096
718.376	0.0143127
718.454	0.0142708
718.532	0.0141792
718.610	0.0140221
718.688	0.0136452
718.766	0.0136797
718.844	0.0135138
718.923	0.0133645
719.001	0.0132656
719.079	0.0132986
719.157	0.0131774
719.235	0.0132191
719.313	0.0130998
719.391	0.0131585
719.469	0.0130893
719.548	0.0130085
719.626	0.0131520
719.704	0.0131329
719.782	0.0130067
719.860	0.0129582
719.938	0.0128186
720.016	0.0128677
720.094	0.0129090
720.173	0.0131097
720.251	0.0129915
720.329	0.0130846
720.407	0.0133588
720.485	0.0136291
720.563	0.0135969
720.641	0.0136995
720.719	0.0137234
720.798	0.0139506
720.876	0.0143141
720.954	0.0147155
721.032	0.0147579
721.110	0.0150784
721.188	0.0154077
721.266	0.0155956
721.344	0.0158825
721.423	0.0162495
721.501	0.0165099
721.579	0.0166176
721.657	0.0167971
721.735	0.0168359
721.813	0.0170093
721.891	0.0170770
721.969	0.0171523
722.048	0.0170532
722.126	0.0169489
722.204	0.0168293
722.282	0.0165804
722.360	0.0164428
722.438	0.0162053
722.516	0.0158795
722.594	0.0159261
722.673	0.0156422
722.751	0.0153902
722.829	0.0153753
722.907	0.0155540
722.985	0.0153637
723.063	0.0151865
723.141	0.0151572
723.219	0.0149451
723.298	0.0149565
723.376	0.0148759
723.454	0.0149568
723.532	0.0148148
723.610	0.0147466
723.688	0.0147414
723.766	0.0147174
723.844	0.0144935
723.923	0.0145222
724.001	0.0144296
724.079	0.0142664
724.157	0.0142758
724.235	0.0143544
724.313	0.0142809
724.391	0.0141702
724.469	0.0138858
724.548	0.0139850
724.626	0.0139150
724.704	0.0136891
724.782	0.0135177
724.860	0.0134541
724.938	0.0133761
725.016	0.0132655
725.094	0.0132069
725.173	0.0132652
725.251	0.0134392
725.329	0.0134191
725.407	0.0135455
725.485	0.0134566
725.563	0.0137313
725.641	0.0137199
725.719	0.0137070
725.798	0.0139335
725.876	0.0140094
725.954	0.0140030
726.032	0.0140004
726.110	0.0139521
726.188	0.0139639
726.266	0.0137032
726.344	0.0138251
726.423	0.0138848
726.501	0.0137311
726.579	0.0139265
726.657	0.0141099
726.735	0.0143061
726.813	0.0142712
726.891	0.0142608
726.969	0.0145821
727.048	0.0148296
727.126	0.0151895
727.204	0.0152968
727.282	0.0151537
727.360	0.0154812
727.438	0.0157345
727.516	0.0156247
727.594	0.0156521
727.673	0.0156287
727.751	0.0157503
727.829	0.0159956
727.907	0.0158819
727.985	0.0161412
728.063	0.0159279
728.141	0.0160489
728.219	0.0160335
728.298	0.0160610
728.376	0.0161060
728.454	0.0162331
728.532	0.0161829
728.610	0.0160816
728.688	0.0160392
728.766	0.0162504
728.844	0.0161227
728.923	0.0161575
729.001	0.0159716
729.079	0.0159014
729.157	0.0158383
729.235	0.0158693
729.313	0.0156802
729.391	0.0155328
729.469	0.0154520
729.548	0.0153635
729.626	0.0151739
729.704	0.0149328
729.782	0.0147316
729.860	0.0147689
729.938	0.0143238
730.016	0.0142799
730.094	0.0140479
730.173	0.0137914
730.251	0.0136725
730.329	0.0136154
730.407	0.0134084
730.485	0.0133379
730.563	0.0131461
730.641	0.0131312
730.719	0.0130877
730.798	0.0131930
730.876	0.0131046
730.954	0.0131423
731.032	0.0131503
731.110	0.0132288
731.188	0.0132441
731.266	0.0133443
731.344	0.0135101
731.423	0.0134244
731.501	0.0134421
731.579	0.0134931
731.657	0.0134732
731.735	0.0134464
731.813	0.0133618
731.891	0.0134129
731.969	0.0133907
732.048	0.0134649
732.126	0.0136123
732.204	0.0136006
732.282	0.0136084
732.360	0.0137480
732.438	0.0139346
732.516	0.0142976
732.594	0.0144105
732.673	0.0144080
732.751	0.0145813
732.829	0.0148428
732.907	0.0150906
732.985	0.0152176
733.063	0.0153764
733.141	0.0154469
733.219	0.0157288
733.298	0.0157750
733.376	0.0160592
733.454	0.0162007
733.532	0.0162773
733.610	0.0165490
733.688	0.0165649
733.766	0.0165245
733.844	0.0166639
733.923	0.0165887
734.001	0.0166838
734.079	0.0166309
734.157	0.0165809
734.235	0.0165080
734.313	0.0163303
734.391	0.0163015
734.469	0.0160361
734.548	0.0160285
734.626	0.0158688
734.704	0.0157766
734.782	0.0155784
734.860	0.0155084
734.938	0.0154069
735.016	0.0151355
735.094	0.0151699
735.173	0.0149989
735.251	0.0148366
735.329	0.0146068
735.407	0.0144436
