05/14/2022	19:16:25	Ver.	4.1	UNKNOWN
Optical Delay	650.016352	Delta X		0.078125	Sweeps	1	Scan Rate	0/0
Coordinates	Axis 1	NaN	Axis 2	NaN	Axis 3	NaN	Axis 4	NaN	Axis 5	NaN	Axis 6	0.000000
TX Power	0.000000	RX Power	0.000000

650.016	0.0145847
650.094	0.0145924
650.173	0.0145492
650.251	0.0145455
650.329	0.0145681
650.407	0.0145102
650.485	0.0146304
650.563	0.0145599
650.641	0.0144459
650.719	0.0143615
650.798	0.0145412
650.876	0.0145580
650.954	0.0145712
651.032	0.0145428
651.110	0.0145676
651.188	0.0145494
651.266	0.0144029
651.344	0.0146867
651.423	0.0145643
651.501	0.0145383
651.579	0.0145451
651.657	0.0145069
651.735	0.0144571
651.813	0.0146018
651.891	0.0145564
651.969	0.0146365
652.048	0.0145885
652.126	0.0145905
652.204	0.0145979
652.282	0.0145691
652.360	0.0146015
652.438	0.0143945
652.516	0.0143924
652.594	0.0144939
652.673	0.0145320
652.751	0.0147890
652.829	0.0147529
652.907	0.0144618
652.985	0.0144908
653.063	0.0146180
653.141	0.0146094
653.219	0.0145825
653.298	0.0145345
653.376	0.0146042
653.454	0.0145420
653.532	0.0145393
653.610	0.0145701
653.688	0.0144095
653.766	0.0145524
653.844	0.0145618
653.923	0.0145661
654.001	0.0146326
654.079	0.0145443
654.157	0.0147205
654.235	0.0146044
654.313	0.0146712
654.391	0.0146834
654.469	0.0144939
654.548	0.0145819
654.626	0.0145914
654.704	0.0144650
654.782	0.0144553
654.860	0.0146429
654.938	0.0146953
655.016	0.0144758
655.094	0.0144656
655.173	0.0146614
655.251	0.0146870
655.329	0.0146213
655.407	0.0146147
655.485	0.0147404
655.563	0.0145848
655.641	0.0146227
655.719	0.0144692
655.798	0.0144785
655.876	0.0144005
655.954	0.0143919
656.032	0.0146274
656.110	0.0146541
656.188	0.0146355
656.266	0.0145850
656.344	0.0146214
656.423	0.0147145
656.501	0.0146062
656.579	0.0145467
656.657	0.0144653
656.735	0.0145671
656.813	0.0145667
656.891	0.0145393
656.969	0.0146661
657.048	0.0146481
657.126	0.0145874
657.204	0.0144571
657.282	0.0145657
657.360	0.0145344
657.438	0.0145636
657.516	0.0145244
657.594	0.0146006
657.673	0.0145470
657.751	0.0147136
657.829	0.0146287
657.907	0.0145029
657.985	0.0145604
658.063	0.0145858
658.141	0.0146215
658.219	0.0145663
658.298	0.0145093
658.376	0.0147472
658.454	0.0145995
658.532	0.0145615
658.610	0.0146042
658.688	0.0146037
658.766	0.0146463
658.844	0.0145461
658.923	0.0145860
659.001	0.0146043
659.079	0.0145519
659.157	0.0145684
659.235	0.0145625
659.313	0.0145132
659.391	0.0145296
659.469	0.0145374
659.548	0.0145525
659.626	0.0145247
659.704	0.0144572
659.782	0.0145929
659.860	0.0145821
659.938	0.0145181
660.016	0.0145304
660.094	0.0146506
660.173	0.0145504
660.251	0.0147938
660.329	0.0144979
660.407	0.0144501
660.485	0.0145808
660.563	0.0146515
660.641	0.0145287
660.719	0.0144891
660.798	0.0145790
660.876	0.0145301
660.954	0.0145632
661.032	0.0145097
661.110	0.0145387
661.188	0.0145338
661.266	0.0144627
661.344	0.0144920
661.423	0.0145049
661.501	0.0146225
661.579	0.0145922
661.657	0.0145013
661.735	0.0144974
661.813	0.0145407
661.891	0.0144303
661.969	0.0144303
662.048	0.0145018
662.126	0.0144553
662.204	0.0145317
662.282	0.0144943
662.360	0.0143774
662.438	0.0145176
662.516	0.0145598
662.594	0.0144950
662.673	0.0143696
662.751	0.0144408
662.829	0.0145154
662.907	0.0145573
662.985	0.0144080
663.063	0.0144161
663.141	0.0144720
663.219	0.0145457
663.298	0.0145672
663.376	0.0145687
663.454	0.0144324
663.532	0.0144305
663.610	0.0145357
663.688	0.0145681
663.766	0.0146090
663.844	0.0143726
663.923	0.0144208
664.001	0.0145377
664.079	0.0145188
664.157	0.0143357
664.235	0.0145930
664.313	0.0143472
664.391	0.0146316
664.469	0.0145355
664.548	0.0143778
664.626	0.0144385
664.704	0.0145201
664.782	0.0144838
664.860	0.0145063
664.938	0.0146288
665.016	0.0147124
665.094	0.0145909
665.173	0.0145541
665.251	0.0147172
665.329	0.0144186
665.407	0.0143622
665.485	0.0146566
665.563	0.0145190
665.641	0.0144954
665.719	0.0145674
665.798	0.0144860
665.876	0.0147143
665.954	0.0144473
666.032	0.0145778
666.110	0.0145969
666.188	0.0144915
666.266	0.0146568
666.344	0.0146829
666.423	0.0145840
666.501	0.0145124
666.579	0.0146014
666.657	0.0145381
666.735	0.0144337
666.813	0.0145731
666.891	0.0145306
666.969	0.0145055
667.048	0.0144360
667.126	0.0145116
667.204	0.0146662
667.282	0.0144656
667.360	0.0145432
667.438	0.0145192
667.516	0.0144788
667.594	0.0144868
667.673	0.0145338
667.751	0.0144958
667.829	0.0146104
667.907	0.0145308
667.985	0.0144582
668.063	0.0144675
668.141	0.0147693
668.219	0.0147038
668.298	0.0144862
668.376	0.0144947
668.454	0.0145509
668.532	0.0143824
668.610	0.0146053
668.688	0.0146332
668.766	0.0146799
668.844	0.0144356
668.923	0.0145293
669.001	0.0145619
669.079	0.0145502
669.157	0.0145935
669.235	0.0145590
669.313	0.0145583
669.391	0.0145581
669.469	0.0145381
669.548	0.0144485
669.626	0.0144962
669.704	0.0144254
669.782	0.0146325
669.860	0.0146578
669.938	0.0144875
670.016	0.0144333
670.094	0.0145763
670.173	0.0146323
670.251	0.0145268
670.329	0.0146323
670.407	0.0146716
670.485	0.0144915
670.563	0.0145217
670.641	0.0146092
670.719	0.0145418
670.798	0.0145392
670.876	0.0145377
670.954	0.0145741
671.032	0.0145650
671.110	0.0144210
671.188	0.0145522
671.266	0.0146811
671.344	0.0144839
671.423	0.0144794
671.501	0.0144984
671.579	0.0144518
671.657	0.0143964
671.735	0.0145864
671.813	0.0145748
671.891	0.0144230
671.969	0.0145400
672.048	0.0146152
672.126	0.0146360
672.204	0.0145520
672.282	0.0144910
672.360	0.0144742
672.438	0.0144327
672.516	0.0144919
672.594	0.0144757
672.673	0.0143980
672.751	0.0144714
672.829	0.0143968
672.907	0.0144547
672.985	0.0144022
673.063	0.0145139
673.141	0.0144958
673.219	0.0145925
673.298	0.0145828
673.376	0.0144442
673.454	0.0143948
673.532	0.0144827
673.610	0.0145081
673.688	0.0144093
673.766	0.0146456
673.844	0.0145257
673.923	0.0144794
674.001	0.0145096
674.079	0.0145608
674.157	0.0144920
674.235	0.0145603
674.313	0.0144842
674.391	0.0145481
674.469	0.0145384
674.548	0.0145657
674.626	0.0146314
674.704	0.0144491
674.782	0.0145028
674.860	0.0145277
674.938	0.0145445
675.016	0.0145878
675.094	0.0146071
675.173	0.0145927
675.251	0.0144095
675.329	0.0144261
675.407	0.0143198
675.485	0.0145468
675.563	0.0144516
675.641	0.0146066
675.719	0.0145239
675.798	0.0145079
675.876	0.0146209
675.954	0.0146902
676.032	0.0145137
676.110	0.0145418
676.188	0.0144743
676.266	0.0144257
676.344	0.0146104
676.423	0.0145679
676.501	0.0144035
676.579	0.0145418
676.657	0.0145862
676.735	0.0145741
676.813	0.0144860
676.891	0.0144262
676.969	0.0144719
677.048	0.0146839
677.126	0.0143894
677.204	0.0145103
677.282	0.0146646
677.360	0.0145343
677.438	0.0143935
677.516	0.0145186
677.594	0.0146329
677.673	0.0145213
677.751	0.0145430
677.829	0.0146295
677.907	0.0144657
677.985	0.0145351
678.063	0.0146166
678.141	0.0145148
678.219	0.0145232
678.298	0.0143656
678.376	0.0146278
678.454	0.0145929
678.532	0.0144448
678.610	0.0144615
678.688	0.0145053
678.766	0.0146355
678.844	0.0144423
678.923	0.0145657
679.001	0.0144862
679.079	0.0145831
679.157	0.0144032
679.235	0.0144728
679.313	0.0145887
679.391	0.0146831
679.469	0.0144251
679.548	0.0145398
679.626	0.0145683
679.704	0.0145383
679.782	0.0144483
679.860	0.0145539
679.938	0.0145727
680.016	0.0144952
680.094	0.0144793
680.173	0.0143981
680.251	0.0145295
680.329	0.0146143
680.407	0.0145050
680.485	0.0144683
680.563	0.0146677
680.641	0.0146114
680.719	0.0144685
680.798	0.0144922
680.876	0.0144852
680.954	0.0145387
681.032	0.0145486
681.110	0.0146793
681.188	0.0145790
681.266	0.0144282
681.344	0.0145391
681.423	0.0144578
681.501	0.0144330
681.579	0.0146478
681.657	0.0145557
681.735	0.0146362
681.813	0.0146697
681.891	0.0147073
681.969	0.0146785
682.048	0.0146932
682.126	0.0147348
682.204	0.0147938
682.282	0.0147776
682.360	0.0146237
682.438	0.0145602
682.516	0.0145544
682.594	0.0145373
682.673	0.0143217
682.751	0.0140850
682.829	0.0141221
682.907	0.0140464
682.985	0.0140630
683.063	0.0141747
683.141	0.0143179
683.219	0.0144463
683.298	0.0144814
683.376	0.0146463
683.454	0.0147178
683.532	0.0149572
683.610	0.0150024
683.688	0.0151251
683.766	0.0152084
683.844	0.0153004
683.923	0.0153484
684.001	0.0150811
684.079	0.0150922
684.157	0.0150617
684.235	0.0149416
684.313	0.0146440
684.391	0.0146943
684.469	0.0147310
684.548	0.0143999
684.626	0.0143090
684.704	0.0142916
684.782	0.0140047
684.860	0.0138477
684.938	0.0136580
685.016	0.0135796
685.094	0.0133338
685.173	0.0133268
685.251	0.0134535
685.329	0.0135883
685.407	0.0137237
685.485	0.0139967
685.563	0.0142654
685.641	0.0146979
685.719	0.0150176
685.798	0.0152432
685.876	0.0156770
685.954	0.0157861
686.032	0.0159269
686.110	0.0161020
686.188	0.0161365
686.266	0.0158254
686.344	0.0159993
686.423	0.0156597
686.501	0.0155147
686.579	0.0152605
686.657	0.0150527
686.735	0.0148138
686.813	0.0146502
686.891	0.0143508
686.969	0.0142984
687.048	0.0140942
687.126	0.0139707
687.204	0.0137408
687.282	0.0137194
687.360	0.0136630
687.438	0.0135087
687.516	0.0132769
687.594	0.0132275
687.673	0.0131682
687.751	0.0133232
687.829	0.0135413
687.907	0.0134265
687.985	0.0135304
688.063	0.0136411
688.141	0.0137619
688.219	0.0138926
688.298	0.0141250
688.376	0.0141296
688.454	0.0142004
688.532	0.0143674
688.610	0.0145835
688.688	0.0146848
688.766	0.0148454
688.844	0.0150222
688.923	0.0152513
689.001	0.0155840
689.079	0.0159510
689.157	0.0162153
689.235	0.0165129
689.313	0.0165871
689.391	0.0166475
689.469	0.0168551
689.548	0.0167573
689.626	0.0165382
689.704	0.0164259
689.782	0.0160951
689.860	0.0158510
689.938	0.0156122
690.016	0.0153391
690.094	0.0151355
690.173	0.0150043
690.251	0.0146600
690.329	0.0143457
690.407	0.0144109
690.485	0.0141456
690.563	0.0139069
690.641	0.0135799
690.719	0.0130900
690.798	0.0129513
690.876	0.0124157
690.954	0.0120129
691.032	0.0116556
691.110	0.0113096
691.188	0.0111363
691.266	0.0108929
691.344	0.0106640
691.423	0.0106336
691.501	0.0107159
691.579	0.0110117
691.657	0.0111421
691.735	0.0115250
691.813	0.0120528
691.891	0.0127703
691.969	0.0132668
692.048	0.0140392
692.126	0.0145524
692.204	0.0153659
692.282	0.0160732
692.360	0.0167400
692.438	0.0173670
692.516	0.0180918
692.594	0.0187897
692.673	0.0194089
692.751	0.0200187
692.829	0.0203902
692.907	0.0207050
692.985	0.0210960
693.063	0.0209704
693.141	0.0209191
693.219	0.0206826
693.298	0.0204352
693.376	0.0196616
693.454	0.0190982
693.532	0.0182637
693.610	0.0174217
693.688	0.0165652
693.766	0.0153999
693.844	0.0142315
693.923	0.0130825
694.001	0.0118848
694.079	0.0108138
694.157	0.00983711
694.235	0.00899391
694.313	0.00833527
694.391	0.00773949
694.469	0.00719910
694.548	0.00684509
694.626	0.00663223
694.704	0.00650826
694.782	0.00655266
694.860	0.00662964
694.938	0.00695061
695.016	0.00731125
695.094	0.00779320
695.173	0.00865402
695.251	0.00951180
695.329	0.0104843
695.407	0.0117258
695.485	0.0129248
695.563	0.0142065
695.641	0.0153165
695.719	0.0166393
695.798	0.0178494
695.876	0.0188464
695.954	0.0199686
696.032	0.0208154
696.110	0.0213979
696.188	0.0218618
696.266	0.0221226
696.344	0.0221465
696.423	0.0220731
696.501	0.0220168
696.579	0.0217809
696.657	0.0217051
696.735	0.0216033
696.813	0.0214306
696.891	0.0210777
696.969	0.0207101
697.048	0.0202135
697.126	0.0196624
697.204	0.0189666
697.282	0.0181928
697.360	0.0172057
697.438	0.0159724
697.516	0.0149952
697.594	0.0137292
697.673	0.0125615
697.751	0.0115629
697.829	0.0104672
697.907	0.00941368
697.985	0.00861847
698.063	0.00827507
698.141	0.00787292
698.219	0.00785393
698.298	0.00785851
698.376	0.00809830
698.454	0.00829002
698.532	0.00857872
698.610	0.00892883
698.688	0.00938148
698.766	0.00970573
698.844	0.0100182
698.923	0.0100398
699.001	0.0100836
699.079	0.00998573
699.157	0.00982597
699.235	0.00981880
699.313	0.00997314
699.391	0.0101160
699.469	0.0103957
699.548	0.0109225
699.626	0.0117619
699.704	0.0125201
699.782	0.0135675
699.860	0.0148193
699.938	0.0159103
700.016	0.0169695
700.094	0.0179444
700.173	0.0190279
700.251	0.0197403
700.329	0.0202850
700.407	0.0208744
700.485	0.0213549
700.563	0.0216230
700.641	0.0217104
700.719	0.0220162
700.798	0.0221288
700.876	0.0224738
700.954	0.0226604
701.032	0.0228570
701.110	0.0229414
701.188	0.0228342
701.266	0.0228902
701.344	0.0225935
701.423	0.0221236
701.501	0.0212920
701.579	0.0203500
701.657	0.0192228
701.735	0.0178340
701.813	0.0163088
701.891	0.0149954
701.969	0.0133081
702.048	0.0118080
702.126	0.0105720
702.204	0.00938126
702.282	0.00815277
702.360	0.00706856
702.438	0.00634132
702.516	0.00585266
702.594	0.00555214
702.673	0.00552238
702.751	0.00559868
702.829	0.00577843
702.907	0.00616257
702.985	0.00653618
703.063	0.00704147
703.141	0.00757774
703.219	0.00807816
703.298	0.00858253
703.376	0.00906204
703.454	0.00950859
703.532	0.00988869
703.610	0.0104453
703.688	0.0109103
703.766	0.0112767
703.844	0.0116953
703.923	0.0123127
704.001	0.0129517
704.079	0.0136365
704.157	0.0143323
704.235	0.0153105
704.313	0.0160648
704.391	0.0171353
704.469	0.0178562
704.548	0.0187800
704.626	0.0193645
704.704	0.0199989
704.782	0.0206602
704.860	0.0212390
704.938	0.0215296
705.016	0.0218721
705.094	0.0221925
705.173	0.0224171
705.251	0.0226379
705.329	0.0227024
705.407	0.0229629
705.485	0.0230827
705.563	0.0231750
705.641	0.0231334
705.719	0.0230282
705.798	0.0226828
705.876	0.0222659
705.954	0.0215974
706.032	0.0208350
706.110	0.0200611
706.188	0.0189264
706.266	0.0176423
706.344	0.0162875
706.423	0.0149802
706.501	0.0135746
706.579	0.0122057
706.657	0.0107890
706.735	0.00964249
706.813	0.00839958
706.891	0.00735291
706.969	0.00670204
707.048	0.00585800
707.126	0.00536400
707.204	0.00502052
707.282	0.00484314
707.360	0.00495003
707.438	0.00507767
707.516	0.00537949
707.594	0.00588081
707.673	0.00629295
707.751	0.00686409
707.829	0.00742645
707.907	0.00797371
707.985	0.00844673
708.063	0.00910324
708.141	0.00967896
708.219	0.0102389
708.298	0.0109164
708.376	0.0116577
708.454	0.0124412
708.532	0.0131245
708.610	0.0140549
708.688	0.0149373
708.766	0.0158927
708.844	0.0166771
708.923	0.0175745
709.001	0.0182229
709.079	0.0189405
709.157	0.0196869
709.235	0.0200251
709.313	0.0205472
709.391	0.0209659
709.469	0.0213932
709.548	0.0215292
709.626	0.0219246
709.704	0.0220637
709.782	0.0221325
709.860	0.0221630
709.938	0.0219911
710.016	0.0219250
710.094	0.0218016
710.173	0.0214344
710.251	0.0209815
710.329	0.0206690
710.407	0.0202446
710.485	0.0196561
710.563	0.0188452
710.641	0.0179758
710.719	0.0173615
710.798	0.0164814
710.876	0.0156146
710.954	0.0147345
711.032	0.0140985
711.110	0.0130652
711.188	0.0121759
711.266	0.0116575
711.344	0.0109563
711.423	0.0103358
711.501	0.00984024
711.579	0.00924507
711.657	0.00890167
711.735	0.00865326
711.813	0.00865334
711.891	0.00851608
711.969	0.00858032
712.048	0.00872154
712.126	0.00880562
712.204	0.00895302
712.282	0.00925446
712.360	0.00931297
712.438	0.00946800
712.516	0.00968384
712.594	0.00992012
712.673	0.0101627
712.751	0.0103947
712.829	0.0107192
712.907	0.0111754
712.985	0.0115253
713.063	0.0121465
713.141	0.0125092
713.219	0.0131384
713.298	0.0136948
713.376	0.0142760
713.454	0.0149498
713.532	0.0154489
713.610	0.0159419
713.688	0.0165547
713.766	0.0170719
713.844	0.0175780
713.923	0.0180862
714.001	0.0183644
714.079	0.0185541
714.157	0.0186414
714.235	0.0188158
714.313	0.0187711
714.391	0.0185875
714.469	0.0185654
714.548	0.0183530
714.626	0.0180859
714.704	0.0178937
714.782	0.0176016
714.860	0.0172691
714.938	0.0170216
715.016	0.0168496
715.094	0.0164886
715.173	0.0161826
715.251	0.0159136
715.329	0.0157549
715.407	0.0154789
715.485	0.0153468
715.563	0.0151924
715.641	0.0150524
715.719	0.0150545
715.798	0.0149876
715.876	0.0149090
715.954	0.0147436
716.032	0.0147240
716.110	0.0146542
716.188	0.0147306
716.266	0.0147289
716.344	0.0148122
716.423	0.0145139
716.501	0.0144735
716.579	0.0143833
716.657	0.0141968
716.735	0.0139133
716.813	0.0137988
716.891	0.0134128
716.969	0.0131993
717.048	0.0130555
717.126	0.0126980
717.204	0.0124296
717.282	0.0124497
717.360	0.0121629
717.438	0.0122263
717.516	0.0122721
717.594	0.0122469
717.673	0.0123440
717.751	0.0125223
717.829	0.0127054
717.907	0.0128433
717.985	0.0131158
718.063	0.0132724
718.141	0.0134771
718.219	0.0134718
718.298	0.0136414
718.376	0.0136588
718.454	0.0136724
718.532	0.0137414
718.610	0.0138191
718.688	0.0137959
718.766	0.0139742
718.844	0.0139506
718.923	0.0139528
719.001	0.0141013
719.079	0.0143272
719.157	0.0144229
719.235	0.0145723
719.313	0.0147453
719.391	0.0149442
719.469	0.0149696
719.548	0.0150970
719.626	0.0151460
719.704	0.0152439
719.782	0.0152203
719.860	0.0152007
719.938	0.0151243
720.016	0.0150306
720.094	0.0150380
720.173	0.0151266
720.251	0.0152264
720.329	0.0151774
720.407	0.0154613
720.485	0.0156148
720.563	0.0159589
720.641	0.0158056
720.719	0.0161402
720.798	0.0164075
720.876	0.0165403
720.954	0.0166236
721.032	0.0167448
721.110	0.0168726
721.188	0.0168203
721.266	0.0168594
721.344	0.0165474
721.423	0.0163162
721.501	0.0160439
721.579	0.0158576
721.657	0.0154098
721.735	0.0151582
721.813	0.0149630
721.891	0.0147466
721.969	0.0145765
722.048	0.0143255
722.126	0.0143688
722.204	0.0142065
722.282	0.0140965
722.360	0.0140540
722.438	0.0140590
722.516	0.0141605
722.594	0.0141568
722.673	0.0141462
722.751	0.0142171
722.829	0.0142467
722.907	0.0141159
722.985	0.0140020
723.063	0.0140939
723.141	0.0137935
723.219	0.0137137
723.298	0.0138112
723.376	0.0135442
723.454	0.0134043
723.532	0.0133450
723.610	0.0132822
723.688	0.0132712
723.766	0.0133714
723.844	0.0134886
723.923	0.0134511
724.001	0.0134875
724.079	0.0135454
724.157	0.0134512
724.235	0.0135712
724.313	0.0135289
724.391	0.0134869
724.469	0.0135300
724.548	0.0134726
724.626	0.0134110
724.704	0.0134651
724.782	0.0134255
724.860	0.0133530
724.938	0.0135362
725.016	0.0137106
725.094	0.0135862
725.173	0.0137978
725.251	0.0138815
725.329	0.0141351
725.407	0.0143591
725.485	0.0145336
725.563	0.0147855
725.641	0.0148380
725.719	0.0149813
725.798	0.0151250
725.876	0.0151556
725.954	0.0153504
726.032	0.0153728
726.110	0.0153188
726.188	0.0154163
726.266	0.0155513
726.344	0.0155463
726.423	0.0155504
726.501	0.0157372
726.579	0.0157580
726.657	0.0158411
726.735	0.0159873
726.813	0.0162343
726.891	0.0164049
726.969	0.0164840
727.048	0.0165630
727.126	0.0166042
727.204	0.0165285
727.282	0.0166679
727.360	0.0166512
727.438	0.0165144
727.516	0.0163765
727.594	0.0163135
727.673	0.0161157
727.751	0.0159789
727.829	0.0158404
727.907	0.0156058
727.985	0.0153265
728.063	0.0151849
728.141	0.0151813
728.219	0.0149250
728.298	0.0148068
728.376	0.0146407
728.454	0.0144121
728.532	0.0143094
728.610	0.0140552
728.688	0.0141138
728.766	0.0137839
728.844	0.0136371
728.923	0.0136426
729.001	0.0133798
729.079	0.0132131
729.157	0.0131550
729.235	0.0131253
729.313	0.0128585
729.391	0.0128955
729.469	0.0127499
729.548	0.0127579
729.626	0.0128968
729.704	0.0128337
729.782	0.0130294
729.860	0.0130186
729.938	0.0129653
730.016	0.0130663
730.094	0.0129478
730.173	0.0130666
730.251	0.0130737
730.329	0.0129444
730.407	0.0129543
730.485	0.0128568
730.563	0.0129896
730.641	0.0130708
730.719	0.0132211
730.798	0.0132040
730.876	0.0132694
730.954	0.0133224
731.032	0.0136195
731.110	0.0138489
731.188	0.0141399
731.266	0.0145078
731.344	0.0148600
731.423	0.0150040
731.501	0.0153843
731.579	0.0155407
731.657	0.0157159
731.735	0.0159580
731.813	0.0160366
731.891	0.0161483
731.969	0.0163154
732.048	0.0164043
732.126	0.0162273
732.204	0.0163646
732.282	0.0162679
732.360	0.0162572
732.438	0.0162018
732.516	0.0162145
732.594	0.0163436
732.673	0.0161708
732.751	0.0162534
732.829	0.0161079
732.907	0.0161581
732.985	0.0160228
733.063	0.0158080
733.141	0.0157147
733.219	0.0155680
733.298	0.0154702
733.376	0.0152253
733.454	0.0151993
733.532	0.0150492
733.610	0.0150311
733.688	0.0146725
733.766	0.0146881
733.844	0.0146900
733.923	0.0146963
734.001	0.0143673
734.079	0.0144832
734.157	0.0143426
734.235	0.0142564
734.313	0.0141749
734.391	0.0140961
734.469	0.0140398
734.548	0.0139988
734.626	0.0139715
734.704	0.0139160
734.782	0.0139299
734.860	0.0139626
734.938	0.0139500
735.016	0.0138066
735.094	0.0137849
735.173	0.0137296
735.251	0.0135456
735.329	0.0135323
735.407	0.0134730
