05/14/2022	19:17:35	Ver.	4.1	UNKNOWN
Optical Delay	650.016352	Delta X		0.078125	Sweeps	1	Scan Rate	0/0
Coordinates	Axis 1	NaN	Axis 2	NaN	Axis 3	NaN	Axis 4	NaN	Axis 5	NaN	Axis 6	0.000000
TX Power	0.000000	RX Power	0.000000

650.016	0.0142290
650.094	0.0142079
650.173	0.0140770
650.251	0.0142019
650.329	0.0142265
650.407	0.0142477
650.485	0.0140509
650.563	0.0141930
650.641	0.0143392
650.719	0.0142034
650.798	0.0142329
650.876	0.0141853
650.954	0.0141607
651.032	0.0142716
651.110	0.0141720
651.188	0.0142712
651.266	0.0141532
651.344	0.0141677
651.423	0.0142168
651.501	0.0141998
651.579	0.0141438
651.657	0.0142744
651.735	0.0142798
651.813	0.0142279
651.891	0.0140761
651.969	0.0142593
652.048	0.0143439
652.126	0.0142249
652.204	0.0142434
652.282	0.0141730
652.360	0.0141434
652.438	0.0142437
652.516	0.0141532
652.594	0.0141219
652.673	0.0141830
652.751	0.0141772
652.829	0.0142486
652.907	0.0142512
652.985	0.0142750
653.063	0.0142113
653.141	0.0141599
653.219	0.0142371
653.298	0.0142510
653.376	0.0142067
653.454	0.0141564
653.532	0.0142226
653.610	0.0144121
653.688	0.0141964
653.766	0.0140760
653.844	0.0142297
653.923	0.0143492
654.001	0.0141438
654.079	0.0141957
654.157	0.0141544
654.235	0.0141054
654.313	0.0142267
654.391	0.0141507
654.469	0.0140882
654.548	0.0141576
654.626	0.0142441
654.704	0.0142370
654.782	0.0142850
654.860	0.0142535
654.938	0.0141430
655.016	0.0141708
655.094	0.0142655
655.173	0.0142022
655.251	0.0142640
655.329	0.0140855
655.407	0.0142142
655.485	0.0141933
655.563	0.0140816
655.641	0.0141869
655.719	0.0142208
655.798	0.0141055
655.876	0.0141550
655.954	0.0142122
656.032	0.0141628
656.110	0.0141714
656.188	0.0143449
656.266	0.0142584
656.344	0.0141058
656.423	0.0141478
656.501	0.0142062
656.579	0.0141541
656.657	0.0142208
656.735	0.0142432
656.813	0.0141000
656.891	0.0140705
656.969	0.0141224
657.048	0.0142194
657.126	0.0141311
657.204	0.0140337
657.282	0.0143785
657.360	0.0142577
657.438	0.0141223
657.516	0.0142270
657.594	0.0142024
657.673	0.0142342
657.751	0.0142722
657.829	0.0141595
657.907	0.0141252
657.985	0.0142351
658.063	0.0143870
658.141	0.0142058
658.219	0.0141189
658.298	0.0141891
658.376	0.0141396
658.454	0.0140307
658.532	0.0140314
658.610	0.0140601
658.688	0.0140807
658.766	0.0141988
658.844	0.0141376
658.923	0.0141485
659.001	0.0141515
659.079	0.0143404
659.157	0.0141193
659.235	0.0141776
659.313	0.0142326
659.391	0.0141476
659.469	0.0141330
659.548	0.0142605
659.626	0.0141773
659.704	0.0141208
659.782	0.0142283
659.860	0.0141791
659.938	0.0141705
660.016	0.0141106
660.094	0.0141452
660.173	0.0141510
660.251	0.0142277
660.329	0.0140514
660.407	0.0142045
660.485	0.0142025
660.563	0.0142254
660.641	0.0141238
660.719	0.0141046
660.798	0.0140751
660.876	0.0141911
660.954	0.0141305
661.032	0.0141179
661.110	0.0141790
661.188	0.0142812
661.266	0.0143130
661.344	0.0141870
661.423	0.0141838
661.501	0.0141917
661.579	0.0141820
661.657	0.0141899
661.735	0.0141189
661.813	0.0143084
661.891	0.0141923
661.969	0.0143979
662.048	0.0141624
662.126	0.0141240
662.204	0.0141576
662.282	0.0141589
662.360	0.0141673
662.438	0.0142393
662.516	0.0139944
662.594	0.0143555
662.673	0.0142483
662.751	0.0142722
662.829	0.0142246
662.907	0.0143248
662.985	0.0142743
663.063	0.0142391
663.141	0.0142295
663.219	0.0142488
663.298	0.0142560
663.376	0.0141696
663.454	0.0141585
663.532	0.0142887
663.610	0.0142276
663.688	0.0141759
663.766	0.0141896
663.844	0.0141968
663.923	0.0141624
664.001	0.0142818
664.079	0.0141502
664.157	0.0142612
664.235	0.0141761
664.313	0.0142187
664.391	0.0141795
664.469	0.0142284
664.548	0.0142169
664.626	0.0141717
664.704	0.0142967
664.782	0.0141647
664.860	0.0142405
664.938	0.0141891
665.016	0.0141979
665.094	0.0142184
665.173	0.0142557
665.251	0.0143783
665.329	0.0143620
665.407	0.0144427
665.485	0.0142216
665.563	0.0142201
665.641	0.0142474
665.719	0.0142601
665.798	0.0142371
665.876	0.0142552
665.954	0.0143239
666.032	0.0142391
666.110	0.0141838
666.188	0.0143647
666.266	0.0143008
666.344	0.0143774
666.423	0.0142377
666.501	0.0143079
666.579	0.0143552
666.657	0.0143420
666.735	0.0142018
666.813	0.0143029
666.891	0.0142622
666.969	0.0142229
667.048	0.0141702
667.126	0.0143125
667.204	0.0142867
667.282	0.0143671
667.360	0.0141508
667.438	0.0141956
667.516	0.0144808
667.594	0.0142246
667.673	0.0143423
667.751	0.0142538
667.829	0.0142808
667.907	0.0142586
667.985	0.0142448
668.063	0.0142641
668.141	0.0142966
668.219	0.0143251
668.298	0.0142532
668.376	0.0141341
668.454	0.0141697
668.532	0.0143195
668.610	0.0141904
668.688	0.0142030
668.766	0.0143327
668.844	0.0143535
668.923	0.0141373
669.001	0.0142269
669.079	0.0142635
669.157	0.0143371
669.235	0.0141275
669.313	0.0141719
669.391	0.0143108
669.469	0.0143047
669.548	0.0141070
669.626	0.0141291
669.704	0.0143262
669.782	0.0142549
669.860	0.0143591
669.938	0.0142353
670.016	0.0142846
670.094	0.0142123
670.173	0.0140491
670.251	0.0142591
670.329	0.0142809
670.407	0.0142932
670.485	0.0142702
670.563	0.0142826
670.641	0.0143030
670.719	0.0142915
670.798	0.0140904
670.876	0.0141518
670.954	0.0142982
671.032	0.0143024
671.110	0.0142870
671.188	0.0141293
671.266	0.0142059
671.344	0.0141708
671.423	0.0141304
671.501	0.0143275
671.579	0.0143124
671.657	0.0142393
671.735	0.0142400
671.813	0.0141889
671.891	0.0143002
671.969	0.0141102
672.048	0.0140812
672.126	0.0142660
672.204	0.0141846
672.282	0.0141647
672.360	0.0142097
672.438	0.0141354
672.516	0.0141539
672.594	0.0142004
672.673	0.0141425
672.751	0.0141169
672.829	0.0142753
672.907	0.0142325
672.985	0.0142349
673.063	0.0143084
673.141	0.0141944
673.219	0.0141145
673.298	0.0141157
673.376	0.0143311
673.454	0.0141891
673.532	0.0141830
673.610	0.0142119
673.688	0.0142117
673.766	0.0141405
673.844	0.0142500
673.923	0.0141412
674.001	0.0142067
674.079	0.0141551
674.157	0.0142322
674.235	0.0141575
674.313	0.0142645
674.391	0.0142411
674.469	0.0141013
674.548	0.0143076
674.626	0.0142424
674.704	0.0141803
674.782	0.0140659
674.860	0.0141960
674.938	0.0141408
675.016	0.0140946
675.094	0.0141683
675.173	0.0141441
675.251	0.0143182
675.329	0.0141745
675.407	0.0142379
675.485	0.0143006
675.563	0.0143356
675.641	0.0141646
675.719	0.0140913
675.798	0.0143138
675.876	0.0142628
675.954	0.0142969
676.032	0.0141711
676.110	0.0142238
676.188	0.0141010
676.266	0.0141056
676.344	0.0141983
676.423	0.0141724
676.501	0.0141660
676.579	0.0141715
676.657	0.0141674
676.735	0.0142888
676.813	0.0143444
676.891	0.0141529
676.969	0.0142056
677.048	0.0143523
677.126	0.0143587
677.204	0.0143026
677.282	0.0141737
677.360	0.0141563
677.438	0.0141227
677.516	0.0142205
677.594	0.0141198
677.673	0.0139594
677.751	0.0142944
677.829	0.0140530
677.907	0.0142537
677.985	0.0143714
678.063	0.0142351
678.141	0.0141745
678.219	0.0142284
678.298	0.0142242
678.376	0.0142308
678.454	0.0142458
678.532	0.0142719
678.610	0.0141454
678.688	0.0140664
678.766	0.0141759
678.844	0.0142614
678.923	0.0142581
679.001	0.0139810
679.079	0.0141532
679.157	0.0142517
679.235	0.0142278
679.313	0.0142868
679.391	0.0141376
679.469	0.0140929
679.548	0.0141293
679.626	0.0141126
679.704	0.0141232
679.782	0.0140240
679.860	0.0141050
679.938	0.0141415
680.016	0.0141017
680.094	0.0142222
680.173	0.0142298
680.251	0.0141801
680.329	0.0142869
680.407	0.0145500
680.485	0.0144807
680.563	0.0144854
680.641	0.0143163
680.719	0.0144331
680.798	0.0144242
680.876	0.0143558
680.954	0.0142700
681.032	0.0141338
681.110	0.0141357
681.188	0.0140616
681.266	0.0138992
681.344	0.0139240
681.423	0.0138064
681.501	0.0138777
681.579	0.0137302
681.657	0.0139312
681.735	0.0138577
681.813	0.0139536
681.891	0.0141508
681.969	0.0142178
682.048	0.0146301
682.126	0.0145628
682.204	0.0145485
682.282	0.0149433
682.360	0.0150191
682.438	0.0147791
682.516	0.0149337
682.594	0.0148734
682.673	0.0147013
682.751	0.0144682
682.829	0.0142249
682.907	0.0140026
682.985	0.0137819
683.063	0.0136932
683.141	0.0134279
683.219	0.0134348
683.298	0.0133222
683.376	0.0134084
683.454	0.0132803
683.532	0.0134526
683.610	0.0134509
683.688	0.0136739
683.766	0.0137480
683.844	0.0138908
683.923	0.0140827
684.001	0.0140796
684.079	0.0141676
684.157	0.0142640
684.235	0.0144597
684.313	0.0145438
684.391	0.0147515
684.469	0.0148431
684.548	0.0152773
684.626	0.0153349
684.704	0.0155056
684.782	0.0156436
684.860	0.0156950
684.938	0.0158392
685.016	0.0157314
685.094	0.0153365
685.173	0.0152213
685.251	0.0150141
685.329	0.0145742
685.407	0.0142434
685.485	0.0138801
685.563	0.0136707
685.641	0.0133723
685.719	0.0131249
685.798	0.0129954
685.876	0.0128239
685.954	0.0129060
686.032	0.0128527
686.110	0.0127876
686.188	0.0128421
686.266	0.0127128
686.344	0.0129395
686.423	0.0131192
686.501	0.0132698
686.579	0.0133065
686.657	0.0134204
686.735	0.0137276
686.813	0.0139180
686.891	0.0144360
686.969	0.0145417
687.048	0.0148640
687.126	0.0152213
687.204	0.0153876
687.282	0.0158347
687.360	0.0160918
687.438	0.0163023
687.516	0.0162601
687.594	0.0163950
687.673	0.0164257
687.751	0.0163542
687.829	0.0161821
687.907	0.0158387
687.985	0.0155064
688.063	0.0150224
688.141	0.0145855
688.219	0.0143056
688.298	0.0140686
688.376	0.0138471
688.454	0.0134739
688.532	0.0133918
688.610	0.0131980
688.688	0.0133495
688.766	0.0133935
688.844	0.0132779
688.923	0.0134286
689.001	0.0133382
689.079	0.0134863
689.157	0.0134607
689.235	0.0134239
689.313	0.0133916
689.391	0.0133733
689.469	0.0132949
689.548	0.0134166
689.626	0.0134449
689.704	0.0133404
689.782	0.0134111
689.860	0.0135738
689.938	0.0135052
690.016	0.0135053
690.094	0.0136451
690.173	0.0138748
690.251	0.0139534
690.329	0.0140344
690.407	0.0141477
690.485	0.0143793
690.563	0.0144993
690.641	0.0145937
690.719	0.0146646
690.798	0.0149719
690.876	0.0152003
690.954	0.0152476
691.032	0.0155174
691.110	0.0157741
691.188	0.0157858
691.266	0.0158421
691.344	0.0158734
691.423	0.0159980
691.501	0.0158672
691.579	0.0156999
691.657	0.0156429
691.735	0.0157554
691.813	0.0156119
691.891	0.0156203
691.969	0.0155727
692.048	0.0154527
692.126	0.0154282
692.204	0.0153427
692.282	0.0152313
692.360	0.0152185
692.438	0.0151440
692.516	0.0149118
692.594	0.0147669
692.673	0.0146466
692.751	0.0144254
692.829	0.0141706
692.907	0.0140656
692.985	0.0138138
693.063	0.0133319
693.141	0.0129708
693.219	0.0125730
693.298	0.0121319
693.376	0.0117260
693.454	0.0113454
693.532	0.0109470
693.610	0.0105354
693.688	0.0102941
693.766	0.0103045
693.844	0.0102860
693.923	0.0102251
694.001	0.0104021
694.079	0.0104938
694.157	0.0108755
694.235	0.0112973
694.313	0.0115856
694.391	0.0120682
694.469	0.0125571
694.548	0.0131969
694.626	0.0136988
694.704	0.0143556
694.782	0.0150083
694.860	0.0157027
694.938	0.0164458
695.016	0.0171787
695.094	0.0178495
695.173	0.0185243
695.251	0.0190794
695.329	0.0197231
695.407	0.0203175
695.485	0.0206562
695.563	0.0212340
695.641	0.0213427
695.719	0.0216569
695.798	0.0213769
695.876	0.0211093
695.954	0.0209191
696.032	0.0202888
696.110	0.0196793
696.188	0.0188445
696.266	0.0181043
696.344	0.0170154
696.423	0.0158920
696.501	0.0145634
696.579	0.0133363
696.657	0.0119691
696.735	0.0108403
696.813	0.00968452
696.891	0.00860527
696.969	0.00757561
697.048	0.00694450
697.126	0.00625732
697.204	0.00611572
697.282	0.00596420
697.360	0.00587509
697.438	0.00591888
697.516	0.00635262
697.594	0.00658592
697.673	0.00700882
697.751	0.00734604
697.829	0.00790352
697.907	0.00835869
697.985	0.00860878
698.063	0.00920364
698.141	0.00999657
698.219	0.0107178
698.298	0.0115928
698.376	0.0125406
698.454	0.0137247
698.532	0.0150551
698.610	0.0162481
698.688	0.0173721
698.766	0.0185034
698.844	0.0192854
698.923	0.0202897
699.001	0.0209641
699.079	0.0215303
699.157	0.0218336
699.235	0.0218398
699.313	0.0218769
699.391	0.0218563
699.469	0.0216096
699.548	0.0213299
699.626	0.0211119
699.704	0.0208260
699.782	0.0205523
699.860	0.0203242
699.938	0.0198701
700.016	0.0196648
700.094	0.0193618
700.173	0.0187923
700.251	0.0181257
700.329	0.0172256
700.407	0.0163918
700.485	0.0154173
700.563	0.0144360
700.641	0.0132242
700.719	0.0119490
700.798	0.0108919
700.876	0.00989067
700.954	0.00877953
701.032	0.00806313
701.110	0.00741829
701.188	0.00700249
701.266	0.00666878
701.344	0.00690414
701.423	0.00694420
701.501	0.00743233
701.579	0.00796074
701.657	0.00842545
701.735	0.00894249
701.813	0.00976158
701.891	0.0102892
701.969	0.0108551
702.048	0.0112017
702.126	0.0115962
702.204	0.0118659
702.282	0.0119625
702.360	0.0122292
702.438	0.0120184
702.516	0.0121686
702.594	0.0123055
702.673	0.0122839
702.751	0.0122236
702.829	0.0123045
702.907	0.0126303
702.985	0.0131932
703.063	0.0136104
703.141	0.0141846
703.219	0.0148080
703.298	0.0154862
703.376	0.0160769
703.454	0.0166914
703.532	0.0171635
703.610	0.0175427
703.688	0.0179528
703.766	0.0182133
703.844	0.0186604
703.923	0.0190006
704.001	0.0191863
704.079	0.0194262
704.157	0.0196419
704.235	0.0198038
704.313	0.0200124
704.391	0.0202484
704.469	0.0206602
704.548	0.0209210
704.626	0.0210177
704.704	0.0209986
704.782	0.0210268
704.860	0.0207184
704.938	0.0202110
705.016	0.0193781
705.094	0.0186802
705.173	0.0178483
705.251	0.0168450
705.329	0.0157349
705.407	0.0146652
705.485	0.0134574
705.563	0.0124359
705.641	0.0111854
705.719	0.00983757
705.798	0.00903465
705.876	0.00844254
705.954	0.00775352
706.032	0.00723862
706.110	0.00690155
706.188	0.00682289
706.266	0.00674835
706.344	0.00690201
706.423	0.00692894
706.501	0.00739372
706.579	0.00770401
706.657	0.00803169
706.735	0.00864799
706.813	0.00910439
706.891	0.00953827
706.969	0.0100160
707.048	0.0106179
707.126	0.0110328
707.204	0.0113120
707.282	0.0115092
707.360	0.0116637
707.438	0.0118723
707.516	0.0121218
707.594	0.0123038
707.673	0.0126203
707.751	0.0130207
707.829	0.0135197
707.907	0.0139384
707.985	0.0143588
708.063	0.0150123
708.141	0.0155990
708.219	0.0161664
708.298	0.0167873
708.376	0.0172424
708.454	0.0180482
708.532	0.0185462
708.610	0.0190966
708.688	0.0194819
708.766	0.0197392
708.844	0.0200813
708.923	0.0204118
709.001	0.0207210
709.079	0.0208612
709.157	0.0210516
709.235	0.0212951
709.313	0.0214623
709.391	0.0215863
709.469	0.0216154
709.548	0.0216034
709.626	0.0213713
709.704	0.0210415
709.782	0.0208709
709.860	0.0204176
709.938	0.0196624
710.016	0.0190763
710.094	0.0179812
710.173	0.0168349
710.251	0.0156950
710.329	0.0144540
710.407	0.0131039
710.485	0.0118896
710.563	0.0106694
710.641	0.00943413
710.719	0.00838921
710.798	0.00755905
710.876	0.00679184
710.954	0.00631203
711.032	0.00600113
711.110	0.00587257
711.188	0.00584846
711.266	0.00582077
711.344	0.00606316
711.423	0.00645378
711.501	0.00680771
711.579	0.00735466
711.657	0.00800377
711.735	0.00841255
711.813	0.00891129
711.891	0.00924133
711.969	0.00988609
712.048	0.0102732
712.126	0.0107047
712.204	0.0110086
712.282	0.0114310
712.360	0.0120071
712.438	0.0125017
712.516	0.0130328
712.594	0.0135949
712.673	0.0140997
712.751	0.0147919
712.829	0.0152118
712.907	0.0157708
712.985	0.0163731
713.063	0.0169221
713.141	0.0174869
713.219	0.0177784
713.298	0.0182265
713.376	0.0185971
713.454	0.0191068
713.532	0.0192998
713.610	0.0194241
713.688	0.0195918
713.766	0.0196631
713.844	0.0197740
713.923	0.0199045
714.001	0.0199230
714.079	0.0201038
714.157	0.0201771
714.235	0.0200938
714.313	0.0199827
714.391	0.0200681
714.469	0.0199184
714.548	0.0195698
714.626	0.0191248
714.704	0.0188976
714.782	0.0183099
714.860	0.0177612
714.938	0.0172425
715.016	0.0164039
715.094	0.0159119
715.173	0.0150409
715.251	0.0142592
715.329	0.0136446
715.407	0.0129222
715.485	0.0124708
715.563	0.0117850
715.641	0.0112528
715.719	0.0108835
715.798	0.0105645
715.876	0.0102225
715.954	0.0100102
716.032	0.00980682
716.110	0.00973732
716.188	0.00944000
716.266	0.00963982
716.344	0.00960327
716.423	0.00966614
716.501	0.00976730
716.579	0.00965355
716.657	0.00990425
716.735	0.00975121
716.813	0.00986771
716.891	0.00991791
716.969	0.0100563
717.048	0.0102198
717.126	0.0103674
717.204	0.0103963
717.282	0.0106512
717.360	0.0109113
717.438	0.0111711
717.516	0.0115998
717.594	0.0119276
717.673	0.0123738
717.751	0.0128137
717.829	0.0132655
717.907	0.0139806
717.985	0.0144653
718.063	0.0151867
718.141	0.0156071
718.219	0.0161948
718.298	0.0169267
718.376	0.0172877
718.454	0.0177091
718.532	0.0181580
718.610	0.0185404
718.688	0.0184648
718.766	0.0186445
718.844	0.0188819
718.923	0.0186701
719.001	0.0185738
719.079	0.0183367
719.157	0.0182193
719.235	0.0180558
719.313	0.0178138
719.391	0.0175653
719.469	0.0174705
719.548	0.0173041
719.626	0.0168959
719.704	0.0166740
719.782	0.0164253
719.860	0.0163181
719.938	0.0159553
720.016	0.0157893
720.094	0.0156673
720.173	0.0152831
720.251	0.0151640
720.329	0.0149442
720.407	0.0147077
720.485	0.0144096
720.563	0.0142129
720.641	0.0139955
720.719	0.0138480
720.798	0.0136101
720.876	0.0135593
720.954	0.0133822
721.032	0.0131662
721.110	0.0129877
721.188	0.0126986
721.266	0.0125914
721.344	0.0125025
721.423	0.0123257
721.501	0.0122015
721.579	0.0121439
721.657	0.0118607
721.735	0.0116129
721.813	0.0114829
721.891	0.0113151
721.969	0.0113470
722.048	0.0113603
722.126	0.0112552
722.204	0.0111827
722.282	0.0113060
722.360	0.0114419
722.438	0.0116252
722.516	0.0117849
722.594	0.0120281
722.673	0.0122198
722.751	0.0125060
722.829	0.0127983
722.907	0.0130122
722.985	0.0133138
723.063	0.0133353
723.141	0.0136411
723.219	0.0139927
723.298	0.0141068
723.376	0.0144524
723.454	0.0145259
723.532	0.0147601
723.610	0.0150674
723.688	0.0153963
723.766	0.0155945
723.844	0.0158492
723.923	0.0158662
724.001	0.0160716
724.079	0.0161973
724.157	0.0162320
724.235	0.0162686
724.313	0.0161610
724.391	0.0160879
724.469	0.0159157
724.548	0.0156791
724.626	0.0152884
724.704	0.0149324
724.782	0.0147890
724.860	0.0145750
724.938	0.0141376
725.016	0.0140326
725.094	0.0140044
725.173	0.0137258
725.251	0.0138356
725.329	0.0138448
725.407	0.0141809
725.485	0.0142873
725.563	0.0147111
725.641	0.0148146
725.719	0.0152926
725.798	0.0154755
725.876	0.0158276
725.954	0.0159006
726.032	0.0161994
726.110	0.0163955
726.188	0.0163739
726.266	0.0163778
726.344	0.0162979
726.423	0.0160798
726.501	0.0158353
726.579	0.0156429
726.657	0.0153012
726.735	0.0150217
726.813	0.0146359
726.891	0.0143653
726.969	0.0140807
727.048	0.0138055
727.126	0.0135120
727.204	0.0132885
727.282	0.0131890
727.360	0.0129167
727.438	0.0129522
727.516	0.0129136
727.594	0.0126881
727.673	0.0127309
727.751	0.0129007
727.829	0.0129148
727.907	0.0129318
727.985	0.0130127
728.063	0.0129100
728.141	0.0129893
728.219	0.0130421
728.298	0.0131856
728.376	0.0132049
728.454	0.0131878
728.532	0.0131797
728.610	0.0130320
728.688	0.0131463
728.766	0.0131536
728.844	0.0132516
728.923	0.0132660
729.001	0.0133884
729.079	0.0134612
729.157	0.0134670
729.235	0.0134845
729.313	0.0134339
729.391	0.0133840
729.469	0.0134042
729.548	0.0133916
729.626	0.0132383
729.704	0.0132897
729.782	0.0132937
729.860	0.0129881
729.938	0.0131486
730.016	0.0132890
730.094	0.0133706
730.173	0.0134907
730.251	0.0136675
730.329	0.0138118
730.407	0.0139906
730.485	0.0143085
730.563	0.0146619
730.641	0.0148067
730.719	0.0150561
730.798	0.0153304
730.876	0.0153826
730.954	0.0156817
731.032	0.0158975
731.110	0.0159146
731.188	0.0160056
731.266	0.0162183
731.344	0.0163730
731.423	0.0162752
731.501	0.0163263
731.579	0.0163671
731.657	0.0162057
731.735	0.0161164
731.813	0.0159769
731.891	0.0159502
731.969	0.0161166
732.048	0.0158590
732.126	0.0158277
732.204	0.0157951
732.282	0.0154131
732.360	0.0153210
732.438	0.0153119
732.516	0.0151904
732.594	0.0148856
732.673	0.0148916
732.751	0.0145992
732.829	0.0144247
732.907	0.0143605
732.985	0.0141072
733.063	0.0138759
733.141	0.0138449
733.219	0.0136803
733.298	0.0134458
733.376	0.0135355
733.454	0.0134005
733.532	0.0135093
733.610	0.0132253
733.688	0.0132870
733.766	0.0133913
733.844	0.0132101
733.923	0.0132029
734.001	0.0131388
734.079	0.0130481
734.157	0.0129590
734.235	0.0130165
734.313	0.0129285
734.391	0.0127478
734.469	0.0128514
734.548	0.0127148
734.626	0.0127917
734.704	0.0127334
734.782	0.0126529
734.860	0.0126354
734.938	0.0128587
735.016	0.0128110
735.094	0.0130078
735.173	0.0130518
735.251	0.0131030
735.329	0.0130154
735.407	0.0132594
