05/14/2022	19:17:50	Ver.	4.1	UNKNOWN
Optical Delay	650.009681	Delta X		0.078125	Sweeps	1	Scan Rate	0/0
Coordinates	Axis 1	NaN	Axis 2	NaN	Axis 3	NaN	Axis 4	NaN	Axis 5	NaN	Axis 6	0.000000
TX Power	0.000000	RX Power	0.000000

650.010	0.0144047
650.088	0.0144608
650.166	0.0143796
650.244	0.0144168
650.322	0.0144398
650.400	0.0144800
650.478	0.0144021
650.557	0.0144266
650.635	0.0143959
650.713	0.0143652
650.791	0.0142712
650.869	0.0143824
650.947	0.0144254
651.025	0.0144284
651.103	0.0144434
651.182	0.0144104
651.260	0.0143104
651.338	0.0143841
651.416	0.0144796
651.494	0.0144472
651.572	0.0143737
651.650	0.0145341
651.728	0.0143572
651.807	0.0143955
651.885	0.0144424
651.963	0.0143580
652.041	0.0144998
652.119	0.0143258
652.197	0.0143974
652.275	0.0144897
652.353	0.0143818
652.432	0.0142336
652.510	0.0143999
652.588	0.0144212
652.666	0.0143745
652.744	0.0144006
652.822	0.0143571
652.900	0.0144471
652.978	0.0145860
653.057	0.0144236
653.135	0.0143319
653.213	0.0143444
653.291	0.0143604
653.369	0.0143726
653.447	0.0143020
653.525	0.0143320
653.603	0.0143214
653.682	0.0143350
653.760	0.0145150
653.838	0.0144660
653.916	0.0143717
653.994	0.0145812
654.072	0.0142500
654.150	0.0142633
654.228	0.0143623
654.307	0.0143682
654.385	0.0143520
654.463	0.0143618
654.541	0.0144506
654.619	0.0144526
654.697	0.0144304
654.775	0.0144360
654.853	0.0145522
654.932	0.0144095
655.010	0.0142815
655.088	0.0143338
655.166	0.0143444
655.244	0.0142731
655.322	0.0142869
655.400	0.0143806
655.478	0.0143407
655.557	0.0143058
655.635	0.0144798
655.713	0.0144946
655.791	0.0144447
655.869	0.0142347
655.947	0.0142796
656.025	0.0142781
656.103	0.0143544
656.182	0.0144488
656.260	0.0142561
656.338	0.0141912
656.416	0.0144276
656.494	0.0144024
656.572	0.0142469
656.650	0.0144107
656.728	0.0144162
656.807	0.0144925
656.885	0.0143821
656.963	0.0144569
657.041	0.0144046
657.119	0.0144904
657.197	0.0143257
657.275	0.0143661
657.353	0.0143353
657.432	0.0144205
657.510	0.0143339
657.588	0.0144214
657.666	0.0142812
657.744	0.0144054
657.822	0.0143022
657.900	0.0144604
657.978	0.0144565
658.057	0.0142577
658.135	0.0143665
658.213	0.0145009
658.291	0.0144027
658.369	0.0145219
658.447	0.0143588
658.525	0.0144746
658.603	0.0144360
658.682	0.0145129
658.760	0.0144173
658.838	0.0144006
658.916	0.0144231
658.994	0.0144223
659.072	0.0143872
659.150	0.0144111
659.228	0.0145759
659.307	0.0144823
659.385	0.0144698
659.463	0.0144154
659.541	0.0143942
659.619	0.0143487
659.697	0.0143452
659.775	0.0144556
659.853	0.0144447
659.932	0.0145052
660.010	0.0144693
660.088	0.0143777
660.166	0.0143159
660.244	0.0145008
660.322	0.0143474
660.400	0.0143613
660.478	0.0144782
660.557	0.0145116
660.635	0.0144936
660.713	0.0142926
660.791	0.0143723
660.869	0.0145654
660.947	0.0144516
661.025	0.0144068
661.103	0.0144897
661.182	0.0143259
661.260	0.0144339
661.338	0.0144799
661.416	0.0144276
661.494	0.0143382
661.572	0.0144213
661.650	0.0144352
661.728	0.0142712
661.807	0.0144815
661.885	0.0145043
661.963	0.0144442
662.041	0.0144476
662.119	0.0144201
662.197	0.0144718
662.275	0.0144927
662.353	0.0143290
662.432	0.0145023
662.510	0.0144519
662.588	0.0144637
662.666	0.0144681
662.744	0.0143423
662.822	0.0144501
662.900	0.0144875
662.978	0.0145106
663.057	0.0143549
663.135	0.0143729
663.213	0.0145383
663.291	0.0143514
663.369	0.0144538
663.447	0.0144236
663.525	0.0145387
663.603	0.0145209
663.682	0.0145984
663.760	0.0145228
663.838	0.0144590
663.916	0.0143607
663.994	0.0143871
664.072	0.0145106
664.150	0.0144415
664.228	0.0143528
664.307	0.0144373
664.385	0.0144458
664.463	0.0143544
664.541	0.0143176
664.619	0.0143898
664.697	0.0144608
664.775	0.0144188
664.853	0.0144748
664.932	0.0143631
665.010	0.0144724
665.088	0.0143332
665.166	0.0144019
665.244	0.0144130
665.322	0.0144281
665.400	0.0144774
665.478	0.0144639
665.557	0.0143694
665.635	0.0144138
665.713	0.0143429
665.791	0.0144498
665.869	0.0143124
665.947	0.0144436
666.025	0.0143745
666.103	0.0144347
666.182	0.0144244
666.260	0.0145159
666.338	0.0143245
666.416	0.0143819
666.494	0.0145103
666.572	0.0143940
666.650	0.0144582
666.728	0.0144118
666.807	0.0144376
666.885	0.0143793
666.963	0.0143024
667.041	0.0144223
667.119	0.0145147
667.197	0.0143900
667.275	0.0144169
667.353	0.0145119
667.432	0.0144347
667.510	0.0143363
667.588	0.0143314
667.666	0.0143672
667.744	0.0144196
667.822	0.0143508
667.900	0.0145187
667.978	0.0143635
668.057	0.0143753
668.135	0.0143453
668.213	0.0144006
668.291	0.0144042
668.369	0.0143134
668.447	0.0143484
668.525	0.0143750
668.603	0.0142522
668.682	0.0145677
668.760	0.0144756
668.838	0.0144865
668.916	0.0143706
668.994	0.0143496
669.072	0.0143659
669.150	0.0144092
669.228	0.0143488
669.307	0.0143578
669.385	0.0142784
669.463	0.0143938
669.541	0.0143510
669.619	0.0143911
669.697	0.0143665
669.775	0.0145319
669.853	0.0143492
669.932	0.0143565
670.010	0.0144087
670.088	0.0143208
670.166	0.0143823
670.244	0.0144361
670.322	0.0143267
670.400	0.0143629
670.478	0.0145177
670.557	0.0144344
670.635	0.0143440
670.713	0.0143165
670.791	0.0143273
670.869	0.0144400
670.947	0.0143981
671.025	0.0143837
671.103	0.0144498
671.182	0.0144013
671.260	0.0142498
671.338	0.0143720
671.416	0.0144217
671.494	0.0143668
671.572	0.0143607
671.650	0.0143710
671.728	0.0144699
671.807	0.0144147
671.885	0.0144254
671.963	0.0144289
672.041	0.0143647
672.119	0.0144460
672.197	0.0143169
672.275	0.0143560
672.353	0.0142372
672.432	0.0143253
672.510	0.0144540
672.588	0.0143784
672.666	0.0142860
672.744	0.0142997
672.822	0.0144060
672.900	0.0144451
672.978	0.0144308
673.057	0.0143493
673.135	0.0143706
673.213	0.0143446
673.291	0.0144433
673.369	0.0144318
673.447	0.0142945
673.525	0.0144312
673.603	0.0143406
673.682	0.0143322
673.760	0.0144073
673.838	0.0142490
673.916	0.0143958
673.994	0.0143383
674.072	0.0143645
674.150	0.0144068
674.228	0.0143109
674.307	0.0142864
674.385	0.0144165
674.463	0.0144052
674.541	0.0143458
674.619	0.0143355
674.697	0.0143513
674.775	0.0143858
674.853	0.0141912
674.932	0.0143806
675.010	0.0144088
675.088	0.0144392
675.166	0.0144081
675.244	0.0142764
675.322	0.0144102
675.400	0.0144390
675.478	0.0143545
675.557	0.0144811
675.635	0.0143237
675.713	0.0144235
675.791	0.0143508
675.869	0.0143317
675.947	0.0142873
676.025	0.0143302
676.103	0.0142577
676.182	0.0142834
676.260	0.0143730
676.338	0.0143182
676.416	0.0143441
676.494	0.0144046
676.572	0.0143476
676.650	0.0143828
676.728	0.0144838
676.807	0.0143518
676.885	0.0143703
676.963	0.0143258
677.041	0.0143213
677.119	0.0144235
677.197	0.0144231
677.275	0.0144122
677.353	0.0143864
677.432	0.0145401
677.510	0.0143285
677.588	0.0144117
677.666	0.0144422
677.744	0.0143449
677.822	0.0143770
677.900	0.0143358
677.978	0.0143678
678.057	0.0143627
678.135	0.0144385
678.213	0.0144115
678.291	0.0144425
678.369	0.0142300
678.447	0.0143188
678.525	0.0144969
678.603	0.0145177
678.682	0.0143945
678.760	0.0143851
678.838	0.0144215
678.916	0.0144099
678.994	0.0145087
679.072	0.0143813
679.150	0.0143568
679.228	0.0142925
679.307	0.0142932
679.385	0.0143228
679.463	0.0143145
679.541	0.0142704
679.619	0.0142339
679.697	0.0142908
679.775	0.0143731
679.853	0.0143277
679.932	0.0142162
680.010	0.0145331
680.088	0.0146035
680.166	0.0146445
680.244	0.0146188
680.322	0.0146114
680.400	0.0145604
680.478	0.0146633
680.557	0.0144934
680.635	0.0143158
680.713	0.0143180
680.791	0.0142111
680.869	0.0141527
680.947	0.0141273
681.025	0.0139530
681.103	0.0140263
681.182	0.0141000
681.260	0.0141833
681.338	0.0140465
681.416	0.0141223
681.494	0.0141454
681.572	0.0142991
681.650	0.0144203
681.728	0.0145194
681.807	0.0145087
681.885	0.0150117
681.963	0.0150063
682.041	0.0149717
682.119	0.0152740
682.197	0.0152598
682.275	0.0151881
682.353	0.0149364
682.432	0.0148570
682.510	0.0147654
682.588	0.0145427
682.666	0.0142052
682.744	0.0139963
682.822	0.0136832
682.900	0.0136395
682.978	0.0134010
683.057	0.0132846
683.135	0.0133917
683.213	0.0134005
683.291	0.0135763
683.369	0.0137897
683.447	0.0138845
683.525	0.0141729
683.603	0.0143617
683.682	0.0144751
683.760	0.0145975
683.838	0.0146703
683.916	0.0147262
683.994	0.0149322
684.072	0.0151361
684.150	0.0151587
684.228	0.0152383
684.307	0.0153423
684.385	0.0156225
684.463	0.0158808
684.541	0.0157965
684.619	0.0156475
684.697	0.0157678
684.775	0.0157314
684.853	0.0156244
684.932	0.0154169
685.010	0.0151686
685.088	0.0147363
685.166	0.0143319
685.244	0.0139542
685.322	0.0135393
685.400	0.0133389
685.478	0.0130704
685.557	0.0129771
685.635	0.0130414
685.713	0.0129515
685.791	0.0129490
685.869	0.0129620
685.947	0.0130398
686.025	0.0132491
686.103	0.0132867
686.182	0.0134599
686.260	0.0134768
686.338	0.0137708
686.416	0.0140405
686.494	0.0142032
686.572	0.0145541
686.650	0.0147410
686.728	0.0149358
686.807	0.0151698
686.885	0.0154141
686.963	0.0158337
687.041	0.0159566
687.119	0.0163357
687.197	0.0165395
687.275	0.0164874
687.353	0.0165101
687.432	0.0167109
687.510	0.0166890
687.588	0.0163612
687.666	0.0160644
687.744	0.0158833
687.822	0.0153057
687.900	0.0149478
687.978	0.0145650
688.057	0.0141698
688.135	0.0137846
688.213	0.0135607
688.291	0.0131834
688.369	0.0132162
688.447	0.0131277
688.525	0.0130237
688.603	0.0130206
688.682	0.0130010
688.760	0.0131371
688.838	0.0131194
688.916	0.0132362
688.994	0.0132328
689.072	0.0132570
689.150	0.0134705
689.228	0.0135438
689.307	0.0137431
689.385	0.0136980
689.463	0.0138605
689.541	0.0140069
689.619	0.0142020
689.697	0.0142356
689.775	0.0144698
689.853	0.0144416
689.932	0.0144920
690.010	0.0145119
690.088	0.0145847
690.166	0.0146813
690.244	0.0146937
690.322	0.0147923
690.400	0.0148589
690.478	0.0148153
690.557	0.0149438
690.635	0.0151918
690.713	0.0152682
690.791	0.0155788
690.869	0.0156006
690.947	0.0157029
691.025	0.0160873
691.103	0.0160931
691.182	0.0159033
691.260	0.0158627
691.338	0.0157658
691.416	0.0156311
691.494	0.0153857
691.572	0.0152880
691.650	0.0152385
691.728	0.0150565
691.807	0.0148026
691.885	0.0147247
691.963	0.0146729
692.041	0.0146159
692.119	0.0147251
692.197	0.0147367
692.275	0.0146825
692.353	0.0147064
692.432	0.0143966
692.510	0.0144765
692.588	0.0143679
692.666	0.0142585
692.744	0.0140623
692.822	0.0137276
692.900	0.0137703
692.978	0.0132485
693.057	0.0129454
693.135	0.0126022
693.213	0.0122150
693.291	0.0119501
693.369	0.0117772
693.447	0.0114598
693.525	0.0112206
693.603	0.0111462
693.682	0.0109617
693.760	0.0109644
693.838	0.0113266
693.916	0.0113314
693.994	0.0116827
694.072	0.0118574
694.150	0.0124381
694.228	0.0129245
694.307	0.0132906
694.385	0.0135864
694.463	0.0141064
694.541	0.0146455
694.619	0.0153641
694.697	0.0157980
694.775	0.0164367
694.853	0.0170724
694.932	0.0177587
695.010	0.0184274
695.088	0.0190147
695.166	0.0195881
695.244	0.0198403
695.322	0.0201691
695.400	0.0204257
695.478	0.0205088
695.557	0.0203858
695.635	0.0203085
695.713	0.0200513
695.791	0.0195935
695.869	0.0191069
695.947	0.0185181
696.025	0.0179681
696.103	0.0171731
696.182	0.0163599
696.260	0.0154185
696.338	0.0144631
696.416	0.0135791
696.494	0.0126934
696.572	0.0117252
696.650	0.0106219
696.728	0.00966263
696.807	0.00895844
696.885	0.00823647
696.963	0.00759476
697.041	0.00715378
697.119	0.00703033
697.197	0.00685707
697.275	0.00660233
697.353	0.00681328
697.432	0.00658875
697.510	0.00678329
697.588	0.00713203
697.666	0.00730942
697.744	0.00768051
697.822	0.00832863
697.900	0.00886848
697.978	0.00957710
698.057	0.0106398
698.135	0.0116526
698.213	0.0127139
698.291	0.0142270
698.369	0.0152856
698.447	0.0166624
698.525	0.0180441
698.603	0.0191005
698.682	0.0199891
698.760	0.0209325
698.838	0.0216959
698.916	0.0221472
698.994	0.0225579
699.072	0.0226021
699.150	0.0226726
699.228	0.0225101
699.307	0.0223241
699.385	0.0220451
699.463	0.0217086
699.541	0.0214119
699.619	0.0212599
699.697	0.0208064
699.775	0.0204305
699.853	0.0198389
699.932	0.0192322
700.010	0.0184013
700.088	0.0177712
700.166	0.0169363
700.244	0.0159415
700.322	0.0147466
700.400	0.0136221
700.478	0.0123083
700.557	0.0110876
700.635	0.00999863
700.713	0.00877899
700.791	0.00794884
700.869	0.00739914
700.947	0.00675224
701.025	0.00645706
701.103	0.00629829
701.182	0.00639465
701.260	0.00674019
701.338	0.00710434
701.416	0.00750450
701.494	0.00807472
701.572	0.00879349
701.650	0.00958771
701.728	0.0100631
701.807	0.0107320
701.885	0.0115009
701.963	0.0119314
702.041	0.0122444
702.119	0.0126446
702.197	0.0128597
702.275	0.0133059
702.353	0.0134581
702.432	0.0135194
702.510	0.0137290
702.588	0.0140929
702.666	0.0144176
702.744	0.0149584
702.822	0.0152646
702.900	0.0154927
702.978	0.0162398
703.057	0.0168018
703.135	0.0169859
703.213	0.0174872
703.291	0.0177792
703.369	0.0179320
703.447	0.0180983
703.525	0.0182246
703.603	0.0183567
703.682	0.0183477
703.760	0.0183861
703.838	0.0184601
703.916	0.0185062
703.994	0.0186537
704.072	0.0189590
704.150	0.0191367
704.228	0.0194141
704.307	0.0198262
704.385	0.0199854
704.463	0.0201240
704.541	0.0200681
704.619	0.0200305
704.697	0.0198040
704.775	0.0191721
704.853	0.0186094
704.932	0.0177797
705.010	0.0169029
705.088	0.0160051
705.166	0.0148222
705.244	0.0138711
705.322	0.0128158
705.400	0.0118343
705.478	0.0107404
705.557	0.00984474
705.635	0.00929245
705.713	0.00852409
705.791	0.00811516
705.869	0.00793335
705.947	0.00789429
706.025	0.00784271
706.103	0.00801193
706.182	0.00828018
706.260	0.00855682
706.338	0.00884499
706.416	0.00921486
706.494	0.00968353
706.572	0.00998596
706.650	0.0104809
706.728	0.0108817
706.807	0.0110460
706.885	0.0113965
706.963	0.0117465
707.041	0.0117538
707.119	0.0119098
707.197	0.0120086
707.275	0.0122067
707.353	0.0124215
707.432	0.0124619
707.510	0.0126948
707.588	0.0129774
707.666	0.0134397
707.744	0.0139373
707.822	0.0144546
707.900	0.0148840
707.978	0.0154790
708.057	0.0160005
708.135	0.0164683
708.213	0.0171075
708.291	0.0175866
708.369	0.0179449
708.447	0.0186195
708.525	0.0190031
708.603	0.0193752
708.682	0.0199857
708.760	0.0203469
708.838	0.0206072
708.916	0.0210389
708.994	0.0212431
709.072	0.0214174
709.150	0.0218359
709.228	0.0220387
709.307	0.0219445
709.385	0.0218864
709.463	0.0216493
709.541	0.0213888
709.619	0.0208054
709.697	0.0204374
709.775	0.0196732
709.853	0.0188824
709.932	0.0180286
710.010	0.0170681
710.088	0.0158107
710.166	0.0145355
710.244	0.0134055
710.322	0.0122356
710.400	0.0111176
710.478	0.00989578
710.557	0.00893730
710.635	0.00799812
710.713	0.00729301
710.791	0.00658081
710.869	0.00608658
710.947	0.00584358
711.025	0.00558334
711.103	0.00563477
711.182	0.00605515
711.260	0.00623962
711.338	0.00656349
711.416	0.00733963
711.494	0.00796875
711.572	0.00879738
711.650	0.00919411
711.728	0.00975502
711.807	0.0104623
711.885	0.0109226
711.963	0.0114609
712.041	0.0119646
712.119	0.0122678
712.197	0.0126898
712.275	0.0130753
712.353	0.0134128
712.432	0.0137529
712.510	0.0139704
712.588	0.0144771
712.666	0.0150246
712.744	0.0153955
712.822	0.0160973
712.900	0.0164734
712.978	0.0169560
713.057	0.0174727
713.135	0.0180385
713.213	0.0184332
713.291	0.0187884
713.369	0.0191263
713.447	0.0194639
713.525	0.0197916
713.603	0.0199424
713.682	0.0200671
713.760	0.0202325
713.838	0.0203235
713.916	0.0202905
713.994	0.0203293
714.072	0.0202844
714.150	0.0203932
714.228	0.0202534
714.307	0.0200887
714.385	0.0197870
714.463	0.0196088
714.541	0.0193090
714.619	0.0187975
714.697	0.0183970
714.775	0.0177926
714.853	0.0172734
714.932	0.0165199
715.010	0.0157645
715.088	0.0149892
715.166	0.0141124
715.244	0.0133343
715.322	0.0125934
715.400	0.0120834
715.478	0.0113243
715.557	0.0107595
715.635	0.0103326
715.713	0.00995293
715.791	0.00955444
715.869	0.00932663
715.947	0.00924393
716.025	0.00940025
716.103	0.00936287
716.182	0.00947594
716.260	0.00949516
716.338	0.00976532
716.416	0.00959976
716.494	0.00961212
716.572	0.00989082
716.650	0.00989876
716.728	0.0100538
716.807	0.0100558
716.885	0.0100948
716.963	0.0101584
717.041	0.0103103
717.119	0.0104944
717.197	0.0105037
717.275	0.0110789
717.353	0.0113624
717.432	0.0117914
717.510	0.0121737
717.588	0.0127865
717.666	0.0133494
717.744	0.0137550
717.822	0.0145776
717.900	0.0152476
717.978	0.0159422
718.057	0.0162827
718.135	0.0168667
718.213	0.0173582
718.291	0.0176871
718.369	0.0181060
718.447	0.0183506
718.525	0.0185036
718.603	0.0187202
718.682	0.0187171
718.760	0.0188966
718.838	0.0189319
718.916	0.0187199
718.994	0.0186086
719.072	0.0187033
719.150	0.0185539
719.228	0.0183956
719.307	0.0184641
719.385	0.0182730
719.463	0.0179754
719.541	0.0178413
719.619	0.0177436
719.697	0.0174921
719.775	0.0172480
719.853	0.0169511
719.932	0.0166188
720.010	0.0163161
720.088	0.0159086
720.166	0.0154704
720.244	0.0151965
720.322	0.0148691
720.400	0.0144578
720.478	0.0140505
720.557	0.0138027
720.635	0.0135736
720.713	0.0133434
720.791	0.0129433
720.869	0.0127541
720.947	0.0126218
721.025	0.0124176
721.103	0.0123158
721.182	0.0121272
721.260	0.0119611
721.338	0.0118489
721.416	0.0116183
721.494	0.0116248
721.572	0.0114521
721.650	0.0113615
721.728	0.0113528
721.807	0.0111610
721.885	0.0111499
721.963	0.0109601
722.041	0.0111035
722.119	0.0109363
722.197	0.0111373
722.275	0.0111848
722.353	0.0113552
722.432	0.0116087
722.510	0.0117621
722.588	0.0121321
722.666	0.0125638
722.744	0.0128609
722.822	0.0129103
722.900	0.0132980
722.978	0.0137566
723.057	0.0141448
723.135	0.0141683
723.213	0.0145364
723.291	0.0148436
723.369	0.0153307
723.447	0.0154190
723.525	0.0158719
723.603	0.0163976
723.682	0.0163110
723.760	0.0166265
723.838	0.0168391
723.916	0.0169064
723.994	0.0171539
724.072	0.0172186
724.150	0.0172910
724.228	0.0170572
724.307	0.0168818
724.385	0.0166787
724.463	0.0163692
724.541	0.0160796
724.619	0.0157891
724.697	0.0155358
724.775	0.0151246
724.853	0.0147811
724.932	0.0146021
725.010	0.0141595
725.088	0.0142976
725.166	0.0143272
725.244	0.0142817
725.322	0.0145335
725.400	0.0146638
725.478	0.0149862
725.557	0.0150938
725.635	0.0153638
725.713	0.0156682
725.791	0.0157672
725.869	0.0159647
725.947	0.0159217
726.025	0.0160856
726.103	0.0160925
726.182	0.0159482
726.260	0.0158780
726.338	0.0157587
726.416	0.0154616
726.494	0.0152048
726.572	0.0149674
726.650	0.0147125
726.728	0.0144153
726.807	0.0140952
726.885	0.0138538
726.963	0.0135647
727.041	0.0132340
727.119	0.0131007
727.197	0.0129312
727.275	0.0126837
727.353	0.0125544
727.432	0.0125090
727.510	0.0124184
727.588	0.0124696
727.666	0.0124762
727.744	0.0125634
727.822	0.0125645
727.900	0.0128111
727.978	0.0129163
728.057	0.0129298
728.135	0.0131239
728.213	0.0132968
728.291	0.0133874
728.369	0.0134412
728.447	0.0136375
728.525	0.0135458
728.603	0.0135202
728.682	0.0136839
728.760	0.0137544
728.838	0.0137349
728.916	0.0137196
728.994	0.0139149
729.072	0.0138612
729.150	0.0137561
729.228	0.0138802
729.307	0.0139668
729.385	0.0139127
729.463	0.0138403
729.541	0.0139841
729.619	0.0138580
729.697	0.0138763
729.775	0.0139663
729.853	0.0140804
729.932	0.0141547
730.010	0.0141935
730.088	0.0142734
730.166	0.0143602
730.244	0.0144664
730.322	0.0145568
730.400	0.0148204
730.478	0.0148744
730.557	0.0150567
730.635	0.0151711
730.713	0.0152879
730.791	0.0154905
730.869	0.0156725
730.947	0.0156927
731.025	0.0159132
731.103	0.0160196
731.182	0.0161472
731.260	0.0162523
731.338	0.0163128
731.416	0.0162843
731.494	0.0163377
731.572	0.0162415
731.650	0.0163686
731.728	0.0161099
731.807	0.0161846
731.885	0.0159167
731.963	0.0157777
732.041	0.0156419
732.119	0.0153879
732.197	0.0152030
732.275	0.0150726
732.353	0.0148889
732.432	0.0149613
732.510	0.0147937
732.588	0.0145568
732.666	0.0142632
732.744	0.0142419
732.822	0.0141481
732.900	0.0140733
732.978	0.0139163
733.057	0.0140227
733.135	0.0140273
733.213	0.0138757
733.291	0.0138946
733.369	0.0136738
733.447	0.0136498
733.525	0.0136071
733.603	0.0134860
733.682	0.0134716
733.760	0.0133702
733.838	0.0132729
733.916	0.0133978
733.994	0.0132552
734.072	0.0131606
734.150	0.0133039
734.228	0.0131849
734.307	0.0131405
734.385	0.0130331
734.463	0.0129644
734.541	0.0128809
734.619	0.0129601
734.697	0.0127679
734.775	0.0127278
734.853	0.0127394
734.932	0.0128131
735.010	0.0129948
735.088	0.0130444
735.166	0.0130915
735.244	0.0131716
735.322	0.0132079
735.400	0.0133927
