05/14/2022	19:19:30	Ver.	4.1	UNKNOWN
Optical Delay	650.009681	Delta X		0.078125	Sweeps	1	Scan Rate	0/0
Coordinates	Axis 1	NaN	Axis 2	NaN	Axis 3	NaN	Axis 4	NaN	Axis 5	NaN	Axis 6	0.000000
TX Power	0.000000	RX Power	0.000000

650.010	0.0140793
650.088	0.0139246
650.166	0.0140973
650.244	0.0142464
650.322	0.0141183
650.400	0.0140097
650.478	0.0141095
650.557	0.0140562
650.635	0.0139698
650.713	0.0141318
650.791	0.0140995
650.869	0.0140508
650.947	0.0139323
651.025	0.0139996
651.103	0.0141383
651.182	0.0140878
651.260	0.0140009
651.338	0.0142014
651.416	0.0139687
651.494	0.0140587
651.572	0.0140389
651.650	0.0140185
651.728	0.0140218
651.807	0.0141254
651.885	0.0140716
651.963	0.0140529
652.041	0.0140336
652.119	0.0141017
652.197	0.0139777
652.275	0.0140405
652.353	0.0140298
652.432	0.0140328
652.510	0.0140688
652.588	0.0141060
652.666	0.0140616
652.744	0.0141196
652.822	0.0140363
652.900	0.0141137
652.978	0.0139210
653.057	0.0141346
653.135	0.0140989
653.213	0.0140443
653.291	0.0138625
653.369	0.0140331
653.447	0.0140733
653.525	0.0141219
653.603	0.0139305
653.682	0.0141316
653.760	0.0140587
653.838	0.0138766
653.916	0.0140633
653.994	0.0141916
654.072	0.0139703
654.150	0.0139348
654.228	0.0139817
654.307	0.0139785
654.385	0.0140448
654.463	0.0140726
654.541	0.0140429
654.619	0.0139394
654.697	0.0140999
654.775	0.0141026
654.853	0.0140324
654.932	0.0140815
655.010	0.0141817
655.088	0.0138979
655.166	0.0139244
655.244	0.0140299
655.322	0.0139941
655.400	0.0140863
655.478	0.0140593
655.557	0.0140785
655.635	0.0139466
655.713	0.0139021
655.791	0.0141232
655.869	0.0140556
655.947	0.0139050
656.025	0.0140191
656.103	0.0141142
656.182	0.0139246
656.260	0.0141086
656.338	0.0139353
656.416	0.0140333
656.494	0.0140823
656.572	0.0140668
656.650	0.0139513
656.728	0.0140195
656.807	0.0139899
656.885	0.0139696
656.963	0.0140318
657.041	0.0140079
657.119	0.0141470
657.197	0.0140311
657.275	0.0139256
657.353	0.0139067
657.432	0.0140082
657.510	0.0140202
657.588	0.0139596
657.666	0.0139944
657.744	0.0139926
657.822	0.0140606
657.900	0.0140154
657.978	0.0139124
658.057	0.0140144
658.135	0.0139442
658.213	0.0138969
658.291	0.0139645
658.369	0.0139268
658.447	0.0139794
658.525	0.0140602
658.603	0.0139775
658.682	0.0139223
658.760	0.0139703
658.838	0.0138296
658.916	0.0139346
658.994	0.0141000
659.072	0.0139812
659.150	0.0139544
659.228	0.0140028
659.307	0.0139008
659.385	0.0138319
659.463	0.0139141
659.541	0.0138817
659.619	0.0139217
659.697	0.0139630
659.775	0.0139339
659.853	0.0139610
659.932	0.0139754
660.010	0.0139706
660.088	0.0139874
660.166	0.0139185
660.244	0.0139959
660.322	0.0139097
660.400	0.0140528
660.478	0.0139953
660.557	0.0139265
660.635	0.0139491
660.713	0.0138814
660.791	0.0139810
660.869	0.0141323
660.947	0.0140460
661.025	0.0140417
661.103	0.0139011
661.182	0.0139931
661.260	0.0141524
661.338	0.0138867
661.416	0.0140114
661.494	0.0140860
661.572	0.0139919
661.650	0.0139998
661.728	0.0139500
661.807	0.0140223
661.885	0.0141302
661.963	0.0138686
662.041	0.0140861
662.119	0.0139863
662.197	0.0140050
662.275	0.0140706
662.353	0.0137936
662.432	0.0139879
662.510	0.0140185
662.588	0.0139745
662.666	0.0140007
662.744	0.0139759
662.822	0.0140997
662.900	0.0140365
662.978	0.0138988
663.057	0.0139882
663.135	0.0140134
663.213	0.0140496
663.291	0.0139670
663.369	0.0140613
663.447	0.0140837
663.525	0.0139541
663.603	0.0141042
663.682	0.0141054
663.760	0.0139944
663.838	0.0140208
663.916	0.0141117
663.994	0.0141541
664.072	0.0139810
664.150	0.0140475
664.228	0.0140146
664.307	0.0140051
664.385	0.0140292
664.463	0.0141496
664.541	0.0142116
664.619	0.0140385
664.697	0.0139352
664.775	0.0140411
664.853	0.0140054
664.932	0.0140802
665.010	0.0141454
665.088	0.0142070
665.166	0.0140825
665.244	0.0140579
665.322	0.0140371
665.400	0.0139976
665.478	0.0141257
665.557	0.0141024
665.635	0.0142027
665.713	0.0142039
665.791	0.0140956
665.869	0.0140327
665.947	0.0140713
666.025	0.0140920
666.103	0.0140716
666.182	0.0141812
666.260	0.0143442
666.338	0.0141570
666.416	0.0140139
666.494	0.0141496
666.572	0.0141888
666.650	0.0142850
666.728	0.0141331
666.807	0.0140794
666.885	0.0140871
666.963	0.0142765
667.041	0.0141145
667.119	0.0141064
667.197	0.0141087
667.275	0.0141373
667.353	0.0139280
667.432	0.0140068
667.510	0.0140845
667.588	0.0141064
667.666	0.0139801
667.744	0.0140506
667.822	0.0140710
667.900	0.0141752
667.978	0.0141286
668.057	0.0140279
668.135	0.0140334
668.213	0.0139133
668.291	0.0141956
668.369	0.0140926
668.447	0.0141266
668.525	0.0141480
668.603	0.0142004
668.682	0.0141045
668.760	0.0141116
668.838	0.0142995
668.916	0.0141889
668.994	0.0141222
669.072	0.0143361
669.150	0.0142333
669.228	0.0141494
669.307	0.0141708
669.385	0.0140646
669.463	0.0140780
669.541	0.0142352
669.619	0.0142328
669.697	0.0141933
669.775	0.0140842
669.853	0.0140697
669.932	0.0140592
670.010	0.0140912
670.088	0.0140661
670.166	0.0140778
670.244	0.0141803
670.322	0.0141625
670.400	0.0141553
670.478	0.0143192
670.557	0.0140420
670.635	0.0141343
670.713	0.0140518
670.791	0.0141328
670.869	0.0142324
670.947	0.0142395
671.025	0.0140934
671.103	0.0141561
671.182	0.0141119
671.260	0.0141027
671.338	0.0141514
671.416	0.0141375
671.494	0.0141533
671.572	0.0142166
671.650	0.0141433
671.728	0.0141376
671.807	0.0141917
671.885	0.0140754
671.963	0.0142091
672.041	0.0142448
672.119	0.0140991
672.197	0.0141117
672.275	0.0140741
672.353	0.0141074
672.432	0.0141551
672.510	0.0141132
672.588	0.0141357
672.666	0.0142255
672.744	0.0140511
672.822	0.0141213
672.900	0.0141691
672.978	0.0141624
673.057	0.0140855
673.135	0.0142035
673.213	0.0140560
673.291	0.0142194
673.369	0.0141333
673.447	0.0140755
673.525	0.0141791
673.603	0.0140908
673.682	0.0141733
673.760	0.0142130
673.838	0.0142185
673.916	0.0141332
673.994	0.0140511
674.072	0.0140793
674.150	0.0140694
674.228	0.0141061
674.307	0.0141102
674.385	0.0139710
674.463	0.0142300
674.541	0.0141718
674.619	0.0140416
674.697	0.0140174
674.775	0.0140392
674.853	0.0140745
674.932	0.0140425
675.010	0.0139677
675.088	0.0140586
675.166	0.0141026
675.244	0.0140018
675.322	0.0141817
675.400	0.0139545
675.478	0.0139298
675.557	0.0139999
675.635	0.0140614
675.713	0.0139079
675.791	0.0138711
675.869	0.0140615
675.947	0.0141013
676.025	0.0140672
676.103	0.0140211
676.182	0.0139342
676.260	0.0139384
676.338	0.0138859
676.416	0.0139297
676.494	0.0140481
676.572	0.0140420
676.650	0.0139359
676.728	0.0140676
676.807	0.0140376
676.885	0.0138726
676.963	0.0140018
677.041	0.0140937
677.119	0.0138306
677.197	0.0139420
677.275	0.0139879
677.353	0.0139526
677.432	0.0138589
677.510	0.0138615
677.588	0.0139541
677.666	0.0138821
677.744	0.0139156
677.822	0.0140039
677.900	0.0140430
677.978	0.0142407
678.057	0.0140878
678.135	0.0142874
678.213	0.0141943
678.291	0.0141943
678.369	0.0143604
678.447	0.0141753
678.525	0.0139146
678.603	0.0138261
678.682	0.0138803
678.760	0.0135548
678.838	0.0135155
678.916	0.0134338
678.994	0.0134945
679.072	0.0135544
679.150	0.0137064
679.228	0.0136534
679.307	0.0136926
679.385	0.0138922
679.463	0.0138989
679.541	0.0140948
679.619	0.0140742
679.697	0.0141076
679.775	0.0141792
679.853	0.0141365
679.932	0.0143124
680.010	0.0146494
680.088	0.0144432
680.166	0.0143987
680.244	0.0144221
680.322	0.0145012
680.400	0.0143876
680.478	0.0143439
680.557	0.0141520
680.635	0.0140508
680.713	0.0140850
680.791	0.0137046
680.869	0.0133831
680.947	0.0130839
681.025	0.0129676
681.103	0.0125993
681.182	0.0125118
681.260	0.0125958
681.338	0.0124715
681.416	0.0125070
681.494	0.0127924
681.572	0.0132250
681.650	0.0134327
681.728	0.0138473
681.807	0.0142249
681.885	0.0147583
681.963	0.0151298
682.041	0.0151855
682.119	0.0155484
682.197	0.0154947
682.275	0.0157489
682.353	0.0157679
682.432	0.0155253
682.510	0.0152401
682.588	0.0150474
682.666	0.0147936
682.744	0.0146239
682.822	0.0143687
682.900	0.0141643
682.978	0.0138925
683.057	0.0136880
683.135	0.0133598
683.213	0.0131320
683.291	0.0129859
683.369	0.0128478
683.447	0.0127251
683.525	0.0127670
683.603	0.0126144
683.682	0.0125716
683.760	0.0126674
683.838	0.0127261
683.916	0.0128557
683.994	0.0128870
684.072	0.0128748
684.150	0.0129987
684.228	0.0130376
684.307	0.0132996
684.385	0.0134147
684.463	0.0136601
684.541	0.0138448
684.619	0.0139310
684.697	0.0143815
684.775	0.0148468
684.853	0.0152887
684.932	0.0154043
685.010	0.0157446
685.088	0.0160732
685.166	0.0161483
685.244	0.0160851
685.322	0.0161174
685.400	0.0158672
685.478	0.0154190
685.557	0.0152892
685.635	0.0147823
685.713	0.0143896
685.791	0.0141622
685.869	0.0137566
685.947	0.0135313
686.025	0.0134312
686.103	0.0135638
686.182	0.0134077
686.260	0.0135876
686.338	0.0136636
686.416	0.0137040
686.494	0.0136115
686.572	0.0137247
686.650	0.0134806
686.728	0.0133750
686.807	0.0131224
686.885	0.0128416
686.963	0.0125986
687.041	0.0122866
687.119	0.0120706
687.197	0.0119415
687.275	0.0119339
687.353	0.0119619
687.432	0.0122829
687.510	0.0123209
687.588	0.0126276
687.666	0.0129947
687.744	0.0134222
687.822	0.0138871
687.900	0.0142130
687.978	0.0148081
688.057	0.0152798
688.135	0.0153840
688.213	0.0157295
688.291	0.0160065
688.369	0.0160918
688.447	0.0163766
688.525	0.0164175
688.603	0.0163479
688.682	0.0163335
688.760	0.0164464
688.838	0.0162753
688.916	0.0159380
688.994	0.0158158
689.072	0.0156269
689.150	0.0154040
689.228	0.0150074
689.307	0.0147014
689.385	0.0140961
689.463	0.0138277
689.541	0.0134236
689.619	0.0131252
689.697	0.0128438
689.775	0.0123560
689.853	0.0123716
689.932	0.0120403
690.010	0.0119080
690.088	0.0121223
690.166	0.0120477
690.244	0.0122449
690.322	0.0124026
690.400	0.0127225
690.478	0.0130192
690.557	0.0132713
690.635	0.0135593
690.713	0.0137741
690.791	0.0140751
690.869	0.0144140
690.947	0.0146947
691.025	0.0147819
691.103	0.0148938
691.182	0.0148763
691.260	0.0149721
691.338	0.0149943
691.416	0.0150018
691.494	0.0149118
691.572	0.0146753
691.650	0.0145663
691.728	0.0143201
691.807	0.0139761
691.885	0.0137595
691.963	0.0134164
692.041	0.0132828
692.119	0.0128677
692.197	0.0128191
692.275	0.0127538
692.353	0.0127245
692.432	0.0128449
692.510	0.0129928
692.588	0.0132018
692.666	0.0134016
692.744	0.0136787
692.822	0.0140776
692.900	0.0142869
692.978	0.0146198
693.057	0.0149034
693.135	0.0150768
693.213	0.0154205
693.291	0.0157085
693.369	0.0156854
693.447	0.0159045
693.525	0.0159747
693.603	0.0159965
693.682	0.0160802
693.760	0.0160969
693.838	0.0160057
693.916	0.0159868
693.994	0.0159557
694.072	0.0156654
694.150	0.0154873
694.228	0.0151552
694.307	0.0150651
694.385	0.0146985
694.463	0.0143755
694.541	0.0142103
694.619	0.0140588
694.697	0.0138509
694.775	0.0135917
694.853	0.0134665
694.932	0.0132840
695.010	0.0131260
695.088	0.0129973
695.166	0.0127513
695.244	0.0125803
695.322	0.0123329
695.400	0.0119808
695.478	0.0117022
695.557	0.0115231
695.635	0.0113007
695.713	0.0107597
695.791	0.0107655
695.869	0.0106615
695.947	0.0105322
696.025	0.0105446
696.103	0.0106467
696.182	0.0110154
696.260	0.0112132
696.338	0.0114859
696.416	0.0119361
696.494	0.0122301
696.572	0.0127059
696.650	0.0131985
696.728	0.0137029
696.807	0.0143272
696.885	0.0148248
696.963	0.0153316
697.041	0.0160049
697.119	0.0166225
697.197	0.0170001
697.275	0.0175265
697.353	0.0178965
697.432	0.0182970
697.510	0.0185569
697.588	0.0186800
697.666	0.0188621
697.744	0.0188605
697.822	0.0187318
697.900	0.0187499
697.978	0.0182796
698.057	0.0180128
698.135	0.0177216
698.213	0.0172979
698.291	0.0169137
698.369	0.0162859
698.447	0.0159685
698.525	0.0157317
698.603	0.0152842
698.682	0.0148074
698.760	0.0145274
698.838	0.0141360
698.916	0.0138866
698.994	0.0136073
699.072	0.0131492
699.150	0.0129032
699.228	0.0124764
699.307	0.0122144
699.385	0.0120373
699.463	0.0117116
699.541	0.0113456
699.619	0.0110851
699.697	0.0106739
699.775	0.0103388
699.853	0.00999916
699.932	0.00984428
700.010	0.00940697
700.088	0.00903526
700.166	0.00878937
700.244	0.00854034
700.322	0.00838562
700.400	0.00825996
700.478	0.00817581
700.557	0.00814255
700.635	0.00813423
700.713	0.00857666
700.791	0.00900436
700.869	0.00952049
700.947	0.0102713
701.025	0.0109346
701.103	0.0119414
701.182	0.0130286
701.260	0.0139779
701.338	0.0151294
701.416	0.0161559
701.494	0.0173307
701.572	0.0183008
701.650	0.0191445
701.728	0.0198521
701.807	0.0204345
701.885	0.0209919
701.963	0.0214812
702.041	0.0217765
702.119	0.0218890
702.197	0.0219258
702.275	0.0219994
702.353	0.0219314
702.432	0.0216545
702.510	0.0214597
702.588	0.0210812
702.666	0.0205826
702.744	0.0201669
702.822	0.0194688
702.900	0.0190569
702.978	0.0181995
703.057	0.0173418
703.135	0.0163448
703.213	0.0154179
703.291	0.0143632
703.369	0.0133016
703.447	0.0123570
703.525	0.0111967
703.603	0.0103814
703.682	0.00957504
703.760	0.00869019
703.838	0.00803696
703.916	0.00750496
703.994	0.00690964
704.072	0.00679138
704.150	0.00646637
704.228	0.00620743
704.307	0.00624641
704.385	0.00657013
704.463	0.00684937
704.541	0.00740677
704.619	0.00778893
704.697	0.00820801
704.775	0.00892761
704.853	0.00956154
704.932	0.0101571
705.010	0.0109005
705.088	0.0116919
705.166	0.0122312
705.244	0.0126835
705.322	0.0134118
705.400	0.0140527
705.478	0.0143485
705.557	0.0148442
705.635	0.0151285
705.713	0.0152856
705.791	0.0158746
705.869	0.0160785
705.947	0.0163087
706.025	0.0165647
706.103	0.0166988
706.182	0.0168748
706.260	0.0170409
706.338	0.0171281
706.416	0.0171495
706.494	0.0171821
706.572	0.0172612
706.650	0.0172293
706.728	0.0171236
706.807	0.0169806
706.885	0.0170716
706.963	0.0169955
707.041	0.0169086
707.119	0.0168758
707.197	0.0169172
707.275	0.0167661
707.353	0.0168501
707.432	0.0166875
707.510	0.0168230
707.588	0.0168595
707.666	0.0167650
707.744	0.0168335
707.822	0.0168993
707.900	0.0169447
707.978	0.0168381
708.057	0.0169547
708.135	0.0169098
708.213	0.0166314
708.291	0.0162602
708.369	0.0158157
708.447	0.0149290
708.525	0.0145362
708.603	0.0137151
708.682	0.0127660
708.760	0.0119592
708.838	0.0111977
708.916	0.0105596
708.994	0.00982880
709.072	0.00930077
709.150	0.00881836
709.228	0.00874138
709.307	0.00863243
709.385	0.00857391
709.463	0.00878883
709.541	0.00908356
709.619	0.00937645
709.697	0.00983910
709.775	0.0105577
709.853	0.0109534
709.932	0.0115598
710.010	0.0119133
710.088	0.0125493
710.166	0.0128386
710.244	0.0134474
710.322	0.0136878
710.400	0.0139449
710.478	0.0140079
710.557	0.0139871
710.635	0.0139859
710.713	0.0137109
710.791	0.0134672
710.869	0.0133366
710.947	0.0130486
711.025	0.0126096
711.103	0.0124598
711.182	0.0123826
711.260	0.0123361
711.338	0.0123521
711.416	0.0123289
711.494	0.0124918
711.572	0.0126981
711.650	0.0130760
711.728	0.0134214
711.807	0.0139501
711.885	0.0145493
711.963	0.0150278
712.041	0.0158144
712.119	0.0162591
712.197	0.0167058
712.275	0.0173666
712.353	0.0178634
712.432	0.0185362
712.510	0.0188775
712.588	0.0192881
712.666	0.0196614
712.744	0.0199596
712.822	0.0202820
712.900	0.0202325
712.978	0.0204387
713.057	0.0204062
713.135	0.0203493
713.213	0.0201617
713.291	0.0198230
713.369	0.0195223
713.447	0.0192535
713.525	0.0187050
713.603	0.0179700
713.682	0.0172205
713.760	0.0164012
713.838	0.0155429
713.916	0.0145420
713.994	0.0135129
714.072	0.0124299
714.150	0.0115396
714.228	0.0105030
714.307	0.00975754
714.385	0.00894012
714.463	0.00827103
714.541	0.00783257
714.619	0.00747704
714.697	0.00721367
714.775	0.00706650
714.853	0.00726891
714.932	0.00735245
715.010	0.00744110
715.088	0.00777176
715.166	0.00819893
715.244	0.00863533
715.322	0.00899918
715.400	0.00945122
715.478	0.0100421
715.557	0.0106592
715.635	0.0112163
715.713	0.0114881
715.791	0.0121267
715.869	0.0125484
715.947	0.0131982
716.025	0.0135876
716.103	0.0139011
716.182	0.0142693
716.260	0.0144133
716.338	0.0146441
716.416	0.0148460
716.494	0.0148571
716.572	0.0149762
716.650	0.0149561
716.728	0.0149992
716.807	0.0150374
716.885	0.0151661
716.963	0.0150758
717.041	0.0152790
717.119	0.0155564
717.197	0.0157204
717.275	0.0161649
717.353	0.0165466
717.432	0.0166724
717.510	0.0169753
717.588	0.0173419
717.666	0.0177434
717.744	0.0178802
717.822	0.0180650
717.900	0.0182877
717.978	0.0184721
718.057	0.0186107
718.135	0.0185156
718.213	0.0185434
718.291	0.0184777
718.369	0.0184457
718.447	0.0183638
718.525	0.0182938
718.603	0.0182779
718.682	0.0180788
718.760	0.0179573
718.838	0.0177542
718.916	0.0172147
718.994	0.0168693
719.072	0.0161894
719.150	0.0155846
719.228	0.0148328
719.307	0.0142056
719.385	0.0135854
719.463	0.0128873
719.541	0.0122932
719.619	0.0117174
719.697	0.0109724
719.775	0.0106129
719.853	0.0103426
719.932	0.00983025
720.010	0.00976715
720.088	0.00979187
720.166	0.00965179
720.244	0.00983566
720.322	0.00990036
720.400	0.0101745
720.478	0.0102058
720.557	0.0102232
720.635	0.0105800
720.713	0.0107191
720.791	0.0108350
720.869	0.0109974
720.947	0.0110278
721.025	0.0111140
721.103	0.0112566
721.182	0.0112917
721.260	0.0113114
721.338	0.0113281
721.416	0.0117351
721.494	0.0118041
721.572	0.0118651
721.650	0.0120692
721.728	0.0122440
721.807	0.0124529
721.885	0.0126898
721.963	0.0129185
722.041	0.0132497
722.119	0.0135847
722.197	0.0140396
722.275	0.0143573
722.353	0.0147419
722.432	0.0149985
722.510	0.0153048
722.588	0.0156887
722.666	0.0159208
722.744	0.0161775
722.822	0.0162688
722.900	0.0164587
722.978	0.0167234
723.057	0.0168451
723.135	0.0169497
723.213	0.0172470
723.291	0.0173382
723.369	0.0175690
723.447	0.0176746
723.525	0.0178153
723.603	0.0180726
723.682	0.0181498
723.760	0.0181693
723.838	0.0182099
723.916	0.0184809
723.994	0.0183389
724.072	0.0182735
724.150	0.0181232
724.228	0.0179321
724.307	0.0176097
724.385	0.0173095
724.463	0.0167714
724.541	0.0163334
724.619	0.0158291
724.697	0.0153465
724.775	0.0149304
724.853	0.0142834
724.932	0.0137616
725.010	0.0133129
725.088	0.0129427
725.166	0.0124877
725.244	0.0120703
725.322	0.0119344
725.400	0.0117871
725.478	0.0116386
725.557	0.0113523
725.635	0.0114459
725.713	0.0113490
725.791	0.0111714
725.869	0.0111817
725.947	0.0111095
726.025	0.0107949
726.103	0.0107257
726.182	0.0106595
726.260	0.0106004
726.338	0.0103748
726.416	0.0103259
726.494	0.0103362
726.572	0.0103333
726.650	0.0103587
726.728	0.0104248
726.807	0.0105669
726.885	0.0107256
726.963	0.0107969
727.041	0.0111189
727.119	0.0112776
727.197	0.0116035
727.275	0.0120130
727.353	0.0122784
727.432	0.0123661
727.510	0.0127382
727.588	0.0130846
727.666	0.0135255
727.744	0.0138801
727.822	0.0142506
727.900	0.0144815
727.978	0.0147426
728.057	0.0150005
728.135	0.0153956
728.213	0.0157195
728.291	0.0159069
728.369	0.0161916
728.447	0.0163407
728.525	0.0165855
728.603	0.0166443
728.682	0.0169318
728.760	0.0170732
728.838	0.0171069
728.916	0.0173746
728.994	0.0174122
729.072	0.0173116
729.150	0.0173553
729.228	0.0174831
729.307	0.0172982
729.385	0.0171794
729.463	0.0170456
729.541	0.0167828
729.619	0.0166425
729.697	0.0164150
729.775	0.0162180
729.853	0.0159362
729.932	0.0156975
730.010	0.0154110
730.088	0.0151535
730.166	0.0149324
730.244	0.0145742
730.322	0.0143790
730.400	0.0141609
730.478	0.0139248
730.557	0.0138042
730.635	0.0137380
730.713	0.0136223
730.791	0.0135210
730.869	0.0133819
730.947	0.0132505
731.025	0.0132152
731.103	0.0130988
731.182	0.0131123
731.260	0.0128786
731.338	0.0126946
731.416	0.0126989
731.494	0.0124570
731.572	0.0123347
731.650	0.0122772
731.728	0.0121787
731.807	0.0120624
731.885	0.0119798
731.963	0.0119062
732.041	0.0118406
732.119	0.0120238
732.197	0.0120207
732.275	0.0119817
732.353	0.0119906
732.432	0.0121805
732.510	0.0122300
732.588	0.0121391
732.666	0.0120915
732.744	0.0121928
732.822	0.0123833
732.900	0.0122310
732.978	0.0121394
733.057	0.0122318
733.135	0.0121340
733.213	0.0122434
733.291	0.0123000
733.369	0.0125745
733.447	0.0126700
733.525	0.0129872
733.603	0.0132735
733.682	0.0134932
733.760	0.0137784
733.838	0.0140237
733.916	0.0144633
733.994	0.0148468
734.072	0.0152293
734.150	0.0156348
734.228	0.0159873
734.307	0.0161787
734.385	0.0164900
734.463	0.0166479
734.541	0.0167241
734.619	0.0167477
734.697	0.0167223
734.775	0.0168090
734.853	0.0166929
734.932	0.0164050
735.010	0.0160904
735.088	0.0158800
735.166	0.0156229
735.244	0.0152774
735.322	0.0148177
735.400	0.0146371
735.478	0.0143967
