05/14/2022	19:21:05	Ver.	4.1	UNKNOWN
Optical Delay	650.009681	Delta X		0.078125	Sweeps	1	Scan Rate	0/0
Coordinates	Axis 1	NaN	Axis 2	NaN	Axis 3	NaN	Axis 4	NaN	Axis 5	NaN	Axis 6	0.000000
TX Power	0.000000	RX Power	0.000000

650.010	0.0146872
650.088	0.0148099
650.166	0.0147322
650.244	0.0146169
650.322	0.0147621
650.400	0.0147863
650.478	0.0148566
650.557	0.0146868
650.635	0.0146969
650.713	0.0145358
650.791	0.0145392
650.869	0.0146559
650.947	0.0146969
651.025	0.0145039
651.103	0.0146306
651.182	0.0144879
651.260	0.0144899
651.338	0.0146047
651.416	0.0145419
651.494	0.0145168
651.572	0.0145528
651.650	0.0146104
651.728	0.0146043
651.807	0.0145651
651.885	0.0144330
651.963	0.0145462
652.041	0.0146198
652.119	0.0145225
652.197	0.0147555
652.275	0.0144684
652.353	0.0144906
652.432	0.0145518
652.510	0.0144398
652.588	0.0144139
652.666	0.0144753
652.744	0.0145564
652.822	0.0145504
652.900	0.0143886
652.978	0.0145309
653.057	0.0145619
653.135	0.0144947
653.213	0.0145607
653.291	0.0145634
653.369	0.0144086
653.447	0.0143717
653.525	0.0143773
653.603	0.0144212
653.682	0.0145294
653.760	0.0145211
653.838	0.0144504
653.916	0.0143763
653.994	0.0143407
654.072	0.0144353
654.150	0.0145391
654.228	0.0144247
654.307	0.0143969
654.385	0.0144310
654.463	0.0144814
654.541	0.0144541
654.619	0.0144935
654.697	0.0146093
654.775	0.0144871
654.853	0.0144456
654.932	0.0144801
655.010	0.0143987
655.088	0.0142849
655.166	0.0144893
655.244	0.0145547
655.322	0.0144418
655.400	0.0143655
655.478	0.0144289
655.557	0.0143357
655.635	0.0144035
655.713	0.0144269
655.791	0.0143680
655.869	0.0144353
655.947	0.0144757
656.025	0.0143495
656.103	0.0144534
656.182	0.0143578
656.260	0.0144419
656.338	0.0144088
656.416	0.0142994
656.494	0.0144282
656.572	0.0143396
656.650	0.0143932
656.728	0.0143604
656.807	0.0144058
656.885	0.0142841
656.963	0.0143551
657.041	0.0142900
657.119	0.0144446
657.197	0.0143829
657.275	0.0145265
657.353	0.0143498
657.432	0.0144683
657.510	0.0144796
657.588	0.0143861
657.666	0.0143504
657.744	0.0144746
657.822	0.0144296
657.900	0.0145661
657.978	0.0145437
658.057	0.0142462
658.135	0.0143350
658.213	0.0143906
658.291	0.0144569
658.369	0.0144260
658.447	0.0143971
658.525	0.0145762
658.603	0.0143927
658.682	0.0142617
658.760	0.0145323
658.838	0.0146264
658.916	0.0143505
658.994	0.0143768
659.072	0.0144955
659.150	0.0144024
659.228	0.0143614
659.307	0.0144875
659.385	0.0144653
659.463	0.0143864
659.541	0.0145165
659.619	0.0144991
659.697	0.0144415
659.775	0.0144415
659.853	0.0145767
659.932	0.0145995
660.010	0.0144202
660.088	0.0146143
660.166	0.0144724
660.244	0.0145707
660.322	0.0144552
660.400	0.0145079
660.478	0.0145369
660.557	0.0146111
660.635	0.0145123
660.713	0.0146754
660.791	0.0144866
660.869	0.0144910
660.947	0.0146484
661.025	0.0145498
661.103	0.0145943
661.182	0.0145169
661.260	0.0146148
661.338	0.0146244
661.416	0.0145357
661.494	0.0144976
661.572	0.0145105
661.650	0.0144782
661.728	0.0145375
661.807	0.0144748
661.885	0.0144709
661.963	0.0144334
662.041	0.0146317
662.119	0.0145543
662.197	0.0145447
662.275	0.0145699
662.353	0.0147007
662.432	0.0145096
662.510	0.0145328
662.588	0.0145219
662.666	0.0145257
662.744	0.0145607
662.822	0.0145100
662.900	0.0145184
662.978	0.0146691
663.057	0.0146069
663.135	0.0146610
663.213	0.0145419
663.291	0.0144615
663.369	0.0146246
663.447	0.0145536
663.525	0.0145521
663.603	0.0145877
663.682	0.0146323
663.760	0.0145296
663.838	0.0145263
663.916	0.0145890
663.994	0.0145338
664.072	0.0146545
664.150	0.0147089
664.228	0.0145189
664.307	0.0146040
664.385	0.0145414
664.463	0.0146029
664.541	0.0145690
664.619	0.0145584
664.697	0.0145281
664.775	0.0145292
664.853	0.0146942
664.932	0.0147012
665.010	0.0145354
665.088	0.0146089
665.166	0.0146597
665.244	0.0145727
665.322	0.0145937
665.400	0.0144885
665.478	0.0147340
665.557	0.0145543
665.635	0.0144566
665.713	0.0146169
665.791	0.0145640
665.869	0.0145821
665.947	0.0147066
666.025	0.0146421
666.103	0.0145805
666.182	0.0146673
666.260	0.0146830
666.338	0.0145634
666.416	0.0146897
666.494	0.0147488
666.572	0.0146005
666.650	0.0145099
666.728	0.0145961
666.807	0.0145995
666.885	0.0146967
666.963	0.0146127
667.041	0.0145049
667.119	0.0145822
667.197	0.0146943
667.275	0.0146757
667.353	0.0145798
667.432	0.0146525
667.510	0.0146763
667.588	0.0145031
667.666	0.0146037
667.744	0.0147223
667.822	0.0145480
667.900	0.0147279
667.978	0.0146639
668.057	0.0145544
668.135	0.0147106
668.213	0.0146222
668.291	0.0146675
668.369	0.0145174
668.447	0.0146228
668.525	0.0146371
668.603	0.0146368
668.682	0.0147136
668.760	0.0147153
668.838	0.0145715
668.916	0.0146070
668.994	0.0146006
669.072	0.0145398
669.150	0.0146734
669.228	0.0146987
669.307	0.0147095
669.385	0.0146187
669.463	0.0146745
669.541	0.0146201
669.619	0.0146103
669.697	0.0147363
669.775	0.0145863
669.853	0.0145392
669.932	0.0144564
670.010	0.0145502
670.088	0.0146138
670.166	0.0147318
670.244	0.0146150
670.322	0.0146528
670.400	0.0145386
670.478	0.0146487
670.557	0.0145591
670.635	0.0147250
670.713	0.0145902
670.791	0.0146624
670.869	0.0147040
670.947	0.0145882
671.025	0.0145550
671.103	0.0145225
671.182	0.0145796
671.260	0.0146151
671.338	0.0145127
671.416	0.0147289
671.494	0.0147009
671.572	0.0147183
671.650	0.0145912
671.728	0.0147276
671.807	0.0146542
671.885	0.0145403
671.963	0.0145663
672.041	0.0145776
672.119	0.0145474
672.197	0.0145871
672.275	0.0146535
672.353	0.0147108
672.432	0.0146042
672.510	0.0145919
672.588	0.0146552
672.666	0.0145363
672.744	0.0145873
672.822	0.0145927
672.900	0.0144836
672.978	0.0145775
673.057	0.0146025
673.135	0.0146040
673.213	0.0145496
673.291	0.0143724
673.369	0.0145758
673.447	0.0146315
673.525	0.0144373
673.603	0.0145467
673.682	0.0145950
673.760	0.0144444
673.838	0.0144347
673.916	0.0146009
673.994	0.0145093
674.072	0.0146758
674.150	0.0146643
674.228	0.0144881
674.307	0.0144594
674.385	0.0145061
674.463	0.0145469
674.541	0.0145798
674.619	0.0145923
674.697	0.0144869
674.775	0.0146970
674.853	0.0145592
674.932	0.0146420
675.010	0.0145518
675.088	0.0145565
675.166	0.0146630
675.244	0.0146307
675.322	0.0143524
675.400	0.0145239
675.478	0.0146198
675.557	0.0147492
675.635	0.0146950
675.713	0.0146834
675.791	0.0147333
675.869	0.0146265
675.947	0.0145945
676.025	0.0145417
676.103	0.0145258
676.182	0.0145022
676.260	0.0142046
676.338	0.0141708
676.416	0.0142323
676.494	0.0140913
676.572	0.0141027
676.650	0.0141850
676.728	0.0143431
676.807	0.0145193
676.885	0.0144561
676.963	0.0146852
677.041	0.0147574
677.119	0.0149230
677.197	0.0149186
677.275	0.0151107
677.353	0.0151019
677.432	0.0149854
677.510	0.0150738
677.588	0.0148074
677.666	0.0148711
677.744	0.0149075
677.822	0.0145495
677.900	0.0146480
677.978	0.0145520
678.057	0.0144426
678.135	0.0143136
678.213	0.0143491
678.291	0.0143179
678.369	0.0141514
678.447	0.0141703
678.525	0.0140302
678.603	0.0137473
678.682	0.0138274
678.760	0.0139308
678.838	0.0139535
678.916	0.0138290
678.994	0.0137922
679.072	0.0140723
679.150	0.0140464
679.228	0.0141362
679.307	0.0142905
679.385	0.0144998
679.463	0.0146435
679.541	0.0149635
679.619	0.0150359
679.697	0.0152558
679.775	0.0153871
679.853	0.0154903
679.932	0.0157663
680.010	0.0158360
680.088	0.0159182
680.166	0.0157516
680.244	0.0157230
680.322	0.0157006
680.400	0.0153651
680.478	0.0151070
680.557	0.0149503
680.635	0.0145814
680.713	0.0144721
680.791	0.0140652
680.869	0.0136846
680.947	0.0134001
681.025	0.0131330
681.103	0.0128745
681.182	0.0127770
681.260	0.0127034
681.338	0.0126384
681.416	0.0125616
681.494	0.0129312
681.572	0.0130202
681.650	0.0132247
681.728	0.0134601
681.807	0.0138351
681.885	0.0140982
681.963	0.0144508
682.041	0.0146151
682.119	0.0148697
682.197	0.0153014
682.275	0.0155203
682.353	0.0157110
682.432	0.0160131
682.510	0.0161618
682.588	0.0163811
682.666	0.0163984
682.744	0.0165303
682.822	0.0165225
682.900	0.0162706
682.978	0.0162155
683.057	0.0161259
683.135	0.0158560
683.213	0.0155099
683.291	0.0152604
683.369	0.0150072
683.447	0.0146455
683.525	0.0143303
683.603	0.0140860
683.682	0.0138709
683.760	0.0135664
683.838	0.0133986
683.916	0.0131988
683.994	0.0130888
684.072	0.0128493
684.150	0.0128197
684.228	0.0128397
684.307	0.0126137
684.385	0.0126924
684.463	0.0128858
684.541	0.0127827
684.619	0.0130465
684.697	0.0132681
684.775	0.0135157
684.853	0.0136949
684.932	0.0140040
685.010	0.0140667
685.088	0.0143620
685.166	0.0147901
685.244	0.0149206
685.322	0.0151770
685.400	0.0154033
685.478	0.0154240
685.557	0.0156912
685.635	0.0158618
685.713	0.0158857
685.791	0.0158876
685.869	0.0158978
685.947	0.0159888
686.025	0.0158982
686.103	0.0157130
686.182	0.0156858
686.260	0.0154090
686.338	0.0154085
686.416	0.0151588
686.494	0.0150832
686.572	0.0147496
686.650	0.0144753
686.728	0.0142269
686.807	0.0141396
686.885	0.0142529
686.963	0.0141573
687.041	0.0140063
687.119	0.0140446
687.197	0.0141467
687.275	0.0142574
687.353	0.0143909
687.432	0.0143120
687.510	0.0142801
687.588	0.0144614
687.666	0.0144276
687.744	0.0145362
687.822	0.0146498
687.900	0.0146531
687.978	0.0144949
688.057	0.0144652
688.135	0.0144904
688.213	0.0143937
688.291	0.0141098
688.369	0.0140116
688.447	0.0139496
688.525	0.0137740
688.603	0.0135595
688.682	0.0134485
688.760	0.0132472
688.838	0.0131818
688.916	0.0130572
688.994	0.0129788
689.072	0.0131136
689.150	0.0132012
689.228	0.0134290
689.307	0.0135301
689.385	0.0138737
689.463	0.0140642
689.541	0.0143559
689.619	0.0147564
689.697	0.0150067
689.775	0.0152081
689.853	0.0155596
689.932	0.0157575
690.010	0.0159329
690.088	0.0160506
690.166	0.0163675
690.244	0.0164183
690.322	0.0164386
690.400	0.0165386
690.478	0.0165024
690.557	0.0164194
690.635	0.0163188
690.713	0.0161921
690.791	0.0159440
690.869	0.0157796
690.947	0.0155376
691.025	0.0154398
691.103	0.0153122
691.182	0.0148454
691.260	0.0146226
691.338	0.0143454
691.416	0.0139524
691.494	0.0135385
691.572	0.0132805
691.650	0.0132668
691.728	0.0130584
691.807	0.0128870
691.885	0.0128074
691.963	0.0128770
692.041	0.0130894
692.119	0.0132159
692.197	0.0134543
692.275	0.0136269
692.353	0.0140096
692.432	0.0142481
692.510	0.0143602
692.588	0.0143232
692.666	0.0145805
692.744	0.0145670
692.822	0.0145440
692.900	0.0143910
692.978	0.0145804
693.057	0.0144236
693.135	0.0146120
693.213	0.0146251
693.291	0.0146047
693.369	0.0146835
693.447	0.0148221
693.525	0.0147822
693.603	0.0149525
693.682	0.0148647
693.760	0.0147555
693.838	0.0146688
693.916	0.0145657
693.994	0.0142184
694.072	0.0139904
694.150	0.0139549
694.228	0.0137192
694.307	0.0134948
694.385	0.0132912
694.463	0.0134066
694.541	0.0136947
694.619	0.0139222
694.697	0.0142950
694.775	0.0146960
694.853	0.0151173
694.932	0.0154755
695.010	0.0158784
695.088	0.0162202
695.166	0.0164333
695.244	0.0165907
695.322	0.0167805
695.400	0.0168872
695.478	0.0168703
695.557	0.0168736
695.635	0.0169099
695.713	0.0168094
695.791	0.0167987
695.869	0.0166482
695.947	0.0165205
696.025	0.0162510
696.103	0.0160974
696.182	0.0158530
696.260	0.0155748
696.338	0.0150607
696.416	0.0147939
696.494	0.0143206
696.572	0.0141161
696.650	0.0136520
696.728	0.0133429
696.807	0.0130701
696.885	0.0126177
696.963	0.0123475
697.041	0.0124184
697.119	0.0122310
697.197	0.0121088
697.275	0.0120837
697.353	0.0122567
697.432	0.0122221
697.510	0.0124172
697.588	0.0124865
697.666	0.0126674
697.744	0.0126958
697.822	0.0127591
697.900	0.0129745
697.978	0.0130127
698.057	0.0132423
698.135	0.0134592
698.213	0.0136095
698.291	0.0137406
698.369	0.0139265
698.447	0.0142321
698.525	0.0146217
698.603	0.0148698
698.682	0.0150723
698.760	0.0152647
698.838	0.0154366
698.916	0.0154713
698.994	0.0155732
699.072	0.0155630
699.150	0.0155437
699.228	0.0156807
699.307	0.0157877
699.385	0.0157468
699.463	0.0157655
699.541	0.0157661
699.619	0.0155930
699.697	0.0157034
699.775	0.0157318
699.853	0.0158469
699.932	0.0157887
700.010	0.0158934
700.088	0.0162524
700.166	0.0160800
700.244	0.0161942
700.322	0.0162737
700.400	0.0163620
700.478	0.0162710
700.557	0.0162627
700.635	0.0162665
700.713	0.0160864
700.791	0.0157578
700.869	0.0155905
700.947	0.0155556
701.025	0.0151106
701.103	0.0149152
701.182	0.0146265
701.260	0.0143291
701.338	0.0142832
701.416	0.0142717
701.494	0.0138840
701.572	0.0136622
701.650	0.0135339
701.728	0.0133317
701.807	0.0132777
701.885	0.0132363
701.963	0.0131776
702.041	0.0132016
702.119	0.0132127
702.197	0.0132465
702.275	0.0132986
702.353	0.0132359
702.432	0.0131926
702.510	0.0134262
702.588	0.0132741
702.666	0.0131696
702.744	0.0132499
702.822	0.0131693
702.900	0.0130144
702.978	0.0130285
703.057	0.0130025
703.135	0.0129163
703.213	0.0129309
703.291	0.0128861
703.369	0.0127573
703.447	0.0129403
703.525	0.0130068
703.603	0.0131046
703.682	0.0130663
703.760	0.0130289
703.838	0.0130839
703.916	0.0131748
703.994	0.0131927
704.072	0.0132536
704.150	0.0136153
704.228	0.0135100
704.307	0.0135518
704.385	0.0138232
704.463	0.0139396
704.541	0.0139648
704.619	0.0142360
704.697	0.0144766
704.775	0.0147080
704.853	0.0151175
704.932	0.0152905
705.010	0.0155878
705.088	0.0160316
705.166	0.0164033
705.244	0.0167159
705.322	0.0172130
705.400	0.0177174
705.478	0.0184047
705.557	0.0188440
705.635	0.0192400
705.713	0.0196987
705.791	0.0200951
705.869	0.0203690
705.947	0.0204198
706.025	0.0204913
706.103	0.0205109
706.182	0.0201138
706.260	0.0197308
706.338	0.0192755
706.416	0.0185313
706.494	0.0178059
706.572	0.0168452
706.650	0.0160865
706.728	0.0151864
706.807	0.0141876
706.885	0.0133640
706.963	0.0123823
707.041	0.0115322
707.119	0.0107332
707.197	0.0101187
707.275	0.00932411
707.353	0.00864250
707.432	0.00830544
707.510	0.00788673
707.588	0.00744057
707.666	0.00743950
707.744	0.00734818
707.822	0.00745743
707.900	0.00744019
707.978	0.00772110
708.057	0.00825172
708.135	0.00873741
708.213	0.00926949
708.291	0.00991394
708.369	0.0105829
708.447	0.0110442
708.525	0.0118338
708.603	0.0124831
708.682	0.0131287
708.760	0.0139736
708.838	0.0145518
708.916	0.0152454
708.994	0.0158526
709.072	0.0163689
709.150	0.0169787
709.228	0.0173586
709.307	0.0178439
709.385	0.0180856
709.463	0.0184885
709.541	0.0187442
709.619	0.0188947
709.697	0.0190714
709.775	0.0191364
709.853	0.0191137
709.932	0.0191905
710.010	0.0190898
710.088	0.0190262
710.166	0.0190808
710.244	0.0188117
710.322	0.0186721
710.400	0.0184978
710.478	0.0183167
710.557	0.0180231
710.635	0.0175827
710.713	0.0171536
710.791	0.0167947
710.869	0.0163067
710.947	0.0159290
711.025	0.0155836
711.103	0.0153864
711.182	0.0150249
711.260	0.0147368
711.338	0.0146165
711.416	0.0146880
711.494	0.0145097
711.572	0.0145099
711.650	0.0144511
711.728	0.0144300
711.807	0.0142476
711.885	0.0141328
711.963	0.0137430
712.041	0.0133641
712.119	0.0129935
712.197	0.0126870
712.275	0.0122830
712.353	0.0118610
712.432	0.0113959
712.510	0.0108197
712.588	0.0105893
712.666	0.0104005
712.744	0.0101479
712.822	0.0100622
712.900	0.0100300
712.978	0.0102014
713.057	0.0103266
713.135	0.0106728
713.213	0.0109070
713.291	0.0115272
713.369	0.0119662
713.447	0.0126252
713.525	0.0131113
713.603	0.0137122
713.682	0.0141264
713.760	0.0147025
713.838	0.0150475
713.916	0.0155128
713.994	0.0158031
714.072	0.0160492
714.150	0.0162275
714.228	0.0161517
714.307	0.0159637
714.385	0.0160707
714.463	0.0158439
714.541	0.0157220
714.619	0.0155399
714.697	0.0152532
714.775	0.0152567
714.853	0.0150569
714.932	0.0147720
715.010	0.0147897
715.088	0.0147747
715.166	0.0147180
715.244	0.0148816
715.322	0.0150051
715.400	0.0151266
715.478	0.0152071
715.557	0.0153181
715.635	0.0157197
715.713	0.0159521
715.791	0.0161690
715.869	0.0162426
715.947	0.0163978
716.025	0.0167058
716.103	0.0168961
716.182	0.0169203
716.260	0.0167339
716.338	0.0167900
716.416	0.0168764
716.494	0.0166257
716.572	0.0165705
716.650	0.0163930
716.728	0.0161719
716.807	0.0160564
716.885	0.0160056
716.963	0.0158642
717.041	0.0157454
717.119	0.0157710
717.197	0.0158144
717.275	0.0158752
717.353	0.0157449
717.432	0.0155077
717.510	0.0153675
717.588	0.0152135
717.666	0.0149841
717.744	0.0147395
717.822	0.0143030
717.900	0.0137653
717.978	0.0133599
718.057	0.0130292
718.135	0.0125103
718.213	0.0120700
718.291	0.0115958
718.369	0.0113178
718.447	0.0109257
718.525	0.0108051
718.603	0.0107419
718.682	0.0107918
718.760	0.0109543
718.838	0.0110352
718.916	0.0113605
718.994	0.0118370
719.072	0.0122314
719.150	0.0126242
719.228	0.0129610
719.307	0.0135876
719.385	0.0139863
719.463	0.0143797
719.541	0.0146708
719.619	0.0150992
719.697	0.0152789
719.775	0.0154364
719.853	0.0152963
719.932	0.0152318
720.010	0.0151898
720.088	0.0150032
720.166	0.0147382
720.244	0.0144315
720.322	0.0142796
720.400	0.0140427
720.478	0.0138052
720.557	0.0136678
720.635	0.0136443
720.713	0.0136641
720.791	0.0136251
720.869	0.0139262
720.947	0.0140400
721.025	0.0141904
721.103	0.0143825
721.182	0.0146946
721.260	0.0149660
721.338	0.0152242
721.416	0.0153965
721.494	0.0156054
721.572	0.0158483
721.650	0.0161086
721.728	0.0161900
721.807	0.0163419
721.885	0.0166230
721.963	0.0167238
722.041	0.0169534
722.119	0.0171761
722.197	0.0173459
722.275	0.0174040
722.353	0.0174256
722.432	0.0175784
722.510	0.0176493
722.588	0.0175964
722.666	0.0177091
722.744	0.0177694
722.822	0.0175563
722.900	0.0175510
722.978	0.0174483
723.057	0.0173524
723.135	0.0172271
723.213	0.0170937
723.291	0.0166737
723.369	0.0163805
723.447	0.0161832
723.525	0.0157983
723.603	0.0153185
723.682	0.0148013
723.760	0.0143291
723.838	0.0137404
723.916	0.0132442
723.994	0.0127090
724.072	0.0123411
724.150	0.0118825
724.228	0.0114976
724.307	0.0109697
724.385	0.0106629
724.463	0.0104544
724.541	0.0102458
724.619	0.0101422
724.697	0.0102575
724.775	0.0101781
724.853	0.0102467
724.932	0.0104785
725.010	0.0106767
725.088	0.0110969
725.166	0.0114404
725.244	0.0117031
725.322	0.0119582
725.400	0.0123528
725.478	0.0126426
725.557	0.0128598
725.635	0.0132066
725.713	0.0134921
725.791	0.0136172
725.869	0.0137543
725.947	0.0138527
726.025	0.0140256
726.103	0.0140466
726.182	0.0143108
726.260	0.0143015
726.338	0.0144424
726.416	0.0144884
726.494	0.0145464
726.572	0.0147169
726.650	0.0148503
726.728	0.0150513
726.807	0.0151946
726.885	0.0154971
726.963	0.0157487
727.041	0.0159642
727.119	0.0162257
727.197	0.0166262
727.275	0.0168060
727.353	0.0170235
727.432	0.0171973
727.510	0.0173032
727.588	0.0175973
727.666	0.0176074
727.744	0.0177414
727.822	0.0179114
727.900	0.0177740
727.978	0.0177379
728.057	0.0177740
728.135	0.0178534
728.213	0.0175717
728.291	0.0174979
728.369	0.0174589
728.447	0.0172908
728.525	0.0171299
728.603	0.0170406
728.682	0.0170312
728.760	0.0168211
728.838	0.0164763
728.916	0.0163720
728.994	0.0162115
729.072	0.0159365
729.150	0.0156033
729.228	0.0153696
729.307	0.0150661
729.385	0.0146185
729.463	0.0144633
729.541	0.0140076
729.619	0.0137039
729.697	0.0133289
729.775	0.0130154
729.853	0.0126403
729.932	0.0123577
730.010	0.0121004
730.088	0.0117721
730.166	0.0116174
730.244	0.0114857
730.322	0.0113538
730.400	0.0111915
730.478	0.0111296
730.557	0.0111758
730.635	0.0113396
730.713	0.0115489
730.791	0.0115114
730.869	0.0115607
730.947	0.0117249
731.025	0.0120382
731.103	0.0121095
731.182	0.0122005
731.260	0.0123154
731.338	0.0124398
731.416	0.0125618
731.494	0.0127733
731.572	0.0127836
731.650	0.0128156
731.728	0.0128547
731.807	0.0130537
731.885	0.0131004
731.963	0.0132327
732.041	0.0133624
732.119	0.0136401
732.197	0.0137531
732.275	0.0140772
732.353	0.0143403
732.432	0.0145135
732.510	0.0149146
732.588	0.0152474
732.666	0.0154876
732.744	0.0158484
732.822	0.0162913
732.900	0.0163601
732.978	0.0166080
733.057	0.0167430
733.135	0.0168369
733.213	0.0172095
733.291	0.0173709
733.369	0.0173524
733.447	0.0171702
733.525	0.0173913
733.603	0.0173882
733.682	0.0173573
733.760	0.0173094
733.838	0.0174110
733.916	0.0174238
733.994	0.0173075
734.072	0.0173569
734.150	0.0171669
734.228	0.0169829
734.307	0.0170935
734.385	0.0170187
734.463	0.0167544
734.541	0.0165684
734.619	0.0167368
734.697	0.0165261
734.775	0.0161597
734.853	0.0159665
734.932	0.0158315
735.010	0.0155721
735.088	0.0153304
735.166	0.0150246
735.244	0.0147468
735.322	0.0147134
735.400	0.0142135
735.478	0.0141719
735.557	0.0139425
735.635	0.0136714
