05/14/2022	19:21:15	Ver.	4.1	UNKNOWN
Optical Delay	650.009681	Delta X		0.078125	Sweeps	1	Scan Rate	0/0
Coordinates	Axis 1	NaN	Axis 2	NaN	Axis 3	NaN	Axis 4	NaN	Axis 5	NaN	Axis 6	0.000000
TX Power	0.000000	RX Power	0.000000

650.010	0.0142470
650.088	0.0141578
650.166	0.0141638
650.244	0.0141101
650.322	0.0141045
650.400	0.0141921
650.478	0.0142340
650.557	0.0140915
650.635	0.0141156
650.713	0.0140855
650.791	0.0141455
650.869	0.0141335
650.947	0.0140411
651.025	0.0141309
651.103	0.0140379
651.182	0.0141367
651.260	0.0141149
651.338	0.0139693
651.416	0.0141155
651.494	0.0141330
651.572	0.0140537
651.650	0.0140611
651.728	0.0141869
651.807	0.0142628
651.885	0.0142151
651.963	0.0141174
652.041	0.0139552
652.119	0.0139864
652.197	0.0140017
652.275	0.0140767
652.353	0.0142398
652.432	0.0139874
652.510	0.0139272
652.588	0.0141305
652.666	0.0141209
652.744	0.0140980
652.822	0.0140466
652.900	0.0141834
652.978	0.0141916
653.057	0.0140195
653.135	0.0140440
653.213	0.0141107
653.291	0.0140912
653.369	0.0140224
653.447	0.0139957
653.525	0.0141669
653.603	0.0141637
653.682	0.0140323
653.760	0.0141193
653.838	0.0142066
653.916	0.0141179
653.994	0.0140216
654.072	0.0140403
654.150	0.0140260
654.228	0.0140803
654.307	0.0140318
654.385	0.0141183
654.463	0.0141156
654.541	0.0142010
654.619	0.0141782
654.697	0.0141028
654.775	0.0142277
654.853	0.0142503
654.932	0.0141270
655.010	0.0141685
655.088	0.0140601
655.166	0.0142511
655.244	0.0141164
655.322	0.0141810
655.400	0.0140160
655.478	0.0142204
655.557	0.0141444
655.635	0.0140793
655.713	0.0142343
655.791	0.0141035
655.869	0.0141630
655.947	0.0141104
656.025	0.0141505
656.103	0.0142204
656.182	0.0140662
656.260	0.0141216
656.338	0.0140117
656.416	0.0140939
656.494	0.0141694
656.572	0.0141001
656.650	0.0140296
656.728	0.0141459
656.807	0.0141316
656.885	0.0141621
656.963	0.0142007
657.041	0.0141151
657.119	0.0141930
657.197	0.0141357
657.275	0.0141156
657.353	0.0142074
657.432	0.0141472
657.510	0.0141528
657.588	0.0141804
657.666	0.0141885
657.744	0.0141001
657.822	0.0142270
657.900	0.0142471
657.978	0.0141014
658.057	0.0140869
658.135	0.0140803
658.213	0.0141592
658.291	0.0140894
658.369	0.0141579
658.447	0.0141245
658.525	0.0141628
658.603	0.0141263
658.682	0.0140707
658.760	0.0143001
658.838	0.0141394
658.916	0.0142548
658.994	0.0141817
659.072	0.0141398
659.150	0.0142505
659.228	0.0142548
659.307	0.0141606
659.385	0.0141921
659.463	0.0142172
659.541	0.0141918
659.619	0.0143678
659.697	0.0142088
659.775	0.0141721
659.853	0.0141028
659.932	0.0140617
660.010	0.0143213
660.088	0.0142413
660.166	0.0142536
660.244	0.0142081
660.322	0.0142529
660.400	0.0142596
660.478	0.0142198
660.557	0.0143000
660.635	0.0142740
660.713	0.0142310
660.791	0.0142046
660.869	0.0143040
660.947	0.0141637
661.025	0.0144650
661.103	0.0141574
661.182	0.0143202
661.260	0.0143455
661.338	0.0142405
661.416	0.0142064
661.494	0.0143040
661.572	0.0144156
661.650	0.0144429
661.728	0.0143555
661.807	0.0141945
661.885	0.0142946
661.963	0.0142777
662.041	0.0143324
662.119	0.0142722
662.197	0.0142937
662.275	0.0141621
662.353	0.0143281
662.432	0.0145271
662.510	0.0143095
662.588	0.0141924
662.666	0.0141901
662.744	0.0143538
662.822	0.0143733
662.900	0.0141992
662.978	0.0142417
663.057	0.0142022
663.135	0.0141855
663.213	0.0141257
663.291	0.0143061
663.369	0.0143423
663.447	0.0141924
663.525	0.0142282
663.603	0.0143372
663.682	0.0142175
663.760	0.0142010
663.838	0.0141590
663.916	0.0141896
663.994	0.0141573
664.072	0.0141982
664.150	0.0141419
664.228	0.0143098
664.307	0.0142776
664.385	0.0142766
664.463	0.0143690
664.541	0.0142379
664.619	0.0141483
664.697	0.0143649
664.775	0.0143159
664.853	0.0142065
664.932	0.0142889
665.010	0.0143900
665.088	0.0142097
665.166	0.0143197
665.244	0.0143331
665.322	0.0143259
665.400	0.0142981
665.478	0.0142739
665.557	0.0142841
665.635	0.0142294
665.713	0.0142339
665.791	0.0143650
665.869	0.0142665
665.947	0.0142961
666.025	0.0143098
666.103	0.0142766
666.182	0.0144048
666.260	0.0143579
666.338	0.0142970
666.416	0.0142506
666.494	0.0142747
666.572	0.0142780
666.650	0.0142651
666.728	0.0144779
666.807	0.0143024
666.885	0.0143263
666.963	0.0142013
667.041	0.0143067
667.119	0.0144131
667.197	0.0140984
667.275	0.0143565
667.353	0.0143393
667.432	0.0142812
667.510	0.0141894
667.588	0.0141077
667.666	0.0142203
667.744	0.0142663
667.822	0.0143636
667.900	0.0141873
667.978	0.0141873
668.057	0.0141792
668.135	0.0142472
668.213	0.0141822
668.291	0.0142877
668.369	0.0142377
668.447	0.0141641
668.525	0.0142839
668.603	0.0143571
668.682	0.0143495
668.760	0.0141832
668.838	0.0141225
668.916	0.0142010
668.994	0.0143418
669.072	0.0143066
669.150	0.0143056
669.228	0.0143451
669.307	0.0141423
669.385	0.0141646
669.463	0.0142108
669.541	0.0142966
669.619	0.0142387
669.697	0.0142433
669.775	0.0141939
669.853	0.0142728
669.932	0.0142197
670.010	0.0142883
670.088	0.0141921
670.166	0.0142050
670.244	0.0142687
670.322	0.0142127
670.400	0.0141750
670.478	0.0142049
670.557	0.0141908
670.635	0.0142032
670.713	0.0143293
670.791	0.0141885
670.869	0.0143908
670.947	0.0142970
671.025	0.0141684
671.103	0.0141740
671.182	0.0142696
671.260	0.0141281
671.338	0.0143100
671.416	0.0142043
671.494	0.0142678
671.572	0.0142485
671.650	0.0141903
671.728	0.0142178
671.807	0.0143046
671.885	0.0142577
671.963	0.0142450
672.041	0.0142923
672.119	0.0142508
672.197	0.0141860
672.275	0.0142204
672.353	0.0141210
672.432	0.0142176
672.510	0.0141962
672.588	0.0141237
672.666	0.0140571
672.744	0.0142220
672.822	0.0139777
672.900	0.0141660
672.978	0.0141866
673.057	0.0142979
673.135	0.0142966
673.213	0.0141372
673.291	0.0141602
673.369	0.0140868
673.447	0.0140790
673.525	0.0142957
673.603	0.0141109
673.682	0.0142635
673.760	0.0142572
673.838	0.0141513
673.916	0.0141251
673.994	0.0142588
674.072	0.0142803
674.150	0.0142052
674.228	0.0140723
674.307	0.0141246
674.385	0.0141581
674.463	0.0140821
674.541	0.0141711
674.619	0.0142453
674.697	0.0142433
674.775	0.0140726
674.853	0.0140979
674.932	0.0142913
675.010	0.0142397
675.088	0.0142504
675.166	0.0141715
675.244	0.0142274
675.322	0.0142126
675.400	0.0141589
675.478	0.0142929
675.557	0.0141159
675.635	0.0141959
675.713	0.0142141
675.791	0.0141900
675.869	0.0140566
675.947	0.0139938
676.025	0.0138599
676.103	0.0138447
676.182	0.0137205
676.260	0.0138892
676.338	0.0138557
676.416	0.0139447
676.494	0.0139041
676.572	0.0141316
676.650	0.0142450
676.728	0.0144077
676.807	0.0144855
676.885	0.0145855
676.963	0.0148063
677.041	0.0148546
677.119	0.0148075
677.197	0.0147288
677.275	0.0146272
677.353	0.0145440
677.432	0.0144991
677.510	0.0144749
677.588	0.0143482
677.666	0.0140723
677.744	0.0140209
677.822	0.0139216
677.900	0.0138617
677.978	0.0137204
678.057	0.0137647
678.135	0.0136696
678.213	0.0135493
678.291	0.0136285
678.369	0.0136173
678.447	0.0134987
678.525	0.0135110
678.603	0.0136161
678.682	0.0136321
678.760	0.0136817
678.838	0.0137712
678.916	0.0138935
678.994	0.0138885
679.072	0.0141728
679.150	0.0143089
679.228	0.0144741
679.307	0.0145706
679.385	0.0148038
679.463	0.0149571
679.541	0.0151598
679.619	0.0153625
679.697	0.0152275
679.775	0.0153649
679.853	0.0153875
679.932	0.0153293
680.010	0.0152794
680.088	0.0151170
680.166	0.0148740
680.244	0.0146365
680.322	0.0145726
680.400	0.0142488
680.478	0.0139243
680.557	0.0135127
680.635	0.0133411
680.713	0.0130167
680.791	0.0126109
680.869	0.0123955
680.947	0.0123854
681.025	0.0122704
681.103	0.0122827
681.182	0.0124354
681.260	0.0124891
681.338	0.0127178
681.416	0.0129617
681.494	0.0132781
681.572	0.0135025
681.650	0.0140784
681.728	0.0142486
681.807	0.0146288
681.885	0.0148470
681.963	0.0152469
682.041	0.0153599
682.119	0.0156154
682.197	0.0158231
682.275	0.0158968
682.353	0.0160552
682.432	0.0161802
682.510	0.0162688
682.588	0.0161991
682.666	0.0161377
682.744	0.0160458
682.822	0.0155166
682.900	0.0154311
682.978	0.0150632
683.057	0.0145917
683.135	0.0143089
683.213	0.0140709
683.291	0.0137159
683.369	0.0135174
683.447	0.0131586
683.525	0.0128503
683.603	0.0126479
683.682	0.0126255
683.760	0.0122920
683.838	0.0122938
683.916	0.0121903
683.994	0.0122745
684.072	0.0123508
684.150	0.0123167
684.228	0.0124124
684.307	0.0125475
684.385	0.0128848
684.463	0.0130881
684.541	0.0134687
684.619	0.0137354
684.697	0.0139007
684.775	0.0140672
684.853	0.0142634
684.932	0.0146149
685.010	0.0149756
685.088	0.0152066
685.166	0.0152971
685.244	0.0153590
685.322	0.0156183
685.400	0.0156098
685.478	0.0157157
685.557	0.0157961
685.635	0.0160052
685.713	0.0157714
685.791	0.0157935
685.869	0.0157385
685.947	0.0156739
686.025	0.0153798
686.103	0.0152039
686.182	0.0149973
686.260	0.0146272
686.338	0.0142673
686.416	0.0140440
686.494	0.0136447
686.572	0.0134192
686.650	0.0132240
686.728	0.0130173
686.807	0.0130486
686.885	0.0129919
686.963	0.0131261
687.041	0.0133089
687.119	0.0134628
687.197	0.0136001
687.275	0.0139292
687.353	0.0141271
687.432	0.0142616
687.510	0.0143028
687.588	0.0144683
687.666	0.0146517
687.744	0.0145425
687.822	0.0143877
687.900	0.0145877
687.978	0.0144487
688.057	0.0143554
688.135	0.0140984
688.213	0.0139764
688.291	0.0138062
688.369	0.0136172
688.447	0.0132796
688.525	0.0131393
688.603	0.0130976
688.682	0.0128415
688.760	0.0128700
688.838	0.0129688
688.916	0.0130529
688.994	0.0130231
689.072	0.0132903
689.150	0.0134441
689.228	0.0137587
689.307	0.0139317
689.385	0.0141786
689.463	0.0147071
689.541	0.0148556
689.619	0.0150129
689.697	0.0153566
689.775	0.0155531
689.853	0.0157245
689.932	0.0159724
690.010	0.0161825
690.088	0.0163525
690.166	0.0163225
690.244	0.0163710
690.322	0.0161088
690.400	0.0160964
690.478	0.0161266
690.557	0.0158401
690.635	0.0156602
690.713	0.0156331
690.791	0.0152649
690.869	0.0151706
690.947	0.0147924
691.025	0.0144988
691.103	0.0142447
691.182	0.0140034
691.260	0.0136237
691.338	0.0132633
691.416	0.0128052
691.494	0.0126320
691.572	0.0124232
691.650	0.0125044
691.728	0.0122517
691.807	0.0122579
691.885	0.0123990
691.963	0.0127013
692.041	0.0129786
692.119	0.0132742
692.197	0.0135406
692.275	0.0137985
692.353	0.0139315
692.432	0.0140192
692.510	0.0142165
692.588	0.0142777
692.666	0.0142131
692.744	0.0140672
692.822	0.0141482
692.900	0.0140512
692.978	0.0140020
693.057	0.0139829
693.135	0.0140457
693.213	0.0141964
693.291	0.0143503
693.369	0.0145830
693.447	0.0147561
693.525	0.0149046
693.603	0.0149467
693.682	0.0149072
693.760	0.0147490
693.838	0.0146769
693.916	0.0144555
693.994	0.0142239
694.072	0.0140830
694.150	0.0138557
694.228	0.0135488
694.307	0.0135664
694.385	0.0136442
694.463	0.0139175
694.541	0.0142507
694.619	0.0143274
694.697	0.0146947
694.775	0.0150159
694.853	0.0154018
694.932	0.0157938
695.010	0.0160870
695.088	0.0159635
695.166	0.0162939
695.244	0.0162064
695.322	0.0159127
695.400	0.0161156
695.478	0.0158894
695.557	0.0156806
695.635	0.0157605
695.713	0.0155651
695.791	0.0154845
695.869	0.0154372
695.947	0.0153454
696.025	0.0150588
696.103	0.0149551
696.182	0.0146319
696.260	0.0142332
696.338	0.0140161
696.416	0.0134978
696.494	0.0131816
696.572	0.0127533
696.650	0.0123737
696.728	0.0122955
696.807	0.0119639
696.885	0.0116984
696.963	0.0115246
697.041	0.0114995
697.119	0.0115840
697.197	0.0116737
697.275	0.0117953
697.353	0.0118987
697.432	0.0122152
697.510	0.0122714
697.588	0.0122597
697.666	0.0125339
697.744	0.0128151
697.822	0.0130114
697.900	0.0130685
697.978	0.0133805
698.057	0.0135538
698.135	0.0139716
698.213	0.0142274
698.291	0.0143867
698.369	0.0146993
698.447	0.0149249
698.525	0.0151505
698.603	0.0154964
698.682	0.0155682
698.760	0.0155145
698.838	0.0156367
698.916	0.0156949
698.994	0.0157118
699.072	0.0156441
699.150	0.0156282
699.228	0.0157340
699.307	0.0156485
699.385	0.0156564
699.463	0.0155843
699.541	0.0155129
699.619	0.0154823
699.697	0.0154978
699.775	0.0154684
699.853	0.0155333
699.932	0.0154665
700.010	0.0153409
700.088	0.0152968
700.166	0.0150676
700.244	0.0150907
700.322	0.0150838
700.400	0.0148636
700.478	0.0148657
700.557	0.0146962
700.635	0.0145872
700.713	0.0146025
700.791	0.0145298
700.869	0.0143251
700.947	0.0144254
701.025	0.0144398
701.103	0.0140017
701.182	0.0140035
701.260	0.0139832
701.338	0.0137561
701.416	0.0136712
701.494	0.0134568
701.572	0.0132667
701.650	0.0132307
701.728	0.0130305
701.807	0.0128906
701.885	0.0127518
701.963	0.0127861
702.041	0.0129018
702.119	0.0126738
702.197	0.0128092
702.275	0.0128288
702.353	0.0128262
702.432	0.0128223
702.510	0.0129247
702.588	0.0129208
702.666	0.0129668
702.744	0.0129810
702.822	0.0129374
702.900	0.0128230
702.978	0.0127560
703.057	0.0128858
703.135	0.0129124
703.213	0.0128173
703.291	0.0128391
703.369	0.0129529
703.447	0.0131731
703.525	0.0131567
703.603	0.0133360
703.682	0.0135958
703.760	0.0138455
703.838	0.0139221
703.916	0.0141434
703.994	0.0142436
704.072	0.0143576
704.150	0.0145870
704.228	0.0146426
704.307	0.0147969
704.385	0.0148508
704.463	0.0148631
704.541	0.0148791
704.619	0.0150225
704.697	0.0150757
704.775	0.0150721
704.853	0.0153915
704.932	0.0153890
705.010	0.0157076
705.088	0.0159708
705.166	0.0162929
705.244	0.0166600
705.322	0.0169920
705.400	0.0174213
705.478	0.0176691
705.557	0.0179922
705.635	0.0183406
705.713	0.0186248
705.791	0.0187700
705.869	0.0188823
705.947	0.0187628
706.025	0.0187446
706.103	0.0184587
706.182	0.0178632
706.260	0.0174291
706.338	0.0168874
706.416	0.0160844
706.494	0.0154320
706.572	0.0146506
706.650	0.0140059
706.728	0.0131573
706.807	0.0124693
706.885	0.0117139
706.963	0.0111024
707.041	0.0105085
707.119	0.00987938
707.197	0.00933853
707.275	0.00893539
707.353	0.00854385
707.432	0.00810921
707.510	0.00800377
707.588	0.00788223
707.666	0.00793068
707.744	0.00802582
707.822	0.00816711
707.900	0.00829788
707.978	0.00866402
708.057	0.00907890
708.135	0.00962929
708.213	0.0101861
708.291	0.0108034
708.369	0.0113861
708.447	0.0118698
708.525	0.0125998
708.603	0.0131676
708.682	0.0139415
708.760	0.0146677
708.838	0.0151144
708.916	0.0157748
708.994	0.0162956
709.072	0.0167751
709.150	0.0172511
709.228	0.0177483
709.307	0.0179412
709.385	0.0182877
709.463	0.0184645
709.541	0.0188030
709.619	0.0190102
709.697	0.0189632
709.775	0.0190462
709.853	0.0191982
709.932	0.0189546
710.010	0.0188449
710.088	0.0188403
710.166	0.0188350
710.244	0.0186472
710.322	0.0182399
710.400	0.0178917
710.478	0.0176851
710.557	0.0174146
710.635	0.0169508
710.713	0.0163760
710.791	0.0159621
710.869	0.0156110
710.947	0.0151868
711.025	0.0147176
711.103	0.0143100
711.182	0.0142065
711.260	0.0139381
711.338	0.0136412
711.416	0.0135658
711.494	0.0134589
711.572	0.0130333
711.650	0.0129181
711.728	0.0126935
711.807	0.0124647
711.885	0.0119768
711.963	0.0117142
712.041	0.0112642
712.119	0.0110025
712.197	0.0104975
712.275	0.0103546
712.353	0.0100110
712.432	0.00978104
712.510	0.00962959
712.588	0.00950226
712.666	0.00968727
712.744	0.00987793
712.822	0.0101532
712.900	0.0104619
712.978	0.0107901
713.057	0.0114120
713.135	0.0120190
713.213	0.0126093
713.291	0.0131162
713.369	0.0138000
713.447	0.0142268
713.525	0.0147619
713.603	0.0153783
713.682	0.0154972
713.760	0.0155745
713.838	0.0157938
713.916	0.0158521
713.994	0.0158775
714.072	0.0157345
714.150	0.0156450
714.228	0.0156969
714.307	0.0154028
714.385	0.0152161
714.463	0.0149991
714.541	0.0149561
714.619	0.0147893
714.697	0.0147417
714.775	0.0148491
714.853	0.0147327
714.932	0.0147402
715.010	0.0147055
715.088	0.0151495
715.166	0.0151825
715.244	0.0152176
715.322	0.0155532
715.400	0.0156509
715.478	0.0159911
715.557	0.0161614
715.635	0.0162784
715.713	0.0165942
715.791	0.0165353
715.869	0.0165744
715.947	0.0166168
716.025	0.0164080
716.103	0.0165098
716.182	0.0164448
716.260	0.0162827
716.338	0.0160558
716.416	0.0159053
716.494	0.0157021
716.572	0.0155906
716.650	0.0153838
716.728	0.0152406
716.807	0.0152576
716.885	0.0151131
716.963	0.0150265
717.041	0.0150272
717.119	0.0149834
717.197	0.0148714
717.275	0.0146346
717.353	0.0143695
717.432	0.0142812
717.510	0.0139946
717.588	0.0137019
717.666	0.0130869
717.744	0.0126621
717.822	0.0122292
717.900	0.0118210
717.978	0.0114357
718.057	0.0110939
718.135	0.0107087
718.213	0.0104061
718.291	0.0103730
718.369	0.0103147
718.447	0.0104809
718.525	0.0107088
718.603	0.0107829
718.682	0.0112274
718.760	0.0116681
718.838	0.0121529
718.916	0.0126791
718.994	0.0131802
719.072	0.0136908
719.150	0.0141673
719.228	0.0146497
719.307	0.0150338
719.385	0.0152953
719.463	0.0156033
719.541	0.0155527
719.619	0.0157207
719.697	0.0154240
719.775	0.0153078
719.853	0.0151362
719.932	0.0149384
720.010	0.0144337
720.088	0.0141286
720.166	0.0138461
720.244	0.0136716
720.322	0.0135851
720.400	0.0131419
720.478	0.0131056
720.557	0.0132024
720.635	0.0133130
720.713	0.0134374
720.791	0.0136355
720.869	0.0140299
720.947	0.0143044
721.025	0.0144952
721.103	0.0147614
721.182	0.0150674
721.260	0.0153276
721.338	0.0154778
721.416	0.0155286
721.494	0.0156979
721.572	0.0158921
721.650	0.0161697
721.728	0.0162387
721.807	0.0162610
721.885	0.0162910
721.963	0.0165210
722.041	0.0166071
722.119	0.0166511
722.197	0.0167188
722.275	0.0168227
722.353	0.0166985
722.432	0.0167870
722.510	0.0169016
722.588	0.0169474
722.666	0.0169234
722.744	0.0169032
722.822	0.0168210
722.900	0.0167142
722.978	0.0165403
723.057	0.0163370
723.135	0.0161588
723.213	0.0158810
723.291	0.0154884
723.369	0.0150768
723.447	0.0147120
723.525	0.0141756
723.603	0.0137234
723.682	0.0131342
723.760	0.0125771
723.838	0.0122944
723.916	0.0116221
723.994	0.0112074
724.072	0.0109779
724.150	0.0105708
724.228	0.0102813
724.307	0.0101104
724.385	0.00999985
724.463	0.0100510
724.541	0.0101215
724.619	0.0103238
724.697	0.0105611
724.775	0.0108385
724.853	0.0112089
724.932	0.0113705
725.010	0.0116191
725.088	0.0119730
725.166	0.0122347
725.244	0.0125869
725.322	0.0128683
725.400	0.0132373
725.478	0.0131172
725.557	0.0133204
725.635	0.0136631
725.713	0.0137328
725.791	0.0137105
725.869	0.0137158
725.947	0.0137490
726.025	0.0137891
726.103	0.0138675
726.182	0.0138977
726.260	0.0138088
726.338	0.0140473
726.416	0.0141718
726.494	0.0144205
726.572	0.0146528
726.650	0.0147614
726.728	0.0151447
726.807	0.0154749
726.885	0.0157372
726.963	0.0159275
727.041	0.0160452
727.119	0.0165320
727.197	0.0166318
727.275	0.0167752
727.353	0.0169634
727.432	0.0172581
727.510	0.0173027
727.588	0.0173106
727.666	0.0174366
727.744	0.0174298
727.822	0.0174216
727.900	0.0173515
727.978	0.0174229
728.057	0.0172265
728.135	0.0170559
728.213	0.0169185
728.291	0.0169275
728.369	0.0166264
728.447	0.0164632
728.525	0.0163771
728.603	0.0162753
728.682	0.0159940
728.760	0.0158473
728.838	0.0157738
728.916	0.0156113
728.994	0.0155111
729.072	0.0151942
729.150	0.0148219
729.228	0.0144901
729.307	0.0142339
729.385	0.0137782
729.463	0.0135987
729.541	0.0130040
729.619	0.0126608
729.697	0.0122183
729.775	0.0118448
729.853	0.0115024
729.932	0.0113295
730.010	0.0109064
730.088	0.0106416
730.166	0.0106009
730.244	0.0104271
730.322	0.0103783
730.400	0.0104837
730.478	0.0106805
730.557	0.0106990
730.635	0.0108073
730.713	0.0111083
730.791	0.0113168
730.869	0.0115510
730.947	0.0117918
731.025	0.0116911
731.103	0.0120303
731.182	0.0122987
731.260	0.0125893
731.338	0.0128024
731.416	0.0127835
731.494	0.0129816
731.572	0.0130453
731.650	0.0130366
731.728	0.0133325
731.807	0.0133768
731.885	0.0135104
731.963	0.0137014
732.041	0.0137930
732.119	0.0139478
732.197	0.0142740
732.275	0.0147102
732.353	0.0148888
732.432	0.0150249
732.510	0.0155486
732.588	0.0156450
732.666	0.0159997
732.744	0.0161338
732.822	0.0163024
732.900	0.0166053
732.978	0.0165923
733.057	0.0167049
733.135	0.0167445
733.213	0.0168188
733.291	0.0169115
733.369	0.0168661
733.447	0.0167787
733.525	0.0168060
733.603	0.0169300
733.682	0.0168916
733.760	0.0168743
733.838	0.0168739
733.916	0.0167654
733.994	0.0168030
734.072	0.0166999
734.150	0.0165739
734.228	0.0164256
734.307	0.0164430
734.385	0.0163395
734.463	0.0162267
734.541	0.0160730
734.619	0.0158121
734.697	0.0154904
734.775	0.0153407
734.853	0.0151471
734.932	0.0150282
735.010	0.0147611
735.088	0.0145827
735.166	0.0141835
735.244	0.0140402
735.322	0.0137397
735.400	0.0135370
735.478	0.0134087
735.557	0.0128917
735.635	0.0126091
