05/14/2022	19:22:25	Ver.	4.1	UNKNOWN
Optical Delay	650.009681	Delta X		0.078125	Sweeps	1	Scan Rate	0/0
Coordinates	Axis 1	NaN	Axis 2	NaN	Axis 3	NaN	Axis 4	NaN	Axis 5	NaN	Axis 6	0.000000
TX Power	0.000000	RX Power	0.000000

650.010	0.0143102
650.088	0.0142949
650.166	0.0143582
650.244	0.0142947
650.322	0.0142363
650.400	0.0143925
650.478	0.0141616
650.557	0.0142709
650.635	0.0142845
650.713	0.0143266
650.791	0.0142535
650.869	0.0141416
650.947	0.0143092
651.025	0.0143415
651.103	0.0141988
651.182	0.0142577
651.260	0.0141419
651.338	0.0142503
651.416	0.0142229
651.494	0.0142104
651.572	0.0142485
651.650	0.0143355
651.728	0.0142266
651.807	0.0142853
651.885	0.0141903
651.963	0.0142928
652.041	0.0143422
652.119	0.0144156
652.197	0.0143459
652.275	0.0142168
652.353	0.0143604
652.432	0.0142674
652.510	0.0143104
652.588	0.0143055
652.666	0.0143473
652.744	0.0143352
652.822	0.0142777
652.900	0.0141351
652.978	0.0143318
653.057	0.0142825
653.135	0.0142538
653.213	0.0143858
653.291	0.0143716
653.369	0.0143185
653.447	0.0143192
653.525	0.0143250
653.603	0.0142322
653.682	0.0143043
653.760	0.0143698
653.838	0.0142465
653.916	0.0142736
653.994	0.0142546
654.072	0.0142495
654.150	0.0143208
654.228	0.0142774
654.307	0.0143115
654.385	0.0141402
654.463	0.0142155
654.541	0.0143098
654.619	0.0143732
654.697	0.0141110
654.775	0.0142671
654.853	0.0144797
654.932	0.0143288
655.010	0.0142735
655.088	0.0142678
655.166	0.0141565
655.244	0.0142491
655.322	0.0142216
655.400	0.0142467
655.478	0.0141854
655.557	0.0139943
655.635	0.0142382
655.713	0.0142821
655.791	0.0142048
655.869	0.0142251
655.947	0.0141309
656.025	0.0142284
656.103	0.0141893
656.182	0.0141663
656.260	0.0140965
656.338	0.0140546
656.416	0.0141587
656.494	0.0141479
656.572	0.0141280
656.650	0.0141673
656.728	0.0141531
656.807	0.0141677
656.885	0.0141391
656.963	0.0141309
657.041	0.0141815
657.119	0.0140561
657.197	0.0141273
657.275	0.0141568
657.353	0.0142264
657.432	0.0142558
657.510	0.0140191
657.588	0.0143457
657.666	0.0141644
657.744	0.0140880
657.822	0.0142100
657.900	0.0141323
657.978	0.0140376
658.057	0.0142270
658.135	0.0142041
658.213	0.0141530
658.291	0.0142674
658.369	0.0142092
658.447	0.0141891
658.525	0.0141524
658.603	0.0142429
658.682	0.0142190
658.760	0.0141645
658.838	0.0141695
658.916	0.0140958
658.994	0.0142428
659.072	0.0142145
659.150	0.0141898
659.228	0.0142343
659.307	0.0142658
659.385	0.0142987
659.463	0.0143188
659.541	0.0141843
659.619	0.0141901
659.697	0.0143068
659.775	0.0142144
659.853	0.0141969
659.932	0.0141897
660.010	0.0141492
660.088	0.0142936
660.166	0.0141605
660.244	0.0142013
660.322	0.0142764
660.400	0.0142385
660.478	0.0143394
660.557	0.0141468
660.635	0.0141273
660.713	0.0141750
660.791	0.0141199
660.869	0.0141538
660.947	0.0142427
661.025	0.0141901
661.103	0.0143726
661.182	0.0141932
661.260	0.0141591
661.338	0.0141578
661.416	0.0141314
661.494	0.0143143
661.572	0.0142448
661.650	0.0141143
661.728	0.0141864
661.807	0.0142230
661.885	0.0142377
661.963	0.0141940
662.041	0.0143195
662.119	0.0141289
662.197	0.0142071
662.275	0.0143435
662.353	0.0140728
662.432	0.0141283
662.510	0.0142510
662.588	0.0140195
662.666	0.0142033
662.744	0.0143274
662.822	0.0141222
662.900	0.0142033
662.978	0.0141971
663.057	0.0142055
663.135	0.0141856
663.213	0.0140537
663.291	0.0142409
663.369	0.0141682
663.447	0.0141879
663.525	0.0142845
663.603	0.0142342
663.682	0.0142278
663.760	0.0141468
663.838	0.0142230
663.916	0.0142230
663.994	0.0142648
664.072	0.0141348
664.150	0.0141360
664.228	0.0141708
664.307	0.0142903
664.385	0.0141013
664.463	0.0142310
664.541	0.0142358
664.619	0.0141629
664.697	0.0141718
664.775	0.0143771
664.853	0.0142536
664.932	0.0141788
665.010	0.0142477
665.088	0.0142429
665.166	0.0142479
665.244	0.0144117
665.322	0.0143961
665.400	0.0143280
665.478	0.0143234
665.557	0.0143658
665.635	0.0141322
665.713	0.0142509
665.791	0.0142013
665.869	0.0143233
665.947	0.0141759
666.025	0.0141908
666.103	0.0142167
666.182	0.0142493
666.260	0.0141185
666.338	0.0142667
666.416	0.0142096
666.494	0.0143119
666.572	0.0141583
666.650	0.0142123
666.728	0.0143235
666.807	0.0143160
666.885	0.0141573
666.963	0.0141540
667.041	0.0143158
667.119	0.0141737
667.197	0.0141972
667.275	0.0141277
667.353	0.0142164
667.432	0.0142971
667.510	0.0142871
667.588	0.0142185
667.666	0.0141366
667.744	0.0141702
667.822	0.0141587
667.900	0.0141229
667.978	0.0142400
668.057	0.0140919
668.135	0.0142222
668.213	0.0142875
668.291	0.0142310
668.369	0.0141270
668.447	0.0141524
668.525	0.0142753
668.603	0.0141435
668.682	0.0140962
668.760	0.0141140
668.838	0.0143275
668.916	0.0142133
668.994	0.0142205
669.072	0.0141039
669.150	0.0142768
669.228	0.0141520
669.307	0.0143285
669.385	0.0142143
669.463	0.0142194
669.541	0.0141579
669.619	0.0142651
669.697	0.0143751
669.775	0.0142831
669.853	0.0142165
669.932	0.0141544
670.010	0.0142772
670.088	0.0142046
670.166	0.0141991
670.244	0.0142751
670.322	0.0142350
670.400	0.0141890
670.478	0.0143071
670.557	0.0144448
670.635	0.0144453
670.713	0.0142187
670.791	0.0142771
670.869	0.0142908
670.947	0.0143456
671.025	0.0142610
671.103	0.0142822
671.182	0.0142522
671.260	0.0143082
671.338	0.0143530
671.416	0.0144521
671.494	0.0142490
671.572	0.0142220
671.650	0.0143143
671.728	0.0142731
671.807	0.0143630
671.885	0.0142305
671.963	0.0142862
672.041	0.0142337
672.119	0.0142838
672.197	0.0142912
672.275	0.0143614
672.353	0.0143908
672.432	0.0142867
672.510	0.0143123
672.588	0.0143542
672.666	0.0143842
672.744	0.0142782
672.822	0.0143570
672.900	0.0144212
672.978	0.0143355
673.057	0.0142818
673.135	0.0144538
673.213	0.0143866
673.291	0.0143503
673.369	0.0143835
673.447	0.0142982
673.525	0.0142001
673.603	0.0144812
673.682	0.0144077
673.760	0.0144324
673.838	0.0143597
673.916	0.0143050
673.994	0.0144920
674.072	0.0143517
674.150	0.0143670
674.228	0.0143486
674.307	0.0142470
674.385	0.0142739
674.463	0.0141131
674.541	0.0140890
674.619	0.0140202
674.697	0.0138057
674.775	0.0139444
674.853	0.0139400
674.932	0.0139586
675.010	0.0143323
675.088	0.0144569
675.166	0.0144917
675.244	0.0145895
675.322	0.0149110
675.400	0.0149389
675.478	0.0149615
675.557	0.0150587
675.635	0.0151449
675.713	0.0150075
675.791	0.0148733
675.869	0.0146939
675.947	0.0143549
676.025	0.0141930
676.103	0.0139472
676.182	0.0136069
676.260	0.0134713
676.338	0.0134879
676.416	0.0132880
676.494	0.0132635
676.572	0.0134851
676.650	0.0133969
676.728	0.0135487
676.807	0.0135651
676.885	0.0137217
676.963	0.0137945
677.041	0.0139590
677.119	0.0140322
677.197	0.0142148
677.275	0.0144040
677.353	0.0145294
677.432	0.0144727
677.510	0.0147402
677.588	0.0148512
677.666	0.0150264
677.744	0.0149421
677.822	0.0153260
677.900	0.0152270
677.978	0.0153220
678.057	0.0152017
678.135	0.0152927
678.213	0.0152242
678.291	0.0150478
678.369	0.0149875
678.447	0.0147976
678.525	0.0146861
678.603	0.0144855
678.682	0.0144205
678.760	0.0141649
678.838	0.0140136
678.916	0.0136817
678.994	0.0138232
679.072	0.0136423
679.150	0.0133737
679.228	0.0133824
679.307	0.0132104
679.385	0.0130022
679.463	0.0130197
679.541	0.0129937
679.619	0.0126349
679.697	0.0127010
679.775	0.0127297
679.853	0.0129845
679.932	0.0129937
680.010	0.0132409
680.088	0.0133361
680.166	0.0135680
680.244	0.0139857
680.322	0.0144834
680.400	0.0146619
680.478	0.0151321
680.557	0.0155016
680.635	0.0156724
680.713	0.0161304
680.791	0.0164648
680.869	0.0164526
680.947	0.0165123
681.025	0.0165043
681.103	0.0162707
681.182	0.0159321
681.260	0.0157980
681.338	0.0155588
681.416	0.0152325
681.494	0.0149046
681.572	0.0145121
681.650	0.0142250
681.728	0.0141512
681.807	0.0140009
681.885	0.0138589
681.963	0.0137005
682.041	0.0136044
682.119	0.0134723
682.197	0.0132460
682.275	0.0131625
682.353	0.0127545
682.432	0.0123071
682.510	0.0119321
682.588	0.0114875
682.666	0.0112071
682.744	0.0110925
682.822	0.0110704
682.900	0.0111559
682.978	0.0113740
683.057	0.0117133
683.135	0.0122196
683.213	0.0129082
683.291	0.0134974
683.369	0.0142504
683.447	0.0147387
683.525	0.0153784
683.603	0.0159824
683.682	0.0163591
683.760	0.0166205
683.838	0.0167587
683.916	0.0166368
683.994	0.0167431
684.072	0.0168257
684.150	0.0166382
684.228	0.0166771
684.307	0.0166607
684.385	0.0165724
684.463	0.0164261
684.541	0.0161890
684.619	0.0160999
684.697	0.0158854
684.775	0.0155476
684.853	0.0151636
684.932	0.0148521
685.010	0.0143781
685.088	0.0139242
685.166	0.0135896
685.244	0.0132150
685.322	0.0128178
685.400	0.0126434
685.478	0.0126810
685.557	0.0123084
685.635	0.0123468
685.713	0.0121598
685.791	0.0121337
685.869	0.0121545
685.947	0.0121294
686.025	0.0120552
686.103	0.0122270
686.182	0.0122694
686.260	0.0122971
686.338	0.0125459
686.416	0.0125932
686.494	0.0131181
686.572	0.0134371
686.650	0.0137531
686.728	0.0143520
686.807	0.0148139
686.885	0.0152536
686.963	0.0157500
687.041	0.0161488
687.119	0.0165253
687.197	0.0166303
687.275	0.0168562
687.353	0.0167195
687.432	0.0164260
687.510	0.0160158
687.588	0.0157997
687.666	0.0153416
687.744	0.0147906
687.822	0.0143557
687.900	0.0140681
687.978	0.0136471
688.057	0.0135208
688.135	0.0133052
688.213	0.0133286
688.291	0.0133524
688.369	0.0134914
688.447	0.0138110
688.525	0.0141053
688.603	0.0143703
688.682	0.0145867
688.760	0.0147424
688.838	0.0148528
688.916	0.0149113
688.994	0.0148760
689.072	0.0148219
689.150	0.0149434
689.228	0.0145757
689.307	0.0146128
689.385	0.0147362
689.463	0.0145684
689.541	0.0146851
689.619	0.0147231
689.697	0.0148336
689.775	0.0149119
689.853	0.0150174
689.932	0.0150370
690.010	0.0147954
690.088	0.0146823
690.166	0.0147514
690.244	0.0144677
690.322	0.0142389
690.400	0.0140465
690.478	0.0138596
690.557	0.0137114
690.635	0.0135956
690.713	0.0135920
690.791	0.0133993
690.869	0.0132048
690.947	0.0131300
691.025	0.0130166
691.103	0.0130357
691.182	0.0129663
691.260	0.0130840
691.338	0.0128911
691.416	0.0126897
691.494	0.0126260
691.572	0.0127043
691.650	0.0128074
691.728	0.0127214
691.807	0.0127200
691.885	0.0128981
691.963	0.0133176
692.041	0.0134785
692.119	0.0137961
692.197	0.0140829
692.275	0.0146764
692.353	0.0149406
692.432	0.0152753
692.510	0.0155707
692.588	0.0159491
692.666	0.0162148
692.744	0.0162672
692.822	0.0164729
692.900	0.0165420
692.978	0.0162257
693.057	0.0160936
693.135	0.0159138
693.213	0.0158006
693.291	0.0154832
693.369	0.0155375
693.447	0.0153877
693.525	0.0152873
693.603	0.0153033
693.682	0.0154315
693.760	0.0154154
693.838	0.0154721
693.916	0.0154443
693.994	0.0153651
694.072	0.0153801
694.150	0.0150219
694.228	0.0147404
694.307	0.0144892
694.385	0.0139529
694.463	0.0137325
694.541	0.0133318
694.619	0.0130475
694.697	0.0128518
694.775	0.0127103
694.853	0.0124740
694.932	0.0123580
695.010	0.0125815
695.088	0.0124886
695.166	0.0125101
695.244	0.0125285
695.322	0.0122778
695.400	0.0123514
695.478	0.0123212
695.557	0.0120699
695.635	0.0120874
695.713	0.0119440
695.791	0.0118300
695.869	0.0120881
695.947	0.0121165
696.025	0.0122538
696.103	0.0125771
696.182	0.0129503
696.260	0.0132990
696.338	0.0136285
696.416	0.0140398
696.494	0.0144196
696.572	0.0148251
696.650	0.0150890
696.728	0.0154556
696.807	0.0155492
696.885	0.0158062
696.963	0.0159670
697.041	0.0160882
697.119	0.0163470
697.197	0.0163824
697.275	0.0163818
697.353	0.0164719
697.432	0.0165094
697.510	0.0165179
697.588	0.0163699
697.666	0.0162814
697.744	0.0162202
697.822	0.0160230
697.900	0.0160246
697.978	0.0157716
698.057	0.0157348
698.135	0.0157312
698.213	0.0155387
698.291	0.0156140
698.369	0.0155088
698.447	0.0152299
698.525	0.0151570
698.603	0.0148411
698.682	0.0145919
698.760	0.0141682
698.838	0.0137539
698.916	0.0132222
698.994	0.0129197
699.072	0.0124756
699.150	0.0120345
699.228	0.0119251
699.307	0.0115865
699.385	0.0116406
699.463	0.0116920
699.541	0.0117648
699.619	0.0118526
699.697	0.0121017
699.775	0.0122894
699.853	0.0125440
699.932	0.0128935
700.010	0.0133482
700.088	0.0135303
700.166	0.0137895
700.244	0.0142657
700.322	0.0147601
700.400	0.0150962
700.478	0.0156774
700.557	0.0158052
700.635	0.0160659
700.713	0.0163422
700.791	0.0163293
700.869	0.0164128
700.947	0.0162218
701.025	0.0158202
701.103	0.0155706
701.182	0.0152003
701.260	0.0147356
701.338	0.0143259
701.416	0.0138072
701.494	0.0131870
701.572	0.0126952
701.650	0.0125133
701.728	0.0120311
701.807	0.0119234
701.885	0.0116316
701.963	0.0116967
702.041	0.0118211
702.119	0.0119216
702.197	0.0120775
702.275	0.0122667
702.353	0.0127789
702.432	0.0130842
702.510	0.0134099
702.588	0.0137894
702.666	0.0141017
702.744	0.0145709
702.822	0.0148672
702.900	0.0152685
702.978	0.0155429
703.057	0.0158404
703.135	0.0162088
703.213	0.0164346
703.291	0.0166192
703.369	0.0168949
703.447	0.0172511
703.525	0.0173168
703.603	0.0172556
703.682	0.0173821
703.760	0.0175246
703.838	0.0174947
703.916	0.0171356
703.994	0.0170963
704.072	0.0169897
704.150	0.0166342
704.228	0.0163380
704.307	0.0159842
704.385	0.0157766
704.463	0.0153643
704.541	0.0150523
704.619	0.0145843
704.697	0.0141901
704.775	0.0139674
704.853	0.0135914
704.932	0.0134282
705.010	0.0131387
705.088	0.0127467
705.166	0.0124679
705.244	0.0120949
705.322	0.0119800
705.400	0.0116642
705.478	0.0115229
705.557	0.0110223
705.635	0.0110664
705.713	0.0110293
705.791	0.0110063
705.869	0.0110659
705.947	0.0110409
706.025	0.0112383
706.103	0.0115408
706.182	0.0119028
706.260	0.0121796
706.338	0.0123364
706.416	0.0127842
706.494	0.0129683
706.572	0.0133013
706.650	0.0134534
706.728	0.0137446
706.807	0.0138030
706.885	0.0141455
706.963	0.0143030
707.041	0.0143082
707.119	0.0146188
707.197	0.0149773
707.275	0.0151947
707.353	0.0153470
707.432	0.0154668
707.510	0.0157484
707.588	0.0159313
707.666	0.0158385
707.744	0.0159863
707.822	0.0160773
707.900	0.0160448
707.978	0.0158816
708.057	0.0157119
708.135	0.0156133
708.213	0.0156033
708.291	0.0154597
708.369	0.0154634
708.447	0.0154391
708.525	0.0154152
708.603	0.0152419
708.682	0.0153298
708.760	0.0154377
708.838	0.0152408
708.916	0.0154155
708.994	0.0153413
709.072	0.0154265
709.150	0.0153667
709.228	0.0152290
709.307	0.0151821
709.385	0.0150418
709.463	0.0149522
709.541	0.0150580
709.619	0.0149672
709.697	0.0151254
709.775	0.0152036
709.853	0.0151188
709.932	0.0153069
710.010	0.0153493
710.088	0.0151253
710.166	0.0150649
710.244	0.0149599
710.322	0.0148189
710.400	0.0146403
710.478	0.0144035
710.557	0.0139942
710.635	0.0136621
710.713	0.0132915
710.791	0.0129108
710.869	0.0126067
710.947	0.0123093
711.025	0.0121387
711.103	0.0119311
711.182	0.0116479
711.260	0.0116315
711.338	0.0116011
711.416	0.0117757
711.494	0.0118389
711.572	0.0118450
711.650	0.0120840
711.728	0.0120524
711.807	0.0122215
711.885	0.0124502
711.963	0.0126556
712.041	0.0130682
712.119	0.0132806
712.197	0.0134055
712.275	0.0133485
712.353	0.0136403
712.432	0.0137333
712.510	0.0139187
712.588	0.0141570
712.666	0.0141244
712.744	0.0141052
712.822	0.0142668
712.900	0.0142996
712.978	0.0141534
713.057	0.0141730
713.135	0.0142737
713.213	0.0142992
713.291	0.0143641
713.369	0.0143690
713.447	0.0144213
713.525	0.0143289
713.603	0.0143121
713.682	0.0144880
713.760	0.0146555
713.838	0.0147910
713.916	0.0148537
713.994	0.0150117
714.072	0.0151437
714.150	0.0153899
714.228	0.0157653
714.307	0.0160801
714.385	0.0162624
714.463	0.0164616
714.541	0.0165696
714.619	0.0167879
714.697	0.0170261
714.775	0.0169653
714.853	0.0168232
714.932	0.0168233
715.010	0.0166005
715.088	0.0164621
715.166	0.0161112
715.244	0.0161749
715.322	0.0160637
715.400	0.0158683
715.478	0.0158315
715.557	0.0156481
715.635	0.0153599
715.713	0.0154352
715.791	0.0154047
715.869	0.0153156
715.947	0.0151701
716.025	0.0149146
716.103	0.0145998
716.182	0.0142698
716.260	0.0136414
716.338	0.0132973
716.416	0.0129923
716.494	0.0124549
716.572	0.0119110
716.650	0.0115304
716.728	0.0109043
716.807	0.0104982
716.885	0.0101987
716.963	0.00998695
717.041	0.00992157
717.119	0.00987793
717.197	0.00965981
717.275	0.00992210
717.353	0.00998970
717.432	0.0103615
717.510	0.0106607
717.588	0.0110808
717.666	0.0116512
717.744	0.0121524
717.822	0.0128027
717.900	0.0133463
717.978	0.0138588
718.057	0.0144710
718.135	0.0149089
718.213	0.0153903
718.291	0.0154868
718.369	0.0158598
718.447	0.0161368
718.525	0.0161468
718.603	0.0161163
718.682	0.0159498
718.760	0.0158355
718.838	0.0156362
718.916	0.0154738
718.994	0.0152579
719.072	0.0150900
719.150	0.0149513
719.228	0.0149060
719.307	0.0149518
719.385	0.0149661
719.463	0.0150161
719.541	0.0150407
719.619	0.0151616
719.697	0.0151041
719.775	0.0152401
719.853	0.0153593
719.932	0.0154524
720.010	0.0155019
720.088	0.0155140
720.166	0.0154269
720.244	0.0153635
720.322	0.0153633
720.400	0.0154245
720.478	0.0154516
720.557	0.0153462
720.635	0.0152946
720.713	0.0153713
720.791	0.0153078
720.869	0.0152461
720.947	0.0151025
721.025	0.0151568
721.103	0.0151625
721.182	0.0150678
721.260	0.0150764
721.338	0.0151068
721.416	0.0150784
721.494	0.0150589
721.572	0.0152466
721.650	0.0153236
721.728	0.0152340
721.807	0.0152972
721.885	0.0155232
721.963	0.0154105
722.041	0.0154310
722.119	0.0152667
722.197	0.0149438
722.275	0.0148808
722.353	0.0143193
722.432	0.0138631
722.510	0.0134253
722.588	0.0130126
722.666	0.0124377
722.744	0.0118069
722.822	0.0113043
722.900	0.0111371
722.978	0.0107158
723.057	0.0104982
723.135	0.0102415
723.213	0.0102322
723.291	0.0105418
723.369	0.0107194
723.447	0.0109398
723.525	0.0113883
723.603	0.0119264
723.682	0.0125543
723.760	0.0129472
723.838	0.0133922
723.916	0.0137738
723.994	0.0143120
724.072	0.0148433
724.150	0.0149878
724.228	0.0154243
724.307	0.0153098
724.385	0.0154598
724.463	0.0155587
724.541	0.0152534
724.619	0.0150584
724.697	0.0150481
724.775	0.0146804
724.853	0.0145291
724.932	0.0144084
725.010	0.0142544
725.088	0.0142663
725.166	0.0139953
725.244	0.0140685
725.322	0.0142179
725.400	0.0144299
725.478	0.0145449
725.557	0.0145876
725.635	0.0148989
725.713	0.0148746
725.791	0.0151089
725.869	0.0152971
725.947	0.0154700
726.025	0.0153779
726.103	0.0155853
726.182	0.0157916
726.260	0.0156740
726.338	0.0157005
726.416	0.0157481
726.494	0.0156937
726.572	0.0156821
726.650	0.0157410
726.728	0.0156881
726.807	0.0156315
726.885	0.0155093
726.963	0.0154765
727.041	0.0153192
727.119	0.0152348
727.197	0.0150813
727.275	0.0150952
727.353	0.0150893
727.432	0.0150692
727.510	0.0151955
727.588	0.0152493
727.666	0.0153811
727.744	0.0153326
727.822	0.0153345
727.900	0.0155190
727.978	0.0155373
728.057	0.0155482
728.135	0.0155673
728.213	0.0154665
728.291	0.0151061
728.369	0.0149767
728.447	0.0144433
728.525	0.0141682
728.603	0.0137398
728.682	0.0133476
728.760	0.0129051
728.838	0.0123260
728.916	0.0120142
728.994	0.0117838
729.072	0.0114607
729.150	0.0112167
729.228	0.0113131
729.307	0.0114099
729.385	0.0114639
729.463	0.0116599
729.541	0.0118383
729.619	0.0120020
729.697	0.0120711
729.775	0.0125558
729.853	0.0128235
729.932	0.0132133
730.010	0.0135118
730.088	0.0137669
730.166	0.0138604
730.244	0.0140786
730.322	0.0140453
730.400	0.0140852
730.478	0.0141916
730.557	0.0141837
730.635	0.0140878
730.713	0.0140381
730.791	0.0140111
730.869	0.0137585
730.947	0.0135492
731.025	0.0134448
731.103	0.0132892
731.182	0.0132236
731.260	0.0131598
731.338	0.0132214
731.416	0.0134502
731.494	0.0135706
731.572	0.0138482
731.650	0.0141087
731.728	0.0142918
731.807	0.0147709
731.885	0.0150323
731.963	0.0153693
732.041	0.0156229
732.119	0.0159271
732.197	0.0159431
732.275	0.0160861
732.353	0.0163162
732.432	0.0162627
732.510	0.0162568
732.588	0.0163881
732.666	0.0163213
732.744	0.0162872
732.822	0.0163667
732.900	0.0163718
732.978	0.0164301
733.057	0.0163406
733.135	0.0163126
733.213	0.0162564
733.291	0.0160925
733.369	0.0162083
733.447	0.0160294
733.525	0.0162601
733.603	0.0161480
733.682	0.0158342
733.760	0.0158440
733.838	0.0158671
733.916	0.0157687
733.994	0.0156770
734.072	0.0153854
734.150	0.0153526
734.228	0.0151012
734.307	0.0148672
734.385	0.0146784
734.463	0.0143162
734.541	0.0141826
734.619	0.0137409
734.697	0.0132886
734.775	0.0128758
734.853	0.0124795
734.932	0.0120957
735.010	0.0117041
735.088	0.0113150
735.166	0.0110661
735.244	0.0109102
735.322	0.0107104
735.400	0.0104945
735.478	0.0105444
735.557	0.0106000
735.635	0.0106426
735.713	0.0106827
