05/14/2022	19:23:25	Ver.	4.1	UNKNOWN
Optical Delay	650.009681	Delta X		0.078125	Sweeps	1	Scan Rate	0/0
Coordinates	Axis 1	NaN	Axis 2	NaN	Axis 3	NaN	Axis 4	NaN	Axis 5	NaN	Axis 6	0.000000
TX Power	0.000000	RX Power	0.000000

650.010	0.0145777
650.088	0.0146384
650.166	0.0145996
650.244	0.0145287
650.322	0.0146432
650.400	0.0144989
650.478	0.0146852
650.557	0.0146787
650.635	0.0147060
650.713	0.0145760
650.791	0.0145914
650.869	0.0146225
650.947	0.0146235
651.025	0.0145905
651.103	0.0146236
651.182	0.0146320
651.260	0.0145226
651.338	0.0146030
651.416	0.0147033
651.494	0.0146442
651.572	0.0146123
651.650	0.0145430
651.728	0.0146061
651.807	0.0145129
651.885	0.0146387
651.963	0.0145954
652.041	0.0145361
652.119	0.0145961
652.197	0.0147000
652.275	0.0146340
652.353	0.0147330
652.432	0.0145251
652.510	0.0145860
652.588	0.0147294
652.666	0.0146595
652.744	0.0146631
652.822	0.0145933
652.900	0.0147309
652.978	0.0146114
653.057	0.0145052
653.135	0.0146700
653.213	0.0146996
653.291	0.0146112
653.369	0.0145568
653.447	0.0146195
653.525	0.0145470
653.603	0.0145538
653.682	0.0146702
653.760	0.0145538
653.838	0.0146249
653.916	0.0145495
653.994	0.0145282
654.072	0.0146040
654.150	0.0146286
654.228	0.0146716
654.307	0.0145956
654.385	0.0146976
654.463	0.0146017
654.541	0.0146265
654.619	0.0145388
654.697	0.0146941
654.775	0.0147711
654.853	0.0147005
654.932	0.0146480
655.010	0.0146671
655.088	0.0146993
655.166	0.0145428
655.244	0.0147153
655.322	0.0147899
655.400	0.0147270
655.478	0.0148392
655.557	0.0146822
655.635	0.0147049
655.713	0.0147266
655.791	0.0146497
655.869	0.0146247
655.947	0.0146394
656.025	0.0148014
656.103	0.0147152
656.182	0.0147662
656.260	0.0147088
656.338	0.0147857
656.416	0.0147837
656.494	0.0146589
656.572	0.0147415
656.650	0.0147421
656.728	0.0146666
656.807	0.0148280
656.885	0.0147948
656.963	0.0147525
657.041	0.0147378
657.119	0.0146786
657.197	0.0146510
657.275	0.0148165
657.353	0.0147357
657.432	0.0148380
657.510	0.0148670
657.588	0.0147900
657.666	0.0147250
657.744	0.0147426
657.822	0.0147731
657.900	0.0147296
657.978	0.0148914
658.057	0.0149175
658.135	0.0149475
658.213	0.0147777
658.291	0.0147987
658.369	0.0148531
658.447	0.0149210
658.525	0.0148525
658.603	0.0147050
658.682	0.0149551
658.760	0.0148728
658.838	0.0148506
658.916	0.0147497
658.994	0.0147733
659.072	0.0147604
659.150	0.0149456
659.228	0.0146894
659.307	0.0146825
659.385	0.0147945
659.463	0.0148380
659.541	0.0147508
659.619	0.0147829
659.697	0.0148437
659.775	0.0148454
659.853	0.0149740
659.932	0.0148542
660.010	0.0149237
660.088	0.0149106
660.166	0.0147926
660.244	0.0148504
660.322	0.0148624
660.400	0.0148001
660.478	0.0148293
660.557	0.0148047
660.635	0.0147127
660.713	0.0148418
660.791	0.0147929
660.869	0.0147717
660.947	0.0147999
661.025	0.0147942
661.103	0.0147044
661.182	0.0146725
661.260	0.0147305
661.338	0.0147682
661.416	0.0147172
661.494	0.0147207
661.572	0.0147852
661.650	0.0147275
661.728	0.0147061
661.807	0.0148177
661.885	0.0146651
661.963	0.0146766
662.041	0.0146480
662.119	0.0147259
662.197	0.0147640
662.275	0.0147141
662.353	0.0146534
662.432	0.0146816
662.510	0.0146504
662.588	0.0146844
662.666	0.0146286
662.744	0.0147409
662.822	0.0146942
662.900	0.0147812
662.978	0.0146452
663.057	0.0146339
663.135	0.0147009
663.213	0.0146490
663.291	0.0146510
663.369	0.0146729
663.447	0.0148427
663.525	0.0146770
663.603	0.0145959
663.682	0.0146223
663.760	0.0145830
663.838	0.0146512
663.916	0.0148975
663.994	0.0147408
664.072	0.0146281
664.150	0.0147473
664.228	0.0148378
664.307	0.0147063
664.385	0.0146593
664.463	0.0147339
664.541	0.0145539
664.619	0.0146581
664.697	0.0148148
664.775	0.0148214
664.853	0.0146177
664.932	0.0147411
665.010	0.0148638
665.088	0.0146371
665.166	0.0145980
665.244	0.0147472
665.322	0.0147103
665.400	0.0146978
665.478	0.0148260
665.557	0.0147498
665.635	0.0147095
665.713	0.0147325
665.791	0.0147001
665.869	0.0145906
665.947	0.0146474
666.025	0.0146362
666.103	0.0145837
666.182	0.0147069
666.260	0.0147075
666.338	0.0146174
666.416	0.0147132
666.494	0.0146164
666.572	0.0147661
666.650	0.0147376
666.728	0.0146404
666.807	0.0146661
666.885	0.0146027
666.963	0.0145916
667.041	0.0146652
667.119	0.0146699
667.197	0.0145927
667.275	0.0146249
667.353	0.0145528
667.432	0.0146450
667.510	0.0146699
667.588	0.0146562
667.666	0.0145400
667.744	0.0146613
667.822	0.0145802
667.900	0.0146362
667.978	0.0146257
668.057	0.0145445
668.135	0.0145613
668.213	0.0145051
668.291	0.0144286
668.369	0.0146277
668.447	0.0145995
668.525	0.0146338
668.603	0.0145994
668.682	0.0144852
668.760	0.0146782
668.838	0.0146468
668.916	0.0145680
668.994	0.0146659
669.072	0.0146530
669.150	0.0145033
669.228	0.0146354
669.307	0.0145451
669.385	0.0145002
669.463	0.0145791
669.541	0.0144769
669.619	0.0145728
669.697	0.0146249
669.775	0.0145605
669.853	0.0145161
669.932	0.0145561
670.010	0.0145110
670.088	0.0145244
670.166	0.0145203
670.244	0.0144334
670.322	0.0145809
670.400	0.0143719
670.478	0.0145542
670.557	0.0145898
670.635	0.0146046
670.713	0.0145694
670.791	0.0146738
670.869	0.0146281
670.947	0.0145969
671.025	0.0147132
671.103	0.0146695
671.182	0.0147289
671.260	0.0147011
671.338	0.0146165
671.416	0.0145527
671.494	0.0148000
671.572	0.0146089
671.650	0.0146132
671.728	0.0146674
671.807	0.0147163
671.885	0.0146675
671.963	0.0146548
672.041	0.0146673
672.119	0.0146645
672.197	0.0146579
672.275	0.0146916
672.353	0.0148646
672.432	0.0146502
672.510	0.0147900
672.588	0.0147542
672.666	0.0147260
672.744	0.0146857
672.822	0.0146687
672.900	0.0144099
672.978	0.0144567
673.057	0.0144823
673.135	0.0142422
673.213	0.0143524
673.291	0.0143876
673.369	0.0143677
673.447	0.0145120
673.525	0.0146524
673.603	0.0147798
673.682	0.0148889
673.760	0.0150571
673.838	0.0151225
673.916	0.0152193
673.994	0.0153346
674.072	0.0155144
674.150	0.0153141
674.228	0.0152056
674.307	0.0152264
674.385	0.0151067
674.463	0.0148026
674.541	0.0147095
674.619	0.0143903
674.697	0.0140165
674.775	0.0139928
674.853	0.0138649
674.932	0.0137188
675.010	0.0136916
675.088	0.0136858
675.166	0.0135888
675.244	0.0137982
675.322	0.0138490
675.400	0.0141998
675.478	0.0142963
675.557	0.0145235
675.635	0.0148981
675.713	0.0150501
675.791	0.0152863
675.869	0.0153012
675.947	0.0154966
676.025	0.0154982
676.103	0.0155305
676.182	0.0155549
676.260	0.0157654
676.338	0.0158263
676.416	0.0156789
676.494	0.0155879
676.572	0.0155403
676.650	0.0156111
676.728	0.0153712
676.807	0.0152304
676.885	0.0150859
676.963	0.0148930
677.041	0.0147562
677.119	0.0144140
677.197	0.0141576
677.275	0.0141685
677.353	0.0139732
677.432	0.0137681
677.510	0.0136378
677.588	0.0134048
677.666	0.0134859
677.744	0.0134826
677.822	0.0134413
677.900	0.0136160
677.978	0.0138026
678.057	0.0137946
678.135	0.0139948
678.213	0.0140268
678.291	0.0141461
678.369	0.0143282
678.447	0.0143953
678.525	0.0145916
678.603	0.0144846
678.682	0.0146950
678.760	0.0148053
678.838	0.0148961
678.916	0.0150847
678.994	0.0150670
679.072	0.0154483
679.150	0.0155184
679.228	0.0157211
679.307	0.0159811
679.385	0.0161666
679.463	0.0162375
679.541	0.0163276
679.619	0.0161848
679.697	0.0161633
679.775	0.0162866
679.853	0.0161307
679.932	0.0157973
680.010	0.0154687
680.088	0.0152740
680.166	0.0149788
680.244	0.0146021
680.322	0.0143433
680.400	0.0141280
680.478	0.0141508
680.557	0.0140167
680.635	0.0138099
680.713	0.0137309
680.791	0.0137836
680.869	0.0137099
680.947	0.0136295
681.025	0.0134749
681.103	0.0135040
681.182	0.0130319
681.260	0.0128652
681.338	0.0129127
681.416	0.0125674
681.494	0.0126141
681.572	0.0126473
681.650	0.0125384
681.728	0.0126872
681.807	0.0128436
681.885	0.0131399
681.963	0.0134299
682.041	0.0139065
682.119	0.0142340
682.197	0.0146896
682.275	0.0152280
682.353	0.0156806
682.432	0.0161613
682.510	0.0166187
682.588	0.0170779
682.666	0.0174316
682.744	0.0176569
682.822	0.0179197
682.900	0.0181850
682.978	0.0181904
683.057	0.0181859
683.135	0.0180212
683.213	0.0177737
683.291	0.0172527
683.369	0.0168719
683.447	0.0163828
683.525	0.0158251
683.603	0.0151283
683.682	0.0145743
683.760	0.0139093
683.838	0.0133292
683.916	0.0130521
683.994	0.0126102
684.072	0.0123462
684.150	0.0122312
684.228	0.0119743
684.307	0.0118493
684.385	0.0117377
684.463	0.0117314
684.541	0.0117406
684.619	0.0118138
684.697	0.0119147
684.775	0.0119901
684.853	0.0122092
684.932	0.0123346
685.010	0.0125372
685.088	0.0128764
685.166	0.0133609
685.244	0.0139350
685.322	0.0143092
685.400	0.0148503
685.478	0.0153840
685.557	0.0156600
685.635	0.0160419
685.713	0.0164828
685.791	0.0166039
685.869	0.0168684
685.947	0.0168991
686.025	0.0167546
686.103	0.0167101
686.182	0.0167090
686.260	0.0166521
686.338	0.0164951
686.416	0.0163545
686.494	0.0162460
686.572	0.0163036
686.650	0.0162357
686.728	0.0161562
686.807	0.0163105
686.885	0.0161240
686.963	0.0160950
687.041	0.0159637
687.119	0.0157672
687.197	0.0154208
687.275	0.0153056
687.353	0.0148308
687.432	0.0144785
687.510	0.0141917
687.588	0.0138544
687.666	0.0135149
687.744	0.0134096
687.822	0.0131786
687.900	0.0128944
687.978	0.0127216
688.057	0.0126072
688.135	0.0128270
688.213	0.0130231
688.291	0.0130796
688.369	0.0133082
688.447	0.0134766
688.525	0.0137428
688.603	0.0141846
688.682	0.0146033
688.760	0.0146294
688.838	0.0149670
688.916	0.0152029
688.994	0.0153626
689.072	0.0153444
689.150	0.0152888
689.228	0.0154869
689.307	0.0154534
689.385	0.0151556
689.463	0.0152108
689.541	0.0151041
689.619	0.0149702
689.697	0.0149131
689.775	0.0148699
689.853	0.0149395
689.932	0.0148145
690.010	0.0146529
690.088	0.0147557
690.166	0.0145992
690.244	0.0142330
690.322	0.0139634
690.400	0.0137916
690.478	0.0136250
690.557	0.0134116
690.635	0.0131850
690.713	0.0132454
690.791	0.0130688
690.869	0.0132440
690.947	0.0134771
691.025	0.0137807
691.103	0.0141985
691.182	0.0146609
691.260	0.0150711
691.338	0.0153902
691.416	0.0158308
691.494	0.0161143
691.572	0.0163013
691.650	0.0163874
691.728	0.0164057
691.807	0.0163806
691.885	0.0163441
691.963	0.0162833
692.041	0.0162135
692.119	0.0162700
692.197	0.0160997
692.275	0.0159277
692.353	0.0159221
692.432	0.0160236
692.510	0.0159871
692.588	0.0159214
692.666	0.0157420
692.744	0.0157574
692.822	0.0156289
692.900	0.0151344
692.978	0.0149108
693.057	0.0144947
693.135	0.0140763
693.213	0.0139543
693.291	0.0136990
693.369	0.0135328
693.447	0.0132193
693.525	0.0132211
693.603	0.0132697
693.682	0.0133045
693.760	0.0133025
693.838	0.0134466
693.916	0.0135471
693.994	0.0135808
694.072	0.0134959
694.150	0.0135597
694.228	0.0132752
694.307	0.0131738
694.385	0.0129367
694.463	0.0128081
694.541	0.0124415
694.619	0.0124371
694.697	0.0123894
694.775	0.0122189
694.853	0.0123552
694.932	0.0124944
695.010	0.0126279
695.088	0.0129116
695.166	0.0131757
695.244	0.0136494
695.322	0.0139745
695.400	0.0143027
695.478	0.0148219
695.557	0.0150243
695.635	0.0153410
695.713	0.0157517
695.791	0.0160898
695.869	0.0164894
695.947	0.0169423
696.025	0.0172343
696.103	0.0175694
696.182	0.0179176
696.260	0.0181558
696.338	0.0185137
696.416	0.0187060
696.494	0.0188776
696.572	0.0189388
696.650	0.0188770
696.728	0.0189417
696.807	0.0186190
696.885	0.0183633
696.963	0.0181056
697.041	0.0175465
697.119	0.0168806
697.197	0.0160760
697.275	0.0152846
697.353	0.0145916
697.432	0.0139825
697.510	0.0130518
697.588	0.0121822
697.666	0.0113116
697.744	0.0107320
697.822	0.0104174
697.900	0.0102023
697.978	0.00990959
698.057	0.00993568
698.135	0.0101209
698.213	0.0102233
698.291	0.0104890
698.369	0.0109486
698.447	0.0113445
698.525	0.0115144
698.603	0.0121337
698.682	0.0126151
698.760	0.0129323
698.838	0.0134269
698.916	0.0140333
698.994	0.0144122
699.072	0.0147255
699.150	0.0152959
699.228	0.0157271
699.307	0.0162415
699.385	0.0164632
699.463	0.0167400
699.541	0.0170972
699.619	0.0170797
699.697	0.0170932
699.775	0.0171206
699.853	0.0170709
699.932	0.0169287
700.010	0.0167295
700.088	0.0164891
700.166	0.0163725
700.244	0.0160492
700.322	0.0158653
700.400	0.0157473
700.478	0.0155153
700.557	0.0151981
700.635	0.0151920
700.713	0.0149197
700.791	0.0147297
700.869	0.0143851
700.947	0.0143217
701.025	0.0140501
701.103	0.0137908
701.182	0.0134512
701.260	0.0133276
701.338	0.0131695
701.416	0.0130693
701.494	0.0130565
701.572	0.0130672
701.650	0.0130508
701.728	0.0132123
701.807	0.0135183
701.885	0.0137684
701.963	0.0139426
702.041	0.0142827
702.119	0.0147814
702.197	0.0149927
702.275	0.0153330
702.353	0.0154853
702.432	0.0156191
702.510	0.0157365
702.588	0.0158705
702.666	0.0159576
702.744	0.0158922
702.822	0.0159434
702.900	0.0160735
702.978	0.0160833
703.057	0.0160529
703.135	0.0161665
703.213	0.0160931
703.291	0.0162774
703.369	0.0163588
703.447	0.0164577
703.525	0.0163690
703.603	0.0162735
703.682	0.0160314
703.760	0.0159544
703.838	0.0156374
703.916	0.0152330
703.994	0.0146041
704.072	0.0142324
704.150	0.0137376
704.228	0.0131937
704.307	0.0126598
704.385	0.0121227
704.463	0.0116632
704.541	0.0113100
704.619	0.0111604
704.697	0.0107848
704.775	0.0107960
704.853	0.0109325
704.932	0.0111312
705.010	0.0112431
705.088	0.0113649
705.166	0.0117098
705.244	0.0120862
705.322	0.0123326
705.400	0.0127140
705.478	0.0130280
705.557	0.0133495
705.635	0.0137118
705.713	0.0138906
705.791	0.0141891
705.869	0.0144682
705.947	0.0146610
706.025	0.0150026
706.103	0.0154120
706.182	0.0157332
706.260	0.0160349
706.338	0.0164735
706.416	0.0168416
706.494	0.0172368
706.572	0.0176773
706.650	0.0178292
706.728	0.0182632
706.807	0.0185445
706.885	0.0187163
706.963	0.0188516
707.041	0.0190532
707.119	0.0189480
707.197	0.0189246
707.275	0.0187744
707.353	0.0185767
707.432	0.0181664
707.510	0.0180083
707.588	0.0175150
707.666	0.0171564
707.744	0.0167777
707.822	0.0160949
707.900	0.0153962
707.978	0.0147396
708.057	0.0142783
708.135	0.0136868
708.213	0.0130209
708.291	0.0127959
708.369	0.0123336
708.447	0.0120757
708.525	0.0119540
708.603	0.0118228
708.682	0.0117999
708.760	0.0117577
708.838	0.0118839
708.916	0.0120057
708.994	0.0121536
709.072	0.0121743
709.150	0.0123056
709.228	0.0123695
709.307	0.0124764
709.385	0.0125758
709.463	0.0126962
709.541	0.0127963
709.619	0.0129241
709.697	0.0131409
709.775	0.0133222
709.853	0.0134519
709.932	0.0136123
710.010	0.0141057
710.088	0.0143266
710.166	0.0144231
710.244	0.0147581
710.322	0.0151345
710.400	0.0153343
710.478	0.0154739
710.557	0.0158190
710.635	0.0158416
710.713	0.0157990
710.791	0.0158601
710.869	0.0160171
710.947	0.0158853
711.025	0.0159573
711.103	0.0158109
711.182	0.0156725
711.260	0.0154436
711.338	0.0154774
711.416	0.0153650
711.494	0.0153666
711.572	0.0152879
711.650	0.0152311
711.728	0.0151491
711.807	0.0152826
711.885	0.0150751
711.963	0.0150467
712.041	0.0150847
712.119	0.0150964
712.197	0.0151716
712.275	0.0151939
712.353	0.0149558
712.432	0.0151380
712.510	0.0150715
712.588	0.0150846
712.666	0.0150278
712.744	0.0150638
712.822	0.0150402
712.900	0.0151162
712.978	0.0151550
713.057	0.0151400
713.135	0.0151089
713.213	0.0149803
713.291	0.0149714
713.369	0.0147939
713.447	0.0149114
713.525	0.0146594
713.603	0.0147097
713.682	0.0146555
713.760	0.0144778
713.838	0.0145033
713.916	0.0143724
713.994	0.0145817
714.072	0.0147524
714.150	0.0146797
714.228	0.0149541
714.307	0.0150732
714.385	0.0150842
714.463	0.0152865
714.541	0.0154346
714.619	0.0154958
714.697	0.0154877
714.775	0.0155247
714.853	0.0155466
714.932	0.0153381
715.010	0.0152951
715.088	0.0150880
715.166	0.0150205
715.244	0.0147630
715.322	0.0145748
715.400	0.0142989
715.478	0.0141039
715.557	0.0138997
715.635	0.0137216
715.713	0.0135368
715.791	0.0135466
715.869	0.0134425
715.947	0.0132888
716.025	0.0132270
716.103	0.0131136
716.182	0.0131007
716.260	0.0131888
716.338	0.0131191
716.416	0.0132668
716.494	0.0132540
716.572	0.0133478
716.650	0.0135165
716.728	0.0138738
716.807	0.0139185
716.885	0.0140717
716.963	0.0144151
717.041	0.0144961
717.119	0.0145013
717.197	0.0145415
717.275	0.0147102
717.353	0.0146275
717.432	0.0147327
717.510	0.0146955
717.588	0.0146730
717.666	0.0146696
717.744	0.0145596
717.822	0.0145183
717.900	0.0145478
717.978	0.0144973
718.057	0.0145886
718.135	0.0147268
718.213	0.0148121
718.291	0.0150684
718.369	0.0151598
718.447	0.0153688
718.525	0.0154082
718.603	0.0156235
718.682	0.0157539
718.760	0.0158474
718.838	0.0160236
718.916	0.0160909
718.994	0.0161916
719.072	0.0163076
719.150	0.0163129
719.228	0.0161744
719.307	0.0161818
719.385	0.0160342
719.463	0.0159235
719.541	0.0160326
719.619	0.0158002
719.697	0.0158256
719.775	0.0158187
719.853	0.0155379
719.932	0.0155168
720.010	0.0155196
720.088	0.0154900
720.166	0.0154581
720.244	0.0153334
720.322	0.0153152
720.400	0.0153519
720.478	0.0153250
720.557	0.0151923
720.635	0.0150777
720.713	0.0150960
720.791	0.0150018
720.869	0.0147017
720.947	0.0145161
721.025	0.0141744
721.103	0.0139449
721.182	0.0135378
721.260	0.0131615
721.338	0.0130295
721.416	0.0126128
721.494	0.0123175
721.572	0.0120892
721.650	0.0119407
721.728	0.0117681
721.807	0.0117414
721.885	0.0118318
721.963	0.0117646
722.041	0.0117934
722.119	0.0120502
722.197	0.0122725
722.275	0.0125275
722.353	0.0129281
722.432	0.0132726
722.510	0.0135260
722.588	0.0138902
722.666	0.0142912
722.744	0.0143624
722.822	0.0147051
722.900	0.0149670
722.978	0.0151782
723.057	0.0152551
723.135	0.0153925
723.213	0.0153232
723.291	0.0150818
723.369	0.0151452
723.447	0.0151297
723.525	0.0150713
723.603	0.0147066
723.682	0.0146658
723.760	0.0146484
723.838	0.0146578
723.916	0.0146961
723.994	0.0146074
724.072	0.0146323
724.150	0.0148228
724.228	0.0149180
724.307	0.0151495
724.385	0.0153143
724.463	0.0154561
724.541	0.0155299
724.619	0.0155475
724.697	0.0158381
724.775	0.0158768
724.853	0.0158434
724.932	0.0159801
725.010	0.0159450
725.088	0.0159934
725.166	0.0160074
725.244	0.0160097
725.322	0.0158731
725.400	0.0159298
725.478	0.0158891
725.557	0.0157019
725.635	0.0156947
725.713	0.0157414
725.791	0.0155785
725.869	0.0156303
725.947	0.0154324
726.025	0.0153913
726.103	0.0155299
726.182	0.0156760
726.260	0.0156686
726.338	0.0156936
726.416	0.0159277
726.494	0.0159496
726.572	0.0159975
726.650	0.0156300
726.728	0.0156622
726.807	0.0155833
726.885	0.0151874
726.963	0.0149500
727.041	0.0144941
727.119	0.0142067
727.197	0.0137810
727.275	0.0133135
727.353	0.0129234
727.432	0.0125377
727.510	0.0120400
727.588	0.0118635
727.666	0.0115062
727.744	0.0113689
727.822	0.0113288
727.900	0.0113822
727.978	0.0112786
728.057	0.0114092
728.135	0.0116536
728.213	0.0118100
728.291	0.0119740
728.369	0.0124171
728.447	0.0129049
728.525	0.0133109
728.603	0.0136830
728.682	0.0138435
728.760	0.0142632
728.838	0.0146207
728.916	0.0150500
728.994	0.0151508
729.072	0.0154465
729.150	0.0157782
729.228	0.0156899
729.307	0.0159689
729.385	0.0160363
729.463	0.0161148
729.541	0.0159460
729.619	0.0159029
729.697	0.0154690
729.775	0.0152770
729.853	0.0151443
729.932	0.0148495
730.010	0.0146980
730.088	0.0144588
730.166	0.0144441
730.244	0.0143983
730.322	0.0145283
730.400	0.0146159
730.478	0.0147191
730.557	0.0147985
730.635	0.0150654
730.713	0.0151407
730.791	0.0154392
730.869	0.0154505
730.947	0.0154404
731.025	0.0156245
731.103	0.0155723
731.182	0.0156493
731.260	0.0156712
731.338	0.0156724
731.416	0.0155047
731.494	0.0154017
731.572	0.0153455
731.650	0.0155045
731.728	0.0153594
731.807	0.0154485
731.885	0.0153847
731.963	0.0155036
732.041	0.0154041
732.119	0.0154608
732.197	0.0154467
732.275	0.0155840
732.353	0.0156255
732.432	0.0156448
732.510	0.0157506
732.588	0.0156480
732.666	0.0158370
732.744	0.0158515
732.822	0.0159872
732.900	0.0158573
732.978	0.0158060
733.057	0.0157047
733.135	0.0157268
733.213	0.0154543
733.291	0.0152918
733.369	0.0151038
733.447	0.0146764
733.525	0.0144913
733.603	0.0142229
733.682	0.0138029
733.760	0.0133927
733.838	0.0131585
733.916	0.0128387
733.994	0.0126227
734.072	0.0123237
734.150	0.0120647
734.228	0.0121024
734.307	0.0121159
734.385	0.0121142
734.463	0.0121429
734.541	0.0122881
734.619	0.0124429
734.697	0.0126237
734.775	0.0128378
734.853	0.0131109
734.932	0.0135635
735.010	0.0137629
735.088	0.0140995
735.166	0.0142303
735.244	0.0143845
735.322	0.0145822
735.400	0.0146416
735.478	0.0148420
735.557	0.0149211
735.635	0.0149145
735.713	0.0149539
