05/14/2022	19:23:55	Ver.	4.1	UNKNOWN
Optical Delay	650.009681	Delta X		0.078125	Sweeps	1	Scan Rate	0/0
Coordinates	Axis 1	NaN	Axis 2	NaN	Axis 3	NaN	Axis 4	NaN	Axis 5	NaN	Axis 6	0.000000
TX Power	0.000000	RX Power	0.000000

650.010	0.0147348
650.088	0.0148714
650.166	0.0148724
650.244	0.0147921
650.322	0.0147623
650.400	0.0147765
650.478	0.0148089
650.557	0.0147286
650.635	0.0147712
650.713	0.0148914
650.791	0.0148976
650.869	0.0147840
650.947	0.0147813
651.025	0.0147474
651.103	0.0148394
651.182	0.0148426
651.260	0.0147924
651.338	0.0147459
651.416	0.0148180
651.494	0.0149380
651.572	0.0147383
651.650	0.0147497
651.728	0.0146648
651.807	0.0147781
651.885	0.0148309
651.963	0.0147585
652.041	0.0148158
652.119	0.0147484
652.197	0.0147355
652.275	0.0146590
652.353	0.0145570
652.432	0.0146513
652.510	0.0147151
652.588	0.0147549
652.666	0.0146330
652.744	0.0147528
652.822	0.0148238
652.900	0.0147279
652.978	0.0147798
653.057	0.0148799
653.135	0.0146995
653.213	0.0146484
653.291	0.0146755
653.369	0.0147464
653.447	0.0147745
653.525	0.0147042
653.603	0.0146868
653.682	0.0146754
653.760	0.0145248
653.838	0.0146842
653.916	0.0146369
653.994	0.0146264
654.072	0.0147609
654.150	0.0147647
654.228	0.0147091
654.307	0.0145939
654.385	0.0145978
654.463	0.0146654
654.541	0.0147307
654.619	0.0147400
654.697	0.0145511
654.775	0.0148105
654.853	0.0147432
654.932	0.0148005
655.010	0.0147971
655.088	0.0147701
655.166	0.0146603
655.244	0.0147471
655.322	0.0146891
655.400	0.0146920
655.478	0.0147359
655.557	0.0147287
655.635	0.0147677
655.713	0.0147115
655.791	0.0147787
655.869	0.0146994
655.947	0.0147567
656.025	0.0148759
656.103	0.0148098
656.182	0.0147472
656.260	0.0148526
656.338	0.0147394
656.416	0.0146596
656.494	0.0148145
656.572	0.0146800
656.650	0.0147575
656.728	0.0147370
656.807	0.0149288
656.885	0.0146269
656.963	0.0146967
657.041	0.0147575
657.119	0.0147472
657.197	0.0147214
657.275	0.0146388
657.353	0.0146648
657.432	0.0147623
657.510	0.0146783
657.588	0.0147187
657.666	0.0147387
657.744	0.0146674
657.822	0.0146277
657.900	0.0146222
657.978	0.0145722
658.057	0.0145918
658.135	0.0146149
658.213	0.0146282
658.291	0.0145684
658.369	0.0146246
658.447	0.0145845
658.525	0.0145650
658.603	0.0145424
658.682	0.0146214
658.760	0.0146201
658.838	0.0146271
658.916	0.0145200
658.994	0.0145005
659.072	0.0145455
659.150	0.0146070
659.228	0.0145621
659.307	0.0145245
659.385	0.0144998
659.463	0.0145892
659.541	0.0146252
659.619	0.0146259
659.697	0.0145800
659.775	0.0145753
659.853	0.0144886
659.932	0.0145174
660.010	0.0144563
660.088	0.0146372
660.166	0.0145000
660.244	0.0145520
660.322	0.0144587
660.400	0.0144833
660.478	0.0145271
660.557	0.0143739
660.635	0.0146259
660.713	0.0148735
660.791	0.0146604
660.869	0.0145003
660.947	0.0145918
661.025	0.0146175
661.103	0.0146522
661.182	0.0146381
661.260	0.0147542
661.338	0.0147085
661.416	0.0146321
661.494	0.0147038
661.572	0.0146998
661.650	0.0146483
661.728	0.0147074
661.807	0.0147240
661.885	0.0146265
661.963	0.0146987
662.041	0.0147697
662.119	0.0146874
662.197	0.0147440
662.275	0.0145803
662.353	0.0146487
662.432	0.0146317
662.510	0.0147357
662.588	0.0145432
662.666	0.0146000
662.744	0.0147150
662.822	0.0146373
662.900	0.0147606
662.978	0.0148152
663.057	0.0147987
663.135	0.0146830
663.213	0.0147269
663.291	0.0146624
663.369	0.0145551
663.447	0.0146703
663.525	0.0146908
663.603	0.0147536
663.682	0.0146650
663.760	0.0147413
663.838	0.0147842
663.916	0.0145858
663.994	0.0146428
664.072	0.0147132
664.150	0.0147302
664.228	0.0146288
664.307	0.0146875
664.385	0.0147199
664.463	0.0146725
664.541	0.0145466
664.619	0.0145783
664.697	0.0147023
664.775	0.0145949
664.853	0.0146777
664.932	0.0147405
665.010	0.0146406
665.088	0.0148045
665.166	0.0147505
665.244	0.0147631
665.322	0.0146063
665.400	0.0145309
665.478	0.0147095
665.557	0.0147543
665.635	0.0148279
665.713	0.0148466
665.791	0.0147226
665.869	0.0145699
665.947	0.0147466
666.025	0.0147293
666.103	0.0147982
666.182	0.0147963
666.260	0.0148312
666.338	0.0146670
666.416	0.0148302
666.494	0.0147268
666.572	0.0147001
666.650	0.0146777
666.728	0.0145979
666.807	0.0147718
666.885	0.0147192
666.963	0.0146860
667.041	0.0147743
667.119	0.0146935
667.197	0.0146613
667.275	0.0147254
667.353	0.0146417
667.432	0.0146194
667.510	0.0147849
667.588	0.0146870
667.666	0.0147365
667.744	0.0147266
667.822	0.0144890
667.900	0.0147289
667.978	0.0147314
668.057	0.0146079
668.135	0.0146240
668.213	0.0146780
668.291	0.0147022
668.369	0.0147233
668.447	0.0146067
668.525	0.0146142
668.603	0.0145498
668.682	0.0146017
668.760	0.0148383
668.838	0.0147276
668.916	0.0144755
668.994	0.0146403
669.072	0.0146467
669.150	0.0143993
669.228	0.0146436
669.307	0.0145528
669.385	0.0145963
669.463	0.0146931
669.541	0.0147056
669.619	0.0146004
669.697	0.0146886
669.775	0.0146432
669.853	0.0147018
669.932	0.0147144
670.010	0.0146239
670.088	0.0147468
670.166	0.0148055
670.244	0.0147884
670.322	0.0148215
670.400	0.0146239
670.478	0.0146217
670.557	0.0146061
670.635	0.0146278
670.713	0.0146327
670.791	0.0146640
670.869	0.0148268
670.947	0.0147057
671.025	0.0144763
671.103	0.0146449
671.182	0.0145947
671.260	0.0145717
671.338	0.0148380
671.416	0.0147519
671.494	0.0147417
671.572	0.0149232
671.650	0.0148702
671.728	0.0147617
671.807	0.0147715
671.885	0.0147481
671.963	0.0147581
672.041	0.0146196
672.119	0.0145132
672.197	0.0144641
672.275	0.0143076
672.353	0.0142808
672.432	0.0144260
672.510	0.0142294
672.588	0.0144341
672.666	0.0144151
672.744	0.0145885
672.822	0.0146150
672.900	0.0147724
672.978	0.0149773
673.057	0.0149316
673.135	0.0152144
673.213	0.0153953
673.291	0.0151823
673.369	0.0153706
673.447	0.0153757
673.525	0.0153374
673.603	0.0150143
673.682	0.0149660
673.760	0.0147178
673.838	0.0144925
673.916	0.0144950
673.994	0.0141600
674.072	0.0139767
674.150	0.0137808
674.228	0.0137070
674.307	0.0135879
674.385	0.0135625
674.463	0.0135613
674.541	0.0136069
674.619	0.0138998
674.697	0.0140416
674.775	0.0143261
674.853	0.0146192
674.932	0.0149100
675.010	0.0150919
675.088	0.0153636
675.166	0.0156007
675.244	0.0156735
675.322	0.0158472
675.400	0.0158812
675.478	0.0158289
675.557	0.0159155
675.635	0.0158893
675.713	0.0157159
675.791	0.0155296
675.869	0.0155418
675.947	0.0154692
676.025	0.0152991
676.103	0.0150620
676.182	0.0148049
676.260	0.0146909
676.338	0.0144897
676.416	0.0143662
676.494	0.0142365
676.572	0.0139331
676.650	0.0136960
676.728	0.0135370
676.807	0.0133465
676.885	0.0132359
676.963	0.0133814
677.041	0.0134280
677.119	0.0134189
677.197	0.0135787
677.275	0.0137335
677.353	0.0138710
677.432	0.0139662
677.510	0.0142380
677.588	0.0143962
677.666	0.0147528
677.744	0.0151090
677.822	0.0150410
677.900	0.0152798
677.978	0.0152728
678.057	0.0154736
678.135	0.0154372
678.213	0.0156113
678.291	0.0154122
678.369	0.0154630
678.447	0.0156599
678.525	0.0155283
678.603	0.0156405
678.682	0.0157466
678.760	0.0158597
678.838	0.0157190
678.916	0.0156630
678.994	0.0156696
679.072	0.0156174
679.150	0.0155915
679.228	0.0154274
679.307	0.0152844
679.385	0.0150640
679.463	0.0150088
679.541	0.0147055
679.619	0.0145283
679.697	0.0145489
679.775	0.0144442
679.853	0.0144282
679.932	0.0141689
680.010	0.0143198
680.088	0.0140429
680.166	0.0138570
680.244	0.0138752
680.322	0.0138564
680.400	0.0135829
680.478	0.0134579
680.557	0.0132144
680.635	0.0132726
680.713	0.0131818
680.791	0.0130362
680.869	0.0131190
680.947	0.0131787
681.025	0.0133337
681.103	0.0133768
681.182	0.0136871
681.260	0.0138362
681.338	0.0140434
681.416	0.0142789
681.494	0.0144148
681.572	0.0147664
681.650	0.0149818
681.728	0.0153564
681.807	0.0154115
681.885	0.0158591
681.963	0.0162695
682.041	0.0166058
682.119	0.0169727
682.197	0.0173021
682.275	0.0176481
682.353	0.0178746
682.432	0.0180091
682.510	0.0181372
682.588	0.0179678
682.666	0.0180127
682.744	0.0175981
682.822	0.0171424
682.900	0.0167139
682.978	0.0161086
683.057	0.0152084
683.135	0.0146620
683.213	0.0142353
683.291	0.0135851
683.369	0.0130034
683.447	0.0125667
683.525	0.0122360
683.603	0.0117806
683.682	0.0116371
683.760	0.0113871
683.838	0.0113837
683.916	0.0113016
683.994	0.0111823
684.072	0.0112568
684.150	0.0112119
684.228	0.0113788
684.307	0.0115901
684.385	0.0117724
684.463	0.0121616
684.541	0.0126668
684.619	0.0131418
684.697	0.0138094
684.775	0.0144632
684.853	0.0150436
684.932	0.0156995
685.010	0.0164086
685.088	0.0170435
685.166	0.0174080
685.244	0.0177045
685.322	0.0177871
685.400	0.0178834
685.478	0.0179346
685.557	0.0178380
685.635	0.0174837
685.713	0.0172116
685.791	0.0170717
685.869	0.0166654
685.947	0.0162735
686.025	0.0161668
686.103	0.0158418
686.182	0.0157339
686.260	0.0154565
686.338	0.0154124
686.416	0.0152393
686.494	0.0152316
686.572	0.0150335
686.650	0.0149810
686.728	0.0149374
686.807	0.0146723
686.885	0.0144031
686.963	0.0143055
687.041	0.0142309
687.119	0.0137794
687.197	0.0134892
687.275	0.0132719
687.353	0.0129103
687.432	0.0126492
687.510	0.0125282
687.588	0.0122314
687.666	0.0119976
687.744	0.0120364
687.822	0.0120686
687.900	0.0122453
687.978	0.0124875
688.057	0.0126369
688.135	0.0129645
688.213	0.0134819
688.291	0.0138029
688.369	0.0141078
688.447	0.0144992
688.525	0.0146867
688.603	0.0149776
688.682	0.0152087
688.760	0.0153365
688.838	0.0153642
688.916	0.0155403
688.994	0.0157535
689.072	0.0159206
689.150	0.0159061
689.228	0.0162883
689.307	0.0161929
689.385	0.0162673
689.463	0.0166270
689.541	0.0165462
689.619	0.0163382
689.697	0.0161791
689.775	0.0157301
689.853	0.0154241
689.932	0.0150679
690.010	0.0144492
690.088	0.0141119
690.166	0.0137542
690.244	0.0134254
690.322	0.0132513
690.400	0.0130482
690.478	0.0132742
690.557	0.0135452
690.635	0.0137457
690.713	0.0142278
690.791	0.0145703
690.869	0.0149538
690.947	0.0152212
691.025	0.0155786
691.103	0.0156415
691.182	0.0157253
691.260	0.0157935
691.338	0.0156165
691.416	0.0154753
691.494	0.0153471
691.572	0.0152380
691.650	0.0151128
691.728	0.0150922
691.807	0.0150146
691.885	0.0150539
691.963	0.0150588
692.041	0.0151253
692.119	0.0149865
692.197	0.0150824
692.275	0.0150707
692.353	0.0152216
692.432	0.0147584
692.510	0.0145940
692.588	0.0147594
692.666	0.0144470
692.744	0.0142004
692.822	0.0140705
692.900	0.0138018
692.978	0.0137537
693.057	0.0137080
693.135	0.0137419
693.213	0.0138640
693.291	0.0139207
693.369	0.0138972
693.447	0.0138566
693.525	0.0138495
693.603	0.0138817
693.682	0.0137773
693.760	0.0135139
693.838	0.0133701
693.916	0.0131118
693.994	0.0129888
694.072	0.0127483
694.150	0.0127065
694.228	0.0124345
694.307	0.0123517
694.385	0.0124030
694.463	0.0123465
694.541	0.0125766
694.619	0.0127890
694.697	0.0130719
694.775	0.0133501
694.853	0.0137891
694.932	0.0140683
695.010	0.0145821
695.088	0.0149457
695.166	0.0155178
695.244	0.0159086
695.322	0.0162801
695.400	0.0167939
695.478	0.0169891
695.557	0.0174931
695.635	0.0176095
695.713	0.0177582
695.791	0.0179135
695.869	0.0180507
695.947	0.0182302
696.025	0.0182218
696.103	0.0180885
696.182	0.0181377
696.260	0.0179364
696.338	0.0177139
696.416	0.0176128
696.494	0.0173378
696.572	0.0169422
696.650	0.0164697
696.728	0.0159894
696.807	0.0155177
696.885	0.0149164
696.963	0.0143143
697.041	0.0137475
697.119	0.0130903
697.197	0.0125981
697.275	0.0119863
697.353	0.0116753
697.432	0.0111757
697.510	0.0108451
697.588	0.0108829
697.666	0.0106614
697.744	0.0105113
697.822	0.0105954
697.900	0.0107980
697.978	0.0108881
698.057	0.0110500
698.135	0.0114794
698.213	0.0115719
698.291	0.0119876
698.369	0.0124596
698.447	0.0126369
698.525	0.0129400
698.603	0.0134618
698.682	0.0138122
698.760	0.0143909
698.838	0.0149971
698.916	0.0153953
698.994	0.0158603
699.072	0.0162433
699.150	0.0166879
699.228	0.0170121
699.307	0.0172566
699.385	0.0175856
699.463	0.0178396
699.541	0.0179682
699.619	0.0178047
699.697	0.0177277
699.775	0.0176100
699.853	0.0173474
699.932	0.0172169
700.010	0.0168732
700.088	0.0167280
700.166	0.0164991
700.244	0.0163158
700.322	0.0160880
700.400	0.0158994
700.478	0.0158672
700.557	0.0155437
700.635	0.0152483
700.713	0.0149911
700.791	0.0145836
700.869	0.0142642
700.947	0.0139268
701.025	0.0137668
701.103	0.0133588
701.182	0.0132233
701.260	0.0130829
701.338	0.0131843
701.416	0.0132937
701.494	0.0134268
701.572	0.0136565
701.650	0.0139156
701.728	0.0140171
701.807	0.0144617
701.885	0.0144422
701.963	0.0146924
702.041	0.0148499
702.119	0.0148965
702.197	0.0147393
702.275	0.0148881
702.353	0.0147534
702.432	0.0146944
702.510	0.0147510
702.588	0.0147503
702.666	0.0147867
702.744	0.0149352
702.822	0.0149506
702.900	0.0150656
702.978	0.0151756
703.057	0.0153337
703.135	0.0155339
703.213	0.0154351
703.291	0.0152989
703.369	0.0153500
703.447	0.0151542
703.525	0.0151430
703.603	0.0149056
703.682	0.0146178
703.760	0.0143943
703.838	0.0141863
703.916	0.0139552
703.994	0.0138131
704.072	0.0134703
704.150	0.0134132
704.228	0.0135361
704.307	0.0134508
704.385	0.0133926
704.463	0.0134589
704.541	0.0135416
704.619	0.0136159
704.697	0.0135171
704.775	0.0134933
704.853	0.0134469
704.932	0.0134250
705.010	0.0134164
705.088	0.0132842
705.166	0.0133298
705.244	0.0132424
705.322	0.0133340
705.400	0.0133626
705.478	0.0135967
705.557	0.0137798
705.635	0.0139536
705.713	0.0142497
705.791	0.0145026
705.869	0.0150249
705.947	0.0154932
706.025	0.0160608
706.103	0.0163850
706.182	0.0169076
706.260	0.0173491
706.338	0.0178053
706.416	0.0182563
706.494	0.0183502
706.572	0.0185610
706.650	0.0185908
706.728	0.0187234
706.807	0.0185249
706.885	0.0182356
706.963	0.0183555
707.041	0.0180954
707.119	0.0176965
707.197	0.0174696
707.275	0.0171930
707.353	0.0167774
707.432	0.0162654
707.510	0.0160444
707.588	0.0154153
707.666	0.0149585
707.744	0.0144377
707.822	0.0138655
707.900	0.0132531
707.978	0.0126813
708.057	0.0120612
708.135	0.0117149
708.213	0.0113704
708.291	0.0110361
708.369	0.0108974
708.447	0.0107558
708.525	0.0107347
708.603	0.0108071
708.682	0.0108591
708.760	0.0110747
708.838	0.0111783
708.916	0.0114114
708.994	0.0115748
709.072	0.0122279
709.150	0.0123524
709.228	0.0124123
709.307	0.0126668
709.385	0.0129562
709.463	0.0133532
709.541	0.0138446
709.619	0.0141614
709.697	0.0144358
709.775	0.0146905
709.853	0.0150111
709.932	0.0156154
710.010	0.0159652
710.088	0.0162415
710.166	0.0166380
710.244	0.0167337
710.322	0.0169428
710.400	0.0169194
710.478	0.0169802
710.557	0.0169588
710.635	0.0168285
710.713	0.0165826
710.791	0.0164681
710.869	0.0163024
710.947	0.0159425
711.025	0.0158622
711.103	0.0156345
711.182	0.0155774
711.260	0.0155625
711.338	0.0154443
711.416	0.0153258
711.494	0.0152960
711.572	0.0152232
711.650	0.0150570
711.728	0.0150887
711.807	0.0150891
711.885	0.0150029
711.963	0.0149168
712.041	0.0149679
712.119	0.0149691
712.197	0.0150093
712.275	0.0148766
712.353	0.0147138
712.432	0.0147300
712.510	0.0146671
712.588	0.0146040
712.666	0.0146984
712.744	0.0145930
712.822	0.0144565
712.900	0.0144093
712.978	0.0143582
713.057	0.0142177
713.135	0.0143304
713.213	0.0141955
713.291	0.0141917
713.369	0.0141605
713.447	0.0139462
713.525	0.0140565
713.603	0.0139059
713.682	0.0138233
713.760	0.0137355
713.838	0.0139010
713.916	0.0139152
713.994	0.0139167
714.072	0.0138210
714.150	0.0139466
714.228	0.0139532
714.307	0.0141329
714.385	0.0140905
714.463	0.0141177
714.541	0.0139886
714.619	0.0140518
714.697	0.0141280
714.775	0.0142002
714.853	0.0142199
714.932	0.0139561
715.010	0.0140916
715.088	0.0142226
715.166	0.0140105
715.244	0.0139092
715.322	0.0141949
715.400	0.0142107
715.478	0.0144837
715.557	0.0145591
715.635	0.0146062
715.713	0.0148165
715.791	0.0149328
715.869	0.0150193
715.947	0.0153433
716.025	0.0152236
716.103	0.0153358
716.182	0.0153493
716.260	0.0153049
716.338	0.0151383
716.416	0.0149331
716.494	0.0149197
716.572	0.0148453
716.650	0.0146295
716.728	0.0146797
716.807	0.0145233
716.885	0.0146195
716.963	0.0147230
717.041	0.0146096
717.119	0.0146103
717.197	0.0146113
717.275	0.0144267
717.353	0.0144797
717.432	0.0144090
717.510	0.0145983
717.588	0.0143030
717.666	0.0143164
717.744	0.0144794
717.822	0.0143366
717.900	0.0144372
717.978	0.0144289
718.057	0.0145760
718.135	0.0145593
718.213	0.0146708
718.291	0.0148741
718.369	0.0150685
718.447	0.0149804
718.525	0.0150826
718.603	0.0151969
718.682	0.0152209
718.760	0.0152611
718.838	0.0151926
718.916	0.0152528
718.994	0.0152832
719.072	0.0152869
719.150	0.0152273
719.228	0.0153406
719.307	0.0154674
719.385	0.0155750
719.463	0.0157312
719.541	0.0157415
719.619	0.0157446
719.697	0.0157664
719.775	0.0157648
719.853	0.0158092
719.932	0.0159084
720.010	0.0158150
720.088	0.0158352
720.166	0.0156533
720.244	0.0156017
720.322	0.0153069
720.400	0.0152332
720.478	0.0147863
720.557	0.0146384
720.635	0.0142165
720.713	0.0139349
720.791	0.0136485
720.869	0.0135049
720.947	0.0131272
721.025	0.0128299
721.103	0.0126776
721.182	0.0124203
721.260	0.0122677
721.338	0.0122673
721.416	0.0124351
721.494	0.0125661
721.572	0.0126410
721.650	0.0128246
721.728	0.0131032
721.807	0.0134138
721.885	0.0135313
721.963	0.0138473
722.041	0.0142346
722.119	0.0144994
722.197	0.0147730
722.275	0.0150306
722.353	0.0151033
722.432	0.0152995
722.510	0.0153188
722.588	0.0153198
722.666	0.0153429
722.744	0.0152032
722.822	0.0149842
722.900	0.0147994
722.978	0.0147719
723.057	0.0147466
723.135	0.0145070
723.213	0.0145051
723.291	0.0143864
723.369	0.0142323
723.447	0.0142344
723.525	0.0144663
723.603	0.0144441
723.682	0.0145444
723.760	0.0145390
723.838	0.0148398
723.916	0.0149329
723.994	0.0149892
724.072	0.0150220
724.150	0.0151904
724.228	0.0155894
724.307	0.0156303
724.385	0.0156177
724.463	0.0159576
724.541	0.0158080
724.619	0.0160042
724.697	0.0159679
724.775	0.0160246
724.853	0.0160955
724.932	0.0160323
725.010	0.0159741
725.088	0.0159364
725.166	0.0159999
725.244	0.0160912
725.322	0.0160686
725.400	0.0160085
725.478	0.0159794
725.557	0.0160531
725.635	0.0163614
725.713	0.0163332
725.791	0.0162036
725.869	0.0162791
725.947	0.0163152
726.025	0.0162930
726.103	0.0160152
726.182	0.0158389
726.260	0.0155716
726.338	0.0152953
726.416	0.0150282
726.494	0.0147381
726.572	0.0144738
726.650	0.0141050
726.728	0.0136685
726.807	0.0134293
726.885	0.0130219
726.963	0.0128078
727.041	0.0123274
727.119	0.0121240
727.197	0.0118855
727.275	0.0116430
727.353	0.0116976
727.432	0.0116843
727.510	0.0117410
727.588	0.0116201
727.666	0.0118443
727.744	0.0120259
727.822	0.0122442
727.900	0.0126186
727.978	0.0128999
728.057	0.0132921
728.135	0.0136024
728.213	0.0140025
728.291	0.0143823
728.369	0.0147131
728.447	0.0150588
728.525	0.0153939
728.603	0.0155870
728.682	0.0158553
728.760	0.0159348
728.838	0.0160003
728.916	0.0159912
728.994	0.0159538
729.072	0.0158138
729.150	0.0156611
729.228	0.0155473
729.307	0.0155019
729.385	0.0154118
729.463	0.0153411
729.541	0.0153500
729.619	0.0153677
729.697	0.0154857
729.775	0.0156437
729.853	0.0156625
729.932	0.0159538
730.010	0.0160875
730.088	0.0160720
730.166	0.0160432
730.244	0.0160838
730.322	0.0161538
730.400	0.0160888
730.478	0.0160074
730.557	0.0159913
730.635	0.0158017
730.713	0.0157138
730.791	0.0155266
730.869	0.0155322
730.947	0.0152647
731.025	0.0153247
731.103	0.0150616
731.182	0.0150247
731.260	0.0150403
731.338	0.0149843
731.416	0.0150111
731.494	0.0151012
731.572	0.0149072
731.650	0.0150135
731.728	0.0150651
731.807	0.0153136
731.885	0.0152979
731.963	0.0153380
732.041	0.0153268
732.119	0.0153148
732.197	0.0154179
732.275	0.0153686
732.353	0.0153467
732.432	0.0152685
732.510	0.0151257
732.588	0.0149812
732.666	0.0147276
732.744	0.0147281
732.822	0.0144590
732.900	0.0141835
732.978	0.0140623
733.057	0.0138151
733.135	0.0136339
733.213	0.0133755
733.291	0.0130402
733.369	0.0129185
733.447	0.0126628
733.525	0.0124897
733.603	0.0123521
733.682	0.0123344
733.760	0.0123013
733.838	0.0122712
733.916	0.0125755
733.994	0.0127603
734.072	0.0129906
734.150	0.0131126
734.228	0.0132782
734.307	0.0137400
734.385	0.0139996
734.463	0.0142870
734.541	0.0144949
734.619	0.0149044
734.697	0.0147243
734.775	0.0150587
734.853	0.0151657
734.932	0.0152541
735.010	0.0153320
735.088	0.0153347
735.166	0.0152650
735.244	0.0151174
735.322	0.0151688
735.400	0.0150021
735.478	0.0148616
735.557	0.0146515
735.635	0.0146497
735.713	0.0146652
