05/14/2022	19:24:20	Ver.	4.1	UNKNOWN
Optical Delay	650.009681	Delta X		0.078125	Sweeps	1	Scan Rate	0/0
Coordinates	Axis 1	NaN	Axis 2	NaN	Axis 3	NaN	Axis 4	NaN	Axis 5	NaN	Axis 6	0.000000
TX Power	0.000000	RX Power	0.000000

650.010	0.0145092
650.088	0.0144034
650.166	0.0144077
650.244	0.0144800
650.322	0.0144662
650.400	0.0144653
650.478	0.0144795
650.557	0.0143333
650.635	0.0144452
650.713	0.0144193
650.791	0.0145394
650.869	0.0144263
650.947	0.0144505
651.025	0.0144958
651.103	0.0144861
651.182	0.0145551
651.260	0.0144650
651.338	0.0145940
651.416	0.0144350
651.494	0.0143787
651.572	0.0144498
651.650	0.0143040
651.728	0.0145352
651.807	0.0146268
651.885	0.0145338
651.963	0.0146541
652.041	0.0143519
652.119	0.0144878
652.197	0.0145728
652.275	0.0145564
652.353	0.0145094
652.432	0.0146904
652.510	0.0146166
652.588	0.0144894
652.666	0.0146228
652.744	0.0145384
652.822	0.0143821
652.900	0.0145762
652.978	0.0144804
653.057	0.0146767
653.135	0.0144684
653.213	0.0144804
653.291	0.0144115
653.369	0.0145640
653.447	0.0144939
653.525	0.0144720
653.603	0.0145679
653.682	0.0144698
653.760	0.0144153
653.838	0.0146337
653.916	0.0145571
653.994	0.0145851
654.072	0.0144990
654.150	0.0144112
654.228	0.0144826
654.307	0.0145489
654.385	0.0144791
654.463	0.0143920
654.541	0.0146001
654.619	0.0145297
654.697	0.0145718
654.775	0.0145676
654.853	0.0144617
654.932	0.0144683
655.010	0.0145633
655.088	0.0145241
655.166	0.0146455
655.244	0.0146002
655.322	0.0145822
655.400	0.0145219
655.478	0.0145733
655.557	0.0146136
655.635	0.0145439
655.713	0.0145376
655.791	0.0145473
655.869	0.0146185
655.947	0.0145889
656.025	0.0145557
656.103	0.0145132
656.182	0.0145068
656.260	0.0145562
656.338	0.0146421
656.416	0.0146081
656.494	0.0146439
656.572	0.0145142
656.650	0.0144571
656.728	0.0144900
656.807	0.0144440
656.885	0.0146603
656.963	0.0145200
657.041	0.0143739
657.119	0.0145045
657.197	0.0144810
657.275	0.0144200
657.353	0.0144630
657.432	0.0145322
657.510	0.0146314
657.588	0.0145786
657.666	0.0147323
657.744	0.0145650
657.822	0.0146281
657.900	0.0145319
657.978	0.0146576
658.057	0.0146160
658.135	0.0145238
658.213	0.0145308
658.291	0.0145045
658.369	0.0144695
658.447	0.0144051
658.525	0.0146365
658.603	0.0145463
658.682	0.0145811
658.760	0.0145838
658.838	0.0145937
658.916	0.0144437
658.994	0.0144421
659.072	0.0145782
659.150	0.0145282
659.228	0.0145279
659.307	0.0145513
659.385	0.0146510
659.463	0.0144914
659.541	0.0145496
659.619	0.0145348
659.697	0.0145827
659.775	0.0145931
659.853	0.0144949
659.932	0.0143867
660.010	0.0145705
660.088	0.0145309
660.166	0.0144328
660.244	0.0144860
660.322	0.0145135
660.400	0.0144559
660.478	0.0145379
660.557	0.0146317
660.635	0.0145320
660.713	0.0145365
660.791	0.0145516
660.869	0.0145281
660.947	0.0145215
661.025	0.0145348
661.103	0.0146134
661.182	0.0146337
661.260	0.0145557
661.338	0.0145969
661.416	0.0146589
661.494	0.0144965
661.572	0.0145238
661.650	0.0145524
661.728	0.0146255
661.807	0.0145782
661.885	0.0145510
661.963	0.0145470
662.041	0.0144295
662.119	0.0146158
662.197	0.0145061
662.275	0.0145241
662.353	0.0145313
662.432	0.0145327
662.510	0.0144239
662.588	0.0144745
662.666	0.0145644
662.744	0.0145200
662.822	0.0145599
662.900	0.0144522
662.978	0.0144021
663.057	0.0146317
663.135	0.0145303
663.213	0.0146021
663.291	0.0143865
663.369	0.0144933
663.447	0.0145848
663.525	0.0144479
663.603	0.0143474
663.682	0.0145115
663.760	0.0145440
663.838	0.0144392
663.916	0.0145475
663.994	0.0145832
664.072	0.0144239
664.150	0.0145611
664.228	0.0144424
664.307	0.0145824
664.385	0.0145280
664.463	0.0143565
664.541	0.0145064
664.619	0.0144640
664.697	0.0144948
664.775	0.0145551
664.853	0.0145071
664.932	0.0144793
665.010	0.0145013
665.088	0.0144724
665.166	0.0145271
665.244	0.0144647
665.322	0.0145879
665.400	0.0144849
665.478	0.0145163
665.557	0.0144339
665.635	0.0144477
665.713	0.0145721
665.791	0.0145164
665.869	0.0145429
665.947	0.0146181
666.025	0.0145911
666.103	0.0146265
666.182	0.0144673
666.260	0.0144341
666.338	0.0144685
666.416	0.0145026
666.494	0.0146099
666.572	0.0146357
666.650	0.0144961
666.728	0.0146143
666.807	0.0145470
666.885	0.0144576
666.963	0.0145274
667.041	0.0145178
667.119	0.0145438
667.197	0.0144577
667.275	0.0145933
667.353	0.0146012
667.432	0.0145319
667.510	0.0146341
667.588	0.0146233
667.666	0.0145578
667.744	0.0145820
667.822	0.0144531
667.900	0.0145058
667.978	0.0146620
668.057	0.0145240
668.135	0.0145396
668.213	0.0146475
668.291	0.0146889
668.369	0.0145389
668.447	0.0146371
668.525	0.0146350
668.603	0.0146279
668.682	0.0145502
668.760	0.0147246
668.838	0.0146119
668.916	0.0146056
668.994	0.0146154
669.072	0.0146913
669.150	0.0145792
669.228	0.0145508
669.307	0.0146037
669.385	0.0146240
669.463	0.0147170
669.541	0.0145351
669.619	0.0145065
669.697	0.0146262
669.775	0.0145787
669.853	0.0146728
669.932	0.0146407
670.010	0.0146004
670.088	0.0146069
670.166	0.0145736
670.244	0.0147038
670.322	0.0147045
670.400	0.0146496
670.478	0.0145826
670.557	0.0147003
670.635	0.0147739
670.713	0.0146972
670.791	0.0146603
670.869	0.0148279
670.947	0.0146605
671.025	0.0146938
671.103	0.0146122
671.182	0.0143840
671.260	0.0145267
671.338	0.0144642
671.416	0.0143884
671.494	0.0143741
671.572	0.0143925
671.650	0.0142609
671.728	0.0143237
671.807	0.0144621
671.885	0.0145580
671.963	0.0146164
672.041	0.0148363
672.119	0.0147928
672.197	0.0149336
672.275	0.0149992
672.353	0.0151460
672.432	0.0151393
672.510	0.0150291
672.588	0.0151369
672.666	0.0149480
672.744	0.0148234
672.822	0.0147094
672.900	0.0146232
672.978	0.0144566
673.057	0.0142136
673.135	0.0139734
673.213	0.0138934
673.291	0.0136657
673.369	0.0136308
673.447	0.0135397
673.525	0.0135390
673.603	0.0137179
673.682	0.0138123
673.760	0.0138029
673.838	0.0140186
673.916	0.0144047
673.994	0.0146100
674.072	0.0148352
674.150	0.0151910
674.228	0.0152080
674.307	0.0153314
674.385	0.0155183
674.463	0.0156789
674.541	0.0157358
674.619	0.0157845
674.697	0.0157632
674.775	0.0156329
674.853	0.0154527
674.932	0.0152109
675.010	0.0150729
675.088	0.0150677
675.166	0.0148237
675.244	0.0146102
675.322	0.0143528
675.400	0.0141482
675.478	0.0139714
675.557	0.0138825
675.635	0.0136437
675.713	0.0136172
675.791	0.0134954
675.869	0.0133730
675.947	0.0133446
676.025	0.0131714
676.103	0.0133926
676.182	0.0133406
676.260	0.0133567
676.338	0.0134911
676.416	0.0137780
676.494	0.0140074
676.572	0.0141825
676.650	0.0145307
676.728	0.0147964
676.807	0.0149436
676.885	0.0151186
676.963	0.0153755
677.041	0.0154939
677.119	0.0157452
677.197	0.0159201
677.275	0.0159034
677.353	0.0157162
677.432	0.0157836
677.510	0.0157896
677.588	0.0156893
677.666	0.0154969
677.744	0.0154932
677.822	0.0152853
677.900	0.0150829
677.978	0.0149720
678.057	0.0147966
678.135	0.0147983
678.213	0.0146507
678.291	0.0144516
678.369	0.0143939
678.447	0.0144876
678.525	0.0143346
678.603	0.0141999
678.682	0.0142211
678.760	0.0142258
678.838	0.0142465
678.916	0.0143151
678.994	0.0143040
679.072	0.0142108
679.150	0.0141722
679.228	0.0142111
679.307	0.0141749
679.385	0.0141248
679.463	0.0140716
679.541	0.0138628
679.619	0.0138703
679.697	0.0137533
679.775	0.0137057
679.853	0.0135551
679.932	0.0134143
680.010	0.0133685
680.088	0.0134576
680.166	0.0134671
680.244	0.0135381
680.322	0.0136170
680.400	0.0138445
680.478	0.0140019
680.557	0.0143655
680.635	0.0142764
680.713	0.0144804
680.791	0.0147176
680.869	0.0150371
680.947	0.0150612
681.025	0.0155293
681.103	0.0156558
681.182	0.0157779
681.260	0.0161177
681.338	0.0161914
681.416	0.0164929
681.494	0.0164962
681.572	0.0167799
681.650	0.0168281
681.728	0.0170109
681.807	0.0168765
681.885	0.0168677
681.963	0.0169392
682.041	0.0164768
682.119	0.0163583
682.197	0.0160530
682.275	0.0157048
682.353	0.0152508
682.432	0.0148225
682.510	0.0143233
682.588	0.0139874
682.666	0.0133939
682.744	0.0127538
682.822	0.0124910
682.900	0.0120248
682.978	0.0115816
683.057	0.0111622
683.135	0.0109084
683.213	0.0104867
683.291	0.0102879
683.369	0.0103381
683.447	0.0103197
683.525	0.0105483
683.603	0.0108739
683.682	0.0114017
683.760	0.0117411
683.838	0.0125195
683.916	0.0131747
683.994	0.0138253
684.072	0.0145512
684.150	0.0152209
684.228	0.0159140
684.307	0.0163419
684.385	0.0170246
684.463	0.0173335
684.541	0.0175395
684.619	0.0178629
684.697	0.0181442
684.775	0.0181304
684.853	0.0180448
684.932	0.0178715
685.010	0.0178675
685.088	0.0176733
685.166	0.0173650
685.244	0.0170376
685.322	0.0168613
685.400	0.0165132
685.478	0.0160626
685.557	0.0157054
685.635	0.0153230
685.713	0.0147565
685.791	0.0145176
685.869	0.0140601
685.947	0.0134795
686.025	0.0130779
686.103	0.0128835
686.182	0.0126676
686.260	0.0123736
686.338	0.0123878
686.416	0.0123756
686.494	0.0122197
686.572	0.0123648
686.650	0.0123781
686.728	0.0126607
686.807	0.0127573
686.885	0.0128109
686.963	0.0128872
687.041	0.0129512
687.119	0.0130934
687.197	0.0130630
687.275	0.0131164
687.353	0.0131324
687.432	0.0131389
687.510	0.0132519
687.588	0.0133609
687.666	0.0134734
687.744	0.0135553
687.822	0.0136718
687.900	0.0138744
687.978	0.0139816
688.057	0.0143624
688.135	0.0146041
688.213	0.0149026
688.291	0.0151678
688.369	0.0154300
688.447	0.0157207
688.525	0.0160306
688.603	0.0163618
688.682	0.0167495
688.760	0.0169180
688.838	0.0170482
688.916	0.0170937
688.994	0.0172083
689.072	0.0171313
689.150	0.0169983
689.228	0.0167764
689.307	0.0164589
689.385	0.0161190
689.463	0.0158549
689.541	0.0156278
689.619	0.0151644
689.697	0.0149328
689.775	0.0147283
689.853	0.0144034
689.932	0.0142140
690.010	0.0138750
690.088	0.0136694
690.166	0.0135378
690.244	0.0135061
690.322	0.0133703
690.400	0.0132903
690.478	0.0130396
690.557	0.0129873
690.635	0.0130943
690.713	0.0132169
690.791	0.0132404
690.869	0.0133395
690.947	0.0136301
691.025	0.0138321
691.103	0.0140083
691.182	0.0143057
691.260	0.0145196
691.338	0.0147658
691.416	0.0148139
691.494	0.0150937
691.572	0.0152929
691.650	0.0153078
691.728	0.0153105
691.807	0.0151883
691.885	0.0151000
691.963	0.0150037
692.041	0.0148624
692.119	0.0146275
692.197	0.0147582
692.275	0.0145631
692.353	0.0145685
692.432	0.0145601
692.510	0.0144427
692.588	0.0144879
692.666	0.0147283
692.744	0.0146081
692.822	0.0145206
692.900	0.0145418
692.978	0.0143199
693.057	0.0144067
693.135	0.0141296
693.213	0.0139565
693.291	0.0138508
693.369	0.0136191
693.447	0.0135277
693.525	0.0134068
693.603	0.0131380
693.682	0.0131682
693.760	0.0129646
693.838	0.0130767
693.916	0.0131495
693.994	0.0132845
694.072	0.0133405
694.150	0.0135716
694.228	0.0139520
694.307	0.0143704
694.385	0.0144423
694.463	0.0148833
694.541	0.0151809
694.619	0.0157079
694.697	0.0158747
694.775	0.0159647
694.853	0.0162888
694.932	0.0163092
695.010	0.0165721
695.088	0.0167092
695.166	0.0168731
695.244	0.0169916
695.322	0.0172016
695.400	0.0172889
695.478	0.0171214
695.557	0.0170773
695.635	0.0172501
695.713	0.0170567
695.791	0.0168845
695.869	0.0166891
695.947	0.0165287
696.025	0.0158743
696.103	0.0156194
696.182	0.0151670
696.260	0.0147451
696.338	0.0141365
696.416	0.0135454
696.494	0.0131725
696.572	0.0129497
696.650	0.0124466
696.728	0.0121758
696.807	0.0119516
696.885	0.0117417
696.963	0.0117651
697.041	0.0117442
697.119	0.0117618
697.197	0.0119147
697.275	0.0118404
697.353	0.0121170
697.432	0.0122217
697.510	0.0122845
697.588	0.0123377
697.666	0.0126086
697.744	0.0127588
697.822	0.0127571
697.900	0.0128413
697.978	0.0128332
698.057	0.0130955
698.135	0.0131073
698.213	0.0134540
698.291	0.0137183
698.369	0.0140241
698.447	0.0143641
698.525	0.0147241
698.603	0.0149655
698.682	0.0155612
698.760	0.0159181
698.838	0.0162976
698.916	0.0166324
698.994	0.0167872
699.072	0.0171213
699.150	0.0172411
699.228	0.0174728
699.307	0.0175658
699.385	0.0175478
699.463	0.0175656
699.541	0.0175546
699.619	0.0174277
699.697	0.0172422
699.775	0.0170595
699.853	0.0167926
699.932	0.0165211
700.010	0.0162395
700.088	0.0159344
700.166	0.0157645
700.244	0.0154285
700.322	0.0153036
700.400	0.0148214
700.478	0.0147020
700.557	0.0144403
700.635	0.0141716
700.713	0.0139900
700.791	0.0138363
700.869	0.0135811
700.947	0.0134180
701.025	0.0131328
701.103	0.0128590
701.182	0.0127757
701.260	0.0125746
701.338	0.0124512
701.416	0.0123644
701.494	0.0123943
701.572	0.0123031
701.650	0.0124107
701.728	0.0124352
701.807	0.0125660
701.885	0.0125172
701.963	0.0128099
702.041	0.0130489
702.119	0.0132123
702.197	0.0136857
702.275	0.0138778
702.353	0.0139538
702.432	0.0142206
702.510	0.0144599
702.588	0.0147723
702.666	0.0149595
702.744	0.0150491
702.822	0.0152711
702.900	0.0152929
702.978	0.0153465
703.057	0.0153510
703.135	0.0153773
703.213	0.0152622
703.291	0.0150806
703.369	0.0149122
703.447	0.0145642
703.525	0.0142722
703.603	0.0142017
703.682	0.0140137
703.760	0.0138656
703.838	0.0137946
703.916	0.0136025
703.994	0.0136814
704.072	0.0137518
704.150	0.0136566
704.228	0.0137998
704.307	0.0140208
704.385	0.0141394
704.463	0.0143475
704.541	0.0146171
704.619	0.0146429
704.697	0.0148570
704.775	0.0149339
704.853	0.0150671
704.932	0.0151738
705.010	0.0154121
705.088	0.0155338
705.166	0.0155447
705.244	0.0157008
705.322	0.0158041
705.400	0.0160177
705.478	0.0160091
705.557	0.0160323
705.635	0.0161510
705.713	0.0161988
705.791	0.0162197
705.869	0.0160548
705.947	0.0160077
706.025	0.0159053
706.103	0.0157723
706.182	0.0155610
706.260	0.0154539
706.338	0.0153212
706.416	0.0151903
706.494	0.0149464
706.572	0.0147030
706.650	0.0145471
706.728	0.0143952
706.807	0.0141674
706.885	0.0140418
706.963	0.0139752
707.041	0.0137661
707.119	0.0136532
707.197	0.0136321
707.275	0.0135069
707.353	0.0133493
707.432	0.0132020
707.510	0.0133749
707.588	0.0133105
707.666	0.0132266
707.744	0.0130920
707.822	0.0130380
707.900	0.0128749
707.978	0.0129894
708.057	0.0128482
708.135	0.0125713
708.213	0.0124953
708.291	0.0123573
708.369	0.0122352
708.447	0.0121825
708.525	0.0121432
708.603	0.0121890
708.682	0.0122493
708.760	0.0123873
708.838	0.0125479
708.916	0.0128358
708.994	0.0132511
709.072	0.0134261
709.150	0.0138295
709.228	0.0142749
709.307	0.0144749
709.385	0.0148259
709.463	0.0152573
709.541	0.0154957
709.619	0.0158879
709.697	0.0161297
709.775	0.0163472
709.853	0.0165769
709.932	0.0166573
710.010	0.0167693
710.088	0.0166756
710.166	0.0166533
710.244	0.0167751
710.322	0.0168278
710.400	0.0166495
710.478	0.0163602
710.557	0.0163824
710.635	0.0163194
710.713	0.0161841
710.791	0.0161469
710.869	0.0158501
710.947	0.0159169
711.025	0.0156725
711.103	0.0156280
711.182	0.0154729
711.260	0.0152847
711.338	0.0153129
711.416	0.0153197
711.494	0.0151028
711.572	0.0148969
711.650	0.0146719
711.728	0.0146367
711.807	0.0144974
711.885	0.0141541
711.963	0.0140196
712.041	0.0139383
712.119	0.0138613
712.197	0.0137798
712.275	0.0135764
712.353	0.0136057
712.432	0.0134364
712.510	0.0134035
712.588	0.0132329
712.666	0.0132624
712.744	0.0131043
712.822	0.0131337
712.900	0.0131381
712.978	0.0130560
713.057	0.0131544
713.135	0.0131539
713.213	0.0130595
713.291	0.0133757
713.369	0.0133716
713.447	0.0134175
713.525	0.0133049
713.603	0.0137157
713.682	0.0135953
713.760	0.0136668
713.838	0.0136395
713.916	0.0136440
713.994	0.0137942
714.072	0.0138289
714.150	0.0139191
714.228	0.0141063
714.307	0.0140521
714.385	0.0143746
714.463	0.0143272
714.541	0.0145319
714.619	0.0146687
714.697	0.0147746
714.775	0.0149534
714.853	0.0151838
714.932	0.0153318
715.010	0.0153609
715.088	0.0153461
715.166	0.0154262
715.244	0.0154983
715.322	0.0154346
715.400	0.0154980
715.478	0.0153069
715.557	0.0155207
715.635	0.0154695
715.713	0.0153998
715.791	0.0154448
715.869	0.0153883
715.947	0.0153100
716.025	0.0151674
716.103	0.0152142
716.182	0.0151994
716.260	0.0148756
716.338	0.0148102
716.416	0.0150295
716.494	0.0147108
716.572	0.0147989
716.650	0.0147257
716.728	0.0145745
716.807	0.0145538
716.885	0.0145613
716.963	0.0144890
717.041	0.0144643
717.119	0.0145164
717.197	0.0146699
717.275	0.0145621
717.353	0.0145123
717.432	0.0145280
717.510	0.0147024
717.588	0.0146210
717.666	0.0144953
717.744	0.0146761
717.822	0.0145885
717.900	0.0144908
717.978	0.0144416
718.057	0.0144318
718.135	0.0145175
718.213	0.0144031
718.291	0.0142411
718.369	0.0142035
718.447	0.0141800
718.525	0.0142511
718.603	0.0141851
718.682	0.0142638
718.760	0.0141557
718.838	0.0143089
718.916	0.0144506
718.994	0.0146364
719.072	0.0148029
719.150	0.0150323
719.228	0.0149495
719.307	0.0151042
719.385	0.0152613
719.463	0.0152209
719.541	0.0153399
719.619	0.0153796
719.697	0.0151559
719.775	0.0151702
719.853	0.0150655
719.932	0.0148701
720.010	0.0147027
720.088	0.0145695
720.166	0.0143851
720.244	0.0142437
720.322	0.0142078
720.400	0.0139397
720.478	0.0138694
720.557	0.0138301
720.635	0.0135894
720.713	0.0136565
720.791	0.0135918
720.869	0.0136285
720.947	0.0137972
721.025	0.0138860
721.103	0.0140083
721.182	0.0142104
721.260	0.0144209
721.338	0.0144611
721.416	0.0145632
721.494	0.0147426
721.572	0.0148844
721.650	0.0151399
721.728	0.0152670
721.807	0.0151871
721.885	0.0150268
721.963	0.0150067
722.041	0.0149602
722.119	0.0147707
722.197	0.0147403
722.275	0.0146939
722.353	0.0145209
722.432	0.0143967
722.510	0.0142513
722.588	0.0142468
722.666	0.0141370
722.744	0.0141990
722.822	0.0144096
722.900	0.0143191
722.978	0.0143592
723.057	0.0144000
723.135	0.0143775
723.213	0.0146254
723.291	0.0144035
723.369	0.0143993
723.447	0.0144684
723.525	0.0143218
723.603	0.0145798
723.682	0.0145518
723.760	0.0144354
723.838	0.0145226
723.916	0.0146929
723.994	0.0147558
724.072	0.0147572
724.150	0.0148019
724.228	0.0150049
724.307	0.0151885
724.385	0.0150655
724.463	0.0152223
724.541	0.0153348
724.619	0.0154206
724.697	0.0155106
724.775	0.0154503
724.853	0.0156245
724.932	0.0157752
725.010	0.0157573
725.088	0.0159739
725.166	0.0159251
725.244	0.0160495
725.322	0.0157488
725.400	0.0158551
725.478	0.0158431
725.557	0.0156715
725.635	0.0155444
725.713	0.0153291
725.791	0.0150957
725.869	0.0148399
725.947	0.0145677
726.025	0.0141099
726.103	0.0138478
726.182	0.0135030
726.260	0.0131996
726.338	0.0130306
726.416	0.0127528
726.494	0.0126034
726.572	0.0123434
726.650	0.0122478
726.728	0.0124162
726.807	0.0122918
726.885	0.0123363
726.963	0.0125002
727.041	0.0125977
727.119	0.0127158
727.197	0.0128548
727.275	0.0129115
727.353	0.0130688
727.432	0.0132247
727.510	0.0131715
727.588	0.0134325
727.666	0.0134982
727.744	0.0136444
727.822	0.0137492
727.900	0.0138900
727.978	0.0138228
728.057	0.0141274
728.135	0.0139845
728.213	0.0141467
728.291	0.0143686
728.369	0.0143365
728.447	0.0143256
728.525	0.0144925
728.603	0.0144630
728.682	0.0146810
728.760	0.0147134
728.838	0.0148363
728.916	0.0149629
728.994	0.0152691
729.072	0.0153056
729.150	0.0155063
729.228	0.0155659
729.307	0.0156854
729.385	0.0158030
729.463	0.0159589
729.541	0.0161537
729.619	0.0161566
729.697	0.0162539
729.775	0.0161506
729.853	0.0160799
729.932	0.0162113
730.010	0.0161670
730.088	0.0160032
730.166	0.0160081
730.244	0.0158102
730.322	0.0157222
730.400	0.0155678
730.478	0.0153695
730.557	0.0152779
730.635	0.0150681
730.713	0.0149938
730.791	0.0148560
730.869	0.0147638
730.947	0.0147516
731.025	0.0146437
731.103	0.0147150
731.182	0.0148396
731.260	0.0147800
731.338	0.0146116
731.416	0.0144566
731.494	0.0143939
731.572	0.0143307
731.650	0.0142467
731.728	0.0141193
731.807	0.0140668
731.885	0.0139867
731.963	0.0137704
732.041	0.0136915
732.119	0.0135268
732.197	0.0133539
732.275	0.0133123
732.353	0.0130704
732.432	0.0129689
732.510	0.0129703
732.588	0.0128423
732.666	0.0126914
732.744	0.0128075
732.822	0.0126181
732.900	0.0126994
732.978	0.0125852
733.057	0.0127318
733.135	0.0129225
733.213	0.0130338
733.291	0.0130811
733.369	0.0131590
733.447	0.0134617
733.525	0.0138462
733.603	0.0140970
733.682	0.0143790
733.760	0.0144035
733.838	0.0146439
733.916	0.0149992
733.994	0.0150188
734.072	0.0151488
734.150	0.0152113
734.228	0.0153677
734.307	0.0153972
734.385	0.0153217
734.463	0.0152557
734.541	0.0153361
734.619	0.0150552
734.697	0.0150729
734.775	0.0150936
734.853	0.0149490
734.932	0.0148998
735.010	0.0148267
735.088	0.0149521
735.166	0.0148318
735.244	0.0147925
735.322	0.0150909
735.400	0.0149702
735.478	0.0150032
735.557	0.0151763
735.635	0.0153634
735.713	0.0153093
