05/14/2022	19:27:10	Ver.	4.1	UNKNOWN
Optical Delay	650.009681	Delta X		0.078125	Sweeps	1	Scan Rate	0/0
Coordinates	Axis 1	NaN	Axis 2	NaN	Axis 3	NaN	Axis 4	NaN	Axis 5	NaN	Axis 6	0.000000
TX Power	0.000000	RX Power	0.000000

650.010	0.0148778
650.088	0.0148875
650.166	0.0148626
650.244	0.0148972
650.322	0.0148432
650.400	0.0148342
650.478	0.0148225
650.557	0.0148596
650.635	0.0149639
650.713	0.0149011
650.791	0.0149107
650.869	0.0149541
650.947	0.0149065
651.025	0.0149525
651.103	0.0148611
651.182	0.0149458
651.260	0.0148156
651.338	0.0147943
651.416	0.0148659
651.494	0.0148486
651.572	0.0149149
651.650	0.0149777
651.728	0.0150545
651.807	0.0149249
651.885	0.0148495
651.963	0.0149468
652.041	0.0150104
652.119	0.0147847
652.197	0.0150241
652.275	0.0149220
652.353	0.0149337
652.432	0.0149862
652.510	0.0148666
652.588	0.0148781
652.666	0.0149989
652.744	0.0148740
652.822	0.0148132
652.900	0.0149358
652.978	0.0149286
653.057	0.0148029
653.135	0.0149094
653.213	0.0150136
653.291	0.0149876
653.369	0.0150078
653.447	0.0148587
653.525	0.0148357
653.603	0.0148634
653.682	0.0148566
653.760	0.0149555
653.838	0.0149947
653.916	0.0148730
653.994	0.0148347
654.072	0.0149596
654.150	0.0148020
654.228	0.0148205
654.307	0.0148234
654.385	0.0149328
654.463	0.0148436
654.541	0.0148463
654.619	0.0149420
654.697	0.0148329
654.775	0.0149786
654.853	0.0149152
654.932	0.0148195
655.010	0.0149515
655.088	0.0148454
655.166	0.0149898
655.244	0.0148208
655.322	0.0148637
655.400	0.0149254
655.478	0.0147849
655.557	0.0148996
655.635	0.0149972
655.713	0.0148930
655.791	0.0148888
655.869	0.0147997
655.947	0.0148331
656.025	0.0148707
656.103	0.0149361
656.182	0.0148394
656.260	0.0147854
656.338	0.0148045
656.416	0.0149416
656.494	0.0149551
656.572	0.0147588
656.650	0.0148832
656.728	0.0150613
656.807	0.0147946
656.885	0.0148108
656.963	0.0148949
657.041	0.0149412
657.119	0.0149523
657.197	0.0147591
657.275	0.0147953
657.353	0.0148320
657.432	0.0147601
657.510	0.0147540
657.588	0.0147697
657.666	0.0148178
657.744	0.0149597
657.822	0.0147369
657.900	0.0150414
657.978	0.0148918
658.057	0.0147959
658.135	0.0148808
658.213	0.0149271
658.291	0.0147783
658.369	0.0148189
658.447	0.0148675
658.525	0.0147891
658.603	0.0148352
658.682	0.0147472
658.760	0.0146996
658.838	0.0147308
658.916	0.0149018
658.994	0.0149031
659.072	0.0148214
659.150	0.0146980
659.228	0.0148954
659.307	0.0148636
659.385	0.0146941
659.463	0.0147007
659.541	0.0148805
659.619	0.0146772
659.697	0.0147061
659.775	0.0148652
659.853	0.0148437
659.932	0.0147486
660.010	0.0147785
660.088	0.0148393
660.166	0.0148198
660.244	0.0148719
660.322	0.0147884
660.400	0.0147599
660.478	0.0148154
660.557	0.0149008
660.635	0.0148544
660.713	0.0148473
660.791	0.0147243
660.869	0.0147898
660.947	0.0147279
661.025	0.0146962
661.103	0.0147059
661.182	0.0147738
661.260	0.0148257
661.338	0.0147782
661.416	0.0146900
661.494	0.0148425
661.572	0.0147483
661.650	0.0147678
661.728	0.0146552
661.807	0.0146439
661.885	0.0147470
661.963	0.0148287
662.041	0.0147188
662.119	0.0147779
662.197	0.0148296
662.275	0.0148623
662.353	0.0147873
662.432	0.0148175
662.510	0.0148077
662.588	0.0148659
662.666	0.0146678
662.744	0.0148193
662.822	0.0148531
662.900	0.0147547
662.978	0.0149024
663.057	0.0149573
663.135	0.0148502
663.213	0.0148534
663.291	0.0147237
663.369	0.0147446
663.447	0.0148274
663.525	0.0147520
663.603	0.0148332
663.682	0.0147295
663.760	0.0148103
663.838	0.0147805
663.916	0.0148668
663.994	0.0148688
664.072	0.0147453
664.150	0.0147945
664.228	0.0147598
664.307	0.0148801
664.385	0.0147222
664.463	0.0147255
664.541	0.0147572
664.619	0.0148964
664.697	0.0148225
664.775	0.0148425
664.853	0.0146880
664.932	0.0147031
665.010	0.0148035
665.088	0.0147816
665.166	0.0147593
665.244	0.0148188
665.322	0.0146237
665.400	0.0146619
665.478	0.0146712
665.557	0.0146547
665.635	0.0148267
665.713	0.0147212
665.791	0.0147219
665.869	0.0148463
665.947	0.0148083
666.025	0.0147636
666.103	0.0148734
666.182	0.0149287
666.260	0.0148743
666.338	0.0148621
666.416	0.0148557
666.494	0.0148833
666.572	0.0150529
666.650	0.0148918
666.728	0.0149540
666.807	0.0149207
666.885	0.0149136
666.963	0.0147695
667.041	0.0149486
667.119	0.0149309
667.197	0.0147413
667.275	0.0147717
667.353	0.0148342
667.432	0.0147792
667.510	0.0148665
667.588	0.0146400
667.666	0.0147310
667.744	0.0146116
667.822	0.0147858
667.900	0.0147076
667.978	0.0147748
668.057	0.0146576
668.135	0.0148486
668.213	0.0146780
668.291	0.0148682
668.369	0.0149493
668.447	0.0149235
668.525	0.0150752
668.603	0.0151665
668.682	0.0151621
668.760	0.0153005
668.838	0.0153022
668.916	0.0152718
668.994	0.0152473
669.072	0.0151612
669.150	0.0150862
669.228	0.0151837
669.307	0.0149188
669.385	0.0148758
669.463	0.0148413
669.541	0.0147345
669.619	0.0144834
669.697	0.0145075
669.775	0.0144090
669.853	0.0143267
669.932	0.0141284
670.010	0.0142365
670.088	0.0141013
670.166	0.0141766
670.244	0.0142719
670.322	0.0143338
670.400	0.0142341
670.478	0.0145327
670.557	0.0147075
670.635	0.0150818
670.713	0.0153032
670.791	0.0155211
670.869	0.0155812
670.947	0.0157865
671.025	0.0160319
671.103	0.0161141
671.182	0.0161678
671.260	0.0162041
671.338	0.0163204
671.416	0.0161049
671.494	0.0158308
671.572	0.0158605
671.650	0.0156620
671.728	0.0152700
671.807	0.0149710
671.885	0.0145885
671.963	0.0142005
672.041	0.0139525
672.119	0.0137685
672.197	0.0134809
672.275	0.0131227
672.353	0.0129623
672.432	0.0129655
672.510	0.0128603
672.588	0.0130618
672.666	0.0130441
672.744	0.0131842
672.822	0.0133559
672.900	0.0136892
672.978	0.0139427
673.057	0.0142393
673.135	0.0148421
673.213	0.0150527
673.291	0.0155273
673.369	0.0159922
673.447	0.0163314
673.525	0.0163732
673.603	0.0166761
673.682	0.0168626
673.760	0.0170565
673.838	0.0171136
673.916	0.0169702
673.994	0.0168364
674.072	0.0167766
674.150	0.0165707
674.228	0.0164852
674.307	0.0161922
674.385	0.0157973
674.463	0.0152528
674.541	0.0150596
674.619	0.0147386
674.697	0.0143385
674.775	0.0140147
674.853	0.0135997
674.932	0.0133398
675.010	0.0130383
675.088	0.0127148
675.166	0.0126147
675.244	0.0126550
675.322	0.0125236
675.400	0.0127235
675.478	0.0128543
675.557	0.0128948
675.635	0.0133197
675.713	0.0134826
675.791	0.0137461
675.869	0.0141113
675.947	0.0143829
676.025	0.0149175
676.103	0.0153812
676.182	0.0155322
676.260	0.0157444
676.338	0.0161636
676.416	0.0164396
676.494	0.0165718
676.572	0.0166343
676.650	0.0168676
676.728	0.0168031
676.807	0.0168404
676.885	0.0168005
676.963	0.0166801
677.041	0.0164692
677.119	0.0161916
677.197	0.0160342
677.275	0.0159203
677.353	0.0156425
677.432	0.0152606
677.510	0.0149446
677.588	0.0148003
677.666	0.0146548
677.744	0.0142093
677.822	0.0140356
677.900	0.0138384
677.978	0.0136993
678.057	0.0136100
678.135	0.0134499
678.213	0.0135001
678.291	0.0134415
678.369	0.0134659
678.447	0.0135788
678.525	0.0137021
678.603	0.0140327
678.682	0.0141217
678.760	0.0144264
678.838	0.0148573
678.916	0.0150809
678.994	0.0153368
679.072	0.0155652
679.150	0.0157911
679.228	0.0162138
679.307	0.0162743
679.385	0.0163242
679.463	0.0164636
679.541	0.0165199
679.619	0.0164182
679.697	0.0162324
679.775	0.0160300
679.853	0.0154822
679.932	0.0153136
680.010	0.0148843
680.088	0.0144110
680.166	0.0140861
680.244	0.0136439
680.322	0.0132384
680.400	0.0129601
680.478	0.0127164
680.557	0.0124448
680.635	0.0122791
680.713	0.0122489
680.791	0.0122617
680.869	0.0123138
680.947	0.0125127
681.025	0.0129334
681.103	0.0131205
681.182	0.0134896
681.260	0.0137618
681.338	0.0142714
681.416	0.0147713
681.494	0.0151403
681.572	0.0156535
681.650	0.0160131
681.728	0.0163859
681.807	0.0168462
681.885	0.0172834
681.963	0.0173335
682.041	0.0176282
682.119	0.0178545
682.197	0.0179366
682.275	0.0179661
682.353	0.0179375
682.432	0.0179899
682.510	0.0180087
682.588	0.0176926
682.666	0.0174376
682.744	0.0171770
682.822	0.0168170
682.900	0.0164259
682.978	0.0159579
683.057	0.0156798
683.135	0.0150528
683.213	0.0145868
683.291	0.0142651
683.369	0.0137847
683.447	0.0132661
683.525	0.0129227
683.603	0.0126535
683.682	0.0122455
683.760	0.0120976
683.838	0.0118695
683.916	0.0117226
683.994	0.0115039
684.072	0.0114563
684.150	0.0114641
684.228	0.0114017
684.307	0.0114361
684.385	0.0114188
684.463	0.0113576
684.541	0.0115697
684.619	0.0117323
684.697	0.0119971
684.775	0.0122617
684.853	0.0126918
684.932	0.0131335
685.010	0.0134460
685.088	0.0141350
685.166	0.0146978
685.244	0.0152369
685.322	0.0158710
685.400	0.0164127
685.478	0.0167612
685.557	0.0172725
685.635	0.0175743
685.713	0.0179983
685.791	0.0181522
685.869	0.0186511
685.947	0.0187006
686.025	0.0188795
686.103	0.0188849
686.182	0.0190656
686.260	0.0189648
686.338	0.0188917
686.416	0.0188162
686.494	0.0186513
686.572	0.0185828
686.650	0.0184695
686.728	0.0180786
686.807	0.0176278
686.885	0.0171358
686.963	0.0167607
687.041	0.0162059
687.119	0.0154676
687.197	0.0147154
687.275	0.0141938
687.353	0.0134641
687.432	0.0128310
687.510	0.0122943
687.588	0.0118205
687.666	0.0114831
687.744	0.0111050
687.822	0.0108440
687.900	0.0107816
687.978	0.0107168
688.057	0.0106844
688.135	0.0107310
688.213	0.0108759
688.291	0.0111330
688.369	0.0112948
688.447	0.0116949
688.525	0.0120316
688.603	0.0123816
688.682	0.0127236
688.760	0.0129746
688.838	0.0133872
688.916	0.0138395
688.994	0.0141367
689.072	0.0144892
689.150	0.0148273
689.228	0.0151625
689.307	0.0152959
689.385	0.0157196
689.463	0.0158864
689.541	0.0159615
689.619	0.0163521
689.697	0.0164761
689.775	0.0167690
689.853	0.0168471
689.932	0.0168337
690.010	0.0168056
690.088	0.0169511
690.166	0.0170350
690.244	0.0167941
690.322	0.0167879
690.400	0.0168012
690.478	0.0168090
690.557	0.0167287
690.635	0.0168416
690.713	0.0168478
690.791	0.0168028
690.869	0.0172288
690.947	0.0173380
691.025	0.0175874
691.103	0.0177012
691.182	0.0179512
691.260	0.0180297
691.338	0.0180119
691.416	0.0180883
691.494	0.0179189
691.572	0.0174960
691.650	0.0173465
691.728	0.0167705
691.807	0.0162318
691.885	0.0155607
691.963	0.0148341
692.041	0.0139933
692.119	0.0132013
692.197	0.0125002
692.275	0.0116660
692.353	0.0111639
692.432	0.0107384
692.510	0.0102286
692.588	0.00993111
692.666	0.00978920
692.744	0.00950562
692.822	0.00954163
692.900	0.00972542
692.978	0.00988304
693.057	0.0102124
693.135	0.0107057
693.213	0.0109390
693.291	0.0116374
693.369	0.0121840
693.447	0.0126582
693.525	0.0133004
693.603	0.0139303
693.682	0.0146780
693.760	0.0152719
693.838	0.0161343
693.916	0.0167611
693.994	0.0172395
694.072	0.0178394
694.150	0.0182510
694.228	0.0187541
694.307	0.0190010
694.385	0.0194126
694.463	0.0194968
694.541	0.0195297
694.619	0.0193133
694.697	0.0190518
694.775	0.0189233
694.853	0.0184315
694.932	0.0179784
695.010	0.0174724
695.088	0.0169255
695.166	0.0159918
695.244	0.0155902
695.322	0.0150309
695.400	0.0142220
695.478	0.0137018
695.557	0.0132890
695.635	0.0128996
695.713	0.0125227
695.791	0.0123686
695.869	0.0123133
695.947	0.0121671
696.025	0.0122141
696.103	0.0122920
696.182	0.0123325
696.260	0.0123856
696.338	0.0129046
696.416	0.0131434
696.494	0.0134203
696.572	0.0136882
696.650	0.0142701
696.728	0.0147647
696.807	0.0151720
696.885	0.0154452
696.963	0.0160754
697.041	0.0164260
697.119	0.0166464
697.197	0.0169145
697.275	0.0170408
697.353	0.0170464
697.432	0.0169166
697.510	0.0168759
697.588	0.0166759
697.666	0.0164083
697.744	0.0162553
697.822	0.0159627
697.900	0.0153363
697.978	0.0150583
698.057	0.0147530
698.135	0.0143968
698.213	0.0139682
698.291	0.0137366
698.369	0.0134593
698.447	0.0134363
698.525	0.0131067
698.603	0.0129723
698.682	0.0130718
698.760	0.0130785
698.838	0.0131250
698.916	0.0133273
698.994	0.0132119
699.072	0.0133639
699.150	0.0135017
699.228	0.0137637
699.307	0.0139359
699.385	0.0141001
699.463	0.0144041
699.541	0.0145306
699.619	0.0147790
699.697	0.0151744
699.775	0.0154442
699.853	0.0155074
699.932	0.0156250
700.010	0.0157880
700.088	0.0160533
700.166	0.0160947
700.244	0.0160193
700.322	0.0159630
700.400	0.0158318
700.478	0.0157776
700.557	0.0155012
700.635	0.0151245
700.713	0.0148325
700.791	0.0144352
700.869	0.0142329
700.947	0.0139810
701.025	0.0136350
701.103	0.0133363
701.182	0.0131823
701.260	0.0130418
701.338	0.0132000
701.416	0.0133918
701.494	0.0134927
701.572	0.0136543
701.650	0.0140147
701.728	0.0142872
701.807	0.0148629
701.885	0.0153197
701.963	0.0156400
702.041	0.0161404
702.119	0.0165813
702.197	0.0168553
702.275	0.0174565
702.353	0.0174281
702.432	0.0177446
702.510	0.0179520
702.588	0.0179161
702.666	0.0180676
702.744	0.0180878
702.822	0.0180289
702.900	0.0178211
702.978	0.0172904
703.057	0.0169594
703.135	0.0164977
703.213	0.0160675
703.291	0.0155986
703.369	0.0151664
703.447	0.0146951
703.525	0.0141478
703.603	0.0136460
703.682	0.0130678
703.760	0.0128113
703.838	0.0126093
703.916	0.0123666
703.994	0.0121133
704.072	0.0118987
704.150	0.0118553
704.228	0.0118844
704.307	0.0121603
704.385	0.0121700
704.463	0.0123524
704.541	0.0126506
704.619	0.0129109
704.697	0.0132108
704.775	0.0134735
704.853	0.0138158
704.932	0.0139359
705.010	0.0142008
705.088	0.0145670
705.166	0.0146256
705.244	0.0148249
705.322	0.0148604
705.400	0.0149705
705.478	0.0149202
705.557	0.0148965
705.635	0.0148467
705.713	0.0149275
705.791	0.0148822
705.869	0.0148239
705.947	0.0149399
706.025	0.0148695
706.103	0.0149120
706.182	0.0151380
706.260	0.0151659
706.338	0.0153210
706.416	0.0155132
706.494	0.0156803
706.572	0.0159072
706.650	0.0160496
706.728	0.0162010
706.807	0.0164782
706.885	0.0164595
706.963	0.0165829
707.041	0.0166389
707.119	0.0164162
707.197	0.0166597
707.275	0.0166798
707.353	0.0166652
707.432	0.0163289
707.510	0.0161704
707.588	0.0162347
707.666	0.0161127
707.744	0.0159060
707.822	0.0157784
707.900	0.0157410
707.978	0.0156414
708.057	0.0154733
708.135	0.0154162
708.213	0.0153239
708.291	0.0152481
708.369	0.0154475
708.447	0.0153300
708.525	0.0152252
708.603	0.0152558
708.682	0.0152615
708.760	0.0153413
708.838	0.0153193
708.916	0.0151439
708.994	0.0149819
709.072	0.0149615
709.150	0.0150440
709.228	0.0150621
709.307	0.0148029
709.385	0.0145802
709.463	0.0145451
709.541	0.0143464
709.619	0.0140686
709.697	0.0138095
709.775	0.0135493
709.853	0.0133231
709.932	0.0129979
710.010	0.0129619
710.088	0.0126694
710.166	0.0124205
710.244	0.0123185
710.322	0.0123051
710.400	0.0123321
710.478	0.0123284
710.557	0.0123867
710.635	0.0124612
710.713	0.0126804
710.791	0.0129711
710.869	0.0130811
710.947	0.0132527
711.025	0.0138911
711.103	0.0142274
711.182	0.0144248
711.260	0.0148970
711.338	0.0152132
711.416	0.0153297
711.494	0.0156245
711.572	0.0159458
711.650	0.0162225
711.728	0.0163935
711.807	0.0164936
711.885	0.0166710
711.963	0.0166830
712.041	0.0166591
712.119	0.0166578
712.197	0.0167879
712.275	0.0167772
712.353	0.0168410
712.432	0.0168822
712.510	0.0167030
712.588	0.0167035
712.666	0.0167248
712.744	0.0166245
712.822	0.0165691
712.900	0.0162990
712.978	0.0163020
713.057	0.0160896
713.135	0.0159314
713.213	0.0158517
713.291	0.0157387
713.369	0.0155611
713.447	0.0154098
713.525	0.0154717
713.603	0.0154494
713.682	0.0154770
713.760	0.0155104
713.838	0.0153331
713.916	0.0153185
713.994	0.0153762
714.072	0.0152940
714.150	0.0151652
714.228	0.0150201
714.307	0.0149019
714.385	0.0147298
714.463	0.0146797
714.541	0.0146301
714.619	0.0143787
714.697	0.0144903
714.775	0.0143941
714.853	0.0144409
714.932	0.0145448
715.010	0.0144597
715.088	0.0143597
715.166	0.0143752
715.244	0.0142153
715.322	0.0141225
715.400	0.0141211
715.478	0.0140461
715.557	0.0137988
715.635	0.0137093
715.713	0.0133369
715.791	0.0130815
715.869	0.0128855
715.947	0.0127064
716.025	0.0128392
716.103	0.0126049
716.182	0.0124313
716.260	0.0125371
716.338	0.0125153
716.416	0.0126575
716.494	0.0128942
716.572	0.0132063
716.650	0.0133298
716.728	0.0135073
716.807	0.0140012
716.885	0.0143901
716.963	0.0147552
717.041	0.0152216
717.119	0.0154932
717.197	0.0156620
717.275	0.0159304
717.353	0.0162716
717.432	0.0163008
717.510	0.0165997
717.588	0.0167117
717.666	0.0166156
717.744	0.0164848
717.822	0.0166483
717.900	0.0163848
717.978	0.0163274
718.057	0.0163942
718.135	0.0163016
718.213	0.0161877
718.291	0.0160004
718.369	0.0160285
718.447	0.0160053
718.525	0.0159281
718.603	0.0158800
718.682	0.0158177
718.760	0.0158697
718.838	0.0158267
718.916	0.0157077
718.994	0.0158393
719.072	0.0154772
719.150	0.0151807
719.228	0.0151955
719.307	0.0151116
719.385	0.0147628
719.463	0.0146407
719.541	0.0145506
719.619	0.0145372
719.697	0.0143470
719.775	0.0143053
719.853	0.0142060
719.932	0.0141019
720.010	0.0141098
720.088	0.0141067
720.166	0.0141397
720.244	0.0141705
720.322	0.0142221
720.400	0.0141737
720.478	0.0141377
720.557	0.0141281
720.635	0.0140965
720.713	0.0140199
720.791	0.0140623
720.869	0.0141264
720.947	0.0141950
721.025	0.0140829
721.103	0.0142486
721.182	0.0140990
721.260	0.0141048
721.338	0.0140700
721.416	0.0139042
721.494	0.0139839
721.572	0.0140953
721.650	0.0141348
721.728	0.0142490
721.807	0.0143099
721.885	0.0142346
721.963	0.0144274
722.041	0.0144061
722.119	0.0143504
722.197	0.0145000
722.275	0.0146602
722.353	0.0144215
722.432	0.0145409
722.510	0.0146330
722.588	0.0147328
722.666	0.0147834
722.744	0.0147076
722.822	0.0147502
722.900	0.0149083
722.978	0.0148579
723.057	0.0149094
723.135	0.0150857
723.213	0.0151955
723.291	0.0151148
723.369	0.0152442
723.447	0.0152167
723.525	0.0151588
723.603	0.0154543
723.682	0.0153432
723.760	0.0152710
723.838	0.0153034
723.916	0.0153898
723.994	0.0154419
724.072	0.0153281
724.150	0.0151984
724.228	0.0153365
724.307	0.0151325
724.385	0.0150893
724.463	0.0152893
724.541	0.0152751
724.619	0.0151266
724.697	0.0151266
724.775	0.0151665
724.853	0.0150744
724.932	0.0151488
725.010	0.0150291
725.088	0.0150538
725.166	0.0149257
725.244	0.0147364
725.322	0.0148434
725.400	0.0149967
725.478	0.0147470
725.557	0.0146436
725.635	0.0146965
725.713	0.0147876
725.791	0.0147233
725.869	0.0147495
725.947	0.0147482
726.025	0.0147015
726.103	0.0147523
726.182	0.0148633
726.260	0.0149060
726.338	0.0148948
726.416	0.0148354
726.494	0.0149518
726.572	0.0151100
726.650	0.0150165
726.728	0.0150474
726.807	0.0151007
726.885	0.0151310
726.963	0.0151059
727.041	0.0149967
727.119	0.0149722
727.197	0.0148759
727.275	0.0147820
727.353	0.0146055
727.432	0.0145978
727.510	0.0144259
727.588	0.0145203
727.666	0.0144636
727.744	0.0143697
727.822	0.0142679
727.900	0.0142016
727.978	0.0141732
728.057	0.0141677
728.135	0.0142292
728.213	0.0140993
728.291	0.0142530
728.369	0.0143253
728.447	0.0141827
728.525	0.0141990
728.603	0.0141299
728.682	0.0143341
728.760	0.0144339
728.838	0.0143562
728.916	0.0144275
728.994	0.0145349
729.072	0.0147186
729.150	0.0147089
729.228	0.0148396
729.307	0.0148364
729.385	0.0148994
729.463	0.0150433
729.541	0.0150246
729.619	0.0151644
729.697	0.0151348
729.775	0.0152906
729.853	0.0152218
729.932	0.0152354
730.010	0.0153916
730.088	0.0154533
730.166	0.0153729
730.244	0.0153451
730.322	0.0154350
730.400	0.0154935
730.478	0.0155730
730.557	0.0155191
730.635	0.0156249
730.713	0.0155927
730.791	0.0155507
730.869	0.0155889
730.947	0.0154910
731.025	0.0154865
731.103	0.0153523
731.182	0.0151641
731.260	0.0151289
731.338	0.0150196
731.416	0.0150324
731.494	0.0148900
731.572	0.0148569
731.650	0.0147738
731.728	0.0148151
731.807	0.0146973
731.885	0.0147358
731.963	0.0145947
732.041	0.0146185
732.119	0.0145778
732.197	0.0146532
732.275	0.0145500
732.353	0.0146173
732.432	0.0146398
732.510	0.0146581
732.588	0.0146665
732.666	0.0146365
732.744	0.0145198
732.822	0.0144927
732.900	0.0145172
732.978	0.0144730
733.057	0.0146109
733.135	0.0146439
733.213	0.0147279
733.291	0.0146815
733.369	0.0146219
733.447	0.0148192
733.525	0.0147144
733.603	0.0148367
733.682	0.0150375
733.760	0.0150804
733.838	0.0151895
733.916	0.0151353
733.994	0.0152052
734.072	0.0153629
734.150	0.0154604
734.228	0.0154792
734.307	0.0153207
734.385	0.0152367
734.463	0.0153165
734.541	0.0153387
734.619	0.0152918
734.697	0.0151192
734.775	0.0151543
734.853	0.0149752
734.932	0.0150398
735.010	0.0149827
735.088	0.0147892
735.166	0.0147086
735.244	0.0147501
735.322	0.0148457
735.400	0.0145940
735.478	0.0147013
735.557	0.0147004
735.635	0.0147495
735.713	0.0148151
