05/14/2022	19:27:30	Ver.	4.1	UNKNOWN
Optical Delay	650.009681	Delta X		0.078125	Sweeps	1	Scan Rate	0/0
Coordinates	Axis 1	NaN	Axis 2	NaN	Axis 3	NaN	Axis 4	NaN	Axis 5	NaN	Axis 6	0.000000
TX Power	0.000000	RX Power	0.000000

650.010	0.0145866
650.088	0.0145343
650.166	0.0145261
650.244	0.0144776
650.322	0.0145863
650.400	0.0145349
650.478	0.0145728
650.557	0.0145947
650.635	0.0146058
650.713	0.0146466
650.791	0.0145831
650.869	0.0145931
650.947	0.0145756
651.025	0.0145051
651.103	0.0146540
651.182	0.0145181
651.260	0.0146153
651.338	0.0145691
651.416	0.0147047
651.494	0.0147745
651.572	0.0147217
651.650	0.0146188
651.728	0.0145229
651.807	0.0146104
651.885	0.0146111
651.963	0.0147008
652.041	0.0146352
652.119	0.0144891
652.197	0.0143816
652.275	0.0145215
652.353	0.0144984
652.432	0.0145912
652.510	0.0145883
652.588	0.0146442
652.666	0.0146339
652.744	0.0145387
652.822	0.0145944
652.900	0.0146165
652.978	0.0145945
653.057	0.0145629
653.135	0.0145431
653.213	0.0145520
653.291	0.0146882
653.369	0.0148295
653.447	0.0144373
653.525	0.0145415
653.603	0.0145218
653.682	0.0145746
653.760	0.0145046
653.838	0.0145025
653.916	0.0144906
653.994	0.0144946
654.072	0.0145956
654.150	0.0145067
654.228	0.0144608
654.307	0.0145450
654.385	0.0145789
654.463	0.0146281
654.541	0.0146376
654.619	0.0144117
654.697	0.0144569
654.775	0.0145831
654.853	0.0145766
654.932	0.0145393
655.010	0.0145207
655.088	0.0145911
655.166	0.0145459
655.244	0.0144708
655.322	0.0145592
655.400	0.0145249
655.478	0.0144375
655.557	0.0144731
655.635	0.0145665
655.713	0.0143678
655.791	0.0143327
655.869	0.0144888
655.947	0.0144396
656.025	0.0144620
656.103	0.0144530
656.182	0.0143589
656.260	0.0144698
656.338	0.0145049
656.416	0.0143866
656.494	0.0143793
656.572	0.0142698
656.650	0.0145282
656.728	0.0143945
656.807	0.0142953
656.885	0.0142833
656.963	0.0144200
657.041	0.0144971
657.119	0.0142919
657.197	0.0144150
657.275	0.0143840
657.353	0.0145168
657.432	0.0144116
657.510	0.0143715
657.588	0.0144940
657.666	0.0143459
657.744	0.0143889
657.822	0.0143870
657.900	0.0145283
657.978	0.0144736
658.057	0.0145902
658.135	0.0144443
658.213	0.0145343
658.291	0.0144144
658.369	0.0145322
658.447	0.0144517
658.525	0.0145370
658.603	0.0145794
658.682	0.0145001
658.760	0.0143011
658.838	0.0145496
658.916	0.0144778
658.994	0.0143180
659.072	0.0144003
659.150	0.0145145
659.228	0.0145655
659.307	0.0144382
659.385	0.0145192
659.463	0.0144791
659.541	0.0143959
659.619	0.0144331
659.697	0.0142973
659.775	0.0144099
659.853	0.0145242
659.932	0.0144344
660.010	0.0144741
660.088	0.0144635
660.166	0.0144982
660.244	0.0145311
660.322	0.0146064
660.400	0.0144378
660.478	0.0145248
660.557	0.0146552
660.635	0.0144669
660.713	0.0144646
660.791	0.0145345
660.869	0.0147318
660.947	0.0145294
661.025	0.0145118
661.103	0.0146691
661.182	0.0146042
661.260	0.0145876
661.338	0.0145956
661.416	0.0146996
661.494	0.0145766
661.572	0.0144882
661.650	0.0146336
661.728	0.0146390
661.807	0.0146095
661.885	0.0147076
661.963	0.0146568
662.041	0.0146269
662.119	0.0147269
662.197	0.0146309
662.275	0.0146152
662.353	0.0146169
662.432	0.0145834
662.510	0.0145320
662.588	0.0145513
662.666	0.0145434
662.744	0.0145710
662.822	0.0146526
662.900	0.0144115
662.978	0.0145707
663.057	0.0145245
663.135	0.0146075
663.213	0.0146282
663.291	0.0145056
663.369	0.0144975
663.447	0.0144498
663.525	0.0145991
663.603	0.0145219
663.682	0.0145168
663.760	0.0147016
663.838	0.0146080
663.916	0.0146771
663.994	0.0146168
664.072	0.0144474
664.150	0.0146132
664.228	0.0146115
664.307	0.0146064
664.385	0.0145069
664.463	0.0144797
664.541	0.0146783
664.619	0.0146793
664.697	0.0145554
664.775	0.0145747
664.853	0.0144579
664.932	0.0146425
665.010	0.0146096
665.088	0.0145571
665.166	0.0145408
665.244	0.0145064
665.322	0.0145144
665.400	0.0145710
665.478	0.0145261
665.557	0.0146484
665.635	0.0146047
665.713	0.0145612
665.791	0.0146250
665.869	0.0145551
665.947	0.0146562
666.025	0.0146715
666.103	0.0146205
666.182	0.0146220
666.260	0.0146931
666.338	0.0146703
666.416	0.0147027
666.494	0.0146758
666.572	0.0148012
666.650	0.0147337
666.728	0.0146558
666.807	0.0146906
666.885	0.0145295
666.963	0.0144555
667.041	0.0145105
667.119	0.0144288
667.197	0.0144823
667.275	0.0143173
667.353	0.0144364
667.432	0.0145100
667.510	0.0143903
667.588	0.0143311
667.666	0.0142152
667.744	0.0142971
667.822	0.0144243
667.900	0.0143650
667.978	0.0144673
668.057	0.0143665
668.135	0.0143727
668.213	0.0145181
668.291	0.0146648
668.369	0.0146011
668.447	0.0147372
668.525	0.0149593
668.603	0.0148829
668.682	0.0150105
668.760	0.0148547
668.838	0.0149114
668.916	0.0149659
668.994	0.0149378
669.072	0.0149260
669.150	0.0146841
669.228	0.0145814
669.307	0.0145432
669.385	0.0144003
669.463	0.0143254
669.541	0.0142237
669.619	0.0141502
669.697	0.0140840
669.775	0.0139687
669.853	0.0139235
669.932	0.0137812
670.010	0.0138598
670.088	0.0138519
670.166	0.0139166
670.244	0.0141505
670.322	0.0142501
670.400	0.0142941
670.478	0.0145988
670.557	0.0147200
670.635	0.0150713
670.713	0.0153584
670.791	0.0156101
670.869	0.0157896
670.947	0.0159020
671.025	0.0161038
671.103	0.0160423
671.182	0.0161750
671.260	0.0161229
671.338	0.0159347
671.416	0.0157233
671.494	0.0155405
671.572	0.0153850
671.650	0.0149745
671.728	0.0146049
671.807	0.0142984
671.885	0.0139101
671.963	0.0134492
672.041	0.0131645
672.119	0.0129619
672.197	0.0127118
672.275	0.0125643
672.353	0.0124655
672.432	0.0124539
672.510	0.0124631
672.588	0.0126502
672.666	0.0128348
672.744	0.0130972
672.822	0.0134056
672.900	0.0138737
672.978	0.0142056
673.057	0.0146217
673.135	0.0150647
673.213	0.0153761
673.291	0.0158031
673.369	0.0162603
673.447	0.0164736
673.525	0.0168414
673.603	0.0169273
673.682	0.0170583
673.760	0.0170556
673.838	0.0170415
673.916	0.0167974
673.994	0.0165442
674.072	0.0164493
674.150	0.0159377
674.228	0.0155396
674.307	0.0152745
674.385	0.0147447
674.463	0.0144275
674.541	0.0139598
674.619	0.0135340
674.697	0.0131248
674.775	0.0128362
674.853	0.0126192
674.932	0.0122495
675.010	0.0121101
675.088	0.0120737
675.166	0.0119910
675.244	0.0120670
675.322	0.0119862
675.400	0.0121669
675.478	0.0125389
675.557	0.0127602
675.635	0.0130459
675.713	0.0134229
675.791	0.0139522
675.869	0.0141457
675.947	0.0145246
676.025	0.0148463
676.103	0.0151869
676.182	0.0155489
676.260	0.0159550
676.338	0.0163090
676.416	0.0164018
676.494	0.0165046
676.572	0.0166961
676.650	0.0166492
676.728	0.0166817
676.807	0.0165483
676.885	0.0163722
676.963	0.0164152
677.041	0.0161259
677.119	0.0158518
677.197	0.0155952
677.275	0.0152513
677.353	0.0147930
677.432	0.0145812
677.510	0.0144466
677.588	0.0143076
677.666	0.0137896
677.744	0.0136230
677.822	0.0132874
677.900	0.0131148
677.978	0.0129536
678.057	0.0126857
678.135	0.0127328
678.213	0.0127212
678.291	0.0126900
678.369	0.0127467
678.447	0.0128912
678.525	0.0132950
678.603	0.0135235
678.682	0.0136340
678.760	0.0141276
678.838	0.0144842
678.916	0.0147961
678.994	0.0150964
679.072	0.0154399
679.150	0.0158287
679.228	0.0161305
679.307	0.0160835
679.385	0.0163046
679.463	0.0163708
679.541	0.0162290
679.619	0.0163120
679.697	0.0161033
679.775	0.0156553
679.853	0.0154868
679.932	0.0151775
680.010	0.0148656
680.088	0.0143374
680.166	0.0139018
680.244	0.0135804
680.322	0.0132378
680.400	0.0129302
680.478	0.0125810
680.557	0.0122832
680.635	0.0121580
680.713	0.0120705
680.791	0.0121015
680.869	0.0122328
680.947	0.0123678
681.025	0.0125726
681.103	0.0129704
681.182	0.0132774
681.260	0.0137402
681.338	0.0141388
681.416	0.0145554
681.494	0.0150307
681.572	0.0155526
681.650	0.0160348
681.728	0.0164693
681.807	0.0168428
681.885	0.0172289
681.963	0.0173623
682.041	0.0175468
682.119	0.0177910
682.197	0.0178072
682.275	0.0179323
682.353	0.0177038
682.432	0.0176640
682.510	0.0172831
682.588	0.0169483
682.666	0.0167467
682.744	0.0164621
682.822	0.0161364
682.900	0.0157359
682.978	0.0152248
683.057	0.0149530
683.135	0.0145010
683.213	0.0142883
683.291	0.0138598
683.369	0.0134179
683.447	0.0130148
683.525	0.0128488
683.603	0.0126546
683.682	0.0123816
683.760	0.0120792
683.838	0.0118742
683.916	0.0117828
683.994	0.0117471
684.072	0.0115983
684.150	0.0113886
684.228	0.0114857
684.307	0.0115838
684.385	0.0115546
684.463	0.0115454
684.541	0.0117126
684.619	0.0119407
684.697	0.0119932
684.775	0.0122007
684.853	0.0126630
684.932	0.0132291
685.010	0.0135634
685.088	0.0139571
685.166	0.0146413
685.244	0.0151345
685.322	0.0156029
685.400	0.0161401
685.478	0.0166564
685.557	0.0171133
685.635	0.0175007
685.713	0.0178069
685.791	0.0180931
685.869	0.0183543
685.947	0.0185599
686.025	0.0184952
686.103	0.0186344
686.182	0.0186970
686.260	0.0187101
686.338	0.0186941
686.416	0.0186250
686.494	0.0183933
686.572	0.0182145
686.650	0.0178254
686.728	0.0176817
686.807	0.0172806
686.885	0.0167373
686.963	0.0163148
687.041	0.0157497
687.119	0.0152974
687.197	0.0147388
687.275	0.0139672
687.353	0.0134048
687.432	0.0128280
687.510	0.0121540
687.588	0.0117901
687.666	0.0113000
687.744	0.0109551
687.822	0.0106148
687.900	0.0102843
687.978	0.0103404
688.057	0.0102064
688.135	0.0101940
688.213	0.0103642
688.291	0.0105755
688.369	0.0106799
688.447	0.0107736
688.525	0.0110692
688.603	0.0115090
688.682	0.0116360
688.760	0.0120006
688.838	0.0122353
688.916	0.0127004
688.994	0.0130299
689.072	0.0133832
689.150	0.0139458
689.228	0.0143302
689.307	0.0147996
689.385	0.0152747
689.463	0.0156719
689.541	0.0162675
689.619	0.0168031
689.697	0.0172335
689.775	0.0176093
689.853	0.0179405
689.932	0.0180337
690.010	0.0180080
690.088	0.0182425
690.166	0.0178631
690.244	0.0178038
690.322	0.0174006
690.400	0.0171494
690.478	0.0168781
690.557	0.0163434
690.635	0.0162490
690.713	0.0160281
690.791	0.0156683
690.869	0.0157074
690.947	0.0156418
691.025	0.0156471
691.103	0.0158120
691.182	0.0160123
691.260	0.0162117
691.338	0.0164211
691.416	0.0164317
691.494	0.0162923
691.572	0.0162526
691.650	0.0161641
691.728	0.0158488
691.807	0.0154089
691.885	0.0149942
691.963	0.0144050
692.041	0.0137920
692.119	0.0133981
692.197	0.0127911
692.275	0.0122430
692.353	0.0118615
692.432	0.0116414
692.510	0.0112627
692.588	0.0109826
692.666	0.0108363
692.744	0.0106527
692.822	0.0105190
692.900	0.0103806
692.978	0.0103178
693.057	0.0103985
693.135	0.0103324
693.213	0.0104678
693.291	0.0106453
693.369	0.0107823
693.447	0.0110677
693.525	0.0114417
693.603	0.0119360
693.682	0.0125468
693.760	0.0130738
693.838	0.0136302
693.916	0.0143712
693.994	0.0151923
694.072	0.0160135
694.150	0.0167405
694.228	0.0175342
694.307	0.0181328
694.385	0.0187511
694.463	0.0192326
694.541	0.0194590
694.619	0.0195458
694.697	0.0197383
694.775	0.0196730
694.853	0.0195184
694.932	0.0192632
695.010	0.0189123
695.088	0.0184505
695.166	0.0178620
695.244	0.0172476
695.322	0.0165399
695.400	0.0160558
695.478	0.0153638
695.557	0.0147446
695.635	0.0142087
695.713	0.0134674
695.791	0.0131521
695.869	0.0127039
695.947	0.0122446
696.025	0.0120952
696.103	0.0118961
696.182	0.0117057
696.260	0.0115199
696.338	0.0115495
696.416	0.0117045
696.494	0.0117165
696.572	0.0119045
696.650	0.0122417
696.728	0.0125014
696.807	0.0129128
696.885	0.0131825
696.963	0.0137122
697.041	0.0142289
697.119	0.0145895
697.197	0.0150868
697.275	0.0153419
697.353	0.0157008
697.432	0.0161256
697.510	0.0162729
697.588	0.0162298
697.666	0.0165455
697.744	0.0164507
697.822	0.0161777
697.900	0.0160290
697.978	0.0158061
698.057	0.0155708
698.135	0.0153598
698.213	0.0150372
698.291	0.0146736
698.369	0.0144581
698.447	0.0141051
698.525	0.0138969
698.603	0.0137514
698.682	0.0134816
698.760	0.0133840
698.838	0.0133545
698.916	0.0132465
698.994	0.0130180
699.072	0.0130878
699.150	0.0131030
699.228	0.0129347
699.307	0.0131847
699.385	0.0131316
699.463	0.0132513
699.541	0.0133862
699.619	0.0135349
699.697	0.0136921
699.775	0.0140977
699.853	0.0142820
699.932	0.0145409
700.010	0.0148727
700.088	0.0151505
700.166	0.0153185
700.244	0.0158618
700.322	0.0159702
700.400	0.0162239
700.478	0.0163820
700.557	0.0165010
700.635	0.0166001
700.713	0.0164747
700.791	0.0161172
700.869	0.0161111
700.947	0.0157460
701.025	0.0155435
701.103	0.0151609
701.182	0.0148014
701.260	0.0144255
701.338	0.0142022
701.416	0.0138798
701.494	0.0136939
701.572	0.0136208
701.650	0.0137026
701.728	0.0135863
701.807	0.0137225
701.885	0.0138892
701.963	0.0139677
702.041	0.0142512
702.119	0.0145606
702.197	0.0146674
702.275	0.0150960
702.353	0.0154873
702.432	0.0154478
702.510	0.0157347
702.588	0.0161176
702.666	0.0161682
702.744	0.0162596
702.822	0.0164819
702.900	0.0165562
702.978	0.0165060
703.057	0.0163936
703.135	0.0162287
703.213	0.0159846
703.291	0.0158889
703.369	0.0156692
703.447	0.0152637
703.525	0.0148088
703.603	0.0146059
703.682	0.0141219
703.760	0.0137341
703.838	0.0133038
703.916	0.0131062
703.994	0.0127757
704.072	0.0125685
704.150	0.0123347
704.228	0.0122074
704.307	0.0121003
704.385	0.0122031
704.463	0.0122191
704.541	0.0123339
704.619	0.0124998
704.697	0.0126892
704.775	0.0128722
704.853	0.0131120
704.932	0.0133238
705.010	0.0134773
705.088	0.0138441
705.166	0.0140037
705.244	0.0141257
705.322	0.0142514
705.400	0.0144098
705.478	0.0147260
705.557	0.0146751
705.635	0.0147031
705.713	0.0149084
705.791	0.0148705
705.869	0.0149545
705.947	0.0149553
706.025	0.0150900
706.103	0.0150289
706.182	0.0151014
706.260	0.0152364
706.338	0.0153642
706.416	0.0153876
706.494	0.0152667
706.572	0.0155275
706.650	0.0156557
706.728	0.0155901
706.807	0.0159805
706.885	0.0161140
706.963	0.0160021
707.041	0.0161631
707.119	0.0164089
707.197	0.0163200
707.275	0.0163531
707.353	0.0165469
707.432	0.0165090
707.510	0.0166816
707.588	0.0164466
707.666	0.0163841
707.744	0.0164151
707.822	0.0161774
707.900	0.0158759
707.978	0.0157869
708.057	0.0155125
708.135	0.0153412
708.213	0.0151033
708.291	0.0148327
708.369	0.0146179
708.447	0.0142865
708.525	0.0142163
708.603	0.0139733
708.682	0.0137688
708.760	0.0137950
708.838	0.0136792
708.916	0.0136147
708.994	0.0135523
709.072	0.0136554
709.150	0.0136163
709.228	0.0136741
709.307	0.0138357
709.385	0.0139001
709.463	0.0139441
709.541	0.0141651
709.619	0.0141092
709.697	0.0141763
709.775	0.0142210
709.853	0.0141884
709.932	0.0141012
710.010	0.0140428
710.088	0.0138330
710.166	0.0135104
710.244	0.0133366
710.322	0.0132301
710.400	0.0130475
710.478	0.0129684
710.557	0.0128961
710.635	0.0127888
710.713	0.0128641
710.791	0.0127225
710.869	0.0127876
710.947	0.0130629
711.025	0.0132355
711.103	0.0135059
711.182	0.0136423
711.260	0.0138030
711.338	0.0141325
711.416	0.0144853
711.494	0.0145670
711.572	0.0148757
711.650	0.0150002
711.728	0.0153760
711.807	0.0155775
711.885	0.0157313
711.963	0.0158467
712.041	0.0159435
712.119	0.0158654
712.197	0.0160925
712.275	0.0160981
712.353	0.0161761
712.432	0.0162144
712.510	0.0161372
712.588	0.0160922
712.666	0.0159175
712.744	0.0160455
712.822	0.0159697
712.900	0.0158531
712.978	0.0157601
713.057	0.0156442
713.135	0.0157198
713.213	0.0156704
713.291	0.0156599
713.369	0.0154808
713.447	0.0154368
713.525	0.0153035
713.603	0.0153391
713.682	0.0152517
713.760	0.0150655
713.838	0.0150496
713.916	0.0148959
713.994	0.0148276
714.072	0.0146831
714.150	0.0145580
714.228	0.0144991
714.307	0.0144372
714.385	0.0143588
714.463	0.0141492
714.541	0.0142314
714.619	0.0141690
714.697	0.0140669
714.775	0.0138471
714.853	0.0138577
714.932	0.0138996
715.010	0.0137872
715.088	0.0137486
715.166	0.0135523
715.244	0.0133961
715.322	0.0134354
715.400	0.0135005
715.478	0.0134018
715.557	0.0131357
715.635	0.0130897
715.713	0.0131766
715.791	0.0130750
715.869	0.0129745
715.947	0.0129431
716.025	0.0129523
716.103	0.0127769
716.182	0.0126466
716.260	0.0127351
716.338	0.0126484
716.416	0.0127200
716.494	0.0128728
716.572	0.0130982
716.650	0.0130758
716.728	0.0131113
716.807	0.0135005
716.885	0.0136364
716.963	0.0137617
717.041	0.0139934
717.119	0.0142918
717.197	0.0145493
717.275	0.0148232
717.353	0.0151196
717.432	0.0155737
717.510	0.0156255
717.588	0.0158333
717.666	0.0159087
717.744	0.0160522
717.822	0.0161588
717.900	0.0163008
717.978	0.0163325
718.057	0.0163763
718.135	0.0162843
718.213	0.0164241
718.291	0.0163151
718.369	0.0163809
718.447	0.0164677
718.525	0.0164907
718.603	0.0164891
718.682	0.0163201
718.760	0.0162775
718.838	0.0161363
718.916	0.0161904
718.994	0.0161411
719.072	0.0159178
719.150	0.0155120
719.228	0.0153929
719.307	0.0149982
719.385	0.0148339
719.463	0.0145775
719.541	0.0143446
719.619	0.0140893
719.697	0.0138331
719.775	0.0137663
719.853	0.0134685
719.932	0.0134964
720.010	0.0133120
720.088	0.0131404
720.166	0.0131366
720.244	0.0131848
720.322	0.0132120
720.400	0.0133234
720.478	0.0133225
720.557	0.0134652
720.635	0.0135184
720.713	0.0135672
720.791	0.0136430
720.869	0.0137271
720.947	0.0140204
721.025	0.0138752
721.103	0.0141698
721.182	0.0140281
721.260	0.0138937
721.338	0.0138658
721.416	0.0138308
721.494	0.0138107
721.572	0.0137521
721.650	0.0137254
721.728	0.0136734
721.807	0.0136414
721.885	0.0136479
721.963	0.0137560
722.041	0.0137990
722.119	0.0136140
722.197	0.0138721
722.275	0.0137930
722.353	0.0139894
722.432	0.0141845
722.510	0.0142115
722.588	0.0144228
722.666	0.0145595
722.744	0.0144958
722.822	0.0148237
722.900	0.0149135
722.978	0.0150517
723.057	0.0152070
723.135	0.0152843
723.213	0.0152222
723.291	0.0154317
723.369	0.0154945
723.447	0.0155461
723.525	0.0154051
723.603	0.0155592
723.682	0.0155501
723.760	0.0155601
723.838	0.0155387
723.916	0.0154919
723.994	0.0154395
724.072	0.0152738
724.150	0.0153258
724.228	0.0152774
724.307	0.0150927
724.385	0.0150986
724.463	0.0150093
724.541	0.0149026
724.619	0.0149088
724.697	0.0149821
724.775	0.0150118
724.853	0.0147326
724.932	0.0147181
725.010	0.0147942
725.088	0.0148402
725.166	0.0147455
725.244	0.0145806
725.322	0.0145271
725.400	0.0145325
725.478	0.0144598
725.557	0.0143705
725.635	0.0142775
725.713	0.0140912
725.791	0.0140737
725.869	0.0141854
725.947	0.0141853
726.025	0.0142098
726.103	0.0142181
726.182	0.0142271
726.260	0.0142517
726.338	0.0142807
726.416	0.0143680
726.494	0.0145631
726.572	0.0146764
726.650	0.0146941
726.728	0.0146654
726.807	0.0147280
726.885	0.0148450
726.963	0.0149034
727.041	0.0149332
727.119	0.0147607
727.197	0.0148028
727.275	0.0148000
727.353	0.0146446
727.432	0.0145757
727.510	0.0145998
727.588	0.0144881
727.666	0.0143095
727.744	0.0142938
727.822	0.0141341
727.900	0.0139155
727.978	0.0137567
728.057	0.0138805
728.135	0.0138926
728.213	0.0137366
728.291	0.0137898
728.369	0.0136581
728.447	0.0137934
728.525	0.0137783
728.603	0.0138319
728.682	0.0139225
728.760	0.0140642
728.838	0.0141521
728.916	0.0142999
728.994	0.0142228
729.072	0.0145013
729.150	0.0146240
729.228	0.0145509
729.307	0.0147266
729.385	0.0147299
729.463	0.0148773
729.541	0.0149387
729.619	0.0150806
729.697	0.0150753
729.775	0.0151752
729.853	0.0152003
729.932	0.0153748
730.010	0.0152618
730.088	0.0153741
730.166	0.0152650
730.244	0.0155650
730.322	0.0155520
730.400	0.0155248
730.478	0.0155696
730.557	0.0155676
730.635	0.0155795
730.713	0.0155596
730.791	0.0156367
730.869	0.0156448
730.947	0.0154381
731.025	0.0153548
731.103	0.0154306
731.182	0.0154298
731.260	0.0151463
731.338	0.0150424
731.416	0.0150704
731.494	0.0147256
731.572	0.0147459
731.650	0.0146058
731.728	0.0144849
731.807	0.0144433
731.885	0.0144871
731.963	0.0143194
732.041	0.0144151
732.119	0.0142440
732.197	0.0141641
732.275	0.0142350
732.353	0.0141995
732.432	0.0142167
732.510	0.0141318
732.588	0.0142069
732.666	0.0141827
732.744	0.0143340
732.822	0.0141665
732.900	0.0140180
732.978	0.0138860
733.057	0.0139542
733.135	0.0140791
733.213	0.0140500
733.291	0.0140280
733.369	0.0139469
733.447	0.0140697
733.525	0.0141119
733.603	0.0140628
733.682	0.0141913
733.760	0.0141600
733.838	0.0143401
733.916	0.0144134
733.994	0.0144969
734.072	0.0146840
734.150	0.0147240
734.228	0.0149224
734.307	0.0149675
734.385	0.0149336
734.463	0.0149579
734.541	0.0148384
734.619	0.0148106
734.697	0.0146963
734.775	0.0146450
734.853	0.0145457
734.932	0.0144446
735.010	0.0144810
735.088	0.0144255
735.166	0.0143887
735.244	0.0144215
735.322	0.0142947
735.400	0.0142886
735.478	0.0145913
735.557	0.0144964
735.635	0.0144799
735.713	0.0144315
