05/14/2022	19:29:45	Ver.	4.1	UNKNOWN
Optical Delay	650.009681	Delta X		0.078125	Sweeps	1	Scan Rate	0/0
Coordinates	Axis 1	NaN	Axis 2	NaN	Axis 3	NaN	Axis 4	NaN	Axis 5	NaN	Axis 6	0.000000
TX Power	0.000000	RX Power	0.000000

650.010	0.0144105
650.088	0.0144982
650.166	0.0144833
650.244	0.0145255
650.322	0.0145010
650.400	0.0144568
650.478	0.0143749
650.557	0.0144184
650.635	0.0144023
650.713	0.0143727
650.791	0.0145108
650.869	0.0144473
650.947	0.0145795
651.025	0.0143861
651.103	0.0144267
651.182	0.0143942
651.260	0.0144738
651.338	0.0144561
651.416	0.0143631
651.494	0.0143170
651.572	0.0143600
651.650	0.0144897
651.728	0.0143233
651.807	0.0142462
651.885	0.0143008
651.963	0.0144169
652.041	0.0143553
652.119	0.0143634
652.197	0.0143330
652.275	0.0143732
652.353	0.0143047
652.432	0.0143370
652.510	0.0143537
652.588	0.0143105
652.666	0.0143494
652.744	0.0144884
652.822	0.0142939
652.900	0.0143553
652.978	0.0142597
653.057	0.0143539
653.135	0.0142872
653.213	0.0144785
653.291	0.0144717
653.369	0.0143023
653.447	0.0143824
653.525	0.0144923
653.603	0.0142999
653.682	0.0142990
653.760	0.0143407
653.838	0.0143181
653.916	0.0142331
653.994	0.0144419
654.072	0.0146055
654.150	0.0144053
654.228	0.0144394
654.307	0.0144086
654.385	0.0144070
654.463	0.0143518
654.541	0.0143130
654.619	0.0143088
654.697	0.0143591
654.775	0.0143350
654.853	0.0145128
654.932	0.0143535
655.010	0.0142992
655.088	0.0144628
655.166	0.0144132
655.244	0.0144879
655.322	0.0143857
655.400	0.0144695
655.478	0.0144028
655.557	0.0144884
655.635	0.0144765
655.713	0.0145364
655.791	0.0144431
655.869	0.0142905
655.947	0.0144551
656.025	0.0144088
656.103	0.0144746
656.182	0.0144230
656.260	0.0145728
656.338	0.0144709
656.416	0.0144648
656.494	0.0143121
656.572	0.0143351
656.650	0.0144280
656.728	0.0143517
656.807	0.0143599
656.885	0.0143692
656.963	0.0143867
657.041	0.0144505
657.119	0.0143493
657.197	0.0144988
657.275	0.0145656
657.353	0.0144532
657.432	0.0144049
657.510	0.0144437
657.588	0.0143402
657.666	0.0145103
657.744	0.0144782
657.822	0.0143487
657.900	0.0144608
657.978	0.0145141
658.057	0.0146053
658.135	0.0144657
658.213	0.0143922
658.291	0.0142667
658.369	0.0144364
658.447	0.0143262
658.525	0.0143550
658.603	0.0143266
658.682	0.0143246
658.760	0.0143648
658.838	0.0144012
658.916	0.0143952
658.994	0.0144463
659.072	0.0144447
659.150	0.0143834
659.228	0.0145038
659.307	0.0144756
659.385	0.0144815
659.463	0.0144881
659.541	0.0144083
659.619	0.0144228
659.697	0.0144090
659.775	0.0144127
659.853	0.0144736
659.932	0.0144011
660.010	0.0143176
660.088	0.0143982
660.166	0.0143710
660.244	0.0144938
660.322	0.0143928
660.400	0.0143259
660.478	0.0144773
660.557	0.0143754
660.635	0.0144236
660.713	0.0145108
660.791	0.0145192
660.869	0.0145847
660.947	0.0145604
661.025	0.0145238
661.103	0.0144107
661.182	0.0144112
661.260	0.0145017
661.338	0.0145114
661.416	0.0144994
661.494	0.0144367
661.572	0.0145005
661.650	0.0145848
661.728	0.0146087
661.807	0.0145058
661.885	0.0146026
661.963	0.0145422
662.041	0.0145084
662.119	0.0145066
662.197	0.0143143
662.275	0.0144810
662.353	0.0143841
662.432	0.0144257
662.510	0.0143570
662.588	0.0144298
662.666	0.0144071
662.744	0.0144937
662.822	0.0144618
662.900	0.0143721
662.978	0.0144339
663.057	0.0144804
663.135	0.0144401
663.213	0.0143713
663.291	0.0143787
663.369	0.0144713
663.447	0.0144824
663.525	0.0143777
663.603	0.0143663
663.682	0.0144454
663.760	0.0144341
663.838	0.0142283
663.916	0.0143482
663.994	0.0144591
664.072	0.0143456
664.150	0.0144994
664.228	0.0144853
664.307	0.0146410
664.385	0.0144867
664.463	0.0144196
664.541	0.0144210
664.619	0.0143691
664.697	0.0144846
664.775	0.0145020
664.853	0.0144895
664.932	0.0145778
665.010	0.0145522
665.088	0.0146500
665.166	0.0146280
665.244	0.0146684
665.322	0.0146630
665.400	0.0147189
665.478	0.0146907
665.557	0.0145815
665.635	0.0145538
665.713	0.0145460
665.791	0.0143449
665.869	0.0142211
665.947	0.0143668
666.025	0.0141999
666.103	0.0141416
666.182	0.0140416
666.260	0.0138303
666.338	0.0140102
666.416	0.0139555
666.494	0.0138403
666.572	0.0139568
666.650	0.0138767
666.728	0.0139127
666.807	0.0140323
666.885	0.0140630
666.963	0.0140260
667.041	0.0143098
667.119	0.0143006
667.197	0.0143806
667.275	0.0146021
667.353	0.0148620
667.432	0.0148623
667.510	0.0150467
667.588	0.0151493
667.666	0.0152283
667.744	0.0153522
667.822	0.0152623
667.900	0.0154659
667.978	0.0154019
668.057	0.0153356
668.135	0.0151609
668.213	0.0149677
668.291	0.0147570
668.369	0.0146338
668.447	0.0144186
668.525	0.0138400
668.603	0.0137147
668.682	0.0135153
668.760	0.0132841
668.838	0.0129640
668.916	0.0127826
668.994	0.0125208
669.072	0.0125581
669.150	0.0124805
669.228	0.0125584
669.307	0.0125060
669.385	0.0126276
669.463	0.0128548
669.541	0.0131519
669.619	0.0134873
669.697	0.0138875
669.775	0.0143043
669.853	0.0146287
669.932	0.0151112
670.010	0.0155825
670.088	0.0159835
670.166	0.0162467
670.244	0.0166364
670.322	0.0168752
670.400	0.0169099
670.478	0.0170741
670.557	0.0171492
670.635	0.0171223
670.713	0.0168459
670.791	0.0166774
670.869	0.0163913
670.947	0.0160262
671.025	0.0156473
671.103	0.0151019
671.182	0.0146060
671.260	0.0141240
671.338	0.0136784
671.416	0.0132868
671.494	0.0127392
671.572	0.0123588
671.650	0.0119805
671.728	0.0116389
671.807	0.0113692
671.885	0.0112262
671.963	0.0111920
672.041	0.0111958
672.119	0.0114326
672.197	0.0115910
672.275	0.0118487
672.353	0.0123134
672.432	0.0127123
672.510	0.0131374
672.588	0.0137557
672.666	0.0141488
672.744	0.0146094
672.822	0.0151546
672.900	0.0155634
672.978	0.0161455
673.057	0.0165079
673.135	0.0167509
673.213	0.0169537
673.291	0.0173345
673.369	0.0172659
673.447	0.0173914
673.525	0.0175812
673.603	0.0172738
673.682	0.0170791
673.760	0.0168914
673.838	0.0166750
673.916	0.0163234
673.994	0.0159039
674.072	0.0157041
674.150	0.0152419
674.228	0.0147508
674.307	0.0143945
674.385	0.0140392
674.463	0.0136845
674.541	0.0133965
674.619	0.0130084
674.697	0.0126657
674.775	0.0123480
674.853	0.0122787
674.932	0.0120029
675.010	0.0118514
675.088	0.0117554
675.166	0.0118922
675.244	0.0118345
675.322	0.0120105
675.400	0.0121372
675.478	0.0123239
675.557	0.0126091
675.635	0.0130048
675.713	0.0132587
675.791	0.0137019
675.869	0.0141710
675.947	0.0144218
676.025	0.0147913
676.103	0.0150546
676.182	0.0153082
676.260	0.0155738
676.338	0.0158701
676.416	0.0161726
676.494	0.0161499
676.572	0.0162875
676.650	0.0162736
676.728	0.0162171
676.807	0.0162045
676.885	0.0161031
676.963	0.0159524
677.041	0.0156114
677.119	0.0154259
677.197	0.0151962
677.275	0.0150097
677.353	0.0147398
677.432	0.0145029
677.510	0.0144863
677.588	0.0142467
677.666	0.0139764
677.744	0.0139596
677.822	0.0139320
677.900	0.0139207
677.978	0.0139256
678.057	0.0138466
678.135	0.0139453
678.213	0.0139634
678.291	0.0138301
678.369	0.0138403
678.447	0.0139362
678.525	0.0139302
678.603	0.0139603
678.682	0.0140121
678.760	0.0140998
678.838	0.0140310
678.916	0.0140551
678.994	0.0141971
679.072	0.0142996
679.150	0.0144799
679.228	0.0145251
679.307	0.0145892
679.385	0.0147350
679.463	0.0148327
679.541	0.0148337
679.619	0.0150148
679.697	0.0150662
679.775	0.0150098
679.853	0.0151330
679.932	0.0151183
680.010	0.0149805
680.088	0.0150053
680.166	0.0151319
680.244	0.0149581
680.322	0.0149874
680.400	0.0149308
680.478	0.0147221
680.557	0.0146085
680.635	0.0145751
680.713	0.0143980
680.791	0.0142454
680.869	0.0141131
680.947	0.0140524
681.025	0.0138506
681.103	0.0134769
681.182	0.0133891
681.260	0.0132035
681.338	0.0130161
681.416	0.0128900
681.494	0.0126858
681.572	0.0126004
681.650	0.0124161
681.728	0.0125144
681.807	0.0127113
681.885	0.0128745
681.963	0.0130434
682.041	0.0132831
682.119	0.0136578
682.197	0.0140383
682.275	0.0142892
682.353	0.0147404
682.432	0.0149025
682.510	0.0153568
682.588	0.0156854
682.666	0.0159609
682.744	0.0161597
682.822	0.0165024
682.900	0.0166771
682.978	0.0167626
683.057	0.0168890
683.135	0.0168829
683.213	0.0168436
683.291	0.0168623
683.369	0.0166135
683.447	0.0166380
683.525	0.0164639
683.603	0.0163154
683.682	0.0161410
683.760	0.0157345
683.838	0.0154342
683.916	0.0153039
683.994	0.0151221
684.072	0.0147639
684.150	0.0145022
684.228	0.0143375
684.307	0.0141579
684.385	0.0138457
684.463	0.0136994
684.541	0.0136137
684.619	0.0134154
684.697	0.0131624
684.775	0.0129319
684.853	0.0129262
684.932	0.0128239
685.010	0.0126041
685.088	0.0123856
685.166	0.0122990
685.244	0.0120728
685.322	0.0119785
685.400	0.0119344
685.478	0.0119221
685.557	0.0116332
685.635	0.0117956
685.713	0.0119848
685.791	0.0119343
685.869	0.0121642
685.947	0.0123647
686.025	0.0126250
686.103	0.0128152
686.182	0.0130465
686.260	0.0132937
686.338	0.0136573
686.416	0.0139627
686.494	0.0143452
686.572	0.0146979
686.650	0.0147525
686.728	0.0149744
686.807	0.0151505
686.885	0.0153358
686.963	0.0155271
687.041	0.0156253
687.119	0.0159520
687.197	0.0159905
687.275	0.0161085
687.353	0.0163898
687.432	0.0165295
687.510	0.0166330
687.588	0.0167661
687.666	0.0168380
687.744	0.0169154
687.822	0.0169801
687.900	0.0169748
687.978	0.0170310
688.057	0.0170546
688.135	0.0169422
688.213	0.0168810
688.291	0.0168260
688.369	0.0166138
688.447	0.0165287
688.525	0.0163567
688.603	0.0160590
688.682	0.0157957
688.760	0.0155727
688.838	0.0151691
688.916	0.0148285
688.994	0.0143534
689.072	0.0141386
689.150	0.0138145
689.228	0.0134044
689.307	0.0129462
689.385	0.0124755
689.463	0.0121630
689.541	0.0118922
689.619	0.0113882
689.697	0.0111096
689.775	0.0108712
689.853	0.0105475
689.932	0.0104153
690.010	0.0101464
690.088	0.0101030
690.166	0.0101469
690.244	0.0100344
690.322	0.0100436
690.400	0.0101107
690.478	0.0103306
690.557	0.0107016
690.635	0.0110154
690.713	0.0111559
690.791	0.0117268
690.869	0.0122950
690.947	0.0127893
691.025	0.0134502
691.103	0.0138351
691.182	0.0143713
691.260	0.0150764
691.338	0.0157273
691.416	0.0162922
691.494	0.0167949
691.572	0.0173604
691.650	0.0177126
691.728	0.0181054
691.807	0.0183810
691.885	0.0186304
691.963	0.0186169
692.041	0.0187626
692.119	0.0187681
692.197	0.0185412
692.275	0.0182937
692.353	0.0182268
692.432	0.0177804
692.510	0.0176492
692.588	0.0171691
692.666	0.0169482
692.744	0.0164865
692.822	0.0161378
692.900	0.0158125
692.978	0.0155540
693.057	0.0153300
693.135	0.0151002
693.213	0.0148583
693.291	0.0147259
693.369	0.0142704
693.447	0.0141779
693.525	0.0141785
693.603	0.0138401
693.682	0.0136306
693.760	0.0135876
693.838	0.0132095
693.916	0.0130509
693.994	0.0130123
694.072	0.0128933
694.150	0.0128092
694.228	0.0126514
694.307	0.0126328
694.385	0.0126286
694.463	0.0126743
694.541	0.0126763
694.619	0.0125404
694.697	0.0125588
694.775	0.0125249
694.853	0.0124358
694.932	0.0124570
695.010	0.0123977
695.088	0.0123411
695.166	0.0123104
695.244	0.0121206
695.322	0.0121289
695.400	0.0120719
695.478	0.0118955
695.557	0.0118902
695.635	0.0119973
695.713	0.0118697
695.791	0.0120145
695.869	0.0121324
695.947	0.0123125
696.025	0.0125703
696.103	0.0127935
696.182	0.0133652
696.260	0.0138126
696.338	0.0141045
696.416	0.0146130
696.494	0.0151220
696.572	0.0156003
696.650	0.0161152
696.728	0.0166227
696.807	0.0168916
696.885	0.0173786
696.963	0.0176350
697.041	0.0179672
697.119	0.0181350
697.197	0.0182111
697.275	0.0182899
697.353	0.0182678
697.432	0.0182883
697.510	0.0182272
697.588	0.0179940
697.666	0.0176160
697.744	0.0174293
697.822	0.0170947
697.900	0.0167984
697.978	0.0166065
698.057	0.0162870
698.135	0.0158559
698.213	0.0153168
698.291	0.0150037
698.369	0.0145561
698.447	0.0142786
698.525	0.0137518
698.603	0.0131985
698.682	0.0129757
698.760	0.0127235
698.838	0.0125628
698.916	0.0122105
698.994	0.0122195
699.072	0.0122121
699.150	0.0121535
699.228	0.0122471
699.307	0.0124324
699.385	0.0125851
699.463	0.0127641
699.541	0.0131786
699.619	0.0132717
699.697	0.0134398
699.775	0.0137857
699.853	0.0139066
699.932	0.0140567
700.010	0.0142638
700.088	0.0142647
700.166	0.0143362
700.244	0.0142366
700.322	0.0142538
700.400	0.0140205
700.478	0.0141697
700.557	0.0139902
700.635	0.0138761
700.713	0.0137263
700.791	0.0135567
700.869	0.0135290
700.947	0.0133733
701.025	0.0132319
701.103	0.0131878
701.182	0.0130647
701.260	0.0131511
701.338	0.0130649
701.416	0.0131598
701.494	0.0131256
701.572	0.0131523
701.650	0.0132290
701.728	0.0133985
701.807	0.0136276
701.885	0.0136906
701.963	0.0140112
702.041	0.0143047
702.119	0.0145466
702.197	0.0147848
702.275	0.0151865
702.353	0.0156361
702.432	0.0159284
702.510	0.0162798
702.588	0.0164547
702.666	0.0168522
702.744	0.0171080
702.822	0.0172398
702.900	0.0175110
702.978	0.0174695
703.057	0.0174481
703.135	0.0173876
703.213	0.0172878
703.291	0.0170887
703.369	0.0169191
703.447	0.0166076
703.525	0.0162244
703.603	0.0159039
703.682	0.0156097
703.760	0.0152483
703.838	0.0149591
703.916	0.0147301
703.994	0.0144050
704.072	0.0142598
704.150	0.0139870
704.228	0.0136174
704.307	0.0135914
704.385	0.0134666
704.463	0.0134038
704.541	0.0131995
704.619	0.0131969
704.697	0.0131133
704.775	0.0131195
704.853	0.0134090
704.932	0.0133115
705.010	0.0133865
705.088	0.0132234
705.166	0.0133072
705.244	0.0134789
705.322	0.0135011
705.400	0.0134967
705.478	0.0136008
705.557	0.0134933
705.635	0.0132909
705.713	0.0133535
705.791	0.0132425
705.869	0.0131918
705.947	0.0129724
706.025	0.0129137
706.103	0.0127541
706.182	0.0129214
706.260	0.0127962
706.338	0.0128139
706.416	0.0129166
706.494	0.0129382
706.572	0.0132893
706.650	0.0136279
706.728	0.0138206
706.807	0.0141792
706.885	0.0143102
706.963	0.0145155
707.041	0.0149355
707.119	0.0151774
707.197	0.0153777
707.275	0.0155464
707.353	0.0159220
707.432	0.0161330
707.510	0.0159929
707.588	0.0160452
707.666	0.0160878
707.744	0.0158730
707.822	0.0158128
707.900	0.0158235
707.978	0.0156760
708.057	0.0154118
708.135	0.0154493
708.213	0.0153015
708.291	0.0149323
708.369	0.0150288
708.447	0.0148228
708.525	0.0147056
708.603	0.0147491
708.682	0.0144988
708.760	0.0143344
708.838	0.0142860
708.916	0.0142648
708.994	0.0140060
709.072	0.0138461
709.150	0.0136996
709.228	0.0136848
709.307	0.0134122
709.385	0.0131075
709.463	0.0131051
709.541	0.0129946
709.619	0.0131347
709.697	0.0129832
709.775	0.0129202
709.853	0.0130215
709.932	0.0131975
710.010	0.0133796
710.088	0.0137382
710.166	0.0139780
710.244	0.0143163
710.322	0.0146193
710.400	0.0150116
710.478	0.0152444
710.557	0.0154094
710.635	0.0155863
710.713	0.0156033
710.791	0.0159166
710.869	0.0159058
710.947	0.0159612
711.025	0.0158088
711.103	0.0158223
711.182	0.0155177
711.260	0.0152790
711.338	0.0152480
711.416	0.0150729
711.494	0.0148545
711.572	0.0147760
711.650	0.0145218
711.728	0.0141629
711.807	0.0139627
711.885	0.0138457
711.963	0.0136748
712.041	0.0135416
712.119	0.0133089
712.197	0.0131706
712.275	0.0131400
712.353	0.0129149
712.432	0.0128301
712.510	0.0129845
712.588	0.0127672
712.666	0.0126932
712.744	0.0126960
712.822	0.0128860
712.900	0.0128400
712.978	0.0129140
713.057	0.0131058
713.135	0.0131104
713.213	0.0132719
713.291	0.0132494
713.369	0.0133437
713.447	0.0134866
713.525	0.0136568
713.603	0.0137286
713.682	0.0138357
713.760	0.0138640
713.838	0.0142348
713.916	0.0143610
713.994	0.0144707
714.072	0.0146792
714.150	0.0147712
714.228	0.0150604
714.307	0.0150794
714.385	0.0151853
714.463	0.0152976
714.541	0.0153571
714.619	0.0155395
714.697	0.0154831
714.775	0.0154300
714.853	0.0154263
714.932	0.0152206
715.010	0.0152112
715.088	0.0152356
715.166	0.0149657
715.244	0.0148062
715.322	0.0147293
715.400	0.0145265
715.478	0.0144958
715.557	0.0143319
715.635	0.0144182
715.713	0.0142970
715.791	0.0142994
715.869	0.0142033
715.947	0.0142060
716.025	0.0142381
716.103	0.0140663
716.182	0.0140974
716.260	0.0143353
716.338	0.0142226
716.416	0.0142066
716.494	0.0141293
716.572	0.0142931
716.650	0.0144013
716.728	0.0145343
716.807	0.0145329
716.885	0.0146217
716.963	0.0145369
717.041	0.0145229
717.119	0.0145685
717.197	0.0146623
717.275	0.0147411
717.353	0.0147218
717.432	0.0144501
717.510	0.0144730
717.588	0.0145152
717.666	0.0144883
717.744	0.0144968
717.822	0.0142818
717.900	0.0142494
717.978	0.0141863
718.057	0.0141479
718.135	0.0141398
718.213	0.0140979
718.291	0.0140018
718.369	0.0141930
718.447	0.0140000
718.525	0.0140504
718.603	0.0141706
718.682	0.0141279
718.760	0.0142255
718.838	0.0142169
718.916	0.0140987
718.994	0.0141660
719.072	0.0141771
719.150	0.0142821
719.228	0.0140644
719.307	0.0140040
719.385	0.0140873
719.463	0.0141101
719.541	0.0139719
719.619	0.0137673
719.697	0.0138081
719.775	0.0136763
719.853	0.0136795
719.932	0.0134544
720.010	0.0133624
720.088	0.0133881
720.166	0.0135603
720.244	0.0135109
720.322	0.0135688
720.400	0.0135992
720.478	0.0135622
720.557	0.0138151
720.635	0.0139060
720.713	0.0139771
720.791	0.0142696
720.869	0.0143415
720.947	0.0145322
721.025	0.0146488
721.103	0.0147681
721.182	0.0149477
721.260	0.0151761
721.338	0.0153098
721.416	0.0155810
721.494	0.0156472
721.572	0.0158291
721.650	0.0159315
721.728	0.0160512
721.807	0.0160995
721.885	0.0162358
721.963	0.0161986
722.041	0.0161839
722.119	0.0160870
722.197	0.0159589
722.275	0.0160693
722.353	0.0158523
722.432	0.0156059
722.510	0.0155506
722.588	0.0152763
722.666	0.0151955
722.744	0.0151684
722.822	0.0150284
722.900	0.0148557
722.978	0.0146872
723.057	0.0145056
723.135	0.0143030
723.213	0.0141516
723.291	0.0141010
723.369	0.0141376
723.447	0.0140214
723.525	0.0138306
723.603	0.0139920
723.682	0.0139684
723.760	0.0138895
723.838	0.0140606
723.916	0.0142763
723.994	0.0140508
724.072	0.0141521
724.150	0.0143011
724.228	0.0143734
724.307	0.0142054
724.385	0.0140818
724.463	0.0140202
724.541	0.0141029
724.619	0.0139944
724.697	0.0138274
724.775	0.0136403
724.853	0.0136907
724.932	0.0136454
725.010	0.0134922
725.088	0.0132394
725.166	0.0132575
725.244	0.0130455
725.322	0.0132619
725.400	0.0131477
725.478	0.0133258
725.557	0.0131639
725.635	0.0133825
725.713	0.0132901
725.791	0.0133128
725.869	0.0134760
725.947	0.0136153
726.025	0.0136680
726.103	0.0137617
726.182	0.0138856
726.260	0.0139425
726.338	0.0142077
726.416	0.0142142
726.494	0.0144330
726.572	0.0144617
726.650	0.0146710
726.728	0.0147608
726.807	0.0151523
726.885	0.0151756
726.963	0.0153182
727.041	0.0155348
727.119	0.0157132
727.197	0.0157146
727.275	0.0157323
727.353	0.0158636
727.432	0.0157391
727.510	0.0159467
727.588	0.0159483
727.666	0.0157669
727.744	0.0157846
727.822	0.0157488
727.900	0.0157777
727.978	0.0156021
728.057	0.0155010
728.135	0.0153091
728.213	0.0153509
728.291	0.0153203
728.369	0.0152467
728.447	0.0150017
728.525	0.0148853
728.603	0.0148553
728.682	0.0146725
728.760	0.0144549
728.838	0.0146481
728.916	0.0144762
728.994	0.0143118
729.072	0.0142520
729.150	0.0142606
729.228	0.0143784
729.307	0.0142822
729.385	0.0140082
729.463	0.0138899
729.541	0.0139986
729.619	0.0139620
729.697	0.0138072
729.775	0.0137021
729.853	0.0135773
729.932	0.0133950
730.010	0.0136072
730.088	0.0133263
730.166	0.0132247
730.244	0.0132985
730.322	0.0132281
730.400	0.0132427
730.478	0.0131934
730.557	0.0134190
730.635	0.0132679
730.713	0.0132680
730.791	0.0133849
730.869	0.0134211
730.947	0.0136291
731.025	0.0137479
731.103	0.0136107
731.182	0.0137115
731.260	0.0137341
731.338	0.0138226
731.416	0.0137331
731.494	0.0139930
731.572	0.0139032
731.650	0.0139041
731.728	0.0139033
731.807	0.0139296
731.885	0.0139919
731.963	0.0141434
732.041	0.0142742
732.119	0.0141930
732.197	0.0144019
732.275	0.0143594
732.353	0.0146062
732.432	0.0145313
732.510	0.0146783
732.588	0.0148728
732.666	0.0148408
732.744	0.0148537
732.822	0.0151172
732.900	0.0150301
732.978	0.0150434
733.057	0.0151465
733.135	0.0151881
733.213	0.0152305
733.291	0.0152124
733.369	0.0152457
733.447	0.0151307
733.525	0.0152008
733.603	0.0153587
733.682	0.0152153
733.760	0.0149778
733.838	0.0150826
733.916	0.0151057
733.994	0.0150528
734.072	0.0149986
734.150	0.0149989
734.228	0.0147719
734.307	0.0147308
734.385	0.0150069
734.463	0.0147976
734.541	0.0147079
734.619	0.0145061
734.697	0.0144580
734.775	0.0145067
734.853	0.0144154
734.932	0.0144851
735.010	0.0143229
735.088	0.0143864
735.166	0.0144878
735.244	0.0142281
735.322	0.0143031
735.400	0.0141881
735.478	0.0141512
735.557	0.0141062
735.635	0.0140307
735.713	0.0141376
