05/14/2022	19:30:00	Ver.	4.1	UNKNOWN
Optical Delay	650.009681	Delta X		0.078125	Sweeps	1	Scan Rate	0/0
Coordinates	Axis 1	NaN	Axis 2	NaN	Axis 3	NaN	Axis 4	NaN	Axis 5	NaN	Axis 6	0.000000
TX Power	0.000000	RX Power	0.000000

650.010	0.0145734
650.088	0.0146672
650.166	0.0147462
650.244	0.0146744
650.322	0.0145844
650.400	0.0146498
650.478	0.0144981
650.557	0.0145319
650.635	0.0146622
650.713	0.0147633
650.791	0.0145920
650.869	0.0146638
650.947	0.0147330
651.025	0.0146368
651.103	0.0145980
651.182	0.0146188
651.260	0.0146635
651.338	0.0145962
651.416	0.0146382
651.494	0.0147367
651.572	0.0144966
651.650	0.0146413
651.728	0.0146575
651.807	0.0145895
651.885	0.0146387
651.963	0.0147279
652.041	0.0146575
652.119	0.0146488
652.197	0.0145245
652.275	0.0147269
652.353	0.0147779
652.432	0.0146095
652.510	0.0146681
652.588	0.0146702
652.666	0.0147855
652.744	0.0147410
652.822	0.0147076
652.900	0.0146017
652.978	0.0146649
653.057	0.0147399
653.135	0.0145944
653.213	0.0144585
653.291	0.0147212
653.369	0.0146172
653.447	0.0145895
653.525	0.0145948
653.603	0.0146436
653.682	0.0145692
653.760	0.0144323
653.838	0.0145010
653.916	0.0145337
653.994	0.0146136
654.072	0.0147103
654.150	0.0146010
654.228	0.0146377
654.307	0.0146325
654.385	0.0145834
654.463	0.0146413
654.541	0.0147061
654.619	0.0147109
654.697	0.0145804
654.775	0.0148008
654.853	0.0146897
654.932	0.0147617
655.010	0.0146024
655.088	0.0146479
655.166	0.0147230
655.244	0.0148701
655.322	0.0148800
655.400	0.0148413
655.478	0.0147355
655.557	0.0146332
655.635	0.0148566
655.713	0.0146960
655.791	0.0147585
655.869	0.0146827
655.947	0.0147680
656.025	0.0147423
656.103	0.0146342
656.182	0.0146484
656.260	0.0145319
656.338	0.0147800
656.416	0.0147308
656.494	0.0147553
656.572	0.0146643
656.650	0.0145960
656.728	0.0148125
656.807	0.0146785
656.885	0.0145284
656.963	0.0146584
657.041	0.0146845
657.119	0.0146810
657.197	0.0145389
657.275	0.0146367
657.353	0.0146312
657.432	0.0148190
657.510	0.0146685
657.588	0.0146904
657.666	0.0147160
657.744	0.0147029
657.822	0.0146397
657.900	0.0147057
657.978	0.0147157
658.057	0.0147470
658.135	0.0146929
658.213	0.0147160
658.291	0.0146217
658.369	0.0146391
658.447	0.0146745
658.525	0.0145930
658.603	0.0147341
658.682	0.0147982
658.760	0.0146357
658.838	0.0146526
658.916	0.0147485
658.994	0.0146163
659.072	0.0147115
659.150	0.0147366
659.228	0.0145857
659.307	0.0147292
659.385	0.0148072
659.463	0.0146410
659.541	0.0145296
659.619	0.0147207
659.697	0.0145599
659.775	0.0146661
659.853	0.0144939
659.932	0.0145533
660.010	0.0147284
660.088	0.0146124
660.166	0.0144915
660.244	0.0146382
660.322	0.0146360
660.400	0.0145930
660.478	0.0145961
660.557	0.0146340
660.635	0.0146711
660.713	0.0145535
660.791	0.0147041
660.869	0.0145785
660.947	0.0146101
661.025	0.0146288
661.103	0.0146489
661.182	0.0146374
661.260	0.0146548
661.338	0.0146739
661.416	0.0148092
661.494	0.0146341
661.572	0.0145946
661.650	0.0145430
661.728	0.0146071
661.807	0.0146327
661.885	0.0144753
661.963	0.0146203
662.041	0.0145633
662.119	0.0147039
662.197	0.0146049
662.275	0.0145188
662.353	0.0144506
662.432	0.0147446
662.510	0.0144627
662.588	0.0144917
662.666	0.0146590
662.744	0.0146230
662.822	0.0145345
662.900	0.0146832
662.978	0.0145458
663.057	0.0146061
663.135	0.0145932
663.213	0.0145812
663.291	0.0145406
663.369	0.0144177
663.447	0.0144756
663.525	0.0145536
663.603	0.0145913
663.682	0.0144350
663.760	0.0146286
663.838	0.0148194
663.916	0.0145972
663.994	0.0147407
664.072	0.0146558
664.150	0.0147054
664.228	0.0147445
664.307	0.0145821
664.385	0.0145728
664.463	0.0147216
664.541	0.0146667
664.619	0.0146876
664.697	0.0147246
664.775	0.0148418
664.853	0.0146997
664.932	0.0147131
665.010	0.0146732
665.088	0.0148345
665.166	0.0148456
665.244	0.0147134
665.322	0.0147371
665.400	0.0147775
665.478	0.0147694
665.557	0.0145705
665.635	0.0145019
665.713	0.0145094
665.791	0.0145045
665.869	0.0143988
665.947	0.0143803
666.025	0.0143465
666.103	0.0140922
666.182	0.0141744
666.260	0.0141624
666.338	0.0141482
666.416	0.0140526
666.494	0.0141665
666.572	0.0139967
666.650	0.0140280
666.728	0.0143223
666.807	0.0143704
666.885	0.0144714
666.963	0.0146290
667.041	0.0147771
667.119	0.0149596
667.197	0.0150094
667.275	0.0151825
667.353	0.0153208
667.432	0.0153300
667.510	0.0155280
667.588	0.0155598
667.666	0.0156197
667.744	0.0156577
667.822	0.0154681
667.900	0.0155148
667.978	0.0155193
668.057	0.0152476
668.135	0.0150723
668.213	0.0150149
668.291	0.0146204
668.369	0.0144617
668.447	0.0140989
668.525	0.0138818
668.603	0.0136221
668.682	0.0133965
668.760	0.0131136
668.838	0.0127731
668.916	0.0127046
668.994	0.0127906
669.072	0.0128144
669.150	0.0127543
669.228	0.0128865
669.307	0.0130904
669.385	0.0132654
669.463	0.0135768
669.541	0.0138375
669.619	0.0141985
669.697	0.0145506
669.775	0.0150809
669.853	0.0154438
669.932	0.0158010
670.010	0.0161832
670.088	0.0166108
670.166	0.0168756
670.244	0.0170360
670.322	0.0172208
670.400	0.0172878
670.478	0.0171381
670.557	0.0170512
670.635	0.0170309
670.713	0.0166345
670.791	0.0162605
670.869	0.0159007
670.947	0.0154420
671.025	0.0151069
671.103	0.0146735
671.182	0.0140458
671.260	0.0136398
671.338	0.0131788
671.416	0.0127351
671.494	0.0122630
671.572	0.0120248
671.650	0.0117123
671.728	0.0114466
671.807	0.0113435
671.885	0.0113465
671.963	0.0113264
672.041	0.0116335
672.119	0.0116045
672.197	0.0118132
672.275	0.0123776
672.353	0.0128400
672.432	0.0132323
672.510	0.0138825
672.588	0.0144105
672.666	0.0150543
672.744	0.0154392
672.822	0.0160183
672.900	0.0164606
672.978	0.0169175
673.057	0.0172621
673.135	0.0175384
673.213	0.0177492
673.291	0.0178278
673.369	0.0178743
673.447	0.0178916
673.525	0.0178270
673.603	0.0176859
673.682	0.0172133
673.760	0.0169791
673.838	0.0165173
673.916	0.0161485
673.994	0.0157422
674.072	0.0153809
674.150	0.0150753
674.228	0.0144614
674.307	0.0139815
674.385	0.0138335
674.463	0.0133777
674.541	0.0131250
674.619	0.0127364
674.697	0.0124426
674.775	0.0123839
674.853	0.0121343
674.932	0.0119209
675.010	0.0120504
675.088	0.0120111
675.166	0.0121457
675.244	0.0122021
675.322	0.0124427
675.400	0.0125677
675.478	0.0129195
675.557	0.0133625
675.635	0.0136176
675.713	0.0140945
675.791	0.0145071
675.869	0.0148424
675.947	0.0150605
676.025	0.0154600
676.103	0.0155830
676.182	0.0160139
676.260	0.0162629
676.338	0.0164994
676.416	0.0165457
676.494	0.0166243
676.572	0.0167570
676.650	0.0164838
676.728	0.0165274
676.807	0.0164497
676.885	0.0161951
676.963	0.0161014
677.041	0.0159301
677.119	0.0157547
677.197	0.0153937
677.275	0.0151406
677.353	0.0149559
677.432	0.0148303
677.510	0.0146127
677.588	0.0144011
677.666	0.0144396
677.744	0.0142241
677.822	0.0141454
677.900	0.0141877
677.978	0.0141343
678.057	0.0140202
678.135	0.0141873
678.213	0.0142486
678.291	0.0142686
678.369	0.0142205
678.447	0.0142408
678.525	0.0142723
678.603	0.0141917
678.682	0.0141418
678.760	0.0141525
678.838	0.0141976
678.916	0.0142259
678.994	0.0141511
679.072	0.0143252
679.150	0.0144012
679.228	0.0143117
679.307	0.0143034
679.385	0.0143741
679.463	0.0145177
679.541	0.0145786
679.619	0.0145567
679.697	0.0148212
679.775	0.0148946
679.853	0.0148917
679.932	0.0150943
680.010	0.0150558
680.088	0.0151055
680.166	0.0150894
680.244	0.0150100
680.322	0.0151025
680.400	0.0149706
680.478	0.0151708
680.557	0.0150116
680.635	0.0149431
680.713	0.0149760
680.791	0.0148460
680.869	0.0147083
680.947	0.0146925
681.025	0.0143188
681.103	0.0141776
681.182	0.0139575
681.260	0.0138390
681.338	0.0136053
681.416	0.0133379
681.494	0.0132639
681.572	0.0129953
681.650	0.0128533
681.728	0.0126631
681.807	0.0129137
681.885	0.0130033
681.963	0.0130828
682.041	0.0131242
682.119	0.0135289
682.197	0.0138474
682.275	0.0141413
682.353	0.0144772
682.432	0.0149546
682.510	0.0151582
682.588	0.0155530
682.666	0.0156628
682.744	0.0159557
682.822	0.0162918
682.900	0.0165080
682.978	0.0167658
683.057	0.0169308
683.135	0.0167245
683.213	0.0169563
683.291	0.0168445
683.369	0.0167123
683.447	0.0165657
683.525	0.0163360
683.603	0.0160932
683.682	0.0159407
683.760	0.0157339
683.838	0.0153580
683.916	0.0151828
683.994	0.0149125
684.072	0.0146659
684.150	0.0143287
684.228	0.0140437
684.307	0.0139735
684.385	0.0138041
684.463	0.0135492
684.541	0.0134081
684.619	0.0133849
684.697	0.0132141
684.775	0.0131723
684.853	0.0130598
684.932	0.0128760
685.010	0.0127460
685.088	0.0126852
685.166	0.0125876
685.244	0.0124866
685.322	0.0124349
685.400	0.0123566
685.478	0.0123402
685.557	0.0122971
685.635	0.0124531
685.713	0.0124419
685.791	0.0126643
685.869	0.0128877
685.947	0.0128719
686.025	0.0132990
686.103	0.0136236
686.182	0.0138402
686.260	0.0140990
686.338	0.0142508
686.416	0.0144705
686.494	0.0149213
686.572	0.0150066
686.650	0.0152545
686.728	0.0154095
686.807	0.0155691
686.885	0.0156845
686.963	0.0157809
687.041	0.0160011
687.119	0.0161646
687.197	0.0162079
687.275	0.0161819
687.353	0.0164523
687.432	0.0166748
687.510	0.0167411
687.588	0.0166978
687.666	0.0168227
687.744	0.0170998
687.822	0.0170788
687.900	0.0168989
687.978	0.0170876
688.057	0.0170194
688.135	0.0167176
688.213	0.0167278
688.291	0.0165938
688.369	0.0164993
688.447	0.0162902
688.525	0.0160404
688.603	0.0157545
688.682	0.0154820
688.760	0.0154205
688.838	0.0150562
688.916	0.0148359
688.994	0.0146026
689.072	0.0143388
689.150	0.0140482
689.228	0.0137632
689.307	0.0134557
689.385	0.0132399
689.463	0.0129665
689.541	0.0127534
689.619	0.0125066
689.697	0.0121476
689.775	0.0118748
689.853	0.0117308
689.932	0.0113100
690.010	0.0111607
690.088	0.0108884
690.166	0.0104485
690.244	0.0106458
690.322	0.0104767
690.400	0.0105536
690.478	0.0106744
690.557	0.0107544
690.635	0.0108465
690.713	0.0113014
690.791	0.0114873
690.869	0.0117224
690.947	0.0122393
691.025	0.0126841
691.103	0.0134266
691.182	0.0139194
691.260	0.0145701
691.338	0.0151396
691.416	0.0157040
691.494	0.0164108
691.572	0.0171297
691.650	0.0176390
691.728	0.0182845
691.807	0.0187297
691.885	0.0189854
691.963	0.0192729
692.041	0.0196223
692.119	0.0196859
692.197	0.0196879
692.275	0.0194736
692.353	0.0193241
692.432	0.0191409
692.510	0.0188546
692.588	0.0183089
692.666	0.0180692
692.744	0.0176366
692.822	0.0172096
692.900	0.0168008
692.978	0.0163770
693.057	0.0160174
693.135	0.0157648
693.213	0.0150988
693.291	0.0147897
693.369	0.0143658
693.447	0.0136338
693.525	0.0133435
693.603	0.0130066
693.682	0.0125948
693.760	0.0123298
693.838	0.0120142
693.916	0.0117731
693.994	0.0116381
694.072	0.0115737
694.150	0.0115523
694.228	0.0115632
694.307	0.0117801
694.385	0.0118403
694.463	0.0118692
694.541	0.0120973
694.619	0.0125111
694.697	0.0127426
694.775	0.0129415
694.853	0.0130027
694.932	0.0134789
695.010	0.0136059
695.088	0.0136191
695.166	0.0138222
695.244	0.0137883
695.322	0.0138744
695.400	0.0137974
695.478	0.0137779
695.557	0.0135853
695.635	0.0135348
695.713	0.0134204
695.791	0.0133327
695.869	0.0132224
695.947	0.0132330
696.025	0.0132414
696.103	0.0132825
696.182	0.0132880
696.260	0.0135114
696.338	0.0138168
696.416	0.0139751
696.494	0.0142915
696.572	0.0146382
696.650	0.0149533
696.728	0.0155988
696.807	0.0160535
696.885	0.0164413
696.963	0.0169109
697.041	0.0174256
697.119	0.0175907
697.197	0.0179144
697.275	0.0182470
697.353	0.0182632
697.432	0.0183755
697.510	0.0184455
697.588	0.0183269
697.666	0.0185018
697.744	0.0183257
697.822	0.0180637
697.900	0.0178944
697.978	0.0175426
698.057	0.0172710
698.135	0.0170012
698.213	0.0166290
698.291	0.0163360
698.369	0.0157583
698.447	0.0153954
698.525	0.0149437
698.603	0.0144796
698.682	0.0140176
698.760	0.0135886
698.838	0.0131869
698.916	0.0126425
698.994	0.0123537
699.072	0.0121400
699.150	0.0119582
699.228	0.0117413
699.307	0.0117400
699.385	0.0118383
699.463	0.0119585
699.541	0.0119182
699.619	0.0121170
699.697	0.0122968
699.775	0.0124931
699.853	0.0126348
699.932	0.0128497
700.010	0.0128696
700.088	0.0132473
700.166	0.0133221
700.244	0.0134124
700.322	0.0135459
700.400	0.0137907
700.478	0.0137570
700.557	0.0139258
700.635	0.0141315
700.713	0.0143037
700.791	0.0143641
700.869	0.0143772
700.947	0.0144690
701.025	0.0146342
701.103	0.0147527
701.182	0.0144640
701.260	0.0146181
701.338	0.0145647
701.416	0.0145646
701.494	0.0144008
701.572	0.0141482
701.650	0.0142476
701.728	0.0142382
701.807	0.0141840
701.885	0.0140982
701.963	0.0141002
702.041	0.0143029
702.119	0.0142583
702.197	0.0143407
702.275	0.0147490
702.353	0.0152377
702.432	0.0155029
702.510	0.0158453
702.588	0.0161162
702.666	0.0165639
702.744	0.0169327
702.822	0.0172208
702.900	0.0173817
702.978	0.0175754
703.057	0.0178003
703.135	0.0178181
703.213	0.0176877
703.291	0.0176408
703.369	0.0174650
703.447	0.0173293
703.525	0.0169567
703.603	0.0165432
703.682	0.0161594
703.760	0.0158244
703.838	0.0153574
703.916	0.0150011
703.994	0.0146067
704.072	0.0141553
704.150	0.0138898
704.228	0.0134814
704.307	0.0132961
704.385	0.0131081
704.463	0.0128991
704.541	0.0127401
704.619	0.0127044
704.697	0.0127979
704.775	0.0126960
704.853	0.0127645
704.932	0.0128924
705.010	0.0129571
705.088	0.0131358
705.166	0.0131564
705.244	0.0131829
705.322	0.0134609
705.400	0.0135626
705.478	0.0135979
705.557	0.0135683
705.635	0.0136803
705.713	0.0137226
705.791	0.0134914
705.869	0.0134494
705.947	0.0132280
706.025	0.0131785
706.103	0.0131920
706.182	0.0132370
706.260	0.0131478
706.338	0.0130021
706.416	0.0130813
706.494	0.0131682
706.572	0.0131406
706.650	0.0134946
706.728	0.0135232
706.807	0.0138095
706.885	0.0140210
706.963	0.0143465
707.041	0.0146041
707.119	0.0148524
707.197	0.0151918
707.275	0.0154106
707.353	0.0155105
707.432	0.0157484
707.510	0.0159788
707.588	0.0161314
707.666	0.0160918
707.744	0.0161743
707.822	0.0162787
707.900	0.0163315
707.978	0.0161608
708.057	0.0162135
708.135	0.0161527
708.213	0.0160596
708.291	0.0161710
708.369	0.0160094
708.447	0.0157803
708.525	0.0158681
708.603	0.0156353
708.682	0.0154620
708.760	0.0153864
708.838	0.0151064
708.916	0.0149552
708.994	0.0147146
709.072	0.0145586
709.150	0.0142240
709.228	0.0138728
709.307	0.0136880
709.385	0.0135390
709.463	0.0132657
709.541	0.0129847
709.619	0.0128407
709.697	0.0128788
709.775	0.0127262
709.853	0.0126019
709.932	0.0127283
710.010	0.0128242
710.088	0.0129192
710.166	0.0132246
710.244	0.0135731
710.322	0.0136609
710.400	0.0139941
710.478	0.0144110
710.557	0.0147786
710.635	0.0148947
710.713	0.0153027
710.791	0.0154453
710.869	0.0155203
710.947	0.0157265
711.025	0.0158847
711.103	0.0159377
711.182	0.0158205
711.260	0.0158511
711.338	0.0156771
711.416	0.0157641
711.494	0.0154913
711.572	0.0153426
711.650	0.0152219
711.728	0.0149657
711.807	0.0147228
711.885	0.0143952
711.963	0.0143770
712.041	0.0140201
712.119	0.0136658
712.197	0.0135280
712.275	0.0133099
712.353	0.0132085
712.432	0.0130658
712.510	0.0128814
712.588	0.0128864
712.666	0.0128477
712.744	0.0128844
712.822	0.0128490
712.900	0.0130518
712.978	0.0132738
713.057	0.0132008
713.135	0.0135603
713.213	0.0136723
713.291	0.0138470
713.369	0.0139019
713.447	0.0139858
713.525	0.0142531
713.603	0.0142952
713.682	0.0146967
713.760	0.0145900
713.838	0.0147792
713.916	0.0149972
713.994	0.0151915
714.072	0.0153648
714.150	0.0153303
714.228	0.0155980
714.307	0.0156929
714.385	0.0154301
714.463	0.0156130
714.541	0.0156809
714.619	0.0157539
714.697	0.0156013
714.775	0.0155566
714.853	0.0156039
714.932	0.0156711
715.010	0.0154922
715.088	0.0154131
715.166	0.0153345
715.244	0.0152715
715.322	0.0152209
715.400	0.0150146
715.478	0.0149213
715.557	0.0150124
715.635	0.0149422
715.713	0.0148579
715.791	0.0148453
715.869	0.0146107
715.947	0.0147021
716.025	0.0146693
716.103	0.0146295
716.182	0.0146344
716.260	0.0146114
716.338	0.0146719
716.416	0.0146072
716.494	0.0146275
716.572	0.0147039
716.650	0.0148926
716.728	0.0145782
716.807	0.0147205
716.885	0.0147185
716.963	0.0146765
717.041	0.0145725
717.119	0.0146989
717.197	0.0144703
717.275	0.0144183
717.353	0.0144318
717.432	0.0144032
717.510	0.0143022
717.588	0.0142992
717.666	0.0144079
717.744	0.0144289
717.822	0.0143352
717.900	0.0143049
717.978	0.0143060
718.057	0.0143129
718.135	0.0142805
718.213	0.0142213
718.291	0.0142545
718.369	0.0142716
718.447	0.0142527
718.525	0.0141567
718.603	0.0141786
718.682	0.0141723
718.760	0.0142441
718.838	0.0144345
718.916	0.0141613
718.994	0.0144759
719.072	0.0145020
719.150	0.0144847
719.228	0.0146346
719.307	0.0145799
719.385	0.0145889
719.463	0.0146829
719.541	0.0146520
719.619	0.0146271
719.697	0.0146027
719.775	0.0144776
719.853	0.0144702
719.932	0.0145306
720.010	0.0145377
720.088	0.0144860
720.166	0.0144077
720.244	0.0142793
720.322	0.0144514
720.400	0.0143871
720.478	0.0141978
720.557	0.0142841
720.635	0.0143811
720.713	0.0143021
720.791	0.0142909
720.869	0.0141637
720.947	0.0141850
721.025	0.0143118
721.103	0.0143959
721.182	0.0144177
721.260	0.0144810
721.338	0.0145231
721.416	0.0147797
721.494	0.0149878
721.572	0.0151072
721.650	0.0153334
721.728	0.0154208
721.807	0.0155116
721.885	0.0156268
721.963	0.0157765
722.041	0.0158353
722.119	0.0158580
722.197	0.0157907
722.275	0.0160527
722.353	0.0158911
722.432	0.0159171
722.510	0.0158982
722.588	0.0157714
722.666	0.0158179
722.744	0.0156266
722.822	0.0156651
722.900	0.0154655
722.978	0.0152202
723.057	0.0150764
723.135	0.0150707
723.213	0.0148740
723.291	0.0146190
723.369	0.0144850
723.447	0.0143125
723.525	0.0140192
723.603	0.0139111
723.682	0.0137222
723.760	0.0136498
723.838	0.0136844
723.916	0.0135509
723.994	0.0136372
724.072	0.0135535
724.150	0.0137286
724.228	0.0137325
724.307	0.0137056
724.385	0.0137309
724.463	0.0138259
724.541	0.0138652
724.619	0.0138880
724.697	0.0139441
724.775	0.0138299
724.853	0.0139523
724.932	0.0138169
725.010	0.0137376
725.088	0.0135420
725.166	0.0136407
725.244	0.0135426
725.322	0.0135678
725.400	0.0135780
725.478	0.0133993
725.557	0.0133936
725.635	0.0133900
725.713	0.0132959
725.791	0.0135682
725.869	0.0135720
725.947	0.0135451
726.025	0.0136942
726.103	0.0138583
726.182	0.0138097
726.260	0.0140809
726.338	0.0142994
726.416	0.0144390
726.494	0.0146287
726.572	0.0147666
726.650	0.0148208
726.728	0.0149208
726.807	0.0150007
726.885	0.0151441
726.963	0.0151979
727.041	0.0154324
727.119	0.0155845
727.197	0.0156202
727.275	0.0155794
727.353	0.0155018
727.432	0.0154821
727.510	0.0156946
727.588	0.0156915
727.666	0.0156423
727.744	0.0156714
727.822	0.0158497
727.900	0.0157216
727.978	0.0157578
728.057	0.0157648
728.135	0.0157961
728.213	0.0157020
728.291	0.0156561
728.369	0.0153610
728.447	0.0153795
728.525	0.0152191
728.603	0.0151043
728.682	0.0149584
728.760	0.0149313
728.838	0.0147280
728.916	0.0147376
728.994	0.0144891
729.072	0.0145645
729.150	0.0144777
729.228	0.0144845
729.307	0.0143410
729.385	0.0144917
729.463	0.0144412
729.541	0.0144270
729.619	0.0141235
729.697	0.0141205
729.775	0.0142135
729.853	0.0140814
729.932	0.0139460
730.010	0.0139224
730.088	0.0138019
730.166	0.0138226
730.244	0.0136689
730.322	0.0137202
730.400	0.0136435
730.478	0.0135619
730.557	0.0136585
730.635	0.0135654
730.713	0.0136337
730.791	0.0134785
730.869	0.0135915
730.947	0.0136507
731.025	0.0135123
731.103	0.0138479
731.182	0.0139986
731.260	0.0137825
731.338	0.0140025
731.416	0.0140738
731.494	0.0140756
731.572	0.0143746
731.650	0.0143040
731.728	0.0143743
731.807	0.0143919
731.885	0.0143324
731.963	0.0144379
732.041	0.0145894
732.119	0.0146297
732.197	0.0146161
732.275	0.0147081
732.353	0.0148170
732.432	0.0147573
732.510	0.0150293
732.588	0.0150237
732.666	0.0150469
732.744	0.0151704
732.822	0.0150742
732.900	0.0151263
732.978	0.0152008
733.057	0.0153413
733.135	0.0151649
733.213	0.0152070
733.291	0.0153284
733.369	0.0153098
733.447	0.0153368
733.525	0.0155257
733.603	0.0155009
733.682	0.0155324
733.760	0.0153309
733.838	0.0153556
733.916	0.0154344
733.994	0.0153471
734.072	0.0152791
734.150	0.0151566
734.228	0.0149817
734.307	0.0148627
734.385	0.0149963
734.463	0.0150977
734.541	0.0148740
734.619	0.0148523
734.697	0.0146426
734.775	0.0147589
734.853	0.0146198
734.932	0.0146105
735.010	0.0147073
735.088	0.0146243
735.166	0.0146644
735.244	0.0144797
735.322	0.0143706
735.400	0.0145207
735.478	0.0143729
735.557	0.0143221
735.635	0.0143179
735.713	0.0141190
