05/14/2022	19:31:35	Ver.	4.1	UNKNOWN
Optical Delay	650.009681	Delta X		0.078125	Sweeps	1	Scan Rate	0/0
Coordinates	Axis 1	NaN	Axis 2	NaN	Axis 3	NaN	Axis 4	NaN	Axis 5	NaN	Axis 6	0.000000
TX Power	0.000000	RX Power	0.000000

650.010	0.0135740
650.088	0.0137179
650.166	0.0136598
650.244	0.0136778
650.322	0.0136564
650.400	0.0135594
650.478	0.0137005
650.557	0.0137619
650.635	0.0134858
650.713	0.0135490
650.791	0.0135885
650.869	0.0136517
650.947	0.0135629
651.025	0.0135846
651.103	0.0135521
651.182	0.0135768
651.260	0.0136851
651.338	0.0136587
651.416	0.0136302
651.494	0.0135654
651.572	0.0135442
651.650	0.0134944
651.728	0.0136735
651.807	0.0135016
651.885	0.0135354
651.963	0.0137123
652.041	0.0136692
652.119	0.0135538
652.197	0.0136282
652.275	0.0137318
652.353	0.0136501
652.432	0.0136491
652.510	0.0137614
652.588	0.0136284
652.666	0.0136426
652.744	0.0136077
652.822	0.0136962
652.900	0.0135954
652.978	0.0137448
653.057	0.0137043
653.135	0.0137186
653.213	0.0137320
653.291	0.0138033
653.369	0.0137899
653.447	0.0136663
653.525	0.0137525
653.603	0.0137852
653.682	0.0138040
653.760	0.0137211
653.838	0.0137569
653.916	0.0137836
653.994	0.0137733
654.072	0.0135894
654.150	0.0136839
654.228	0.0136393
654.307	0.0136773
654.385	0.0135972
654.463	0.0136676
654.541	0.0135406
654.619	0.0136590
654.697	0.0135831
654.775	0.0136941
654.853	0.0137180
654.932	0.0135984
655.010	0.0135448
655.088	0.0135267
655.166	0.0136358
655.244	0.0137757
655.322	0.0136908
655.400	0.0137269
655.478	0.0136425
655.557	0.0136433
655.635	0.0136360
655.713	0.0136268
655.791	0.0136790
655.869	0.0137088
655.947	0.0137967
656.025	0.0136630
656.103	0.0136572
656.182	0.0137016
656.260	0.0137390
656.338	0.0136594
656.416	0.0135843
656.494	0.0136848
656.572	0.0137272
656.650	0.0135435
656.728	0.0135622
656.807	0.0135340
656.885	0.0135371
656.963	0.0134592
657.041	0.0135886
657.119	0.0135661
657.197	0.0136070
657.275	0.0136192
657.353	0.0135049
657.432	0.0134415
657.510	0.0134837
657.588	0.0136166
657.666	0.0136055
657.744	0.0135408
657.822	0.0135670
657.900	0.0136762
657.978	0.0135909
658.057	0.0137687
658.135	0.0135459
658.213	0.0135170
658.291	0.0135629
658.369	0.0137003
658.447	0.0134462
658.525	0.0133989
658.603	0.0136410
658.682	0.0135472
658.760	0.0137458
658.838	0.0134826
658.916	0.0134927
658.994	0.0134980
659.072	0.0134624
659.150	0.0134696
659.228	0.0134728
659.307	0.0134228
659.385	0.0134623
659.463	0.0135688
659.541	0.0135676
659.619	0.0134762
659.697	0.0135394
659.775	0.0134846
659.853	0.0133347
659.932	0.0134308
660.010	0.0133516
660.088	0.0136250
660.166	0.0136138
660.244	0.0134055
660.322	0.0135638
660.400	0.0135818
660.478	0.0136481
660.557	0.0135046
660.635	0.0133823
660.713	0.0134824
660.791	0.0134386
660.869	0.0135193
660.947	0.0135476
661.025	0.0133152
661.103	0.0135767
661.182	0.0134813
661.260	0.0133722
661.338	0.0134712
661.416	0.0135767
661.494	0.0135936
661.572	0.0135548
661.650	0.0135455
661.728	0.0136498
661.807	0.0135049
661.885	0.0135525
661.963	0.0135901
662.041	0.0135443
662.119	0.0133840
662.197	0.0136111
662.275	0.0133758
662.353	0.0134855
662.432	0.0135598
662.510	0.0135271
662.588	0.0135063
662.666	0.0135211
662.744	0.0136611
662.822	0.0135174
662.900	0.0134788
662.978	0.0135691
663.057	0.0135029
663.135	0.0134744
663.213	0.0135062
663.291	0.0135455
663.369	0.0134841
663.447	0.0132790
663.525	0.0133224
663.603	0.0132162
663.682	0.0132114
663.760	0.0133990
663.838	0.0131919
663.916	0.0131661
663.994	0.0133281
664.072	0.0133173
664.150	0.0132362
664.228	0.0133772
664.307	0.0134446
664.385	0.0135378
664.463	0.0136112
664.541	0.0136412
664.619	0.0138831
664.697	0.0139426
664.775	0.0139378
664.853	0.0140088
664.932	0.0141080
665.010	0.0141470
665.088	0.0141677
665.166	0.0144240
665.244	0.0142372
665.322	0.0141351
665.400	0.0142578
665.478	0.0140543
665.557	0.0139098
665.635	0.0139468
665.713	0.0137430
665.791	0.0136197
665.869	0.0133620
665.947	0.0132777
666.025	0.0131351
666.103	0.0130060
666.182	0.0127876
666.260	0.0123721
666.338	0.0123373
666.416	0.0123516
666.494	0.0122257
666.572	0.0120692
666.650	0.0121277
666.728	0.0121703
666.807	0.0121906
666.885	0.0121871
666.963	0.0125953
667.041	0.0126878
667.119	0.0129416
667.197	0.0132394
667.275	0.0134872
667.353	0.0137957
667.432	0.0142352
667.510	0.0145078
667.588	0.0148059
667.666	0.0150600
667.744	0.0152883
667.822	0.0154030
667.900	0.0156194
667.978	0.0156564
668.057	0.0158364
668.135	0.0158818
668.213	0.0157937
668.291	0.0155516
668.369	0.0153304
668.447	0.0149277
668.525	0.0145277
668.603	0.0143404
668.682	0.0138815
668.760	0.0133414
668.838	0.0129346
668.916	0.0126031
668.994	0.0121532
669.072	0.0116824
669.150	0.0114058
669.228	0.0112346
669.307	0.0108932
669.385	0.0106710
669.463	0.0106053
669.541	0.0106730
669.619	0.0106568
669.697	0.0107404
669.775	0.0109408
669.853	0.0111280
669.932	0.0113721
670.010	0.0114856
670.088	0.0119505
670.166	0.0124679
670.244	0.0131863
670.322	0.0136090
670.400	0.0141206
670.478	0.0145819
670.557	0.0153040
670.635	0.0157016
670.713	0.0161495
670.791	0.0164907
670.869	0.0169662
670.947	0.0171887
671.025	0.0174347
671.103	0.0175121
671.182	0.0172546
671.260	0.0171461
671.338	0.0169228
671.416	0.0165615
671.494	0.0161069
671.572	0.0157072
671.650	0.0151736
671.728	0.0145462
671.807	0.0140136
671.885	0.0135267
671.963	0.0128757
672.041	0.0123850
672.119	0.0118964
672.197	0.0115038
672.275	0.0110328
672.353	0.0107419
672.432	0.0103888
672.510	0.0102908
672.588	0.0101273
672.666	0.00998650
672.744	0.00994858
672.822	0.0101343
672.900	0.0104095
672.978	0.0106945
673.057	0.0110662
673.135	0.0112608
673.213	0.0116921
673.291	0.0122098
673.369	0.0127625
673.447	0.0131977
673.525	0.0136414
673.603	0.0141554
673.682	0.0144381
673.760	0.0146008
673.838	0.0150166
673.916	0.0153127
673.994	0.0155014
674.072	0.0156785
674.150	0.0158293
674.228	0.0157709
674.307	0.0158169
674.385	0.0158582
674.463	0.0157661
674.541	0.0156432
674.619	0.0155257
674.697	0.0154217
674.775	0.0152320
674.853	0.0148556
674.932	0.0147150
675.010	0.0144677
675.088	0.0143176
675.166	0.0140125
675.244	0.0137888
675.322	0.0135481
675.400	0.0133965
675.478	0.0131427
675.557	0.0131119
675.635	0.0129503
675.713	0.0127187
675.791	0.0130062
675.869	0.0130967
675.947	0.0129597
676.025	0.0130044
676.103	0.0131290
676.182	0.0130730
676.260	0.0131786
676.338	0.0131274
676.416	0.0131624
676.494	0.0130998
676.572	0.0129758
676.650	0.0129926
676.728	0.0129071
676.807	0.0127315
676.885	0.0125745
676.963	0.0125905
677.041	0.0126158
677.119	0.0127407
677.197	0.0126435
677.275	0.0125948
677.353	0.0128194
677.432	0.0126829
677.510	0.0127199
677.588	0.0126991
677.666	0.0126560
677.744	0.0127140
677.822	0.0127586
677.900	0.0129368
677.978	0.0130076
678.057	0.0132050
678.135	0.0133898
678.213	0.0136163
678.291	0.0139129
678.369	0.0141231
678.447	0.0144006
678.525	0.0145667
678.603	0.0147284
678.682	0.0149821
678.760	0.0151617
678.838	0.0153616
678.916	0.0156056
678.994	0.0155648
679.072	0.0156206
679.150	0.0156763
679.228	0.0153871
679.307	0.0153504
679.385	0.0150399
679.463	0.0147968
679.541	0.0146234
679.619	0.0143797
679.697	0.0141676
679.775	0.0140224
679.853	0.0135970
679.932	0.0133220
680.010	0.0129871
680.088	0.0128291
680.166	0.0126278
680.244	0.0123132
680.322	0.0121313
680.400	0.0119390
680.478	0.0118117
680.557	0.0116850
680.635	0.0118324
680.713	0.0116639
680.791	0.0116872
680.869	0.0116815
680.947	0.0118715
681.025	0.0121201
681.103	0.0122398
681.182	0.0124715
681.260	0.0128856
681.338	0.0134429
681.416	0.0136134
681.494	0.0140503
681.572	0.0142535
681.650	0.0147298
681.728	0.0149776
681.807	0.0151241
681.885	0.0153750
681.963	0.0154167
682.041	0.0153146
682.119	0.0153578
682.197	0.0151205
682.275	0.0150587
682.353	0.0148792
682.432	0.0146306
682.510	0.0143652
682.588	0.0141129
682.666	0.0138998
682.744	0.0135201
682.822	0.0131950
682.900	0.0129598
682.978	0.0126264
683.057	0.0124786
683.135	0.0119307
683.213	0.0119078
683.291	0.0114297
683.369	0.0113668
683.447	0.0114343
683.525	0.0112872
683.603	0.0114494
683.682	0.0116612
683.760	0.0118723
683.838	0.0119614
683.916	0.0122342
683.994	0.0126595
684.072	0.0128758
684.150	0.0131863
684.228	0.0135506
684.307	0.0138728
684.385	0.0139275
684.463	0.0142838
684.541	0.0144246
684.619	0.0147379
684.697	0.0148360
684.775	0.0148584
684.853	0.0148546
684.932	0.0149055
685.010	0.0148309
685.088	0.0147048
685.166	0.0147068
685.244	0.0145317
685.322	0.0143914
685.400	0.0143068
685.478	0.0141797
685.557	0.0141845
685.635	0.0144385
685.713	0.0141109
685.791	0.0141684
685.869	0.0141055
685.947	0.0141257
686.025	0.0141580
686.103	0.0143512
686.182	0.0142855
686.260	0.0141708
686.338	0.0142643
686.416	0.0142038
686.494	0.0141454
686.572	0.0142059
686.650	0.0142359
686.728	0.0141589
686.807	0.0139929
686.885	0.0140957
686.963	0.0142461
687.041	0.0139979
687.119	0.0137891
687.197	0.0136712
687.275	0.0136008
687.353	0.0134715
687.432	0.0133128
687.510	0.0129655
687.588	0.0126286
687.666	0.0124639
687.744	0.0121000
687.822	0.0119463
687.900	0.0116770
687.978	0.0114848
688.057	0.0113419
688.135	0.0112724
688.213	0.0111600
688.291	0.0111098
688.369	0.0112655
688.447	0.0112925
688.525	0.0114989
688.603	0.0114491
688.682	0.0117033
688.760	0.0116707
688.838	0.0118788
688.916	0.0120718
688.994	0.0122079
689.072	0.0121564
689.150	0.0126158
689.228	0.0126451
689.307	0.0128460
689.385	0.0132983
689.463	0.0135083
689.541	0.0137289
689.619	0.0139839
689.697	0.0143092
689.775	0.0147913
689.853	0.0150809
689.932	0.0153794
690.010	0.0155256
690.088	0.0158995
690.166	0.0160461
690.244	0.0162597
690.322	0.0165247
690.400	0.0166926
690.478	0.0168046
690.557	0.0169778
690.635	0.0170937
690.713	0.0170742
690.791	0.0171375
690.869	0.0167997
690.947	0.0169494
691.025	0.0166999
691.103	0.0166366
691.182	0.0163382
691.260	0.0159986
691.338	0.0157759
691.416	0.0151942
691.494	0.0150143
691.572	0.0146538
691.650	0.0141885
691.728	0.0137121
691.807	0.0132101
691.885	0.0126189
691.963	0.0121753
692.041	0.0116602
692.119	0.0112280
692.197	0.0107932
692.275	0.0104424
692.353	0.00992134
692.432	0.00965584
692.510	0.00938721
692.588	0.00917542
692.666	0.00913780
692.744	0.00888924
692.822	0.00888618
692.900	0.00895561
692.978	0.00903336
693.057	0.00905586
693.135	0.00910179
693.213	0.00926163
693.291	0.00983330
693.369	0.0101012
693.447	0.0104924
693.525	0.0110342
693.603	0.0114792
693.682	0.0119572
693.760	0.0124821
693.838	0.0130396
693.916	0.0136867
693.994	0.0142349
694.072	0.0147841
694.150	0.0153469
694.228	0.0157857
694.307	0.0163853
694.385	0.0169263
694.463	0.0172109
694.541	0.0174770
694.619	0.0179477
694.697	0.0179682
694.775	0.0180909
694.853	0.0181303
694.932	0.0184608
695.010	0.0184423
695.088	0.0181613
695.166	0.0178750
695.244	0.0178139
695.322	0.0173736
695.400	0.0168273
695.478	0.0163636
695.557	0.0158823
695.635	0.0152919
695.713	0.0146896
695.791	0.0140285
695.869	0.0135311
695.947	0.0129804
696.025	0.0124834
696.103	0.0123105
696.182	0.0120259
696.260	0.0119201
696.338	0.0117326
696.416	0.0117141
696.494	0.0118286
696.572	0.0118857
696.650	0.0120280
696.728	0.0122114
696.807	0.0122290
696.885	0.0123575
696.963	0.0126712
697.041	0.0129066
697.119	0.0127679
697.197	0.0129536
697.275	0.0129707
697.353	0.0128746
697.432	0.0130277
697.510	0.0132760
697.588	0.0130518
697.666	0.0129851
697.744	0.0130391
697.822	0.0127052
697.900	0.0127431
697.978	0.0127327
698.057	0.0127554
698.135	0.0125694
698.213	0.0124327
698.291	0.0122654
698.369	0.0122579
698.447	0.0120065
698.525	0.0118178
698.603	0.0119215
698.682	0.0117294
698.760	0.0116037
698.838	0.0114712
698.916	0.0114834
698.994	0.0113257
699.072	0.0114687
699.150	0.0116672
699.228	0.0115307
699.307	0.0117141
699.385	0.0118163
699.463	0.0119987
699.541	0.0122401
699.619	0.0126732
699.697	0.0129863
699.775	0.0134606
699.853	0.0136800
699.932	0.0139929
700.010	0.0145256
700.088	0.0148100
700.166	0.0153405
700.244	0.0156714
700.322	0.0160918
700.400	0.0165363
700.478	0.0167539
700.557	0.0170549
700.635	0.0173137
700.713	0.0173956
700.791	0.0173893
700.869	0.0175255
700.947	0.0173891
701.025	0.0172383
701.103	0.0172369
701.182	0.0169008
701.260	0.0165369
701.338	0.0163934
701.416	0.0160968
701.494	0.0154437
701.572	0.0152259
701.650	0.0148078
701.728	0.0144440
701.807	0.0143679
701.885	0.0139568
701.963	0.0135000
702.041	0.0132451
702.119	0.0131232
702.197	0.0127329
702.275	0.0124830
702.353	0.0122750
702.432	0.0121922
702.510	0.0119085
702.588	0.0117020
702.666	0.0116272
702.744	0.0115740
702.822	0.0115117
702.900	0.0113918
702.978	0.0112972
703.057	0.0111394
703.135	0.0110792
703.213	0.0109782
703.291	0.0109300
703.369	0.0108837
703.447	0.0109225
703.525	0.0106686
703.603	0.0106059
703.682	0.0105474
703.760	0.0105166
703.838	0.0104028
703.916	0.0106336
703.994	0.0107947
704.072	0.0108630
704.150	0.0109745
704.228	0.0112058
704.307	0.0114520
704.385	0.0118919
704.463	0.0122595
704.541	0.0126662
704.619	0.0131554
704.697	0.0135915
704.775	0.0138862
704.853	0.0143372
704.932	0.0147052
705.010	0.0149245
705.088	0.0152351
705.166	0.0155412
705.244	0.0158028
705.322	0.0159959
705.400	0.0160377
705.478	0.0162323
705.557	0.0164009
705.635	0.0164926
705.713	0.0165941
705.791	0.0165086
705.869	0.0165527
705.947	0.0164795
706.025	0.0165563
706.103	0.0165888
706.182	0.0165105
706.260	0.0163815
706.338	0.0161864
706.416	0.0158209
706.494	0.0156782
706.572	0.0155717
706.650	0.0151764
706.728	0.0148860
706.807	0.0144610
706.885	0.0140517
706.963	0.0136833
707.041	0.0133742
707.119	0.0131239
707.197	0.0126852
707.275	0.0124857
707.353	0.0123057
707.432	0.0120766
707.510	0.0119238
707.588	0.0117861
707.666	0.0118759
707.744	0.0117786
707.822	0.0117178
707.900	0.0118261
707.978	0.0119890
708.057	0.0120704
708.135	0.0121329
708.213	0.0123541
708.291	0.0125269
708.369	0.0125723
708.447	0.0126334
708.525	0.0129627
708.603	0.0131213
708.682	0.0131779
708.760	0.0133016
708.838	0.0132091
708.916	0.0133915
708.994	0.0136214
709.072	0.0133709
709.150	0.0134363
709.228	0.0133362
709.307	0.0134089
709.385	0.0132811
709.463	0.0132813
709.541	0.0133187
709.619	0.0132674
709.697	0.0131323
709.775	0.0131706
709.853	0.0131670
709.932	0.0131942
710.010	0.0131998
710.088	0.0132967
710.166	0.0132785
710.244	0.0133602
710.322	0.0133423
710.400	0.0134783
710.478	0.0134187
710.557	0.0137074
710.635	0.0134377
710.713	0.0133965
710.791	0.0135549
710.869	0.0135897
710.947	0.0136297
711.025	0.0137699
711.103	0.0137633
711.182	0.0138470
711.260	0.0139987
711.338	0.0140406
711.416	0.0142588
711.494	0.0142160
711.572	0.0143120
711.650	0.0145151
711.728	0.0147366
711.807	0.0146218
711.885	0.0147459
711.963	0.0147593
712.041	0.0148331
712.119	0.0148549
712.197	0.0149396
712.275	0.0150504
712.353	0.0149744
712.432	0.0148473
712.510	0.0149534
712.588	0.0149293
712.666	0.0147606
712.744	0.0146431
712.822	0.0145283
712.900	0.0142519
712.978	0.0142146
713.057	0.0141018
713.135	0.0140082
713.213	0.0138744
713.291	0.0136326
713.369	0.0134875
713.447	0.0132907
713.525	0.0132260
713.603	0.0129975
713.682	0.0129851
713.760	0.0129568
713.838	0.0128941
713.916	0.0129305
713.994	0.0129904
714.072	0.0129953
714.150	0.0130036
714.228	0.0130968
714.307	0.0130480
714.385	0.0131352
714.463	0.0131953
714.541	0.0130533
714.619	0.0130168
714.697	0.0132207
714.775	0.0132085
714.853	0.0131569
714.932	0.0133819
715.010	0.0132563
715.088	0.0133048
715.166	0.0134000
715.244	0.0135945
715.322	0.0135472
715.400	0.0135548
715.478	0.0135983
715.557	0.0136981
715.635	0.0135670
715.713	0.0135683
715.791	0.0134987
715.869	0.0132787
715.947	0.0131675
716.025	0.0131925
716.103	0.0130880
716.182	0.0128337
716.260	0.0128000
716.338	0.0128168
716.416	0.0127441
716.494	0.0127507
716.572	0.0127911
716.650	0.0128042
716.728	0.0129223
716.807	0.0130660
716.885	0.0131824
716.963	0.0133209
717.041	0.0133842
717.119	0.0135921
717.197	0.0138014
717.275	0.0137700
717.353	0.0138775
717.432	0.0140168
717.510	0.0141570
717.588	0.0142615
717.666	0.0142235
717.744	0.0144729
717.822	0.0145249
717.900	0.0144669
717.978	0.0146071
718.057	0.0145848
718.135	0.0146207
718.213	0.0146846
718.291	0.0146384
718.369	0.0146434
718.447	0.0144783
718.525	0.0145174
718.603	0.0145020
718.682	0.0144533
718.760	0.0142203
718.838	0.0143183
718.916	0.0142277
718.994	0.0141359
719.072	0.0141412
719.150	0.0140353
719.228	0.0140379
719.307	0.0139663
719.385	0.0138567
719.463	0.0138063
719.541	0.0136303
719.619	0.0136958
719.697	0.0134532
719.775	0.0133311
719.853	0.0132036
719.932	0.0131749
720.010	0.0129752
720.088	0.0129473
720.166	0.0129694
720.244	0.0129153
720.322	0.0128289
720.400	0.0127858
720.478	0.0129362
720.557	0.0128957
720.635	0.0130051
720.713	0.0130466
720.791	0.0130450
720.869	0.0132494
720.947	0.0131528
721.025	0.0133727
721.103	0.0135728
721.182	0.0135245
721.260	0.0135663
721.338	0.0134575
721.416	0.0132709
721.494	0.0133219
721.572	0.0132226
721.650	0.0131721
721.728	0.0131052
721.807	0.0132001
721.885	0.0130663
721.963	0.0130565
722.041	0.0130775
722.119	0.0130135
722.197	0.0130819
722.275	0.0131734
722.353	0.0131839
722.432	0.0133340
722.510	0.0134091
722.588	0.0134767
722.666	0.0134846
722.744	0.0134863
722.822	0.0136063
722.900	0.0135262
722.978	0.0135995
723.057	0.0136454
723.135	0.0136391
723.213	0.0134798
723.291	0.0136858
723.369	0.0136520
723.447	0.0136520
723.525	0.0137043
723.603	0.0137390
723.682	0.0138045
723.760	0.0139016
723.838	0.0139720
723.916	0.0139750
723.994	0.0140089
724.072	0.0139925
724.150	0.0140471
724.228	0.0138947
724.307	0.0139909
724.385	0.0139194
724.463	0.0140101
724.541	0.0139807
724.619	0.0138644
724.697	0.0138737
724.775	0.0138010
724.853	0.0137384
724.932	0.0136034
725.010	0.0136478
725.088	0.0136263
725.166	0.0135919
725.244	0.0135310
725.322	0.0135225
725.400	0.0133717
725.478	0.0133752
725.557	0.0133471
725.635	0.0131061
725.713	0.0133484
725.791	0.0132632
725.869	0.0133465
725.947	0.0132024
726.025	0.0132494
726.103	0.0132682
726.182	0.0131825
726.260	0.0131639
726.338	0.0132959
726.416	0.0133582
726.494	0.0135203
726.572	0.0134987
726.650	0.0136635
726.728	0.0136338
726.807	0.0137732
726.885	0.0138566
726.963	0.0139529
727.041	0.0140186
727.119	0.0139520
727.197	0.0141374
727.275	0.0142076
727.353	0.0142406
727.432	0.0141911
727.510	0.0142302
727.588	0.0141302
727.666	0.0141666
727.744	0.0140236
727.822	0.0140394
727.900	0.0141196
727.978	0.0138995
728.057	0.0138728
728.135	0.0138688
728.213	0.0137122
728.291	0.0136283
728.369	0.0135578
728.447	0.0134238
728.525	0.0134238
728.603	0.0134742
728.682	0.0132195
728.760	0.0132803
728.838	0.0132297
728.916	0.0132603
728.994	0.0132816
729.072	0.0131454
729.150	0.0131943
729.228	0.0131663
729.307	0.0132526
729.385	0.0131104
729.463	0.0131158
729.541	0.0131827
729.619	0.0132504
729.697	0.0131734
729.775	0.0129719
729.853	0.0130814
729.932	0.0130029
730.010	0.0131425
730.088	0.0131741
730.166	0.0130843
730.244	0.0131059
730.322	0.0131973
730.400	0.0132247
730.478	0.0131685
730.557	0.0131375
730.635	0.0132507
730.713	0.0132423
730.791	0.0132556
730.869	0.0132836
730.947	0.0132661
731.025	0.0132762
731.103	0.0132340
731.182	0.0132654
731.260	0.0133403
731.338	0.0133720
731.416	0.0136182
731.494	0.0136102
731.572	0.0138226
731.650	0.0138889
731.728	0.0138779
731.807	0.0141547
731.885	0.0142984
731.963	0.0144534
732.041	0.0146229
732.119	0.0144923
732.197	0.0146316
732.275	0.0147137
732.353	0.0148276
732.432	0.0147643
732.510	0.0147592
732.588	0.0148892
732.666	0.0148089
732.744	0.0146288
732.822	0.0146416
732.900	0.0147029
732.978	0.0145087
733.057	0.0144611
733.135	0.0143334
733.213	0.0141338
733.291	0.0141270
733.369	0.0139298
733.447	0.0138601
733.525	0.0136324
733.603	0.0135696
733.682	0.0134630
733.760	0.0133293
733.838	0.0131440
733.916	0.0130479
733.994	0.0129997
734.072	0.0127980
734.150	0.0127883
734.228	0.0126752
734.307	0.0126622
734.385	0.0126820
734.463	0.0126920
734.541	0.0125018
734.619	0.0126308
734.697	0.0126980
734.775	0.0127077
734.853	0.0127490
734.932	0.0126637
735.010	0.0128141
735.088	0.0128994
735.166	0.0129380
735.244	0.0129283
735.322	0.0129868
735.400	0.0131213
735.478	0.0133326
735.557	0.0132411
735.635	0.0134024
