05/14/2022	19:33:15	Ver.	4.1	UNKNOWN
Optical Delay	650.009681	Delta X		0.078125	Sweeps	1	Scan Rate	0/0
Coordinates	Axis 1	NaN	Axis 2	NaN	Axis 3	NaN	Axis 4	NaN	Axis 5	NaN	Axis 6	0.000000
TX Power	0.000000	RX Power	0.000000

650.010	0.0141131
650.088	0.0141624
650.166	0.0140823
650.244	0.0142131
650.322	0.0140931
650.400	0.0140702
650.478	0.0141589
650.557	0.0141370
650.635	0.0140521
650.713	0.0140704
650.791	0.0140901
650.869	0.0140858
650.947	0.0141349
651.025	0.0143752
651.103	0.0140590
651.182	0.0142397
651.260	0.0140450
651.338	0.0141218
651.416	0.0142048
651.494	0.0141785
651.572	0.0141910
651.650	0.0142126
651.728	0.0142449
651.807	0.0141746
651.885	0.0142496
651.963	0.0143401
652.041	0.0141380
652.119	0.0142972
652.197	0.0143882
652.275	0.0143130
652.353	0.0142924
652.432	0.0143539
652.510	0.0141943
652.588	0.0142287
652.666	0.0144177
652.744	0.0143353
652.822	0.0144315
652.900	0.0144598
652.978	0.0144334
653.057	0.0143747
653.135	0.0145637
653.213	0.0144762
653.291	0.0143872
653.369	0.0145084
653.447	0.0143775
653.525	0.0143486
653.603	0.0145985
653.682	0.0145710
653.760	0.0144416
653.838	0.0145238
653.916	0.0144170
653.994	0.0143859
654.072	0.0145372
654.150	0.0144739
654.228	0.0144539
654.307	0.0144404
654.385	0.0145431
654.463	0.0142999
654.541	0.0145500
654.619	0.0144428
654.697	0.0145279
654.775	0.0145373
654.853	0.0144537
654.932	0.0144433
655.010	0.0145751
655.088	0.0144666
655.166	0.0144096
655.244	0.0144793
655.322	0.0144598
655.400	0.0145615
655.478	0.0142364
655.557	0.0143067
655.635	0.0144855
655.713	0.0144400
655.791	0.0144716
655.869	0.0143828
655.947	0.0143595
656.025	0.0142776
656.103	0.0143394
656.182	0.0142529
656.260	0.0142890
656.338	0.0143906
656.416	0.0143290
656.494	0.0143899
656.572	0.0142750
656.650	0.0142490
656.728	0.0142154
656.807	0.0142921
656.885	0.0143701
656.963	0.0143606
657.041	0.0143712
657.119	0.0141840
657.197	0.0141726
657.275	0.0143266
657.353	0.0142921
657.432	0.0142732
657.510	0.0144102
657.588	0.0143713
657.666	0.0142570
657.744	0.0144081
657.822	0.0144124
657.900	0.0144262
657.978	0.0144933
658.057	0.0144220
658.135	0.0143103
658.213	0.0145087
658.291	0.0143462
658.369	0.0143311
658.447	0.0142680
658.525	0.0141848
658.603	0.0142878
658.682	0.0142566
658.760	0.0141566
658.838	0.0141816
658.916	0.0141399
658.994	0.0141279
659.072	0.0140879
659.150	0.0142171
659.228	0.0143002
659.307	0.0141575
659.385	0.0141874
659.463	0.0143295
659.541	0.0142830
659.619	0.0143060
659.697	0.0142542
659.775	0.0142645
659.853	0.0142060
659.932	0.0142423
660.010	0.0140919
660.088	0.0140657
660.166	0.0141628
660.244	0.0140540
660.322	0.0143073
660.400	0.0141718
660.478	0.0142769
660.557	0.0143527
660.635	0.0142442
660.713	0.0141774
660.791	0.0143198
660.869	0.0144112
660.947	0.0143298
661.025	0.0141970
661.103	0.0141585
661.182	0.0141815
661.260	0.0141553
661.338	0.0141914
661.416	0.0141815
661.494	0.0141019
661.572	0.0140065
661.650	0.0142410
661.728	0.0141094
661.807	0.0140382
661.885	0.0139883
661.963	0.0140673
662.041	0.0142397
662.119	0.0142760
662.197	0.0144485
662.275	0.0145045
662.353	0.0143056
662.432	0.0146159
662.510	0.0145103
662.588	0.0146548
662.666	0.0147643
662.744	0.0147009
662.822	0.0147375
662.900	0.0148309
662.978	0.0146329
663.057	0.0146518
663.135	0.0147686
663.213	0.0146002
663.291	0.0144161
663.369	0.0144416
663.447	0.0142263
663.525	0.0140601
663.603	0.0138868
663.682	0.0139934
663.760	0.0138984
663.838	0.0136239
663.916	0.0134527
663.994	0.0134494
664.072	0.0132053
664.150	0.0132079
664.228	0.0132104
664.307	0.0131831
664.385	0.0130920
664.463	0.0131207
664.541	0.0131871
664.619	0.0132964
664.697	0.0133791
664.775	0.0135323
664.853	0.0137543
664.932	0.0139689
665.010	0.0140549
665.088	0.0143836
665.166	0.0145537
665.244	0.0147795
665.322	0.0150341
665.400	0.0153798
665.478	0.0154829
665.557	0.0157607
665.635	0.0158960
665.713	0.0159155
665.791	0.0158118
665.869	0.0158829
665.947	0.0159098
666.025	0.0157872
666.103	0.0156960
666.182	0.0153774
666.260	0.0153134
666.338	0.0151624
666.416	0.0147845
666.494	0.0144483
666.572	0.0140730
666.650	0.0137189
666.728	0.0133012
666.807	0.0129579
666.885	0.0125651
666.963	0.0123242
667.041	0.0120396
667.119	0.0117485
667.197	0.0116010
667.275	0.0114352
667.353	0.0113566
667.432	0.0113297
667.510	0.0112297
667.588	0.0113614
667.666	0.0115340
667.744	0.0117878
667.822	0.0120135
667.900	0.0122543
667.978	0.0126646
668.057	0.0130538
668.135	0.0134391
668.213	0.0139938
668.291	0.0143891
668.369	0.0148324
668.447	0.0153407
668.525	0.0158935
668.603	0.0163091
668.682	0.0165588
668.760	0.0170155
668.838	0.0171844
668.916	0.0174571
668.994	0.0176792
669.072	0.0175480
669.150	0.0174405
669.228	0.0172828
669.307	0.0171719
669.385	0.0167547
669.463	0.0165308
669.541	0.0161936
669.619	0.0156651
669.697	0.0151109
669.775	0.0143876
669.853	0.0137505
669.932	0.0131064
670.010	0.0124297
670.088	0.0120493
670.166	0.0114995
670.244	0.0110980
670.322	0.0105555
670.400	0.0104040
670.478	0.0101398
670.557	0.00998543
670.635	0.00990433
670.713	0.00995644
670.791	0.0101173
670.869	0.0101103
670.947	0.0106919
671.025	0.0109016
671.103	0.0114966
671.182	0.0119149
671.260	0.0124455
671.338	0.0130444
671.416	0.0136541
671.494	0.0142754
671.572	0.0148572
671.650	0.0156122
671.728	0.0160247
671.807	0.0164364
671.885	0.0169488
671.963	0.0173460
672.041	0.0175565
672.119	0.0176603
672.197	0.0178413
672.275	0.0180250
672.353	0.0180688
672.432	0.0178206
672.510	0.0177038
672.588	0.0175901
672.666	0.0173100
672.744	0.0170895
672.822	0.0165821
672.900	0.0162338
672.978	0.0156645
673.057	0.0151606
673.135	0.0148540
673.213	0.0144414
673.291	0.0140565
673.369	0.0137558
673.447	0.0133054
673.525	0.0131076
673.603	0.0127823
673.682	0.0126258
673.760	0.0126384
673.838	0.0124733
673.916	0.0123801
673.994	0.0125040
674.072	0.0125507
674.150	0.0126511
674.228	0.0127229
674.307	0.0129494
674.385	0.0129989
674.463	0.0132947
674.541	0.0131994
674.619	0.0133419
674.697	0.0134766
674.775	0.0136406
674.853	0.0136503
674.932	0.0139657
675.010	0.0139084
675.088	0.0140469
675.166	0.0142516
675.244	0.0141553
675.322	0.0142764
675.400	0.0141489
675.478	0.0141473
675.557	0.0143596
675.635	0.0140596
675.713	0.0141987
675.791	0.0141957
675.869	0.0142730
675.947	0.0142763
676.025	0.0141368
676.103	0.0142641
676.182	0.0142989
676.260	0.0146094
676.338	0.0147963
676.416	0.0148783
676.494	0.0150069
676.572	0.0150895
676.650	0.0151349
676.728	0.0155314
676.807	0.0155818
676.885	0.0157489
676.963	0.0158678
677.041	0.0162035
677.119	0.0161922
677.197	0.0164718
677.275	0.0164925
677.353	0.0165680
677.432	0.0165485
677.510	0.0167742
677.588	0.0166019
677.666	0.0165453
677.744	0.0162247
677.822	0.0161152
677.900	0.0158098
677.978	0.0155447
678.057	0.0152616
678.135	0.0147984
678.213	0.0143393
678.291	0.0139703
678.369	0.0134383
678.447	0.0130241
678.525	0.0124200
678.603	0.0121041
678.682	0.0117005
678.760	0.0112482
678.838	0.0108823
678.916	0.0104812
678.994	0.0102889
679.072	0.0102040
679.150	0.0101060
679.228	0.0101763
679.307	0.0103564
679.385	0.0104617
679.463	0.0107761
679.541	0.0112995
679.619	0.0116903
679.697	0.0119392
679.775	0.0124790
679.853	0.0130453
679.932	0.0135296
680.010	0.0142505
680.088	0.0146071
680.166	0.0151872
680.244	0.0157189
680.322	0.0161237
680.400	0.0165385
680.478	0.0169303
680.557	0.0173395
680.635	0.0175253
680.713	0.0177464
680.791	0.0179682
680.869	0.0178750
680.947	0.0178731
681.025	0.0176353
681.103	0.0175486
681.182	0.0174635
681.260	0.0169482
681.338	0.0165886
681.416	0.0161839
681.494	0.0155443
681.572	0.0152100
681.650	0.0146977
681.728	0.0142232
681.807	0.0137464
681.885	0.0130510
681.963	0.0125231
682.041	0.0123087
682.119	0.0118973
682.197	0.0116714
682.275	0.0114484
682.353	0.0113395
682.432	0.0111884
682.510	0.0112734
682.588	0.0112593
682.666	0.0114653
682.744	0.0116288
682.822	0.0117247
682.900	0.0119590
682.978	0.0122875
683.057	0.0126434
683.135	0.0130399
683.213	0.0134096
683.291	0.0136920
683.369	0.0140825
683.447	0.0144546
683.525	0.0148650
683.603	0.0151191
683.682	0.0155878
683.760	0.0157806
683.838	0.0160442
683.916	0.0162902
683.994	0.0162897
684.072	0.0164716
684.150	0.0165376
684.228	0.0166592
684.307	0.0165855
684.385	0.0163438
684.463	0.0163287
684.541	0.0161962
684.619	0.0159439
684.697	0.0157965
684.775	0.0155551
684.853	0.0154401
684.932	0.0152904
685.010	0.0149490
685.088	0.0149030
685.166	0.0145546
685.244	0.0144108
685.322	0.0142783
685.400	0.0141614
685.478	0.0137332
685.557	0.0134209
685.635	0.0133485
685.713	0.0131946
685.791	0.0130596
685.869	0.0129756
685.947	0.0128363
686.025	0.0128114
686.103	0.0128529
686.182	0.0129190
686.260	0.0128939
686.338	0.0129297
686.416	0.0131304
686.494	0.0131964
686.572	0.0134111
686.650	0.0132815
686.728	0.0133922
686.807	0.0136627
686.885	0.0136601
686.963	0.0138406
687.041	0.0139626
687.119	0.0142158
687.197	0.0141870
687.275	0.0143248
687.353	0.0144328
687.432	0.0145844
687.510	0.0146965
687.588	0.0148407
687.666	0.0150215
687.744	0.0150680
687.822	0.0152231
687.900	0.0153615
687.978	0.0155044
688.057	0.0155006
688.135	0.0157585
688.213	0.0158572
688.291	0.0158271
688.369	0.0159358
688.447	0.0160873
688.525	0.0162162
688.603	0.0162243
688.682	0.0162500
688.760	0.0162611
688.838	0.0163718
688.916	0.0161819
688.994	0.0162862
689.072	0.0159276
689.150	0.0160428
689.228	0.0157843
689.307	0.0154966
689.385	0.0152562
689.463	0.0150926
689.541	0.0147421
689.619	0.0144286
689.697	0.0143143
689.775	0.0141312
689.853	0.0138405
689.932	0.0136797
690.010	0.0134914
690.088	0.0133840
690.166	0.0130202
690.244	0.0131105
690.322	0.0129598
690.400	0.0129187
690.478	0.0128385
690.557	0.0129124
690.635	0.0126146
690.713	0.0126129
690.791	0.0125671
690.869	0.0125137
690.947	0.0124290
691.025	0.0127209
691.103	0.0125426
691.182	0.0126813
691.260	0.0126643
691.338	0.0127995
691.416	0.0128741
691.494	0.0129038
691.572	0.0129474
691.650	0.0130903
691.728	0.0131654
691.807	0.0133282
691.885	0.0133023
691.963	0.0134481
692.041	0.0136233
692.119	0.0136398
692.197	0.0135906
692.275	0.0137463
692.353	0.0138806
692.432	0.0139272
692.510	0.0140720
692.588	0.0143150
692.666	0.0145036
692.744	0.0148547
692.822	0.0150036
692.900	0.0150844
692.978	0.0152943
693.057	0.0155369
693.135	0.0159167
693.213	0.0162113
693.291	0.0162933
693.369	0.0161409
693.447	0.0164789
693.525	0.0163911
693.603	0.0166199
693.682	0.0167838
693.760	0.0165948
693.838	0.0167755
693.916	0.0168478
693.994	0.0166805
694.072	0.0166647
694.150	0.0165434
694.228	0.0165683
694.307	0.0163676
694.385	0.0163896
694.463	0.0163664
694.541	0.0163139
694.619	0.0160860
694.697	0.0158974
694.775	0.0155376
694.853	0.0152174
694.932	0.0151207
695.010	0.0147235
695.088	0.0145457
695.166	0.0140213
695.244	0.0136034
695.322	0.0133000
695.400	0.0131158
695.478	0.0126321
695.557	0.0123665
695.635	0.0119408
695.713	0.0115740
695.791	0.0113672
695.869	0.0109275
695.947	0.0107974
696.025	0.0106642
696.103	0.0107200
696.182	0.0106005
696.260	0.0105885
696.338	0.0108643
696.416	0.0110656
696.494	0.0112824
696.572	0.0116129
696.650	0.0119125
696.728	0.0123897
696.807	0.0126723
696.885	0.0130544
696.963	0.0134634
697.041	0.0137479
697.119	0.0142375
697.197	0.0145110
697.275	0.0147674
697.353	0.0149007
697.432	0.0152213
697.510	0.0154408
697.588	0.0155706
697.666	0.0157295
697.744	0.0156741
697.822	0.0158685
697.900	0.0159379
697.978	0.0160912
698.057	0.0161217
698.135	0.0160575
698.213	0.0161726
698.291	0.0162582
698.369	0.0164451
698.447	0.0164487
698.525	0.0164298
698.603	0.0163913
698.682	0.0165654
698.760	0.0164061
698.838	0.0163222
698.916	0.0162284
698.994	0.0160313
699.072	0.0158607
699.150	0.0157667
699.228	0.0154986
699.307	0.0153471
699.385	0.0151699
699.463	0.0149947
699.541	0.0147079
699.619	0.0144466
699.697	0.0145084
699.775	0.0142241
699.853	0.0142424
699.932	0.0141181
700.010	0.0140172
700.088	0.0138667
700.166	0.0138256
700.244	0.0136491
700.322	0.0137187
700.400	0.0136420
700.478	0.0134609
700.557	0.0133849
700.635	0.0133576
700.713	0.0131683
700.791	0.0132897
700.869	0.0128661
700.947	0.0127200
701.025	0.0126395
701.103	0.0124870
701.182	0.0123535
701.260	0.0121136
701.338	0.0120754
701.416	0.0120409
701.494	0.0119075
701.572	0.0118160
701.650	0.0119229
701.728	0.0120526
701.807	0.0120779
701.885	0.0123572
701.963	0.0124230
702.041	0.0125866
702.119	0.0127019
702.197	0.0131066
702.275	0.0132347
702.353	0.0133804
702.432	0.0136410
702.510	0.0138265
702.588	0.0139600
702.666	0.0140948
702.744	0.0142199
702.822	0.0143105
702.900	0.0142986
702.978	0.0145361
703.057	0.0144258
703.135	0.0143806
703.213	0.0145573
703.291	0.0146691
703.369	0.0147129
703.447	0.0148656
703.525	0.0149792
703.603	0.0151077
703.682	0.0154028
703.760	0.0154042
703.838	0.0156882
703.916	0.0158910
703.994	0.0161551
704.072	0.0162197
704.150	0.0163573
704.228	0.0165343
704.307	0.0166707
704.385	0.0168542
704.463	0.0167995
704.541	0.0167068
704.619	0.0166588
704.697	0.0166032
704.775	0.0163635
704.853	0.0164542
704.932	0.0161647
705.010	0.0158948
705.088	0.0157166
705.166	0.0155320
705.244	0.0153010
705.322	0.0150536
705.400	0.0147173
705.478	0.0145997
705.557	0.0143282
705.635	0.0141528
705.713	0.0138541
705.791	0.0138451
705.869	0.0136576
705.947	0.0135821
706.025	0.0135163
706.103	0.0134733
706.182	0.0134135
706.260	0.0134962
706.338	0.0136092
706.416	0.0136044
706.494	0.0137215
706.572	0.0137328
706.650	0.0139014
706.728	0.0139467
706.807	0.0138992
706.885	0.0138733
706.963	0.0137291
707.041	0.0136266
707.119	0.0137317
707.197	0.0136839
707.275	0.0136523
707.353	0.0134770
707.432	0.0133180
707.510	0.0132931
707.588	0.0132087
707.666	0.0129655
707.744	0.0129848
707.822	0.0128360
707.900	0.0127316
707.978	0.0128463
708.057	0.0128712
708.135	0.0128356
708.213	0.0129781
708.291	0.0128526
708.369	0.0129098
708.447	0.0130105
708.525	0.0132116
708.603	0.0132931
708.682	0.0132815
708.760	0.0135289
708.838	0.0135400
708.916	0.0135976
708.994	0.0138580
709.072	0.0139684
709.150	0.0140501
709.228	0.0143185
709.307	0.0142548
709.385	0.0145899
709.463	0.0147039
709.541	0.0149187
709.619	0.0153115
709.697	0.0155964
709.775	0.0158110
709.853	0.0161609
709.932	0.0163627
710.010	0.0167675
710.088	0.0170104
710.166	0.0171932
710.244	0.0173982
710.322	0.0175658
710.400	0.0174820
710.478	0.0176121
710.557	0.0175772
710.635	0.0173149
710.713	0.0172388
710.791	0.0169664
710.869	0.0167151
710.947	0.0163290
711.025	0.0160211
711.103	0.0154333
711.182	0.0149784
711.260	0.0145775
711.338	0.0140547
711.416	0.0137298
711.494	0.0133242
711.572	0.0131186
711.650	0.0128382
711.728	0.0127121
711.807	0.0124461
711.885	0.0121976
711.963	0.0121978
712.041	0.0123324
712.119	0.0120085
712.197	0.0121830
712.275	0.0124446
712.353	0.0121758
712.432	0.0123242
712.510	0.0124833
712.588	0.0125568
712.666	0.0124426
712.744	0.0126123
712.822	0.0127028
712.900	0.0127071
712.978	0.0128004
713.057	0.0129376
713.135	0.0130365
713.213	0.0132758
713.291	0.0132317
713.369	0.0134602
713.447	0.0135248
713.525	0.0135205
713.603	0.0136945
713.682	0.0138593
713.760	0.0139961
713.838	0.0140785
713.916	0.0141117
713.994	0.0142626
714.072	0.0143989
714.150	0.0144996
714.228	0.0146105
714.307	0.0146600
714.385	0.0146661
714.463	0.0147412
714.541	0.0148378
714.619	0.0149255
714.697	0.0148915
714.775	0.0147768
714.853	0.0146964
714.932	0.0146953
715.010	0.0147266
715.088	0.0145116
715.166	0.0145842
715.244	0.0145121
715.322	0.0145417
715.400	0.0143768
715.478	0.0144502
715.557	0.0144567
715.635	0.0144377
715.713	0.0145058
715.791	0.0144611
715.869	0.0144882
715.947	0.0146812
716.025	0.0147417
716.103	0.0147693
716.182	0.0147565
716.260	0.0149223
716.338	0.0149831
716.416	0.0149478
716.494	0.0149805
716.572	0.0151615
716.650	0.0150690
716.728	0.0153091
716.807	0.0151168
716.885	0.0152420
716.963	0.0152830
717.041	0.0151748
717.119	0.0151368
717.197	0.0152662
717.275	0.0153957
717.353	0.0153432
717.432	0.0152508
717.510	0.0151068
717.588	0.0151131
717.666	0.0150578
717.744	0.0150229
717.822	0.0149725
717.900	0.0148093
717.978	0.0146624
718.057	0.0146649
718.135	0.0145164
718.213	0.0144061
718.291	0.0144086
718.369	0.0141131
718.447	0.0138950
718.525	0.0137238
718.603	0.0137033
718.682	0.0136037
718.760	0.0134648
718.838	0.0134145
718.916	0.0133068
718.994	0.0130676
719.072	0.0129631
719.150	0.0128997
719.228	0.0127921
719.307	0.0126728
719.385	0.0125889
719.463	0.0125613
719.541	0.0124270
719.619	0.0124989
719.697	0.0124735
719.775	0.0124478
719.853	0.0126520
719.932	0.0128833
720.010	0.0127567
720.088	0.0128116
720.166	0.0131744
720.244	0.0133092
720.322	0.0134785
720.400	0.0137348
720.478	0.0139150
720.557	0.0141428
720.635	0.0143351
720.713	0.0146051
720.791	0.0145785
720.869	0.0147729
720.947	0.0149828
721.025	0.0150879
721.103	0.0151402
721.182	0.0152312
721.260	0.0151260
721.338	0.0154764
721.416	0.0154633
721.494	0.0154105
721.572	0.0154414
721.650	0.0156509
721.728	0.0155863
721.807	0.0154079
721.885	0.0153542
721.963	0.0154366
722.041	0.0154534
722.119	0.0153876
722.197	0.0152266
722.275	0.0151508
722.353	0.0151892
722.432	0.0151120
722.510	0.0149816
722.588	0.0152101
722.666	0.0149764
722.744	0.0149090
722.822	0.0148856
722.900	0.0148444
722.978	0.0147799
723.057	0.0145880
723.135	0.0147398
723.213	0.0145597
723.291	0.0144663
723.369	0.0142218
723.447	0.0140877
723.525	0.0140778
723.603	0.0139272
723.682	0.0137426
723.760	0.0136356
723.838	0.0135788
723.916	0.0133878
723.994	0.0131460
724.072	0.0132885
724.150	0.0133483
724.228	0.0129578
724.307	0.0129313
724.385	0.0128726
724.463	0.0130566
724.541	0.0130374
724.619	0.0130086
724.697	0.0130679
724.775	0.0131082
724.853	0.0131203
724.932	0.0132289
725.010	0.0134962
725.088	0.0133156
725.166	0.0136945
725.244	0.0136623
725.322	0.0139040
725.400	0.0140441
725.478	0.0142441
725.557	0.0142540
725.635	0.0142445
725.713	0.0143616
725.791	0.0145987
725.869	0.0145205
725.947	0.0145332
726.025	0.0146477
726.103	0.0146213
726.182	0.0145293
726.260	0.0143343
726.338	0.0145421
726.416	0.0144582
726.494	0.0143344
726.572	0.0143652
726.650	0.0143329
726.728	0.0143331
726.807	0.0143324
726.885	0.0142317
726.963	0.0141772
727.041	0.0143085
727.119	0.0142597
727.197	0.0140420
727.275	0.0141346
727.353	0.0141238
727.432	0.0141061
727.510	0.0141284
727.588	0.0141756
727.666	0.0143076
727.744	0.0141560
727.822	0.0142134
727.900	0.0142994
727.978	0.0141685
728.057	0.0143441
728.135	0.0143733
728.213	0.0144605
728.291	0.0144855
728.369	0.0145485
728.447	0.0145924
728.525	0.0146735
728.603	0.0144778
728.682	0.0145984
728.760	0.0146545
728.838	0.0147057
728.916	0.0146732
728.994	0.0147204
729.072	0.0148621
729.150	0.0148744
729.228	0.0146474
729.307	0.0148203
729.385	0.0149490
729.463	0.0149548
729.541	0.0149606
729.619	0.0149619
729.697	0.0150169
729.775	0.0149113
729.853	0.0149043
729.932	0.0148936
730.010	0.0147667
730.088	0.0147177
730.166	0.0144491
730.244	0.0144675
730.322	0.0143496
730.400	0.0140842
730.478	0.0140160
730.557	0.0139767
730.635	0.0136526
730.713	0.0136961
730.791	0.0137085
730.869	0.0136383
730.947	0.0136417
731.025	0.0137912
731.103	0.0136714
731.182	0.0137138
731.260	0.0137082
731.338	0.0137547
731.416	0.0139526
731.494	0.0140425
731.572	0.0141351
731.650	0.0142075
731.728	0.0142616
731.807	0.0143607
731.885	0.0144167
731.963	0.0143913
732.041	0.0145640
732.119	0.0146266
732.197	0.0145917
732.275	0.0146812
732.353	0.0146432
732.432	0.0146603
732.510	0.0146758
732.588	0.0146022
732.666	0.0145235
732.744	0.0143452
732.822	0.0144503
732.900	0.0144260
732.978	0.0141365
733.057	0.0141576
733.135	0.0141941
733.213	0.0142650
733.291	0.0142101
733.369	0.0142201
733.447	0.0140955
733.525	0.0141190
733.603	0.0141052
733.682	0.0143105
733.760	0.0141314
733.838	0.0143165
733.916	0.0142301
733.994	0.0141805
734.072	0.0141479
734.150	0.0142300
734.228	0.0142247
734.307	0.0142083
734.385	0.0141257
734.463	0.0140405
734.541	0.0139702
734.619	0.0138652
734.697	0.0140113
734.775	0.0140907
734.853	0.0138647
734.932	0.0139819
735.010	0.0139668
735.088	0.0139867
735.166	0.0140325
735.244	0.0141516
735.322	0.0142567
735.400	0.0141509
735.478	0.0141394
735.557	0.0143113
735.635	0.0142632
735.713	0.0141814
