05/14/2022	19:33:40	Ver.	4.1	UNKNOWN
Optical Delay	650.009681	Delta X		0.078125	Sweeps	1	Scan Rate	0/0
Coordinates	Axis 1	NaN	Axis 2	NaN	Axis 3	NaN	Axis 4	NaN	Axis 5	NaN	Axis 6	0.000000
TX Power	0.000000	RX Power	0.000000

650.010	0.0140212
650.088	0.0139626
650.166	0.0138937
650.244	0.0138608
650.322	0.0138541
650.400	0.0140665
650.478	0.0137869
650.557	0.0139780
650.635	0.0138603
650.713	0.0139263
650.791	0.0138355
650.869	0.0137350
650.947	0.0139579
651.025	0.0139051
651.103	0.0139602
651.182	0.0140547
651.260	0.0138759
651.338	0.0138985
651.416	0.0138586
651.494	0.0139484
651.572	0.0139109
651.650	0.0138831
651.728	0.0139027
651.807	0.0140527
651.885	0.0139619
651.963	0.0138619
652.041	0.0138618
652.119	0.0138210
652.197	0.0140360
652.275	0.0139191
652.353	0.0138255
652.432	0.0139380
652.510	0.0138940
652.588	0.0138464
652.666	0.0139040
652.744	0.0137991
652.822	0.0137889
652.900	0.0138258
652.978	0.0138863
653.057	0.0138471
653.135	0.0137536
653.213	0.0138853
653.291	0.0140096
653.369	0.0139455
653.447	0.0138430
653.525	0.0137041
653.603	0.0139081
653.682	0.0139638
653.760	0.0139391
653.838	0.0139333
653.916	0.0138433
653.994	0.0138953
654.072	0.0139994
654.150	0.0139118
654.228	0.0139716
654.307	0.0137587
654.385	0.0139284
654.463	0.0138982
654.541	0.0140034
654.619	0.0140257
654.697	0.0138707
654.775	0.0138917
654.853	0.0139980
654.932	0.0139120
655.010	0.0139794
655.088	0.0138276
655.166	0.0137502
655.244	0.0138153
655.322	0.0138611
655.400	0.0138261
655.478	0.0136816
655.557	0.0137801
655.635	0.0138335
655.713	0.0137476
655.791	0.0139299
655.869	0.0137340
655.947	0.0137266
656.025	0.0139366
656.103	0.0138277
656.182	0.0138068
656.260	0.0138307
656.338	0.0139220
656.416	0.0139006
656.494	0.0139127
656.572	0.0138955
656.650	0.0138608
656.728	0.0139044
656.807	0.0140244
656.885	0.0139651
656.963	0.0140889
657.041	0.0140723
657.119	0.0140347
657.197	0.0140845
657.275	0.0139574
657.353	0.0139118
657.432	0.0138208
657.510	0.0138827
657.588	0.0139600
657.666	0.0138991
657.744	0.0139925
657.822	0.0138397
657.900	0.0136275
657.978	0.0138422
658.057	0.0138137
658.135	0.0138577
658.213	0.0139210
658.291	0.0138570
658.369	0.0137328
658.447	0.0137454
658.525	0.0137833
658.603	0.0139758
658.682	0.0140028
658.760	0.0139295
658.838	0.0138615
658.916	0.0136871
658.994	0.0138181
659.072	0.0138900
659.150	0.0138717
659.228	0.0138186
659.307	0.0139485
659.385	0.0137524
659.463	0.0138276
659.541	0.0137223
659.619	0.0138258
659.697	0.0138543
659.775	0.0138461
659.853	0.0137313
659.932	0.0137907
660.010	0.0138512
660.088	0.0139271
660.166	0.0138811
660.244	0.0138084
660.322	0.0137176
660.400	0.0138173
660.478	0.0138747
660.557	0.0137340
660.635	0.0137593
660.713	0.0137547
660.791	0.0137000
660.869	0.0136643
660.947	0.0136742
661.025	0.0136512
661.103	0.0137023
661.182	0.0137034
661.260	0.0138212
661.338	0.0136908
661.416	0.0137337
661.494	0.0137326
661.572	0.0139195
661.650	0.0139441
661.728	0.0137284
661.807	0.0139120
661.885	0.0141039
661.963	0.0141261
662.041	0.0142513
662.119	0.0142711
662.197	0.0142118
662.275	0.0143004
662.353	0.0143627
662.432	0.0143484
662.510	0.0140890
662.588	0.0140450
662.666	0.0140010
662.744	0.0138065
662.822	0.0137420
662.900	0.0137282
662.978	0.0135515
663.057	0.0135600
663.135	0.0132935
663.213	0.0131657
663.291	0.0130564
663.369	0.0131956
663.447	0.0130318
663.525	0.0130507
663.603	0.0129226
663.682	0.0130389
663.760	0.0130087
663.838	0.0130726
663.916	0.0129127
663.994	0.0130800
664.072	0.0131138
664.150	0.0134329
664.228	0.0135970
664.307	0.0137074
664.385	0.0139201
664.463	0.0140758
664.541	0.0143433
664.619	0.0145503
664.697	0.0146931
664.775	0.0148594
664.853	0.0151230
664.932	0.0151521
665.010	0.0152398
665.088	0.0154168
665.166	0.0155233
665.244	0.0156779
665.322	0.0155462
665.400	0.0155222
665.478	0.0153640
665.557	0.0152879
665.635	0.0151420
665.713	0.0149612
665.791	0.0147257
665.869	0.0144955
665.947	0.0142450
666.025	0.0139584
666.103	0.0136071
666.182	0.0133051
666.260	0.0130477
666.338	0.0128419
666.416	0.0125213
666.494	0.0122629
666.572	0.0120441
666.650	0.0119183
666.728	0.0118876
666.807	0.0118428
666.885	0.0116994
666.963	0.0116993
667.041	0.0117653
667.119	0.0119466
667.197	0.0121177
667.275	0.0122962
667.353	0.0125282
667.432	0.0128659
667.510	0.0132191
667.588	0.0136487
667.666	0.0141858
667.744	0.0145786
667.822	0.0151544
667.900	0.0156117
667.978	0.0159190
668.057	0.0165564
668.135	0.0167721
668.213	0.0170431
668.291	0.0173679
668.369	0.0173835
668.447	0.0175403
668.525	0.0176190
668.603	0.0174519
668.682	0.0172554
668.760	0.0170707
668.838	0.0167241
668.916	0.0164238
668.994	0.0159737
669.072	0.0155605
669.150	0.0149252
669.228	0.0144264
669.307	0.0139094
669.385	0.0131748
669.463	0.0125713
669.541	0.0120573
669.619	0.0115252
669.697	0.0109526
669.775	0.0106126
669.853	0.0102395
669.932	0.00988060
670.010	0.00972740
670.088	0.00977798
670.166	0.00956528
670.244	0.00970917
670.322	0.0100614
670.400	0.0104824
670.478	0.0106072
670.557	0.0109281
670.635	0.0113358
670.713	0.0120567
670.791	0.0125970
670.869	0.0131748
670.947	0.0137227
671.025	0.0142834
671.103	0.0148653
671.182	0.0153996
671.260	0.0160313
671.338	0.0164085
671.416	0.0167825
671.494	0.0170602
671.572	0.0173293
671.650	0.0177412
671.728	0.0176551
671.807	0.0178590
671.885	0.0176183
671.963	0.0176962
672.041	0.0175227
672.119	0.0172223
672.197	0.0168575
672.275	0.0162622
672.353	0.0158450
672.432	0.0154228
672.510	0.0150638
672.588	0.0143846
672.666	0.0141136
672.744	0.0134170
672.822	0.0129925
672.900	0.0126057
672.978	0.0121248
673.057	0.0118985
673.135	0.0115203
673.213	0.0114093
673.291	0.0112590
673.369	0.0111383
673.447	0.0111429
673.525	0.0111565
673.603	0.0113191
673.682	0.0112653
673.760	0.0114422
673.838	0.0116415
673.916	0.0118092
673.994	0.0120197
674.072	0.0120995
674.150	0.0123714
674.228	0.0126630
674.307	0.0127595
674.385	0.0131965
674.463	0.0133274
674.541	0.0135716
674.619	0.0136531
674.697	0.0139721
674.775	0.0141287
674.853	0.0141637
674.932	0.0142509
675.010	0.0143617
675.088	0.0143161
675.166	0.0143023
675.244	0.0142165
675.322	0.0143764
675.400	0.0142655
675.478	0.0142234
675.557	0.0140652
675.635	0.0141798
675.713	0.0142741
675.791	0.0143181
675.869	0.0142532
675.947	0.0143984
676.025	0.0144189
676.103	0.0147070
676.182	0.0148463
676.260	0.0150844
676.338	0.0153045
676.416	0.0155286
676.494	0.0155066
676.572	0.0157882
676.650	0.0159110
676.728	0.0158406
676.807	0.0160680
676.885	0.0161349
676.963	0.0162210
677.041	0.0160868
677.119	0.0159975
677.197	0.0159556
677.275	0.0158185
677.353	0.0156956
677.432	0.0153925
677.510	0.0151833
677.588	0.0150898
677.666	0.0145157
677.744	0.0142268
677.822	0.0137643
677.900	0.0132239
677.978	0.0129324
678.057	0.0124579
678.135	0.0120860
678.213	0.0117849
678.291	0.0115292
678.369	0.0110345
678.447	0.0107995
678.525	0.0104662
678.603	0.0103534
678.682	0.0103889
678.760	0.0102190
678.838	0.0102455
678.916	0.0103804
678.994	0.0108126
679.072	0.0110545
679.150	0.0113403
679.228	0.0117791
679.307	0.0122315
679.385	0.0126575
679.463	0.0133066
679.541	0.0138676
679.619	0.0145588
679.697	0.0151675
679.775	0.0157033
679.853	0.0162000
679.932	0.0164754
680.010	0.0168985
680.088	0.0172655
680.166	0.0177629
680.244	0.0178555
680.322	0.0179980
680.400	0.0181050
680.478	0.0180851
680.557	0.0180723
680.635	0.0180978
680.713	0.0178619
680.791	0.0176116
680.869	0.0171096
680.947	0.0168406
681.025	0.0166273
681.103	0.0162569
681.182	0.0157090
681.260	0.0151549
681.338	0.0147182
681.416	0.0141899
681.494	0.0135899
681.572	0.0131911
681.650	0.0125821
681.728	0.0122858
681.807	0.0116726
681.885	0.0114264
681.963	0.0110773
682.041	0.0107960
682.119	0.0105508
682.197	0.0104238
682.275	0.0103553
682.353	0.0102967
682.432	0.0105025
682.510	0.0106286
682.588	0.0109371
682.666	0.0111120
682.744	0.0113007
682.822	0.0118836
682.900	0.0122314
682.978	0.0127083
683.057	0.0131749
683.135	0.0136663
683.213	0.0141510
683.291	0.0144106
683.369	0.0148817
683.447	0.0153271
683.525	0.0156388
683.603	0.0160307
683.682	0.0162347
683.760	0.0165517
683.838	0.0167857
683.916	0.0167876
683.994	0.0168334
684.072	0.0168775
684.150	0.0168789
684.228	0.0166997
684.307	0.0164920
684.385	0.0163651
684.463	0.0161380
684.541	0.0157494
684.619	0.0155678
684.697	0.0152573
684.775	0.0149043
684.853	0.0143425
684.932	0.0140470
685.010	0.0137816
685.088	0.0133857
685.166	0.0128898
685.244	0.0127045
685.322	0.0124477
685.400	0.0120860
685.478	0.0120696
685.557	0.0118988
685.635	0.0117712
685.713	0.0117263
685.791	0.0115536
685.869	0.0115590
685.947	0.0118018
686.025	0.0118312
686.103	0.0121217
686.182	0.0122498
686.260	0.0125459
686.338	0.0128168
686.416	0.0130344
686.494	0.0134357
686.572	0.0136243
686.650	0.0139342
686.728	0.0141258
686.807	0.0142592
686.885	0.0146617
686.963	0.0147488
687.041	0.0149975
687.119	0.0151871
687.197	0.0153858
687.275	0.0154470
687.353	0.0154934
687.432	0.0156593
687.510	0.0156596
687.588	0.0158259
687.666	0.0157657
687.744	0.0156437
687.822	0.0156488
687.900	0.0155106
687.978	0.0154807
688.057	0.0151949
688.135	0.0151148
688.213	0.0150274
688.291	0.0148968
688.369	0.0148372
688.447	0.0146851
688.525	0.0146834
688.603	0.0146217
688.682	0.0143976
688.760	0.0145115
688.838	0.0145205
688.916	0.0143491
688.994	0.0142883
689.072	0.0142812
689.150	0.0142944
689.228	0.0141599
689.307	0.0140611
689.385	0.0137865
689.463	0.0137701
689.541	0.0135384
689.619	0.0135373
689.697	0.0134326
689.775	0.0133656
689.853	0.0133212
689.932	0.0129772
690.010	0.0129726
690.088	0.0129610
690.166	0.0128664
690.244	0.0128273
690.322	0.0126679
690.400	0.0127072
690.478	0.0125492
690.557	0.0124529
690.635	0.0124040
690.713	0.0125523
690.791	0.0123798
690.869	0.0123517
690.947	0.0124675
691.025	0.0125355
691.103	0.0127345
691.182	0.0129019
691.260	0.0127261
691.338	0.0129967
691.416	0.0130385
691.494	0.0133061
691.572	0.0133141
691.650	0.0133791
691.728	0.0135757
691.807	0.0136726
691.885	0.0137325
691.963	0.0139386
692.041	0.0139098
692.119	0.0140733
692.197	0.0142591
692.275	0.0143522
692.353	0.0145102
692.432	0.0148110
692.510	0.0150208
692.588	0.0151797
692.666	0.0151875
692.744	0.0154149
692.822	0.0153970
692.900	0.0156170
692.978	0.0157094
693.057	0.0155138
693.135	0.0153316
693.213	0.0156049
693.291	0.0153448
693.369	0.0152565
693.447	0.0151797
693.525	0.0151115
693.603	0.0151047
693.682	0.0149882
693.760	0.0149777
693.838	0.0149698
693.916	0.0147269
693.994	0.0148335
694.072	0.0146507
694.150	0.0146717
694.228	0.0144982
694.307	0.0145878
694.385	0.0143244
694.463	0.0142865
694.541	0.0142147
694.619	0.0140897
694.697	0.0140509
694.775	0.0137496
694.853	0.0137713
694.932	0.0135404
695.010	0.0134883
695.088	0.0134144
695.166	0.0133466
695.244	0.0131418
695.322	0.0130183
695.400	0.0127875
695.478	0.0128776
695.557	0.0127158
695.635	0.0125700
695.713	0.0124596
695.791	0.0121702
695.869	0.0119300
695.947	0.0119228
696.025	0.0116264
696.103	0.0117484
696.182	0.0115098
696.260	0.0113580
696.338	0.0113631
696.416	0.0114516
696.494	0.0112647
696.572	0.0114574
696.650	0.0116832
696.728	0.0117303
696.807	0.0118452
696.885	0.0121471
696.963	0.0123180
697.041	0.0125108
697.119	0.0127390
697.197	0.0132210
697.275	0.0135449
697.353	0.0139676
697.432	0.0142761
697.510	0.0147765
697.588	0.0152350
697.666	0.0155920
697.744	0.0160204
697.822	0.0165658
697.900	0.0169086
697.978	0.0172680
698.057	0.0175696
698.135	0.0179681
698.213	0.0181559
698.291	0.0181837
698.369	0.0182640
698.447	0.0182820
698.525	0.0180558
698.603	0.0180449
698.682	0.0179742
698.760	0.0176841
698.838	0.0173247
698.916	0.0170595
698.994	0.0168806
699.072	0.0165417
699.150	0.0161262
699.228	0.0157861
699.307	0.0154240
699.385	0.0151192
699.463	0.0146462
699.541	0.0142757
699.619	0.0139864
699.697	0.0137017
699.775	0.0134148
699.853	0.0130351
699.932	0.0127272
700.010	0.0124558
700.088	0.0122843
700.166	0.0120181
700.244	0.0118787
700.322	0.0116546
700.400	0.0113960
700.478	0.0112791
700.557	0.0111985
700.635	0.0110108
700.713	0.0109145
700.791	0.0107415
700.869	0.0107773
700.947	0.0107007
701.025	0.0107218
701.103	0.0108097
701.182	0.0111521
701.260	0.0112347
701.338	0.0113280
701.416	0.0116773
701.494	0.0120979
701.572	0.0123882
701.650	0.0128009
701.728	0.0131322
701.807	0.0134933
701.885	0.0139054
701.963	0.0141644
702.041	0.0145774
702.119	0.0147876
702.197	0.0149177
702.275	0.0150153
702.353	0.0151521
702.432	0.0152384
702.510	0.0152994
702.588	0.0153110
702.666	0.0153127
702.744	0.0152155
702.822	0.0151629
702.900	0.0150473
702.978	0.0151256
703.057	0.0149961
703.135	0.0150130
703.213	0.0148972
703.291	0.0149337
703.369	0.0152518
703.447	0.0150961
703.525	0.0151559
703.603	0.0152653
703.682	0.0154063
703.760	0.0155966
703.838	0.0156970
703.916	0.0156144
703.994	0.0157853
704.072	0.0158323
704.150	0.0155882
704.228	0.0157229
704.307	0.0156062
704.385	0.0153344
704.463	0.0153250
704.541	0.0151203
704.619	0.0148432
704.697	0.0145140
704.775	0.0142870
704.853	0.0141627
704.932	0.0139144
705.010	0.0136344
705.088	0.0133172
705.166	0.0131270
705.244	0.0131050
705.322	0.0130051
705.400	0.0128983
705.478	0.0126566
705.557	0.0127412
705.635	0.0127837
705.713	0.0127747
705.791	0.0128257
705.869	0.0128167
705.947	0.0128452
706.025	0.0129202
706.103	0.0130807
706.182	0.0131034
706.260	0.0131094
706.338	0.0133096
706.416	0.0133437
706.494	0.0132455
706.572	0.0132629
706.650	0.0133391
706.728	0.0134122
706.807	0.0133459
706.885	0.0132879
706.963	0.0133007
707.041	0.0131516
707.119	0.0132588
707.197	0.0133218
707.275	0.0132826
707.353	0.0132752
707.432	0.0133503
707.510	0.0132097
707.588	0.0132210
707.666	0.0131803
707.744	0.0132011
707.822	0.0131689
707.900	0.0132688
707.978	0.0131846
708.057	0.0133261
708.135	0.0133484
708.213	0.0132034
708.291	0.0133158
708.369	0.0132976
708.447	0.0131474
708.525	0.0131120
708.603	0.0132262
708.682	0.0131714
708.760	0.0132377
708.838	0.0134917
708.916	0.0136884
708.994	0.0136082
709.072	0.0139040
709.150	0.0141378
709.228	0.0143933
709.307	0.0146444
709.385	0.0149398
709.463	0.0152411
709.541	0.0154121
709.619	0.0156842
709.697	0.0159972
709.775	0.0163113
709.853	0.0164993
709.932	0.0166177
710.010	0.0166899
710.088	0.0167879
710.166	0.0167044
710.244	0.0166638
710.322	0.0166761
710.400	0.0166838
710.478	0.0164449
710.557	0.0163257
710.635	0.0161448
710.713	0.0157723
710.791	0.0156491
710.869	0.0154176
710.947	0.0150914
711.025	0.0147176
711.103	0.0145741
711.182	0.0143590
711.260	0.0141277
711.338	0.0138287
711.416	0.0136046
711.494	0.0133896
711.572	0.0133805
711.650	0.0130496
711.728	0.0129453
711.807	0.0128400
711.885	0.0128514
711.963	0.0125948
712.041	0.0124142
712.119	0.0123451
712.197	0.0122189
712.275	0.0121781
712.353	0.0120464
712.432	0.0119808
712.510	0.0116454
712.588	0.0115200
712.666	0.0115491
712.744	0.0115431
712.822	0.0114668
712.900	0.0114016
712.978	0.0115614
713.057	0.0117113
713.135	0.0118735
713.213	0.0119277
713.291	0.0122240
713.369	0.0126389
713.447	0.0129229
713.525	0.0128719
713.603	0.0132404
713.682	0.0136252
713.760	0.0137416
713.838	0.0140313
713.916	0.0143630
713.994	0.0145502
714.072	0.0146251
714.150	0.0146078
714.228	0.0150454
714.307	0.0151569
714.385	0.0151749
714.463	0.0153080
714.541	0.0154691
714.619	0.0154734
714.697	0.0154224
714.775	0.0154353
714.853	0.0154139
714.932	0.0153905
715.010	0.0153556
715.088	0.0151820
715.166	0.0152168
715.244	0.0150580
715.322	0.0150396
715.400	0.0148235
715.478	0.0147487
715.557	0.0146255
715.635	0.0145821
715.713	0.0144518
715.791	0.0143264
715.869	0.0142721
715.947	0.0143145
716.025	0.0142406
716.103	0.0140234
716.182	0.0140008
716.260	0.0141633
716.338	0.0141069
716.416	0.0140452
716.494	0.0140374
716.572	0.0140314
716.650	0.0139407
716.728	0.0139359
716.807	0.0139543
716.885	0.0138847
716.963	0.0138994
717.041	0.0137380
717.119	0.0135364
717.197	0.0136119
717.275	0.0136530
717.353	0.0135838
717.432	0.0138283
717.510	0.0136720
717.588	0.0136611
717.666	0.0136601
717.744	0.0137592
717.822	0.0136385
717.900	0.0137040
717.978	0.0135756
718.057	0.0135632
718.135	0.0136422
718.213	0.0136532
718.291	0.0134689
718.369	0.0133854
718.447	0.0134315
718.525	0.0133575
718.603	0.0133425
718.682	0.0133981
718.760	0.0133168
718.838	0.0131805
718.916	0.0131756
718.994	0.0130200
719.072	0.0129340
719.150	0.0127223
719.228	0.0128572
719.307	0.0126431
719.385	0.0125934
719.463	0.0126080
719.541	0.0127110
719.619	0.0125762
719.697	0.0127048
719.775	0.0127813
719.853	0.0127998
719.932	0.0129034
720.010	0.0129532
720.088	0.0130798
720.166	0.0133466
720.244	0.0134251
720.322	0.0134676
720.400	0.0136243
720.478	0.0137125
720.557	0.0139606
720.635	0.0141352
720.713	0.0142708
720.791	0.0144445
720.869	0.0145248
720.947	0.0147944
721.025	0.0149284
721.103	0.0150394
721.182	0.0151406
721.260	0.0152542
721.338	0.0153172
721.416	0.0153500
721.494	0.0154903
721.572	0.0156429
721.650	0.0156705
721.728	0.0157033
721.807	0.0157626
721.885	0.0156207
721.963	0.0156155
722.041	0.0156387
722.119	0.0155644
722.197	0.0155070
722.275	0.0153783
722.353	0.0155418
722.432	0.0153978
722.510	0.0151653
722.588	0.0151472
722.666	0.0150095
722.744	0.0147694
722.822	0.0147767
722.900	0.0146887
722.978	0.0144614
723.057	0.0141081
723.135	0.0139168
723.213	0.0138403
723.291	0.0136124
723.369	0.0133949
723.447	0.0132719
723.525	0.0130881
723.603	0.0130090
723.682	0.0130346
723.760	0.0128324
723.838	0.0126942
723.916	0.0128236
723.994	0.0128445
724.072	0.0129072
724.150	0.0129565
724.228	0.0130079
724.307	0.0128888
724.385	0.0131861
724.463	0.0131220
724.541	0.0130676
724.619	0.0130625
724.697	0.0131640
724.775	0.0129945
724.853	0.0132050
724.932	0.0131509
725.010	0.0133181
725.088	0.0133509
725.166	0.0133498
725.244	0.0132748
725.322	0.0134319
725.400	0.0134779
725.478	0.0134402
725.557	0.0134983
725.635	0.0135808
725.713	0.0137974
725.791	0.0138741
725.869	0.0138110
725.947	0.0139362
726.025	0.0140578
726.103	0.0140308
726.182	0.0141933
726.260	0.0143343
726.338	0.0142717
726.416	0.0143949
726.494	0.0143340
726.572	0.0143606
726.650	0.0144414
726.728	0.0143729
726.807	0.0144568
726.885	0.0144203
726.963	0.0143239
727.041	0.0143663
727.119	0.0143361
727.197	0.0143071
727.275	0.0142789
727.353	0.0143365
727.432	0.0143038
727.510	0.0142881
727.588	0.0142812
727.666	0.0142667
727.744	0.0140939
727.822	0.0140714
727.900	0.0139927
727.978	0.0141219
728.057	0.0141016
728.135	0.0140317
728.213	0.0140697
728.291	0.0140502
728.369	0.0140437
728.447	0.0139635
728.525	0.0139578
728.603	0.0138704
728.682	0.0138697
728.760	0.0141200
728.838	0.0140308
728.916	0.0140008
728.994	0.0139294
729.072	0.0140472
729.150	0.0139854
729.228	0.0139352
729.307	0.0140884
729.385	0.0139845
729.463	0.0140130
729.541	0.0138721
729.619	0.0139117
729.697	0.0138780
729.775	0.0138113
729.853	0.0137378
729.932	0.0138000
730.010	0.0137193
730.088	0.0136407
730.166	0.0137305
730.244	0.0134675
730.322	0.0132761
730.400	0.0133901
730.478	0.0133474
730.557	0.0132447
730.635	0.0131409
730.713	0.0130961
730.791	0.0132487
730.869	0.0132115
730.947	0.0131584
731.025	0.0131514
731.103	0.0131498
731.182	0.0132815
731.260	0.0133024
731.338	0.0133186
731.416	0.0133788
731.494	0.0135343
731.572	0.0135169
731.650	0.0136484
731.728	0.0137338
731.807	0.0138313
731.885	0.0138448
731.963	0.0141650
732.041	0.0140682
732.119	0.0141563
732.197	0.0142224
732.275	0.0141012
732.353	0.0141096
732.432	0.0142362
732.510	0.0143692
732.588	0.0142949
732.666	0.0142365
732.744	0.0143758
732.822	0.0143033
732.900	0.0142372
732.978	0.0141133
733.057	0.0140929
733.135	0.0140866
733.213	0.0141044
733.291	0.0140470
733.369	0.0139808
733.447	0.0139694
733.525	0.0139233
733.603	0.0138519
733.682	0.0137909
733.760	0.0137587
733.838	0.0137742
733.916	0.0136199
733.994	0.0135897
734.072	0.0136145
734.150	0.0136523
734.228	0.0134936
734.307	0.0135540
734.385	0.0133931
734.463	0.0135984
734.541	0.0136829
734.619	0.0136373
734.697	0.0136787
734.775	0.0137806
734.853	0.0137769
734.932	0.0140783
735.010	0.0140621
735.088	0.0141753
735.166	0.0142608
735.244	0.0144002
735.322	0.0144348
735.400	0.0144328
735.478	0.0143338
735.557	0.0145177
735.635	0.0146338
735.713	0.0146537
