06/13/2022	15:03:14	Ver.	4.1	UNKNOWN
Optical Delay	599.968395	Delta X		0.078125	Sweeps	1	Scan Rate	0/0
Coordinates	Axis 1	NaN	Axis 2	NaN	Axis 3	NaN	Axis 4	NaN	Axis 5	NaN	Axis 6	0.000000
TX Power	0.000000	RX Power	0.000000

599.968	0.0158511
600.047	0.0157230
600.125	0.0156943
600.203	0.0157570
600.281	0.0158180
600.359	0.0156759
600.437	0.0157451
600.515	0.0157516
600.593	0.0156585
600.672	0.0157607
600.750	0.0158109
600.828	0.0157325
600.906	0.0157785
600.984	0.0157789
601.062	0.0156595
601.140	0.0157272
601.218	0.0156587
601.297	0.0157425
601.375	0.0158933
601.453	0.0157924
601.531	0.0156413
601.609	0.0157493
601.687	0.0157291
601.765	0.0156867
601.843	0.0157693
601.922	0.0158771
602.000	0.0157770
602.078	0.0158035
602.156	0.0157372
602.234	0.0157523
602.312	0.0157579
602.390	0.0158659
602.468	0.0157240
602.547	0.0157485
602.625	0.0157588
602.703	0.0158085
602.781	0.0157282
602.859	0.0157887
602.937	0.0156988
603.015	0.0157999
603.093	0.0158048
603.172	0.0158271
603.250	0.0158143
603.328	0.0157546
603.406	0.0158262
603.484	0.0158539
603.562	0.0158943
603.640	0.0158990
603.718	0.0158012
603.797	0.0159556
603.875	0.0158253
603.953	0.0158364
604.031	0.0159901
604.109	0.0160022
604.187	0.0158240
604.265	0.0158382
604.343	0.0159885
604.422	0.0158876
604.500	0.0157481
604.578	0.0158468
604.656	0.0157801
604.734	0.0157520
604.812	0.0157493
604.890	0.0158604
604.968	0.0157988
605.047	0.0158987
605.125	0.0157739
605.203	0.0157148
605.281	0.0158539
605.359	0.0159367
605.437	0.0158288
605.515	0.0158055
605.593	0.0158939
605.672	0.0158385
605.750	0.0158301
605.828	0.0157637
605.906	0.0157133
605.984	0.0157871
606.062	0.0158066
606.140	0.0156332
606.218	0.0157835
606.297	0.0158924
606.375	0.0156877
606.453	0.0157501
606.531	0.0157487
606.609	0.0157391
606.687	0.0158578
606.765	0.0157713
606.843	0.0157683
606.922	0.0158257
607.000	0.0157871
607.078	0.0158052
607.156	0.0156765
607.234	0.0156055
607.312	0.0155873
607.390	0.0157375
607.468	0.0156831
607.547	0.0156045
607.625	0.0157111
607.703	0.0157314
607.781	0.0156258
607.859	0.0157553
607.937	0.0158426
608.015	0.0156391
608.093	0.0157354
608.172	0.0157664
608.250	0.0156121
608.328	0.0155575
608.406	0.0157327
608.484	0.0158152
608.562	0.0157644
608.640	0.0156559
608.718	0.0156909
608.797	0.0155903
608.875	0.0157103
608.953	0.0155248
609.031	0.0157200
609.109	0.0157570
609.187	0.0156860
609.265	0.0157890
609.343	0.0157478
609.422	0.0157888
609.500	0.0155489
609.578	0.0156274
609.656	0.0157127
609.734	0.0158424
609.812	0.0158685
609.890	0.0157406
609.968	0.0157439
610.047	0.0157796
610.125	0.0157115
610.203	0.0157179
610.281	0.0156322
610.359	0.0155894
610.437	0.0157401
610.515	0.0156605
610.593	0.0155803
610.672	0.0156125
610.750	0.0156219
610.828	0.0157440
610.906	0.0157218
610.984	0.0156541
611.062	0.0157149
611.140	0.0156880
611.218	0.0158136
611.297	0.0156007
611.375	0.0157307
611.453	0.0157160
611.531	0.0156239
611.609	0.0158324
611.687	0.0156614
611.765	0.0156455
611.843	0.0157985
611.922	0.0157983
612.000	0.0157577
612.078	0.0157532
612.156	0.0157401
612.234	0.0158558
612.312	0.0157191
612.390	0.0156752
612.468	0.0157534
612.547	0.0158508
612.625	0.0158940
612.703	0.0157893
612.781	0.0156326
612.859	0.0157034
612.937	0.0158467
613.015	0.0157282
613.093	0.0157298
613.172	0.0158210
613.250	0.0157365
613.328	0.0157113
613.406	0.0157705
613.484	0.0156512
613.562	0.0158103
613.640	0.0158672
613.718	0.0158193
613.797	0.0157568
613.875	0.0158521
613.953	0.0158125
614.031	0.0158059
614.109	0.0158940
614.187	0.0158693
614.265	0.0158366
614.343	0.0158741
614.422	0.0157640
614.500	0.0156625
614.578	0.0158451
614.656	0.0158739
614.734	0.0157343
614.812	0.0156730
614.890	0.0157722
614.968	0.0158482
615.047	0.0158979
615.125	0.0158771
615.203	0.0158760
615.281	0.0157158
615.359	0.0157468
615.437	0.0158942
615.515	0.0158713
615.593	0.0158294
615.672	0.0157884
615.750	0.0159135
615.828	0.0158631
615.906	0.0158264
615.984	0.0158591
616.062	0.0158965
616.140	0.0159119
616.218	0.0158717
616.297	0.0157723
616.375	0.0158874
616.453	0.0158324
616.531	0.0160051
616.609	0.0157163
616.687	0.0158059
616.765	0.0158411
616.843	0.0157827
616.922	0.0159163
617.000	0.0159045
617.078	0.0159033
617.156	0.0158465
617.234	0.0158015
617.312	0.0157906
617.390	0.0159122
617.468	0.0158577
617.547	0.0157419
617.625	0.0159011
617.703	0.0159747
617.781	0.0158234
617.859	0.0157857
617.937	0.0157285
618.015	0.0158410
618.093	0.0158719
618.172	0.0158324
618.250	0.0158665
618.328	0.0158041
618.406	0.0157026
618.484	0.0157090
618.562	0.0159041
618.640	0.0158418
618.718	0.0157886
618.797	0.0155817
618.875	0.0159196
618.953	0.0158441
619.031	0.0157684
619.109	0.0158538
619.187	0.0157821
619.265	0.0157795
619.343	0.0157418
619.422	0.0159143
619.500	0.0158637
619.578	0.0157130
619.656	0.0158544
619.734	0.0159840
619.812	0.0159126
619.890	0.0157355
619.968	0.0158469
620.047	0.0159592
620.125	0.0157587
620.203	0.0157800
620.281	0.0157838
620.359	0.0158578
620.437	0.0158417
620.515	0.0158115
620.593	0.0157413
620.672	0.0159740
620.750	0.0158595
620.828	0.0157992
620.906	0.0157815
620.984	0.0159515
621.062	0.0159535
621.140	0.0157407
621.218	0.0158764
621.297	0.0157590
621.375	0.0158710
621.453	0.0158218
621.531	0.0158871
621.609	0.0158829
621.687	0.0158133
621.765	0.0157743
621.843	0.0157119
621.922	0.0159504
622.000	0.0158582
622.078	0.0157876
622.156	0.0157184
622.234	0.0159657
622.312	0.0158558
622.390	0.0157421
622.468	0.0157901
622.547	0.0157548
622.625	0.0158675
622.703	0.0157926
622.781	0.0157824
622.859	0.0158282
622.937	0.0159166
623.015	0.0159005
623.093	0.0159248
623.172	0.0157619
623.250	0.0158035
623.328	0.0158990
623.406	0.0157994
623.484	0.0157574
623.562	0.0157114
623.640	0.0158750
623.718	0.0158894
623.797	0.0158594
623.875	0.0157973
623.953	0.0158613
624.031	0.0157173
624.109	0.0158486
624.187	0.0158991
624.265	0.0158694
624.343	0.0157767
624.422	0.0158349
624.500	0.0157924
624.578	0.0158810
624.656	0.0157185
624.734	0.0158538
624.812	0.0157076
624.890	0.0157761
624.968	0.0158896
625.047	0.0157710
625.125	0.0159499
625.203	0.0158458
625.281	0.0158897
625.359	0.0157621
625.437	0.0159326
625.515	0.0158606
625.593	0.0158465
625.672	0.0158305
625.750	0.0158118
625.828	0.0159584
625.906	0.0157761
625.984	0.0157460
626.062	0.0158798
626.140	0.0159606
626.218	0.0159216
626.297	0.0157742
626.375	0.0157494
626.453	0.0157981
626.531	0.0158120
626.609	0.0158031
626.687	0.0158038
626.765	0.0156396
626.843	0.0157985
626.922	0.0158200
627.000	0.0158357
627.078	0.0157560
627.156	0.0157679
627.234	0.0159443
627.312	0.0158568
627.390	0.0157724
627.468	0.0158040
627.547	0.0157882
627.625	0.0158441
627.703	0.0157049
627.781	0.0156942
627.859	0.0156741
627.937	0.0157723
628.015	0.0157765
628.093	0.0157690
628.172	0.0158047
628.250	0.0157558
628.328	0.0156471
628.406	0.0156873
628.484	0.0157484
628.562	0.0157096
628.640	0.0158907
628.718	0.0157187
628.797	0.0157880
628.875	0.0157549
628.953	0.0157912
629.031	0.0157921
629.109	0.0156968
629.187	0.0158051
629.265	0.0157842
629.343	0.0157154
629.422	0.0156676
629.500	0.0156733
629.578	0.0157885
629.656	0.0155365
629.734	0.0157130
629.812	0.0158264
629.890	0.0157141
629.968	0.0156807
630.047	0.0157003
630.125	0.0156941
630.203	0.0157427
630.281	0.0156981
630.359	0.0157801
630.437	0.0157661
630.515	0.0157719
630.593	0.0157239
630.672	0.0157095
630.750	0.0156633
630.828	0.0156492
630.906	0.0157063
630.984	0.0158543
631.062	0.0156593
631.140	0.0156657
631.218	0.0158807
631.297	0.0155962
631.375	0.0157023
631.453	0.0158023
631.531	0.0157275
631.609	0.0155539
631.687	0.0155931
631.765	0.0156767
631.843	0.0156861
631.922	0.0157378
632.000	0.0157372
632.078	0.0156320
632.156	0.0155647
632.234	0.0156884
632.312	0.0155933
632.390	0.0157099
632.468	0.0156248
632.547	0.0157443
632.625	0.0157169
632.703	0.0155870
632.781	0.0156917
632.859	0.0156179
632.937	0.0156876
633.015	0.0156567
633.093	0.0156535
633.172	0.0156447
633.250	0.0155859
633.328	0.0156381
633.406	0.0156138
633.484	0.0157458
633.562	0.0156922
633.640	0.0156266
633.718	0.0156991
633.797	0.0157323
633.875	0.0156609
633.953	0.0156146
634.031	0.0156766
634.109	0.0157245
634.187	0.0156999
634.265	0.0155564
634.343	0.0155838
634.422	0.0156836
634.500	0.0156480
634.578	0.0155141
634.656	0.0156392
634.734	0.0156755
634.812	0.0156390
634.890	0.0157157
634.968	0.0156796
635.047	0.0155780
635.125	0.0155981
635.203	0.0157516
635.281	0.0156134
635.359	0.0156544
635.437	0.0155585
635.515	0.0156430
635.593	0.0156353
635.672	0.0155656
635.750	0.0157778
635.828	0.0156090
635.906	0.0156025
635.984	0.0156423
636.062	0.0156361
636.140	0.0156171
636.218	0.0156305
636.297	0.0156617
636.375	0.0156778
636.453	0.0157016
636.531	0.0156621
636.609	0.0157211
636.687	0.0156837
636.765	0.0156190
636.843	0.0157152
636.922	0.0157224
637.000	0.0156008
637.078	0.0157188
637.156	0.0155456
637.234	0.0158359
637.312	0.0156693
637.390	0.0157281
637.468	0.0158109
637.547	0.0157066
637.625	0.0156708
637.703	0.0154931
637.781	0.0156651
637.859	0.0156934
637.937	0.0156137
638.015	0.0155312
638.093	0.0155904
638.172	0.0157655
638.250	0.0157192
638.328	0.0156938
638.406	0.0157346
638.484	0.0157161
638.562	0.0156639
638.640	0.0157961
638.718	0.0156171
638.797	0.0157153
638.875	0.0157513
638.953	0.0156256
639.031	0.0157030
639.109	0.0158044
639.187	0.0156684
639.265	0.0157694
639.343	0.0156607
639.422	0.0156149
639.500	0.0158375
639.578	0.0157796
639.656	0.0156210
639.734	0.0157476
639.812	0.0158588
639.890	0.0156034
639.968	0.0158231
640.047	0.0158227
640.125	0.0157800
640.203	0.0156463
640.281	0.0156670
640.359	0.0157003
640.437	0.0156583
640.515	0.0157360
640.593	0.0157667
640.672	0.0158104
640.750	0.0156879
640.828	0.0157670
640.906	0.0157766
640.984	0.0156647
641.062	0.0158033
641.140	0.0157777
641.218	0.0157128
641.297	0.0157793
641.375	0.0156942
641.453	0.0157449
641.531	0.0158305
641.609	0.0156619
641.687	0.0157977
641.765	0.0158406
641.843	0.0158884
641.922	0.0158421
642.000	0.0157310
642.078	0.0158024
642.156	0.0158739
642.234	0.0159599
642.312	0.0158099
642.390	0.0156056
642.468	0.0158734
642.547	0.0157686
642.625	0.0157882
642.703	0.0156419
642.781	0.0156719
642.859	0.0157203
642.937	0.0157609
643.015	0.0157612
643.093	0.0157211
643.172	0.0159029
643.250	0.0156139
643.328	0.0157179
643.406	0.0157443
643.484	0.0158855
643.562	0.0157526
643.640	0.0156781
643.718	0.0157375
643.797	0.0156660
643.875	0.0157530
643.953	0.0158260
644.031	0.0156860
644.109	0.0157807
644.187	0.0158425
644.265	0.0156443
644.343	0.0156483
644.422	0.0157738
644.500	0.0156396
644.578	0.0156392
644.656	0.0156895
644.734	0.0157327
644.812	0.0157371
644.890	0.0157494
644.968	0.0157308
645.047	0.0157260
645.125	0.0158143
645.203	0.0158324
645.281	0.0157136
645.359	0.0157237
645.437	0.0157163
645.515	0.0158425
645.593	0.0159126
645.672	0.0158011
645.750	0.0158317
645.828	0.0158428
645.906	0.0158985
645.984	0.0157986
646.062	0.0159335
646.140	0.0158153
646.218	0.0158401
646.297	0.0156808
646.375	0.0157835
646.453	0.0158344
646.531	0.0157430
646.609	0.0158821
646.687	0.0157993
646.765	0.0157500
646.843	0.0158160
646.922	0.0158030
647.000	0.0158891
647.078	0.0158293
647.156	0.0157239
647.234	0.0157361
647.312	0.0158356
647.390	0.0159745
647.468	0.0158223
647.547	0.0158466
647.625	0.0158045
647.703	0.0157864
647.781	0.0160276
647.859	0.0159980
647.937	0.0158214
648.015	0.0158546
648.093	0.0157241
648.172	0.0158350
648.250	0.0157880
648.328	0.0157880
648.406	0.0159316
648.484	0.0158959
648.562	0.0157671
648.640	0.0158447
648.718	0.0157929
648.797	0.0158636
648.875	0.0158113
648.953	0.0157883
649.031	0.0157326
649.109	0.0158975
649.187	0.0157218
649.265	0.0158617
649.343	0.0158086
649.422	0.0157441
649.500	0.0157260
649.578	0.0156878
649.656	0.0157894
649.734	0.0157618
649.812	0.0157346
649.890	0.0158279
649.968	0.0157469
650.047	0.0156609
650.125	0.0157988
650.203	0.0157323
650.281	0.0158265
650.359	0.0158269
650.437	0.0157083
650.515	0.0157860
650.593	0.0157615
650.672	0.0157978
650.750	0.0156909
650.828	0.0156797
650.906	0.0158289
650.984	0.0157928
651.062	0.0159145
651.140	0.0158674
651.218	0.0157416
651.297	0.0157062
651.375	0.0157655
651.453	0.0157513
651.531	0.0157532
651.609	0.0157651
651.687	0.0159504
651.765	0.0157980
651.843	0.0157908
651.922	0.0157413
652.000	0.0155798
652.078	0.0157620
652.156	0.0156772
652.234	0.0156548
652.312	0.0155746
652.390	0.0157405
652.468	0.0157813
652.547	0.0157650
652.625	0.0156573
652.703	0.0156381
652.781	0.0158575
652.859	0.0156755
652.937	0.0157604
653.015	0.0156465
653.093	0.0156960
653.172	0.0157189
653.250	0.0157182
653.328	0.0157714
653.406	0.0155611
653.484	0.0158149
653.562	0.0158705
653.640	0.0157440
653.718	0.0157565
653.797	0.0158798
653.875	0.0158502
653.953	0.0157361
654.031	0.0157586
654.109	0.0156968
654.187	0.0157378
654.265	0.0156575
654.343	0.0157632
654.422	0.0156734
654.500	0.0157014
654.578	0.0157471
654.656	0.0157365
654.734	0.0156561
654.812	0.0156596
654.890	0.0158108
654.968	0.0156769
655.047	0.0157684
655.125	0.0157221
655.203	0.0156442
655.281	0.0157014
655.359	0.0157252
655.437	0.0157434
655.515	0.0157612
655.593	0.0156487
655.672	0.0157019
655.750	0.0157748
655.828	0.0157334
655.906	0.0155868
655.984	0.0156994
656.062	0.0156959
656.140	0.0155805
656.218	0.0156585
656.297	0.0156844
656.375	0.0155369
656.453	0.0156239
656.531	0.0156704
656.609	0.0157121
656.687	0.0156136
656.765	0.0156589
656.843	0.0155658
656.922	0.0155668
657.000	0.0155744
657.078	0.0158029
657.156	0.0156191
657.234	0.0155495
657.312	0.0155943
657.390	0.0157500
657.468	0.0155659
657.547	0.0155450
657.625	0.0156470
657.703	0.0156702
657.781	0.0155968
657.859	0.0157063
657.937	0.0155396
658.015	0.0155764
658.093	0.0156503
658.172	0.0157188
658.250	0.0157438
658.328	0.0156435
658.406	0.0156800
658.484	0.0155756
658.562	0.0156221
658.640	0.0156560
658.718	0.0156108
658.797	0.0155779
658.875	0.0156927
658.953	0.0155956
659.031	0.0156577
659.109	0.0156384
659.187	0.0156663
659.265	0.0156868
659.343	0.0156787
659.422	0.0157059
659.500	0.0157288
659.578	0.0157543
659.656	0.0154739
659.734	0.0156947
659.812	0.0157128
659.890	0.0157076
659.968	0.0155501
660.047	0.0156946
660.125	0.0156990
660.203	0.0156811
660.281	0.0156796
660.359	0.0156700
660.437	0.0158386
660.515	0.0157056
660.593	0.0156499
660.672	0.0156760
660.750	0.0158044
660.828	0.0155937
660.906	0.0156723
660.984	0.0157971
661.062	0.0156858
661.140	0.0157021
661.218	0.0157407
661.297	0.0156342
661.375	0.0156636
661.453	0.0157833
661.531	0.0156073
661.609	0.0156520
661.687	0.0156625
661.765	0.0155588
661.843	0.0157502
661.922	0.0156273
662.000	0.0156602
662.078	0.0156111
662.156	0.0157225
662.234	0.0157148
662.312	0.0155854
662.390	0.0156417
662.468	0.0157471
662.547	0.0156818
662.625	0.0157372
662.703	0.0155443
662.781	0.0157359
662.859	0.0156812
662.937	0.0156528
663.015	0.0156621
663.093	0.0157950
663.172	0.0157585
663.250	0.0157302
663.328	0.0157948
663.406	0.0157609
663.484	0.0156979
663.562	0.0156551
663.640	0.0157184
663.718	0.0158067
663.797	0.0157640
663.875	0.0157829
663.953	0.0157830
664.031	0.0157362
664.109	0.0158305
664.187	0.0156852
664.265	0.0155720
664.343	0.0158245
664.422	0.0157010
664.500	0.0156267
664.578	0.0157566
664.656	0.0158099
664.734	0.0157339
664.812	0.0157429
664.890	0.0157467
664.968	0.0158146
665.047	0.0158194
665.125	0.0156486
665.203	0.0158561
665.281	0.0156232
665.359	0.0156265
665.437	0.0156716
665.515	0.0156305
665.593	0.0157673
665.672	0.0156903
665.750	0.0158216
665.828	0.0157473
665.906	0.0157864
665.984	0.0155786
666.062	0.0157430
666.140	0.0156607
666.218	0.0157001
666.297	0.0157725
666.375	0.0157565
666.453	0.0157748
666.531	0.0156354
666.609	0.0157393
666.687	0.0156909
666.765	0.0157670
666.843	0.0158115
666.922	0.0156328
667.000	0.0156175
667.078	0.0157050
667.156	0.0157552
667.234	0.0157037
667.312	0.0157061
667.390	0.0157076
667.468	0.0157423
667.547	0.0158384
667.625	0.0157816
667.703	0.0156385
667.781	0.0158486
667.859	0.0159521
667.937	0.0157908
668.015	0.0158224
668.093	0.0157374
668.172	0.0158230
668.250	0.0157175
668.328	0.0158091
668.406	0.0157723
668.484	0.0158891
668.562	0.0157937
668.640	0.0156519
668.718	0.0158570
668.797	0.0158060
668.875	0.0159246
668.953	0.0157252
669.031	0.0158105
669.109	0.0157549
669.187	0.0157763
669.265	0.0157298
669.343	0.0158162
669.422	0.0158367
669.500	0.0157077
669.578	0.0158282
669.656	0.0157896
669.734	0.0158239
669.812	0.0157307
669.890	0.0158682
669.968	0.0158665
670.047	0.0157544
670.125	0.0158361
670.203	0.0158090
670.281	0.0160063
670.359	0.0158520
670.437	0.0157576
670.515	0.0158102
670.593	0.0158994
670.672	0.0159029
670.750	0.0157362
670.828	0.0156786
670.906	0.0160087
670.984	0.0160797
671.062	0.0158095
671.140	0.0157824
671.218	0.0156757
671.297	0.0158064
671.375	0.0159578
671.453	0.0157938
671.531	0.0157755
671.609	0.0159154
671.687	0.0158908
671.765	0.0158616
671.843	0.0158249
671.922	0.0159328
672.000	0.0158475
672.078	0.0158116
672.156	0.0158524
672.234	0.0156638
672.312	0.0159290
672.390	0.0159174
672.468	0.0158537
672.547	0.0158964
672.625	0.0157247
672.703	0.0158015
672.781	0.0159415
672.859	0.0158294
672.937	0.0159390
673.015	0.0159314
673.093	0.0158229
673.172	0.0160063
673.250	0.0159412
673.328	0.0157983
673.406	0.0159515
673.484	0.0158441
673.562	0.0159194
673.640	0.0158694
673.718	0.0157808
673.797	0.0159507
673.875	0.0159467
673.953	0.0159121
674.031	0.0159196
674.109	0.0159424
674.187	0.0160246
674.265	0.0158321
674.343	0.0158021
674.422	0.0158470
674.500	0.0158830
674.578	0.0158748
674.656	0.0157999
674.734	0.0159735
674.812	0.0158384
674.890	0.0159699
674.968	0.0158187
675.047	0.0159451
675.125	0.0159162
675.203	0.0159174
675.281	0.0158857
675.359	0.0159383
675.437	0.0159182
675.515	0.0159700
675.593	0.0158120
675.672	0.0157795
675.750	0.0157083
675.828	0.0158424
675.906	0.0158558
675.984	0.0159120
676.062	0.0158711
676.140	0.0157995
676.218	0.0158229
676.297	0.0159573
676.375	0.0158356
676.453	0.0156700
676.531	0.0159404
676.609	0.0157391
676.687	0.0158755
676.765	0.0157292
676.843	0.0159062
676.922	0.0158155
677.000	0.0158125
677.078	0.0158266
677.156	0.0159309
677.234	0.0157803
677.312	0.0158241
677.390	0.0157781
677.468	0.0158716
677.547	0.0157607
677.625	0.0157477
677.703	0.0158099
677.781	0.0158481
677.859	0.0158224
677.937	0.0157209
678.015	0.0160562
678.093	0.0159785
678.172	0.0157001
678.250	0.0157788
678.328	0.0158496
678.406	0.0158215
678.484	0.0157004
678.562	0.0157243
678.640	0.0158755
678.718	0.0157408
678.797	0.0158373
678.875	0.0157706
678.953	0.0156523
679.031	0.0157915
679.109	0.0159257
679.187	0.0157797
679.265	0.0156142
679.343	0.0156467
679.422	0.0158418
679.500	0.0157336
679.578	0.0156696
679.656	0.0157151
679.734	0.0160268
679.812	0.0157417
679.890	0.0156923
679.968	0.0157184
680.047	0.0156061
680.125	0.0157363
680.203	0.0157104
680.281	0.0157285
680.359	0.0157664
680.437	0.0156694
680.515	0.0156522
680.593	0.0157426
680.672	0.0157549
680.750	0.0157117
680.828	0.0156706
680.906	0.0157245
680.984	0.0157211
681.062	0.0157144
681.140	0.0155865
681.218	0.0157707
681.297	0.0155898
681.375	0.0156204
681.453	0.0156734
681.531	0.0157402
681.609	0.0155767
681.687	0.0156462
681.765	0.0157158
681.843	0.0157361
681.922	0.0156854
682.000	0.0156958
682.078	0.0157172
682.156	0.0157207
682.234	0.0156759
682.312	0.0156798
682.390	0.0157346
682.468	0.0156224
682.547	0.0156341
682.625	0.0157594
682.703	0.0155750
682.781	0.0156133
682.859	0.0157620
682.937	0.0157855
683.015	0.0157021
683.093	0.0157806
683.172	0.0156733
683.250	0.0157343
683.328	0.0157439
683.406	0.0157758
683.484	0.0156007
683.562	0.0157623
683.640	0.0156554
683.718	0.0157508
683.797	0.0157779
683.875	0.0157661
683.953	0.0156313
684.031	0.0156760
684.109	0.0157306
684.187	0.0158322
684.265	0.0156537
684.343	0.0158737
684.422	0.0158555
684.500	0.0157883
684.578	0.0155545
684.656	0.0157158
684.734	0.0156830
684.812	0.0157442
684.890	0.0157410
684.968	0.0156233
685.047	0.0155909
685.125	0.0157119
685.203	0.0155925
685.281	0.0155935
685.359	0.0156704
685.437	0.0155282
685.515	0.0156244
685.593	0.0158571
685.672	0.0156441
