06/13/2022	15:08:44	Ver.	4.1	UNKNOWN
Optical Delay	599.968395	Delta X		0.078125	Sweeps	1	Scan Rate	0/0
Coordinates	Axis 1	NaN	Axis 2	NaN	Axis 3	NaN	Axis 4	NaN	Axis 5	NaN	Axis 6	0.000000
TX Power	0.000000	RX Power	0.000000

599.968	0.0159391
600.047	0.0159047
600.125	0.0158601
600.203	0.0159332
600.281	0.0160677
600.359	0.0160776
600.437	0.0159474
600.515	0.0159487
600.593	0.0161034
600.672	0.0158171
600.750	0.0160224
600.828	0.0159301
600.906	0.0159616
600.984	0.0159724
601.062	0.0158447
601.140	0.0159831
601.218	0.0158756
601.297	0.0159268
601.375	0.0159648
601.453	0.0159964
601.531	0.0160049
601.609	0.0159947
601.687	0.0159334
601.765	0.0157961
601.843	0.0160083
601.922	0.0158996
602.000	0.0160153
602.078	0.0159775
602.156	0.0160556
602.234	0.0160665
602.312	0.0158887
602.390	0.0160587
602.468	0.0159718
602.547	0.0159705
602.625	0.0159438
602.703	0.0161039
602.781	0.0158952
602.859	0.0159399
602.937	0.0159167
603.015	0.0160310
603.093	0.0160853
603.172	0.0159997
603.250	0.0160497
603.328	0.0159383
603.406	0.0159572
603.484	0.0160550
603.562	0.0159342
603.640	0.0160716
603.718	0.0160020
603.797	0.0159772
603.875	0.0160630
603.953	0.0160917
604.031	0.0159915
604.109	0.0160061
604.187	0.0158832
604.265	0.0159688
604.343	0.0160429
604.422	0.0161608
604.500	0.0159879
604.578	0.0158707
604.656	0.0160312
604.734	0.0161017
604.812	0.0160213
604.890	0.0160780
604.968	0.0159772
605.047	0.0159759
605.125	0.0160971
605.203	0.0160873
605.281	0.0159626
605.359	0.0158934
605.437	0.0160498
605.515	0.0160649
605.593	0.0160066
605.672	0.0160831
605.750	0.0159762
605.828	0.0160736
605.906	0.0160088
605.984	0.0159283
606.062	0.0160292
606.140	0.0159506
606.218	0.0159886
606.297	0.0159923
606.375	0.0159467
606.453	0.0161692
606.531	0.0160759
606.609	0.0159319
606.687	0.0159802
606.765	0.0159917
606.843	0.0159615
606.922	0.0160648
607.000	0.0161588
607.078	0.0161938
607.156	0.0160153
607.234	0.0159585
607.312	0.0160417
607.390	0.0159899
607.468	0.0161010
607.547	0.0162151
607.625	0.0160100
607.703	0.0160754
607.781	0.0159902
607.859	0.0158984
607.937	0.0161498
608.015	0.0159696
608.093	0.0160424
608.172	0.0161131
608.250	0.0160412
608.328	0.0158650
608.406	0.0160615
608.484	0.0160715
608.562	0.0160174
608.640	0.0160072
608.718	0.0160395
608.797	0.0160585
608.875	0.0159306
608.953	0.0159076
609.031	0.0158605
609.109	0.0159786
609.187	0.0161195
609.265	0.0159761
609.343	0.0159624
609.422	0.0159574
609.500	0.0159203
609.578	0.0159853
609.656	0.0159702
609.734	0.0158809
609.812	0.0159937
609.890	0.0160134
609.968	0.0160630
610.047	0.0158962
610.125	0.0160287
610.203	0.0160290
610.281	0.0159876
610.359	0.0159185
610.437	0.0161760
610.515	0.0160545
610.593	0.0160151
610.672	0.0159982
610.750	0.0160162
610.828	0.0160264
610.906	0.0159689
610.984	0.0161417
611.062	0.0159070
611.140	0.0159447
611.218	0.0160826
611.297	0.0160332
611.375	0.0159847
611.453	0.0161868
611.531	0.0160988
611.609	0.0160693
611.687	0.0159879
611.765	0.0159183
611.843	0.0159465
611.922	0.0159222
612.000	0.0159135
612.078	0.0160122
612.156	0.0160158
612.234	0.0160546
612.312	0.0159707
612.390	0.0160223
612.468	0.0160443
612.547	0.0160583
612.625	0.0160995
612.703	0.0159560
612.781	0.0161036
612.859	0.0160359
612.937	0.0161092
613.015	0.0161414
613.093	0.0160574
613.172	0.0160605
613.250	0.0159820
613.328	0.0160390
613.406	0.0160609
613.484	0.0160308
613.562	0.0159618
613.640	0.0159293
613.718	0.0158801
613.797	0.0160982
613.875	0.0160170
613.953	0.0159793
614.031	0.0158896
614.109	0.0160853
614.187	0.0160654
614.265	0.0160423
614.343	0.0159631
614.422	0.0159248
614.500	0.0161114
614.578	0.0160686
614.656	0.0158607
614.734	0.0158617
614.812	0.0160898
614.890	0.0160315
614.968	0.0160082
615.047	0.0159800
615.125	0.0159340
615.203	0.0160036
615.281	0.0159905
615.359	0.0160191
615.437	0.0160204
615.515	0.0159443
615.593	0.0160120
615.672	0.0160767
615.750	0.0159901
615.828	0.0159772
615.906	0.0160452
615.984	0.0160278
616.062	0.0160973
616.140	0.0161020
616.218	0.0160354
616.297	0.0159730
616.375	0.0160182
616.453	0.0160539
616.531	0.0159479
616.609	0.0159183
616.687	0.0159186
616.765	0.0159368
616.843	0.0159937
616.922	0.0160524
617.000	0.0161459
617.078	0.0159821
617.156	0.0158818
617.234	0.0159711
617.312	0.0160624
617.390	0.0160249
617.468	0.0160176
617.547	0.0158811
617.625	0.0158519
617.703	0.0159102
617.781	0.0159187
617.859	0.0159339
617.937	0.0158087
618.015	0.0159715
618.093	0.0160120
618.172	0.0159496
618.250	0.0159261
618.328	0.0160092
618.406	0.0159119
618.484	0.0159496
618.562	0.0159875
618.640	0.0159525
618.718	0.0158861
618.797	0.0160163
618.875	0.0159132
618.953	0.0158192
619.031	0.0158075
619.109	0.0159718
619.187	0.0159589
619.265	0.0159130
619.343	0.0158401
619.422	0.0160176
619.500	0.0159232
619.578	0.0157874
619.656	0.0159637
619.734	0.0159498
619.812	0.0159653
619.890	0.0159142
619.968	0.0159266
620.047	0.0158385
620.125	0.0159202
620.203	0.0159808
620.281	0.0158778
620.359	0.0158336
620.437	0.0158170
620.515	0.0157911
620.593	0.0159873
620.672	0.0159644
620.750	0.0158713
620.828	0.0158228
620.906	0.0159177
620.984	0.0159622
621.062	0.0158590
621.140	0.0159031
621.218	0.0158704
621.297	0.0159045
621.375	0.0158070
621.453	0.0158089
621.531	0.0159769
621.609	0.0160587
621.687	0.0158317
621.765	0.0160427
621.843	0.0159879
621.922	0.0158884
622.000	0.0160495
622.078	0.0159313
622.156	0.0159203
622.234	0.0158734
622.312	0.0158392
622.390	0.0159169
622.468	0.0157890
622.547	0.0158090
622.625	0.0160015
622.703	0.0159110
622.781	0.0158740
622.859	0.0159641
622.937	0.0159639
623.015	0.0160382
623.093	0.0160267
623.172	0.0159381
623.250	0.0160284
623.328	0.0158971
623.406	0.0159538
623.484	0.0159035
623.562	0.0158910
623.640	0.0160934
623.718	0.0160250
623.797	0.0159852
623.875	0.0160856
623.953	0.0158293
624.031	0.0159835
624.109	0.0160181
624.187	0.0159274
624.265	0.0159409
624.343	0.0159034
624.422	0.0158791
624.500	0.0160173
624.578	0.0159969
624.656	0.0157407
624.734	0.0157812
624.812	0.0158047
624.890	0.0160590
624.968	0.0159790
625.047	0.0159151
625.125	0.0159254
625.203	0.0159215
625.281	0.0158673
625.359	0.0159591
625.437	0.0159486
625.515	0.0158750
625.593	0.0158678
625.672	0.0158633
625.750	0.0160108
625.828	0.0157771
625.906	0.0159091
625.984	0.0159413
626.062	0.0158778
626.140	0.0157790
626.218	0.0159855
626.297	0.0159647
626.375	0.0159417
626.453	0.0158320
626.531	0.0158250
626.609	0.0157922
626.687	0.0159358
626.765	0.0159889
626.843	0.0160517
626.922	0.0158818
627.000	0.0159740
627.078	0.0158591
627.156	0.0159364
627.234	0.0159820
627.312	0.0160172
627.390	0.0159583
627.468	0.0159789
627.547	0.0159364
627.625	0.0159535
627.703	0.0160004
627.781	0.0160097
627.859	0.0159254
627.937	0.0159862
628.015	0.0159704
628.093	0.0160336
628.172	0.0159879
628.250	0.0160017
628.328	0.0159630
628.406	0.0159158
628.484	0.0160003
628.562	0.0158693
628.640	0.0160275
628.718	0.0158633
628.797	0.0160671
628.875	0.0160175
628.953	0.0160547
629.031	0.0160076
629.109	0.0158896
629.187	0.0160955
629.265	0.0159270
629.343	0.0159518
629.422	0.0160123
629.500	0.0159837
629.578	0.0160305
629.656	0.0160967
629.734	0.0160720
629.812	0.0159879
629.890	0.0158282
629.968	0.0160165
630.047	0.0160011
630.125	0.0160126
630.203	0.0159358
630.281	0.0160514
630.359	0.0160454
630.437	0.0160677
630.515	0.0159991
630.593	0.0160767
630.672	0.0160612
630.750	0.0159763
630.828	0.0160352
630.906	0.0161628
630.984	0.0160410
631.062	0.0159982
631.140	0.0159863
631.218	0.0160502
631.297	0.0159675
631.375	0.0161492
631.453	0.0161913
631.531	0.0160336
631.609	0.0160044
631.687	0.0160320
631.765	0.0161246
631.843	0.0161044
631.922	0.0159883
632.000	0.0160594
632.078	0.0159844
632.156	0.0159900
632.234	0.0161860
632.312	0.0159897
632.390	0.0159355
632.468	0.0159931
632.547	0.0161581
632.625	0.0160008
632.703	0.0159598
632.781	0.0160585
632.859	0.0160639
632.937	0.0160099
633.015	0.0159951
633.093	0.0159506
633.172	0.0160403
633.250	0.0160802
633.328	0.0161373
633.406	0.0160648
633.484	0.0160451
633.562	0.0159437
633.640	0.0160204
633.718	0.0160830
633.797	0.0160953
633.875	0.0161658
633.953	0.0161507
634.031	0.0160605
634.109	0.0160757
634.187	0.0159697
634.265	0.0161536
634.343	0.0159569
634.422	0.0160438
634.500	0.0160833
634.578	0.0159625
634.656	0.0160313
634.734	0.0160495
634.812	0.0159973
634.890	0.0161134
634.968	0.0161788
635.047	0.0161411
635.125	0.0160151
635.203	0.0159756
635.281	0.0160043
635.359	0.0161587
635.437	0.0159384
635.515	0.0160124
635.593	0.0161024
635.672	0.0161097
635.750	0.0160815
635.828	0.0161536
635.906	0.0159956
635.984	0.0159835
636.062	0.0160976
636.140	0.0160225
636.218	0.0160028
636.297	0.0160092
636.375	0.0159808
636.453	0.0161041
636.531	0.0159612
636.609	0.0161063
636.687	0.0160829
636.765	0.0160610
636.843	0.0161112
636.922	0.0160005
637.000	0.0159537
637.078	0.0162526
637.156	0.0160758
637.234	0.0160412
637.312	0.0162096
637.390	0.0159082
637.468	0.0160350
637.547	0.0160281
637.625	0.0159957
637.703	0.0160509
637.781	0.0160239
637.859	0.0161140
637.937	0.0160598
638.015	0.0159966
638.093	0.0159698
638.172	0.0161248
638.250	0.0160160
638.328	0.0158720
638.406	0.0160202
638.484	0.0160834
638.562	0.0161622
638.640	0.0159552
638.718	0.0160516
638.797	0.0159660
638.875	0.0160024
638.953	0.0159840
639.031	0.0161156
639.109	0.0160287
639.187	0.0159761
639.265	0.0160562
639.343	0.0160916
639.422	0.0158414
639.500	0.0160270
639.578	0.0160641
639.656	0.0160386
639.734	0.0160972
639.812	0.0159203
639.890	0.0160088
639.968	0.0161604
640.047	0.0160932
640.125	0.0159339
640.203	0.0159827
640.281	0.0160046
640.359	0.0159768
640.437	0.0160847
640.515	0.0159901
640.593	0.0160248
640.672	0.0159450
640.750	0.0159164
640.828	0.0159866
640.906	0.0159811
640.984	0.0160447
641.062	0.0160102
641.140	0.0159354
641.218	0.0160147
641.297	0.0159757
641.375	0.0159356
641.453	0.0159657
641.531	0.0160280
641.609	0.0160082
641.687	0.0159413
641.765	0.0160879
641.843	0.0160949
641.922	0.0159443
642.000	0.0159095
642.078	0.0159863
642.156	0.0159798
642.234	0.0160117
642.312	0.0159109
642.390	0.0160328
642.468	0.0158630
642.547	0.0159068
642.625	0.0159631
642.703	0.0160310
642.781	0.0157982
642.859	0.0159587
642.937	0.0160850
643.015	0.0160098
643.093	0.0160358
643.172	0.0158517
643.250	0.0161469
643.328	0.0160270
643.406	0.0159278
643.484	0.0160089
643.562	0.0160040
643.640	0.0160075
643.718	0.0158824
643.797	0.0159853
643.875	0.0158956
643.953	0.0159937
644.031	0.0158958
644.109	0.0157832
644.187	0.0160580
644.265	0.0158026
644.343	0.0159155
644.422	0.0159327
644.500	0.0160843
644.578	0.0160930
644.656	0.0160236
644.734	0.0159814
644.812	0.0158958
644.890	0.0158904
644.968	0.0158562
645.047	0.0160548
645.125	0.0159000
645.203	0.0159809
645.281	0.0157953
645.359	0.0158068
645.437	0.0159130
645.515	0.0159301
645.593	0.0157390
645.672	0.0159498
645.750	0.0159582
645.828	0.0158823
645.906	0.0159768
645.984	0.0161031
646.062	0.0158682
646.140	0.0159347
646.218	0.0159565
646.297	0.0159528
646.375	0.0159472
646.453	0.0159006
646.531	0.0159151
646.609	0.0159707
646.687	0.0160315
646.765	0.0160066
646.843	0.0158237
646.922	0.0159576
647.000	0.0159385
647.078	0.0160394
647.156	0.0159782
647.234	0.0158730
647.312	0.0159756
647.390	0.0160470
647.468	0.0157299
647.547	0.0159504
647.625	0.0158328
647.703	0.0159285
647.781	0.0160019
647.859	0.0159354
647.937	0.0159215
648.015	0.0158892
648.093	0.0158696
648.172	0.0158808
648.250	0.0158045
648.328	0.0157859
648.406	0.0158369
648.484	0.0159375
648.562	0.0157909
648.640	0.0158801
648.718	0.0157489
648.797	0.0158128
648.875	0.0159337
648.953	0.0159873
649.031	0.0159170
649.109	0.0158112
649.187	0.0159032
649.265	0.0159139
649.343	0.0159608
649.422	0.0159660
649.500	0.0158852
649.578	0.0158865
649.656	0.0159804
649.734	0.0158883
649.812	0.0158855
649.890	0.0159597
649.968	0.0158885
650.047	0.0158340
650.125	0.0159821
650.203	0.0159625
650.281	0.0158183
650.359	0.0159140
650.437	0.0159161
650.515	0.0159865
650.593	0.0159220
650.672	0.0158778
650.750	0.0159070
650.828	0.0159686
650.906	0.0157481
650.984	0.0158250
651.062	0.0158444
651.140	0.0158703
651.218	0.0158479
651.297	0.0158150
651.375	0.0159174
651.453	0.0158967
651.531	0.0157742
651.609	0.0159254
651.687	0.0159878
651.765	0.0159272
651.843	0.0160426
651.922	0.0158372
652.000	0.0159288
652.078	0.0159242
652.156	0.0159886
652.234	0.0160245
652.312	0.0159830
652.390	0.0160331
652.468	0.0159050
652.547	0.0159071
652.625	0.0160029
652.703	0.0158691
652.781	0.0160772
652.859	0.0160757
652.937	0.0159472
653.015	0.0157950
653.093	0.0159363
653.172	0.0158770
653.250	0.0159468
653.328	0.0158873
653.406	0.0160545
653.484	0.0159377
653.562	0.0160093
653.640	0.0160262
653.718	0.0158752
653.797	0.0159714
653.875	0.0158889
653.953	0.0159541
654.031	0.0159941
654.109	0.0160275
654.187	0.0161058
654.265	0.0161092
654.343	0.0161266
654.422	0.0161177
654.500	0.0160329
654.578	0.0160428
654.656	0.0160980
654.734	0.0160570
654.812	0.0159880
654.890	0.0160564
654.968	0.0161460
655.047	0.0159525
655.125	0.0160120
655.203	0.0160896
655.281	0.0160545
655.359	0.0161696
655.437	0.0159867
655.515	0.0160870
655.593	0.0161042
655.672	0.0160837
655.750	0.0160913
655.828	0.0160416
655.906	0.0160006
655.984	0.0160715
656.062	0.0160501
656.140	0.0160997
656.218	0.0160477
656.297	0.0159872
656.375	0.0159742
656.453	0.0160221
656.531	0.0161414
656.609	0.0159371
656.687	0.0160916
656.765	0.0161378
656.843	0.0161331
656.922	0.0160432
657.000	0.0159789
657.078	0.0159641
657.156	0.0161005
657.234	0.0161908
657.312	0.0160823
657.390	0.0160209
657.468	0.0161653
657.547	0.0161230
657.625	0.0160884
657.703	0.0160648
657.781	0.0160567
657.859	0.0160990
657.937	0.0160240
658.015	0.0161574
658.093	0.0161176
658.172	0.0161178
658.250	0.0159906
658.328	0.0159997
658.406	0.0161196
658.484	0.0160200
658.562	0.0160492
658.640	0.0161172
658.718	0.0160177
658.797	0.0160780
658.875	0.0160992
658.953	0.0161076
659.031	0.0159539
659.109	0.0160789
659.187	0.0160630
659.265	0.0160391
659.343	0.0160056
659.422	0.0161703
659.500	0.0160585
659.578	0.0160320
659.656	0.0162151
659.734	0.0160363
659.812	0.0160435
659.890	0.0160736
659.968	0.0161046
660.047	0.0160817
660.125	0.0161785
660.203	0.0160979
660.281	0.0160028
660.359	0.0159614
660.437	0.0161893
660.515	0.0161681
660.593	0.0160912
660.672	0.0161345
660.750	0.0162239
660.828	0.0160938
660.906	0.0160307
660.984	0.0162597
661.062	0.0161552
661.140	0.0161675
661.218	0.0159618
661.297	0.0160609
661.375	0.0161615
661.453	0.0160514
661.531	0.0159895
661.609	0.0160786
661.687	0.0162308
661.765	0.0162746
661.843	0.0160860
661.922	0.0160686
662.000	0.0161957
662.078	0.0162096
662.156	0.0159966
662.234	0.0160768
662.312	0.0160741
662.390	0.0161828
662.468	0.0160724
662.547	0.0160066
662.625	0.0160596
662.703	0.0161463
662.781	0.0159868
662.859	0.0160831
662.937	0.0161542
663.015	0.0160585
663.093	0.0161687
663.172	0.0160408
663.250	0.0159738
663.328	0.0160204
663.406	0.0161009
663.484	0.0160872
663.562	0.0161010
663.640	0.0162565
663.718	0.0160676
663.797	0.0160501
663.875	0.0160257
663.953	0.0160184
664.031	0.0160347
664.109	0.0161242
664.187	0.0161404
664.265	0.0160870
664.343	0.0161802
664.422	0.0161008
664.500	0.0159995
664.578	0.0159765
664.656	0.0160307
664.734	0.0160154
664.812	0.0159564
664.890	0.0160970
664.968	0.0161507
665.047	0.0161140
665.125	0.0159081
665.203	0.0160609
665.281	0.0160091
665.359	0.0160924
665.437	0.0159829
665.515	0.0160585
665.593	0.0160461
665.672	0.0160898
665.750	0.0159575
665.828	0.0160377
665.906	0.0161694
665.984	0.0160182
666.062	0.0160960
666.140	0.0159392
666.218	0.0160146
666.297	0.0160770
666.375	0.0160369
666.453	0.0160256
666.531	0.0160378
666.609	0.0160044
666.687	0.0161238
666.765	0.0160816
666.843	0.0160213
666.922	0.0159117
667.000	0.0159597
667.078	0.0160789
667.156	0.0160467
667.234	0.0160340
667.312	0.0159515
667.390	0.0161108
667.468	0.0159199
667.547	0.0160643
667.625	0.0160328
667.703	0.0159943
667.781	0.0160206
667.859	0.0160686
667.937	0.0161809
668.015	0.0159554
668.093	0.0160477
668.172	0.0160370
668.250	0.0160733
668.328	0.0160107
668.406	0.0160791
668.484	0.0160699
668.562	0.0160191
668.640	0.0159166
668.718	0.0159640
668.797	0.0161214
668.875	0.0160138
668.953	0.0159956
669.031	0.0160534
669.109	0.0160182
669.187	0.0160963
669.265	0.0160215
669.343	0.0159793
669.422	0.0159831
669.500	0.0159551
669.578	0.0159203
669.656	0.0159766
669.734	0.0160191
669.812	0.0159698
669.890	0.0160036
669.968	0.0162296
670.047	0.0159982
670.125	0.0159814
670.203	0.0160606
670.281	0.0158973
670.359	0.0160200
670.437	0.0159470
670.515	0.0160393
670.593	0.0160080
670.672	0.0160496
670.750	0.0159288
670.828	0.0159398
670.906	0.0160332
670.984	0.0159738
671.062	0.0159867
671.140	0.0159306
671.218	0.0159015
671.297	0.0158891
671.375	0.0158829
671.453	0.0158620
671.531	0.0158847
671.609	0.0159779
671.687	0.0158258
671.765	0.0159527
671.843	0.0159209
671.922	0.0158666
672.000	0.0157897
672.078	0.0158713
672.156	0.0157649
672.234	0.0159344
672.312	0.0158675
672.390	0.0158389
672.468	0.0156503
672.547	0.0157767
672.625	0.0159155
672.703	0.0158920
672.781	0.0158170
672.859	0.0158628
672.937	0.0157890
673.015	0.0158253
673.093	0.0159007
673.172	0.0159161
673.250	0.0158531
673.328	0.0159286
673.406	0.0158812
673.484	0.0159473
673.562	0.0158150
673.640	0.0158646
673.718	0.0158407
673.797	0.0159116
673.875	0.0157477
673.953	0.0159177
674.031	0.0158073
674.109	0.0157808
674.187	0.0157971
674.265	0.0157455
674.343	0.0157547
674.422	0.0158070
674.500	0.0157496
674.578	0.0158008
674.656	0.0158746
674.734	0.0158076
674.812	0.0158477
674.890	0.0158389
674.968	0.0157641
675.047	0.0158036
675.125	0.0158532
675.203	0.0158755
675.281	0.0157954
675.359	0.0158990
675.437	0.0158364
675.515	0.0158059
675.593	0.0157785
675.672	0.0158163
675.750	0.0158015
675.828	0.0157600
675.906	0.0158347
675.984	0.0158302
676.062	0.0159503
676.140	0.0158385
676.218	0.0158722
676.297	0.0157716
676.375	0.0158530
676.453	0.0159901
676.531	0.0157206
676.609	0.0158564
676.687	0.0158956
676.765	0.0158146
676.843	0.0158314
676.922	0.0157630
677.000	0.0157871
677.078	0.0159034
677.156	0.0159082
677.234	0.0159986
677.312	0.0159234
677.390	0.0156917
677.468	0.0157871
677.547	0.0159325
677.625	0.0157575
677.703	0.0158885
677.781	0.0158384
677.859	0.0158933
677.937	0.0157527
678.015	0.0159063
678.093	0.0157099
678.172	0.0159470
678.250	0.0158071
678.328	0.0157130
678.406	0.0158742
678.484	0.0158329
678.562	0.0159776
678.640	0.0159561
678.718	0.0157912
678.797	0.0159127
678.875	0.0158288
678.953	0.0157116
679.031	0.0159658
679.109	0.0159185
679.187	0.0158562
679.265	0.0159610
679.343	0.0158907
679.422	0.0160247
679.500	0.0159674
679.578	0.0158509
679.656	0.0159285
679.734	0.0160504
679.812	0.0158585
679.890	0.0158820
679.968	0.0160271
680.047	0.0159650
680.125	0.0158855
680.203	0.0159061
680.281	0.0160415
680.359	0.0159243
680.437	0.0159613
680.515	0.0160000
680.593	0.0160012
680.672	0.0160405
680.750	0.0160185
680.828	0.0159184
680.906	0.0160248
680.984	0.0160387
681.062	0.0159417
681.140	0.0159986
681.218	0.0159274
681.297	0.0161564
681.375	0.0162617
681.453	0.0159866
681.531	0.0161127
681.609	0.0160717
681.687	0.0160715
681.765	0.0160825
681.843	0.0160413
681.922	0.0160735
682.000	0.0160825
682.078	0.0161956
682.156	0.0160005
682.234	0.0161089
682.312	0.0162637
682.390	0.0161647
682.468	0.0160217
682.547	0.0159986
682.625	0.0159022
682.703	0.0160435
682.781	0.0161362
682.859	0.0161911
682.937	0.0160104
683.015	0.0160944
683.093	0.0161144
683.172	0.0161240
683.250	0.0160891
683.328	0.0161098
683.406	0.0160448
683.484	0.0161513
683.562	0.0161067
683.640	0.0160446
683.718	0.0161853
683.797	0.0160311
683.875	0.0161068
683.953	0.0161977
684.031	0.0159792
684.109	0.0160450
684.187	0.0160332
684.265	0.0160493
684.343	0.0160035
684.422	0.0159736
684.500	0.0162221
684.578	0.0161810
684.656	0.0161021
684.734	0.0160162
684.812	0.0160386
684.890	0.0160661
684.968	0.0160142
685.047	0.0160178
685.125	0.0160980
685.203	0.0159621
685.281	0.0159930
685.359	0.0160089
685.437	0.0162363
685.515	0.0160453
685.593	0.0160790
685.672	0.0159800
