06/13/2022	14:31:12	Ver.	4.1	UNKNOWN
Optical Delay	599.968395	Delta X		0.078125	Sweeps	1	Scan Rate	0/0
Coordinates	Axis 1	NaN	Axis 2	NaN	Axis 3	NaN	Axis 4	NaN	Axis 5	NaN	Axis 6	0.000000
TX Power	0.000000	RX Power	0.000000

599.968	0.0160225
600.047	0.0160591
600.125	0.0159573
600.203	0.0159947
600.281	0.0160469
600.359	0.0161102
600.437	0.0159885
600.515	0.0159470
600.593	0.0159138
600.672	0.0159323
600.750	0.0160258
600.828	0.0160144
600.906	0.0160081
600.984	0.0160760
601.062	0.0159295
601.140	0.0159824
601.218	0.0159370
601.297	0.0158876
601.375	0.0159398
601.453	0.0159615
601.531	0.0159064
601.609	0.0160934
601.687	0.0161052
601.765	0.0160620
601.843	0.0159919
601.922	0.0159950
602.000	0.0158544
602.078	0.0160089
602.156	0.0162263
602.234	0.0160924
602.312	0.0158745
602.390	0.0161047
602.468	0.0159716
602.547	0.0161066
602.625	0.0160750
602.703	0.0161219
602.781	0.0160332
602.859	0.0160702
602.937	0.0159972
603.015	0.0160213
603.093	0.0160183
603.172	0.0159883
603.250	0.0158760
603.328	0.0160651
603.406	0.0161678
603.484	0.0160101
603.562	0.0159945
603.640	0.0160503
603.718	0.0159572
603.797	0.0160205
603.875	0.0159767
603.953	0.0160251
604.031	0.0160648
604.109	0.0159003
604.187	0.0158968
604.265	0.0159152
604.343	0.0160538
604.422	0.0160516
604.500	0.0160179
604.578	0.0159857
604.656	0.0160957
604.734	0.0159132
604.812	0.0161074
604.890	0.0159655
604.968	0.0159567
605.047	0.0160433
605.125	0.0159303
605.203	0.0160870
605.281	0.0159686
605.359	0.0160431
605.437	0.0159775
605.515	0.0159122
605.593	0.0159826
605.672	0.0159820
605.750	0.0159972
605.828	0.0160902
605.906	0.0160303
605.984	0.0159856
606.062	0.0159541
606.140	0.0160585
606.218	0.0158887
606.297	0.0159240
606.375	0.0160061
606.453	0.0160262
606.531	0.0161187
606.609	0.0159641
606.687	0.0159917
606.765	0.0160976
606.843	0.0159393
606.922	0.0159331
607.000	0.0160988
607.078	0.0159020
607.156	0.0159552
607.234	0.0160923
607.312	0.0160948
607.390	0.0159763
607.468	0.0160278
607.547	0.0160112
607.625	0.0159961
607.703	0.0159129
607.781	0.0160804
607.859	0.0160240
607.937	0.0159276
608.015	0.0160141
608.093	0.0159412
608.172	0.0159572
608.250	0.0159646
608.328	0.0159599
608.406	0.0159958
608.484	0.0160225
608.562	0.0159411
608.640	0.0160409
608.718	0.0160278
608.797	0.0160672
608.875	0.0159340
608.953	0.0159969
609.031	0.0161066
609.109	0.0159502
609.187	0.0159463
609.265	0.0161469
609.343	0.0160569
609.422	0.0159976
609.500	0.0160744
609.578	0.0160970
609.656	0.0159911
609.734	0.0159649
609.812	0.0158920
609.890	0.0159843
609.968	0.0159665
610.047	0.0161264
610.125	0.0159515
610.203	0.0159970
610.281	0.0160180
610.359	0.0159317
610.437	0.0160453
610.515	0.0159400
610.593	0.0159978
610.672	0.0160213
610.750	0.0159356
610.828	0.0159243
610.906	0.0161289
610.984	0.0160883
611.062	0.0158981
611.140	0.0160106
611.218	0.0160306
611.297	0.0159352
611.375	0.0160001
611.453	0.0160087
611.531	0.0160014
611.609	0.0159763
611.687	0.0160435
611.765	0.0160088
611.843	0.0159714
611.922	0.0159760
612.000	0.0161228
612.078	0.0159061
612.156	0.0159919
612.234	0.0161355
612.312	0.0159422
612.390	0.0160488
612.468	0.0159708
612.547	0.0161248
612.625	0.0161158
612.703	0.0160713
612.781	0.0160957
612.859	0.0160219
612.937	0.0158990
613.015	0.0161506
613.093	0.0160043
613.172	0.0160069
613.250	0.0160297
613.328	0.0159829
613.406	0.0159978
613.484	0.0160164
613.562	0.0159698
613.640	0.0161080
613.718	0.0160614
613.797	0.0159432
613.875	0.0159629
613.953	0.0160858
614.031	0.0158755
614.109	0.0159222
614.187	0.0160638
614.265	0.0160703
614.343	0.0160269
614.422	0.0160138
614.500	0.0160180
614.578	0.0160780
614.656	0.0160489
614.734	0.0160931
614.812	0.0160484
614.890	0.0159333
614.968	0.0159715
615.047	0.0158999
615.125	0.0159725
615.203	0.0160470
615.281	0.0160696
615.359	0.0159958
615.437	0.0160574
615.515	0.0159612
615.593	0.0158475
615.672	0.0160835
615.750	0.0160168
615.828	0.0158167
615.906	0.0159517
615.984	0.0159153
616.062	0.0158982
616.140	0.0161788
616.218	0.0160790
616.297	0.0159726
616.375	0.0160802
616.453	0.0160229
616.531	0.0158655
616.609	0.0158854
616.687	0.0161140
616.765	0.0159962
616.843	0.0159972
616.922	0.0158591
617.000	0.0159118
617.078	0.0161289
617.156	0.0160291
617.234	0.0159974
617.312	0.0160694
617.390	0.0160440
617.468	0.0160327
617.547	0.0159138
617.625	0.0160100
617.703	0.0161593
617.781	0.0160320
617.859	0.0159721
617.937	0.0160254
618.015	0.0160580
618.093	0.0160316
618.172	0.0158254
618.250	0.0159602
618.328	0.0160374
618.406	0.0160040
618.484	0.0159069
618.562	0.0160500
618.640	0.0160045
618.718	0.0159600
618.797	0.0160285
618.875	0.0161386
618.953	0.0161180
619.031	0.0160020
619.109	0.0158481
619.187	0.0159433
619.265	0.0159435
619.343	0.0159897
619.422	0.0160490
619.500	0.0160546
619.578	0.0160103
619.656	0.0159173
619.734	0.0159230
619.812	0.0160693
619.890	0.0160899
619.968	0.0160102
620.047	0.0159363
620.125	0.0160664
620.203	0.0159642
620.281	0.0159662
620.359	0.0158720
620.437	0.0160502
620.515	0.0160160
620.593	0.0159390
620.672	0.0160634
620.750	0.0160061
620.828	0.0161047
620.906	0.0159235
620.984	0.0159098
621.062	0.0160680
621.140	0.0160120
621.218	0.0159280
621.297	0.0160646
621.375	0.0160339
621.453	0.0160166
621.531	0.0160184
621.609	0.0159854
621.687	0.0159516
621.765	0.0159579
621.843	0.0159490
621.922	0.0160359
622.000	0.0160516
622.078	0.0159463
622.156	0.0159985
622.234	0.0160535
622.312	0.0159888
622.390	0.0159042
622.468	0.0158347
622.547	0.0160036
622.625	0.0159908
622.703	0.0159138
622.781	0.0159690
622.859	0.0160637
622.937	0.0159032
623.015	0.0160358
623.093	0.0159198
623.172	0.0158690
623.250	0.0159587
623.328	0.0159597
623.406	0.0160745
623.484	0.0160033
623.562	0.0160278
623.640	0.0160158
623.718	0.0159483
623.797	0.0159611
623.875	0.0160120
623.953	0.0159696
624.031	0.0159229
624.109	0.0161071
624.187	0.0160647
624.265	0.0160901
624.343	0.0160086
624.422	0.0159444
624.500	0.0160387
624.578	0.0159518
624.656	0.0160473
624.734	0.0160048
624.812	0.0158935
624.890	0.0160242
624.968	0.0160238
625.047	0.0161243
625.125	0.0159870
625.203	0.0160567
625.281	0.0159299
625.359	0.0160540
625.437	0.0161462
625.515	0.0160806
625.593	0.0160110
625.672	0.0159273
625.750	0.0160091
625.828	0.0160358
625.906	0.0161254
625.984	0.0162120
626.062	0.0159583
626.140	0.0160954
626.218	0.0160715
626.297	0.0159167
626.375	0.0159381
626.453	0.0159946
626.531	0.0159668
626.609	0.0158296
626.687	0.0160202
626.765	0.0160381
626.843	0.0158772
626.922	0.0159807
627.000	0.0161566
627.078	0.0160349
627.156	0.0159784
627.234	0.0159330
627.312	0.0159981
627.390	0.0159995
627.468	0.0159522
627.547	0.0159664
627.625	0.0159709
627.703	0.0159588
627.781	0.0159598
627.859	0.0159397
627.937	0.0161156
628.015	0.0162694
628.093	0.0161855
628.172	0.0159914
628.250	0.0159077
628.328	0.0160429
628.406	0.0160073
628.484	0.0159165
628.562	0.0159203
628.640	0.0160369
628.718	0.0160495
628.797	0.0159940
628.875	0.0159357
628.953	0.0159127
629.031	0.0161377
629.109	0.0160141
629.187	0.0161246
629.265	0.0160586
629.343	0.0159361
629.422	0.0160036
629.500	0.0160300
629.578	0.0160112
629.656	0.0161214
629.734	0.0159875
629.812	0.0159818
629.890	0.0161275
629.968	0.0160401
630.047	0.0159651
630.125	0.0159573
630.203	0.0160409
630.281	0.0159641
630.359	0.0160172
630.437	0.0160133
630.515	0.0159520
630.593	0.0159553
630.672	0.0160118
630.750	0.0160273
630.828	0.0160915
630.906	0.0159774
630.984	0.0159367
631.062	0.0159938
631.140	0.0160073
631.218	0.0159217
631.297	0.0158387
631.375	0.0159087
631.453	0.0158882
631.531	0.0159402
631.609	0.0161155
631.687	0.0159794
631.765	0.0159969
631.843	0.0159470
631.922	0.0160137
632.000	0.0159621
632.078	0.0159808
632.156	0.0160457
632.234	0.0160039
632.312	0.0160191
632.390	0.0159668
632.468	0.0158984
632.547	0.0159838
632.625	0.0159642
632.703	0.0160007
632.781	0.0160245
632.859	0.0158941
632.937	0.0159538
633.015	0.0158787
633.093	0.0159726
633.172	0.0161178
633.250	0.0160154
633.328	0.0160939
633.406	0.0160667
633.484	0.0159123
633.562	0.0159538
633.640	0.0160518
633.718	0.0160081
633.797	0.0159880
633.875	0.0159270
633.953	0.0160652
634.031	0.0160651
634.109	0.0159874
634.187	0.0160038
634.265	0.0160426
634.343	0.0160245
634.422	0.0161105
634.500	0.0160201
634.578	0.0159220
634.656	0.0160373
634.734	0.0159740
634.812	0.0159821
634.890	0.0160851
634.968	0.0160909
635.047	0.0159011
635.125	0.0159429
635.203	0.0160976
635.281	0.0159164
635.359	0.0159351
635.437	0.0159364
635.515	0.0160725
635.593	0.0159599
635.672	0.0160150
635.750	0.0161287
635.828	0.0160309
635.906	0.0160642
635.984	0.0161140
636.062	0.0159593
636.140	0.0159564
636.218	0.0160883
636.297	0.0160633
636.375	0.0161455
636.453	0.0160242
636.531	0.0160086
636.609	0.0160000
636.687	0.0160386
636.765	0.0160654
636.843	0.0160821
636.922	0.0160209
637.000	0.0160498
637.078	0.0160371
637.156	0.0159147
637.234	0.0160020
637.312	0.0160286
637.390	0.0160979
637.468	0.0160601
637.547	0.0160718
637.625	0.0158976
637.703	0.0160143
637.781	0.0160593
637.859	0.0160265
637.937	0.0159810
638.015	0.0160777
638.093	0.0159975
638.172	0.0160771
638.250	0.0159457
638.328	0.0158645
638.406	0.0159801
638.484	0.0159869
638.562	0.0159461
638.640	0.0160780
638.718	0.0160059
638.797	0.0159027
638.875	0.0159679
638.953	0.0160838
639.031	0.0160009
639.109	0.0160772
639.187	0.0160849
639.265	0.0161017
639.343	0.0159827
639.422	0.0159494
639.500	0.0160656
639.578	0.0159930
639.656	0.0160349
639.734	0.0160001
639.812	0.0159645
639.890	0.0159187
639.968	0.0160660
640.047	0.0159894
640.125	0.0160370
640.203	0.0159710
640.281	0.0159980
640.359	0.0161295
640.437	0.0160904
640.515	0.0159767
640.593	0.0160577
640.672	0.0159613
640.750	0.0158657
640.828	0.0159711
640.906	0.0160015
640.984	0.0160062
641.062	0.0159109
641.140	0.0160902
641.218	0.0160407
641.297	0.0160764
641.375	0.0160415
641.453	0.0161522
641.531	0.0161931
641.609	0.0159923
641.687	0.0160961
641.765	0.0159197
641.843	0.0159517
641.922	0.0159410
642.000	0.0161072
642.078	0.0159694
642.156	0.0159885
642.234	0.0159905
642.312	0.0158807
642.390	0.0160045
642.468	0.0159135
642.547	0.0158983
642.625	0.0159798
642.703	0.0160287
642.781	0.0159185
642.859	0.0159158
642.937	0.0159932
643.015	0.0160548
643.093	0.0160024
643.172	0.0159372
643.250	0.0160981
643.328	0.0160401
643.406	0.0160487
643.484	0.0160208
643.562	0.0159117
643.640	0.0159782
643.718	0.0159707
643.797	0.0158997
643.875	0.0160039
643.953	0.0160379
644.031	0.0159421
644.109	0.0159753
644.187	0.0159465
644.265	0.0160334
644.343	0.0159108
644.422	0.0159247
644.500	0.0159723
644.578	0.0159015
644.656	0.0160047
644.734	0.0159460
644.812	0.0159467
644.890	0.0160520
644.968	0.0160027
645.047	0.0160796
645.125	0.0160036
645.203	0.0159145
645.281	0.0160299
645.359	0.0160333
645.437	0.0158360
645.515	0.0159032
645.593	0.0159015
645.672	0.0159988
645.750	0.0160413
645.828	0.0160125
645.906	0.0159293
645.984	0.0159919
646.062	0.0161292
646.140	0.0159242
646.218	0.0158883
646.297	0.0160278
646.375	0.0159949
646.453	0.0161327
646.531	0.0159362
646.609	0.0159571
646.687	0.0160832
646.765	0.0159728
646.843	0.0159675
646.922	0.0159273
647.000	0.0159020
647.078	0.0159830
647.156	0.0160587
647.234	0.0160194
647.312	0.0159890
647.390	0.0159761
647.468	0.0159813
647.547	0.0159836
647.625	0.0158488
647.703	0.0160179
647.781	0.0160220
647.859	0.0160419
647.937	0.0160002
648.015	0.0159185
648.093	0.0159882
648.172	0.0160548
648.250	0.0160968
648.328	0.0159393
648.406	0.0160280
648.484	0.0159939
648.562	0.0159718
648.640	0.0160575
648.718	0.0159854
648.797	0.0160661
648.875	0.0159781
648.953	0.0160616
649.031	0.0160765
649.109	0.0159261
649.187	0.0160469
649.265	0.0159837
649.343	0.0159214
649.422	0.0160005
649.500	0.0160222
649.578	0.0160199
649.656	0.0159955
649.734	0.0160697
649.812	0.0161908
649.890	0.0159842
649.968	0.0158618
650.047	0.0159525
650.125	0.0161243
650.203	0.0159454
650.281	0.0160262
650.359	0.0162428
650.437	0.0160105
650.515	0.0161325
650.593	0.0160396
650.672	0.0160046
650.750	0.0159269
650.828	0.0159152
650.906	0.0160176
650.984	0.0160081
651.062	0.0159827
651.140	0.0159888
651.218	0.0160119
651.297	0.0161304
651.375	0.0160464
651.453	0.0159559
651.531	0.0160029
651.609	0.0160480
651.687	0.0160805
651.765	0.0160696
651.843	0.0160519
651.922	0.0160690
652.000	0.0160147
652.078	0.0160022
652.156	0.0159483
652.234	0.0159438
652.312	0.0159768
652.390	0.0160014
652.468	0.0159422
652.547	0.0159913
652.625	0.0159814
652.703	0.0159840
652.781	0.0159573
652.859	0.0160659
652.937	0.0159150
653.015	0.0162051
653.093	0.0159304
653.172	0.0159335
653.250	0.0160010
653.328	0.0160194
653.406	0.0160471
653.484	0.0159792
653.562	0.0159591
653.640	0.0159666
653.718	0.0159447
653.797	0.0158997
653.875	0.0159238
653.953	0.0159775
654.031	0.0160724
654.109	0.0158775
654.187	0.0159304
654.265	0.0160447
654.343	0.0159464
654.422	0.0160768
654.500	0.0159694
654.578	0.0158582
654.656	0.0159641
654.734	0.0158795
654.812	0.0159376
654.890	0.0159441
654.968	0.0160263
655.047	0.0159483
655.125	0.0159988
655.203	0.0159489
655.281	0.0159162
655.359	0.0160295
655.437	0.0159943
655.515	0.0158102
655.593	0.0159484
655.672	0.0160803
655.750	0.0159922
655.828	0.0161288
655.906	0.0161250
655.984	0.0159447
656.062	0.0159402
656.140	0.0160095
656.218	0.0158694
656.297	0.0160023
656.375	0.0159675
656.453	0.0159830
656.531	0.0160631
656.609	0.0160198
656.687	0.0160744
656.765	0.0160951
656.843	0.0160490
656.922	0.0158820
657.000	0.0159566
657.078	0.0160824
657.156	0.0160735
657.234	0.0160209
657.312	0.0159500
657.390	0.0160487
657.468	0.0159647
657.547	0.0158237
657.625	0.0160225
657.703	0.0161282
657.781	0.0159782
657.859	0.0158080
657.937	0.0160742
658.015	0.0159304
658.093	0.0159143
658.172	0.0160836
658.250	0.0158560
658.328	0.0159366
658.406	0.0160902
658.484	0.0159937
658.562	0.0159582
658.640	0.0160190
658.718	0.0159602
658.797	0.0158664
658.875	0.0159147
658.953	0.0161524
659.031	0.0158356
659.109	0.0158789
659.187	0.0158485
659.265	0.0160538
659.343	0.0159518
659.422	0.0160519
659.500	0.0161110
659.578	0.0160977
659.656	0.0159444
659.734	0.0160926
659.812	0.0159289
659.890	0.0160379
659.968	0.0159740
660.047	0.0160123
660.125	0.0159719
660.203	0.0159481
660.281	0.0160969
660.359	0.0159398
660.437	0.0159082
660.515	0.0159399
660.593	0.0160033
660.672	0.0159846
660.750	0.0159805
660.828	0.0160251
660.906	0.0160305
660.984	0.0159642
661.062	0.0159608
661.140	0.0160793
661.218	0.0162401
661.297	0.0160106
661.375	0.0161107
661.453	0.0161335
661.531	0.0159367
661.609	0.0159497
661.687	0.0159974
661.765	0.0159528
661.843	0.0161519
661.922	0.0159888
662.000	0.0159512
662.078	0.0160339
662.156	0.0161298
662.234	0.0160278
662.312	0.0159695
662.390	0.0158601
662.468	0.0159746
662.547	0.0160577
662.625	0.0161167
662.703	0.0160100
662.781	0.0160652
662.859	0.0160133
662.937	0.0158678
663.015	0.0161037
663.093	0.0160535
663.172	0.0159492
663.250	0.0159617
663.328	0.0159222
663.406	0.0160532
663.484	0.0159638
663.562	0.0161732
663.640	0.0159912
663.718	0.0160832
663.797	0.0160568
663.875	0.0160017
663.953	0.0161002
664.031	0.0161192
664.109	0.0160812
664.187	0.0158974
664.265	0.0160034
664.343	0.0160737
664.422	0.0159992
664.500	0.0160930
664.578	0.0160965
664.656	0.0159458
664.734	0.0159984
664.812	0.0160491
664.890	0.0160524
664.968	0.0158811
665.047	0.0159962
665.125	0.0161095
665.203	0.0160255
665.281	0.0160230
665.359	0.0160769
665.437	0.0160167
665.515	0.0159862
665.593	0.0159757
665.672	0.0160000
665.750	0.0160036
665.828	0.0158530
665.906	0.0162846
665.984	0.0160388
666.062	0.0158952
666.140	0.0159684
666.218	0.0160773
666.297	0.0159206
666.375	0.0159977
666.453	0.0160157
666.531	0.0160642
666.609	0.0159370
666.687	0.0160217
666.765	0.0160070
666.843	0.0160068
666.922	0.0159309
667.000	0.0160338
667.078	0.0159684
667.156	0.0159671
667.234	0.0160033
667.312	0.0158611
667.390	0.0159134
667.468	0.0160668
667.547	0.0159912
667.625	0.0159729
667.703	0.0159449
667.781	0.0158781
667.859	0.0160035
667.937	0.0159721
668.015	0.0160088
668.093	0.0160866
668.172	0.0160433
668.250	0.0159906
668.328	0.0160029
668.406	0.0159909
668.484	0.0160404
668.562	0.0159432
668.640	0.0158901
668.718	0.0159827
668.797	0.0161295
668.875	0.0158722
668.953	0.0159807
669.031	0.0160447
669.109	0.0159930
669.187	0.0158964
669.265	0.0160600
669.343	0.0161075
669.422	0.0160695
669.500	0.0159150
669.578	0.0159967
669.656	0.0160502
669.734	0.0160959
669.812	0.0159604
669.890	0.0159602
669.968	0.0159723
670.047	0.0159489
670.125	0.0161298
670.203	0.0160907
670.281	0.0159022
670.359	0.0159238
670.437	0.0159515
670.515	0.0160609
670.593	0.0159676
670.672	0.0159753
670.750	0.0160363
670.828	0.0159999
670.906	0.0160063
670.984	0.0160133
671.062	0.0159610
671.140	0.0161106
671.218	0.0159191
671.297	0.0159436
671.375	0.0159572
671.453	0.0159552
671.531	0.0159622
671.609	0.0159525
671.687	0.0160500
671.765	0.0159651
671.843	0.0158382
671.922	0.0161072
672.000	0.0160318
672.078	0.0160506
672.156	0.0159804
672.234	0.0161368
672.312	0.0159129
672.390	0.0160717
672.468	0.0160999
672.547	0.0159335
672.625	0.0160529
672.703	0.0160987
672.781	0.0160691
672.859	0.0160807
672.937	0.0158044
673.015	0.0159264
673.093	0.0159537
673.172	0.0159149
673.250	0.0160968
673.328	0.0160155
673.406	0.0158757
673.484	0.0158617
673.562	0.0160880
673.640	0.0160268
673.718	0.0159749
673.797	0.0159998
673.875	0.0158463
673.953	0.0160034
674.031	0.0159818
674.109	0.0160855
674.187	0.0158151
674.265	0.0159331
674.343	0.0160418
674.422	0.0160017
674.500	0.0160647
674.578	0.0160627
674.656	0.0159512
674.734	0.0160100
674.812	0.0158951
674.890	0.0160375
674.968	0.0159745
675.047	0.0160222
675.125	0.0159344
675.203	0.0159648
675.281	0.0159245
675.359	0.0160068
675.437	0.0159650
675.515	0.0159859
675.593	0.0159264
675.672	0.0159090
675.750	0.0158934
675.828	0.0159763
675.906	0.0159649
675.984	0.0158954
676.062	0.0159163
676.140	0.0157948
676.218	0.0158781
676.297	0.0160248
676.375	0.0161102
676.453	0.0160799
676.531	0.0159618
676.609	0.0160385
676.687	0.0159959
676.765	0.0161106
676.843	0.0161103
676.922	0.0159109
677.000	0.0160133
677.078	0.0160036
677.156	0.0157920
677.234	0.0160925
677.312	0.0159729
677.390	0.0159294
677.468	0.0159614
677.547	0.0160407
677.625	0.0160719
677.703	0.0160896
677.781	0.0159944
677.859	0.0159657
677.937	0.0160958
678.015	0.0159919
678.093	0.0160749
678.172	0.0160767
678.250	0.0159709
678.328	0.0160516
678.406	0.0161115
678.484	0.0159686
678.562	0.0161257
678.640	0.0160704
678.718	0.0159311
678.797	0.0159195
678.875	0.0159145
678.953	0.0159694
679.031	0.0158964
679.109	0.0159624
679.187	0.0160098
679.265	0.0160756
679.343	0.0159641
679.422	0.0158849
679.500	0.0160811
679.578	0.0159634
679.656	0.0159522
679.734	0.0159789
679.812	0.0160455
679.890	0.0160552
679.968	0.0159053
680.047	0.0159628
680.125	0.0160564
680.203	0.0160773
680.281	0.0159643
680.359	0.0159110
680.437	0.0159454
680.515	0.0160105
680.593	0.0159731
680.672	0.0160377
680.750	0.0159256
680.828	0.0159024
680.906	0.0160331
680.984	0.0160312
681.062	0.0159344
681.140	0.0159970
681.218	0.0160974
681.297	0.0158331
681.375	0.0158580
681.453	0.0159547
681.531	0.0161207
681.609	0.0159275
681.687	0.0159843
681.765	0.0160641
681.843	0.0160268
681.922	0.0159842
682.000	0.0160570
682.078	0.0160615
682.156	0.0158401
682.234	0.0159856
682.312	0.0160098
682.390	0.0160629
682.468	0.0160143
682.547	0.0159325
682.625	0.0159930
682.703	0.0160712
682.781	0.0160175
682.859	0.0158942
682.937	0.0159371
683.015	0.0160883
683.093	0.0160253
683.172	0.0159503
683.250	0.0161323
683.328	0.0159510
683.406	0.0160091
683.484	0.0159158
683.562	0.0160252
683.640	0.0160076
683.718	0.0159384
683.797	0.0160267
683.875	0.0159634
683.953	0.0160916
684.031	0.0159696
684.109	0.0160805
684.187	0.0160122
684.265	0.0159847
684.343	0.0159084
684.422	0.0159380
684.500	0.0160086
684.578	0.0160121
684.656	0.0160364
684.734	0.0159163
684.812	0.0159614
684.890	0.0160999
684.968	0.0160941
685.047	0.0158714
685.125	0.0159470
685.203	0.0160011
685.281	0.0160454
685.359	0.0159770
685.437	0.0161163
685.515	0.0161108
685.593	0.0160326
685.672	0.0159339
