06/13/2022	15:11:40	Ver.	4.1	UNKNOWN
Optical Delay	599.968395	Delta X		0.078125	Sweeps	1	Scan Rate	0/0
Coordinates	Axis 1	NaN	Axis 2	NaN	Axis 3	NaN	Axis 4	NaN	Axis 5	NaN	Axis 6	0.000000
TX Power	0.000000	RX Power	0.000000

599.968	0.0156736
600.047	0.0156843
600.125	0.0156300
600.203	0.0155659
600.281	0.0156588
600.359	0.0156413
600.437	0.0157088
600.515	0.0155916
600.593	0.0155981
600.672	0.0155984
600.750	0.0155709
600.828	0.0156612
600.906	0.0157754
600.984	0.0154984
601.062	0.0155553
601.140	0.0158318
601.218	0.0157898
601.297	0.0154904
601.375	0.0155669
601.453	0.0155597
601.531	0.0156259
601.609	0.0156498
601.687	0.0155531
601.765	0.0156280
601.843	0.0155728
601.922	0.0155126
602.000	0.0155531
602.078	0.0156760
602.156	0.0155046
602.234	0.0155147
602.312	0.0156205
602.390	0.0156100
602.468	0.0156348
602.547	0.0156346
602.625	0.0155479
602.703	0.0156453
602.781	0.0155376
602.859	0.0155371
602.937	0.0156772
603.015	0.0155549
603.093	0.0155248
603.172	0.0155154
603.250	0.0156306
603.328	0.0155951
603.406	0.0155325
603.484	0.0156635
603.562	0.0154646
603.640	0.0155961
603.718	0.0155821
603.797	0.0156777
603.875	0.0155746
603.953	0.0155672
604.031	0.0155790
604.109	0.0156779
604.187	0.0157003
604.265	0.0156644
604.343	0.0157103
604.422	0.0156300
604.500	0.0156944
604.578	0.0157178
604.656	0.0156064
604.734	0.0156700
604.812	0.0155617
604.890	0.0156306
604.968	0.0156999
605.047	0.0155828
605.125	0.0156113
605.203	0.0156735
605.281	0.0156926
605.359	0.0155973
605.437	0.0156356
605.515	0.0156528
605.593	0.0158024
605.672	0.0156586
605.750	0.0157040
605.828	0.0157253
605.906	0.0156281
605.984	0.0156463
606.062	0.0157253
606.140	0.0156219
606.218	0.0155613
606.297	0.0157418
606.375	0.0157090
606.453	0.0156558
606.531	0.0157236
606.609	0.0156776
606.687	0.0156776
606.765	0.0157848
606.843	0.0157259
606.922	0.0157835
607.000	0.0156111
607.078	0.0157611
607.156	0.0157403
607.234	0.0157672
607.312	0.0157494
607.390	0.0157940
607.468	0.0157837
607.547	0.0157787
607.625	0.0157299
607.703	0.0158580
607.781	0.0158441
607.859	0.0158385
607.937	0.0157367
608.015	0.0157708
608.093	0.0158623
608.172	0.0157568
608.250	0.0158339
608.328	0.0157157
608.406	0.0156937
608.484	0.0158717
608.562	0.0157809
608.640	0.0158234
608.718	0.0158057
608.797	0.0159780
608.875	0.0158810
608.953	0.0157109
609.031	0.0157348
609.109	0.0158280
609.187	0.0157002
609.265	0.0157962
609.343	0.0158522
609.422	0.0158250
609.500	0.0158639
609.578	0.0159337
609.656	0.0156650
609.734	0.0157748
609.812	0.0157941
609.890	0.0157316
609.968	0.0158441
610.047	0.0158297
610.125	0.0157509
610.203	0.0157004
610.281	0.0157662
610.359	0.0157848
610.437	0.0157392
610.515	0.0156878
610.593	0.0157560
610.672	0.0158823
610.750	0.0157682
610.828	0.0157961
610.906	0.0157861
610.984	0.0155750
611.062	0.0156446
611.140	0.0157487
611.218	0.0157095
611.297	0.0155782
611.375	0.0157555
611.453	0.0157423
611.531	0.0157612
611.609	0.0156808
611.687	0.0157191
611.765	0.0157902
611.843	0.0157230
611.922	0.0157608
612.000	0.0158052
612.078	0.0155975
612.156	0.0157169
612.234	0.0157436
612.312	0.0157877
612.390	0.0157498
612.468	0.0158207
612.547	0.0158510
612.625	0.0157462
612.703	0.0157645
612.781	0.0157482
612.859	0.0157953
612.937	0.0158511
613.015	0.0158414
613.093	0.0157121
613.172	0.0157304
613.250	0.0156896
613.328	0.0157693
613.406	0.0157401
613.484	0.0157560
613.562	0.0157079
613.640	0.0157265
613.718	0.0157841
613.797	0.0157671
613.875	0.0156526
613.953	0.0157211
614.031	0.0157166
614.109	0.0157457
614.187	0.0156958
614.265	0.0158015
614.343	0.0158206
614.422	0.0156253
614.500	0.0157594
614.578	0.0157542
614.656	0.0156713
614.734	0.0156543
614.812	0.0157226
614.890	0.0156949
614.968	0.0157797
615.047	0.0157710
615.125	0.0158258
615.203	0.0158574
615.281	0.0156688
615.359	0.0156377
615.437	0.0158344
615.515	0.0156850
615.593	0.0158027
615.672	0.0157487
615.750	0.0158544
615.828	0.0157561
615.906	0.0156863
615.984	0.0157343
616.062	0.0158435
616.140	0.0157674
616.218	0.0157738
616.297	0.0157903
616.375	0.0157920
616.453	0.0157433
616.531	0.0157896
616.609	0.0159064
616.687	0.0157339
616.765	0.0156757
616.843	0.0158368
616.922	0.0158508
617.000	0.0156907
617.078	0.0157342
617.156	0.0157501
617.234	0.0156890
617.312	0.0156684
617.390	0.0158367
617.468	0.0157669
617.547	0.0158844
617.625	0.0157280
617.703	0.0156108
617.781	0.0158115
617.859	0.0158363
617.937	0.0158192
618.015	0.0158318
618.093	0.0157461
618.172	0.0158437
618.250	0.0158546
618.328	0.0158542
618.406	0.0157710
618.484	0.0158707
618.562	0.0158390
618.640	0.0157813
618.718	0.0157865
618.797	0.0158781
618.875	0.0157660
618.953	0.0157669
619.031	0.0156753
619.109	0.0156149
619.187	0.0158374
619.265	0.0158114
619.343	0.0158494
619.422	0.0155925
619.500	0.0157458
619.578	0.0157533
619.656	0.0156933
619.734	0.0157542
619.812	0.0156826
619.890	0.0157362
619.968	0.0157671
620.047	0.0157360
620.125	0.0157061
620.203	0.0157766
620.281	0.0157294
620.359	0.0156502
620.437	0.0157647
620.515	0.0157378
620.593	0.0157979
620.672	0.0157024
620.750	0.0157240
620.828	0.0157379
620.906	0.0156139
620.984	0.0157619
621.062	0.0156467
621.140	0.0157537
621.218	0.0158198
621.297	0.0158094
621.375	0.0158199
621.453	0.0158261
621.531	0.0157446
621.609	0.0157084
621.687	0.0157635
621.765	0.0156278
621.843	0.0157404
621.922	0.0158349
622.000	0.0158439
622.078	0.0158328
622.156	0.0157387
622.234	0.0156740
622.312	0.0156497
622.390	0.0159254
622.468	0.0156665
622.547	0.0156638
622.625	0.0157180
622.703	0.0158577
622.781	0.0159821
622.859	0.0157708
622.937	0.0158144
623.015	0.0157992
623.093	0.0158372
623.172	0.0157425
623.250	0.0158788
623.328	0.0157235
623.406	0.0157333
623.484	0.0159301
623.562	0.0156153
623.640	0.0157426
623.718	0.0158055
623.797	0.0157415
623.875	0.0157458
623.953	0.0158064
624.031	0.0158393
624.109	0.0157962
624.187	0.0157485
624.265	0.0157414
624.343	0.0156779
624.422	0.0158863
624.500	0.0157955
624.578	0.0158588
624.656	0.0156472
624.734	0.0156041
624.812	0.0156834
624.890	0.0159325
624.968	0.0156783
625.047	0.0156549
625.125	0.0156856
625.203	0.0156302
625.281	0.0154900
625.359	0.0155817
625.437	0.0156813
625.515	0.0155510
625.593	0.0154478
625.672	0.0156284
625.750	0.0153451
625.828	0.0154784
625.906	0.0154417
625.984	0.0155209
626.062	0.0153889
626.140	0.0155221
626.218	0.0155026
626.297	0.0155214
626.375	0.0156405
626.453	0.0156418
626.531	0.0156175
626.609	0.0156062
626.687	0.0156441
626.765	0.0157795
626.843	0.0157997
626.922	0.0158497
627.000	0.0157983
627.078	0.0158011
627.156	0.0157959
627.234	0.0158376
627.312	0.0157199
627.390	0.0157909
627.468	0.0156043
627.547	0.0157014
627.625	0.0155044
627.703	0.0153486
627.781	0.0154665
627.859	0.0154372
627.937	0.0155516
628.015	0.0153909
628.093	0.0154211
628.172	0.0155668
628.250	0.0156395
628.328	0.0155766
628.406	0.0156641
628.484	0.0156840
628.562	0.0155824
628.640	0.0156942
628.718	0.0157162
628.797	0.0156404
628.875	0.0157446
628.953	0.0158373
629.031	0.0157583
629.109	0.0157365
629.187	0.0156846
629.265	0.0157662
629.343	0.0156890
629.422	0.0156331
629.500	0.0157109
629.578	0.0157332
629.656	0.0156229
629.734	0.0156519
629.812	0.0155653
629.890	0.0157231
629.968	0.0158395
630.047	0.0156539
630.125	0.0156950
630.203	0.0157146
630.281	0.0156856
630.359	0.0155196
630.437	0.0156389
630.515	0.0157330
630.593	0.0156487
630.672	0.0156194
630.750	0.0156734
630.828	0.0156581
630.906	0.0156923
630.984	0.0155425
631.062	0.0156826
631.140	0.0157788
631.218	0.0155946
631.297	0.0155449
631.375	0.0156076
631.453	0.0157186
631.531	0.0158170
631.609	0.0157504
631.687	0.0157358
631.765	0.0156841
631.843	0.0157038
631.922	0.0157179
632.000	0.0156541
632.078	0.0156565
632.156	0.0156892
632.234	0.0159164
632.312	0.0157907
632.390	0.0157628
632.468	0.0158672
632.547	0.0158882
632.625	0.0157313
632.703	0.0157821
632.781	0.0159332
632.859	0.0158062
632.937	0.0159775
633.015	0.0157689
633.093	0.0159087
633.172	0.0159702
633.250	0.0158238
633.328	0.0158881
633.406	0.0157813
633.484	0.0157907
633.562	0.0158258
633.640	0.0158997
633.718	0.0160004
633.797	0.0158430
633.875	0.0158143
633.953	0.0158031
634.031	0.0157238
634.109	0.0158321
634.187	0.0157783
634.265	0.0157761
634.343	0.0157446
634.422	0.0159266
634.500	0.0157732
634.578	0.0158145
634.656	0.0157090
634.734	0.0158110
634.812	0.0157821
634.890	0.0157639
634.968	0.0157210
635.047	0.0158987
635.125	0.0158408
635.203	0.0158009
635.281	0.0156576
635.359	0.0158185
635.437	0.0157687
635.515	0.0157829
635.593	0.0158552
635.672	0.0158505
635.750	0.0159657
635.828	0.0157500
635.906	0.0156799
635.984	0.0157536
636.062	0.0157359
636.140	0.0157463
636.218	0.0157941
636.297	0.0157789
636.375	0.0157893
636.453	0.0157592
636.531	0.0157552
636.609	0.0158471
636.687	0.0158234
636.765	0.0157174
636.843	0.0157327
636.922	0.0156618
637.000	0.0157979
637.078	0.0157018
637.156	0.0158514
637.234	0.0157626
637.312	0.0157678
637.390	0.0158744
637.468	0.0158667
637.547	0.0157354
637.625	0.0157968
637.703	0.0159085
637.781	0.0157092
637.859	0.0156219
637.937	0.0158419
638.015	0.0158642
638.093	0.0157388
638.172	0.0157926
638.250	0.0158884
638.328	0.0159132
638.406	0.0158805
638.484	0.0158123
638.562	0.0157873
638.640	0.0158064
638.718	0.0158685
638.797	0.0158221
638.875	0.0158585
638.953	0.0158652
639.031	0.0158533
639.109	0.0158693
639.187	0.0158044
639.265	0.0158742
639.343	0.0157790
639.422	0.0158377
639.500	0.0158418
639.578	0.0158791
639.656	0.0159729
639.734	0.0158722
639.812	0.0157650
639.890	0.0157944
639.968	0.0157411
640.047	0.0157861
640.125	0.0158891
640.203	0.0157434
640.281	0.0157982
640.359	0.0158012
640.437	0.0157968
640.515	0.0158108
640.593	0.0158511
640.672	0.0158205
640.750	0.0159052
640.828	0.0159814
640.906	0.0159322
640.984	0.0159350
641.062	0.0158525
641.140	0.0157896
641.218	0.0158894
641.297	0.0158994
641.375	0.0158116
641.453	0.0158902
641.531	0.0158760
641.609	0.0159122
641.687	0.0157792
641.765	0.0158017
641.843	0.0159763
641.922	0.0156831
642.000	0.0157778
642.078	0.0159795
642.156	0.0158832
642.234	0.0158769
642.312	0.0158517
642.390	0.0157013
642.468	0.0158260
642.547	0.0158758
642.625	0.0156677
642.703	0.0158730
642.781	0.0158094
642.859	0.0158320
642.937	0.0157796
643.015	0.0158064
643.093	0.0159071
643.172	0.0158707
643.250	0.0158497
643.328	0.0157809
643.406	0.0157605
643.484	0.0157277
643.562	0.0157539
643.640	0.0158836
643.718	0.0159934
643.797	0.0158836
643.875	0.0159079
643.953	0.0158404
644.031	0.0159054
644.109	0.0158279
644.187	0.0157587
644.265	0.0158743
644.343	0.0159753
644.422	0.0157656
644.500	0.0157728
644.578	0.0158163
644.656	0.0159565
644.734	0.0157450
644.812	0.0157254
644.890	0.0159702
644.968	0.0158218
645.047	0.0158228
645.125	0.0157239
645.203	0.0159341
645.281	0.0157709
645.359	0.0157677
645.437	0.0157668
645.515	0.0158582
645.593	0.0159775
645.672	0.0157294
645.750	0.0158570
645.828	0.0158340
645.906	0.0159480
645.984	0.0157959
646.062	0.0159113
646.140	0.0159200
646.218	0.0158022
646.297	0.0158215
646.375	0.0157817
646.453	0.0158138
646.531	0.0157430
646.609	0.0157796
646.687	0.0158444
646.765	0.0157927
646.843	0.0157510
646.922	0.0158960
647.000	0.0158707
647.078	0.0157310
647.156	0.0157823
647.234	0.0156529
647.312	0.0158650
647.390	0.0158878
647.468	0.0158418
647.547	0.0156931
647.625	0.0157580
647.703	0.0157361
647.781	0.0157944
647.859	0.0158141
647.937	0.0157127
648.015	0.0157063
648.093	0.0157700
648.172	0.0155997
648.250	0.0157127
648.328	0.0156097
648.406	0.0157625
648.484	0.0155986
648.562	0.0156302
648.640	0.0157139
648.718	0.0156528
648.797	0.0157220
648.875	0.0157104
648.953	0.0157458
649.031	0.0155749
649.109	0.0155130
649.187	0.0155936
649.265	0.0157288
649.343	0.0157335
649.422	0.0156194
649.500	0.0156886
649.578	0.0156438
649.656	0.0156157
649.734	0.0156664
649.812	0.0154951
649.890	0.0156794
649.968	0.0155730
650.047	0.0154811
650.125	0.0155083
650.203	0.0156348
650.281	0.0157087
650.359	0.0155215
650.437	0.0154783
650.515	0.0154311
650.593	0.0154350
650.672	0.0154253
650.750	0.0153420
650.828	0.0155006
650.906	0.0155052
650.984	0.0154889
651.062	0.0155003
651.140	0.0155035
651.218	0.0155322
651.297	0.0155099
651.375	0.0153856
651.453	0.0152726
651.531	0.0154033
651.609	0.0154309
651.687	0.0155208
651.765	0.0154104
651.843	0.0154206
651.922	0.0155110
652.000	0.0155926
652.078	0.0154823
652.156	0.0154939
652.234	0.0156340
652.312	0.0155173
652.390	0.0154795
652.468	0.0154298
652.547	0.0155967
652.625	0.0155468
652.703	0.0156108
652.781	0.0155962
652.859	0.0155363
652.937	0.0154995
653.015	0.0154118
653.093	0.0155277
653.172	0.0155613
653.250	0.0155122
653.328	0.0155296
653.406	0.0154791
653.484	0.0155090
653.562	0.0154744
653.640	0.0155569
653.718	0.0154984
653.797	0.0155041
653.875	0.0154424
653.953	0.0155153
654.031	0.0154067
654.109	0.0155969
654.187	0.0156758
654.265	0.0155746
654.343	0.0154627
654.422	0.0155584
654.500	0.0155521
654.578	0.0154126
654.656	0.0155820
654.734	0.0155618
654.812	0.0157415
654.890	0.0155226
654.968	0.0155045
655.047	0.0157492
655.125	0.0155444
655.203	0.0155499
655.281	0.0156582
655.359	0.0156596
655.437	0.0155738
655.515	0.0156903
655.593	0.0157012
655.672	0.0155177
655.750	0.0156004
655.828	0.0155838
655.906	0.0155907
655.984	0.0157213
656.062	0.0156074
656.140	0.0156306
656.218	0.0155370
656.297	0.0156566
656.375	0.0156062
656.453	0.0157333
656.531	0.0156863
656.609	0.0156623
656.687	0.0155906
656.765	0.0155920
656.843	0.0156604
656.922	0.0156532
657.000	0.0156389
657.078	0.0157054
657.156	0.0156677
657.234	0.0156769
657.312	0.0156537
657.390	0.0157048
657.468	0.0157581
657.547	0.0157177
657.625	0.0155358
657.703	0.0157288
657.781	0.0157915
657.859	0.0156316
657.937	0.0156541
658.015	0.0156872
658.093	0.0157324
658.172	0.0158122
658.250	0.0157710
658.328	0.0158610
658.406	0.0157233
658.484	0.0156712
658.562	0.0156799
658.640	0.0157294
658.718	0.0157343
658.797	0.0157743
658.875	0.0157898
658.953	0.0157220
659.031	0.0157270
659.109	0.0158570
659.187	0.0156983
659.265	0.0156017
659.343	0.0156705
659.422	0.0156896
659.500	0.0157920
659.578	0.0157853
659.656	0.0158436
659.734	0.0157155
659.812	0.0156703
659.890	0.0157513
659.968	0.0159589
660.047	0.0157430
660.125	0.0157101
660.203	0.0158227
660.281	0.0157706
660.359	0.0158417
660.437	0.0157941
660.515	0.0158125
660.593	0.0157559
660.672	0.0158126
660.750	0.0157822
660.828	0.0157951
660.906	0.0156850
660.984	0.0159015
661.062	0.0159350
661.140	0.0158289
661.218	0.0158215
661.297	0.0158655
661.375	0.0157508
661.453	0.0156956
661.531	0.0157227
661.609	0.0158257
661.687	0.0158311
661.765	0.0157851
661.843	0.0157465
661.922	0.0157521
662.000	0.0157293
662.078	0.0158385
662.156	0.0159345
662.234	0.0157654
662.312	0.0157836
662.390	0.0158247
662.468	0.0157185
662.547	0.0156953
662.625	0.0157993
662.703	0.0157063
662.781	0.0157776
662.859	0.0157310
662.937	0.0158519
663.015	0.0157842
663.093	0.0157156
663.172	0.0157658
663.250	0.0159067
663.328	0.0156868
663.406	0.0157934
663.484	0.0158036
663.562	0.0158128
663.640	0.0158297
663.718	0.0158002
663.797	0.0157652
663.875	0.0158721
663.953	0.0159157
664.031	0.0158596
664.109	0.0158282
664.187	0.0157837
664.265	0.0157725
664.343	0.0157124
664.422	0.0156286
664.500	0.0156586
664.578	0.0157894
664.656	0.0158272
664.734	0.0158862
664.812	0.0157621
664.890	0.0156308
664.968	0.0157178
665.047	0.0159142
665.125	0.0156465
665.203	0.0155915
665.281	0.0156937
665.359	0.0156950
665.437	0.0157289
665.515	0.0156721
665.593	0.0158788
665.672	0.0155889
665.750	0.0157372
665.828	0.0157899
665.906	0.0158224
665.984	0.0156599
666.062	0.0157703
666.140	0.0158015
666.218	0.0157680
666.297	0.0157250
666.375	0.0157526
666.453	0.0157432
666.531	0.0157592
666.609	0.0156634
666.687	0.0156898
666.765	0.0157430
666.843	0.0158440
666.922	0.0157645
667.000	0.0158469
667.078	0.0157517
667.156	0.0156777
667.234	0.0158387
667.312	0.0158147
667.390	0.0158652
667.468	0.0158466
667.547	0.0158205
667.625	0.0159081
667.703	0.0157912
667.781	0.0157646
667.859	0.0157563
667.937	0.0157016
668.015	0.0158037
668.093	0.0158304
668.172	0.0157390
668.250	0.0156274
668.328	0.0156459
668.406	0.0156503
668.484	0.0158528
668.562	0.0158235
668.640	0.0157800
668.718	0.0156747
668.797	0.0156986
668.875	0.0157407
668.953	0.0158138
669.031	0.0157815
669.109	0.0156414
669.187	0.0156671
669.265	0.0156669
669.343	0.0157906
669.422	0.0157219
669.500	0.0158709
669.578	0.0157392
669.656	0.0156651
669.734	0.0157917
669.812	0.0157394
669.890	0.0157012
669.968	0.0157169
670.047	0.0156441
670.125	0.0157628
670.203	0.0157058
670.281	0.0156255
670.359	0.0156054
670.437	0.0157349
670.515	0.0156500
670.593	0.0155941
670.672	0.0156630
670.750	0.0157016
670.828	0.0158461
670.906	0.0156874
670.984	0.0157346
671.062	0.0156776
671.140	0.0155197
671.218	0.0156355
671.297	0.0157847
671.375	0.0157022
671.453	0.0156150
671.531	0.0155994
671.609	0.0156472
671.687	0.0156560
671.765	0.0157125
671.843	0.0157369
671.922	0.0157160
672.000	0.0156799
672.078	0.0155341
672.156	0.0157138
672.234	0.0156590
672.312	0.0157116
672.390	0.0157930
672.468	0.0155756
672.547	0.0156844
672.625	0.0156664
672.703	0.0157722
672.781	0.0158760
672.859	0.0157465
672.937	0.0156306
673.015	0.0156449
673.093	0.0155447
673.172	0.0157162
673.250	0.0156835
673.328	0.0156633
673.406	0.0156318
673.484	0.0155264
673.562	0.0155747
673.640	0.0156821
673.718	0.0156104
673.797	0.0156201
673.875	0.0155692
673.953	0.0156498
674.031	0.0156283
674.109	0.0157014
674.187	0.0155404
674.265	0.0156179
674.343	0.0156367
674.422	0.0156800
674.500	0.0157411
674.578	0.0156778
674.656	0.0156528
674.734	0.0157745
674.812	0.0156406
674.890	0.0156210
674.968	0.0157402
675.047	0.0156165
675.125	0.0156600
675.203	0.0156168
675.281	0.0154980
675.359	0.0156016
675.437	0.0156710
675.515	0.0155797
675.593	0.0157481
675.672	0.0157512
675.750	0.0156573
675.828	0.0155247
675.906	0.0155843
675.984	0.0156853
676.062	0.0156585
676.140	0.0156514
676.218	0.0157539
676.297	0.0156004
676.375	0.0156079
676.453	0.0156664
676.531	0.0157243
676.609	0.0156679
676.687	0.0157064
676.765	0.0157361
676.843	0.0157001
676.922	0.0156799
677.000	0.0156508
677.078	0.0155873
677.156	0.0156874
677.234	0.0156672
677.312	0.0156747
677.390	0.0156744
677.468	0.0155206
677.547	0.0155853
677.625	0.0156417
677.703	0.0156528
677.781	0.0155682
677.859	0.0156307
677.937	0.0156747
678.015	0.0156739
678.093	0.0156929
678.172	0.0156651
678.250	0.0155440
678.328	0.0156381
678.406	0.0155907
678.484	0.0156493
678.562	0.0156573
678.640	0.0157156
678.718	0.0155165
678.797	0.0155816
678.875	0.0155774
678.953	0.0157153
679.031	0.0157625
679.109	0.0154881
679.187	0.0156765
679.265	0.0157633
679.343	0.0156964
679.422	0.0157040
679.500	0.0158334
679.578	0.0156753
679.656	0.0155807
679.734	0.0157107
679.812	0.0157080
679.890	0.0157590
679.968	0.0158056
680.047	0.0156687
680.125	0.0157068
680.203	0.0157793
680.281	0.0156802
680.359	0.0155652
680.437	0.0156816
680.515	0.0156644
680.593	0.0156915
680.672	0.0157473
680.750	0.0157657
680.828	0.0156494
680.906	0.0156363
680.984	0.0158172
681.062	0.0157592
681.140	0.0157323
681.218	0.0158025
681.297	0.0157354
681.375	0.0158172
681.453	0.0157623
681.531	0.0157259
681.609	0.0157603
681.687	0.0157177
681.765	0.0157828
681.843	0.0156334
681.922	0.0158041
682.000	0.0157658
682.078	0.0157532
682.156	0.0157258
682.234	0.0156617
682.312	0.0157568
682.390	0.0157893
682.468	0.0156879
682.547	0.0156703
682.625	0.0157706
682.703	0.0157201
682.781	0.0159167
682.859	0.0157174
682.937	0.0156648
683.015	0.0157146
683.093	0.0156125
683.172	0.0156417
683.250	0.0157064
683.328	0.0156422
683.406	0.0157170
683.484	0.0157542
683.562	0.0157613
683.640	0.0156331
683.718	0.0158157
683.797	0.0156740
683.875	0.0157098
683.953	0.0158289
684.031	0.0157732
684.109	0.0156105
684.187	0.0157845
684.265	0.0157076
684.343	0.0157204
684.422	0.0157911
684.500	0.0156900
684.578	0.0158594
684.656	0.0156911
684.734	0.0158026
684.812	0.0156906
684.890	0.0156889
684.968	0.0157204
685.047	0.0158060
685.125	0.0157138
685.203	0.0157204
685.281	0.0157450
685.359	0.0157570
685.437	0.0157285
685.515	0.0158073
685.593	0.0157030
685.672	0.0157142
