06/13/2022	15:12:05	Ver.	4.1	UNKNOWN
Optical Delay	599.968395	Delta X		0.078125	Sweeps	1	Scan Rate	0/0
Coordinates	Axis 1	NaN	Axis 2	NaN	Axis 3	NaN	Axis 4	NaN	Axis 5	NaN	Axis 6	0.000000
TX Power	0.000000	RX Power	0.000000

599.968	0.0157172
600.047	0.0157227
600.125	0.0156966
600.203	0.0157223
600.281	0.0158370
600.359	0.0157282
600.437	0.0156864
600.515	0.0157240
600.593	0.0157966
600.672	0.0157204
600.750	0.0157798
600.828	0.0157336
600.906	0.0157977
600.984	0.0158484
601.062	0.0157319
601.140	0.0156960
601.218	0.0158018
601.297	0.0158063
601.375	0.0157559
601.453	0.0159176
601.531	0.0157933
601.609	0.0158244
601.687	0.0158478
601.765	0.0157948
601.843	0.0157114
601.922	0.0156222
602.000	0.0156410
602.078	0.0158331
602.156	0.0158295
602.234	0.0157558
602.312	0.0158287
602.390	0.0158380
602.468	0.0158401
602.547	0.0159505
602.625	0.0157776
602.703	0.0156626
602.781	0.0157697
602.859	0.0159419
602.937	0.0158349
603.015	0.0157454
603.093	0.0158273
603.172	0.0158958
603.250	0.0157683
603.328	0.0158604
603.406	0.0157852
603.484	0.0159087
603.562	0.0158839
603.640	0.0159714
603.718	0.0159051
603.797	0.0159512
603.875	0.0157006
603.953	0.0158515
604.031	0.0159425
604.109	0.0159097
604.187	0.0159554
604.265	0.0159822
604.343	0.0160007
604.422	0.0158747
604.500	0.0160442
604.578	0.0160577
604.656	0.0158872
604.734	0.0159377
604.812	0.0160500
604.890	0.0160001
604.968	0.0158688
605.047	0.0160191
605.125	0.0160237
605.203	0.0159006
605.281	0.0160697
605.359	0.0160689
605.437	0.0160399
605.515	0.0159753
605.593	0.0158985
605.672	0.0160451
605.750	0.0159898
605.828	0.0160817
605.906	0.0160081
605.984	0.0160636
606.062	0.0158753
606.140	0.0159138
606.218	0.0160934
606.297	0.0160645
606.375	0.0159213
606.453	0.0159589
606.531	0.0159574
606.609	0.0160024
606.687	0.0159330
606.765	0.0158907
606.843	0.0158810
606.922	0.0158918
607.000	0.0159696
607.078	0.0159651
607.156	0.0158350
607.234	0.0158858
607.312	0.0158598
607.390	0.0158796
607.468	0.0158659
607.547	0.0159556
607.625	0.0159938
607.703	0.0159667
607.781	0.0159171
607.859	0.0158958
607.937	0.0158427
608.015	0.0158828
608.093	0.0158910
608.172	0.0157352
608.250	0.0160113
608.328	0.0160236
608.406	0.0160515
608.484	0.0157819
608.562	0.0159560
608.640	0.0158438
608.718	0.0159654
608.797	0.0159035
608.875	0.0159072
608.953	0.0159443
609.031	0.0157470
609.109	0.0158329
609.187	0.0159260
609.265	0.0158854
609.343	0.0159418
609.422	0.0156932
609.500	0.0158736
609.578	0.0158720
609.656	0.0158772
609.734	0.0159507
609.812	0.0159250
609.890	0.0158764
609.968	0.0159008
610.047	0.0159182
610.125	0.0159174
610.203	0.0160103
610.281	0.0158471
610.359	0.0159177
610.437	0.0159017
610.515	0.0158456
610.593	0.0158541
610.672	0.0158064
610.750	0.0158727
610.828	0.0159367
610.906	0.0157493
610.984	0.0158827
611.062	0.0157618
611.140	0.0158024
611.218	0.0159007
611.297	0.0158981
611.375	0.0159034
611.453	0.0156671
611.531	0.0158827
611.609	0.0158866
611.687	0.0158021
611.765	0.0158613
611.843	0.0158282
611.922	0.0158081
612.000	0.0158610
612.078	0.0157310
612.156	0.0157802
612.234	0.0158020
612.312	0.0160056
612.390	0.0157869
612.468	0.0158987
612.547	0.0158930
612.625	0.0158382
612.703	0.0158868
612.781	0.0159494
612.859	0.0159740
612.937	0.0159686
613.015	0.0159476
613.093	0.0160178
613.172	0.0158684
613.250	0.0159492
613.328	0.0159291
613.406	0.0159333
613.484	0.0158725
613.562	0.0158893
613.640	0.0158526
613.718	0.0159773
613.797	0.0159986
613.875	0.0158136
613.953	0.0159207
614.031	0.0158648
614.109	0.0158776
614.187	0.0158615
614.265	0.0159668
614.343	0.0159291
614.422	0.0159011
614.500	0.0158939
614.578	0.0159480
614.656	0.0159554
614.734	0.0158654
614.812	0.0158887
614.890	0.0160032
614.968	0.0160022
615.047	0.0160758
615.125	0.0158430
615.203	0.0159722
615.281	0.0160865
615.359	0.0158620
615.437	0.0159716
615.515	0.0159370
615.593	0.0160399
615.672	0.0158317
615.750	0.0158440
615.828	0.0160128
615.906	0.0157900
615.984	0.0158370
616.062	0.0159589
616.140	0.0159103
616.218	0.0159240
616.297	0.0158988
616.375	0.0157961
616.453	0.0159417
616.531	0.0158528
616.609	0.0158128
616.687	0.0157929
616.765	0.0157831
616.843	0.0156976
616.922	0.0157353
617.000	0.0158377
617.078	0.0159109
617.156	0.0159589
617.234	0.0158215
617.312	0.0159425
617.390	0.0159090
617.468	0.0158360
617.547	0.0159523
617.625	0.0158512
617.703	0.0159318
617.781	0.0158253
617.859	0.0158615
617.937	0.0158282
618.015	0.0158294
618.093	0.0159011
618.172	0.0158134
618.250	0.0157745
618.328	0.0159214
618.406	0.0159524
618.484	0.0158366
618.562	0.0159027
618.640	0.0158842
618.718	0.0158412
618.797	0.0158003
618.875	0.0158117
618.953	0.0158562
619.031	0.0158858
619.109	0.0158318
619.187	0.0158952
619.265	0.0158137
619.343	0.0156951
619.422	0.0157879
619.500	0.0158541
619.578	0.0157157
619.656	0.0157848
619.734	0.0158418
619.812	0.0159209
619.890	0.0159024
619.968	0.0159805
620.047	0.0158478
620.125	0.0157957
620.203	0.0158809
620.281	0.0158752
620.359	0.0158512
620.437	0.0158865
620.515	0.0159579
620.593	0.0159142
620.672	0.0158081
620.750	0.0158987
620.828	0.0158525
620.906	0.0158821
620.984	0.0157594
621.062	0.0158273
621.140	0.0158379
621.218	0.0158991
621.297	0.0158094
621.375	0.0158635
621.453	0.0158089
621.531	0.0159006
621.609	0.0158217
621.687	0.0157901
621.765	0.0158953
621.843	0.0156654
621.922	0.0157703
622.000	0.0158541
622.078	0.0158931
622.156	0.0156263
622.234	0.0156976
622.312	0.0157641
622.390	0.0156573
622.468	0.0156169
622.547	0.0155713
622.625	0.0155280
622.703	0.0156291
622.781	0.0156423
622.859	0.0154549
622.937	0.0155661
623.015	0.0154899
623.093	0.0155618
623.172	0.0155093
623.250	0.0155614
623.328	0.0156770
623.406	0.0156888
623.484	0.0156451
623.562	0.0157706
623.640	0.0160070
623.718	0.0157132
623.797	0.0157809
623.875	0.0158862
623.953	0.0158907
624.031	0.0157471
624.109	0.0158566
624.187	0.0158131
624.265	0.0157996
624.343	0.0158368
624.422	0.0157536
624.500	0.0157512
624.578	0.0155213
624.656	0.0156273
624.734	0.0155788
624.812	0.0154539
624.890	0.0154881
624.968	0.0154861
625.047	0.0155627
625.125	0.0155234
625.203	0.0155447
625.281	0.0156380
625.359	0.0156612
625.437	0.0156445
625.515	0.0156904
625.593	0.0155117
625.672	0.0156961
625.750	0.0158222
625.828	0.0156800
625.906	0.0157383
625.984	0.0157987
626.062	0.0157977
626.140	0.0157847
626.218	0.0157339
626.297	0.0157389
626.375	0.0156152
626.453	0.0158259
626.531	0.0157642
626.609	0.0156558
626.687	0.0157250
626.765	0.0156619
626.843	0.0157438
626.922	0.0157964
627.000	0.0157475
627.078	0.0157549
627.156	0.0157906
627.234	0.0157681
627.312	0.0157994
627.390	0.0157960
627.468	0.0158164
627.547	0.0158357
627.625	0.0156859
627.703	0.0156652
627.781	0.0157495
627.859	0.0158229
627.937	0.0159070
628.015	0.0158116
628.093	0.0158667
628.172	0.0158765
628.250	0.0159336
628.328	0.0158631
628.406	0.0158626
628.484	0.0158981
628.562	0.0159182
628.640	0.0158488
628.718	0.0157541
628.797	0.0159235
628.875	0.0158974
628.953	0.0158045
629.031	0.0157820
629.109	0.0157667
629.187	0.0158639
629.265	0.0158716
629.343	0.0159236
629.422	0.0159701
629.500	0.0160160
629.578	0.0159267
629.656	0.0159126
629.734	0.0159575
629.812	0.0160378
629.890	0.0159660
629.968	0.0160191
630.047	0.0159602
630.125	0.0159774
630.203	0.0159363
630.281	0.0160142
630.359	0.0160429
630.437	0.0160143
630.515	0.0159053
630.593	0.0158624
630.672	0.0158650
630.750	0.0159540
630.828	0.0160027
630.906	0.0159653
630.984	0.0159708
631.062	0.0157949
631.140	0.0159152
631.218	0.0158695
631.297	0.0159350
631.375	0.0159498
631.453	0.0158403
631.531	0.0159049
631.609	0.0159004
631.687	0.0159016
631.765	0.0159041
631.843	0.0157687
631.922	0.0158717
632.000	0.0160091
632.078	0.0160250
632.156	0.0158808
632.234	0.0159820
632.312	0.0159779
632.390	0.0158921
632.468	0.0158097
632.547	0.0158228
632.625	0.0158861
632.703	0.0158435
632.781	0.0158200
632.859	0.0159122
632.937	0.0158686
633.015	0.0159281
633.093	0.0158180
633.172	0.0159573
633.250	0.0158483
633.328	0.0157842
633.406	0.0159163
633.484	0.0159045
633.562	0.0158656
633.640	0.0160046
633.718	0.0158551
633.797	0.0158435
633.875	0.0157396
633.953	0.0158980
634.031	0.0157860
634.109	0.0159779
634.187	0.0158916
634.265	0.0158917
634.343	0.0159514
634.422	0.0159286
634.500	0.0159107
634.578	0.0159737
634.656	0.0159241
634.734	0.0159663
634.812	0.0160467
634.890	0.0159320
634.968	0.0159029
635.047	0.0159617
635.125	0.0157903
635.203	0.0158328
635.281	0.0161109
635.359	0.0159050
635.437	0.0158886
635.515	0.0159049
635.593	0.0159106
635.672	0.0159010
635.750	0.0158626
635.828	0.0159254
635.906	0.0158503
635.984	0.0159615
636.062	0.0159486
636.140	0.0159289
636.218	0.0159228
636.297	0.0160044
636.375	0.0160156
636.453	0.0160021
636.531	0.0158395
636.609	0.0159408
636.687	0.0159731
636.765	0.0159068
636.843	0.0160706
636.922	0.0159824
637.000	0.0159370
637.078	0.0159914
637.156	0.0160306
637.234	0.0159105
637.312	0.0158940
637.390	0.0159425
637.468	0.0158642
637.547	0.0159339
637.625	0.0158720
637.703	0.0159104
637.781	0.0159850
637.859	0.0158720
637.937	0.0158670
638.015	0.0159848
638.093	0.0158666
638.172	0.0158105
638.250	0.0158688
638.328	0.0158904
638.406	0.0158940
638.484	0.0158698
638.562	0.0160533
638.640	0.0157803
638.718	0.0157316
638.797	0.0159035
638.875	0.0159799
638.953	0.0159990
639.031	0.0158746
639.109	0.0158076
639.187	0.0159019
639.265	0.0158372
639.343	0.0158041
639.422	0.0158613
639.500	0.0158882
639.578	0.0159398
639.656	0.0159056
639.734	0.0158244
639.812	0.0159554
639.890	0.0159769
639.968	0.0159639
640.047	0.0157861
640.125	0.0159015
640.203	0.0160412
640.281	0.0158863
640.359	0.0159788
640.437	0.0159078
640.515	0.0158904
640.593	0.0160735
640.672	0.0159466
640.750	0.0159469
640.828	0.0158786
640.906	0.0158675
640.984	0.0161050
641.062	0.0158759
641.140	0.0158375
641.218	0.0159119
641.297	0.0158266
641.375	0.0159453
641.453	0.0157433
641.531	0.0159319
641.609	0.0159216
641.687	0.0157551
641.765	0.0159950
641.843	0.0158921
641.922	0.0157809
642.000	0.0158027
642.078	0.0160200
642.156	0.0160743
642.234	0.0158945
642.312	0.0158673
642.390	0.0159538
642.468	0.0158274
642.547	0.0159673
642.625	0.0158833
642.703	0.0158826
642.781	0.0158760
642.859	0.0158197
642.937	0.0160266
643.015	0.0159483
643.093	0.0158139
643.172	0.0157802
643.250	0.0159308
643.328	0.0158842
643.406	0.0158118
643.484	0.0159195
643.562	0.0159389
643.640	0.0158348
643.718	0.0158714
643.797	0.0159731
643.875	0.0158273
643.953	0.0158522
644.031	0.0158964
644.109	0.0158518
644.187	0.0158824
644.265	0.0159204
644.343	0.0157285
644.422	0.0158897
644.500	0.0157878
644.578	0.0159589
644.656	0.0157909
644.734	0.0157467
644.812	0.0158923
644.890	0.0157648
644.968	0.0157926
645.047	0.0158669
645.125	0.0157909
645.203	0.0157977
645.281	0.0158271
645.359	0.0157184
645.437	0.0155624
645.515	0.0156927
645.593	0.0157763
645.672	0.0155347
645.750	0.0156514
645.828	0.0156327
645.906	0.0157763
645.984	0.0158627
646.062	0.0156631
646.140	0.0156661
646.218	0.0157688
646.297	0.0155977
646.375	0.0156075
646.453	0.0157091
646.531	0.0158651
646.609	0.0155878
646.687	0.0155836
646.765	0.0155749
646.843	0.0157436
646.922	0.0156523
647.000	0.0157303
647.078	0.0155745
647.156	0.0155073
647.234	0.0156550
647.312	0.0155951
647.390	0.0156170
647.468	0.0155072
647.547	0.0154632
647.625	0.0155509
647.703	0.0156880
647.781	0.0155615
647.859	0.0155074
647.937	0.0156036
648.015	0.0156385
648.093	0.0155901
648.172	0.0155331
648.250	0.0155550
648.328	0.0156569
648.406	0.0155325
648.484	0.0155399
648.562	0.0155474
648.640	0.0155104
648.718	0.0155003
648.797	0.0155981
648.875	0.0155764
648.953	0.0155345
649.031	0.0155574
649.109	0.0155682
649.187	0.0156032
649.265	0.0155588
649.343	0.0155742
649.422	0.0155759
649.500	0.0156464
649.578	0.0155222
649.656	0.0156467
649.734	0.0155720
649.812	0.0155986
649.890	0.0155901
649.968	0.0156560
650.047	0.0156369
650.125	0.0155391
650.203	0.0156907
650.281	0.0156687
650.359	0.0156585
650.437	0.0156001
650.515	0.0155933
650.593	0.0156866
650.672	0.0156676
650.750	0.0156756
650.828	0.0156015
650.906	0.0156323
650.984	0.0156797
651.062	0.0157363
651.140	0.0155808
651.218	0.0156682
651.297	0.0156985
651.375	0.0156332
651.453	0.0156782
651.531	0.0156968
651.609	0.0156634
651.687	0.0157214
651.765	0.0156332
651.843	0.0157058
651.922	0.0156867
652.000	0.0157060
652.078	0.0158305
652.156	0.0157486
652.234	0.0156470
652.312	0.0156616
652.390	0.0157285
652.468	0.0157279
652.547	0.0156854
652.625	0.0158080
652.703	0.0157306
652.781	0.0157068
652.859	0.0158160
652.937	0.0157487
653.015	0.0158099
653.093	0.0158612
653.172	0.0157566
653.250	0.0158131
653.328	0.0158559
653.406	0.0159655
653.484	0.0157592
653.562	0.0157771
653.640	0.0157224
653.718	0.0158074
653.797	0.0158002
653.875	0.0157330
653.953	0.0158034
654.031	0.0157796
654.109	0.0157701
654.187	0.0158029
654.265	0.0158865
654.343	0.0157675
654.422	0.0157328
654.500	0.0158694
654.578	0.0158239
654.656	0.0158470
654.734	0.0159256
654.812	0.0157295
654.890	0.0158710
654.968	0.0159106
655.047	0.0158420
655.125	0.0160103
655.203	0.0159499
655.281	0.0159306
655.359	0.0159874
655.437	0.0159949
655.515	0.0158073
655.593	0.0158018
655.672	0.0159723
655.750	0.0159023
655.828	0.0157903
655.906	0.0158296
655.984	0.0157810
656.062	0.0157219
656.140	0.0158498
656.218	0.0159685
656.297	0.0157492
656.375	0.0159818
656.453	0.0159830
656.531	0.0159267
656.609	0.0158822
656.687	0.0158613
656.765	0.0158466
656.843	0.0160138
656.922	0.0159389
657.000	0.0159543
657.078	0.0157762
657.156	0.0159055
657.234	0.0159704
657.312	0.0159872
657.390	0.0158640
657.468	0.0158962
657.547	0.0159532
657.625	0.0158739
657.703	0.0161372
657.781	0.0158736
657.859	0.0158074
657.937	0.0158845
658.015	0.0159367
658.093	0.0159431
658.172	0.0158947
658.250	0.0159613
658.328	0.0159467
658.406	0.0158754
658.484	0.0161134
658.562	0.0159134
658.640	0.0158442
658.718	0.0158155
658.797	0.0159187
658.875	0.0156724
658.953	0.0157941
659.031	0.0160304
659.109	0.0159762
659.187	0.0159454
659.265	0.0158665
659.343	0.0158703
659.422	0.0159520
659.500	0.0159558
659.578	0.0158713
659.656	0.0159228
659.734	0.0160089
659.812	0.0158431
659.890	0.0160131
659.968	0.0161240
660.047	0.0157568
660.125	0.0157082
660.203	0.0160036
660.281	0.0160738
660.359	0.0160495
660.437	0.0159491
660.515	0.0158983
660.593	0.0159482
660.672	0.0160444
660.750	0.0159583
660.828	0.0159767
660.906	0.0158885
660.984	0.0158715
661.062	0.0159985
661.140	0.0158755
661.218	0.0160416
661.297	0.0159103
661.375	0.0159529
661.453	0.0158542
661.531	0.0159000
661.609	0.0159017
661.687	0.0159775
661.765	0.0158929
661.843	0.0159361
661.922	0.0159418
662.000	0.0159639
662.078	0.0158445
662.156	0.0157390
662.234	0.0158539
662.312	0.0158090
662.390	0.0157555
662.468	0.0156732
662.547	0.0158183
662.625	0.0159245
662.703	0.0159389
662.781	0.0158650
662.859	0.0158526
662.937	0.0158736
663.015	0.0157839
663.093	0.0157465
663.172	0.0157224
663.250	0.0158521
663.328	0.0158495
663.406	0.0158403
663.484	0.0157669
663.562	0.0157462
663.640	0.0158568
663.718	0.0156448
663.797	0.0158507
663.875	0.0157483
663.953	0.0157198
664.031	0.0158015
664.109	0.0157986
664.187	0.0159328
664.265	0.0158959
664.343	0.0158192
664.422	0.0157539
664.500	0.0157852
664.578	0.0159266
664.656	0.0158891
664.734	0.0158363
664.812	0.0157246
664.890	0.0157585
664.968	0.0157845
665.047	0.0159241
665.125	0.0159357
665.203	0.0159118
665.281	0.0158202
665.359	0.0157423
665.437	0.0159117
665.515	0.0157784
665.593	0.0158099
665.672	0.0158215
665.750	0.0157848
665.828	0.0158333
665.906	0.0158192
665.984	0.0157462
666.062	0.0158668
666.140	0.0156830
666.218	0.0157079
666.297	0.0158430
666.375	0.0159338
666.453	0.0159226
666.531	0.0157445
666.609	0.0157352
666.687	0.0157830
666.765	0.0158554
666.843	0.0158582
666.922	0.0158746
667.000	0.0156906
667.078	0.0156457
667.156	0.0157398
667.234	0.0157266
667.312	0.0159225
667.390	0.0158102
667.468	0.0157861
667.547	0.0157646
667.625	0.0157029
667.703	0.0158529
667.781	0.0158768
667.859	0.0157680
667.937	0.0158365
668.015	0.0158394
668.093	0.0157852
668.172	0.0157652
668.250	0.0158129
668.328	0.0156662
668.406	0.0157545
668.484	0.0157430
668.562	0.0157620
668.640	0.0156622
668.718	0.0156215
668.797	0.0158820
668.875	0.0156753
668.953	0.0157571
669.031	0.0158815
669.109	0.0157688
669.187	0.0158310
669.265	0.0157652
669.343	0.0158353
669.422	0.0156573
669.500	0.0158549
669.578	0.0157841
669.656	0.0157523
669.734	0.0157971
669.812	0.0158006
669.890	0.0158277
669.968	0.0158569
670.047	0.0156969
670.125	0.0157126
670.203	0.0156906
670.281	0.0157571
670.359	0.0157936
670.437	0.0155772
670.515	0.0157403
670.593	0.0157684
670.672	0.0157648
670.750	0.0158460
670.828	0.0158099
670.906	0.0157592
670.984	0.0155991
671.062	0.0157362
671.140	0.0157428
671.218	0.0157962
671.297	0.0157170
671.375	0.0157104
671.453	0.0155496
671.531	0.0157572
671.609	0.0157353
671.687	0.0157683
671.765	0.0156383
671.843	0.0155923
671.922	0.0156104
672.000	0.0157092
672.078	0.0158425
672.156	0.0158150
672.234	0.0157931
672.312	0.0156040
672.390	0.0157172
672.468	0.0158304
672.547	0.0155510
672.625	0.0157269
672.703	0.0158297
672.781	0.0158416
672.859	0.0157439
672.937	0.0155687
673.015	0.0156473
673.093	0.0156157
673.172	0.0156590
673.250	0.0158302
673.328	0.0156842
673.406	0.0157478
673.484	0.0157640
673.562	0.0157849
673.640	0.0156677
673.718	0.0156591
673.797	0.0157462
673.875	0.0157629
673.953	0.0156651
674.031	0.0155630
674.109	0.0158781
674.187	0.0157684
674.265	0.0157205
674.343	0.0157189
674.422	0.0156824
674.500	0.0157030
674.578	0.0156854
674.656	0.0157561
674.734	0.0158098
674.812	0.0158134
674.890	0.0157922
674.968	0.0157394
675.047	0.0157576
675.125	0.0156709
675.203	0.0157372
675.281	0.0157439
675.359	0.0158295
675.437	0.0158783
675.515	0.0156622
675.593	0.0157232
675.672	0.0157537
675.750	0.0157420
675.828	0.0157965
675.906	0.0157829
675.984	0.0158498
676.062	0.0157381
676.140	0.0157343
676.218	0.0156811
676.297	0.0157836
676.375	0.0157928
676.453	0.0156820
676.531	0.0158348
676.609	0.0158858
676.687	0.0157357
676.765	0.0156178
676.843	0.0158431
676.922	0.0158652
677.000	0.0157883
677.078	0.0157858
677.156	0.0157301
677.234	0.0157852
677.312	0.0158489
677.390	0.0157120
677.468	0.0158205
677.547	0.0158027
677.625	0.0156326
677.703	0.0157859
677.781	0.0157448
677.859	0.0157663
677.937	0.0157069
678.015	0.0158170
678.093	0.0156918
678.172	0.0159431
678.250	0.0157942
678.328	0.0158775
678.406	0.0158710
678.484	0.0159653
678.562	0.0157679
678.640	0.0158669
678.718	0.0157829
678.797	0.0158253
678.875	0.0158915
678.953	0.0158221
679.031	0.0157404
679.109	0.0159157
679.187	0.0158181
679.265	0.0158204
679.343	0.0158743
679.422	0.0157967
679.500	0.0157852
679.578	0.0156912
679.656	0.0158526
679.734	0.0158138
679.812	0.0158643
679.890	0.0158279
679.968	0.0158102
680.047	0.0158762
680.125	0.0158187
680.203	0.0158298
680.281	0.0157795
680.359	0.0156791
680.437	0.0157994
680.515	0.0158742
680.593	0.0158320
680.672	0.0157689
680.750	0.0157137
680.828	0.0157770
680.906	0.0157951
680.984	0.0159302
681.062	0.0157513
681.140	0.0157514
681.218	0.0159438
681.297	0.0158707
681.375	0.0157796
681.453	0.0158199
681.531	0.0159541
681.609	0.0158360
681.687	0.0158868
681.765	0.0158454
681.843	0.0158810
681.922	0.0158245
682.000	0.0159570
682.078	0.0158193
682.156	0.0159266
682.234	0.0158379
682.312	0.0157600
682.390	0.0158247
682.468	0.0158790
682.547	0.0158223
682.625	0.0158334
682.703	0.0157936
682.781	0.0159130
682.859	0.0159010
682.937	0.0158973
683.015	0.0158441
683.093	0.0160474
683.172	0.0160017
683.250	0.0159816
683.328	0.0159084
683.406	0.0160062
683.484	0.0159901
683.562	0.0158739
683.640	0.0159712
683.718	0.0159617
683.797	0.0158984
683.875	0.0158595
683.953	0.0159512
684.031	0.0158118
684.109	0.0159182
684.187	0.0159162
684.265	0.0160105
684.343	0.0158545
684.422	0.0159335
684.500	0.0159544
684.578	0.0158528
684.656	0.0158780
684.734	0.0158835
684.812	0.0160156
684.890	0.0158656
684.968	0.0158281
685.047	0.0159618
685.125	0.0160957
685.203	0.0159993
685.281	0.0158987
685.359	0.0160778
685.437	0.0161602
685.515	0.0159981
685.593	0.0160448
685.672	0.0159737
