06/13/2022	15:15:10	Ver.	4.1	UNKNOWN
Optical Delay	599.968395	Delta X		0.078125	Sweeps	1	Scan Rate	0/0
Coordinates	Axis 1	NaN	Axis 2	NaN	Axis 3	NaN	Axis 4	NaN	Axis 5	NaN	Axis 6	0.000000
TX Power	0.000000	RX Power	0.000000

599.968	0.0163077
600.047	0.0164323
600.125	0.0162132
600.203	0.0163152
600.281	0.0161781
600.359	0.0160204
600.437	0.0161538
600.515	0.0160831
600.593	0.0159982
600.672	0.0160044
600.750	0.0160059
600.828	0.0160966
600.906	0.0159592
600.984	0.0159001
601.062	0.0159899
601.140	0.0160591
601.218	0.0160016
601.297	0.0159018
601.375	0.0161488
601.453	0.0161440
601.531	0.0161513
601.609	0.0160165
601.687	0.0161608
601.765	0.0160892
601.843	0.0161779
601.922	0.0161351
602.000	0.0160438
602.078	0.0161354
602.156	0.0160851
602.234	0.0160210
602.312	0.0161316
602.390	0.0160665
602.468	0.0160635
602.547	0.0160660
602.625	0.0160818
602.703	0.0162243
602.781	0.0162104
602.859	0.0161281
602.937	0.0161196
603.015	0.0160825
603.093	0.0161546
603.172	0.0160159
603.250	0.0160491
603.328	0.0160320
603.406	0.0160606
603.484	0.0160672
603.562	0.0160262
603.640	0.0161752
603.718	0.0160330
603.797	0.0160615
603.875	0.0161297
603.953	0.0161618
604.031	0.0161635
604.109	0.0161045
604.187	0.0162716
604.265	0.0161028
604.343	0.0161617
604.422	0.0161521
604.500	0.0161978
604.578	0.0162928
604.656	0.0162037
604.734	0.0161043
604.812	0.0161752
604.890	0.0162811
604.968	0.0162122
605.047	0.0162716
605.125	0.0164285
605.203	0.0162032
605.281	0.0162417
605.359	0.0162421
605.437	0.0163982
605.515	0.0163655
605.593	0.0162839
605.672	0.0162294
605.750	0.0163375
605.828	0.0163569
605.906	0.0163830
605.984	0.0163278
606.062	0.0160698
606.140	0.0162717
606.218	0.0163660
606.297	0.0164032
606.375	0.0163415
606.453	0.0162875
606.531	0.0161960
606.609	0.0162218
606.687	0.0162798
606.765	0.0162063
606.843	0.0160690
606.922	0.0162096
607.000	0.0162691
607.078	0.0162107
607.156	0.0162347
607.234	0.0163602
607.312	0.0163677
607.390	0.0163609
607.468	0.0162601
607.547	0.0164568
607.625	0.0164641
607.703	0.0165392
607.781	0.0163981
607.859	0.0164282
607.937	0.0163904
608.015	0.0164256
608.093	0.0164099
608.172	0.0165406
608.250	0.0164423
608.328	0.0164817
608.406	0.0164127
608.484	0.0164429
608.562	0.0163576
608.640	0.0164167
608.718	0.0163792
608.797	0.0163816
608.875	0.0163741
608.953	0.0162666
609.031	0.0162267
609.109	0.0164478
609.187	0.0163531
609.265	0.0162390
609.343	0.0163438
609.422	0.0164508
609.500	0.0162051
609.578	0.0162766
609.656	0.0163494
609.734	0.0163307
609.812	0.0163931
609.890	0.0163618
609.968	0.0163443
610.047	0.0165025
610.125	0.0164799
610.203	0.0162900
610.281	0.0162151
610.359	0.0162228
610.437	0.0163548
610.515	0.0163976
610.593	0.0163789
610.672	0.0163644
610.750	0.0163735
610.828	0.0162849
610.906	0.0163904
610.984	0.0165569
611.062	0.0163618
611.140	0.0164867
611.218	0.0164337
611.297	0.0164365
611.375	0.0164153
611.453	0.0163690
611.531	0.0164140
611.609	0.0166586
611.687	0.0164930
611.765	0.0163186
611.843	0.0164485
611.922	0.0165100
612.000	0.0163898
612.078	0.0163979
612.156	0.0164232
612.234	0.0166114
612.312	0.0165854
612.390	0.0166376
612.468	0.0164948
612.547	0.0164765
612.625	0.0164375
612.703	0.0164045
612.781	0.0165339
612.859	0.0164475
612.937	0.0163916
613.015	0.0163982
613.093	0.0164520
613.172	0.0165074
613.250	0.0164056
613.328	0.0164842
613.406	0.0163637
613.484	0.0163236
613.562	0.0163438
613.640	0.0163653
613.718	0.0164108
613.797	0.0162370
613.875	0.0163271
613.953	0.0163027
614.031	0.0162736
614.109	0.0163168
614.187	0.0162879
614.265	0.0163458
614.343	0.0164410
614.422	0.0163587
614.500	0.0163783
614.578	0.0164476
614.656	0.0163181
614.734	0.0163147
614.812	0.0163636
614.890	0.0162281
614.968	0.0164727
615.047	0.0163453
615.125	0.0164123
615.203	0.0164000
615.281	0.0162289
615.359	0.0165135
615.437	0.0163742
615.515	0.0164723
615.593	0.0164528
615.672	0.0165561
615.750	0.0165072
615.828	0.0164951
615.906	0.0164585
615.984	0.0166827
616.062	0.0165043
616.140	0.0164740
616.218	0.0165434
616.297	0.0165366
616.375	0.0166900
616.453	0.0165891
616.531	0.0165570
616.609	0.0165662
616.687	0.0167120
616.765	0.0167167
616.843	0.0165916
616.922	0.0165981
617.000	0.0166355
617.078	0.0167411
617.156	0.0167073
617.234	0.0166189
617.312	0.0165656
617.390	0.0163987
617.468	0.0165345
617.547	0.0165056
617.625	0.0163600
617.703	0.0164419
617.781	0.0164588
617.859	0.0164003
617.937	0.0163226
618.015	0.0163879
618.093	0.0163475
618.172	0.0163603
618.250	0.0165067
618.328	0.0163988
618.406	0.0163161
618.484	0.0163096
618.562	0.0164101
618.640	0.0164800
618.718	0.0164291
618.797	0.0164216
618.875	0.0163548
618.953	0.0163359
619.031	0.0164648
619.109	0.0162515
619.187	0.0163596
619.265	0.0165237
619.343	0.0165031
619.422	0.0163275
619.500	0.0163911
619.578	0.0165220
619.656	0.0164445
619.734	0.0163582
619.812	0.0164063
619.890	0.0164619
619.968	0.0163868
620.047	0.0162957
620.125	0.0164227
620.203	0.0164627
620.281	0.0163934
620.359	0.0164443
620.437	0.0164857
620.515	0.0164761
620.593	0.0163409
620.672	0.0163757
620.750	0.0165040
620.828	0.0164104
620.906	0.0164095
620.984	0.0164739
621.062	0.0164453
621.140	0.0164862
621.218	0.0163335
621.297	0.0164256
621.375	0.0163677
621.453	0.0164537
621.531	0.0163409
621.609	0.0164645
621.687	0.0163541
621.765	0.0163993
621.843	0.0163606
621.922	0.0162960
622.000	0.0163199
622.078	0.0163402
622.156	0.0164986
622.234	0.0163978
622.312	0.0162791
622.390	0.0164438
622.468	0.0161024
622.547	0.0162921
622.625	0.0162865
622.703	0.0163448
622.781	0.0163609
622.859	0.0163687
622.937	0.0161835
623.015	0.0164098
623.093	0.0163299
623.172	0.0162136
623.250	0.0162887
623.328	0.0162637
623.406	0.0163058
623.484	0.0162482
623.562	0.0162538
623.640	0.0162774
623.718	0.0163125
623.797	0.0162659
623.875	0.0162308
623.953	0.0162454
624.031	0.0162863
624.109	0.0162872
624.187	0.0162490
624.265	0.0162329
624.343	0.0161905
624.422	0.0163348
624.500	0.0162707
624.578	0.0163094
624.656	0.0163287
624.734	0.0163934
624.812	0.0161398
624.890	0.0162663
624.968	0.0163127
625.047	0.0162389
625.125	0.0162604
625.203	0.0162165
625.281	0.0161681
625.359	0.0162059
625.437	0.0161524
625.515	0.0161827
625.593	0.0160010
625.672	0.0160696
625.750	0.0161395
625.828	0.0161795
625.906	0.0161258
625.984	0.0159751
626.062	0.0161353
626.140	0.0159812
626.218	0.0160172
626.297	0.0158352
626.375	0.0159712
626.453	0.0159441
626.531	0.0159197
626.609	0.0158457
626.687	0.0157785
626.765	0.0158712
626.843	0.0159708
626.922	0.0159389
627.000	0.0159103
627.078	0.0159132
627.156	0.0159462
627.234	0.0159064
627.312	0.0158743
627.390	0.0157446
627.468	0.0159113
627.547	0.0159996
627.625	0.0161053
627.703	0.0159907
627.781	0.0160329
627.859	0.0159609
627.937	0.0160352
628.015	0.0160330
628.093	0.0160845
628.172	0.0162057
628.250	0.0160520
628.328	0.0162418
628.406	0.0161387
628.484	0.0160486
628.562	0.0161864
628.640	0.0161675
628.718	0.0161829
628.797	0.0161604
628.875	0.0162971
628.953	0.0162502
629.031	0.0161383
629.109	0.0162758
629.187	0.0162194
629.265	0.0162444
629.343	0.0162837
629.422	0.0160607
629.500	0.0162745
629.578	0.0162787
629.656	0.0161423
629.734	0.0162469
629.812	0.0163212
629.890	0.0162540
629.968	0.0162218
630.047	0.0161824
630.125	0.0161625
630.203	0.0163676
630.281	0.0162508
630.359	0.0162995
630.437	0.0163478
630.515	0.0162883
630.593	0.0162444
630.672	0.0161015
630.750	0.0163202
630.828	0.0163345
630.906	0.0162445
630.984	0.0164659
631.062	0.0162423
631.140	0.0162912
631.218	0.0163765
631.297	0.0162878
631.375	0.0163261
631.453	0.0163170
631.531	0.0162058
631.609	0.0163538
631.687	0.0162418
631.765	0.0162337
631.843	0.0163435
631.922	0.0164165
632.000	0.0164539
632.078	0.0163113
632.156	0.0162755
632.234	0.0163851
632.312	0.0164739
632.390	0.0163813
632.468	0.0164054
632.547	0.0164107
632.625	0.0164578
632.703	0.0164948
632.781	0.0165699
632.859	0.0164123
632.937	0.0163759
633.015	0.0166116
633.093	0.0164810
633.172	0.0164028
633.250	0.0165263
633.328	0.0166164
633.406	0.0166129
633.484	0.0166068
633.562	0.0164218
633.640	0.0164162
633.718	0.0165630
633.797	0.0166077
633.875	0.0166441
633.953	0.0165749
634.031	0.0165211
634.109	0.0165392
634.187	0.0164904
634.265	0.0165383
634.343	0.0165716
634.422	0.0164111
634.500	0.0163821
634.578	0.0164620
634.656	0.0165493
634.734	0.0165422
634.812	0.0164224
634.890	0.0164516
634.968	0.0165549
635.047	0.0165208
635.125	0.0164948
635.203	0.0166734
635.281	0.0165884
635.359	0.0165804
635.437	0.0164462
635.515	0.0165141
635.593	0.0165864
635.672	0.0165865
635.750	0.0165028
635.828	0.0165701
635.906	0.0165048
635.984	0.0166050
636.062	0.0165158
636.140	0.0165633
636.218	0.0165962
636.297	0.0165456
636.375	0.0166148
636.453	0.0165782
636.531	0.0165743
636.609	0.0165503
636.687	0.0167038
636.765	0.0163813
636.843	0.0165173
636.922	0.0164150
637.000	0.0164438
637.078	0.0164997
637.156	0.0164427
637.234	0.0164812
637.312	0.0164301
637.390	0.0165918
637.468	0.0164048
637.547	0.0163469
637.625	0.0164153
637.703	0.0165491
637.781	0.0164159
637.859	0.0162564
637.937	0.0163976
638.015	0.0165443
638.093	0.0163661
638.172	0.0163902
638.250	0.0164098
638.328	0.0165097
638.406	0.0164140
638.484	0.0163854
638.562	0.0164024
638.640	0.0163985
638.718	0.0163844
638.797	0.0163563
638.875	0.0165974
638.953	0.0165343
639.031	0.0163277
639.109	0.0163802
639.187	0.0165545
639.265	0.0164661
639.343	0.0163276
639.422	0.0163618
639.500	0.0164561
639.578	0.0164108
639.656	0.0163895
639.734	0.0165719
639.812	0.0165675
639.890	0.0164005
639.968	0.0165063
640.047	0.0163979
640.125	0.0165794
640.203	0.0163463
640.281	0.0164420
640.359	0.0164763
640.437	0.0164255
640.515	0.0163735
640.593	0.0163421
640.672	0.0163795
640.750	0.0162733
640.828	0.0164407
640.906	0.0164298
640.984	0.0164217
641.062	0.0163350
641.140	0.0163982
641.218	0.0163910
641.297	0.0161639
641.375	0.0163794
641.453	0.0165099
641.531	0.0163002
641.609	0.0163383
641.687	0.0162392
641.765	0.0162807
641.843	0.0163109
641.922	0.0164052
642.000	0.0164194
642.078	0.0163038
642.156	0.0163383
642.234	0.0162375
642.312	0.0163726
642.390	0.0162096
642.468	0.0163889
642.547	0.0164800
642.625	0.0164149
642.703	0.0164216
642.781	0.0164011
642.859	0.0163216
642.937	0.0164153
643.015	0.0163155
643.093	0.0164295
643.172	0.0162838
643.250	0.0163094
643.328	0.0163823
643.406	0.0163051
643.484	0.0162820
643.562	0.0163673
643.640	0.0162833
643.718	0.0163274
643.797	0.0164970
643.875	0.0162959
643.953	0.0162485
644.031	0.0163995
644.109	0.0161877
644.187	0.0162663
644.265	0.0164328
644.343	0.0164172
644.422	0.0163406
644.500	0.0163593
644.578	0.0162357
644.656	0.0162670
644.734	0.0164819
644.812	0.0163842
644.890	0.0164343
644.968	0.0162106
645.047	0.0162873
645.125	0.0161308
645.203	0.0163540
645.281	0.0164204
645.359	0.0163267
645.437	0.0164101
645.515	0.0163512
645.593	0.0162579
645.672	0.0162685
645.750	0.0162152
645.828	0.0162187
645.906	0.0162621
645.984	0.0162350
646.062	0.0163288
646.140	0.0161890
646.218	0.0161372
646.297	0.0161346
646.375	0.0161813
646.453	0.0162144
646.531	0.0162469
646.609	0.0162327
646.687	0.0162543
646.765	0.0162830
646.843	0.0161948
646.922	0.0161298
647.000	0.0162284
647.078	0.0162310
647.156	0.0162468
647.234	0.0162988
647.312	0.0162175
647.390	0.0161800
647.468	0.0161942
647.547	0.0162413
647.625	0.0162894
647.703	0.0162235
647.781	0.0161845
647.859	0.0162588
647.937	0.0162861
648.015	0.0163083
648.093	0.0161414
648.172	0.0162164
648.250	0.0162019
648.328	0.0160921
648.406	0.0162655
648.484	0.0162567
648.562	0.0162035
648.640	0.0161279
648.718	0.0161626
648.797	0.0160946
648.875	0.0161066
648.953	0.0161655
649.031	0.0162631
649.109	0.0160163
649.187	0.0161165
649.265	0.0162144
649.343	0.0162265
649.422	0.0161556
649.500	0.0162373
649.578	0.0161639
649.656	0.0161495
649.734	0.0160934
649.812	0.0161726
649.890	0.0162254
649.968	0.0161687
650.047	0.0162826
650.125	0.0161468
650.203	0.0161356
650.281	0.0163151
650.359	0.0161951
650.437	0.0160820
650.515	0.0161449
650.593	0.0162827
650.672	0.0162864
650.750	0.0163580
650.828	0.0162811
650.906	0.0162186
650.984	0.0162960
651.062	0.0161435
651.140	0.0161665
651.218	0.0162073
651.297	0.0162244
651.375	0.0162902
651.453	0.0162236
651.531	0.0162584
651.609	0.0161910
651.687	0.0163564
651.765	0.0162586
651.843	0.0162220
651.922	0.0161809
652.000	0.0163020
652.078	0.0163761
652.156	0.0163344
652.234	0.0161491
652.312	0.0163221
652.390	0.0163911
652.468	0.0163372
652.547	0.0161705
652.625	0.0161871
652.703	0.0163414
652.781	0.0163067
652.859	0.0162177
652.937	0.0164539
653.015	0.0163448
653.093	0.0162717
653.172	0.0162614
653.250	0.0164752
653.328	0.0162992
653.406	0.0162645
653.484	0.0163524
653.562	0.0163080
653.640	0.0165192
653.718	0.0164044
653.797	0.0162210
653.875	0.0163064
653.953	0.0164942
654.031	0.0162329
654.109	0.0162914
654.187	0.0164397
654.265	0.0162760
654.343	0.0162666
654.422	0.0162239
654.500	0.0164465
654.578	0.0164026
654.656	0.0163428
654.734	0.0163579
654.812	0.0163405
654.890	0.0163909
654.968	0.0163934
655.047	0.0163473
655.125	0.0162598
655.203	0.0165134
655.281	0.0164207
655.359	0.0162870
655.437	0.0163567
655.515	0.0164246
655.593	0.0163631
655.672	0.0164587
655.750	0.0161951
655.828	0.0162474
655.906	0.0164233
655.984	0.0163344
656.062	0.0164124
656.140	0.0164214
656.218	0.0163860
656.297	0.0162968
656.375	0.0163371
656.453	0.0164387
656.531	0.0165136
656.609	0.0165459
656.687	0.0164240
656.765	0.0162961
656.843	0.0165372
656.922	0.0164854
657.000	0.0163680
657.078	0.0163955
657.156	0.0164361
657.234	0.0164494
657.312	0.0162460
657.390	0.0164268
657.468	0.0163705
657.547	0.0163024
657.625	0.0162905
657.703	0.0163017
657.781	0.0163391
657.859	0.0163477
657.937	0.0162999
658.015	0.0163789
658.093	0.0162977
658.172	0.0162107
658.250	0.0163747
658.328	0.0164919
658.406	0.0163565
658.484	0.0164922
658.562	0.0164187
658.640	0.0162713
658.718	0.0162522
658.797	0.0164201
658.875	0.0164275
658.953	0.0163747
659.031	0.0163638
659.109	0.0162747
659.187	0.0163227
659.265	0.0165180
659.343	0.0165282
659.422	0.0163544
659.500	0.0164337
659.578	0.0163648
659.656	0.0163429
659.734	0.0163522
659.812	0.0165066
659.890	0.0164086
659.968	0.0163780
660.047	0.0163908
660.125	0.0163952
660.203	0.0164598
660.281	0.0163416
660.359	0.0165691
660.437	0.0164365
660.515	0.0164618
660.593	0.0163577
660.672	0.0164900
660.750	0.0164080
660.828	0.0163435
660.906	0.0163869
660.984	0.0163303
661.062	0.0165052
661.140	0.0165971
661.218	0.0164645
661.297	0.0164399
661.375	0.0162424
661.453	0.0164121
661.531	0.0164362
661.609	0.0163686
661.687	0.0164224
661.765	0.0163840
661.843	0.0163965
661.922	0.0163760
662.000	0.0164509
662.078	0.0164597
662.156	0.0164642
662.234	0.0164890
662.312	0.0164180
662.390	0.0163548
662.468	0.0165318
662.547	0.0164028
662.625	0.0164769
662.703	0.0165341
662.781	0.0164938
662.859	0.0163729
662.937	0.0164112
663.015	0.0164990
663.093	0.0166060
663.172	0.0165700
663.250	0.0165549
663.328	0.0164661
663.406	0.0164880
663.484	0.0164244
663.562	0.0164648
663.640	0.0164088
663.718	0.0164282
663.797	0.0164124
663.875	0.0164305
663.953	0.0164564
664.031	0.0165269
664.109	0.0165434
664.187	0.0163989
664.265	0.0165106
664.343	0.0164393
664.422	0.0163131
664.500	0.0165834
664.578	0.0164433
664.656	0.0164555
664.734	0.0164436
664.812	0.0163660
664.890	0.0164777
664.968	0.0165022
665.047	0.0164146
665.125	0.0163956
665.203	0.0165224
665.281	0.0164574
665.359	0.0164892
665.437	0.0163962
665.515	0.0163198
665.593	0.0164585
665.672	0.0164362
665.750	0.0163008
665.828	0.0163175
665.906	0.0165083
665.984	0.0163885
666.062	0.0162796
666.140	0.0163511
666.218	0.0163810
666.297	0.0163161
666.375	0.0164619
666.453	0.0163755
666.531	0.0164907
666.609	0.0164212
666.687	0.0163447
666.765	0.0164956
666.843	0.0162817
666.922	0.0163819
667.000	0.0165218
667.078	0.0165546
667.156	0.0164222
667.234	0.0164855
667.312	0.0165014
667.390	0.0163432
667.468	0.0163743
667.547	0.0165200
667.625	0.0165431
667.703	0.0163419
667.781	0.0163559
667.859	0.0164047
667.937	0.0164099
668.015	0.0164636
668.093	0.0163528
668.172	0.0163200
668.250	0.0163753
668.328	0.0163950
668.406	0.0164213
668.484	0.0163295
668.562	0.0164706
668.640	0.0163039
668.718	0.0162997
668.797	0.0162250
668.875	0.0165007
668.953	0.0164044
669.031	0.0163089
669.109	0.0163643
669.187	0.0164297
669.265	0.0161613
669.343	0.0164023
669.422	0.0164728
669.500	0.0162577
669.578	0.0160564
669.656	0.0163027
669.734	0.0162704
669.812	0.0162856
669.890	0.0162745
669.968	0.0162728
670.047	0.0163392
670.125	0.0162397
670.203	0.0163604
670.281	0.0162933
670.359	0.0163792
670.437	0.0162971
670.515	0.0160818
670.593	0.0161866
670.672	0.0162936
670.750	0.0161509
670.828	0.0162773
670.906	0.0162068
670.984	0.0161670
671.062	0.0161971
671.140	0.0162035
671.218	0.0161413
671.297	0.0161453
671.375	0.0161473
671.453	0.0161290
671.531	0.0162577
671.609	0.0162568
671.687	0.0162170
671.765	0.0161526
671.843	0.0163108
671.922	0.0162277
672.000	0.0163519
672.078	0.0161427
672.156	0.0162270
672.234	0.0162832
672.312	0.0163232
672.390	0.0162846
672.468	0.0161112
672.547	0.0162675
672.625	0.0162294
672.703	0.0163356
672.781	0.0161487
672.859	0.0161167
672.937	0.0162451
673.015	0.0162105
673.093	0.0162096
673.172	0.0161861
673.250	0.0161607
673.328	0.0161492
673.406	0.0162312
673.484	0.0162115
673.562	0.0163376
673.640	0.0162600
673.718	0.0161643
673.797	0.0162354
673.875	0.0161868
673.953	0.0161671
674.031	0.0161434
674.109	0.0161413
674.187	0.0161882
674.265	0.0161779
674.343	0.0160881
674.422	0.0160994
674.500	0.0161957
674.578	0.0162409
674.656	0.0161056
674.734	0.0161948
674.812	0.0162643
674.890	0.0161541
674.968	0.0160582
675.047	0.0162335
675.125	0.0161857
675.203	0.0162802
675.281	0.0162653
675.359	0.0161492
675.437	0.0163015
675.515	0.0161491
675.593	0.0162189
675.672	0.0161786
675.750	0.0162646
675.828	0.0163451
675.906	0.0162259
675.984	0.0163233
676.062	0.0162756
676.140	0.0162573
676.218	0.0163479
676.297	0.0162891
676.375	0.0162610
676.453	0.0163634
676.531	0.0164536
676.609	0.0162917
676.687	0.0162048
676.765	0.0163625
676.843	0.0163171
676.922	0.0164093
677.000	0.0163306
677.078	0.0162893
677.156	0.0162994
677.234	0.0163223
677.312	0.0163216
677.390	0.0162804
677.468	0.0163908
677.547	0.0163966
677.625	0.0162989
677.703	0.0164248
677.781	0.0164265
677.859	0.0162761
677.937	0.0163712
678.015	0.0163875
678.093	0.0163110
678.172	0.0164142
678.250	0.0164165
678.328	0.0164011
678.406	0.0165135
678.484	0.0163228
678.562	0.0163934
678.640	0.0163982
678.718	0.0163629
678.797	0.0163239
678.875	0.0164439
678.953	0.0164465
679.031	0.0164386
679.109	0.0164348
679.187	0.0164073
679.265	0.0163767
679.343	0.0164017
679.422	0.0162682
679.500	0.0163416
679.578	0.0164600
679.656	0.0164487
679.734	0.0165740
679.812	0.0164433
679.890	0.0164825
679.968	0.0164513
680.047	0.0163293
680.125	0.0164499
680.203	0.0163947
680.281	0.0163789
680.359	0.0164134
680.437	0.0164252
680.515	0.0164690
680.593	0.0163367
680.672	0.0163238
680.750	0.0163595
680.828	0.0164235
680.906	0.0165170
680.984	0.0164404
681.062	0.0165194
681.140	0.0164112
681.218	0.0163152
681.297	0.0165195
681.375	0.0164271
681.453	0.0164153
681.531	0.0163269
681.609	0.0166051
681.687	0.0164503
681.765	0.0163445
681.843	0.0164127
681.922	0.0164667
682.000	0.0164083
682.078	0.0165301
682.156	0.0166225
682.234	0.0164327
682.312	0.0165277
682.390	0.0164236
682.468	0.0164697
682.547	0.0164761
682.625	0.0165427
682.703	0.0163985
682.781	0.0164288
682.859	0.0165583
682.937	0.0164468
683.015	0.0164809
683.093	0.0163987
683.172	0.0165147
683.250	0.0166248
683.328	0.0164397
683.406	0.0164777
683.484	0.0165407
683.562	0.0163710
683.640	0.0164640
683.718	0.0164319
683.797	0.0165105
683.875	0.0164460
683.953	0.0164426
684.031	0.0164577
684.109	0.0164623
684.187	0.0164314
684.265	0.0163508
684.343	0.0163602
684.422	0.0164322
684.500	0.0165291
684.578	0.0164786
684.656	0.0164127
684.734	0.0163606
684.812	0.0165118
684.890	0.0162942
684.968	0.0164174
685.047	0.0164816
685.125	0.0164307
685.203	0.0163591
685.281	0.0163997
685.359	0.0165169
685.437	0.0163924
685.515	0.0163812
685.593	0.0164767
685.672	0.0164680
