06/13/2022	14:33:38	Ver.	4.1	UNKNOWN
Optical Delay	599.968395	Delta X		0.078125	Sweeps	1	Scan Rate	0/0
Coordinates	Axis 1	NaN	Axis 2	NaN	Axis 3	NaN	Axis 4	NaN	Axis 5	NaN	Axis 6	0.000000
TX Power	0.000000	RX Power	0.000000

599.968	0.0159222
600.047	0.0158809
600.125	0.0159322
600.203	0.0160264
600.281	0.0157310
600.359	0.0159394
600.437	0.0158932
600.515	0.0158374
600.593	0.0159164
600.672	0.0159693
600.750	0.0158926
600.828	0.0159754
600.906	0.0159895
600.984	0.0160850
601.062	0.0161326
601.140	0.0159538
601.218	0.0158506
601.297	0.0159570
601.375	0.0160030
601.453	0.0160892
601.531	0.0158541
601.609	0.0158451
601.687	0.0158556
601.765	0.0159866
601.843	0.0159026
601.922	0.0160148
602.000	0.0161526
602.078	0.0159776
602.156	0.0158558
602.234	0.0159116
602.312	0.0159885
602.390	0.0159542
602.468	0.0158197
602.547	0.0159331
602.625	0.0160312
602.703	0.0159190
602.781	0.0160084
602.859	0.0160216
602.937	0.0159832
603.015	0.0159969
603.093	0.0159276
603.172	0.0159359
603.250	0.0158945
603.328	0.0159505
603.406	0.0158556
603.484	0.0159079
603.562	0.0158704
603.640	0.0159658
603.718	0.0158221
603.797	0.0160307
603.875	0.0158597
603.953	0.0159963
604.031	0.0159264
604.109	0.0160059
604.187	0.0159477
604.265	0.0160111
604.343	0.0159137
604.422	0.0159044
604.500	0.0159309
604.578	0.0159332
604.656	0.0161384
604.734	0.0159470
604.812	0.0157645
604.890	0.0158726
604.968	0.0159824
605.047	0.0160310
605.125	0.0159002
605.203	0.0160367
605.281	0.0159573
605.359	0.0160155
605.437	0.0159471
605.515	0.0158463
605.593	0.0159192
605.672	0.0158950
605.750	0.0158868
605.828	0.0160052
605.906	0.0159698
605.984	0.0159538
606.062	0.0158859
606.140	0.0159282
606.218	0.0159497
606.297	0.0159412
606.375	0.0159203
606.453	0.0158941
606.531	0.0159937
606.609	0.0159078
606.687	0.0159679
606.765	0.0159527
606.843	0.0158945
606.922	0.0158723
607.000	0.0160291
607.078	0.0160833
607.156	0.0159705
607.234	0.0159013
607.312	0.0160179
607.390	0.0159975
607.468	0.0160311
607.547	0.0158888
607.625	0.0158681
607.703	0.0159942
607.781	0.0158062
607.859	0.0159607
607.937	0.0160246
608.015	0.0158991
608.093	0.0158743
608.172	0.0158898
608.250	0.0159730
608.328	0.0158791
608.406	0.0157913
608.484	0.0158791
608.562	0.0160604
608.640	0.0159651
608.718	0.0159219
608.797	0.0159174
608.875	0.0159772
608.953	0.0158829
609.031	0.0159649
609.109	0.0159216
609.187	0.0157955
609.265	0.0159804
609.343	0.0159667
609.422	0.0159660
609.500	0.0159288
609.578	0.0159201
609.656	0.0159396
609.734	0.0161338
609.812	0.0159666
609.890	0.0158228
609.968	0.0160074
610.047	0.0159557
610.125	0.0159469
610.203	0.0159598
610.281	0.0159185
610.359	0.0160025
610.437	0.0158350
610.515	0.0158714
610.593	0.0159003
610.672	0.0160181
610.750	0.0159617
610.828	0.0159081
610.906	0.0159455
610.984	0.0157715
611.062	0.0159463
611.140	0.0159762
611.218	0.0159470
611.297	0.0160067
611.375	0.0158407
611.453	0.0159539
611.531	0.0160175
611.609	0.0159391
611.687	0.0160256
611.765	0.0160228
611.843	0.0161234
611.922	0.0160146
612.000	0.0158424
612.078	0.0159971
612.156	0.0159458
612.234	0.0159727
612.312	0.0158727
612.390	0.0159575
612.468	0.0157587
612.547	0.0158736
612.625	0.0161069
612.703	0.0158667
612.781	0.0159000
612.859	0.0159661
612.937	0.0158906
613.015	0.0159175
613.093	0.0159348
613.172	0.0159721
613.250	0.0159635
613.328	0.0157660
613.406	0.0160451
613.484	0.0160264
613.562	0.0159039
613.640	0.0159424
613.718	0.0160847
613.797	0.0160692
613.875	0.0160458
613.953	0.0159110
614.031	0.0160992
614.109	0.0158785
614.187	0.0159181
614.265	0.0160661
614.343	0.0160262
614.422	0.0159633
614.500	0.0160286
614.578	0.0159881
614.656	0.0158992
614.734	0.0159823
614.812	0.0159688
614.890	0.0160659
614.968	0.0159621
615.047	0.0159566
615.125	0.0160330
615.203	0.0159229
615.281	0.0159188
615.359	0.0159995
615.437	0.0158836
615.515	0.0159776
615.593	0.0160072
615.672	0.0159566
615.750	0.0159481
615.828	0.0159518
615.906	0.0159523
615.984	0.0160017
616.062	0.0158596
616.140	0.0161328
616.218	0.0160162
616.297	0.0160196
616.375	0.0159153
616.453	0.0159013
616.531	0.0160028
616.609	0.0159916
616.687	0.0159031
616.765	0.0159952
616.843	0.0159957
616.922	0.0158931
617.000	0.0159454
617.078	0.0159332
617.156	0.0160049
617.234	0.0160455
617.312	0.0159862
617.390	0.0160120
617.468	0.0159741
617.547	0.0160056
617.625	0.0159734
617.703	0.0160005
617.781	0.0158767
617.859	0.0159004
617.937	0.0160191
618.015	0.0159895
618.093	0.0158916
618.172	0.0159383
618.250	0.0159778
618.328	0.0160056
618.406	0.0158595
618.484	0.0158887
618.562	0.0158455
618.640	0.0160317
618.718	0.0158894
618.797	0.0160269
618.875	0.0159419
618.953	0.0158672
619.031	0.0159621
619.109	0.0160018
619.187	0.0159695
619.265	0.0159579
619.343	0.0157575
619.422	0.0158729
619.500	0.0159187
619.578	0.0158748
619.656	0.0159023
619.734	0.0160598
619.812	0.0158280
619.890	0.0158369
619.968	0.0159233
620.047	0.0158750
620.125	0.0159903
620.203	0.0159023
620.281	0.0158599
620.359	0.0159300
620.437	0.0159530
620.515	0.0158848
620.593	0.0159916
620.672	0.0159252
620.750	0.0159566
620.828	0.0159012
620.906	0.0160207
620.984	0.0161129
621.062	0.0159071
621.140	0.0159829
621.218	0.0158747
621.297	0.0159102
621.375	0.0160725
621.453	0.0159682
621.531	0.0158060
621.609	0.0159317
621.687	0.0158649
621.765	0.0159901
621.843	0.0158978
621.922	0.0158286
622.000	0.0159016
622.078	0.0159966
622.156	0.0160245
622.234	0.0159885
622.312	0.0158926
622.390	0.0160307
622.468	0.0159389
622.547	0.0159370
622.625	0.0158821
622.703	0.0159133
622.781	0.0160391
622.859	0.0159022
622.937	0.0159737
623.015	0.0158296
623.093	0.0158792
623.172	0.0157005
623.250	0.0158820
623.328	0.0159974
623.406	0.0160051
623.484	0.0158237
623.562	0.0159059
623.640	0.0158586
623.718	0.0160114
623.797	0.0159548
623.875	0.0160286
623.953	0.0158975
624.031	0.0158009
624.109	0.0158042
624.187	0.0159642
624.265	0.0160578
624.343	0.0159431
624.422	0.0159303
624.500	0.0158659
624.578	0.0159536
624.656	0.0159512
624.734	0.0158940
624.812	0.0158719
624.890	0.0159900
624.968	0.0159544
625.047	0.0160515
625.125	0.0160654
625.203	0.0159586
625.281	0.0158170
625.359	0.0159542
625.437	0.0158238
625.515	0.0161272
625.593	0.0159977
625.672	0.0160453
625.750	0.0159253
625.828	0.0159675
625.906	0.0159117
625.984	0.0159577
626.062	0.0158579
626.140	0.0160157
626.218	0.0159899
626.297	0.0160709
626.375	0.0159155
626.453	0.0159077
626.531	0.0160033
626.609	0.0159778
626.687	0.0160101
626.765	0.0160581
626.843	0.0160045
626.922	0.0157990
627.000	0.0160485
627.078	0.0160929
627.156	0.0159119
627.234	0.0158919
627.312	0.0158450
627.390	0.0158541
627.468	0.0159071
627.547	0.0158424
627.625	0.0159785
627.703	0.0161214
627.781	0.0159736
627.859	0.0158608
627.937	0.0160051
628.015	0.0158879
628.093	0.0160198
628.172	0.0160847
628.250	0.0159204
628.328	0.0160098
628.406	0.0159653
628.484	0.0158707
628.562	0.0158704
628.640	0.0160093
628.718	0.0159460
628.797	0.0160246
628.875	0.0159697
628.953	0.0159283
629.031	0.0160316
629.109	0.0158784
629.187	0.0157782
629.265	0.0160638
629.343	0.0157847
629.422	0.0158984
629.500	0.0158678
629.578	0.0159892
629.656	0.0159318
629.734	0.0160174
629.812	0.0160283
629.890	0.0159302
629.968	0.0159377
630.047	0.0157851
630.125	0.0158093
630.203	0.0160021
630.281	0.0159463
630.359	0.0159598
630.437	0.0159505
630.515	0.0157381
630.593	0.0159240
630.672	0.0160413
630.750	0.0158515
630.828	0.0160061
630.906	0.0159549
630.984	0.0158591
631.062	0.0160356
631.140	0.0158659
631.218	0.0158978
631.297	0.0160400
631.375	0.0159535
631.453	0.0159151
631.531	0.0159511
631.609	0.0159228
631.687	0.0159966
631.765	0.0159004
631.843	0.0160502
631.922	0.0159160
632.000	0.0160819
632.078	0.0159908
632.156	0.0159486
632.234	0.0159377
632.312	0.0159442
632.390	0.0158416
632.468	0.0160233
632.547	0.0159679
632.625	0.0159612
632.703	0.0159679
632.781	0.0158616
632.859	0.0159127
632.937	0.0159480
633.015	0.0158901
633.093	0.0159480
633.172	0.0159038
633.250	0.0158191
633.328	0.0158462
633.406	0.0160303
633.484	0.0158978
633.562	0.0159918
633.640	0.0159047
633.718	0.0158841
633.797	0.0158524
633.875	0.0158495
633.953	0.0158759
634.031	0.0160306
634.109	0.0159369
634.187	0.0158530
634.265	0.0158569
634.343	0.0159106
634.422	0.0159602
634.500	0.0160184
634.578	0.0159918
634.656	0.0158819
634.734	0.0159536
634.812	0.0157767
634.890	0.0159003
634.968	0.0158282
635.047	0.0160139
635.125	0.0159919
635.203	0.0160161
635.281	0.0160132
635.359	0.0159666
635.437	0.0158460
635.515	0.0159940
635.593	0.0159269
635.672	0.0158440
635.750	0.0158716
635.828	0.0158177
635.906	0.0159340
635.984	0.0158221
636.062	0.0159583
636.140	0.0160657
636.218	0.0160346
636.297	0.0158672
636.375	0.0159286
636.453	0.0158659
636.531	0.0158348
636.609	0.0159200
636.687	0.0159866
636.765	0.0158649
636.843	0.0159070
636.922	0.0159517
637.000	0.0159405
637.078	0.0160045
637.156	0.0159145
637.234	0.0159239
637.312	0.0160162
637.390	0.0160023
637.468	0.0159739
637.547	0.0159088
637.625	0.0159621
637.703	0.0160242
637.781	0.0159045
637.859	0.0160587
637.937	0.0159555
638.015	0.0158604
638.093	0.0159700
638.172	0.0160410
638.250	0.0159568
638.328	0.0159264
638.406	0.0158505
638.484	0.0158974
638.562	0.0158990
638.640	0.0157748
638.718	0.0160390
638.797	0.0160899
638.875	0.0159122
638.953	0.0159031
639.031	0.0160036
639.109	0.0158913
639.187	0.0158910
639.265	0.0160290
639.343	0.0158117
639.422	0.0158901
639.500	0.0161114
639.578	0.0159531
639.656	0.0160007
639.734	0.0158775
639.812	0.0159972
639.890	0.0159064
639.968	0.0160735
640.047	0.0158211
640.125	0.0159256
640.203	0.0159744
640.281	0.0160452
640.359	0.0159683
640.437	0.0159196
640.515	0.0158977
640.593	0.0159254
640.672	0.0161005
640.750	0.0160591
640.828	0.0159648
640.906	0.0159838
640.984	0.0158237
641.062	0.0159680
641.140	0.0158225
641.218	0.0159818
641.297	0.0159781
641.375	0.0159237
641.453	0.0159429
641.531	0.0159118
641.609	0.0159419
641.687	0.0159697
641.765	0.0161512
641.843	0.0158379
641.922	0.0158896
642.000	0.0159929
642.078	0.0158431
642.156	0.0157652
642.234	0.0159195
642.312	0.0158726
642.390	0.0158136
642.468	0.0160654
642.547	0.0160114
642.625	0.0159611
642.703	0.0159502
642.781	0.0159620
642.859	0.0160975
642.937	0.0158121
643.015	0.0158564
643.093	0.0159846
643.172	0.0158453
643.250	0.0159646
643.328	0.0158553
643.406	0.0159301
643.484	0.0159900
643.562	0.0161271
643.640	0.0160115
643.718	0.0159278
643.797	0.0159333
643.875	0.0160503
643.953	0.0159253
644.031	0.0158724
644.109	0.0159460
644.187	0.0159367
644.265	0.0159399
644.343	0.0159978
644.422	0.0159843
644.500	0.0159479
644.578	0.0159626
644.656	0.0159126
644.734	0.0160876
644.812	0.0160047
644.890	0.0159171
644.968	0.0159879
645.047	0.0160100
645.125	0.0158936
645.203	0.0159085
645.281	0.0157681
645.359	0.0159043
645.437	0.0159850
645.515	0.0160767
645.593	0.0159913
645.672	0.0159309
645.750	0.0159669
645.828	0.0159967
645.906	0.0159915
645.984	0.0159912
646.062	0.0160185
646.140	0.0159187
646.218	0.0159402
646.297	0.0159267
646.375	0.0159787
646.453	0.0159701
646.531	0.0159991
646.609	0.0158294
646.687	0.0160064
646.765	0.0160069
646.843	0.0159201
646.922	0.0159418
647.000	0.0159622
647.078	0.0157859
647.156	0.0159447
647.234	0.0160078
647.312	0.0158617
647.390	0.0158956
647.468	0.0160410
647.547	0.0158936
647.625	0.0159986
647.703	0.0160518
647.781	0.0160043
647.859	0.0158999
647.937	0.0160116
648.015	0.0160294
648.093	0.0158710
648.172	0.0160586
648.250	0.0159311
648.328	0.0159432
648.406	0.0159335
648.484	0.0158227
648.562	0.0158844
648.640	0.0159631
648.718	0.0159669
648.797	0.0159348
648.875	0.0159563
648.953	0.0158509
649.031	0.0158891
649.109	0.0159273
649.187	0.0158979
649.265	0.0159743
649.343	0.0160739
649.422	0.0160209
649.500	0.0160445
649.578	0.0159452
649.656	0.0160355
649.734	0.0159833
649.812	0.0159663
649.890	0.0158540
649.968	0.0159116
650.047	0.0159277
650.125	0.0158640
650.203	0.0160046
650.281	0.0159774
650.359	0.0159225
650.437	0.0158562
650.515	0.0159499
650.593	0.0160097
650.672	0.0159706
650.750	0.0158688
650.828	0.0159823
650.906	0.0160225
650.984	0.0159412
651.062	0.0158614
651.140	0.0158285
651.218	0.0159515
651.297	0.0159505
651.375	0.0159104
651.453	0.0160150
651.531	0.0158549
651.609	0.0157680
651.687	0.0160625
651.765	0.0162202
651.843	0.0160630
651.922	0.0158212
652.000	0.0158587
652.078	0.0159465
652.156	0.0160271
652.234	0.0159006
652.312	0.0159010
652.390	0.0159919
652.468	0.0159477
652.547	0.0159321
652.625	0.0160242
652.703	0.0158818
652.781	0.0159454
652.859	0.0159351
652.937	0.0159904
653.015	0.0160047
653.093	0.0159904
653.172	0.0160098
653.250	0.0159537
653.328	0.0159847
653.406	0.0159298
653.484	0.0158331
653.562	0.0160146
653.640	0.0159966
653.718	0.0159821
653.797	0.0160945
653.875	0.0159162
653.953	0.0158324
654.031	0.0159008
654.109	0.0159822
654.187	0.0159253
654.265	0.0159143
654.343	0.0159354
654.422	0.0158643
654.500	0.0158943
654.578	0.0160211
654.656	0.0160577
654.734	0.0159063
654.812	0.0159964
654.890	0.0159778
654.968	0.0160332
655.047	0.0158638
655.125	0.0158698
655.203	0.0158353
655.281	0.0159220
655.359	0.0159137
655.437	0.0158746
655.515	0.0160245
655.593	0.0159048
655.672	0.0160175
655.750	0.0160011
655.828	0.0159725
655.906	0.0159500
655.984	0.0158575
656.062	0.0160374
656.140	0.0159536
656.218	0.0159441
656.297	0.0158509
656.375	0.0158469
656.453	0.0160677
656.531	0.0159368
656.609	0.0159034
656.687	0.0159516
656.765	0.0160043
656.843	0.0160450
656.922	0.0160346
657.000	0.0160636
657.078	0.0159278
657.156	0.0157776
657.234	0.0159704
657.312	0.0159423
657.390	0.0158840
657.468	0.0159171
657.547	0.0158001
657.625	0.0157083
657.703	0.0159259
657.781	0.0160482
657.859	0.0160120
657.937	0.0158847
658.015	0.0160063
658.093	0.0160080
658.172	0.0159623
658.250	0.0159103
658.328	0.0158469
658.406	0.0159544
658.484	0.0158815
658.562	0.0160507
658.640	0.0160229
658.718	0.0160545
658.797	0.0159488
658.875	0.0157899
658.953	0.0159527
659.031	0.0159052
659.109	0.0159408
659.187	0.0160364
659.265	0.0159944
659.343	0.0157929
659.422	0.0159097
659.500	0.0159441
659.578	0.0159681
659.656	0.0158937
659.734	0.0160621
659.812	0.0159251
659.890	0.0159109
659.968	0.0159216
660.047	0.0157844
660.125	0.0160361
660.203	0.0158824
660.281	0.0159624
660.359	0.0160255
660.437	0.0159147
660.515	0.0160062
660.593	0.0160381
660.672	0.0159150
660.750	0.0158401
660.828	0.0159531
660.906	0.0159005
660.984	0.0159400
661.062	0.0158762
661.140	0.0158731
661.218	0.0159235
661.297	0.0160071
661.375	0.0158866
661.453	0.0158447
661.531	0.0159457
661.609	0.0158692
661.687	0.0158414
661.765	0.0160069
661.843	0.0159939
661.922	0.0159651
662.000	0.0159442
662.078	0.0160385
662.156	0.0158839
662.234	0.0158737
662.312	0.0159029
662.390	0.0159378
662.468	0.0159389
662.547	0.0158836
662.625	0.0157811
662.703	0.0159983
662.781	0.0159236
662.859	0.0158781
662.937	0.0160993
663.015	0.0158668
663.093	0.0158567
663.172	0.0158649
663.250	0.0159653
663.328	0.0159867
663.406	0.0158667
663.484	0.0159964
663.562	0.0158965
663.640	0.0159077
663.718	0.0158727
663.797	0.0159842
663.875	0.0158948
663.953	0.0162041
664.031	0.0159373
664.109	0.0158833
664.187	0.0159913
664.265	0.0160946
664.343	0.0159332
664.422	0.0158858
664.500	0.0159057
664.578	0.0159110
664.656	0.0159972
664.734	0.0160104
664.812	0.0159043
664.890	0.0159417
664.968	0.0160040
665.047	0.0159669
665.125	0.0158989
665.203	0.0159077
665.281	0.0160666
665.359	0.0158671
665.437	0.0157583
665.515	0.0158035
665.593	0.0160748
665.672	0.0161082
665.750	0.0159518
665.828	0.0159579
665.906	0.0160688
665.984	0.0159109
666.062	0.0158509
666.140	0.0159817
666.218	0.0159519
666.297	0.0160417
666.375	0.0160117
666.453	0.0158991
666.531	0.0158488
666.609	0.0159549
666.687	0.0158374
666.765	0.0158508
666.843	0.0159777
666.922	0.0160486
667.000	0.0159693
667.078	0.0159130
667.156	0.0159255
667.234	0.0159850
667.312	0.0159097
667.390	0.0159506
667.468	0.0158619
667.547	0.0159586
667.625	0.0160184
667.703	0.0160072
667.781	0.0159409
667.859	0.0158787
667.937	0.0159198
668.015	0.0158281
668.093	0.0159490
668.172	0.0160007
668.250	0.0159844
668.328	0.0159019
668.406	0.0160220
668.484	0.0160214
668.562	0.0159206
668.640	0.0158777
668.718	0.0160069
668.797	0.0159635
668.875	0.0157902
668.953	0.0159331
669.031	0.0159274
669.109	0.0159354
669.187	0.0160195
669.265	0.0159398
669.343	0.0159164
669.422	0.0159043
669.500	0.0158941
669.578	0.0159454
669.656	0.0158379
669.734	0.0159396
669.812	0.0160105
669.890	0.0160571
669.968	0.0158246
670.047	0.0160390
670.125	0.0159248
670.203	0.0159627
670.281	0.0160457
670.359	0.0159206
670.437	0.0160597
670.515	0.0158952
670.593	0.0159424
670.672	0.0160612
670.750	0.0159247
670.828	0.0159212
670.906	0.0160863
670.984	0.0160368
671.062	0.0159721
671.140	0.0159889
671.218	0.0158611
671.297	0.0160457
671.375	0.0160456
671.453	0.0158961
671.531	0.0158297
671.609	0.0158897
671.687	0.0158704
671.765	0.0159414
671.843	0.0160856
671.922	0.0159877
672.000	0.0159074
672.078	0.0160159
672.156	0.0160244
672.234	0.0158662
672.312	0.0159412
672.390	0.0158920
672.468	0.0160284
672.547	0.0160186
672.625	0.0158795
672.703	0.0157638
672.781	0.0159758
672.859	0.0160434
672.937	0.0160531
673.015	0.0157420
673.093	0.0158866
673.172	0.0159249
673.250	0.0158732
673.328	0.0160003
673.406	0.0159426
673.484	0.0159361
673.562	0.0160080
673.640	0.0158850
673.718	0.0161068
673.797	0.0159459
673.875	0.0159789
673.953	0.0160638
674.031	0.0159365
674.109	0.0157900
674.187	0.0159016
674.265	0.0159834
674.343	0.0160656
674.422	0.0159814
674.500	0.0159964
674.578	0.0159170
674.656	0.0158914
674.734	0.0159738
674.812	0.0159701
674.890	0.0160128
674.968	0.0159339
675.047	0.0159653
675.125	0.0159854
675.203	0.0160787
675.281	0.0159526
675.359	0.0159654
675.437	0.0160048
675.515	0.0159770
675.593	0.0160520
675.672	0.0160299
675.750	0.0158961
675.828	0.0159749
675.906	0.0160519
675.984	0.0159201
676.062	0.0160346
676.140	0.0159595
676.218	0.0161262
676.297	0.0159453
676.375	0.0159969
676.453	0.0160640
676.531	0.0158561
676.609	0.0160180
676.687	0.0160196
676.765	0.0159588
676.843	0.0160599
676.922	0.0158884
677.000	0.0158665
677.078	0.0158802
677.156	0.0160605
677.234	0.0160089
677.312	0.0159565
677.390	0.0159854
677.468	0.0158556
677.547	0.0159615
677.625	0.0160694
677.703	0.0159145
677.781	0.0160594
677.859	0.0159688
677.937	0.0159341
678.015	0.0159367
678.093	0.0159769
678.172	0.0158836
678.250	0.0160649
678.328	0.0158662
678.406	0.0159403
678.484	0.0161690
678.562	0.0159997
678.640	0.0160085
678.718	0.0159976
678.797	0.0158303
678.875	0.0159287
678.953	0.0158755
679.031	0.0159010
679.109	0.0160265
679.187	0.0159087
679.265	0.0160136
679.343	0.0160710
679.422	0.0158807
679.500	0.0160164
679.578	0.0159174
679.656	0.0160129
679.734	0.0159638
679.812	0.0160062
679.890	0.0160297
679.968	0.0158898
680.047	0.0160381
680.125	0.0158911
680.203	0.0159473
680.281	0.0161428
680.359	0.0159194
680.437	0.0158721
680.515	0.0160788
680.593	0.0159874
680.672	0.0161660
680.750	0.0159945
680.828	0.0160028
680.906	0.0159824
680.984	0.0159978
681.062	0.0159308
681.140	0.0160392
681.218	0.0160236
681.297	0.0160320
681.375	0.0159418
681.453	0.0158533
681.531	0.0160266
681.609	0.0160374
681.687	0.0159411
681.765	0.0159768
681.843	0.0159022
681.922	0.0159677
682.000	0.0159337
682.078	0.0160191
682.156	0.0159783
682.234	0.0159502
682.312	0.0160025
682.390	0.0159791
682.468	0.0160754
682.547	0.0158071
682.625	0.0160820
682.703	0.0160666
682.781	0.0158713
682.859	0.0160358
682.937	0.0158380
683.015	0.0159142
683.093	0.0159667
683.172	0.0159657
683.250	0.0160695
683.328	0.0159305
683.406	0.0160143
683.484	0.0160091
683.562	0.0159543
683.640	0.0159196
683.718	0.0158965
683.797	0.0159945
683.875	0.0159509
683.953	0.0159686
684.031	0.0159241
684.109	0.0160997
684.187	0.0159126
684.265	0.0159863
684.343	0.0159299
684.422	0.0160133
684.500	0.0159670
684.578	0.0159270
684.656	0.0159735
684.734	0.0159973
684.812	0.0159453
684.890	0.0158949
684.968	0.0160620
685.047	0.0160658
685.125	0.0160816
685.203	0.0160296
685.281	0.0160458
685.359	0.0160744
685.437	0.0159542
685.515	0.0159023
685.593	0.0160980
685.672	0.0159989
