06/13/2022	14:27:52	Ver.	4.1	UNKNOWN
Optical Delay	599.968395	Delta X		0.078125	Sweeps	1	Scan Rate	0/0
Coordinates	Axis 1	NaN	Axis 2	NaN	Axis 3	NaN	Axis 4	NaN	Axis 5	NaN	Axis 6	0.000000
TX Power	0.000000	RX Power	0.000000

599.968	0.0158980
600.047	0.0159570
600.125	0.0159574
600.203	0.0158549
600.281	0.0158917
600.359	0.0158540
600.437	0.0158857
600.515	0.0158514
600.593	0.0157737
600.672	0.0158829
600.750	0.0159800
600.828	0.0159868
600.906	0.0159302
600.984	0.0159615
601.062	0.0159037
601.140	0.0159032
601.218	0.0158921
601.297	0.0160374
601.375	0.0157740
601.453	0.0158936
601.531	0.0159834
601.609	0.0159031
601.687	0.0159235
601.765	0.0159386
601.843	0.0158871
601.922	0.0158999
602.000	0.0158280
602.078	0.0158648
602.156	0.0160250
602.234	0.0158971
602.312	0.0159223
602.390	0.0160411
602.468	0.0158595
602.547	0.0158478
602.625	0.0159538
602.703	0.0158462
602.781	0.0159177
602.859	0.0159112
602.937	0.0158042
603.015	0.0159753
603.093	0.0158197
603.172	0.0157950
603.250	0.0158241
603.328	0.0159393
603.406	0.0159181
603.484	0.0158758
603.562	0.0159968
603.640	0.0158026
603.718	0.0158764
603.797	0.0159698
603.875	0.0159486
603.953	0.0158252
604.031	0.0158495
604.109	0.0159124
604.187	0.0158444
604.265	0.0158766
604.343	0.0159546
604.422	0.0159776
604.500	0.0158083
604.578	0.0157970
604.656	0.0159570
604.734	0.0160066
604.812	0.0159542
604.890	0.0160533
604.968	0.0158214
605.047	0.0158052
605.125	0.0158093
605.203	0.0158099
605.281	0.0158395
605.359	0.0158472
605.437	0.0158939
605.515	0.0159296
605.593	0.0158347
605.672	0.0159253
605.750	0.0158878
605.828	0.0158990
605.906	0.0158252
605.984	0.0158687
606.062	0.0158871
606.140	0.0159047
606.218	0.0158481
606.297	0.0159867
606.375	0.0158515
606.453	0.0158651
606.531	0.0158414
606.609	0.0158622
606.687	0.0157636
606.765	0.0159046
606.843	0.0157915
606.922	0.0158774
607.000	0.0159888
607.078	0.0159731
607.156	0.0159834
607.234	0.0160062
607.312	0.0158765
607.390	0.0159309
607.468	0.0158444
607.547	0.0157607
607.625	0.0159603
607.703	0.0159617
607.781	0.0157613
607.859	0.0159676
607.937	0.0159007
608.015	0.0160442
608.093	0.0158529
608.172	0.0158968
608.250	0.0159258
608.328	0.0160155
608.406	0.0158901
608.484	0.0160173
608.562	0.0158706
608.640	0.0158221
608.718	0.0159568
608.797	0.0159674
608.875	0.0158802
608.953	0.0158419
609.031	0.0159168
609.109	0.0160076
609.187	0.0158491
609.265	0.0158632
609.343	0.0158890
609.422	0.0158828
609.500	0.0158321
609.578	0.0158044
609.656	0.0159125
609.734	0.0158417
609.812	0.0158670
609.890	0.0159178
609.968	0.0158911
610.047	0.0159257
610.125	0.0159247
610.203	0.0159433
610.281	0.0158842
610.359	0.0158199
610.437	0.0158415
610.515	0.0160501
610.593	0.0159544
610.672	0.0158439
610.750	0.0158517
610.828	0.0159026
610.906	0.0157907
610.984	0.0158740
611.062	0.0159030
611.140	0.0158916
611.218	0.0159355
611.297	0.0159595
611.375	0.0158721
611.453	0.0158533
611.531	0.0158966
611.609	0.0158698
611.687	0.0158437
611.765	0.0159275
611.843	0.0158597
611.922	0.0159061
612.000	0.0159008
612.078	0.0159583
612.156	0.0158958
612.234	0.0160011
612.312	0.0158484
612.390	0.0159309
612.468	0.0159757
612.547	0.0158715
612.625	0.0158655
612.703	0.0158360
612.781	0.0159458
612.859	0.0159545
612.937	0.0159290
613.015	0.0157958
613.093	0.0158096
613.172	0.0159348
613.250	0.0159084
613.328	0.0159874
613.406	0.0159394
613.484	0.0159653
613.562	0.0160523
613.640	0.0157982
613.718	0.0158503
613.797	0.0158797
613.875	0.0158144
613.953	0.0159549
614.031	0.0158520
614.109	0.0159110
614.187	0.0159389
614.265	0.0160176
614.343	0.0157482
614.422	0.0157232
614.500	0.0157912
614.578	0.0160490
614.656	0.0159559
614.734	0.0159602
614.812	0.0159028
614.890	0.0159358
614.968	0.0159903
615.047	0.0158482
615.125	0.0159742
615.203	0.0158802
615.281	0.0158730
615.359	0.0159067
615.437	0.0160072
615.515	0.0158926
615.593	0.0159245
615.672	0.0159537
615.750	0.0159735
615.828	0.0158959
615.906	0.0159727
615.984	0.0157547
616.062	0.0159106
616.140	0.0158968
616.218	0.0161810
616.297	0.0159464
616.375	0.0158824
616.453	0.0159240
616.531	0.0158676
616.609	0.0157831
616.687	0.0159617
616.765	0.0159490
616.843	0.0159349
616.922	0.0159148
617.000	0.0159470
617.078	0.0158020
617.156	0.0158712
617.234	0.0158739
617.312	0.0159540
617.390	0.0159541
617.468	0.0160289
617.547	0.0160594
617.625	0.0159451
617.703	0.0159545
617.781	0.0158968
617.859	0.0159488
617.937	0.0158293
618.015	0.0158087
618.093	0.0158029
618.172	0.0158611
618.250	0.0158997
618.328	0.0157937
618.406	0.0159157
618.484	0.0159389
618.562	0.0159534
618.640	0.0157661
618.718	0.0159453
618.797	0.0159837
618.875	0.0159431
618.953	0.0159064
619.031	0.0157906
619.109	0.0157805
619.187	0.0158644
619.265	0.0158331
619.343	0.0159111
619.422	0.0159007
619.500	0.0159023
619.578	0.0159685
619.656	0.0159036
619.734	0.0159275
619.812	0.0157840
619.890	0.0160331
619.968	0.0159550
620.047	0.0160446
620.125	0.0158570
620.203	0.0158257
620.281	0.0159052
620.359	0.0158562
620.437	0.0159095
620.515	0.0157882
620.593	0.0160664
620.672	0.0158980
620.750	0.0159644
620.828	0.0158254
620.906	0.0159259
620.984	0.0158870
621.062	0.0159310
621.140	0.0158221
621.218	0.0158485
621.297	0.0159396
621.375	0.0157510
621.453	0.0158670
621.531	0.0158944
621.609	0.0159196
621.687	0.0159282
621.765	0.0159077
621.843	0.0159296
621.922	0.0158998
622.000	0.0159758
622.078	0.0159007
622.156	0.0157423
622.234	0.0158881
622.312	0.0158728
622.390	0.0159268
622.468	0.0158707
622.547	0.0159515
622.625	0.0158212
622.703	0.0159425
622.781	0.0158286
622.859	0.0158141
622.937	0.0157568
623.015	0.0157877
623.093	0.0159082
623.172	0.0159584
623.250	0.0160077
623.328	0.0158768
623.406	0.0159815
623.484	0.0158980
623.562	0.0157114
623.640	0.0159043
623.718	0.0158252
623.797	0.0158636
623.875	0.0158263
623.953	0.0157193
624.031	0.0159150
624.109	0.0159567
624.187	0.0158084
624.265	0.0160345
624.343	0.0158919
624.422	0.0158312
624.500	0.0158981
624.578	0.0159685
624.656	0.0159139
624.734	0.0159035
624.812	0.0160096
624.890	0.0159831
624.968	0.0159933
625.047	0.0159019
625.125	0.0159293
625.203	0.0158573
625.281	0.0158072
625.359	0.0159548
625.437	0.0159344
625.515	0.0158221
625.593	0.0159887
625.672	0.0159282
625.750	0.0159144
625.828	0.0158811
625.906	0.0159012
625.984	0.0159183
626.062	0.0159066
626.140	0.0159065
626.218	0.0160542
626.297	0.0159236
626.375	0.0159134
626.453	0.0159097
626.531	0.0159056
626.609	0.0157379
626.687	0.0158324
626.765	0.0158061
626.843	0.0159272
626.922	0.0159332
627.000	0.0159194
627.078	0.0158018
627.156	0.0157560
627.234	0.0159053
627.312	0.0160031
627.390	0.0159893
627.468	0.0158211
627.547	0.0159093
627.625	0.0157964
627.703	0.0159519
627.781	0.0159285
627.859	0.0159724
627.937	0.0159811
628.015	0.0159365
628.093	0.0158946
628.172	0.0158538
628.250	0.0159131
628.328	0.0158260
628.406	0.0159058
628.484	0.0158917
628.562	0.0158862
628.640	0.0158110
628.718	0.0159164
628.797	0.0158139
628.875	0.0159628
628.953	0.0159118
629.031	0.0158359
629.109	0.0159116
629.187	0.0157626
629.265	0.0158343
629.343	0.0160205
629.422	0.0158943
629.500	0.0158428
629.578	0.0157779
629.656	0.0158249
629.734	0.0159599
629.812	0.0158356
629.890	0.0158220
629.968	0.0158522
630.047	0.0157886
630.125	0.0159466
630.203	0.0158064
630.281	0.0158786
630.359	0.0158888
630.437	0.0160175
630.515	0.0159449
630.593	0.0157893
630.672	0.0158979
630.750	0.0158888
630.828	0.0159402
630.906	0.0158303
630.984	0.0158590
631.062	0.0159877
631.140	0.0160075
631.218	0.0157608
631.297	0.0159043
631.375	0.0158893
631.453	0.0158039
631.531	0.0159497
631.609	0.0158344
631.687	0.0159170
631.765	0.0158070
631.843	0.0159963
631.922	0.0159293
632.000	0.0159513
632.078	0.0160364
632.156	0.0159133
632.234	0.0158414
632.312	0.0159887
632.390	0.0160013
632.468	0.0160254
632.547	0.0158686
632.625	0.0159171
632.703	0.0158829
632.781	0.0159119
632.859	0.0159599
632.937	0.0158849
633.015	0.0159027
633.093	0.0159335
633.172	0.0159378
633.250	0.0159038
633.328	0.0158756
633.406	0.0159855
633.484	0.0159042
633.562	0.0158791
633.640	0.0159240
633.718	0.0159569
633.797	0.0159451
633.875	0.0159476
633.953	0.0158547
634.031	0.0159149
634.109	0.0158952
634.187	0.0158976
634.265	0.0159400
634.343	0.0159806
634.422	0.0159116
634.500	0.0159206
634.578	0.0159529
634.656	0.0158305
634.734	0.0158472
634.812	0.0159869
634.890	0.0160425
634.968	0.0158683
635.047	0.0158766
635.125	0.0158776
635.203	0.0159108
635.281	0.0158782
635.359	0.0158797
635.437	0.0157877
635.515	0.0159032
635.593	0.0160574
635.672	0.0159330
635.750	0.0158695
635.828	0.0159544
635.906	0.0159537
635.984	0.0158163
636.062	0.0159670
636.140	0.0160333
636.218	0.0158443
636.297	0.0158336
636.375	0.0159150
636.453	0.0160223
636.531	0.0159486
636.609	0.0158493
636.687	0.0158112
636.765	0.0159905
636.843	0.0158491
636.922	0.0158585
637.000	0.0159253
637.078	0.0158685
637.156	0.0158375
637.234	0.0158603
637.312	0.0159332
637.390	0.0158968
637.468	0.0160914
637.547	0.0159335
637.625	0.0157533
637.703	0.0158881
637.781	0.0157770
637.859	0.0158292
637.937	0.0160195
638.015	0.0158492
638.093	0.0158082
638.172	0.0158904
638.250	0.0159285
638.328	0.0158793
638.406	0.0159389
638.484	0.0159470
638.562	0.0159031
638.640	0.0158777
638.718	0.0158852
638.797	0.0159803
638.875	0.0159475
638.953	0.0158832
639.031	0.0158424
639.109	0.0159931
639.187	0.0160233
639.265	0.0159381
639.343	0.0158694
639.422	0.0158707
639.500	0.0158007
639.578	0.0159102
639.656	0.0158804
639.734	0.0159350
639.812	0.0158459
639.890	0.0158244
639.968	0.0160007
640.047	0.0159718
640.125	0.0159288
640.203	0.0159152
640.281	0.0159254
640.359	0.0158996
640.437	0.0160719
640.515	0.0159512
640.593	0.0158994
640.672	0.0159873
640.750	0.0158192
640.828	0.0158220
640.906	0.0159143
640.984	0.0159090
641.062	0.0159169
641.140	0.0158560
641.218	0.0158308
641.297	0.0159212
641.375	0.0159284
641.453	0.0159251
641.531	0.0160078
641.609	0.0159897
641.687	0.0158833
641.765	0.0158985
641.843	0.0160120
641.922	0.0157612
642.000	0.0158822
642.078	0.0159805
642.156	0.0159299
642.234	0.0158054
642.312	0.0159415
642.390	0.0158925
642.468	0.0158874
642.547	0.0159943
642.625	0.0158443
642.703	0.0157840
642.781	0.0158707
642.859	0.0158848
642.937	0.0159703
643.015	0.0159039
643.093	0.0160086
643.172	0.0158990
643.250	0.0158831
643.328	0.0157585
643.406	0.0159164
643.484	0.0158217
643.562	0.0158334
643.640	0.0159025
643.718	0.0158443
643.797	0.0157648
643.875	0.0158751
643.953	0.0159216
644.031	0.0159442
644.109	0.0157766
644.187	0.0158865
644.265	0.0159245
644.343	0.0158099
644.422	0.0159225
644.500	0.0159186
644.578	0.0160049
644.656	0.0158289
644.734	0.0158843
644.812	0.0158344
644.890	0.0158595
644.968	0.0159483
645.047	0.0159706
645.125	0.0159494
645.203	0.0158315
645.281	0.0158700
645.359	0.0157830
645.437	0.0158819
645.515	0.0159393
645.593	0.0159394
645.672	0.0160200
645.750	0.0159853
645.828	0.0160239
645.906	0.0159671
645.984	0.0158723
646.062	0.0158613
646.140	0.0158839
646.218	0.0158807
646.297	0.0158449
646.375	0.0158759
646.453	0.0158175
646.531	0.0157833
646.609	0.0159495
646.687	0.0159290
646.765	0.0159843
646.843	0.0158936
646.922	0.0158948
647.000	0.0158614
647.078	0.0159025
647.156	0.0159933
647.234	0.0157681
647.312	0.0158268
647.390	0.0159418
647.468	0.0159269
647.547	0.0159731
647.625	0.0159212
647.703	0.0157937
647.781	0.0159921
647.859	0.0160156
647.937	0.0158789
648.015	0.0159724
648.093	0.0159223
648.172	0.0158157
648.250	0.0158876
648.328	0.0159639
648.406	0.0159139
648.484	0.0159167
648.562	0.0158583
648.640	0.0158611
648.718	0.0159256
648.797	0.0159191
648.875	0.0159322
648.953	0.0158459
649.031	0.0158743
649.109	0.0158380
649.187	0.0159354
649.265	0.0159498
649.343	0.0158465
649.422	0.0157970
649.500	0.0159403
649.578	0.0158865
649.656	0.0159186
649.734	0.0160231
649.812	0.0159525
649.890	0.0158978
649.968	0.0159280
650.047	0.0158556
650.125	0.0159320
650.203	0.0158471
650.281	0.0159222
650.359	0.0159412
650.437	0.0159447
650.515	0.0158530
650.593	0.0158309
650.672	0.0159196
650.750	0.0158365
650.828	0.0158348
650.906	0.0159972
650.984	0.0158578
651.062	0.0159060
651.140	0.0158086
651.218	0.0158831
651.297	0.0158426
651.375	0.0159322
651.453	0.0158267
651.531	0.0159152
651.609	0.0159165
651.687	0.0157462
651.765	0.0159257
651.843	0.0158929
651.922	0.0158971
652.000	0.0157672
652.078	0.0158614
652.156	0.0158035
652.234	0.0158813
652.312	0.0157441
652.390	0.0160042
652.468	0.0159286
652.547	0.0158544
652.625	0.0159290
652.703	0.0159193
652.781	0.0159364
652.859	0.0157811
652.937	0.0159438
653.015	0.0159985
653.093	0.0158286
653.172	0.0158414
653.250	0.0160279
653.328	0.0158744
653.406	0.0159972
653.484	0.0160023
653.562	0.0159866
653.640	0.0158609
653.718	0.0158133
653.797	0.0159167
653.875	0.0158372
653.953	0.0159406
654.031	0.0159486
654.109	0.0157501
654.187	0.0158900
654.265	0.0158766
654.343	0.0159476
654.422	0.0158223
654.500	0.0158749
654.578	0.0159064
654.656	0.0158234
654.734	0.0156923
654.812	0.0159333
654.890	0.0158660
654.968	0.0159299
655.047	0.0159019
655.125	0.0159162
655.203	0.0159784
655.281	0.0159125
655.359	0.0158765
655.437	0.0159214
655.515	0.0159081
655.593	0.0158359
655.672	0.0158702
655.750	0.0158228
655.828	0.0158691
655.906	0.0158246
655.984	0.0158650
656.062	0.0158234
656.140	0.0158458
656.218	0.0158247
656.297	0.0158336
656.375	0.0158334
656.453	0.0157886
656.531	0.0158694
656.609	0.0158974
656.687	0.0158649
656.765	0.0159270
656.843	0.0158553
656.922	0.0159492
657.000	0.0158529
657.078	0.0158943
657.156	0.0159768
657.234	0.0160085
657.312	0.0157819
657.390	0.0158685
657.468	0.0159185
657.547	0.0157438
657.625	0.0157121
657.703	0.0158353
657.781	0.0158852
657.859	0.0158052
657.937	0.0158386
658.015	0.0160810
658.093	0.0157992
658.172	0.0159264
658.250	0.0158115
658.328	0.0159456
658.406	0.0158401
658.484	0.0159055
658.562	0.0159831
658.640	0.0158556
658.718	0.0159212
658.797	0.0158423
658.875	0.0158611
658.953	0.0158385
659.031	0.0159192
659.109	0.0158655
659.187	0.0159216
659.265	0.0159374
659.343	0.0159794
659.422	0.0157649
659.500	0.0158652
659.578	0.0160220
659.656	0.0159171
659.734	0.0159784
659.812	0.0159409
659.890	0.0159908
659.968	0.0157884
660.047	0.0159645
660.125	0.0158236
660.203	0.0158350
660.281	0.0159412
660.359	0.0159459
660.437	0.0159569
660.515	0.0159557
660.593	0.0157706
660.672	0.0157703
660.750	0.0158503
660.828	0.0159370
660.906	0.0159897
660.984	0.0159306
661.062	0.0158900
661.140	0.0159114
661.218	0.0157146
661.297	0.0158585
661.375	0.0159811
661.453	0.0157520
661.531	0.0158359
661.609	0.0158833
661.687	0.0158391
661.765	0.0157571
661.843	0.0158997
661.922	0.0158666
662.000	0.0159584
662.078	0.0158844
662.156	0.0158123
662.234	0.0159447
662.312	0.0158828
662.390	0.0158769
662.468	0.0159478
662.547	0.0158726
662.625	0.0158508
662.703	0.0159160
662.781	0.0158824
662.859	0.0159203
662.937	0.0159322
663.015	0.0159670
663.093	0.0157836
663.172	0.0158315
663.250	0.0157537
663.328	0.0158244
663.406	0.0159182
663.484	0.0158307
663.562	0.0158404
663.640	0.0158974
663.718	0.0158234
663.797	0.0158297
663.875	0.0157022
663.953	0.0158473
664.031	0.0159225
664.109	0.0158636
664.187	0.0158717
664.265	0.0158452
664.343	0.0159194
664.422	0.0159141
664.500	0.0159396
664.578	0.0158733
664.656	0.0158580
664.734	0.0159315
664.812	0.0159297
664.890	0.0158849
664.968	0.0158685
665.047	0.0158021
665.125	0.0159489
665.203	0.0158335
665.281	0.0159307
665.359	0.0157759
665.437	0.0158408
665.515	0.0159919
665.593	0.0159206
665.672	0.0158228
665.750	0.0158243
665.828	0.0159660
665.906	0.0160063
665.984	0.0158372
666.062	0.0158848
666.140	0.0159868
666.218	0.0158463
666.297	0.0159052
666.375	0.0158400
666.453	0.0159768
666.531	0.0158237
666.609	0.0159012
666.687	0.0158406
666.765	0.0157957
666.843	0.0160229
666.922	0.0157853
667.000	0.0158947
667.078	0.0159264
667.156	0.0159511
667.234	0.0159033
667.312	0.0158046
667.390	0.0158633
667.468	0.0159884
667.547	0.0159483
667.625	0.0158684
667.703	0.0159389
667.781	0.0158059
667.859	0.0159106
667.937	0.0159296
668.015	0.0158542
668.093	0.0159686
668.172	0.0158291
668.250	0.0159266
668.328	0.0158969
668.406	0.0158141
668.484	0.0159418
668.562	0.0160316
668.640	0.0159375
668.718	0.0158600
668.797	0.0158515
668.875	0.0158609
668.953	0.0157951
669.031	0.0157604
669.109	0.0158720
669.187	0.0159394
669.265	0.0159570
669.343	0.0159327
669.422	0.0158063
669.500	0.0157610
669.578	0.0158041
669.656	0.0159555
669.734	0.0157540
669.812	0.0158675
669.890	0.0160419
669.968	0.0160404
670.047	0.0158421
670.125	0.0156458
670.203	0.0158974
670.281	0.0158716
670.359	0.0158759
670.437	0.0157951
670.515	0.0159399
670.593	0.0159167
670.672	0.0159728
670.750	0.0158307
670.828	0.0159279
670.906	0.0159221
670.984	0.0157949
671.062	0.0159382
671.140	0.0159670
671.218	0.0159626
671.297	0.0159000
671.375	0.0159209
671.453	0.0159027
671.531	0.0158434
671.609	0.0159208
671.687	0.0158102
671.765	0.0157933
671.843	0.0159842
671.922	0.0158710
672.000	0.0159058
672.078	0.0159715
672.156	0.0159187
672.234	0.0159275
672.312	0.0160181
672.390	0.0158749
672.468	0.0159088
672.547	0.0158803
672.625	0.0158640
672.703	0.0157526
672.781	0.0159416
672.859	0.0159425
672.937	0.0158515
673.015	0.0157964
673.093	0.0158588
673.172	0.0159093
673.250	0.0158793
673.328	0.0157853
673.406	0.0158049
673.484	0.0158108
673.562	0.0158707
673.640	0.0158688
673.718	0.0158618
673.797	0.0158826
673.875	0.0158239
673.953	0.0158119
674.031	0.0159094
674.109	0.0158129
674.187	0.0158666
674.265	0.0158190
674.343	0.0159224
674.422	0.0159826
674.500	0.0159818
674.578	0.0157354
674.656	0.0158151
674.734	0.0159412
674.812	0.0159183
674.890	0.0158678
674.968	0.0157881
675.047	0.0159557
675.125	0.0159300
675.203	0.0158606
675.281	0.0159097
675.359	0.0159490
675.437	0.0157770
675.515	0.0158333
675.593	0.0159462
675.672	0.0158089
675.750	0.0157427
675.828	0.0159297
675.906	0.0159270
675.984	0.0159743
676.062	0.0157890
676.140	0.0158856
676.218	0.0159426
676.297	0.0158900
676.375	0.0158942
676.453	0.0157583
676.531	0.0159141
676.609	0.0159776
676.687	0.0158531
676.765	0.0159196
676.843	0.0158237
676.922	0.0158627
677.000	0.0158258
677.078	0.0160225
677.156	0.0159806
677.234	0.0159177
677.312	0.0160091
677.390	0.0159574
677.468	0.0160484
677.547	0.0159268
677.625	0.0159783
677.703	0.0159016
677.781	0.0157950
677.859	0.0157389
677.937	0.0158378
678.015	0.0159684
678.093	0.0160301
678.172	0.0157729
678.250	0.0158798
678.328	0.0159490
678.406	0.0158939
678.484	0.0160355
678.562	0.0158560
678.640	0.0157646
678.718	0.0158983
678.797	0.0160545
678.875	0.0160502
678.953	0.0159112
679.031	0.0159261
679.109	0.0157802
679.187	0.0159193
679.265	0.0159412
679.343	0.0158528
679.422	0.0158315
679.500	0.0159003
679.578	0.0157708
679.656	0.0158262
679.734	0.0158788
679.812	0.0159565
679.890	0.0158900
679.968	0.0158942
680.047	0.0159962
680.125	0.0159063
680.203	0.0158579
680.281	0.0158678
680.359	0.0159093
680.437	0.0158736
680.515	0.0158144
680.593	0.0159199
680.672	0.0158126
680.750	0.0158110
680.828	0.0158885
680.906	0.0159179
680.984	0.0158147
681.062	0.0158683
681.140	0.0158455
681.218	0.0158559
681.297	0.0158794
681.375	0.0158824
681.453	0.0159183
681.531	0.0159022
681.609	0.0159700
681.687	0.0158978
681.765	0.0158402
681.843	0.0157785
681.922	0.0160040
682.000	0.0159542
682.078	0.0159702
682.156	0.0159618
682.234	0.0159608
682.312	0.0159365
682.390	0.0159164
682.468	0.0158244
682.547	0.0158576
682.625	0.0158851
682.703	0.0160414
682.781	0.0158959
682.859	0.0159190
682.937	0.0158308
683.015	0.0158741
683.093	0.0159326
683.172	0.0159055
683.250	0.0158945
683.328	0.0159218
683.406	0.0159863
683.484	0.0159095
683.562	0.0158345
683.640	0.0159693
683.718	0.0159252
683.797	0.0159551
683.875	0.0158781
683.953	0.0157644
684.031	0.0159988
684.109	0.0158527
684.187	0.0158949
684.265	0.0158802
684.343	0.0159779
684.422	0.0159501
684.500	0.0158096
684.578	0.0158596
684.656	0.0158817
684.734	0.0158546
684.812	0.0158926
684.890	0.0158381
684.968	0.0158079
685.047	0.0159367
685.125	0.0160186
685.203	0.0160214
685.281	0.0159621
685.359	0.0159525
685.437	0.0159402
685.515	0.0158784
685.593	0.0159208
685.672	0.0160371
