06/13/2022	14:35:08	Ver.	4.1	UNKNOWN
Optical Delay	599.968395	Delta X		0.078125	Sweeps	1	Scan Rate	0/0
Coordinates	Axis 1	NaN	Axis 2	NaN	Axis 3	NaN	Axis 4	NaN	Axis 5	NaN	Axis 6	0.000000
TX Power	0.000000	RX Power	0.000000

599.968	0.0156958
600.047	0.0156983
600.125	0.0156260
600.203	0.0157428
600.281	0.0157539
600.359	0.0158138
600.437	0.0156916
600.515	0.0156007
600.593	0.0156165
600.672	0.0157316
600.750	0.0156187
600.828	0.0156952
600.906	0.0157076
600.984	0.0156940
601.062	0.0157426
601.140	0.0156992
601.218	0.0156528
601.297	0.0158494
601.375	0.0157763
601.453	0.0155807
601.531	0.0156676
601.609	0.0156529
601.687	0.0157944
601.765	0.0157426
601.843	0.0155993
601.922	0.0156886
602.000	0.0158031
602.078	0.0156824
602.156	0.0155861
602.234	0.0156255
602.312	0.0157699
602.390	0.0157378
602.468	0.0155357
602.547	0.0157393
602.625	0.0158244
602.703	0.0157553
602.781	0.0157217
602.859	0.0157658
602.937	0.0157391
603.015	0.0157132
603.093	0.0156696
603.172	0.0157212
603.250	0.0157951
603.328	0.0157578
603.406	0.0158276
603.484	0.0157690
603.562	0.0158256
603.640	0.0157117
603.718	0.0155706
603.797	0.0155973
603.875	0.0157064
603.953	0.0156493
604.031	0.0157732
604.109	0.0156441
604.187	0.0157943
604.265	0.0157395
604.343	0.0157834
604.422	0.0156485
604.500	0.0157491
604.578	0.0156985
604.656	0.0157723
604.734	0.0157469
604.812	0.0156613
604.890	0.0156135
604.968	0.0157685
605.047	0.0157258
605.125	0.0157033
605.203	0.0156449
605.281	0.0157054
605.359	0.0158132
605.437	0.0157504
605.515	0.0157159
605.593	0.0157981
605.672	0.0158002
605.750	0.0157327
605.828	0.0156513
605.906	0.0156889
605.984	0.0156889
606.062	0.0155431
606.140	0.0157690
606.218	0.0156883
606.297	0.0157149
606.375	0.0157671
606.453	0.0158669
606.531	0.0156826
606.609	0.0156271
606.687	0.0157879
606.765	0.0157592
606.843	0.0156635
606.922	0.0156957
607.000	0.0156427
607.078	0.0157158
607.156	0.0155651
607.234	0.0157096
607.312	0.0158204
607.390	0.0157308
607.468	0.0157285
607.547	0.0156633
607.625	0.0158039
607.703	0.0157887
607.781	0.0155725
607.859	0.0156806
607.937	0.0156843
608.015	0.0157013
608.093	0.0156701
608.172	0.0156615
608.250	0.0157578
608.328	0.0158458
608.406	0.0158041
608.484	0.0158025
608.562	0.0155938
608.640	0.0156100
608.718	0.0157706
608.797	0.0157032
608.875	0.0156873
608.953	0.0155325
609.031	0.0157056
609.109	0.0155527
609.187	0.0156924
609.265	0.0157283
609.343	0.0157640
609.422	0.0155966
609.500	0.0156789
609.578	0.0156552
609.656	0.0157385
609.734	0.0156511
609.812	0.0157688
609.890	0.0158127
609.968	0.0156622
610.047	0.0156311
610.125	0.0155978
610.203	0.0155896
610.281	0.0158141
610.359	0.0158340
610.437	0.0156253
610.515	0.0156968
610.593	0.0156738
610.672	0.0156538
610.750	0.0156973
610.828	0.0156757
610.906	0.0157560
610.984	0.0157430
611.062	0.0157262
611.140	0.0157196
611.218	0.0156653
611.297	0.0157533
611.375	0.0157995
611.453	0.0156487
611.531	0.0155930
611.609	0.0156852
611.687	0.0156082
611.765	0.0157163
611.843	0.0157457
611.922	0.0156498
612.000	0.0155563
612.078	0.0155971
612.156	0.0157656
612.234	0.0157219
612.312	0.0155655
612.390	0.0155834
612.468	0.0156937
612.547	0.0157451
612.625	0.0156187
612.703	0.0157464
612.781	0.0158123
612.859	0.0156909
612.937	0.0155735
613.015	0.0156505
613.093	0.0156445
613.172	0.0155669
613.250	0.0157504
613.328	0.0157069
613.406	0.0156285
613.484	0.0156194
613.562	0.0155325
613.640	0.0156895
613.718	0.0156058
613.797	0.0157154
613.875	0.0155669
613.953	0.0157053
614.031	0.0157399
614.109	0.0156335
614.187	0.0156337
614.265	0.0157005
614.343	0.0157915
614.422	0.0157816
614.500	0.0156849
614.578	0.0155492
614.656	0.0156536
614.734	0.0155721
614.812	0.0157875
614.890	0.0157729
614.968	0.0158202
615.047	0.0156626
615.125	0.0157346
615.203	0.0157695
615.281	0.0155549
615.359	0.0155989
615.437	0.0155722
615.515	0.0156152
615.593	0.0156415
615.672	0.0156375
615.750	0.0158195
615.828	0.0157240
615.906	0.0155546
615.984	0.0155700
616.062	0.0156713
616.140	0.0156459
616.218	0.0157011
616.297	0.0158533
616.375	0.0158566
616.453	0.0157219
616.531	0.0156238
616.609	0.0156658
616.687	0.0156581
616.765	0.0157163
616.843	0.0156844
616.922	0.0156163
617.000	0.0157100
617.078	0.0156604
617.156	0.0156611
617.234	0.0155807
617.312	0.0156760
617.390	0.0157001
617.468	0.0156412
617.547	0.0157792
617.625	0.0158083
617.703	0.0157961
617.781	0.0157300
617.859	0.0156066
617.937	0.0156344
618.015	0.0158044
618.093	0.0156651
618.172	0.0156071
618.250	0.0155809
618.328	0.0157728
618.406	0.0156968
618.484	0.0157188
618.562	0.0158113
618.640	0.0155827
618.718	0.0155235
618.797	0.0157182
618.875	0.0157571
618.953	0.0156280
619.031	0.0157333
619.109	0.0156287
619.187	0.0156870
619.265	0.0156127
619.343	0.0157323
619.422	0.0155900
619.500	0.0155473
619.578	0.0156750
619.656	0.0157545
619.734	0.0157222
619.812	0.0156409
619.890	0.0158177
619.968	0.0157485
620.047	0.0157522
620.125	0.0156064
620.203	0.0156865
620.281	0.0156635
620.359	0.0157123
620.437	0.0157240
620.515	0.0157056
620.593	0.0157675
620.672	0.0157628
620.750	0.0155853
620.828	0.0156519
620.906	0.0157317
620.984	0.0157529
621.062	0.0157010
621.140	0.0156080
621.218	0.0156874
621.297	0.0156197
621.375	0.0156873
621.453	0.0155690
621.531	0.0155227
621.609	0.0156862
621.687	0.0157561
621.765	0.0155810
621.843	0.0157632
621.922	0.0157455
622.000	0.0156932
622.078	0.0156967
622.156	0.0157350
622.234	0.0156006
622.312	0.0157970
622.390	0.0156161
622.468	0.0155653
622.547	0.0156703
622.625	0.0158078
622.703	0.0156856
622.781	0.0157710
622.859	0.0156597
622.937	0.0155386
623.015	0.0156394
623.093	0.0156503
623.172	0.0157102
623.250	0.0156062
623.328	0.0157349
623.406	0.0156649
623.484	0.0157134
623.562	0.0156902
623.640	0.0157456
623.718	0.0156947
623.797	0.0157594
623.875	0.0156854
623.953	0.0155832
624.031	0.0156934
624.109	0.0156894
624.187	0.0156332
624.265	0.0157183
624.343	0.0156739
624.422	0.0156321
624.500	0.0154893
624.578	0.0156031
624.656	0.0156673
624.734	0.0156778
624.812	0.0157868
624.890	0.0157201
624.968	0.0156940
625.047	0.0157293
625.125	0.0156979
625.203	0.0157235
625.281	0.0157128
625.359	0.0156799
625.437	0.0156744
625.515	0.0156780
625.593	0.0155837
625.672	0.0157383
625.750	0.0157937
625.828	0.0157076
625.906	0.0156643
625.984	0.0157592
626.062	0.0157664
626.140	0.0157576
626.218	0.0157673
626.297	0.0157672
626.375	0.0156625
626.453	0.0157317
626.531	0.0156735
626.609	0.0157188
626.687	0.0157008
626.765	0.0158710
626.843	0.0157495
626.922	0.0157542
627.000	0.0157161
627.078	0.0158473
627.156	0.0155959
627.234	0.0157684
627.312	0.0157658
627.390	0.0155466
627.468	0.0156335
627.547	0.0158242
627.625	0.0157419
627.703	0.0156593
627.781	0.0156733
627.859	0.0156785
627.937	0.0158161
628.015	0.0157768
628.093	0.0157977
628.172	0.0155848
628.250	0.0157809
628.328	0.0157830
628.406	0.0157084
628.484	0.0156903
628.562	0.0156796
628.640	0.0156835
628.718	0.0157238
628.797	0.0158585
628.875	0.0158070
628.953	0.0157758
629.031	0.0157939
629.109	0.0157670
629.187	0.0158038
629.265	0.0156450
629.343	0.0156799
629.422	0.0157484
629.500	0.0157124
629.578	0.0157597
629.656	0.0156554
629.734	0.0159092
629.812	0.0157104
629.890	0.0155916
629.968	0.0158981
630.047	0.0157634
630.125	0.0157141
630.203	0.0156853
630.281	0.0158304
630.359	0.0156967
630.437	0.0157032
630.515	0.0156525
630.593	0.0157504
630.672	0.0157538
630.750	0.0156713
630.828	0.0157050
630.906	0.0158125
630.984	0.0157422
631.062	0.0157314
631.140	0.0156798
631.218	0.0156232
631.297	0.0158457
631.375	0.0157985
631.453	0.0157897
631.531	0.0155565
631.609	0.0157117
631.687	0.0156245
631.765	0.0157045
631.843	0.0156590
631.922	0.0155251
632.000	0.0156657
632.078	0.0157280
632.156	0.0156668
632.234	0.0156322
632.312	0.0156499
632.390	0.0157014
632.468	0.0158389
632.547	0.0158363
632.625	0.0155813
632.703	0.0157214
632.781	0.0157482
632.859	0.0156933
632.937	0.0157002
633.015	0.0157699
633.093	0.0157285
633.172	0.0157455
633.250	0.0157012
633.328	0.0157006
633.406	0.0156808
633.484	0.0156646
633.562	0.0156481
633.640	0.0156559
633.718	0.0158166
633.797	0.0156503
633.875	0.0156070
633.953	0.0156185
634.031	0.0158654
634.109	0.0156356
634.187	0.0156836
634.265	0.0157426
634.343	0.0156437
634.422	0.0155595
634.500	0.0157324
634.578	0.0156348
634.656	0.0156758
634.734	0.0156840
634.812	0.0156798
634.890	0.0156580
634.968	0.0155858
635.047	0.0156351
635.125	0.0157408
635.203	0.0156288
635.281	0.0157050
635.359	0.0156200
635.437	0.0156508
635.515	0.0156384
635.593	0.0157803
635.672	0.0156366
635.750	0.0155956
635.828	0.0156207
635.906	0.0156809
635.984	0.0156589
636.062	0.0158132
636.140	0.0155966
636.218	0.0156979
636.297	0.0159636
636.375	0.0156155
636.453	0.0156464
636.531	0.0157121
636.609	0.0156478
636.687	0.0156986
636.765	0.0157732
636.843	0.0156401
636.922	0.0156630
637.000	0.0156559
637.078	0.0155429
637.156	0.0156793
637.234	0.0156641
637.312	0.0157916
637.390	0.0156450
637.468	0.0155470
637.547	0.0157137
637.625	0.0156605
637.703	0.0156750
637.781	0.0155936
637.859	0.0158371
637.937	0.0158774
638.015	0.0157214
638.093	0.0156893
638.172	0.0156666
638.250	0.0157419
638.328	0.0157259
638.406	0.0156235
638.484	0.0156409
638.562	0.0157178
638.640	0.0156878
638.718	0.0157183
638.797	0.0156976
638.875	0.0158198
638.953	0.0156878
639.031	0.0155997
639.109	0.0157733
639.187	0.0157534
639.265	0.0156232
639.343	0.0157292
639.422	0.0156954
639.500	0.0156797
639.578	0.0157573
639.656	0.0155788
639.734	0.0156958
639.812	0.0156828
639.890	0.0158305
639.968	0.0157647
640.047	0.0157302
640.125	0.0156673
640.203	0.0156413
640.281	0.0156873
640.359	0.0157640
640.437	0.0157116
640.515	0.0156519
640.593	0.0157433
640.672	0.0158156
640.750	0.0156496
640.828	0.0155173
640.906	0.0156367
640.984	0.0156095
641.062	0.0157408
641.140	0.0157199
641.218	0.0156693
641.297	0.0157584
641.375	0.0156681
641.453	0.0156042
641.531	0.0156956
641.609	0.0157314
641.687	0.0157968
641.765	0.0157446
641.843	0.0156319
641.922	0.0156493
642.000	0.0157513
642.078	0.0157299
642.156	0.0157059
642.234	0.0157333
642.312	0.0157825
642.390	0.0156325
642.468	0.0156972
642.547	0.0157822
642.625	0.0156310
642.703	0.0157470
642.781	0.0156892
642.859	0.0157117
642.937	0.0158365
643.015	0.0157062
643.093	0.0156697
643.172	0.0156618
643.250	0.0158228
643.328	0.0157524
643.406	0.0156850
643.484	0.0157030
643.562	0.0157030
643.640	0.0156818
643.718	0.0156983
643.797	0.0157020
643.875	0.0156918
643.953	0.0157008
644.031	0.0157710
644.109	0.0155717
644.187	0.0156808
644.265	0.0158055
644.343	0.0156760
644.422	0.0156561
644.500	0.0155733
644.578	0.0156752
644.656	0.0158128
644.734	0.0156467
644.812	0.0156364
644.890	0.0156107
644.968	0.0156814
645.047	0.0157647
645.125	0.0155441
645.203	0.0156484
645.281	0.0157048
645.359	0.0157712
645.437	0.0156521
645.515	0.0156718
645.593	0.0157422
645.672	0.0157570
645.750	0.0156042
645.828	0.0156389
645.906	0.0157056
645.984	0.0156145
646.062	0.0157130
646.140	0.0157160
646.218	0.0156229
646.297	0.0157516
646.375	0.0156557
646.453	0.0157710
646.531	0.0156744
646.609	0.0156667
646.687	0.0157052
646.765	0.0156866
646.843	0.0156134
646.922	0.0155976
647.000	0.0158275
647.078	0.0156084
647.156	0.0155198
647.234	0.0156300
647.312	0.0156854
647.390	0.0157385
647.468	0.0157571
647.547	0.0156173
647.625	0.0156099
647.703	0.0158096
647.781	0.0156329
647.859	0.0157641
647.937	0.0157649
648.015	0.0155264
648.093	0.0157661
648.172	0.0157151
648.250	0.0157365
648.328	0.0157019
648.406	0.0156723
648.484	0.0155143
648.562	0.0155802
648.640	0.0156942
648.718	0.0156603
648.797	0.0155849
648.875	0.0156977
648.953	0.0158045
649.031	0.0156925
649.109	0.0157177
649.187	0.0156711
649.265	0.0156221
649.343	0.0156681
649.422	0.0157204
649.500	0.0157249
649.578	0.0155882
649.656	0.0156278
649.734	0.0157233
649.812	0.0157237
649.890	0.0155896
649.968	0.0155791
650.047	0.0155617
650.125	0.0156742
650.203	0.0156133
650.281	0.0157971
650.359	0.0157014
650.437	0.0156503
650.515	0.0157363
650.593	0.0156983
650.672	0.0157256
650.750	0.0156911
650.828	0.0157199
650.906	0.0157582
650.984	0.0156811
651.062	0.0157687
651.140	0.0157827
651.218	0.0156907
651.297	0.0156312
651.375	0.0156424
651.453	0.0157313
651.531	0.0156886
651.609	0.0157083
651.687	0.0157455
651.765	0.0156804
651.843	0.0157136
651.922	0.0156801
652.000	0.0156419
652.078	0.0156780
652.156	0.0158109
652.234	0.0157433
652.312	0.0156523
652.390	0.0157989
652.468	0.0156021
652.547	0.0156412
652.625	0.0156459
652.703	0.0157530
652.781	0.0157793
652.859	0.0157154
652.937	0.0158083
653.015	0.0157269
653.093	0.0157253
653.172	0.0155976
653.250	0.0156131
653.328	0.0156490
653.406	0.0158665
653.484	0.0158409
653.562	0.0157446
653.640	0.0157670
653.718	0.0157948
653.797	0.0158199
653.875	0.0156723
653.953	0.0156692
654.031	0.0156437
654.109	0.0156864
654.187	0.0157898
654.265	0.0157475
654.343	0.0157196
654.422	0.0156926
654.500	0.0157245
654.578	0.0157988
654.656	0.0156343
654.734	0.0157574
654.812	0.0158546
654.890	0.0156901
654.968	0.0156178
655.047	0.0157177
655.125	0.0157349
655.203	0.0156715
655.281	0.0157317
655.359	0.0157555
655.437	0.0155808
655.515	0.0157961
655.593	0.0157700
655.672	0.0155703
655.750	0.0156996
655.828	0.0156892
655.906	0.0155840
655.984	0.0157503
656.062	0.0157087
656.140	0.0156928
656.218	0.0158237
656.297	0.0157701
656.375	0.0157358
656.453	0.0155785
656.531	0.0157272
656.609	0.0157230
656.687	0.0158148
656.765	0.0157518
656.843	0.0157828
656.922	0.0156442
657.000	0.0156842
657.078	0.0158171
657.156	0.0157560
657.234	0.0156383
657.312	0.0157298
657.390	0.0156314
657.468	0.0156564
657.547	0.0158490
657.625	0.0157229
657.703	0.0157545
657.781	0.0157703
657.859	0.0157405
657.937	0.0157927
658.015	0.0159035
658.093	0.0156622
658.172	0.0156812
658.250	0.0157565
658.328	0.0157464
658.406	0.0156361
658.484	0.0157378
658.562	0.0156560
658.640	0.0157819
658.718	0.0158119
658.797	0.0157025
658.875	0.0156512
658.953	0.0157745
659.031	0.0156763
659.109	0.0158358
659.187	0.0157626
659.265	0.0157513
659.343	0.0157772
659.422	0.0156505
659.500	0.0156858
659.578	0.0156979
659.656	0.0156783
659.734	0.0157392
659.812	0.0157762
659.890	0.0158324
659.968	0.0157975
660.047	0.0155872
660.125	0.0158212
660.203	0.0157244
660.281	0.0156739
660.359	0.0156653
660.437	0.0157433
660.515	0.0156361
660.593	0.0157658
660.672	0.0157157
660.750	0.0156131
660.828	0.0155128
660.906	0.0157137
660.984	0.0156506
661.062	0.0155359
661.140	0.0156963
661.218	0.0156714
661.297	0.0157844
661.375	0.0157245
661.453	0.0156725
661.531	0.0157002
661.609	0.0156688
661.687	0.0156751
661.765	0.0156416
661.843	0.0156118
661.922	0.0157463
662.000	0.0158444
662.078	0.0157950
662.156	0.0156793
662.234	0.0155832
662.312	0.0155602
662.390	0.0156158
662.468	0.0156701
662.547	0.0157545
662.625	0.0157977
662.703	0.0157089
662.781	0.0156074
662.859	0.0156284
662.937	0.0156123
663.015	0.0157122
663.093	0.0157121
663.172	0.0156773
663.250	0.0156687
663.328	0.0155568
663.406	0.0156830
663.484	0.0157356
663.562	0.0157301
663.640	0.0156232
663.718	0.0156638
663.797	0.0155466
663.875	0.0157134
663.953	0.0157544
664.031	0.0157251
664.109	0.0156074
664.187	0.0157140
664.265	0.0157570
664.343	0.0156905
664.422	0.0155684
664.500	0.0157043
664.578	0.0155973
664.656	0.0155816
664.734	0.0157387
664.812	0.0156072
664.890	0.0157335
664.968	0.0156249
665.047	0.0156309
665.125	0.0155914
665.203	0.0155280
665.281	0.0156948
665.359	0.0156637
665.437	0.0156799
665.515	0.0157516
665.593	0.0157621
665.672	0.0157308
665.750	0.0156357
665.828	0.0155675
665.906	0.0157272
665.984	0.0156764
666.062	0.0156892
666.140	0.0155537
666.218	0.0158221
666.297	0.0157253
666.375	0.0155522
666.453	0.0155384
666.531	0.0154676
666.609	0.0156434
666.687	0.0158076
666.765	0.0156147
666.843	0.0156564
666.922	0.0156570
667.000	0.0156290
667.078	0.0156600
667.156	0.0158083
667.234	0.0156990
667.312	0.0156309
667.390	0.0157209
667.468	0.0155870
667.547	0.0155676
667.625	0.0156048
667.703	0.0157124
667.781	0.0156305
667.859	0.0156195
667.937	0.0156229
668.015	0.0156456
668.093	0.0157284
668.172	0.0157279
668.250	0.0155759
668.328	0.0156928
668.406	0.0156363
668.484	0.0156590
668.562	0.0156954
668.640	0.0156830
668.718	0.0156285
668.797	0.0158352
668.875	0.0157189
668.953	0.0156595
669.031	0.0156595
669.109	0.0156638
669.187	0.0155516
669.265	0.0155946
669.343	0.0157281
669.422	0.0156308
669.500	0.0156534
669.578	0.0157141
669.656	0.0156738
669.734	0.0156019
669.812	0.0157262
669.890	0.0156950
669.968	0.0155981
670.047	0.0156902
670.125	0.0156961
670.203	0.0156042
670.281	0.0156746
670.359	0.0156009
670.437	0.0155606
670.515	0.0155629
670.593	0.0156932
670.672	0.0157523
670.750	0.0156281
670.828	0.0157238
670.906	0.0156956
670.984	0.0156767
671.062	0.0155818
671.140	0.0157540
671.218	0.0157053
671.297	0.0156752
671.375	0.0156937
671.453	0.0157506
671.531	0.0156651
671.609	0.0156576
671.687	0.0157458
671.765	0.0157059
671.843	0.0156789
671.922	0.0156413
672.000	0.0156393
672.078	0.0155307
672.156	0.0155340
672.234	0.0156845
672.312	0.0157300
672.390	0.0157212
672.468	0.0156532
672.547	0.0156660
672.625	0.0157119
672.703	0.0155972
672.781	0.0156470
672.859	0.0156280
672.937	0.0158192
673.015	0.0158543
673.093	0.0156883
673.172	0.0157349
673.250	0.0156651
673.328	0.0156470
673.406	0.0158028
673.484	0.0155837
673.562	0.0157175
673.640	0.0157276
673.718	0.0158133
673.797	0.0158221
673.875	0.0157225
673.953	0.0156697
674.031	0.0156476
674.109	0.0157590
674.187	0.0157417
674.265	0.0157401
674.343	0.0157546
674.422	0.0156475
674.500	0.0155879
674.578	0.0158646
674.656	0.0156834
674.734	0.0156702
674.812	0.0157175
674.890	0.0156448
674.968	0.0156602
675.047	0.0156849
675.125	0.0155724
675.203	0.0156640
675.281	0.0157384
675.359	0.0155941
675.437	0.0156618
675.515	0.0156689
675.593	0.0156329
675.672	0.0156818
675.750	0.0157184
675.828	0.0155808
675.906	0.0157214
675.984	0.0157018
676.062	0.0156293
676.140	0.0157086
676.218	0.0157793
676.297	0.0157333
676.375	0.0156931
676.453	0.0156824
676.531	0.0156705
676.609	0.0156305
676.687	0.0157034
676.765	0.0157108
676.843	0.0157833
676.922	0.0156812
677.000	0.0156670
677.078	0.0158962
677.156	0.0156498
677.234	0.0158354
677.312	0.0155667
677.390	0.0157178
677.468	0.0157564
677.547	0.0157320
677.625	0.0157820
677.703	0.0157427
677.781	0.0155322
677.859	0.0155440
677.937	0.0157259
678.015	0.0157162
678.093	0.0157172
678.172	0.0156650
678.250	0.0156595
678.328	0.0157034
678.406	0.0156342
678.484	0.0156588
678.562	0.0156163
678.640	0.0156411
678.718	0.0156440
678.797	0.0156066
678.875	0.0158387
678.953	0.0157777
679.031	0.0157397
679.109	0.0156617
679.187	0.0157243
679.265	0.0158130
679.343	0.0156435
679.422	0.0157279
679.500	0.0157882
679.578	0.0157693
679.656	0.0157123
679.734	0.0158559
679.812	0.0156913
679.890	0.0156425
679.968	0.0157086
680.047	0.0155493
680.125	0.0155539
680.203	0.0156792
680.281	0.0157420
680.359	0.0156273
680.437	0.0156033
680.515	0.0156580
680.593	0.0155090
680.672	0.0156483
680.750	0.0156093
680.828	0.0156441
680.906	0.0157918
680.984	0.0158262
681.062	0.0156828
681.140	0.0157603
681.218	0.0157437
681.297	0.0158188
681.375	0.0156567
681.453	0.0157307
681.531	0.0157287
681.609	0.0156117
681.687	0.0155948
681.765	0.0156948
681.843	0.0157732
681.922	0.0156645
682.000	0.0156435
682.078	0.0157951
682.156	0.0157204
682.234	0.0157558
682.312	0.0157349
682.390	0.0157890
682.468	0.0156587
682.547	0.0156776
682.625	0.0157244
682.703	0.0156659
682.781	0.0155071
682.859	0.0156727
682.937	0.0157813
683.015	0.0157342
683.093	0.0156715
683.172	0.0157052
683.250	0.0157669
683.328	0.0157812
683.406	0.0156543
683.484	0.0155646
683.562	0.0156940
683.640	0.0156883
683.718	0.0157742
683.797	0.0156682
683.875	0.0156705
683.953	0.0155596
684.031	0.0156435
684.109	0.0157359
684.187	0.0156842
684.265	0.0156114
684.343	0.0157128
684.422	0.0157319
684.500	0.0157867
684.578	0.0157835
684.656	0.0156047
684.734	0.0155925
684.812	0.0157983
684.890	0.0157325
684.968	0.0156810
685.047	0.0157096
685.125	0.0157275
685.203	0.0156866
685.281	0.0156538
685.359	0.0157506
685.437	0.0157703
685.515	0.0158289
685.593	0.0157846
685.672	0.0157993
