06/13/2022	14:37:33	Ver.	4.1	UNKNOWN
Optical Delay	599.968395	Delta X		0.078125	Sweeps	1	Scan Rate	0/0
Coordinates	Axis 1	NaN	Axis 2	NaN	Axis 3	NaN	Axis 4	NaN	Axis 5	NaN	Axis 6	0.000000
TX Power	0.000000	RX Power	0.000000

599.968	0.0155303
600.047	0.0154366
600.125	0.0155365
600.203	0.0156081
600.281	0.0154079
600.359	0.0155446
600.437	0.0155131
600.515	0.0154279
600.593	0.0154737
600.672	0.0154719
600.750	0.0154128
600.828	0.0155025
600.906	0.0154061
600.984	0.0154198
601.062	0.0153570
601.140	0.0155019
601.218	0.0155598
601.297	0.0154078
601.375	0.0155275
601.453	0.0153792
601.531	0.0154916
601.609	0.0156033
601.687	0.0155666
601.765	0.0154271
601.843	0.0154799
601.922	0.0155816
602.000	0.0155331
602.078	0.0155476
602.156	0.0154996
602.234	0.0155216
602.312	0.0156136
602.390	0.0155840
602.468	0.0154031
602.547	0.0155217
602.625	0.0155151
602.703	0.0154099
602.781	0.0155242
602.859	0.0154395
602.937	0.0155169
603.015	0.0155067
603.093	0.0154932
603.172	0.0155193
603.250	0.0154302
603.328	0.0155124
603.406	0.0155424
603.484	0.0155454
603.562	0.0154230
603.640	0.0154713
603.718	0.0156540
603.797	0.0155640
603.875	0.0154787
603.953	0.0154907
604.031	0.0155410
604.109	0.0154441
604.187	0.0154492
604.265	0.0155334
604.343	0.0155405
604.422	0.0155375
604.500	0.0154553
604.578	0.0155862
604.656	0.0155033
604.734	0.0155033
604.812	0.0154922
604.890	0.0155666
604.968	0.0154406
605.047	0.0156008
605.125	0.0154716
605.203	0.0155753
605.281	0.0155980
605.359	0.0156706
605.437	0.0154668
605.515	0.0153671
605.593	0.0154922
605.672	0.0154974
605.750	0.0154287
605.828	0.0154885
605.906	0.0156717
605.984	0.0156793
606.062	0.0155624
606.140	0.0154575
606.218	0.0153913
606.297	0.0154247
606.375	0.0154483
606.453	0.0154140
606.531	0.0155027
606.609	0.0154890
606.687	0.0156816
606.765	0.0156674
606.843	0.0154615
606.922	0.0154598
607.000	0.0154241
607.078	0.0155627
607.156	0.0156145
607.234	0.0155121
607.312	0.0156357
607.390	0.0154869
607.468	0.0154665
607.547	0.0155502
607.625	0.0154652
607.703	0.0155270
607.781	0.0156060
607.859	0.0155310
607.937	0.0155638
608.015	0.0155138
608.093	0.0154062
608.172	0.0153193
608.250	0.0153659
608.328	0.0155424
608.406	0.0155303
608.484	0.0154556
608.562	0.0154517
608.640	0.0155753
608.718	0.0156084
608.797	0.0154749
608.875	0.0155042
608.953	0.0154852
609.031	0.0154533
609.109	0.0155279
609.187	0.0156084
609.265	0.0157153
609.343	0.0155605
609.422	0.0155443
609.500	0.0156536
609.578	0.0155014
609.656	0.0155965
609.734	0.0154609
609.812	0.0155946
609.890	0.0155008
609.968	0.0155707
610.047	0.0156198
610.125	0.0156297
610.203	0.0154751
610.281	0.0154872
610.359	0.0155695
610.437	0.0155891
610.515	0.0155616
610.593	0.0154942
610.672	0.0154623
610.750	0.0156040
610.828	0.0155315
610.906	0.0155255
610.984	0.0157264
611.062	0.0155573
611.140	0.0155531
611.218	0.0155379
611.297	0.0155507
611.375	0.0155041
611.453	0.0154746
611.531	0.0155633
611.609	0.0155394
611.687	0.0154449
611.765	0.0156290
611.843	0.0154903
611.922	0.0154977
612.000	0.0155695
612.078	0.0155180
612.156	0.0154809
612.234	0.0154170
612.312	0.0153884
612.390	0.0153940
612.468	0.0156615
612.547	0.0154756
612.625	0.0155262
612.703	0.0155273
612.781	0.0155788
612.859	0.0155065
612.937	0.0154927
613.015	0.0155785
613.093	0.0155658
613.172	0.0154232
613.250	0.0155579
613.328	0.0155016
613.406	0.0154974
613.484	0.0155725
613.562	0.0155591
613.640	0.0154417
613.718	0.0155928
613.797	0.0155063
613.875	0.0154985
613.953	0.0155058
614.031	0.0154366
614.109	0.0155322
614.187	0.0154827
614.265	0.0155640
614.343	0.0153919
614.422	0.0155325
614.500	0.0153454
614.578	0.0155485
614.656	0.0156307
614.734	0.0154943
614.812	0.0155171
614.890	0.0155544
614.968	0.0154329
615.047	0.0155320
615.125	0.0156709
615.203	0.0154692
615.281	0.0154842
615.359	0.0154994
615.437	0.0155010
615.515	0.0155721
615.593	0.0156487
615.672	0.0154543
615.750	0.0155540
615.828	0.0155727
615.906	0.0154591
615.984	0.0155163
616.062	0.0154655
616.140	0.0155140
616.218	0.0154615
616.297	0.0154465
616.375	0.0155305
616.453	0.0154807
616.531	0.0155904
616.609	0.0155416
616.687	0.0154596
616.765	0.0155463
616.843	0.0154825
616.922	0.0154159
617.000	0.0156841
617.078	0.0155552
617.156	0.0155614
617.234	0.0155182
617.312	0.0153454
617.390	0.0154004
617.468	0.0155844
617.547	0.0155938
617.625	0.0154951
617.703	0.0155697
617.781	0.0155225
617.859	0.0154333
617.937	0.0155826
618.015	0.0155623
618.093	0.0153901
618.172	0.0155083
618.250	0.0156306
618.328	0.0154874
618.406	0.0154052
618.484	0.0155080
618.562	0.0155890
618.640	0.0154709
618.718	0.0156286
618.797	0.0155358
618.875	0.0154955
618.953	0.0154842
619.031	0.0154921
619.109	0.0155902
619.187	0.0155682
619.265	0.0153879
619.343	0.0155307
619.422	0.0156617
619.500	0.0155316
619.578	0.0157124
619.656	0.0155425
619.734	0.0156690
619.812	0.0156403
619.890	0.0155460
619.968	0.0154781
620.047	0.0156317
620.125	0.0154699
620.203	0.0155535
620.281	0.0155368
620.359	0.0154992
620.437	0.0155320
620.515	0.0155190
620.593	0.0155112
620.672	0.0155788
620.750	0.0154400
620.828	0.0153661
620.906	0.0156062
620.984	0.0155524
621.062	0.0154863
621.140	0.0155437
621.218	0.0154666
621.297	0.0156084
621.375	0.0155827
621.453	0.0155341
621.531	0.0156814
621.609	0.0154702
621.687	0.0155731
621.765	0.0155772
621.843	0.0154480
621.922	0.0155500
622.000	0.0155757
622.078	0.0155050
622.156	0.0155895
622.234	0.0155447
622.312	0.0154645
622.390	0.0154921
622.468	0.0155073
622.547	0.0154446
622.625	0.0155236
622.703	0.0156387
622.781	0.0155173
622.859	0.0155082
622.937	0.0155544
623.015	0.0155487
623.093	0.0155554
623.172	0.0156036
623.250	0.0155088
623.328	0.0154502
623.406	0.0156445
623.484	0.0155566
623.562	0.0155589
623.640	0.0153973
623.718	0.0154425
623.797	0.0154577
623.875	0.0155385
623.953	0.0155503
624.031	0.0155932
624.109	0.0154590
624.187	0.0155451
624.265	0.0154906
624.343	0.0155354
624.422	0.0155841
624.500	0.0154547
624.578	0.0154648
624.656	0.0154655
624.734	0.0155183
624.812	0.0153625
624.890	0.0155200
624.968	0.0153896
625.047	0.0155276
625.125	0.0155182
625.203	0.0155077
625.281	0.0155476
625.359	0.0156235
625.437	0.0155670
625.515	0.0155109
625.593	0.0154192
625.672	0.0153500
625.750	0.0154573
625.828	0.0156019
625.906	0.0155251
625.984	0.0154282
626.062	0.0154781
626.140	0.0155087
626.218	0.0154864
626.297	0.0155530
626.375	0.0157129
626.453	0.0154723
626.531	0.0153681
626.609	0.0156644
626.687	0.0154319
626.765	0.0155264
626.843	0.0154883
626.922	0.0154409
627.000	0.0157391
627.078	0.0154556
627.156	0.0154859
627.234	0.0155294
627.312	0.0154744
627.390	0.0154874
627.468	0.0154662
627.547	0.0154978
627.625	0.0154372
627.703	0.0156799
627.781	0.0155300
627.859	0.0154230
627.937	0.0155109
628.015	0.0154329
628.093	0.0155567
628.172	0.0156434
628.250	0.0154709
628.328	0.0155756
628.406	0.0155051
628.484	0.0153936
628.562	0.0154627
628.640	0.0155440
628.718	0.0155215
628.797	0.0154793
628.875	0.0154729
628.953	0.0156355
629.031	0.0155733
629.109	0.0154873
629.187	0.0155960
629.265	0.0154662
629.343	0.0154561
629.422	0.0156387
629.500	0.0155435
629.578	0.0154939
629.656	0.0154679
629.734	0.0154288
629.812	0.0154248
629.890	0.0154607
629.968	0.0155139
630.047	0.0156030
630.125	0.0155508
630.203	0.0155131
630.281	0.0154510
630.359	0.0155606
630.437	0.0155328
630.515	0.0154299
630.593	0.0155641
630.672	0.0155135
630.750	0.0155631
630.828	0.0155016
630.906	0.0154749
630.984	0.0155325
631.062	0.0154603
631.140	0.0156119
631.218	0.0156050
631.297	0.0154668
631.375	0.0154860
631.453	0.0156469
631.531	0.0155217
631.609	0.0154223
631.687	0.0154302
631.765	0.0155373
631.843	0.0156534
631.922	0.0155281
632.000	0.0154389
632.078	0.0154741
632.156	0.0155589
632.234	0.0154182
632.312	0.0154937
632.390	0.0155737
632.468	0.0155508
632.547	0.0154768
632.625	0.0154758
632.703	0.0155236
632.781	0.0154744
632.859	0.0154494
632.937	0.0155000
633.015	0.0154735
633.093	0.0155160
633.172	0.0154720
633.250	0.0154736
633.328	0.0154415
633.406	0.0156018
633.484	0.0153421
633.562	0.0155106
633.640	0.0155040
633.718	0.0153666
633.797	0.0155878
633.875	0.0155422
633.953	0.0155318
634.031	0.0155082
634.109	0.0156055
634.187	0.0154415
634.265	0.0153721
634.343	0.0155251
634.422	0.0154839
634.500	0.0153925
634.578	0.0155014
634.656	0.0154418
634.734	0.0154522
634.812	0.0155257
634.890	0.0154993
634.968	0.0154333
635.047	0.0155342
635.125	0.0155201
635.203	0.0154717
635.281	0.0155220
635.359	0.0155556
635.437	0.0155619
635.515	0.0155563
635.593	0.0155085
635.672	0.0156016
635.750	0.0155579
635.828	0.0154946
635.906	0.0155733
635.984	0.0154745
636.062	0.0155178
636.140	0.0155753
636.218	0.0154847
636.297	0.0155574
636.375	0.0154539
636.453	0.0153752
636.531	0.0154620
636.609	0.0155312
636.687	0.0155116
636.765	0.0155085
636.843	0.0154273
636.922	0.0153925
637.000	0.0155212
637.078	0.0155390
637.156	0.0155321
637.234	0.0155727
637.312	0.0153541
637.390	0.0155302
637.468	0.0155534
637.547	0.0155916
637.625	0.0155090
637.703	0.0154678
637.781	0.0155112
637.859	0.0155201
637.937	0.0154108
638.015	0.0155263
638.093	0.0155162
638.172	0.0155488
638.250	0.0155053
638.328	0.0156006
638.406	0.0154294
638.484	0.0155157
638.562	0.0155923
638.640	0.0153761
638.718	0.0155035
638.797	0.0154333
638.875	0.0155316
638.953	0.0154620
639.031	0.0154028
639.109	0.0154896
639.187	0.0155282
639.265	0.0155401
639.343	0.0154288
639.422	0.0155010
639.500	0.0155282
639.578	0.0155067
639.656	0.0155134
639.734	0.0155499
639.812	0.0155299
639.890	0.0155002
639.968	0.0156403
640.047	0.0155928
640.125	0.0156039
640.203	0.0154250
640.281	0.0155505
640.359	0.0156889
640.437	0.0155252
640.515	0.0155547
640.593	0.0154674
640.672	0.0155725
640.750	0.0154801
640.828	0.0154076
640.906	0.0155604
640.984	0.0154640
641.062	0.0154339
641.140	0.0154394
641.218	0.0154976
641.297	0.0155370
641.375	0.0155468
641.453	0.0155309
641.531	0.0154139
641.609	0.0154583
641.687	0.0154731
641.765	0.0156726
641.843	0.0155569
641.922	0.0155782
642.000	0.0154693
642.078	0.0155335
642.156	0.0155109
642.234	0.0156053
642.312	0.0153630
642.390	0.0155331
642.468	0.0155609
642.547	0.0154810
642.625	0.0155147
642.703	0.0155771
642.781	0.0155406
642.859	0.0154321
642.937	0.0154801
643.015	0.0155423
643.093	0.0156665
643.172	0.0155055
643.250	0.0155409
643.328	0.0154221
643.406	0.0154028
643.484	0.0154491
643.562	0.0155054
643.640	0.0156032
643.718	0.0155585
643.797	0.0154958
643.875	0.0154093
643.953	0.0154888
644.031	0.0155167
644.109	0.0154701
644.187	0.0155769
644.265	0.0154761
644.343	0.0154092
644.422	0.0155182
644.500	0.0153960
644.578	0.0155010
644.656	0.0154445
644.734	0.0155508
644.812	0.0153620
644.890	0.0156017
644.968	0.0154675
645.047	0.0155742
645.125	0.0154443
645.203	0.0155090
645.281	0.0154761
645.359	0.0153171
645.437	0.0155842
645.515	0.0155260
645.593	0.0155262
645.672	0.0154636
645.750	0.0155305
645.828	0.0155116
645.906	0.0155329
645.984	0.0155208
646.062	0.0154593
646.140	0.0153666
646.218	0.0154823
646.297	0.0155403
646.375	0.0154241
646.453	0.0155697
646.531	0.0154691
646.609	0.0153922
646.687	0.0154297
646.765	0.0154538
646.843	0.0154700
646.922	0.0155549
647.000	0.0154221
647.078	0.0153900
647.156	0.0154703
647.234	0.0155370
647.312	0.0154445
647.390	0.0156231
647.468	0.0155053
647.547	0.0155367
647.625	0.0154288
647.703	0.0154798
647.781	0.0155169
647.859	0.0154768
647.937	0.0154899
648.015	0.0154520
648.093	0.0154154
648.172	0.0154466
648.250	0.0156726
648.328	0.0155444
648.406	0.0155232
648.484	0.0155830
648.562	0.0154610
648.640	0.0155099
648.718	0.0154983
648.797	0.0154363
648.875	0.0155152
648.953	0.0155084
649.031	0.0154608
649.109	0.0155794
649.187	0.0155757
649.265	0.0156109
649.343	0.0156590
649.422	0.0155027
649.500	0.0154523
649.578	0.0153643
649.656	0.0155668
649.734	0.0155428
649.812	0.0155067
649.890	0.0153903
649.968	0.0154468
650.047	0.0154497
650.125	0.0155788
650.203	0.0155955
650.281	0.0155268
650.359	0.0153700
650.437	0.0154316
650.515	0.0153645
650.593	0.0155124
650.672	0.0154906
650.750	0.0154401
650.828	0.0155339
650.906	0.0155054
650.984	0.0154536
651.062	0.0154942
651.140	0.0154582
651.218	0.0155199
651.297	0.0154630
651.375	0.0154943
651.453	0.0155375
651.531	0.0155008
651.609	0.0155889
651.687	0.0154285
651.765	0.0154008
651.843	0.0154906
651.922	0.0156937
652.000	0.0155531
652.078	0.0155236
652.156	0.0155814
652.234	0.0154845
652.312	0.0154380
652.390	0.0155249
652.468	0.0154852
652.547	0.0154794
652.625	0.0155338
652.703	0.0154530
652.781	0.0154930
652.859	0.0155310
652.937	0.0154753
653.015	0.0154048
653.093	0.0154715
653.172	0.0154498
653.250	0.0154526
653.328	0.0154758
653.406	0.0154407
653.484	0.0155206
653.562	0.0155005
653.640	0.0154691
653.718	0.0154491
653.797	0.0154638
653.875	0.0154704
653.953	0.0155827
654.031	0.0154954
654.109	0.0154861
654.187	0.0155817
654.265	0.0154263
654.343	0.0154405
654.422	0.0153822
654.500	0.0155489
654.578	0.0154101
654.656	0.0154037
654.734	0.0154616
654.812	0.0154565
654.890	0.0153760
654.968	0.0153999
655.047	0.0154096
655.125	0.0154228
655.203	0.0154299
655.281	0.0155872
655.359	0.0155129
655.437	0.0154906
655.515	0.0155381
655.593	0.0155283
655.672	0.0156412
655.750	0.0156253
655.828	0.0155742
655.906	0.0155719
655.984	0.0155452
656.062	0.0154477
656.140	0.0155003
656.218	0.0154021
656.297	0.0156165
656.375	0.0154938
656.453	0.0155871
656.531	0.0154944
656.609	0.0155574
656.687	0.0154708
656.765	0.0156116
656.843	0.0155776
656.922	0.0155161
657.000	0.0155006
657.078	0.0156317
657.156	0.0156036
657.234	0.0155002
657.312	0.0154966
657.390	0.0155778
657.468	0.0156166
657.547	0.0155350
657.625	0.0154790
657.703	0.0155672
657.781	0.0155429
657.859	0.0153986
657.937	0.0154115
658.015	0.0155001
658.093	0.0155216
658.172	0.0154292
658.250	0.0153871
658.328	0.0155029
658.406	0.0154656
658.484	0.0152882
658.562	0.0155810
658.640	0.0155630
658.718	0.0154293
658.797	0.0153922
658.875	0.0155695
658.953	0.0154498
659.031	0.0154484
659.109	0.0155785
659.187	0.0155051
659.265	0.0153893
659.343	0.0155578
659.422	0.0155411
659.500	0.0154831
659.578	0.0155611
659.656	0.0156399
659.734	0.0154980
659.812	0.0155873
659.890	0.0156042
659.968	0.0155965
660.047	0.0154882
660.125	0.0154604
660.203	0.0155665
660.281	0.0154916
660.359	0.0154777
660.437	0.0154232
660.515	0.0155033
660.593	0.0155506
660.672	0.0154955
660.750	0.0156324
660.828	0.0154897
660.906	0.0154691
660.984	0.0156379
661.062	0.0156371
661.140	0.0155166
661.218	0.0155551
661.297	0.0154888
661.375	0.0155278
661.453	0.0154764
661.531	0.0154983
661.609	0.0155321
661.687	0.0154318
661.765	0.0156508
661.843	0.0155105
661.922	0.0153683
662.000	0.0156142
662.078	0.0155981
662.156	0.0155165
662.234	0.0156290
662.312	0.0155764
662.390	0.0153843
662.468	0.0155193
662.547	0.0154737
662.625	0.0154826
662.703	0.0155345
662.781	0.0154874
662.859	0.0155114
662.937	0.0155226
663.015	0.0154908
663.093	0.0155431
663.172	0.0156253
663.250	0.0155565
663.328	0.0154232
663.406	0.0155695
663.484	0.0154145
663.562	0.0154035
663.640	0.0156024
663.718	0.0156261
663.797	0.0155090
663.875	0.0154655
663.953	0.0155157
664.031	0.0154511
664.109	0.0154540
664.187	0.0155732
664.265	0.0155461
664.343	0.0155681
664.422	0.0153947
664.500	0.0155782
664.578	0.0155106
664.656	0.0154726
664.734	0.0155195
664.812	0.0155571
664.890	0.0154810
664.968	0.0155576
665.047	0.0155853
665.125	0.0154694
665.203	0.0154273
665.281	0.0155687
665.359	0.0154268
665.437	0.0156064
665.515	0.0154658
665.593	0.0154349
665.672	0.0155055
665.750	0.0154163
665.828	0.0154798
665.906	0.0154283
665.984	0.0153365
666.062	0.0155358
666.140	0.0155225
666.218	0.0155343
666.297	0.0156339
666.375	0.0155379
666.453	0.0156153
666.531	0.0154050
666.609	0.0154066
666.687	0.0154913
666.765	0.0153857
666.843	0.0154370
666.922	0.0155431
667.000	0.0155798
667.078	0.0154527
667.156	0.0155585
667.234	0.0155235
667.312	0.0154993
667.390	0.0154604
667.468	0.0156087
667.547	0.0155278
667.625	0.0155487
667.703	0.0155219
667.781	0.0155673
667.859	0.0155274
667.937	0.0153465
668.015	0.0154642
668.093	0.0153721
668.172	0.0156161
668.250	0.0154479
668.328	0.0154342
668.406	0.0156272
668.484	0.0154698
668.562	0.0155410
668.640	0.0154967
668.718	0.0155730
668.797	0.0156221
668.875	0.0155735
668.953	0.0154991
669.031	0.0155592
669.109	0.0155605
669.187	0.0154680
669.265	0.0153477
669.343	0.0155642
669.422	0.0153791
669.500	0.0153706
669.578	0.0155245
669.656	0.0154305
669.734	0.0154211
669.812	0.0154909
669.890	0.0154510
669.968	0.0155502
670.047	0.0153849
670.125	0.0154113
670.203	0.0155696
670.281	0.0156281
670.359	0.0156476
670.437	0.0154784
670.515	0.0154558
670.593	0.0154442
670.672	0.0155558
670.750	0.0155764
670.828	0.0155051
670.906	0.0155382
670.984	0.0155755
671.062	0.0155698
671.140	0.0155139
671.218	0.0155190
671.297	0.0155904
671.375	0.0155657
671.453	0.0155325
671.531	0.0155430
671.609	0.0155122
671.687	0.0156180
671.765	0.0155789
671.843	0.0155773
671.922	0.0154277
672.000	0.0154159
672.078	0.0154198
672.156	0.0155243
672.234	0.0154140
672.312	0.0154072
672.390	0.0154359
672.468	0.0154249
672.547	0.0155440
672.625	0.0154426
672.703	0.0153426
672.781	0.0154976
672.859	0.0154341
672.937	0.0153976
673.015	0.0153748
673.093	0.0156328
673.172	0.0155418
673.250	0.0154974
673.328	0.0156683
673.406	0.0154363
673.484	0.0155848
673.562	0.0155792
673.640	0.0155481
673.718	0.0155981
673.797	0.0156049
673.875	0.0156287
673.953	0.0154855
674.031	0.0154455
674.109	0.0156013
674.187	0.0155048
674.265	0.0155513
674.343	0.0156349
674.422	0.0154971
674.500	0.0153808
674.578	0.0155478
674.656	0.0154527
674.734	0.0154951
674.812	0.0154797
674.890	0.0154691
674.968	0.0156039
675.047	0.0155020
675.125	0.0155479
675.203	0.0155844
675.281	0.0154865
675.359	0.0154272
675.437	0.0153706
675.515	0.0155192
675.593	0.0154716
675.672	0.0154337
675.750	0.0155134
675.828	0.0154865
675.906	0.0155782
675.984	0.0154042
676.062	0.0155393
676.140	0.0155490
676.218	0.0154305
676.297	0.0153906
676.375	0.0154606
676.453	0.0154523
676.531	0.0155904
676.609	0.0155819
676.687	0.0154891
676.765	0.0155080
676.843	0.0155232
676.922	0.0155849
677.000	0.0156148
677.078	0.0154349
677.156	0.0156603
677.234	0.0154379
677.312	0.0154820
677.390	0.0155385
677.468	0.0155418
677.547	0.0156783
677.625	0.0156015
677.703	0.0155717
677.781	0.0155673
677.859	0.0155142
677.937	0.0155009
678.015	0.0156037
678.093	0.0155696
678.172	0.0155224
678.250	0.0154054
678.328	0.0155807
678.406	0.0156026
678.484	0.0155505
678.562	0.0156019
678.640	0.0153470
678.718	0.0155297
678.797	0.0155537
678.875	0.0154443
678.953	0.0155775
679.031	0.0155815
679.109	0.0154473
679.187	0.0154128
679.265	0.0154417
679.343	0.0155537
679.422	0.0156501
679.500	0.0154127
679.578	0.0154337
679.656	0.0154455
679.734	0.0156513
679.812	0.0155934
679.890	0.0155785
679.968	0.0156020
680.047	0.0156245
680.125	0.0155243
680.203	0.0157187
680.281	0.0156882
680.359	0.0155891
680.437	0.0155211
680.515	0.0155216
680.593	0.0156125
680.672	0.0157903
680.750	0.0156824
680.828	0.0156497
680.906	0.0154150
680.984	0.0155451
681.062	0.0156033
681.140	0.0155042
681.218	0.0155514
681.297	0.0155007
681.375	0.0155804
681.453	0.0155125
681.531	0.0154865
681.609	0.0154940
681.687	0.0155367
681.765	0.0155185
681.843	0.0154310
681.922	0.0154992
682.000	0.0155839
682.078	0.0155929
682.156	0.0156098
682.234	0.0154638
682.312	0.0153313
682.390	0.0155261
682.468	0.0156010
682.547	0.0154821
682.625	0.0155424
682.703	0.0155618
682.781	0.0155590
682.859	0.0154747
682.937	0.0155924
683.015	0.0155311
683.093	0.0154417
683.172	0.0155983
683.250	0.0155956
683.328	0.0155651
683.406	0.0154622
683.484	0.0154784
683.562	0.0155278
683.640	0.0155452
683.718	0.0155550
683.797	0.0155364
683.875	0.0156019
683.953	0.0156010
684.031	0.0156042
684.109	0.0155953
684.187	0.0156551
684.265	0.0155203
684.343	0.0156109
684.422	0.0155227
684.500	0.0155193
684.578	0.0154488
684.656	0.0155226
684.734	0.0156183
684.812	0.0154665
684.890	0.0154219
684.968	0.0154776
685.047	0.0155006
685.125	0.0154054
685.203	0.0155477
685.281	0.0155685
685.359	0.0155084
685.437	0.0155046
685.515	0.0154474
685.593	0.0154395
685.672	0.0154030
