06/13/2022	14:37:53	Ver.	4.1	UNKNOWN
Optical Delay	599.968395	Delta X		0.078125	Sweeps	1	Scan Rate	0/0
Coordinates	Axis 1	NaN	Axis 2	NaN	Axis 3	NaN	Axis 4	NaN	Axis 5	NaN	Axis 6	0.000000
TX Power	0.000000	RX Power	0.000000

599.968	0.0149872
600.047	0.0149356
600.125	0.0149296
600.203	0.0149760
600.281	0.0149368
600.359	0.0151163
600.437	0.0150560
600.515	0.0148569
600.593	0.0150031
600.672	0.0150269
600.750	0.0148780
600.828	0.0149796
600.906	0.0150069
600.984	0.0148569
601.062	0.0151420
601.140	0.0150636
601.218	0.0149987
601.297	0.0149764
601.375	0.0149474
601.453	0.0150097
601.531	0.0150053
601.609	0.0149262
601.687	0.0149583
601.765	0.0152519
601.843	0.0149162
601.922	0.0149395
602.000	0.0147723
602.078	0.0150072
602.156	0.0149837
602.234	0.0149748
602.312	0.0150657
602.390	0.0150094
602.468	0.0149249
602.547	0.0149468
602.625	0.0149915
602.703	0.0150714
602.781	0.0150132
602.859	0.0149647
602.937	0.0150198
603.015	0.0149364
603.093	0.0150205
603.172	0.0149462
603.250	0.0148898
603.328	0.0149070
603.406	0.0151068
603.484	0.0149812
603.562	0.0149102
603.640	0.0149816
603.718	0.0150266
603.797	0.0148794
603.875	0.0150416
603.953	0.0149335
604.031	0.0149538
604.109	0.0148394
604.187	0.0150381
604.265	0.0149356
604.343	0.0149166
604.422	0.0148032
604.500	0.0150078
604.578	0.0149781
604.656	0.0149427
604.734	0.0150072
604.812	0.0149015
604.890	0.0148483
604.968	0.0149506
605.047	0.0150070
605.125	0.0149039
605.203	0.0149239
605.281	0.0148539
605.359	0.0148967
605.437	0.0149644
605.515	0.0149126
605.593	0.0149235
605.672	0.0151022
605.750	0.0149854
605.828	0.0149899
605.906	0.0147865
605.984	0.0148440
606.062	0.0151739
606.140	0.0149958
606.218	0.0149447
606.297	0.0148154
606.375	0.0148859
606.453	0.0150547
606.531	0.0149119
606.609	0.0150409
606.687	0.0150150
606.765	0.0149678
606.843	0.0149066
606.922	0.0149390
607.000	0.0150230
607.078	0.0150816
607.156	0.0149811
607.234	0.0149297
607.312	0.0149262
607.390	0.0150935
607.468	0.0149886
607.547	0.0148609
607.625	0.0149667
607.703	0.0149851
607.781	0.0149957
607.859	0.0149266
607.937	0.0150835
608.015	0.0150047
608.093	0.0149944
608.172	0.0148244
608.250	0.0149797
608.328	0.0150629
608.406	0.0150411
608.484	0.0150311
608.562	0.0150253
608.640	0.0149839
608.718	0.0149261
608.797	0.0148685
608.875	0.0149264
608.953	0.0150069
609.031	0.0150892
609.109	0.0149320
609.187	0.0149451
609.265	0.0148474
609.343	0.0150451
609.422	0.0148727
609.500	0.0148180
609.578	0.0150814
609.656	0.0148524
609.734	0.0148531
609.812	0.0149653
609.890	0.0149741
609.968	0.0148727
610.047	0.0148537
610.125	0.0148683
610.203	0.0151480
610.281	0.0148959
610.359	0.0149120
610.437	0.0149837
610.515	0.0150039
610.593	0.0149624
610.672	0.0150431
610.750	0.0149952
610.828	0.0149867
610.906	0.0149794
610.984	0.0150289
611.062	0.0150160
611.140	0.0150836
611.218	0.0149940
611.297	0.0150169
611.375	0.0149062
611.453	0.0150401
611.531	0.0150150
611.609	0.0150869
611.687	0.0148609
611.765	0.0150708
611.843	0.0150391
611.922	0.0149413
612.000	0.0148989
612.078	0.0149432
612.156	0.0149611
612.234	0.0149886
612.312	0.0149879
612.390	0.0149767
612.468	0.0150052
612.547	0.0149831
612.625	0.0148753
612.703	0.0149517
612.781	0.0150988
612.859	0.0150576
612.937	0.0149071
613.015	0.0149530
613.093	0.0149264
613.172	0.0149919
613.250	0.0150631
613.328	0.0150045
613.406	0.0149300
613.484	0.0149300
613.562	0.0149287
613.640	0.0149823
613.718	0.0150337
613.797	0.0149319
613.875	0.0150263
613.953	0.0150023
614.031	0.0150378
614.109	0.0147858
614.187	0.0150777
614.265	0.0149195
614.343	0.0150732
614.422	0.0150124
614.500	0.0149557
614.578	0.0148986
614.656	0.0148794
614.734	0.0151150
614.812	0.0149879
614.890	0.0149669
614.968	0.0149652
615.047	0.0149412
615.125	0.0148051
615.203	0.0150211
615.281	0.0149973
615.359	0.0149875
615.437	0.0149986
615.515	0.0149899
615.593	0.0148969
615.672	0.0149140
615.750	0.0149298
615.828	0.0149532
615.906	0.0149767
615.984	0.0149451
616.062	0.0150473
616.140	0.0150320
616.218	0.0149995
616.297	0.0148946
616.375	0.0149860
616.453	0.0149667
616.531	0.0149454
616.609	0.0150190
616.687	0.0149613
616.765	0.0149291
616.843	0.0150056
616.922	0.0149502
617.000	0.0148901
617.078	0.0149466
617.156	0.0150020
617.234	0.0149894
617.312	0.0149525
617.390	0.0149332
617.468	0.0149800
617.547	0.0150479
617.625	0.0150540
617.703	0.0149141
617.781	0.0149492
617.859	0.0149786
617.937	0.0149551
618.015	0.0150820
618.093	0.0150140
618.172	0.0149765
618.250	0.0149261
618.328	0.0149281
618.406	0.0148897
618.484	0.0149651
618.562	0.0149641
618.640	0.0150521
618.718	0.0149863
618.797	0.0149648
618.875	0.0149630
618.953	0.0148524
619.031	0.0150294
619.109	0.0150406
619.187	0.0149478
619.265	0.0149121
619.343	0.0149806
619.422	0.0148604
619.500	0.0151023
619.578	0.0150594
619.656	0.0148820
619.734	0.0149989
619.812	0.0148029
619.890	0.0148785
619.968	0.0149252
620.047	0.0149326
620.125	0.0149828
620.203	0.0149663
620.281	0.0149712
620.359	0.0150147
620.437	0.0148860
620.515	0.0148885
620.593	0.0148605
620.672	0.0149902
620.750	0.0149657
620.828	0.0148921
620.906	0.0149572
620.984	0.0149115
621.062	0.0149664
621.140	0.0149940
621.218	0.0149633
621.297	0.0148740
621.375	0.0149113
621.453	0.0149154
621.531	0.0150574
621.609	0.0149760
621.687	0.0149588
621.765	0.0149739
621.843	0.0150228
621.922	0.0149287
622.000	0.0149968
622.078	0.0149686
622.156	0.0149526
622.234	0.0150055
622.312	0.0149416
622.390	0.0149294
622.468	0.0150131
622.547	0.0150396
622.625	0.0149405
622.703	0.0150160
622.781	0.0149473
622.859	0.0150275
622.937	0.0149928
623.015	0.0149834
623.093	0.0147991
623.172	0.0149436
623.250	0.0149812
623.328	0.0149344
623.406	0.0150250
623.484	0.0150489
623.562	0.0150584
623.640	0.0149218
623.718	0.0148822
623.797	0.0149466
623.875	0.0150752
623.953	0.0150589
624.031	0.0150055
624.109	0.0149567
624.187	0.0149529
624.265	0.0149447
624.343	0.0149837
624.422	0.0149847
624.500	0.0149916
624.578	0.0149065
624.656	0.0148569
624.734	0.0147344
624.812	0.0149948
624.890	0.0151070
624.968	0.0149084
625.047	0.0149757
625.125	0.0148832
625.203	0.0149541
625.281	0.0149970
625.359	0.0149240
625.437	0.0150228
625.515	0.0149374
625.593	0.0149374
625.672	0.0150481
625.750	0.0151323
625.828	0.0150071
625.906	0.0149870
625.984	0.0149167
626.062	0.0148720
626.140	0.0149831
626.218	0.0150877
626.297	0.0150612
626.375	0.0151202
626.453	0.0149609
626.531	0.0147904
626.609	0.0149667
626.687	0.0148631
626.765	0.0149845
626.843	0.0150411
626.922	0.0150489
627.000	0.0149893
627.078	0.0149535
627.156	0.0147927
627.234	0.0150774
627.312	0.0149636
627.390	0.0149038
627.468	0.0148683
627.547	0.0148915
627.625	0.0149293
627.703	0.0149399
627.781	0.0149541
627.859	0.0149474
627.937	0.0148490
628.015	0.0149465
628.093	0.0149413
628.172	0.0149954
628.250	0.0149516
628.328	0.0149306
628.406	0.0149230
628.484	0.0149753
628.562	0.0148792
628.640	0.0148956
628.718	0.0148987
628.797	0.0148943
628.875	0.0150447
628.953	0.0148481
629.031	0.0149343
629.109	0.0148630
629.187	0.0149034
629.265	0.0150263
629.343	0.0149845
629.422	0.0149731
629.500	0.0149766
629.578	0.0149580
629.656	0.0147704
629.734	0.0148972
629.812	0.0150227
629.890	0.0149220
629.968	0.0150134
630.047	0.0150288
630.125	0.0149228
630.203	0.0150574
630.281	0.0150333
630.359	0.0150380
630.437	0.0149519
630.515	0.0148986
630.593	0.0148885
630.672	0.0148718
630.750	0.0149613
630.828	0.0149375
630.906	0.0149622
630.984	0.0149503
631.062	0.0149403
631.140	0.0150336
631.218	0.0148991
631.297	0.0149316
631.375	0.0148662
631.453	0.0150061
631.531	0.0151399
631.609	0.0149187
631.687	0.0148692
631.765	0.0149392
631.843	0.0150283
631.922	0.0149780
632.000	0.0150381
632.078	0.0149079
632.156	0.0150213
632.234	0.0150596
632.312	0.0150375
632.390	0.0149046
632.468	0.0149332
632.547	0.0149197
632.625	0.0150243
632.703	0.0150313
632.781	0.0149221
632.859	0.0150248
632.937	0.0149452
633.015	0.0150094
633.093	0.0148750
633.172	0.0147903
633.250	0.0150199
633.328	0.0151395
633.406	0.0149729
633.484	0.0148132
633.562	0.0150172
633.640	0.0151429
633.718	0.0150642
633.797	0.0148462
633.875	0.0149110
633.953	0.0149225
634.031	0.0147791
634.109	0.0149280
634.187	0.0148438
634.265	0.0149758
634.343	0.0150299
634.422	0.0149035
634.500	0.0150275
634.578	0.0149317
634.656	0.0149606
634.734	0.0150414
634.812	0.0149568
634.890	0.0149591
634.968	0.0150101
635.047	0.0149018
635.125	0.0149647
635.203	0.0150509
635.281	0.0149551
635.359	0.0149837
635.437	0.0149004
635.515	0.0149728
635.593	0.0150268
635.672	0.0149312
635.750	0.0150479
635.828	0.0149832
635.906	0.0150141
635.984	0.0150227
636.062	0.0150842
636.140	0.0150793
636.218	0.0151293
636.297	0.0149594
636.375	0.0148770
636.453	0.0148405
636.531	0.0150285
636.609	0.0150305
636.687	0.0149577
636.765	0.0148886
636.843	0.0149464
636.922	0.0149622
637.000	0.0150030
637.078	0.0149186
637.156	0.0150267
637.234	0.0148488
637.312	0.0149061
637.390	0.0150961
637.468	0.0149802
637.547	0.0149896
637.625	0.0150053
637.703	0.0148513
637.781	0.0148642
637.859	0.0150373
637.937	0.0149530
638.015	0.0149255
638.093	0.0150279
638.172	0.0150137
638.250	0.0149891
638.328	0.0149871
638.406	0.0149077
638.484	0.0149953
638.562	0.0150039
638.640	0.0149990
638.718	0.0150145
638.797	0.0150064
638.875	0.0151424
638.953	0.0150031
639.031	0.0149338
639.109	0.0150085
639.187	0.0149457
639.265	0.0148767
639.343	0.0148384
639.422	0.0149027
639.500	0.0149648
639.578	0.0149992
639.656	0.0150543
639.734	0.0149852
639.812	0.0149615
639.890	0.0149554
639.968	0.0149837
640.047	0.0150407
640.125	0.0149537
640.203	0.0149117
640.281	0.0149329
640.359	0.0149348
640.437	0.0150652
640.515	0.0149658
640.593	0.0150246
640.672	0.0149014
640.750	0.0150802
640.828	0.0150323
640.906	0.0149649
640.984	0.0148450
641.062	0.0149858
641.140	0.0149576
641.218	0.0149657
641.297	0.0150829
641.375	0.0149021
641.453	0.0148476
641.531	0.0149331
641.609	0.0149917
641.687	0.0150371
641.765	0.0150327
641.843	0.0149597
641.922	0.0149090
642.000	0.0149450
642.078	0.0149842
642.156	0.0149960
642.234	0.0149001
642.312	0.0149833
642.390	0.0150349
642.468	0.0151273
642.547	0.0149212
642.625	0.0148564
642.703	0.0150594
642.781	0.0148698
642.859	0.0149622
642.937	0.0148786
643.015	0.0150482
643.093	0.0150401
643.172	0.0149268
643.250	0.0148856
643.328	0.0150005
643.406	0.0150135
643.484	0.0150401
643.562	0.0151673
643.640	0.0149100
643.718	0.0149287
643.797	0.0148218
643.875	0.0150401
643.953	0.0151528
644.031	0.0149953
644.109	0.0149928
644.187	0.0149638
644.265	0.0149731
644.343	0.0150501
644.422	0.0149828
644.500	0.0149187
644.578	0.0149201
644.656	0.0149904
644.734	0.0150417
644.812	0.0149689
644.890	0.0149762
644.968	0.0149313
645.047	0.0150722
645.125	0.0149334
645.203	0.0149281
645.281	0.0149379
645.359	0.0149506
645.437	0.0149106
645.515	0.0150160
645.593	0.0150137
645.672	0.0150774
645.750	0.0148633
645.828	0.0149357
645.906	0.0150468
645.984	0.0150249
646.062	0.0152017
646.140	0.0151048
646.218	0.0149345
646.297	0.0148503
646.375	0.0148843
646.453	0.0149602
646.531	0.0149604
646.609	0.0149930
646.687	0.0149347
646.765	0.0149802
646.843	0.0149275
646.922	0.0150169
647.000	0.0149906
647.078	0.0151145
647.156	0.0149414
647.234	0.0151015
647.312	0.0150061
647.390	0.0150350
647.468	0.0149663
647.547	0.0150137
647.625	0.0149084
647.703	0.0149365
647.781	0.0150124
647.859	0.0150340
647.937	0.0149714
648.015	0.0149876
648.093	0.0151613
648.172	0.0149471
648.250	0.0149825
648.328	0.0149316
648.406	0.0150651
648.484	0.0148866
648.562	0.0150214
648.640	0.0149620
648.718	0.0149123
648.797	0.0149011
648.875	0.0151160
648.953	0.0151737
649.031	0.0150530
649.109	0.0150243
649.187	0.0149470
649.265	0.0148965
649.343	0.0149545
649.422	0.0149536
649.500	0.0149063
649.578	0.0150298
649.656	0.0149819
649.734	0.0149508
649.812	0.0150460
649.890	0.0150771
649.968	0.0149138
650.047	0.0149551
650.125	0.0151035
650.203	0.0149906
650.281	0.0150793
650.359	0.0149326
650.437	0.0148595
650.515	0.0149864
650.593	0.0148419
650.672	0.0150237
650.750	0.0149219
650.828	0.0150303
650.906	0.0150311
650.984	0.0149717
651.062	0.0149849
651.140	0.0148635
651.218	0.0149653
651.297	0.0149442
651.375	0.0148676
651.453	0.0148717
651.531	0.0149611
651.609	0.0149999
651.687	0.0149146
651.765	0.0149349
651.843	0.0149323
651.922	0.0150884
652.000	0.0148237
652.078	0.0149062
652.156	0.0149036
652.234	0.0150235
652.312	0.0150730
652.390	0.0148558
652.468	0.0149701
652.547	0.0150174
652.625	0.0149339
652.703	0.0149079
652.781	0.0148776
652.859	0.0149606
652.937	0.0149362
653.015	0.0150199
653.093	0.0148542
653.172	0.0151093
653.250	0.0150061
653.328	0.0150513
653.406	0.0149760
653.484	0.0150014
653.562	0.0147066
653.640	0.0148595
653.718	0.0150085
653.797	0.0149212
653.875	0.0151348
653.953	0.0149119
654.031	0.0150302
654.109	0.0149966
654.187	0.0149386
654.265	0.0150494
654.343	0.0149458
654.422	0.0150188
654.500	0.0148378
654.578	0.0149583
654.656	0.0151283
654.734	0.0148059
654.812	0.0149982
654.890	0.0149542
654.968	0.0149682
655.047	0.0149345
655.125	0.0149893
655.203	0.0148965
655.281	0.0148942
655.359	0.0149902
655.437	0.0150195
655.515	0.0148940
655.593	0.0147684
655.672	0.0149671
655.750	0.0150053
655.828	0.0150690
655.906	0.0148535
655.984	0.0149312
656.062	0.0148998
656.140	0.0149730
656.218	0.0149081
656.297	0.0150426
656.375	0.0151053
656.453	0.0148715
656.531	0.0149709
656.609	0.0148196
656.687	0.0148846
656.765	0.0149406
656.843	0.0151451
656.922	0.0148124
657.000	0.0148969
657.078	0.0149916
657.156	0.0149328
657.234	0.0149703
657.312	0.0150069
657.390	0.0150092
657.468	0.0148352
657.547	0.0149385
657.625	0.0148483
657.703	0.0148872
657.781	0.0149026
657.859	0.0150396
657.937	0.0149217
658.015	0.0149940
658.093	0.0149230
658.172	0.0149025
658.250	0.0149767
658.328	0.0149667
658.406	0.0148071
658.484	0.0148360
658.562	0.0149105
658.640	0.0149442
658.718	0.0150038
658.797	0.0150197
658.875	0.0149377
658.953	0.0148830
659.031	0.0149676
659.109	0.0150449
659.187	0.0149643
659.265	0.0149937
659.343	0.0149934
659.422	0.0149483
659.500	0.0149482
659.578	0.0148794
659.656	0.0149113
659.734	0.0148882
659.812	0.0149687
659.890	0.0148951
659.968	0.0150006
660.047	0.0148707
660.125	0.0150537
660.203	0.0149693
660.281	0.0149857
660.359	0.0148667
660.437	0.0150934
660.515	0.0148842
660.593	0.0148473
660.672	0.0149559
660.750	0.0148441
660.828	0.0150322
660.906	0.0149663
660.984	0.0149451
661.062	0.0150446
661.140	0.0149121
661.218	0.0148943
661.297	0.0150000
661.375	0.0149401
661.453	0.0148840
661.531	0.0151042
661.609	0.0149989
661.687	0.0149751
661.765	0.0149771
661.843	0.0149208
661.922	0.0149912
662.000	0.0149271
662.078	0.0150252
662.156	0.0150144
662.234	0.0150277
662.312	0.0148756
662.390	0.0147662
662.468	0.0149421
662.547	0.0150029
662.625	0.0150131
662.703	0.0150245
662.781	0.0148811
662.859	0.0148928
662.937	0.0149644
663.015	0.0148277
663.093	0.0148923
663.172	0.0149746
663.250	0.0148512
663.328	0.0149293
663.406	0.0149409
663.484	0.0149128
663.562	0.0149800
663.640	0.0148978
663.718	0.0148806
663.797	0.0149362
663.875	0.0149460
663.953	0.0149004
664.031	0.0148996
664.109	0.0149062
664.187	0.0149778
664.265	0.0148920
664.343	0.0150489
664.422	0.0148927
664.500	0.0149340
664.578	0.0149070
664.656	0.0150542
664.734	0.0149221
664.812	0.0149427
664.890	0.0148936
664.968	0.0149725
665.047	0.0150211
665.125	0.0150172
665.203	0.0149501
665.281	0.0148699
665.359	0.0150039
665.437	0.0149422
665.515	0.0149216
665.593	0.0151167
665.672	0.0149145
665.750	0.0149451
665.828	0.0150640
665.906	0.0149960
665.984	0.0150150
666.062	0.0148272
666.140	0.0148628
666.218	0.0149696
666.297	0.0149266
666.375	0.0149641
666.453	0.0149534
666.531	0.0148572
666.609	0.0149869
666.687	0.0150443
666.765	0.0148988
666.843	0.0146514
666.922	0.0149358
667.000	0.0149938
667.078	0.0150608
667.156	0.0150095
667.234	0.0148634
667.312	0.0149383
667.390	0.0150197
667.468	0.0148488
667.547	0.0149277
667.625	0.0149810
667.703	0.0149552
667.781	0.0148591
667.859	0.0149203
667.937	0.0149893
668.015	0.0149277
668.093	0.0149257
668.172	0.0150020
668.250	0.0149725
668.328	0.0149184
668.406	0.0150683
668.484	0.0149322
668.562	0.0150502
668.640	0.0148731
668.718	0.0147724
668.797	0.0148888
668.875	0.0150272
668.953	0.0147682
669.031	0.0148646
669.109	0.0150731
669.187	0.0148353
669.265	0.0148405
669.343	0.0149724
669.422	0.0150437
669.500	0.0149379
669.578	0.0149088
669.656	0.0149302
669.734	0.0150262
669.812	0.0150751
669.890	0.0147792
669.968	0.0148702
670.047	0.0149368
670.125	0.0149330
670.203	0.0149415
670.281	0.0149500
670.359	0.0149029
670.437	0.0150451
670.515	0.0149432
670.593	0.0148129
670.672	0.0149465
670.750	0.0149638
670.828	0.0149901
670.906	0.0149043
670.984	0.0148861
671.062	0.0149912
671.140	0.0150106
671.218	0.0149209
671.297	0.0150372
671.375	0.0149272
671.453	0.0148030
671.531	0.0148687
671.609	0.0148978
671.687	0.0150326
671.765	0.0149858
671.843	0.0148890
671.922	0.0148620
672.000	0.0148868
672.078	0.0150022
672.156	0.0148882
672.234	0.0149857
672.312	0.0150208
672.390	0.0149149
672.468	0.0149447
672.547	0.0150174
672.625	0.0149300
672.703	0.0149601
672.781	0.0150805
672.859	0.0149921
672.937	0.0149103
673.015	0.0148602
673.093	0.0149335
673.172	0.0149367
673.250	0.0148721
673.328	0.0149625
673.406	0.0150388
673.484	0.0149859
673.562	0.0149273
673.640	0.0150034
673.718	0.0150777
673.797	0.0149393
673.875	0.0148889
673.953	0.0150032
674.031	0.0149472
674.109	0.0149622
674.187	0.0150771
674.265	0.0151068
674.343	0.0148262
674.422	0.0148846
674.500	0.0149786
674.578	0.0149393
674.656	0.0149694
674.734	0.0149719
674.812	0.0149326
674.890	0.0148110
674.968	0.0150250
675.047	0.0149052
675.125	0.0149190
675.203	0.0148706
675.281	0.0150050
675.359	0.0149287
675.437	0.0148791
675.515	0.0149152
675.593	0.0148973
675.672	0.0149783
675.750	0.0149628
675.828	0.0149037
675.906	0.0150276
675.984	0.0150622
676.062	0.0149197
676.140	0.0148985
676.218	0.0149392
676.297	0.0148003
676.375	0.0148557
676.453	0.0148770
676.531	0.0149558
676.609	0.0149290
676.687	0.0149267
676.765	0.0148903
676.843	0.0150861
676.922	0.0148611
677.000	0.0149577
677.078	0.0149752
677.156	0.0149337
677.234	0.0150076
677.312	0.0150304
677.390	0.0149538
677.468	0.0149214
677.547	0.0148980
677.625	0.0150375
677.703	0.0150124
677.781	0.0150677
677.859	0.0150275
677.937	0.0149001
678.015	0.0148903
678.093	0.0149779
678.172	0.0149063
678.250	0.0150116
678.328	0.0152158
678.406	0.0149354
678.484	0.0150355
678.562	0.0148783
678.640	0.0150622
678.718	0.0150445
678.797	0.0148843
678.875	0.0148241
678.953	0.0150007
679.031	0.0149371
679.109	0.0149102
679.187	0.0149722
679.265	0.0149265
679.343	0.0149377
679.422	0.0149790
679.500	0.0149877
679.578	0.0149932
679.656	0.0148074
679.734	0.0148506
679.812	0.0149505
679.890	0.0149753
679.968	0.0148862
680.047	0.0150040
680.125	0.0149521
680.203	0.0150208
680.281	0.0149393
680.359	0.0149631
680.437	0.0150367
680.515	0.0149827
680.593	0.0148882
680.672	0.0148979
680.750	0.0149970
680.828	0.0149461
680.906	0.0151046
680.984	0.0151061
681.062	0.0150318
681.140	0.0149112
681.218	0.0150774
681.297	0.0148959
681.375	0.0149792
681.453	0.0150432
681.531	0.0149506
681.609	0.0149193
681.687	0.0149613
681.765	0.0150283
681.843	0.0150773
681.922	0.0151124
682.000	0.0148612
682.078	0.0150161
682.156	0.0150463
682.234	0.0148981
682.312	0.0149395
682.390	0.0149145
682.468	0.0149419
682.547	0.0150255
682.625	0.0148260
682.703	0.0149584
682.781	0.0150535
682.859	0.0149040
682.937	0.0147752
683.015	0.0148171
683.093	0.0150068
683.172	0.0148790
683.250	0.0148680
683.328	0.0148738
683.406	0.0149004
683.484	0.0149311
683.562	0.0148510
683.640	0.0149887
683.718	0.0149780
683.797	0.0150049
683.875	0.0149317
683.953	0.0149187
684.031	0.0149754
684.109	0.0149783
684.187	0.0150761
684.265	0.0150085
684.343	0.0150095
684.422	0.0150626
684.500	0.0149182
684.578	0.0150188
684.656	0.0150874
684.734	0.0151015
684.812	0.0149963
684.890	0.0150219
684.968	0.0149717
685.047	0.0148805
685.125	0.0149415
685.203	0.0150146
685.281	0.0149538
685.359	0.0149112
685.437	0.0148836
685.515	0.0149078
685.593	0.0148769
685.672	0.0149529
