06/13/2022	14:38:18	Ver.	4.1	UNKNOWN
Optical Delay	599.968395	Delta X		0.078125	Sweeps	1	Scan Rate	0/0
Coordinates	Axis 1	NaN	Axis 2	NaN	Axis 3	NaN	Axis 4	NaN	Axis 5	NaN	Axis 6	0.000000
TX Power	0.000000	RX Power	0.000000

599.968	0.0159097
600.047	0.0158555
600.125	0.0159118
600.203	0.0159057
600.281	0.0160144
600.359	0.0158711
600.437	0.0158200
600.515	0.0159802
600.593	0.0158720
600.672	0.0157833
600.750	0.0157872
600.828	0.0159309
600.906	0.0158569
600.984	0.0158563
601.062	0.0159053
601.140	0.0159056
601.218	0.0158415
601.297	0.0158619
601.375	0.0158562
601.453	0.0160211
601.531	0.0158545
601.609	0.0157213
601.687	0.0158132
601.765	0.0158787
601.843	0.0157396
601.922	0.0158070
602.000	0.0157945
602.078	0.0159445
602.156	0.0159874
602.234	0.0158725
602.312	0.0159586
602.390	0.0160535
602.468	0.0159537
602.547	0.0159309
602.625	0.0157635
602.703	0.0158671
602.781	0.0159790
602.859	0.0156902
602.937	0.0158088
603.015	0.0160364
603.093	0.0159022
603.172	0.0159990
603.250	0.0158912
603.328	0.0157790
603.406	0.0158107
603.484	0.0159734
603.562	0.0159679
603.640	0.0158622
603.718	0.0159555
603.797	0.0160291
603.875	0.0157827
603.953	0.0159100
604.031	0.0159294
604.109	0.0157903
604.187	0.0159026
604.265	0.0158282
604.343	0.0158948
604.422	0.0159368
604.500	0.0160251
604.578	0.0159576
604.656	0.0159776
604.734	0.0159117
604.812	0.0159234
604.890	0.0158949
604.968	0.0160358
605.047	0.0160294
605.125	0.0158477
605.203	0.0158818
605.281	0.0159283
605.359	0.0157713
605.437	0.0158497
605.515	0.0158778
605.593	0.0159156
605.672	0.0159402
605.750	0.0158533
605.828	0.0160008
605.906	0.0159766
605.984	0.0158987
606.062	0.0160212
606.140	0.0159509
606.218	0.0157671
606.297	0.0159295
606.375	0.0158738
606.453	0.0159451
606.531	0.0159251
606.609	0.0159506
606.687	0.0160547
606.765	0.0159607
606.843	0.0159165
606.922	0.0158582
607.000	0.0159412
607.078	0.0160160
607.156	0.0158004
607.234	0.0158705
607.312	0.0159857
607.390	0.0158789
607.468	0.0159003
607.547	0.0158750
607.625	0.0159069
607.703	0.0158353
607.781	0.0157819
607.859	0.0157442
607.937	0.0160210
608.015	0.0159509
608.093	0.0158088
608.172	0.0159843
608.250	0.0159385
608.328	0.0159619
608.406	0.0159180
608.484	0.0159310
608.562	0.0158933
608.640	0.0157977
608.718	0.0159706
608.797	0.0158567
608.875	0.0159659
608.953	0.0159311
609.031	0.0158059
609.109	0.0159715
609.187	0.0158360
609.265	0.0158498
609.343	0.0159971
609.422	0.0160387
609.500	0.0159738
609.578	0.0159888
609.656	0.0159435
609.734	0.0157774
609.812	0.0159495
609.890	0.0158695
609.968	0.0159184
610.047	0.0159621
610.125	0.0158997
610.203	0.0158714
610.281	0.0157774
610.359	0.0159283
610.437	0.0158684
610.515	0.0158280
610.593	0.0159272
610.672	0.0158812
610.750	0.0158387
610.828	0.0158869
610.906	0.0158276
610.984	0.0158732
611.062	0.0159769
611.140	0.0161429
611.218	0.0159557
611.297	0.0159206
611.375	0.0158572
611.453	0.0159351
611.531	0.0159184
611.609	0.0159784
611.687	0.0159591
611.765	0.0159114
611.843	0.0159142
611.922	0.0158998
612.000	0.0159703
612.078	0.0158688
612.156	0.0159569
612.234	0.0158063
612.312	0.0158717
612.390	0.0159130
612.468	0.0160477
612.547	0.0159210
612.625	0.0158950
612.703	0.0158599
612.781	0.0159404
612.859	0.0158823
612.937	0.0159942
613.015	0.0159116
613.093	0.0158378
613.172	0.0160587
613.250	0.0160120
613.328	0.0160165
613.406	0.0159124
613.484	0.0158521
613.562	0.0159874
613.640	0.0159626
613.718	0.0158216
613.797	0.0158994
613.875	0.0159158
613.953	0.0159138
614.031	0.0159196
614.109	0.0158977
614.187	0.0157713
614.265	0.0158730
614.343	0.0159753
614.422	0.0158518
614.500	0.0160983
614.578	0.0159158
614.656	0.0158452
614.734	0.0158512
614.812	0.0158312
614.890	0.0159132
614.968	0.0158372
615.047	0.0159263
615.125	0.0159039
615.203	0.0159000
615.281	0.0159198
615.359	0.0158584
615.437	0.0157205
615.515	0.0159344
615.593	0.0158901
615.672	0.0158061
615.750	0.0159840
615.828	0.0159550
615.906	0.0160448
615.984	0.0160275
616.062	0.0159148
616.140	0.0160357
616.218	0.0158405
616.297	0.0159364
616.375	0.0160206
616.453	0.0159595
616.531	0.0158939
616.609	0.0159399
616.687	0.0159010
616.765	0.0158957
616.843	0.0158860
616.922	0.0159351
617.000	0.0160173
617.078	0.0159006
617.156	0.0158914
617.234	0.0159575
617.312	0.0159257
617.390	0.0159072
617.468	0.0159245
617.547	0.0158228
617.625	0.0157888
617.703	0.0159349
617.781	0.0157832
617.859	0.0158012
617.937	0.0158604
618.015	0.0158479
618.093	0.0158269
618.172	0.0159020
618.250	0.0158027
618.328	0.0158761
618.406	0.0158875
618.484	0.0159087
618.562	0.0158118
618.640	0.0158539
618.718	0.0157988
618.797	0.0158485
618.875	0.0160021
618.953	0.0158566
619.031	0.0157938
619.109	0.0159824
619.187	0.0158482
619.265	0.0158100
619.343	0.0157948
619.422	0.0158940
619.500	0.0159567
619.578	0.0158560
619.656	0.0159863
619.734	0.0159834
619.812	0.0159549
619.890	0.0159023
619.968	0.0158957
620.047	0.0158237
620.125	0.0157928
620.203	0.0159424
620.281	0.0158308
620.359	0.0159145
620.437	0.0159859
620.515	0.0158082
620.593	0.0158702
620.672	0.0158440
620.750	0.0159032
620.828	0.0158247
620.906	0.0158966
620.984	0.0158482
621.062	0.0158294
621.140	0.0158486
621.218	0.0160259
621.297	0.0158295
621.375	0.0158843
621.453	0.0159904
621.531	0.0158845
621.609	0.0157998
621.687	0.0157983
621.765	0.0158515
621.843	0.0158261
621.922	0.0159798
622.000	0.0158260
622.078	0.0158298
622.156	0.0158311
622.234	0.0157913
622.312	0.0159250
622.390	0.0158355
622.468	0.0157788
622.547	0.0157895
622.625	0.0158234
622.703	0.0159061
622.781	0.0157185
622.859	0.0159402
622.937	0.0157533
623.015	0.0158064
623.093	0.0159084
623.172	0.0158801
623.250	0.0158908
623.328	0.0158805
623.406	0.0159227
623.484	0.0158788
623.562	0.0158791
623.640	0.0158232
623.718	0.0158279
623.797	0.0158863
623.875	0.0158950
623.953	0.0158273
624.031	0.0158851
624.109	0.0158925
624.187	0.0160220
624.265	0.0158451
624.343	0.0158740
624.422	0.0159572
624.500	0.0158088
624.578	0.0158988
624.656	0.0158041
624.734	0.0159012
624.812	0.0159095
624.890	0.0158710
624.968	0.0158932
625.047	0.0158855
625.125	0.0159235
625.203	0.0158355
625.281	0.0158501
625.359	0.0157289
625.437	0.0158660
625.515	0.0158219
625.593	0.0159628
625.672	0.0159248
625.750	0.0157854
625.828	0.0159327
625.906	0.0159390
625.984	0.0158291
626.062	0.0159132
626.140	0.0159208
626.218	0.0159061
626.297	0.0160371
626.375	0.0157941
626.453	0.0158775
626.531	0.0158697
626.609	0.0158709
626.687	0.0158928
626.765	0.0158818
626.843	0.0159612
626.922	0.0159351
627.000	0.0159361
627.078	0.0159937
627.156	0.0157345
627.234	0.0159315
627.312	0.0158397
627.390	0.0159544
627.468	0.0158684
627.547	0.0159789
627.625	0.0159349
627.703	0.0158653
627.781	0.0160163
627.859	0.0158623
627.937	0.0157955
628.015	0.0159747
628.093	0.0159074
628.172	0.0157391
628.250	0.0158367
628.328	0.0159074
628.406	0.0158913
628.484	0.0160175
628.562	0.0158171
628.640	0.0158050
628.718	0.0159892
628.797	0.0159898
628.875	0.0158022
628.953	0.0158493
629.031	0.0159100
629.109	0.0159232
629.187	0.0159200
629.265	0.0158733
629.343	0.0157841
629.422	0.0158779
629.500	0.0158816
629.578	0.0159024
629.656	0.0159688
629.734	0.0159319
629.812	0.0157277
629.890	0.0159853
629.968	0.0158577
630.047	0.0158443
630.125	0.0158653
630.203	0.0158601
630.281	0.0158934
630.359	0.0157482
630.437	0.0158663
630.515	0.0158873
630.593	0.0159315
630.672	0.0158746
630.750	0.0158611
630.828	0.0158240
630.906	0.0158243
630.984	0.0158559
631.062	0.0158983
631.140	0.0158174
631.218	0.0157835
631.297	0.0157722
631.375	0.0157882
631.453	0.0158231
631.531	0.0159157
631.609	0.0159521
631.687	0.0158257
631.765	0.0158196
631.843	0.0159696
631.922	0.0159371
632.000	0.0159422
632.078	0.0158000
632.156	0.0157604
632.234	0.0158936
632.312	0.0160053
632.390	0.0158887
632.468	0.0158157
632.547	0.0158147
632.625	0.0158585
632.703	0.0159088
632.781	0.0159673
632.859	0.0159914
632.937	0.0159287
633.015	0.0157941
633.093	0.0158889
633.172	0.0158495
633.250	0.0159292
633.328	0.0159229
633.406	0.0159789
633.484	0.0158595
633.562	0.0157877
633.640	0.0160052
633.718	0.0158414
633.797	0.0158208
633.875	0.0158855
633.953	0.0158314
634.031	0.0160106
634.109	0.0158047
634.187	0.0158983
634.265	0.0158362
634.343	0.0159923
634.422	0.0158710
634.500	0.0158313
634.578	0.0159388
634.656	0.0159463
634.734	0.0157690
634.812	0.0158108
634.890	0.0159846
634.968	0.0158402
635.047	0.0159561
635.125	0.0157522
635.203	0.0158593
635.281	0.0159114
635.359	0.0157851
635.437	0.0158646
635.515	0.0157704
635.593	0.0158439
635.672	0.0159208
635.750	0.0159046
635.828	0.0157256
635.906	0.0158456
635.984	0.0158368
636.062	0.0157729
636.140	0.0159850
636.218	0.0159675
636.297	0.0158781
636.375	0.0159604
636.453	0.0159236
636.531	0.0157755
636.609	0.0159658
636.687	0.0158586
636.765	0.0159160
636.843	0.0158326
636.922	0.0157730
637.000	0.0159064
637.078	0.0159561
637.156	0.0159621
637.234	0.0158601
637.312	0.0158443
637.390	0.0159352
637.468	0.0158269
637.547	0.0159525
637.625	0.0159491
637.703	0.0159167
637.781	0.0158648
637.859	0.0158131
637.937	0.0159560
638.015	0.0158865
638.093	0.0159341
638.172	0.0158496
638.250	0.0158707
638.328	0.0159319
638.406	0.0159377
638.484	0.0159176
638.562	0.0157343
638.640	0.0158714
638.718	0.0158994
638.797	0.0158840
638.875	0.0158870
638.953	0.0159844
639.031	0.0158809
639.109	0.0158428
639.187	0.0159748
639.265	0.0159325
639.343	0.0158456
639.422	0.0158940
639.500	0.0158904
639.578	0.0159084
639.656	0.0159081
639.734	0.0159230
639.812	0.0158892
639.890	0.0159037
639.968	0.0159251
640.047	0.0158994
640.125	0.0158231
640.203	0.0159090
640.281	0.0157833
640.359	0.0157643
640.437	0.0158701
640.515	0.0157776
640.593	0.0158844
640.672	0.0157878
640.750	0.0159909
640.828	0.0158321
640.906	0.0158971
640.984	0.0158886
641.062	0.0157022
641.140	0.0160164
641.218	0.0159316
641.297	0.0158000
641.375	0.0159286
641.453	0.0158808
641.531	0.0160442
641.609	0.0159104
641.687	0.0157923
641.765	0.0156915
641.843	0.0159319
641.922	0.0158678
642.000	0.0159010
642.078	0.0157909
642.156	0.0157858
642.234	0.0158173
642.312	0.0158298
642.390	0.0158807
642.468	0.0159071
642.547	0.0158068
642.625	0.0159427
642.703	0.0157842
642.781	0.0158021
642.859	0.0159908
642.937	0.0158791
643.015	0.0158975
643.093	0.0158245
643.172	0.0158292
643.250	0.0159200
643.328	0.0159286
643.406	0.0158376
643.484	0.0159093
643.562	0.0158572
643.640	0.0159528
643.718	0.0157990
643.797	0.0159426
643.875	0.0158683
643.953	0.0159501
644.031	0.0159319
644.109	0.0159985
644.187	0.0158481
644.265	0.0157792
644.343	0.0158879
644.422	0.0159377
644.500	0.0158628
644.578	0.0159383
644.656	0.0158177
644.734	0.0158767
644.812	0.0160269
644.890	0.0158538
644.968	0.0159252
645.047	0.0160395
645.125	0.0159779
645.203	0.0158809
645.281	0.0159219
645.359	0.0158508
645.437	0.0158456
645.515	0.0160022
645.593	0.0158759
645.672	0.0159677
645.750	0.0160310
645.828	0.0159950
645.906	0.0159901
645.984	0.0157118
646.062	0.0157955
646.140	0.0158987
646.218	0.0158843
646.297	0.0157161
646.375	0.0159824
646.453	0.0157451
646.531	0.0158082
646.609	0.0158478
646.687	0.0159114
646.765	0.0159193
646.843	0.0159451
646.922	0.0159016
647.000	0.0159471
647.078	0.0158395
647.156	0.0156786
647.234	0.0158928
647.312	0.0158718
647.390	0.0159408
647.468	0.0158578
647.547	0.0158928
647.625	0.0157021
647.703	0.0158255
647.781	0.0158103
647.859	0.0159443
647.937	0.0158888
648.015	0.0159184
648.093	0.0158824
648.172	0.0159438
648.250	0.0157404
648.328	0.0158633
648.406	0.0159805
648.484	0.0158860
648.562	0.0158419
648.640	0.0160368
648.718	0.0159058
648.797	0.0157426
648.875	0.0158950
648.953	0.0158794
649.031	0.0158537
649.109	0.0158504
649.187	0.0159209
649.265	0.0158751
649.343	0.0159094
649.422	0.0158712
649.500	0.0156755
649.578	0.0158938
649.656	0.0158998
649.734	0.0160019
649.812	0.0159618
649.890	0.0159615
649.968	0.0158847
650.047	0.0159666
650.125	0.0159413
650.203	0.0157682
650.281	0.0158890
650.359	0.0158711
650.437	0.0157961
650.515	0.0158955
650.593	0.0159402
650.672	0.0158682
650.750	0.0159040
650.828	0.0159212
650.906	0.0159972
650.984	0.0157954
651.062	0.0157776
651.140	0.0158767
651.218	0.0159183
651.297	0.0158315
651.375	0.0157927
651.453	0.0158545
651.531	0.0158551
651.609	0.0160114
651.687	0.0159746
651.765	0.0159056
651.843	0.0159339
651.922	0.0159129
652.000	0.0157228
652.078	0.0158467
652.156	0.0159399
652.234	0.0158951
652.312	0.0159898
652.390	0.0157901
652.468	0.0157915
652.547	0.0158468
652.625	0.0157507
652.703	0.0159813
652.781	0.0158112
652.859	0.0157681
652.937	0.0158811
653.015	0.0158886
653.093	0.0157545
653.172	0.0158304
653.250	0.0158108
653.328	0.0157964
653.406	0.0158846
653.484	0.0157981
653.562	0.0157822
653.640	0.0158675
653.718	0.0158744
653.797	0.0158712
653.875	0.0157415
653.953	0.0158179
654.031	0.0158212
654.109	0.0157883
654.187	0.0157995
654.265	0.0158286
654.343	0.0159044
654.422	0.0157880
654.500	0.0159129
654.578	0.0157608
654.656	0.0157767
654.734	0.0157771
654.812	0.0159134
654.890	0.0159322
654.968	0.0159328
655.047	0.0157661
655.125	0.0156440
655.203	0.0159116
655.281	0.0159259
655.359	0.0159457
655.437	0.0159219
655.515	0.0157344
655.593	0.0159198
655.672	0.0159025
655.750	0.0159420
655.828	0.0158707
655.906	0.0158372
655.984	0.0159524
656.062	0.0159785
656.140	0.0158394
656.218	0.0158965
656.297	0.0158807
656.375	0.0158059
656.453	0.0157998
656.531	0.0157502
656.609	0.0159959
656.687	0.0158321
656.765	0.0157857
656.843	0.0157500
656.922	0.0158626
657.000	0.0159716
657.078	0.0160847
657.156	0.0157683
657.234	0.0157823
657.312	0.0159364
657.390	0.0158657
657.468	0.0158341
657.547	0.0158208
657.625	0.0158211
657.703	0.0158431
657.781	0.0159418
657.859	0.0159046
657.937	0.0158340
658.015	0.0157922
658.093	0.0158778
658.172	0.0159374
658.250	0.0158883
658.328	0.0159236
658.406	0.0158947
658.484	0.0158405
658.562	0.0159113
658.640	0.0158916
658.718	0.0158594
658.797	0.0159067
658.875	0.0158421
658.953	0.0157785
659.031	0.0158166
659.109	0.0157432
659.187	0.0158908
659.265	0.0159588
659.343	0.0159191
659.422	0.0158052
659.500	0.0159521
659.578	0.0159569
659.656	0.0158473
659.734	0.0158550
659.812	0.0158180
659.890	0.0157860
659.968	0.0158102
660.047	0.0159959
660.125	0.0158496
660.203	0.0158785
660.281	0.0158147
660.359	0.0158656
660.437	0.0158864
660.515	0.0157316
660.593	0.0158118
660.672	0.0157521
660.750	0.0160113
660.828	0.0159321
660.906	0.0158331
660.984	0.0159468
661.062	0.0158813
661.140	0.0158489
661.218	0.0158063
661.297	0.0159347
661.375	0.0158097
661.453	0.0157907
661.531	0.0158503
661.609	0.0158496
661.687	0.0159167
661.765	0.0160374
661.843	0.0160368
661.922	0.0158687
662.000	0.0159402
662.078	0.0158538
662.156	0.0159846
662.234	0.0158526
662.312	0.0159719
662.390	0.0158241
662.468	0.0157820
662.547	0.0159501
662.625	0.0160394
662.703	0.0157735
662.781	0.0157120
662.859	0.0159074
662.937	0.0158691
663.015	0.0159368
663.093	0.0158281
663.172	0.0158436
663.250	0.0158759
663.328	0.0159346
663.406	0.0158450
663.484	0.0158470
663.562	0.0160516
663.640	0.0158656
663.718	0.0158321
663.797	0.0159124
663.875	0.0158038
663.953	0.0158889
664.031	0.0159377
664.109	0.0159496
664.187	0.0158839
664.265	0.0157741
664.343	0.0158326
664.422	0.0158105
664.500	0.0160559
664.578	0.0159740
664.656	0.0158043
664.734	0.0157574
664.812	0.0158533
664.890	0.0158549
664.968	0.0158127
665.047	0.0158464
665.125	0.0159739
665.203	0.0158475
665.281	0.0158498
665.359	0.0158303
665.437	0.0157517
665.515	0.0158366
665.593	0.0158291
665.672	0.0158817
665.750	0.0160063
665.828	0.0158370
665.906	0.0158753
665.984	0.0160341
666.062	0.0158147
666.140	0.0158276
666.218	0.0159300
666.297	0.0158506
666.375	0.0159895
666.453	0.0159996
666.531	0.0157771
666.609	0.0158791
666.687	0.0159148
666.765	0.0159027
666.843	0.0160072
666.922	0.0158393
667.000	0.0158429
667.078	0.0158800
667.156	0.0158949
667.234	0.0158441
667.312	0.0159579
667.390	0.0158389
667.468	0.0158415
667.547	0.0158057
667.625	0.0159109
667.703	0.0159520
667.781	0.0158268
667.859	0.0158344
667.937	0.0159822
668.015	0.0157565
668.093	0.0158853
668.172	0.0158423
668.250	0.0159362
668.328	0.0159094
668.406	0.0158738
668.484	0.0159242
668.562	0.0159047
668.640	0.0158971
668.718	0.0158479
668.797	0.0159148
668.875	0.0158257
668.953	0.0159456
669.031	0.0158618
669.109	0.0158215
669.187	0.0157954
669.265	0.0158856
669.343	0.0158139
669.422	0.0158342
669.500	0.0158679
669.578	0.0159479
669.656	0.0158810
669.734	0.0157661
669.812	0.0159106
669.890	0.0158923
669.968	0.0157986
670.047	0.0158352
670.125	0.0157592
670.203	0.0158815
670.281	0.0158473
670.359	0.0158761
670.437	0.0158491
670.515	0.0159881
670.593	0.0158768
670.672	0.0157861
670.750	0.0158936
670.828	0.0158566
670.906	0.0158418
670.984	0.0158002
671.062	0.0158705
671.140	0.0159199
671.218	0.0159000
671.297	0.0158849
671.375	0.0158017
671.453	0.0159901
671.531	0.0158842
671.609	0.0157725
671.687	0.0158627
671.765	0.0158801
671.843	0.0160883
671.922	0.0159213
672.000	0.0159126
672.078	0.0159019
672.156	0.0157422
672.234	0.0157920
672.312	0.0158230
672.390	0.0158207
672.468	0.0158454
672.547	0.0160286
672.625	0.0159117
672.703	0.0158966
672.781	0.0159039
672.859	0.0158672
672.937	0.0158710
673.015	0.0159654
673.093	0.0158966
673.172	0.0158828
673.250	0.0157774
673.328	0.0159778
673.406	0.0157946
673.484	0.0157954
673.562	0.0158918
673.640	0.0159252
673.718	0.0158508
673.797	0.0158286
673.875	0.0160047
673.953	0.0158344
674.031	0.0158457
674.109	0.0158325
674.187	0.0159106
674.265	0.0158012
674.343	0.0160596
674.422	0.0161312
674.500	0.0159035
674.578	0.0159166
674.656	0.0159116
674.734	0.0158273
674.812	0.0160064
674.890	0.0159707
674.968	0.0159680
675.047	0.0159615
675.125	0.0159268
675.203	0.0159980
675.281	0.0159222
675.359	0.0159071
675.437	0.0157382
675.515	0.0157714
675.593	0.0158533
675.672	0.0158337
675.750	0.0158459
675.828	0.0159832
675.906	0.0158337
675.984	0.0158031
676.062	0.0158267
676.140	0.0157666
676.218	0.0160124
676.297	0.0160040
676.375	0.0157978
676.453	0.0157763
676.531	0.0158527
676.609	0.0159230
676.687	0.0159419
676.765	0.0158964
676.843	0.0158120
676.922	0.0158861
677.000	0.0158723
677.078	0.0158226
677.156	0.0159397
677.234	0.0158780
677.312	0.0158506
677.390	0.0159033
677.468	0.0159040
677.547	0.0158803
677.625	0.0159176
677.703	0.0158833
677.781	0.0160549
677.859	0.0159676
677.937	0.0160013
678.015	0.0159812
678.093	0.0158672
678.172	0.0159100
678.250	0.0158247
678.328	0.0159228
678.406	0.0158364
678.484	0.0158629
678.562	0.0158521
678.640	0.0159232
678.718	0.0158690
678.797	0.0159161
678.875	0.0157938
678.953	0.0158437
679.031	0.0160120
679.109	0.0158612
679.187	0.0157838
679.265	0.0159936
679.343	0.0157607
679.422	0.0156923
679.500	0.0159581
679.578	0.0158772
679.656	0.0157859
679.734	0.0158978
679.812	0.0158708
679.890	0.0158929
679.968	0.0158944
680.047	0.0158266
680.125	0.0157456
680.203	0.0159151
680.281	0.0157621
680.359	0.0156678
680.437	0.0158926
680.515	0.0159162
680.593	0.0157990
680.672	0.0159769
680.750	0.0157973
680.828	0.0158366
680.906	0.0159393
680.984	0.0159537
681.062	0.0159442
681.140	0.0158720
681.218	0.0158764
681.297	0.0158187
681.375	0.0158683
681.453	0.0160065
681.531	0.0159456
681.609	0.0157452
681.687	0.0157657
681.765	0.0158927
681.843	0.0159644
681.922	0.0158670
682.000	0.0157713
682.078	0.0157991
682.156	0.0159209
682.234	0.0158215
682.312	0.0158420
682.390	0.0158855
682.468	0.0159136
682.547	0.0159392
682.625	0.0158922
682.703	0.0158195
682.781	0.0157618
682.859	0.0157944
682.937	0.0158504
683.015	0.0157861
683.093	0.0158372
683.172	0.0159290
683.250	0.0160233
683.328	0.0157871
683.406	0.0158399
683.484	0.0157243
683.562	0.0158582
683.640	0.0158748
683.718	0.0158276
683.797	0.0159738
683.875	0.0157777
683.953	0.0158733
684.031	0.0159090
684.109	0.0159035
684.187	0.0158003
684.265	0.0158501
684.343	0.0158724
684.422	0.0159438
684.500	0.0159454
684.578	0.0158939
684.656	0.0159234
684.734	0.0159277
684.812	0.0159379
684.890	0.0160535
684.968	0.0159745
685.047	0.0158591
685.125	0.0159158
685.203	0.0157933
685.281	0.0159457
685.359	0.0159326
685.437	0.0159731
685.515	0.0160033
685.593	0.0158960
685.672	0.0157731
