06/13/2022	14:40:03	Ver.	4.1	UNKNOWN
Optical Delay	599.968395	Delta X		0.078125	Sweeps	1	Scan Rate	0/0
Coordinates	Axis 1	NaN	Axis 2	NaN	Axis 3	NaN	Axis 4	NaN	Axis 5	NaN	Axis 6	0.000000
TX Power	0.000000	RX Power	0.000000

599.968	0.0157640
600.047	0.0157269
600.125	0.0157992
600.203	0.0158516
600.281	0.0156924
600.359	0.0158675
600.437	0.0158519
600.515	0.0157711
600.593	0.0157391
600.672	0.0157701
600.750	0.0158526
600.828	0.0159119
600.906	0.0158121
600.984	0.0158173
601.062	0.0157743
601.140	0.0158252
601.218	0.0158936
601.297	0.0159839
601.375	0.0158486
601.453	0.0157377
601.531	0.0157767
601.609	0.0157729
601.687	0.0157622
601.765	0.0158317
601.843	0.0159035
601.922	0.0157545
602.000	0.0157917
602.078	0.0158107
602.156	0.0156172
602.234	0.0158199
602.312	0.0158527
602.390	0.0158045
602.468	0.0158574
602.547	0.0157899
602.625	0.0157050
602.703	0.0156929
602.781	0.0157704
602.859	0.0158774
602.937	0.0157374
603.015	0.0157922
603.093	0.0157958
603.172	0.0158930
603.250	0.0157736
603.328	0.0158406
603.406	0.0157607
603.484	0.0157203
603.562	0.0158186
603.640	0.0158426
603.718	0.0158903
603.797	0.0157690
603.875	0.0158667
603.953	0.0158516
604.031	0.0157515
604.109	0.0158763
604.187	0.0158256
604.265	0.0158440
604.343	0.0157674
604.422	0.0157095
604.500	0.0159790
604.578	0.0157385
604.656	0.0156818
604.734	0.0157722
604.812	0.0158266
604.890	0.0157341
604.968	0.0157329
605.047	0.0157903
605.125	0.0157909
605.203	0.0156612
605.281	0.0157194
605.359	0.0158006
605.437	0.0157542
605.515	0.0158221
605.593	0.0158462
605.672	0.0157526
605.750	0.0158768
605.828	0.0157948
605.906	0.0156953
605.984	0.0158336
606.062	0.0158381
606.140	0.0157751
606.218	0.0157839
606.297	0.0159315
606.375	0.0159139
606.453	0.0158561
606.531	0.0157333
606.609	0.0156355
606.687	0.0156454
606.765	0.0158440
606.843	0.0157442
606.922	0.0158268
607.000	0.0157156
607.078	0.0157961
607.156	0.0155920
607.234	0.0156738
607.312	0.0157917
607.390	0.0157718
607.468	0.0156685
607.547	0.0156848
607.625	0.0157432
607.703	0.0156773
607.781	0.0157619
607.859	0.0157370
607.937	0.0157030
608.015	0.0157880
608.093	0.0157751
608.172	0.0156277
608.250	0.0157211
608.328	0.0157520
608.406	0.0158960
608.484	0.0157204
608.562	0.0156538
608.640	0.0157805
608.718	0.0157509
608.797	0.0157321
608.875	0.0157310
608.953	0.0157186
609.031	0.0156513
609.109	0.0157688
609.187	0.0158323
609.265	0.0158317
609.343	0.0157433
609.422	0.0156979
609.500	0.0157156
609.578	0.0157899
609.656	0.0157351
609.734	0.0156880
609.812	0.0157728
609.890	0.0158483
609.968	0.0157420
610.047	0.0157087
610.125	0.0157342
610.203	0.0155392
610.281	0.0156870
610.359	0.0157201
610.437	0.0157236
610.515	0.0157932
610.593	0.0157604
610.672	0.0156232
610.750	0.0157274
610.828	0.0157146
610.906	0.0157902
610.984	0.0157749
611.062	0.0158984
611.140	0.0158492
611.218	0.0157913
611.297	0.0156889
611.375	0.0158387
611.453	0.0158549
611.531	0.0157834
611.609	0.0157513
611.687	0.0157899
611.765	0.0157172
611.843	0.0157549
611.922	0.0155781
612.000	0.0157236
612.078	0.0158478
612.156	0.0157424
612.234	0.0157221
612.312	0.0155703
612.390	0.0158636
612.468	0.0157561
612.547	0.0158553
612.625	0.0158728
612.703	0.0157358
612.781	0.0157323
612.859	0.0157784
612.937	0.0159139
613.015	0.0156709
613.093	0.0157537
613.172	0.0157520
613.250	0.0157696
613.328	0.0157652
613.406	0.0158591
613.484	0.0157196
613.562	0.0157180
613.640	0.0158388
613.718	0.0157683
613.797	0.0157034
613.875	0.0156200
613.953	0.0157686
614.031	0.0157931
614.109	0.0157880
614.187	0.0156165
614.265	0.0157489
614.343	0.0158501
614.422	0.0157094
614.500	0.0157344
614.578	0.0157375
614.656	0.0156443
614.734	0.0157173
614.812	0.0157571
614.890	0.0159344
614.968	0.0157748
615.047	0.0156770
615.125	0.0157015
615.203	0.0157190
615.281	0.0158344
615.359	0.0156414
615.437	0.0158585
615.515	0.0157590
615.593	0.0157037
615.672	0.0160183
615.750	0.0159082
615.828	0.0158306
615.906	0.0158137
615.984	0.0158155
616.062	0.0157320
616.140	0.0158112
616.218	0.0157240
616.297	0.0158442
616.375	0.0157240
616.453	0.0158031
616.531	0.0158228
616.609	0.0158086
616.687	0.0157434
616.765	0.0156580
616.843	0.0157703
616.922	0.0157983
617.000	0.0158468
617.078	0.0157072
617.156	0.0157300
617.234	0.0158959
617.312	0.0158673
617.390	0.0158247
617.468	0.0157999
617.547	0.0158089
617.625	0.0158421
617.703	0.0158347
617.781	0.0157027
617.859	0.0157674
617.937	0.0157922
618.015	0.0156789
618.093	0.0159416
618.172	0.0158569
618.250	0.0158795
618.328	0.0157600
618.406	0.0156976
618.484	0.0157944
618.562	0.0158508
618.640	0.0157585
618.718	0.0158744
618.797	0.0158035
618.875	0.0158974
618.953	0.0158649
619.031	0.0157230
619.109	0.0156657
619.187	0.0158994
619.265	0.0157992
619.343	0.0157804
619.422	0.0157661
619.500	0.0157253
619.578	0.0156760
619.656	0.0157774
619.734	0.0158598
619.812	0.0157810
619.890	0.0156995
619.968	0.0158228
620.047	0.0158740
620.125	0.0157457
620.203	0.0158170
620.281	0.0157288
620.359	0.0157684
620.437	0.0157848
620.515	0.0158606
620.593	0.0158438
620.672	0.0158047
620.750	0.0157943
620.828	0.0157980
620.906	0.0158737
620.984	0.0158066
621.062	0.0157113
621.140	0.0158525
621.218	0.0158805
621.297	0.0156248
621.375	0.0160144
621.453	0.0158635
621.531	0.0158115
621.609	0.0157740
621.687	0.0158939
621.765	0.0158366
621.843	0.0159004
621.922	0.0158648
622.000	0.0158077
622.078	0.0157674
622.156	0.0157249
622.234	0.0158889
622.312	0.0158304
622.390	0.0158543
622.468	0.0158009
622.547	0.0158757
622.625	0.0158316
622.703	0.0157084
622.781	0.0157304
622.859	0.0157584
622.937	0.0157360
623.015	0.0157970
623.093	0.0157886
623.172	0.0157142
623.250	0.0157976
623.328	0.0158706
623.406	0.0157500
623.484	0.0156341
623.562	0.0159177
623.640	0.0158796
623.718	0.0157440
623.797	0.0158524
623.875	0.0157347
623.953	0.0158225
624.031	0.0157716
624.109	0.0156425
624.187	0.0158562
624.265	0.0158517
624.343	0.0157933
624.422	0.0158068
624.500	0.0157504
624.578	0.0156584
624.656	0.0158435
624.734	0.0158233
624.812	0.0158079
624.890	0.0157319
624.968	0.0156767
625.047	0.0157565
625.125	0.0157491
625.203	0.0156284
625.281	0.0156919
625.359	0.0156744
625.437	0.0157082
625.515	0.0157263
625.593	0.0157910
625.672	0.0157208
625.750	0.0157919
625.828	0.0157912
625.906	0.0157412
625.984	0.0157285
626.062	0.0158376
626.140	0.0157481
626.218	0.0157394
626.297	0.0159011
626.375	0.0158376
626.453	0.0157676
626.531	0.0157249
626.609	0.0156950
626.687	0.0158609
626.765	0.0158675
626.843	0.0156430
626.922	0.0157330
627.000	0.0157439
627.078	0.0158533
627.156	0.0158309
627.234	0.0158329
627.312	0.0158397
627.390	0.0158058
627.468	0.0158143
627.547	0.0159134
627.625	0.0157145
627.703	0.0157963
627.781	0.0157957
627.859	0.0157725
627.937	0.0158698
628.015	0.0159644
628.093	0.0157848
628.172	0.0157929
628.250	0.0157635
628.328	0.0158627
628.406	0.0157819
628.484	0.0158153
628.562	0.0157548
628.640	0.0158125
628.718	0.0158236
628.797	0.0157481
628.875	0.0159145
628.953	0.0157973
629.031	0.0158769
629.109	0.0156747
629.187	0.0157923
629.265	0.0158507
629.343	0.0158097
629.422	0.0158102
629.500	0.0158440
629.578	0.0156340
629.656	0.0156093
629.734	0.0157120
629.812	0.0157552
629.890	0.0157066
629.968	0.0157777
630.047	0.0157062
630.125	0.0158135
630.203	0.0158427
630.281	0.0156679
630.359	0.0156146
630.437	0.0158370
630.515	0.0156449
630.593	0.0158315
630.672	0.0157394
630.750	0.0157987
630.828	0.0157729
630.906	0.0159720
630.984	0.0159259
631.062	0.0157975
631.140	0.0158300
631.218	0.0158400
631.297	0.0157191
631.375	0.0157823
631.453	0.0158967
631.531	0.0157720
631.609	0.0157777
631.687	0.0158364
631.765	0.0158554
631.843	0.0158045
631.922	0.0157841
632.000	0.0158480
632.078	0.0159529
632.156	0.0156955
632.234	0.0157844
632.312	0.0158982
632.390	0.0156625
632.468	0.0157729
632.547	0.0158138
632.625	0.0156987
632.703	0.0158347
632.781	0.0157178
632.859	0.0157040
632.937	0.0158438
633.015	0.0158544
633.093	0.0156446
633.172	0.0157754
633.250	0.0155992
633.328	0.0157952
633.406	0.0157883
633.484	0.0159550
633.562	0.0156877
633.640	0.0158473
633.718	0.0158670
633.797	0.0157481
633.875	0.0157945
633.953	0.0158477
634.031	0.0157404
634.109	0.0157197
634.187	0.0158220
634.265	0.0157531
634.343	0.0157385
634.422	0.0156580
634.500	0.0158032
634.578	0.0158660
634.656	0.0157189
634.734	0.0157516
634.812	0.0157372
634.890	0.0158945
634.968	0.0158731
635.047	0.0158154
635.125	0.0157891
635.203	0.0157026
635.281	0.0159073
635.359	0.0157930
635.437	0.0157825
635.515	0.0158765
635.593	0.0159577
635.672	0.0156654
635.750	0.0158432
635.828	0.0158203
635.906	0.0156620
635.984	0.0156960
636.062	0.0157621
636.140	0.0157928
636.218	0.0157291
636.297	0.0157763
636.375	0.0156915
636.453	0.0157685
636.531	0.0157076
636.609	0.0157680
636.687	0.0157623
636.765	0.0158225
636.843	0.0156806
636.922	0.0158863
637.000	0.0159077
637.078	0.0157735
637.156	0.0158335
637.234	0.0156947
637.312	0.0158102
637.390	0.0157793
637.468	0.0158467
637.547	0.0157674
637.625	0.0158197
637.703	0.0157899
637.781	0.0158454
637.859	0.0158986
637.937	0.0156332
638.015	0.0156934
638.093	0.0157545
638.172	0.0158234
638.250	0.0158231
638.328	0.0157662
638.406	0.0157962
638.484	0.0159315
638.562	0.0157713
638.640	0.0157714
638.718	0.0158302
638.797	0.0158564
638.875	0.0157587
638.953	0.0157610
639.031	0.0158728
639.109	0.0159064
639.187	0.0156989
639.265	0.0158173
639.343	0.0158367
639.422	0.0157428
639.500	0.0156681
639.578	0.0158286
639.656	0.0157129
639.734	0.0157439
639.812	0.0159113
639.890	0.0157922
639.968	0.0157745
640.047	0.0158167
640.125	0.0157931
640.203	0.0156857
640.281	0.0157230
640.359	0.0158704
640.437	0.0158109
640.515	0.0158949
640.593	0.0157974
640.672	0.0158485
640.750	0.0157829
640.828	0.0157765
640.906	0.0158559
640.984	0.0158377
641.062	0.0159039
641.140	0.0157655
641.218	0.0159344
641.297	0.0157787
641.375	0.0157073
641.453	0.0158553
641.531	0.0158411
641.609	0.0157822
641.687	0.0157836
641.765	0.0156901
641.843	0.0157455
641.922	0.0157444
642.000	0.0157551
642.078	0.0157378
642.156	0.0158580
642.234	0.0159676
642.312	0.0158685
642.390	0.0158663
642.468	0.0157792
642.547	0.0158023
642.625	0.0158440
642.703	0.0156459
642.781	0.0156927
642.859	0.0158399
642.937	0.0157879
643.015	0.0155942
643.093	0.0157304
643.172	0.0158119
643.250	0.0157465
643.328	0.0158198
643.406	0.0158912
643.484	0.0157279
643.562	0.0158076
643.640	0.0158013
643.718	0.0158154
643.797	0.0158820
643.875	0.0158452
643.953	0.0157912
644.031	0.0157996
644.109	0.0157404
644.187	0.0156904
644.265	0.0159423
644.343	0.0159684
644.422	0.0158073
644.500	0.0157857
644.578	0.0157296
644.656	0.0158403
644.734	0.0157468
644.812	0.0158276
644.890	0.0158121
644.968	0.0157789
645.047	0.0159109
645.125	0.0157845
645.203	0.0157101
645.281	0.0158634
645.359	0.0158786
645.437	0.0157904
645.515	0.0157519
645.593	0.0158121
645.672	0.0158211
645.750	0.0158408
645.828	0.0157195
645.906	0.0157890
645.984	0.0159656
646.062	0.0157549
646.140	0.0158160
646.218	0.0159131
646.297	0.0158558
646.375	0.0157724
646.453	0.0157870
646.531	0.0158420
646.609	0.0157071
646.687	0.0158594
646.765	0.0158575
646.843	0.0158465
646.922	0.0158559
647.000	0.0159286
647.078	0.0157659
647.156	0.0158540
647.234	0.0157436
647.312	0.0157708
647.390	0.0158151
647.468	0.0158465
647.547	0.0156947
647.625	0.0158266
647.703	0.0158319
647.781	0.0158035
647.859	0.0159382
647.937	0.0156915
648.015	0.0158236
648.093	0.0158702
648.172	0.0157942
648.250	0.0158868
648.328	0.0158530
648.406	0.0158209
648.484	0.0157872
648.562	0.0157555
648.640	0.0158668
648.718	0.0158226
648.797	0.0157372
648.875	0.0157478
648.953	0.0157521
649.031	0.0157880
649.109	0.0158997
649.187	0.0158594
649.265	0.0156782
649.343	0.0157412
649.422	0.0158203
649.500	0.0158562
649.578	0.0158624
649.656	0.0158183
649.734	0.0158382
649.812	0.0157870
649.890	0.0157627
649.968	0.0157493
650.047	0.0158765
650.125	0.0158767
650.203	0.0158229
650.281	0.0158315
650.359	0.0158006
650.437	0.0157628
650.515	0.0158153
650.593	0.0157844
650.672	0.0156742
650.750	0.0158419
650.828	0.0157166
650.906	0.0157330
650.984	0.0157344
651.062	0.0158464
651.140	0.0158527
651.218	0.0158752
651.297	0.0157528
651.375	0.0157263
651.453	0.0158195
651.531	0.0158594
651.609	0.0157967
651.687	0.0156683
651.765	0.0157760
651.843	0.0159118
651.922	0.0157906
652.000	0.0158493
652.078	0.0158237
652.156	0.0157580
652.234	0.0157499
652.312	0.0157715
652.390	0.0157079
652.468	0.0158020
652.547	0.0158369
652.625	0.0157285
652.703	0.0158336
652.781	0.0158117
652.859	0.0157958
652.937	0.0158748
653.015	0.0158899
653.093	0.0158060
653.172	0.0157814
653.250	0.0156880
653.328	0.0158807
653.406	0.0159137
653.484	0.0157541
653.562	0.0156940
653.640	0.0158009
653.718	0.0158810
653.797	0.0157132
653.875	0.0158857
653.953	0.0159081
654.031	0.0156466
654.109	0.0157610
654.187	0.0158301
654.265	0.0157071
654.343	0.0157622
654.422	0.0158572
654.500	0.0157613
654.578	0.0158067
654.656	0.0159303
654.734	0.0157816
654.812	0.0157182
654.890	0.0158875
654.968	0.0157580
655.047	0.0156641
655.125	0.0158666
655.203	0.0158540
655.281	0.0156870
655.359	0.0158270
655.437	0.0157243
655.515	0.0157727
655.593	0.0158807
655.672	0.0158485
655.750	0.0158347
655.828	0.0158475
655.906	0.0159628
655.984	0.0156873
656.062	0.0157622
656.140	0.0157894
656.218	0.0158009
656.297	0.0158724
656.375	0.0158790
656.453	0.0157399
656.531	0.0158195
656.609	0.0158304
656.687	0.0157838
656.765	0.0157442
656.843	0.0156580
656.922	0.0157916
657.000	0.0158966
657.078	0.0157849
657.156	0.0157644
657.234	0.0158366
657.312	0.0159048
657.390	0.0158694
657.468	0.0159527
657.547	0.0156610
657.625	0.0158749
657.703	0.0158140
657.781	0.0157606
657.859	0.0157689
657.937	0.0157317
658.015	0.0157500
658.093	0.0159218
658.172	0.0158298
658.250	0.0156850
658.328	0.0157942
658.406	0.0159489
658.484	0.0158582
658.562	0.0158598
658.640	0.0157609
658.718	0.0157719
658.797	0.0159107
658.875	0.0158149
658.953	0.0157780
659.031	0.0157595
659.109	0.0158544
659.187	0.0159108
659.265	0.0158834
659.343	0.0157346
659.422	0.0157687
659.500	0.0159634
659.578	0.0158899
659.656	0.0157404
659.734	0.0157781
659.812	0.0158440
659.890	0.0158916
659.968	0.0158681
660.047	0.0157942
660.125	0.0158541
660.203	0.0158195
660.281	0.0157840
660.359	0.0157919
660.437	0.0157712
660.515	0.0158321
660.593	0.0158589
660.672	0.0157345
660.750	0.0159087
660.828	0.0158308
660.906	0.0157934
660.984	0.0158239
661.062	0.0157476
661.140	0.0158002
661.218	0.0159412
661.297	0.0158360
661.375	0.0158434
661.453	0.0158862
661.531	0.0157814
661.609	0.0158938
661.687	0.0157878
661.765	0.0158002
661.843	0.0157884
661.922	0.0158376
662.000	0.0159276
662.078	0.0158656
662.156	0.0158073
662.234	0.0158434
662.312	0.0157914
662.390	0.0158338
662.468	0.0158445
662.547	0.0158246
662.625	0.0156838
662.703	0.0156795
662.781	0.0158307
662.859	0.0158549
662.937	0.0158346
663.015	0.0158054
663.093	0.0156724
663.172	0.0158305
663.250	0.0159003
663.328	0.0158295
663.406	0.0157845
663.484	0.0158330
663.562	0.0157863
663.640	0.0158134
663.718	0.0158794
663.797	0.0157529
663.875	0.0159339
663.953	0.0157358
664.031	0.0158416
664.109	0.0157539
664.187	0.0157706
664.265	0.0157607
664.343	0.0157557
664.422	0.0157433
664.500	0.0157787
664.578	0.0158109
664.656	0.0157673
664.734	0.0157191
664.812	0.0158508
664.890	0.0157957
664.968	0.0158656
665.047	0.0157421
665.125	0.0156378
665.203	0.0157902
665.281	0.0157566
665.359	0.0158842
665.437	0.0158081
665.515	0.0157499
665.593	0.0158388
665.672	0.0158059
665.750	0.0157545
665.828	0.0157818
665.906	0.0158339
665.984	0.0157990
666.062	0.0157580
666.140	0.0157790
666.218	0.0158531
666.297	0.0159152
666.375	0.0157492
666.453	0.0158867
666.531	0.0157021
666.609	0.0157474
666.687	0.0157896
666.765	0.0158418
666.843	0.0158699
666.922	0.0157624
667.000	0.0157628
667.078	0.0158419
667.156	0.0158749
667.234	0.0156619
667.312	0.0158578
667.390	0.0158189
667.468	0.0158901
667.547	0.0157481
667.625	0.0158300
667.703	0.0158208
667.781	0.0158644
667.859	0.0158228
667.937	0.0156802
668.015	0.0158741
668.093	0.0158206
668.172	0.0159035
668.250	0.0158785
668.328	0.0157450
668.406	0.0157865
668.484	0.0157636
668.562	0.0159380
668.640	0.0159023
668.718	0.0158369
668.797	0.0158453
668.875	0.0157016
668.953	0.0157891
669.031	0.0160279
669.109	0.0158888
669.187	0.0156603
669.265	0.0158524
669.343	0.0158331
669.422	0.0158028
669.500	0.0157919
669.578	0.0158759
669.656	0.0158695
669.734	0.0159512
669.812	0.0157974
669.890	0.0158405
669.968	0.0158376
670.047	0.0158199
670.125	0.0157970
670.203	0.0159866
670.281	0.0159664
670.359	0.0158362
670.437	0.0158197
670.515	0.0157247
670.593	0.0158659
670.672	0.0158109
670.750	0.0157339
670.828	0.0156657
670.906	0.0156599
670.984	0.0158448
671.062	0.0158859
671.140	0.0157391
671.218	0.0157356
671.297	0.0157474
671.375	0.0157787
671.453	0.0158537
671.531	0.0158669
671.609	0.0158989
671.687	0.0159306
671.765	0.0157876
671.843	0.0157217
671.922	0.0157585
672.000	0.0157768
672.078	0.0157774
672.156	0.0158749
672.234	0.0158620
672.312	0.0159264
672.390	0.0157810
672.468	0.0158609
672.547	0.0157155
672.625	0.0157895
672.703	0.0157581
672.781	0.0158336
672.859	0.0155985
672.937	0.0158706
673.015	0.0157676
673.093	0.0156662
673.172	0.0157854
673.250	0.0158884
673.328	0.0157073
673.406	0.0158115
673.484	0.0159362
673.562	0.0158672
673.640	0.0158105
673.718	0.0157573
673.797	0.0158920
673.875	0.0158436
673.953	0.0158063
674.031	0.0157369
674.109	0.0158024
674.187	0.0158323
674.265	0.0156866
674.343	0.0158050
674.422	0.0158527
674.500	0.0157919
674.578	0.0158244
674.656	0.0157543
674.734	0.0157738
674.812	0.0157483
674.890	0.0158357
674.968	0.0158888
675.047	0.0158179
675.125	0.0159417
675.203	0.0158962
675.281	0.0158131
675.359	0.0157272
675.437	0.0157531
675.515	0.0158868
675.593	0.0158720
675.672	0.0157298
675.750	0.0158923
675.828	0.0157603
675.906	0.0157552
675.984	0.0157421
676.062	0.0158463
676.140	0.0159241
676.218	0.0157689
676.297	0.0158241
676.375	0.0159913
676.453	0.0156687
676.531	0.0158446
676.609	0.0158157
676.687	0.0157671
676.765	0.0158039
676.843	0.0158037
676.922	0.0157769
677.000	0.0156822
677.078	0.0158777
677.156	0.0157204
677.234	0.0158471
677.312	0.0156815
677.390	0.0157845
677.468	0.0157846
677.547	0.0157751
677.625	0.0158459
677.703	0.0158880
677.781	0.0157993
677.859	0.0156708
677.937	0.0156963
678.015	0.0156341
678.093	0.0157024
678.172	0.0157580
678.250	0.0157616
678.328	0.0158970
678.406	0.0157248
678.484	0.0157385
678.562	0.0157654
678.640	0.0156915
678.718	0.0157505
678.797	0.0158600
678.875	0.0159368
678.953	0.0156936
679.031	0.0157362
679.109	0.0159531
679.187	0.0158491
679.265	0.0158145
679.343	0.0157527
679.422	0.0157884
679.500	0.0159070
679.578	0.0158918
679.656	0.0158440
679.734	0.0158678
679.812	0.0159502
679.890	0.0159180
679.968	0.0158260
680.047	0.0156820
680.125	0.0158326
680.203	0.0158024
680.281	0.0156899
680.359	0.0158909
680.437	0.0157891
680.515	0.0158510
680.593	0.0158067
680.672	0.0158081
680.750	0.0157922
680.828	0.0158850
680.906	0.0157164
680.984	0.0158791
681.062	0.0157582
681.140	0.0158067
681.218	0.0158944
681.297	0.0159128
681.375	0.0157555
681.453	0.0156973
681.531	0.0156825
681.609	0.0157304
681.687	0.0157232
681.765	0.0157745
681.843	0.0157866
681.922	0.0158577
682.000	0.0155618
682.078	0.0157435
682.156	0.0158115
682.234	0.0157366
682.312	0.0158955
682.390	0.0159368
682.468	0.0157237
682.547	0.0158933
682.625	0.0158638
682.703	0.0158788
682.781	0.0157265
682.859	0.0156937
682.937	0.0158693
683.015	0.0157423
683.093	0.0157925
683.172	0.0158142
683.250	0.0159063
683.328	0.0159682
683.406	0.0158170
683.484	0.0158187
683.562	0.0157896
683.640	0.0158518
683.718	0.0157568
683.797	0.0157810
683.875	0.0159032
683.953	0.0157713
684.031	0.0158259
684.109	0.0157895
684.187	0.0157568
684.265	0.0157362
684.343	0.0158568
684.422	0.0158300
684.500	0.0158744
684.578	0.0157573
684.656	0.0158912
684.734	0.0159335
684.812	0.0158252
684.890	0.0157508
684.968	0.0158057
685.047	0.0159126
685.125	0.0158513
685.203	0.0158030
685.281	0.0158228
685.359	0.0157475
685.437	0.0157948
685.515	0.0157275
685.593	0.0157265
685.672	0.0157928
