06/13/2022	14:42:08	Ver.	4.1	UNKNOWN
Optical Delay	599.968395	Delta X		0.078125	Sweeps	1	Scan Rate	0/0
Coordinates	Axis 1	NaN	Axis 2	NaN	Axis 3	NaN	Axis 4	NaN	Axis 5	NaN	Axis 6	0.000000
TX Power	0.000000	RX Power	0.000000

599.968	0.0155305
600.047	0.0156906
600.125	0.0156249
600.203	0.0155260
600.281	0.0156119
600.359	0.0156273
600.437	0.0156078
600.515	0.0155973
600.593	0.0155518
600.672	0.0154221
600.750	0.0155145
600.828	0.0155840
600.906	0.0154422
600.984	0.0154400
601.062	0.0155530
601.140	0.0153958
601.218	0.0155669
601.297	0.0157005
601.375	0.0156804
601.453	0.0155618
601.531	0.0155578
601.609	0.0156367
601.687	0.0154941
601.765	0.0153693
601.843	0.0156456
601.922	0.0155989
602.000	0.0154638
602.078	0.0155283
602.156	0.0155511
602.234	0.0155238
602.312	0.0155878
602.390	0.0155732
602.468	0.0154859
602.547	0.0155164
602.625	0.0154501
602.703	0.0154778
602.781	0.0155162
602.859	0.0155552
602.937	0.0155415
603.015	0.0154747
603.093	0.0156297
603.172	0.0155556
603.250	0.0156777
603.328	0.0155924
603.406	0.0155813
603.484	0.0154735
603.562	0.0155172
603.640	0.0157158
603.718	0.0156926
603.797	0.0157635
603.875	0.0155442
603.953	0.0154874
604.031	0.0155779
604.109	0.0154875
604.187	0.0154677
604.265	0.0155484
604.343	0.0156114
604.422	0.0155730
604.500	0.0155318
604.578	0.0155579
604.656	0.0156096
604.734	0.0155479
604.812	0.0155061
604.890	0.0155645
604.968	0.0154890
605.047	0.0154309
605.125	0.0156184
605.203	0.0156190
605.281	0.0157038
605.359	0.0155801
605.437	0.0154614
605.515	0.0154869
605.593	0.0156694
605.672	0.0155099
605.750	0.0154847
605.828	0.0155418
605.906	0.0156126
605.984	0.0157115
606.062	0.0157131
606.140	0.0156024
606.218	0.0155286
606.297	0.0155942
606.375	0.0155537
606.453	0.0155351
606.531	0.0155550
606.609	0.0155647
606.687	0.0154563
606.765	0.0154956
606.843	0.0155730
606.922	0.0154807
607.000	0.0154133
607.078	0.0155988
607.156	0.0155460
607.234	0.0155380
607.312	0.0154350
607.390	0.0155856
607.468	0.0155921
607.547	0.0157015
607.625	0.0154977
607.703	0.0154310
607.781	0.0154983
607.859	0.0155266
607.937	0.0156937
608.015	0.0156157
608.093	0.0155614
608.172	0.0155545
608.250	0.0154245
608.328	0.0155755
608.406	0.0155681
608.484	0.0155404
608.562	0.0156512
608.640	0.0155592
608.718	0.0155881
608.797	0.0156408
608.875	0.0156083
608.953	0.0155933
609.031	0.0156961
609.109	0.0154028
609.187	0.0153944
609.265	0.0156203
609.343	0.0156734
609.422	0.0155634
609.500	0.0156328
609.578	0.0155112
609.656	0.0154812
609.734	0.0155846
609.812	0.0157334
609.890	0.0154678
609.968	0.0153806
610.047	0.0156139
610.125	0.0154923
610.203	0.0155941
610.281	0.0154858
610.359	0.0155325
610.437	0.0156215
610.515	0.0154801
610.593	0.0155545
610.672	0.0154723
610.750	0.0156210
610.828	0.0154937
610.906	0.0154415
610.984	0.0153912
611.062	0.0155379
611.140	0.0154993
611.218	0.0156319
611.297	0.0154977
611.375	0.0153470
611.453	0.0155069
611.531	0.0155702
611.609	0.0155409
611.687	0.0154478
611.765	0.0154436
611.843	0.0154826
611.922	0.0156054
612.000	0.0156227
612.078	0.0155847
612.156	0.0156142
612.234	0.0155380
612.312	0.0156275
612.390	0.0154797
612.468	0.0154764
612.547	0.0155293
612.625	0.0155024
612.703	0.0156489
612.781	0.0156041
612.859	0.0154625
612.937	0.0154934
613.015	0.0153305
613.093	0.0154371
613.172	0.0155379
613.250	0.0156214
613.328	0.0156195
613.406	0.0154662
613.484	0.0154738
613.562	0.0155299
613.640	0.0156852
613.718	0.0155631
613.797	0.0155550
613.875	0.0155345
613.953	0.0155607
614.031	0.0155630
614.109	0.0155141
614.187	0.0155470
614.265	0.0155035
614.343	0.0155096
614.422	0.0155608
614.500	0.0156277
614.578	0.0154462
614.656	0.0154595
614.734	0.0155222
614.812	0.0155475
614.890	0.0153369
614.968	0.0154961
615.047	0.0154410
615.125	0.0154766
615.203	0.0154678
615.281	0.0154710
615.359	0.0155189
615.437	0.0155703
615.515	0.0154308
615.593	0.0154894
615.672	0.0156306
615.750	0.0155734
615.828	0.0155169
615.906	0.0154224
615.984	0.0154312
616.062	0.0154762
616.140	0.0155327
616.218	0.0154173
616.297	0.0153305
616.375	0.0154897
616.453	0.0154678
616.531	0.0155689
616.609	0.0156155
616.687	0.0154946
616.765	0.0155269
616.843	0.0154060
616.922	0.0155235
617.000	0.0155534
617.078	0.0156284
617.156	0.0155393
617.234	0.0155107
617.312	0.0154739
617.390	0.0155558
617.468	0.0155899
617.547	0.0155470
617.625	0.0155449
617.703	0.0155151
617.781	0.0155509
617.859	0.0155907
617.937	0.0155466
618.015	0.0155194
618.093	0.0156100
618.172	0.0154921
618.250	0.0155685
618.328	0.0155228
618.406	0.0155927
618.484	0.0156027
618.562	0.0154768
618.640	0.0156107
618.718	0.0155225
618.797	0.0155328
618.875	0.0154430
618.953	0.0154681
619.031	0.0155827
619.109	0.0155046
619.187	0.0154219
619.265	0.0154566
619.343	0.0154306
619.422	0.0154351
619.500	0.0154477
619.578	0.0154956
619.656	0.0154361
619.734	0.0155286
619.812	0.0154957
619.890	0.0153894
619.968	0.0155508
620.047	0.0154313
620.125	0.0154332
620.203	0.0156341
620.281	0.0155386
620.359	0.0155897
620.437	0.0153592
620.515	0.0155236
620.593	0.0155341
620.672	0.0155514
620.750	0.0154954
620.828	0.0155677
620.906	0.0155790
620.984	0.0154999
621.062	0.0155867
621.140	0.0155874
621.218	0.0155243
621.297	0.0155459
621.375	0.0154050
621.453	0.0154144
621.531	0.0155323
621.609	0.0155189
621.687	0.0155723
621.765	0.0155528
621.843	0.0154732
621.922	0.0155347
622.000	0.0155516
622.078	0.0154170
622.156	0.0155254
622.234	0.0154456
622.312	0.0155758
622.390	0.0155724
622.468	0.0155682
622.547	0.0154796
622.625	0.0155058
622.703	0.0156236
622.781	0.0154435
622.859	0.0155190
622.937	0.0155231
623.015	0.0157063
623.093	0.0156709
623.172	0.0154582
623.250	0.0155326
623.328	0.0154916
623.406	0.0155373
623.484	0.0155192
623.562	0.0155460
623.640	0.0155362
623.718	0.0156158
623.797	0.0156554
623.875	0.0154291
623.953	0.0155883
624.031	0.0154783
624.109	0.0155107
624.187	0.0155512
624.265	0.0155743
624.343	0.0157220
624.422	0.0154533
624.500	0.0154220
624.578	0.0153944
624.656	0.0156434
624.734	0.0155611
624.812	0.0155622
624.890	0.0156654
624.968	0.0156529
625.047	0.0154927
625.125	0.0155264
625.203	0.0155247
625.281	0.0153979
625.359	0.0154415
625.437	0.0154745
625.515	0.0155441
625.593	0.0155013
625.672	0.0155158
625.750	0.0155155
625.828	0.0154250
625.906	0.0156215
625.984	0.0155436
626.062	0.0154710
626.140	0.0154202
626.218	0.0155074
626.297	0.0155588
626.375	0.0155639
626.453	0.0155653
626.531	0.0153719
626.609	0.0154699
626.687	0.0155926
626.765	0.0155361
626.843	0.0153773
626.922	0.0154148
627.000	0.0155774
627.078	0.0154903
627.156	0.0154184
627.234	0.0156107
627.312	0.0156488
627.390	0.0156601
627.468	0.0155515
627.547	0.0155807
627.625	0.0155992
627.703	0.0156453
627.781	0.0155327
627.859	0.0155451
627.937	0.0155615
628.015	0.0155444
628.093	0.0154770
628.172	0.0155868
628.250	0.0155418
628.328	0.0154893
628.406	0.0154918
628.484	0.0156299
628.562	0.0153862
628.640	0.0155055
628.718	0.0154824
628.797	0.0155228
628.875	0.0155735
628.953	0.0155118
629.031	0.0156422
629.109	0.0155710
629.187	0.0155135
629.265	0.0155187
629.343	0.0154565
629.422	0.0155396
629.500	0.0154681
629.578	0.0155470
629.656	0.0155538
629.734	0.0154367
629.812	0.0155804
629.890	0.0155800
629.968	0.0154890
630.047	0.0156435
630.125	0.0155763
630.203	0.0155163
630.281	0.0154767
630.359	0.0155920
630.437	0.0154687
630.515	0.0155425
630.593	0.0155216
630.672	0.0154480
630.750	0.0155031
630.828	0.0155367
630.906	0.0155277
630.984	0.0156073
631.062	0.0155420
631.140	0.0154304
631.218	0.0156027
631.297	0.0154662
631.375	0.0155717
631.453	0.0155205
631.531	0.0156174
631.609	0.0154947
631.687	0.0155147
631.765	0.0156270
631.843	0.0156184
631.922	0.0154903
632.000	0.0155376
632.078	0.0154179
632.156	0.0155650
632.234	0.0155653
632.312	0.0155775
632.390	0.0156086
632.468	0.0156029
632.547	0.0155716
632.625	0.0156383
632.703	0.0155093
632.781	0.0156758
632.859	0.0154252
632.937	0.0154418
633.015	0.0154527
633.093	0.0154984
633.172	0.0155553
633.250	0.0155747
633.328	0.0155605
633.406	0.0154741
633.484	0.0155395
633.562	0.0155876
633.640	0.0155630
633.718	0.0155797
633.797	0.0155563
633.875	0.0155975
633.953	0.0155504
634.031	0.0154937
634.109	0.0156934
634.187	0.0156156
634.265	0.0155618
634.343	0.0155392
634.422	0.0154462
634.500	0.0156267
634.578	0.0155076
634.656	0.0155505
634.734	0.0155853
634.812	0.0155128
634.890	0.0157027
634.968	0.0154578
635.047	0.0154164
635.125	0.0155682
635.203	0.0155874
635.281	0.0154898
635.359	0.0156207
635.437	0.0155264
635.515	0.0154533
635.593	0.0156249
635.672	0.0155227
635.750	0.0155322
635.828	0.0156922
635.906	0.0154987
635.984	0.0156322
636.062	0.0154624
636.140	0.0154727
636.218	0.0156462
636.297	0.0154913
636.375	0.0156593
636.453	0.0156181
636.531	0.0155910
636.609	0.0155798
636.687	0.0156183
636.765	0.0155291
636.843	0.0155132
636.922	0.0156625
637.000	0.0155987
637.078	0.0155633
637.156	0.0155627
637.234	0.0155746
637.312	0.0156298
637.390	0.0153889
637.468	0.0155953
637.547	0.0155984
637.625	0.0155554
637.703	0.0154987
637.781	0.0156221
637.859	0.0155195
637.937	0.0157021
638.015	0.0155202
638.093	0.0154429
638.172	0.0154886
638.250	0.0155722
638.328	0.0155333
638.406	0.0156651
638.484	0.0156166
638.562	0.0155298
638.640	0.0155653
638.718	0.0155637
638.797	0.0153753
638.875	0.0154805
638.953	0.0156301
639.031	0.0155409
639.109	0.0155643
639.187	0.0156026
639.265	0.0156094
639.343	0.0155183
639.422	0.0155449
639.500	0.0156291
639.578	0.0155489
639.656	0.0154847
639.734	0.0156477
639.812	0.0154449
639.890	0.0155875
639.968	0.0154758
640.047	0.0155425
640.125	0.0156529
640.203	0.0154604
640.281	0.0156050
640.359	0.0156264
640.437	0.0155276
640.515	0.0154661
640.593	0.0156096
640.672	0.0156210
640.750	0.0155348
640.828	0.0155933
640.906	0.0155329
640.984	0.0156699
641.062	0.0155659
641.140	0.0154092
641.218	0.0155983
641.297	0.0156459
641.375	0.0156622
641.453	0.0156463
641.531	0.0155361
641.609	0.0155306
641.687	0.0156959
641.765	0.0156394
641.843	0.0154962
641.922	0.0156197
642.000	0.0156663
642.078	0.0155388
642.156	0.0154904
642.234	0.0155215
642.312	0.0156550
642.390	0.0156158
642.468	0.0155937
642.547	0.0155787
642.625	0.0154298
642.703	0.0155392
642.781	0.0156391
642.859	0.0154898
642.937	0.0153629
643.015	0.0154737
643.093	0.0154905
643.172	0.0154592
643.250	0.0155296
643.328	0.0157114
643.406	0.0156493
643.484	0.0155017
643.562	0.0154713
643.640	0.0154988
643.718	0.0156551
643.797	0.0155051
643.875	0.0155091
643.953	0.0155469
644.031	0.0155804
644.109	0.0154938
644.187	0.0154646
644.265	0.0156026
644.343	0.0155374
644.422	0.0154319
644.500	0.0155650
644.578	0.0154668
644.656	0.0156232
644.734	0.0155035
644.812	0.0155604
644.890	0.0154375
644.968	0.0153619
645.047	0.0154964
645.125	0.0155955
645.203	0.0155931
645.281	0.0156290
645.359	0.0154987
645.437	0.0155916
645.515	0.0156580
645.593	0.0155379
645.672	0.0155148
645.750	0.0155686
645.828	0.0156064
645.906	0.0155464
645.984	0.0155299
646.062	0.0155780
646.140	0.0155139
646.218	0.0155191
646.297	0.0155625
646.375	0.0155793
646.453	0.0154971
646.531	0.0154974
646.609	0.0156489
646.687	0.0155677
646.765	0.0154354
646.843	0.0155402
646.922	0.0154989
647.000	0.0155779
647.078	0.0155364
647.156	0.0154020
647.234	0.0155455
647.312	0.0155830
647.390	0.0154290
647.468	0.0154796
647.547	0.0155466
647.625	0.0155828
647.703	0.0156245
647.781	0.0154944
647.859	0.0154191
647.937	0.0155627
648.015	0.0155605
648.093	0.0156351
648.172	0.0155134
648.250	0.0156419
648.328	0.0155675
648.406	0.0154539
648.484	0.0155314
648.562	0.0155065
648.640	0.0155980
648.718	0.0153629
648.797	0.0155627
648.875	0.0156699
648.953	0.0156728
649.031	0.0155695
649.109	0.0155264
649.187	0.0156197
649.265	0.0154907
649.343	0.0154716
649.422	0.0155492
649.500	0.0156178
649.578	0.0155172
649.656	0.0156151
649.734	0.0156819
649.812	0.0156340
649.890	0.0155351
649.968	0.0156371
650.047	0.0154407
650.125	0.0156557
650.203	0.0156695
650.281	0.0157092
650.359	0.0156375
650.437	0.0156181
650.515	0.0155605
650.593	0.0156198
650.672	0.0155019
650.750	0.0154382
650.828	0.0155649
650.906	0.0156947
650.984	0.0155533
651.062	0.0155482
651.140	0.0156164
651.218	0.0155881
651.297	0.0156902
651.375	0.0155457
651.453	0.0155827
651.531	0.0156075
651.609	0.0156159
651.687	0.0155931
651.765	0.0156165
651.843	0.0155811
651.922	0.0155473
652.000	0.0155302
652.078	0.0155705
652.156	0.0155892
652.234	0.0155302
652.312	0.0155685
652.390	0.0156770
652.468	0.0156535
652.547	0.0155096
652.625	0.0154876
652.703	0.0155753
652.781	0.0154815
652.859	0.0155494
652.937	0.0155495
653.015	0.0154979
653.093	0.0155729
653.172	0.0156180
653.250	0.0156132
653.328	0.0155965
653.406	0.0156526
653.484	0.0155522
653.562	0.0155582
653.640	0.0155530
653.718	0.0155555
653.797	0.0156052
653.875	0.0156947
653.953	0.0155401
654.031	0.0154977
654.109	0.0155026
654.187	0.0154803
654.265	0.0155510
654.343	0.0155497
654.422	0.0155273
654.500	0.0154134
654.578	0.0155328
654.656	0.0155511
654.734	0.0155248
654.812	0.0156266
654.890	0.0155136
654.968	0.0155277
655.047	0.0156474
655.125	0.0155485
655.203	0.0154973
655.281	0.0154784
655.359	0.0155714
655.437	0.0155937
655.515	0.0154334
655.593	0.0155507
655.672	0.0155602
655.750	0.0156572
655.828	0.0153487
655.906	0.0155251
655.984	0.0156781
656.062	0.0155955
656.140	0.0155925
656.218	0.0156063
656.297	0.0154860
656.375	0.0155046
656.453	0.0156151
656.531	0.0154589
656.609	0.0155751
656.687	0.0155013
656.765	0.0155051
656.843	0.0155104
656.922	0.0155917
657.000	0.0156075
657.078	0.0155672
657.156	0.0155373
657.234	0.0156468
657.312	0.0155544
657.390	0.0154909
657.468	0.0155767
657.547	0.0155631
657.625	0.0154868
657.703	0.0155651
657.781	0.0156054
657.859	0.0155563
657.937	0.0155428
658.015	0.0155387
658.093	0.0155638
658.172	0.0156721
658.250	0.0155176
658.328	0.0155191
658.406	0.0154530
658.484	0.0156223
658.562	0.0155541
658.640	0.0155482
658.718	0.0155920
658.797	0.0154945
658.875	0.0154875
658.953	0.0156714
659.031	0.0155917
659.109	0.0155042
659.187	0.0155341
659.265	0.0155967
659.343	0.0155307
659.422	0.0155315
659.500	0.0154653
659.578	0.0156824
659.656	0.0154246
659.734	0.0155154
659.812	0.0156974
659.890	0.0153705
659.968	0.0155611
660.047	0.0156029
660.125	0.0156245
660.203	0.0155237
660.281	0.0154460
660.359	0.0156209
660.437	0.0154928
660.515	0.0155386
660.593	0.0155321
660.672	0.0155646
660.750	0.0154686
660.828	0.0155999
660.906	0.0155805
660.984	0.0155363
661.062	0.0155228
661.140	0.0155831
661.218	0.0154267
661.297	0.0155231
661.375	0.0155702
661.453	0.0155434
661.531	0.0154813
661.609	0.0156377
661.687	0.0154823
661.765	0.0155533
661.843	0.0155914
661.922	0.0156308
662.000	0.0154652
662.078	0.0155172
662.156	0.0155882
662.234	0.0155643
662.312	0.0157115
662.390	0.0156094
662.468	0.0155364
662.547	0.0155888
662.625	0.0155013
662.703	0.0154948
662.781	0.0153332
662.859	0.0156408
662.937	0.0154868
663.015	0.0156593
663.093	0.0156543
663.172	0.0155829
663.250	0.0155917
663.328	0.0155709
663.406	0.0154820
663.484	0.0154624
663.562	0.0156427
663.640	0.0156413
663.718	0.0156113
663.797	0.0155276
663.875	0.0155679
663.953	0.0154760
664.031	0.0154873
664.109	0.0156345
664.187	0.0156839
664.265	0.0155224
664.343	0.0154859
664.422	0.0155315
664.500	0.0155594
664.578	0.0157106
664.656	0.0155667
664.734	0.0154977
664.812	0.0156218
664.890	0.0154295
664.968	0.0155391
665.047	0.0154786
665.125	0.0156136
665.203	0.0157050
665.281	0.0155180
665.359	0.0154684
665.437	0.0155932
665.515	0.0154337
665.593	0.0156318
665.672	0.0157051
665.750	0.0154500
665.828	0.0156174
665.906	0.0155414
665.984	0.0155878
666.062	0.0155478
666.140	0.0157600
666.218	0.0155891
666.297	0.0154871
666.375	0.0154886
666.453	0.0156564
666.531	0.0155650
666.609	0.0156208
666.687	0.0154921
666.765	0.0156240
666.843	0.0157208
666.922	0.0155042
667.000	0.0155162
667.078	0.0156097
667.156	0.0155742
667.234	0.0156118
667.312	0.0155701
667.390	0.0155759
667.468	0.0156010
667.547	0.0156566
667.625	0.0155034
667.703	0.0156440
667.781	0.0155623
667.859	0.0154458
667.937	0.0156104
668.015	0.0155241
668.093	0.0155652
668.172	0.0154570
668.250	0.0155798
668.328	0.0156586
668.406	0.0155611
668.484	0.0155222
668.562	0.0155405
668.640	0.0156434
668.718	0.0156401
668.797	0.0154247
668.875	0.0154014
668.953	0.0155663
669.031	0.0154922
669.109	0.0155272
669.187	0.0155357
669.265	0.0155457
669.343	0.0154176
669.422	0.0155205
669.500	0.0156264
669.578	0.0154579
669.656	0.0153808
669.734	0.0155526
669.812	0.0155354
669.890	0.0154397
669.968	0.0156008
670.047	0.0155125
670.125	0.0154760
670.203	0.0155624
670.281	0.0154684
670.359	0.0155227
670.437	0.0154427
670.515	0.0157179
670.593	0.0155795
670.672	0.0155109
670.750	0.0155176
670.828	0.0155318
670.906	0.0155286
670.984	0.0154050
671.062	0.0155817
671.140	0.0155853
671.218	0.0155582
671.297	0.0154563
671.375	0.0155489
671.453	0.0155162
671.531	0.0155474
671.609	0.0154182
671.687	0.0155022
671.765	0.0156017
671.843	0.0154729
671.922	0.0155604
672.000	0.0156651
672.078	0.0155256
672.156	0.0155170
672.234	0.0154760
672.312	0.0155966
672.390	0.0155526
672.468	0.0154993
672.547	0.0155379
672.625	0.0154016
672.703	0.0154303
672.781	0.0154534
672.859	0.0155676
672.937	0.0155226
673.015	0.0154649
673.093	0.0154575
673.172	0.0154520
673.250	0.0156013
673.328	0.0155012
673.406	0.0155273
673.484	0.0154981
673.562	0.0155532
673.640	0.0155722
673.718	0.0155335
673.797	0.0155145
673.875	0.0155421
673.953	0.0154610
674.031	0.0155276
674.109	0.0155206
674.187	0.0154524
674.265	0.0155028
674.343	0.0154968
674.422	0.0155222
674.500	0.0154896
674.578	0.0153843
674.656	0.0154638
674.734	0.0154027
674.812	0.0156474
674.890	0.0156169
674.968	0.0154801
675.047	0.0154961
675.125	0.0154015
675.203	0.0154443
675.281	0.0154404
675.359	0.0156232
675.437	0.0155688
675.515	0.0155785
675.593	0.0156538
675.672	0.0155460
675.750	0.0156229
675.828	0.0154652
675.906	0.0155556
675.984	0.0154644
676.062	0.0155912
676.140	0.0156145
676.218	0.0155054
676.297	0.0156907
676.375	0.0155903
676.453	0.0155284
676.531	0.0155888
676.609	0.0155275
676.687	0.0155561
676.765	0.0157329
676.843	0.0155975
676.922	0.0154494
677.000	0.0155251
677.078	0.0154012
677.156	0.0155424
677.234	0.0156860
677.312	0.0156186
677.390	0.0154934
677.468	0.0155664
677.547	0.0156776
677.625	0.0156644
677.703	0.0155845
677.781	0.0156223
677.859	0.0156133
677.937	0.0156388
678.015	0.0156018
678.093	0.0155609
678.172	0.0155319
678.250	0.0156345
678.328	0.0155196
678.406	0.0155488
678.484	0.0156197
678.562	0.0156658
678.640	0.0155226
678.718	0.0156858
678.797	0.0154927
678.875	0.0155817
678.953	0.0155813
679.031	0.0155508
679.109	0.0156796
679.187	0.0156419
679.265	0.0156174
679.343	0.0155436
679.422	0.0155624
679.500	0.0154977
679.578	0.0154462
679.656	0.0156095
679.734	0.0154925
679.812	0.0156955
679.890	0.0156529
679.968	0.0154468
680.047	0.0155508
680.125	0.0156735
680.203	0.0156170
680.281	0.0155878
680.359	0.0153916
680.437	0.0154960
680.515	0.0154619
680.593	0.0155885
680.672	0.0155980
680.750	0.0154186
680.828	0.0154887
680.906	0.0156610
680.984	0.0156333
681.062	0.0155351
681.140	0.0153842
681.218	0.0155302
681.297	0.0155389
681.375	0.0156693
681.453	0.0156253
681.531	0.0153815
681.609	0.0155164
681.687	0.0156057
681.765	0.0155109
681.843	0.0154652
681.922	0.0157108
682.000	0.0155254
682.078	0.0154900
682.156	0.0154699
682.234	0.0155039
682.312	0.0155858
682.390	0.0155592
682.468	0.0155680
682.547	0.0155044
682.625	0.0155190
682.703	0.0155650
682.781	0.0155756
682.859	0.0156503
682.937	0.0155698
683.015	0.0154606
683.093	0.0155875
683.172	0.0154581
683.250	0.0155764
683.328	0.0153619
683.406	0.0154138
683.484	0.0154232
683.562	0.0156001
683.640	0.0156454
683.718	0.0155871
683.797	0.0156400
683.875	0.0154752
683.953	0.0154393
684.031	0.0155457
684.109	0.0154344
684.187	0.0154659
684.265	0.0154657
684.343	0.0156300
684.422	0.0155968
684.500	0.0155560
684.578	0.0155030
684.656	0.0154415
684.734	0.0155688
684.812	0.0156391
684.890	0.0156911
684.968	0.0155681
685.047	0.0155821
685.125	0.0157017
685.203	0.0156619
685.281	0.0155221
685.359	0.0154767
685.437	0.0156412
685.515	0.0156140
685.593	0.0155354
685.672	0.0156126
