06/13/2022	14:45:28	Ver.	4.1	UNKNOWN
Optical Delay	599.968395	Delta X		0.078125	Sweeps	1	Scan Rate	0/0
Coordinates	Axis 1	NaN	Axis 2	NaN	Axis 3	NaN	Axis 4	NaN	Axis 5	NaN	Axis 6	0.000000
TX Power	0.000000	RX Power	0.000000

599.968	0.0158438
600.047	0.0158294
600.125	0.0157684
600.203	0.0158546
600.281	0.0159101
600.359	0.0158546
600.437	0.0157233
600.515	0.0158303
600.593	0.0159055
600.672	0.0157518
600.750	0.0159007
600.828	0.0159093
600.906	0.0158278
600.984	0.0158209
601.062	0.0159141
601.140	0.0157273
601.218	0.0159258
601.297	0.0158642
601.375	0.0156676
601.453	0.0157894
601.531	0.0158935
601.609	0.0159373
601.687	0.0158170
601.765	0.0159443
601.843	0.0158391
601.922	0.0157967
602.000	0.0158707
602.078	0.0158116
602.156	0.0157941
602.234	0.0158547
602.312	0.0158119
602.390	0.0158164
602.468	0.0158365
602.547	0.0157858
602.625	0.0159390
602.703	0.0159650
602.781	0.0159586
602.859	0.0158735
602.937	0.0157580
603.015	0.0158192
603.093	0.0158430
603.172	0.0158324
603.250	0.0158434
603.328	0.0158990
603.406	0.0159323
603.484	0.0158615
603.562	0.0159462
603.640	0.0158830
603.718	0.0158104
603.797	0.0159075
603.875	0.0157002
603.953	0.0158757
604.031	0.0159307
604.109	0.0159364
604.187	0.0157509
604.265	0.0159872
604.343	0.0157692
604.422	0.0158425
604.500	0.0157565
604.578	0.0159391
604.656	0.0158559
604.734	0.0157568
604.812	0.0158475
604.890	0.0158167
604.968	0.0158833
605.047	0.0157596
605.125	0.0158756
605.203	0.0158173
605.281	0.0157867
605.359	0.0158899
605.437	0.0157931
605.515	0.0157940
605.593	0.0158058
605.672	0.0158230
605.750	0.0159517
605.828	0.0159624
605.906	0.0158574
605.984	0.0157855
606.062	0.0158687
606.140	0.0158414
606.218	0.0157856
606.297	0.0158965
606.375	0.0158186
606.453	0.0157545
606.531	0.0157749
606.609	0.0158558
606.687	0.0159792
606.765	0.0157298
606.843	0.0158313
606.922	0.0158508
607.000	0.0157755
607.078	0.0159023
607.156	0.0158271
607.234	0.0157655
607.312	0.0158851
607.390	0.0159785
607.468	0.0157613
607.547	0.0158311
607.625	0.0161140
607.703	0.0159061
607.781	0.0159602
607.859	0.0159639
607.937	0.0157986
608.015	0.0158088
608.093	0.0157726
608.172	0.0160806
608.250	0.0158189
608.328	0.0158841
608.406	0.0158463
608.484	0.0158806
608.562	0.0158944
608.640	0.0158566
608.718	0.0157861
608.797	0.0158103
608.875	0.0158283
608.953	0.0159321
609.031	0.0158678
609.109	0.0157697
609.187	0.0157932
609.265	0.0159380
609.343	0.0158029
609.422	0.0159167
609.500	0.0158814
609.578	0.0159253
609.656	0.0160110
609.734	0.0156869
609.812	0.0158502
609.890	0.0158483
609.968	0.0158526
610.047	0.0157587
610.125	0.0157974
610.203	0.0157759
610.281	0.0158205
610.359	0.0159940
610.437	0.0159254
610.515	0.0157696
610.593	0.0159277
610.672	0.0158894
610.750	0.0157501
610.828	0.0158035
610.906	0.0157526
610.984	0.0158709
611.062	0.0158808
611.140	0.0159748
611.218	0.0159109
611.297	0.0159412
611.375	0.0157870
611.453	0.0158834
611.531	0.0159782
611.609	0.0157797
611.687	0.0157964
611.765	0.0158337
611.843	0.0159661
611.922	0.0159092
612.000	0.0158737
612.078	0.0158540
612.156	0.0157730
612.234	0.0159019
612.312	0.0158499
612.390	0.0159344
612.468	0.0159103
612.547	0.0159191
612.625	0.0159151
612.703	0.0157684
612.781	0.0157439
612.859	0.0158643
612.937	0.0158607
613.015	0.0159621
613.093	0.0158768
613.172	0.0157701
613.250	0.0159505
613.328	0.0158495
613.406	0.0158799
613.484	0.0158863
613.562	0.0158678
613.640	0.0159289
613.718	0.0157903
613.797	0.0159506
613.875	0.0158057
613.953	0.0157578
614.031	0.0157986
614.109	0.0158370
614.187	0.0159356
614.265	0.0159743
614.343	0.0158608
614.422	0.0158244
614.500	0.0160146
614.578	0.0157847
614.656	0.0159267
614.734	0.0159407
614.812	0.0158102
614.890	0.0158903
614.968	0.0158978
615.047	0.0158205
615.125	0.0159155
615.203	0.0157836
615.281	0.0159109
615.359	0.0158075
615.437	0.0159586
615.515	0.0159709
615.593	0.0157888
615.672	0.0158640
615.750	0.0158607
615.828	0.0157465
615.906	0.0159023
615.984	0.0158309
616.062	0.0158255
616.140	0.0157935
616.218	0.0159719
616.297	0.0158768
616.375	0.0159051
616.453	0.0159061
616.531	0.0158248
616.609	0.0158615
616.687	0.0158532
616.765	0.0158895
616.843	0.0159566
616.922	0.0158862
617.000	0.0157908
617.078	0.0159987
617.156	0.0159062
617.234	0.0157475
617.312	0.0157796
617.390	0.0159332
617.468	0.0159922
617.547	0.0159798
617.625	0.0158215
617.703	0.0158465
617.781	0.0157870
617.859	0.0159277
617.937	0.0159124
618.015	0.0158241
618.093	0.0157455
618.172	0.0158144
618.250	0.0159290
618.328	0.0159451
618.406	0.0158128
618.484	0.0158784
618.562	0.0159462
618.640	0.0159365
618.718	0.0156952
618.797	0.0158437
618.875	0.0159422
618.953	0.0157700
619.031	0.0159760
619.109	0.0157784
619.187	0.0158611
619.265	0.0159187
619.343	0.0158420
619.422	0.0158513
619.500	0.0159143
619.578	0.0159116
619.656	0.0157839
619.734	0.0157912
619.812	0.0157461
619.890	0.0157542
619.968	0.0157948
620.047	0.0158603
620.125	0.0158797
620.203	0.0159089
620.281	0.0158787
620.359	0.0159157
620.437	0.0159040
620.515	0.0157729
620.593	0.0159123
620.672	0.0158180
620.750	0.0156728
620.828	0.0158986
620.906	0.0159366
620.984	0.0157937
621.062	0.0158698
621.140	0.0158253
621.218	0.0158686
621.297	0.0157104
621.375	0.0157373
621.453	0.0158356
621.531	0.0158235
621.609	0.0158543
621.687	0.0158795
621.765	0.0158881
621.843	0.0158977
621.922	0.0159180
622.000	0.0158245
622.078	0.0158024
622.156	0.0158282
622.234	0.0157774
622.312	0.0157886
622.390	0.0159299
622.468	0.0159415
622.547	0.0159029
622.625	0.0158613
622.703	0.0159232
622.781	0.0159345
622.859	0.0158528
622.937	0.0158569
623.015	0.0157566
623.093	0.0158280
623.172	0.0158682
623.250	0.0158012
623.328	0.0160236
623.406	0.0157693
623.484	0.0158134
623.562	0.0158625
623.640	0.0158923
623.718	0.0159944
623.797	0.0158445
623.875	0.0158785
623.953	0.0158303
624.031	0.0159311
624.109	0.0159268
624.187	0.0159443
624.265	0.0159245
624.343	0.0159168
624.422	0.0157875
624.500	0.0157821
624.578	0.0159299
624.656	0.0158994
624.734	0.0159503
624.812	0.0159112
624.890	0.0158652
624.968	0.0160006
625.047	0.0158018
625.125	0.0158624
625.203	0.0159177
625.281	0.0157727
625.359	0.0158258
625.437	0.0158144
625.515	0.0158587
625.593	0.0158331
625.672	0.0159183
625.750	0.0160194
625.828	0.0158742
625.906	0.0157927
625.984	0.0158753
626.062	0.0159403
626.140	0.0158023
626.218	0.0159084
626.297	0.0159112
626.375	0.0158599
626.453	0.0158376
626.531	0.0159778
626.609	0.0158978
626.687	0.0158588
626.765	0.0159468
626.843	0.0157825
626.922	0.0156582
627.000	0.0159164
627.078	0.0159521
627.156	0.0158626
627.234	0.0158039
627.312	0.0158939
627.390	0.0158594
627.468	0.0159132
627.547	0.0157127
627.625	0.0157764
627.703	0.0159305
627.781	0.0160019
627.859	0.0159014
627.937	0.0158541
628.015	0.0159174
628.093	0.0159431
628.172	0.0157690
628.250	0.0157481
628.328	0.0158676
628.406	0.0158503
628.484	0.0159133
628.562	0.0159338
628.640	0.0157887
628.718	0.0158448
628.797	0.0158008
628.875	0.0157587
628.953	0.0159628
629.031	0.0159064
629.109	0.0157063
629.187	0.0158212
629.265	0.0158304
629.343	0.0157485
629.422	0.0158670
629.500	0.0157641
629.578	0.0157491
629.656	0.0158524
629.734	0.0159888
629.812	0.0158972
629.890	0.0158587
629.968	0.0159207
630.047	0.0159000
630.125	0.0159669
630.203	0.0158641
630.281	0.0159050
630.359	0.0159042
630.437	0.0158864
630.515	0.0157980
630.593	0.0159048
630.672	0.0159319
630.750	0.0157363
630.828	0.0158340
630.906	0.0158730
630.984	0.0158404
631.062	0.0158808
631.140	0.0158855
631.218	0.0159565
631.297	0.0158276
631.375	0.0158644
631.453	0.0160047
631.531	0.0158677
631.609	0.0160027
631.687	0.0158693
631.765	0.0158554
631.843	0.0158111
631.922	0.0157079
632.000	0.0158051
632.078	0.0158233
632.156	0.0159135
632.234	0.0158877
632.312	0.0157858
632.390	0.0158727
632.468	0.0157775
632.547	0.0158289
632.625	0.0157982
632.703	0.0158402
632.781	0.0157941
632.859	0.0159097
632.937	0.0158588
633.015	0.0158485
633.093	0.0157465
633.172	0.0157581
633.250	0.0158730
633.328	0.0158720
633.406	0.0159957
633.484	0.0156775
633.562	0.0158519
633.640	0.0158549
633.718	0.0157625
633.797	0.0158023
633.875	0.0159531
633.953	0.0159260
634.031	0.0159000
634.109	0.0158076
634.187	0.0157764
634.265	0.0159302
634.343	0.0158849
634.422	0.0159506
634.500	0.0158583
634.578	0.0158154
634.656	0.0159568
634.734	0.0159019
634.812	0.0158224
634.890	0.0158665
634.968	0.0157898
635.047	0.0157498
635.125	0.0158661
635.203	0.0158172
635.281	0.0157318
635.359	0.0158599
635.437	0.0158420
635.515	0.0158939
635.593	0.0158964
635.672	0.0157684
635.750	0.0157752
635.828	0.0158526
635.906	0.0158868
635.984	0.0159001
636.062	0.0157883
636.140	0.0157453
636.218	0.0158481
636.297	0.0158083
636.375	0.0159743
636.453	0.0158102
636.531	0.0158514
636.609	0.0158802
636.687	0.0159852
636.765	0.0158787
636.843	0.0158271
636.922	0.0157695
637.000	0.0158572
637.078	0.0158510
637.156	0.0158278
637.234	0.0159515
637.312	0.0157518
637.390	0.0158115
637.468	0.0159391
637.547	0.0159057
637.625	0.0157522
637.703	0.0159112
637.781	0.0158101
637.859	0.0158008
637.937	0.0157580
638.015	0.0158644
638.093	0.0156402
638.172	0.0158584
638.250	0.0157462
638.328	0.0158241
638.406	0.0157134
638.484	0.0158411
638.562	0.0159127
638.640	0.0158508
638.718	0.0157832
638.797	0.0158928
638.875	0.0158540
638.953	0.0158868
639.031	0.0158727
639.109	0.0160459
639.187	0.0158360
639.265	0.0157455
639.343	0.0157936
639.422	0.0158297
639.500	0.0159329
639.578	0.0158450
639.656	0.0158040
639.734	0.0158791
639.812	0.0159171
639.890	0.0157072
639.968	0.0158530
640.047	0.0159167
640.125	0.0160096
640.203	0.0157555
640.281	0.0158569
640.359	0.0159499
640.437	0.0158396
640.515	0.0158469
640.593	0.0158287
640.672	0.0157873
640.750	0.0157722
640.828	0.0158858
640.906	0.0159871
640.984	0.0159706
641.062	0.0158596
641.140	0.0158361
641.218	0.0158046
641.297	0.0158659
641.375	0.0158601
641.453	0.0159354
641.531	0.0158344
641.609	0.0159842
641.687	0.0159042
641.765	0.0157939
641.843	0.0158375
641.922	0.0160130
642.000	0.0159132
642.078	0.0159344
642.156	0.0159622
642.234	0.0160575
642.312	0.0158546
642.390	0.0158533
642.468	0.0160090
642.547	0.0159293
642.625	0.0160387
642.703	0.0159052
642.781	0.0160023
642.859	0.0159176
642.937	0.0156939
643.015	0.0158961
643.093	0.0160244
643.172	0.0157764
643.250	0.0158896
643.328	0.0160786
643.406	0.0159193
643.484	0.0158253
643.562	0.0159075
643.640	0.0158585
643.718	0.0158680
643.797	0.0159483
643.875	0.0159993
643.953	0.0158903
644.031	0.0158755
644.109	0.0158558
644.187	0.0158781
644.265	0.0157859
644.343	0.0159676
644.422	0.0158183
644.500	0.0160352
644.578	0.0159191
644.656	0.0158883
644.734	0.0159367
644.812	0.0159431
644.890	0.0157990
644.968	0.0159401
645.047	0.0160590
645.125	0.0158599
645.203	0.0158674
645.281	0.0158989
645.359	0.0159113
645.437	0.0160417
645.515	0.0158645
645.593	0.0158739
645.672	0.0158615
645.750	0.0160201
645.828	0.0159962
645.906	0.0158324
645.984	0.0158671
646.062	0.0158865
646.140	0.0158781
646.218	0.0159543
646.297	0.0158710
646.375	0.0158987
646.453	0.0158105
646.531	0.0158822
646.609	0.0158370
646.687	0.0158735
646.765	0.0159164
646.843	0.0159840
646.922	0.0159017
647.000	0.0158429
647.078	0.0158789
647.156	0.0158497
647.234	0.0157928
647.312	0.0158490
647.390	0.0160096
647.468	0.0158652
647.547	0.0158659
647.625	0.0159115
647.703	0.0160222
647.781	0.0157680
647.859	0.0158128
647.937	0.0159836
648.015	0.0158298
648.093	0.0159307
648.172	0.0158406
648.250	0.0159786
648.328	0.0158408
648.406	0.0159210
648.484	0.0160493
648.562	0.0158965
648.640	0.0157650
648.718	0.0157714
648.797	0.0159372
648.875	0.0158600
648.953	0.0157925
649.031	0.0158068
649.109	0.0157738
649.187	0.0157862
649.265	0.0158650
649.343	0.0159135
649.422	0.0158074
649.500	0.0160440
649.578	0.0159522
649.656	0.0160679
649.734	0.0157779
649.812	0.0159236
649.890	0.0157967
649.968	0.0158009
650.047	0.0159245
650.125	0.0158988
650.203	0.0160379
650.281	0.0158041
650.359	0.0157361
650.437	0.0158387
650.515	0.0158275
650.593	0.0159644
650.672	0.0158701
650.750	0.0159354
650.828	0.0159035
650.906	0.0158613
650.984	0.0159184
651.062	0.0158535
651.140	0.0159642
651.218	0.0158751
651.297	0.0158271
651.375	0.0158745
651.453	0.0158268
651.531	0.0157877
651.609	0.0158900
651.687	0.0158270
651.765	0.0159247
651.843	0.0157830
651.922	0.0157572
652.000	0.0157581
652.078	0.0158228
652.156	0.0158215
652.234	0.0157946
652.312	0.0158556
652.390	0.0158887
652.468	0.0158059
652.547	0.0158251
652.625	0.0158302
652.703	0.0159001
652.781	0.0158103
652.859	0.0159452
652.937	0.0157556
653.015	0.0157838
653.093	0.0158482
653.172	0.0159170
653.250	0.0157830
653.328	0.0158757
653.406	0.0159100
653.484	0.0158681
653.562	0.0158666
653.640	0.0158753
653.718	0.0158827
653.797	0.0157986
653.875	0.0157446
653.953	0.0158017
654.031	0.0160191
654.109	0.0158185
654.187	0.0158088
654.265	0.0158720
654.343	0.0159693
654.422	0.0157809
654.500	0.0158662
654.578	0.0159992
654.656	0.0159711
654.734	0.0156973
654.812	0.0157987
654.890	0.0159091
654.968	0.0159251
655.047	0.0157578
655.125	0.0158014
655.203	0.0158667
655.281	0.0158763
655.359	0.0159097
655.437	0.0159050
655.515	0.0159412
655.593	0.0159170
655.672	0.0158128
655.750	0.0159177
655.828	0.0159270
655.906	0.0158548
655.984	0.0159229
656.062	0.0159006
656.140	0.0158059
656.218	0.0158156
656.297	0.0158170
656.375	0.0158331
656.453	0.0157728
656.531	0.0159920
656.609	0.0158599
656.687	0.0159456
656.765	0.0158932
656.843	0.0158018
656.922	0.0158796
657.000	0.0159579
657.078	0.0157692
657.156	0.0157311
657.234	0.0157501
657.312	0.0159250
657.390	0.0159045
657.468	0.0157285
657.547	0.0157565
657.625	0.0158367
657.703	0.0158447
657.781	0.0158490
657.859	0.0156744
657.937	0.0159244
658.015	0.0159609
658.093	0.0157600
658.172	0.0157307
658.250	0.0159995
658.328	0.0160061
658.406	0.0158673
658.484	0.0158689
658.562	0.0159402
658.640	0.0159773
658.718	0.0157777
658.797	0.0157391
658.875	0.0160209
658.953	0.0158826
659.031	0.0156900
659.109	0.0158663
659.187	0.0158733
659.265	0.0158181
659.343	0.0158044
659.422	0.0157772
659.500	0.0159049
659.578	0.0158981
659.656	0.0158021
659.734	0.0157631
659.812	0.0158535
659.890	0.0158245
659.968	0.0156972
660.047	0.0158339
660.125	0.0157616
660.203	0.0158884
660.281	0.0159353
660.359	0.0158840
660.437	0.0158564
660.515	0.0158689
660.593	0.0157262
660.672	0.0157833
660.750	0.0158981
660.828	0.0157063
660.906	0.0158263
660.984	0.0159303
661.062	0.0159200
661.140	0.0159011
661.218	0.0157504
661.297	0.0158479
661.375	0.0157776
661.453	0.0158753
661.531	0.0158390
661.609	0.0158601
661.687	0.0157870
661.765	0.0158544
661.843	0.0158790
661.922	0.0157916
662.000	0.0158379
662.078	0.0158476
662.156	0.0158826
662.234	0.0158940
662.312	0.0158900
662.390	0.0158536
662.468	0.0158142
662.547	0.0157758
662.625	0.0158250
662.703	0.0158353
662.781	0.0158404
662.859	0.0159335
662.937	0.0157738
663.015	0.0158268
663.093	0.0158117
663.172	0.0157747
663.250	0.0157877
663.328	0.0158092
663.406	0.0159890
663.484	0.0158775
663.562	0.0157378
663.640	0.0156989
663.718	0.0158000
663.797	0.0158363
663.875	0.0158494
663.953	0.0157523
664.031	0.0158067
664.109	0.0158849
664.187	0.0158947
664.265	0.0157143
664.343	0.0158054
664.422	0.0158250
664.500	0.0158215
664.578	0.0157983
664.656	0.0158196
664.734	0.0159425
664.812	0.0159075
664.890	0.0159541
664.968	0.0158213
665.047	0.0160132
665.125	0.0157062
665.203	0.0159293
665.281	0.0158784
665.359	0.0157960
665.437	0.0157816
665.515	0.0158270
665.593	0.0158965
665.672	0.0157691
665.750	0.0158823
665.828	0.0157756
665.906	0.0158503
665.984	0.0157856
666.062	0.0157890
666.140	0.0158088
666.218	0.0158896
666.297	0.0158833
666.375	0.0159836
666.453	0.0158740
666.531	0.0158186
666.609	0.0158595
666.687	0.0157893
666.765	0.0158696
666.843	0.0159423
666.922	0.0159825
667.000	0.0158070
667.078	0.0158248
667.156	0.0157768
667.234	0.0157718
667.312	0.0158209
667.390	0.0158633
667.468	0.0158852
667.547	0.0157913
667.625	0.0159416
667.703	0.0158170
667.781	0.0159499
667.859	0.0159472
667.937	0.0158356
668.015	0.0157285
668.093	0.0158620
668.172	0.0158401
668.250	0.0158208
668.328	0.0158385
668.406	0.0158328
668.484	0.0160563
668.562	0.0158876
668.640	0.0159895
668.718	0.0157822
668.797	0.0158698
668.875	0.0158640
668.953	0.0158730
669.031	0.0158702
669.109	0.0159021
669.187	0.0158221
669.265	0.0159702
669.343	0.0158176
669.422	0.0158184
669.500	0.0157917
669.578	0.0158638
669.656	0.0159324
669.734	0.0158959
669.812	0.0158076
669.890	0.0158240
669.968	0.0158060
670.047	0.0157983
670.125	0.0158486
670.203	0.0159384
670.281	0.0158730
670.359	0.0158994
670.437	0.0159596
670.515	0.0158708
670.593	0.0158928
670.672	0.0160699
670.750	0.0158533
670.828	0.0157346
670.906	0.0159086
670.984	0.0158427
671.062	0.0159016
671.140	0.0158102
671.218	0.0159629
671.297	0.0160693
671.375	0.0158862
671.453	0.0157593
671.531	0.0158844
671.609	0.0159269
671.687	0.0158288
671.765	0.0157968
671.843	0.0158021
671.922	0.0159000
672.000	0.0158899
672.078	0.0159403
672.156	0.0159675
672.234	0.0160046
672.312	0.0157555
672.390	0.0157816
672.468	0.0159591
672.547	0.0159205
672.625	0.0157485
672.703	0.0158811
672.781	0.0159115
672.859	0.0159909
672.937	0.0158728
673.015	0.0158349
673.093	0.0159228
673.172	0.0159528
673.250	0.0159184
673.328	0.0159398
673.406	0.0159267
673.484	0.0158877
673.562	0.0157438
673.640	0.0159097
673.718	0.0157524
673.797	0.0158383
673.875	0.0159777
673.953	0.0158683
674.031	0.0159147
674.109	0.0157867
674.187	0.0156766
674.265	0.0156945
674.343	0.0159479
674.422	0.0159196
674.500	0.0157945
674.578	0.0158102
674.656	0.0158013
674.734	0.0156494
674.812	0.0158995
674.890	0.0156232
674.968	0.0158944
675.047	0.0159293
675.125	0.0158253
675.203	0.0158585
675.281	0.0157954
675.359	0.0159107
675.437	0.0158475
675.515	0.0159149
675.593	0.0159638
675.672	0.0159496
675.750	0.0158507
675.828	0.0157941
675.906	0.0158614
675.984	0.0159545
676.062	0.0157678
676.140	0.0158186
676.218	0.0159908
676.297	0.0158649
676.375	0.0159185
676.453	0.0158434
676.531	0.0158430
676.609	0.0159329
676.687	0.0159021
676.765	0.0158117
676.843	0.0157562
676.922	0.0159103
677.000	0.0160331
677.078	0.0158051
677.156	0.0159242
677.234	0.0159769
677.312	0.0157696
677.390	0.0158458
677.468	0.0159278
677.547	0.0159219
677.625	0.0159859
677.703	0.0158723
677.781	0.0159447
677.859	0.0160177
677.937	0.0158775
678.015	0.0159206
678.093	0.0158371
678.172	0.0158452
678.250	0.0160036
678.328	0.0158013
678.406	0.0159206
678.484	0.0158419
678.562	0.0160909
678.640	0.0160636
678.718	0.0157957
678.797	0.0158320
678.875	0.0159921
678.953	0.0159724
679.031	0.0159669
679.109	0.0158958
679.187	0.0157885
679.265	0.0158482
679.343	0.0159731
679.422	0.0159036
679.500	0.0157807
679.578	0.0157458
679.656	0.0157442
679.734	0.0159580
679.812	0.0159669
679.890	0.0159801
679.968	0.0160237
680.047	0.0159461
680.125	0.0159327
680.203	0.0158327
680.281	0.0159631
680.359	0.0159586
680.437	0.0159465
680.515	0.0158599
680.593	0.0158746
680.672	0.0159406
680.750	0.0158232
680.828	0.0158121
680.906	0.0159341
680.984	0.0160330
681.062	0.0158242
681.140	0.0159351
681.218	0.0158987
681.297	0.0158840
681.375	0.0158598
681.453	0.0158836
681.531	0.0158197
681.609	0.0159126
681.687	0.0159601
681.765	0.0159676
681.843	0.0159307
681.922	0.0158745
682.000	0.0159233
682.078	0.0159096
682.156	0.0159536
682.234	0.0159454
682.312	0.0159423
682.390	0.0158256
682.468	0.0160103
682.547	0.0159473
682.625	0.0158707
682.703	0.0159161
682.781	0.0159438
682.859	0.0159021
682.937	0.0160130
683.015	0.0160048
683.093	0.0159524
683.172	0.0158958
683.250	0.0160658
683.328	0.0159992
683.406	0.0159290
683.484	0.0159719
683.562	0.0159948
683.640	0.0158990
683.718	0.0160038
683.797	0.0160625
683.875	0.0160007
683.953	0.0157707
684.031	0.0159416
684.109	0.0159984
684.187	0.0159702
684.265	0.0158144
684.343	0.0159430
684.422	0.0158904
684.500	0.0158404
684.578	0.0159824
684.656	0.0159449
684.734	0.0159879
684.812	0.0159251
684.890	0.0159576
684.968	0.0158530
685.047	0.0157885
685.125	0.0159833
685.203	0.0158363
685.281	0.0158591
685.359	0.0159738
685.437	0.0158471
685.515	0.0158119
685.593	0.0159039
685.672	0.0158630
