06/13/2022	14:46:08	Ver.	4.1	UNKNOWN
Optical Delay	599.968395	Delta X		0.078125	Sweeps	1	Scan Rate	0/0
Coordinates	Axis 1	NaN	Axis 2	NaN	Axis 3	NaN	Axis 4	NaN	Axis 5	NaN	Axis 6	0.000000
TX Power	0.000000	RX Power	0.000000

599.968	0.0159118
600.047	0.0158055
600.125	0.0159470
600.203	0.0159873
600.281	0.0160825
600.359	0.0158630
600.437	0.0158582
600.515	0.0159168
600.593	0.0159573
600.672	0.0160605
600.750	0.0159525
600.828	0.0158192
600.906	0.0158537
600.984	0.0160574
601.062	0.0159874
601.140	0.0159315
601.218	0.0159759
601.297	0.0159515
601.375	0.0159471
601.453	0.0159409
601.531	0.0158289
601.609	0.0159531
601.687	0.0158910
601.765	0.0160162
601.843	0.0160516
601.922	0.0160953
602.000	0.0160283
602.078	0.0159546
602.156	0.0157555
602.234	0.0159299
602.312	0.0160193
602.390	0.0159241
602.468	0.0157600
602.547	0.0158770
602.625	0.0159412
602.703	0.0159969
602.781	0.0160620
602.859	0.0158953
602.937	0.0159392
603.015	0.0159321
603.093	0.0159130
603.172	0.0159647
603.250	0.0158057
603.328	0.0158594
603.406	0.0159779
603.484	0.0159237
603.562	0.0160054
603.640	0.0159994
603.718	0.0158935
603.797	0.0159857
603.875	0.0159429
603.953	0.0160645
604.031	0.0159569
604.109	0.0158993
604.187	0.0159468
604.265	0.0160094
604.343	0.0159353
604.422	0.0159085
604.500	0.0158719
604.578	0.0159214
604.656	0.0159127
604.734	0.0160559
604.812	0.0159081
604.890	0.0157970
604.968	0.0160290
605.047	0.0161297
605.125	0.0160761
605.203	0.0159418
605.281	0.0159941
605.359	0.0158060
605.437	0.0158921
605.515	0.0158941
605.593	0.0158321
605.672	0.0159715
605.750	0.0159321
605.828	0.0160342
605.906	0.0159785
605.984	0.0158170
606.062	0.0158643
606.140	0.0159565
606.218	0.0159818
606.297	0.0158167
606.375	0.0158534
606.453	0.0159063
606.531	0.0159750
606.609	0.0158955
606.687	0.0159141
606.765	0.0158025
606.843	0.0158843
606.922	0.0159612
607.000	0.0159294
607.078	0.0160056
607.156	0.0159338
607.234	0.0159911
607.312	0.0158333
607.390	0.0157967
607.468	0.0159260
607.547	0.0157909
607.625	0.0160435
607.703	0.0160126
607.781	0.0159592
607.859	0.0159633
607.937	0.0158126
608.015	0.0159170
608.093	0.0158945
608.172	0.0159711
608.250	0.0158842
608.328	0.0159222
608.406	0.0159754
608.484	0.0159595
608.562	0.0157531
608.640	0.0157989
608.718	0.0159365
608.797	0.0159513
608.875	0.0159915
608.953	0.0158935
609.031	0.0159033
609.109	0.0158955
609.187	0.0159413
609.265	0.0158802
609.343	0.0158939
609.422	0.0159438
609.500	0.0158891
609.578	0.0158957
609.656	0.0158824
609.734	0.0159201
609.812	0.0158453
609.890	0.0159107
609.968	0.0159007
610.047	0.0159482
610.125	0.0159622
610.203	0.0158668
610.281	0.0160504
610.359	0.0158962
610.437	0.0160361
610.515	0.0160506
610.593	0.0158691
610.672	0.0159983
610.750	0.0160958
610.828	0.0159782
610.906	0.0160397
610.984	0.0158485
611.062	0.0158717
611.140	0.0159609
611.218	0.0156612
611.297	0.0158982
611.375	0.0159258
611.453	0.0159665
611.531	0.0158347
611.609	0.0159047
611.687	0.0159243
611.765	0.0158301
611.843	0.0158858
611.922	0.0159505
612.000	0.0157720
612.078	0.0160120
612.156	0.0158688
612.234	0.0158988
612.312	0.0159731
612.390	0.0158996
612.468	0.0158500
612.547	0.0158228
612.625	0.0158865
612.703	0.0159148
612.781	0.0160007
612.859	0.0160931
612.937	0.0160406
613.015	0.0159509
613.093	0.0158375
613.172	0.0159569
613.250	0.0158949
613.328	0.0157963
613.406	0.0158350
613.484	0.0159281
613.562	0.0158970
613.640	0.0158096
613.718	0.0159066
613.797	0.0160065
613.875	0.0158537
613.953	0.0159837
614.031	0.0159319
614.109	0.0159180
614.187	0.0158126
614.265	0.0158369
614.343	0.0160038
614.422	0.0158647
614.500	0.0157600
614.578	0.0158574
614.656	0.0158308
614.734	0.0159357
614.812	0.0159791
614.890	0.0159206
614.968	0.0159158
615.047	0.0158092
615.125	0.0158739
615.203	0.0158981
615.281	0.0158307
615.359	0.0158449
615.437	0.0159364
615.515	0.0158348
615.593	0.0158430
615.672	0.0158374
615.750	0.0159357
615.828	0.0158954
615.906	0.0159103
615.984	0.0158531
616.062	0.0158192
616.140	0.0157500
616.218	0.0159969
616.297	0.0159070
616.375	0.0158783
616.453	0.0160053
616.531	0.0158815
616.609	0.0158527
616.687	0.0159936
616.765	0.0159348
616.843	0.0159333
616.922	0.0159140
617.000	0.0158900
617.078	0.0159402
617.156	0.0160542
617.234	0.0158677
617.312	0.0157744
617.390	0.0160471
617.468	0.0159667
617.547	0.0158814
617.625	0.0158476
617.703	0.0160017
617.781	0.0160098
617.859	0.0159932
617.937	0.0160691
618.015	0.0159423
618.093	0.0157992
618.172	0.0158227
618.250	0.0159566
618.328	0.0159407
618.406	0.0159486
618.484	0.0160823
618.562	0.0159047
618.640	0.0159042
618.718	0.0158914
618.797	0.0158591
618.875	0.0159350
618.953	0.0160062
619.031	0.0159663
619.109	0.0159197
619.187	0.0158427
619.265	0.0157683
619.343	0.0159440
619.422	0.0160073
619.500	0.0160170
619.578	0.0159276
619.656	0.0159298
619.734	0.0160346
619.812	0.0160467
619.890	0.0158692
619.968	0.0159511
620.047	0.0160371
620.125	0.0158911
620.203	0.0159036
620.281	0.0159017
620.359	0.0160235
620.437	0.0160415
620.515	0.0159045
620.593	0.0159397
620.672	0.0159285
620.750	0.0159501
620.828	0.0160298
620.906	0.0160768
620.984	0.0160155
621.062	0.0160154
621.140	0.0159460
621.218	0.0160158
621.297	0.0159965
621.375	0.0159952
621.453	0.0159473
621.531	0.0159810
621.609	0.0160316
621.687	0.0158723
621.765	0.0158879
621.843	0.0160306
621.922	0.0159515
622.000	0.0159702
622.078	0.0159501
622.156	0.0160313
622.234	0.0158758
622.312	0.0159939
622.390	0.0159346
622.468	0.0159872
622.547	0.0160484
622.625	0.0159823
622.703	0.0158988
622.781	0.0159261
622.859	0.0160092
622.937	0.0159375
623.015	0.0159460
623.093	0.0159479
623.172	0.0159972
623.250	0.0158895
623.328	0.0160385
623.406	0.0159779
623.484	0.0157482
623.562	0.0159697
623.640	0.0159629
623.718	0.0159324
623.797	0.0159144
623.875	0.0158791
623.953	0.0159815
624.031	0.0160839
624.109	0.0159499
624.187	0.0158632
624.265	0.0158800
624.343	0.0159205
624.422	0.0159482
624.500	0.0159670
624.578	0.0159666
624.656	0.0160245
624.734	0.0159000
624.812	0.0159685
624.890	0.0159416
624.968	0.0160343
625.047	0.0160282
625.125	0.0159394
625.203	0.0158705
625.281	0.0160014
625.359	0.0160289
625.437	0.0160493
625.515	0.0159476
625.593	0.0158334
625.672	0.0159602
625.750	0.0160043
625.828	0.0159854
625.906	0.0159705
625.984	0.0160149
626.062	0.0159918
626.140	0.0159060
626.218	0.0159267
626.297	0.0159959
626.375	0.0157780
626.453	0.0157969
626.531	0.0159692
626.609	0.0159399
626.687	0.0160046
626.765	0.0157574
626.843	0.0157871
626.922	0.0159981
627.000	0.0159689
627.078	0.0158427
627.156	0.0159010
627.234	0.0159449
627.312	0.0158935
627.390	0.0160406
627.468	0.0159214
627.547	0.0159739
627.625	0.0160215
627.703	0.0158875
627.781	0.0158871
627.859	0.0159354
627.937	0.0158435
628.015	0.0159910
628.093	0.0159386
628.172	0.0159623
628.250	0.0159157
628.328	0.0159223
628.406	0.0159824
628.484	0.0158453
628.562	0.0159544
628.640	0.0160618
628.718	0.0160705
628.797	0.0158894
628.875	0.0159167
628.953	0.0158289
629.031	0.0158963
629.109	0.0159621
629.187	0.0158315
629.265	0.0157977
629.343	0.0157893
629.422	0.0159863
629.500	0.0159405
629.578	0.0158567
629.656	0.0159471
629.734	0.0159917
629.812	0.0158960
629.890	0.0158884
629.968	0.0159158
630.047	0.0158129
630.125	0.0157357
630.203	0.0160078
630.281	0.0159232
630.359	0.0158855
630.437	0.0158871
630.515	0.0159216
630.593	0.0159424
630.672	0.0159498
630.750	0.0159560
630.828	0.0158986
630.906	0.0159119
630.984	0.0158873
631.062	0.0159625
631.140	0.0160585
631.218	0.0158960
631.297	0.0158342
631.375	0.0158809
631.453	0.0159245
631.531	0.0158537
631.609	0.0158050
631.687	0.0158792
631.765	0.0159302
631.843	0.0158940
631.922	0.0159240
632.000	0.0160006
632.078	0.0159067
632.156	0.0159598
632.234	0.0159375
632.312	0.0158458
632.390	0.0158354
632.468	0.0157906
632.547	0.0159787
632.625	0.0158057
632.703	0.0159789
632.781	0.0159960
632.859	0.0158406
632.937	0.0157391
633.015	0.0159518
633.093	0.0160871
633.172	0.0160064
633.250	0.0159057
633.328	0.0159955
633.406	0.0159312
633.484	0.0159648
633.562	0.0159383
633.640	0.0160815
633.718	0.0159843
633.797	0.0158794
633.875	0.0160551
633.953	0.0158828
634.031	0.0159361
634.109	0.0158154
634.187	0.0159733
634.265	0.0160269
634.343	0.0159061
634.422	0.0159335
634.500	0.0159741
634.578	0.0159869
634.656	0.0158635
634.734	0.0160037
634.812	0.0160218
634.890	0.0159439
634.968	0.0158559
635.047	0.0159964
635.125	0.0160692
635.203	0.0159616
635.281	0.0158834
635.359	0.0161432
635.437	0.0160033
635.515	0.0159509
635.593	0.0159848
635.672	0.0160536
635.750	0.0160652
635.828	0.0160278
635.906	0.0159313
635.984	0.0157683
636.062	0.0159541
636.140	0.0158673
636.218	0.0159691
636.297	0.0160796
636.375	0.0159766
636.453	0.0159253
636.531	0.0161547
636.609	0.0161269
636.687	0.0159053
636.765	0.0160536
636.843	0.0160287
636.922	0.0160791
637.000	0.0159852
637.078	0.0160136
637.156	0.0159898
637.234	0.0158758
637.312	0.0160646
637.390	0.0159354
637.468	0.0160374
637.547	0.0160651
637.625	0.0160555
637.703	0.0160040
637.781	0.0159480
637.859	0.0159933
637.937	0.0159801
638.015	0.0159497
638.093	0.0158390
638.172	0.0161031
638.250	0.0159296
638.328	0.0160215
638.406	0.0158004
638.484	0.0159720
638.562	0.0159330
638.640	0.0158774
638.718	0.0159447
638.797	0.0158675
638.875	0.0159929
638.953	0.0158618
639.031	0.0159354
639.109	0.0158496
639.187	0.0158698
639.265	0.0159552
639.343	0.0161014
639.422	0.0159972
639.500	0.0159646
639.578	0.0159475
639.656	0.0159578
639.734	0.0158679
639.812	0.0160055
639.890	0.0160007
639.968	0.0158836
640.047	0.0157985
640.125	0.0159988
640.203	0.0159328
640.281	0.0159979
640.359	0.0159808
640.437	0.0158615
640.515	0.0159518
640.593	0.0159640
640.672	0.0159566
640.750	0.0159198
640.828	0.0159573
640.906	0.0160132
640.984	0.0159962
641.062	0.0158677
641.140	0.0159648
641.218	0.0158787
641.297	0.0159736
641.375	0.0158267
641.453	0.0159338
641.531	0.0159535
641.609	0.0159515
641.687	0.0159734
641.765	0.0158900
641.843	0.0158689
641.922	0.0159003
642.000	0.0159064
642.078	0.0158791
642.156	0.0160172
642.234	0.0158941
642.312	0.0159263
642.390	0.0160658
642.468	0.0158954
642.547	0.0159881
642.625	0.0158633
642.703	0.0158498
642.781	0.0158585
642.859	0.0160353
642.937	0.0159167
643.015	0.0158184
643.093	0.0160075
643.172	0.0160384
643.250	0.0158813
643.328	0.0158962
643.406	0.0158847
643.484	0.0159564
643.562	0.0160848
643.640	0.0159095
643.718	0.0159428
643.797	0.0159280
643.875	0.0157549
643.953	0.0158810
644.031	0.0159767
644.109	0.0160696
644.187	0.0159812
644.265	0.0159695
644.343	0.0159901
644.422	0.0160236
644.500	0.0159043
644.578	0.0158144
644.656	0.0158031
644.734	0.0158881
644.812	0.0160067
644.890	0.0160039
644.968	0.0160041
645.047	0.0159361
645.125	0.0160734
645.203	0.0160898
645.281	0.0159191
645.359	0.0158348
645.437	0.0160590
645.515	0.0160506
645.593	0.0160207
645.672	0.0159254
645.750	0.0159520
645.828	0.0159920
645.906	0.0159025
645.984	0.0161403
646.062	0.0159689
646.140	0.0159223
646.218	0.0158908
646.297	0.0158772
646.375	0.0159534
646.453	0.0160232
646.531	0.0160989
646.609	0.0159430
646.687	0.0158311
646.765	0.0158228
646.843	0.0159444
646.922	0.0161134
647.000	0.0160452
647.078	0.0160212
647.156	0.0159255
647.234	0.0158613
647.312	0.0158527
647.390	0.0160223
647.468	0.0159442
647.547	0.0158970
647.625	0.0160352
647.703	0.0159873
647.781	0.0159212
647.859	0.0158311
647.937	0.0160213
648.015	0.0159978
648.093	0.0160579
648.172	0.0157960
648.250	0.0159735
648.328	0.0160630
648.406	0.0159601
648.484	0.0159609
648.562	0.0159289
648.640	0.0158507
648.718	0.0159878
648.797	0.0159748
648.875	0.0158952
648.953	0.0158590
649.031	0.0159924
649.109	0.0158955
649.187	0.0159068
649.265	0.0159793
649.343	0.0159951
649.422	0.0158448
649.500	0.0159541
649.578	0.0159968
649.656	0.0160876
649.734	0.0159556
649.812	0.0159111
649.890	0.0159608
649.968	0.0159328
650.047	0.0159681
650.125	0.0160104
650.203	0.0158636
650.281	0.0159287
650.359	0.0160326
650.437	0.0160194
650.515	0.0159917
650.593	0.0159573
650.672	0.0158624
650.750	0.0159216
650.828	0.0159442
650.906	0.0160086
650.984	0.0159298
651.062	0.0158588
651.140	0.0159524
651.218	0.0159103
651.297	0.0160397
651.375	0.0158820
651.453	0.0157634
651.531	0.0159930
651.609	0.0158886
651.687	0.0159904
651.765	0.0159573
651.843	0.0160028
651.922	0.0158934
652.000	0.0160261
652.078	0.0159453
652.156	0.0160296
652.234	0.0160372
652.312	0.0158884
652.390	0.0159769
652.468	0.0158459
652.547	0.0158103
652.625	0.0158547
652.703	0.0158910
652.781	0.0159056
652.859	0.0158380
652.937	0.0160184
653.015	0.0160730
653.093	0.0158347
653.172	0.0158745
653.250	0.0159025
653.328	0.0159863
653.406	0.0160093
653.484	0.0159539
653.562	0.0160022
653.640	0.0160282
653.718	0.0159946
653.797	0.0160027
653.875	0.0160570
653.953	0.0159541
654.031	0.0160644
654.109	0.0159908
654.187	0.0158701
654.265	0.0160801
654.343	0.0159530
654.422	0.0160489
654.500	0.0160110
654.578	0.0159117
654.656	0.0159776
654.734	0.0160873
654.812	0.0160363
654.890	0.0159173
654.968	0.0159055
655.047	0.0159845
655.125	0.0160783
655.203	0.0159876
655.281	0.0161098
655.359	0.0158780
655.437	0.0158671
655.515	0.0159825
655.593	0.0159613
655.672	0.0158903
655.750	0.0159425
655.828	0.0161844
655.906	0.0162034
655.984	0.0159482
656.062	0.0159431
656.140	0.0159097
656.218	0.0158488
656.297	0.0158338
656.375	0.0160119
656.453	0.0158091
656.531	0.0158131
656.609	0.0159968
656.687	0.0159753
656.765	0.0160139
656.843	0.0159146
656.922	0.0158462
657.000	0.0159340
657.078	0.0160365
657.156	0.0159860
657.234	0.0159889
657.312	0.0160791
657.390	0.0159909
657.468	0.0160305
657.547	0.0158418
657.625	0.0157507
657.703	0.0158632
657.781	0.0158883
657.859	0.0160593
657.937	0.0159177
658.015	0.0160535
658.093	0.0159982
658.172	0.0158519
658.250	0.0159595
658.328	0.0160482
658.406	0.0158417
658.484	0.0159952
658.562	0.0159637
658.640	0.0159418
658.718	0.0159389
658.797	0.0159675
658.875	0.0159570
658.953	0.0159616
659.031	0.0159170
659.109	0.0159248
659.187	0.0159274
659.265	0.0160648
659.343	0.0160957
659.422	0.0158845
659.500	0.0160049
659.578	0.0159945
659.656	0.0159877
659.734	0.0159959
659.812	0.0158661
659.890	0.0159603
659.968	0.0159980
660.047	0.0159044
660.125	0.0159034
660.203	0.0159750
660.281	0.0159846
660.359	0.0160596
660.437	0.0159182
660.515	0.0160970
660.593	0.0158965
660.672	0.0159461
660.750	0.0160514
660.828	0.0160162
660.906	0.0160230
660.984	0.0161136
661.062	0.0158439
661.140	0.0158176
661.218	0.0159509
661.297	0.0159187
661.375	0.0159810
661.453	0.0160333
661.531	0.0159823
661.609	0.0159901
661.687	0.0158898
661.765	0.0159554
661.843	0.0159562
661.922	0.0157999
662.000	0.0160561
662.078	0.0161345
662.156	0.0159750
662.234	0.0159624
662.312	0.0160932
662.390	0.0160460
662.468	0.0160486
662.547	0.0160268
662.625	0.0158791
662.703	0.0158724
662.781	0.0158933
662.859	0.0160941
662.937	0.0158518
663.015	0.0158981
663.093	0.0159037
663.172	0.0159743
663.250	0.0158994
663.328	0.0158968
663.406	0.0159426
663.484	0.0159760
663.562	0.0159599
663.640	0.0158748
663.718	0.0160595
663.797	0.0158113
663.875	0.0158790
663.953	0.0156522
664.031	0.0159709
664.109	0.0160047
664.187	0.0159489
664.265	0.0158261
664.343	0.0158748
664.422	0.0160259
664.500	0.0160417
664.578	0.0160084
664.656	0.0159493
664.734	0.0160036
664.812	0.0159705
664.890	0.0158648
664.968	0.0160088
665.047	0.0159503
665.125	0.0159612
665.203	0.0159671
665.281	0.0159968
665.359	0.0160410
665.437	0.0158304
665.515	0.0158978
665.593	0.0159545
665.672	0.0158986
665.750	0.0160413
665.828	0.0158614
665.906	0.0159719
665.984	0.0159756
666.062	0.0158336
666.140	0.0160076
666.218	0.0159456
666.297	0.0159387
666.375	0.0159770
666.453	0.0160233
666.531	0.0158224
666.609	0.0158719
666.687	0.0159088
666.765	0.0159362
666.843	0.0160062
666.922	0.0160243
667.000	0.0160275
667.078	0.0160421
667.156	0.0159033
667.234	0.0159818
667.312	0.0158867
667.390	0.0159653
667.468	0.0159429
667.547	0.0159457
667.625	0.0159164
667.703	0.0159116
667.781	0.0158685
667.859	0.0158883
667.937	0.0158651
668.015	0.0159631
668.093	0.0158943
668.172	0.0159332
668.250	0.0159250
668.328	0.0160571
668.406	0.0158791
668.484	0.0158488
668.562	0.0160482
668.640	0.0160303
668.718	0.0159652
668.797	0.0159939
668.875	0.0160689
668.953	0.0159708
669.031	0.0159230
669.109	0.0159932
669.187	0.0160068
669.265	0.0159564
669.343	0.0160019
669.422	0.0159696
669.500	0.0159607
669.578	0.0160640
669.656	0.0159703
669.734	0.0159481
669.812	0.0159173
669.890	0.0160387
669.968	0.0158794
670.047	0.0159148
670.125	0.0159153
670.203	0.0160636
670.281	0.0160886
670.359	0.0159644
670.437	0.0158943
670.515	0.0159870
670.593	0.0159591
670.672	0.0159889
670.750	0.0159635
670.828	0.0160136
670.906	0.0159899
670.984	0.0158826
671.062	0.0158212
671.140	0.0157281
671.218	0.0160159
671.297	0.0158414
671.375	0.0161609
671.453	0.0159383
671.531	0.0159276
671.609	0.0160049
671.687	0.0159512
671.765	0.0158860
671.843	0.0158512
671.922	0.0159412
672.000	0.0159860
672.078	0.0159210
672.156	0.0159644
672.234	0.0160654
672.312	0.0160634
672.390	0.0160262
672.468	0.0160015
672.547	0.0159214
672.625	0.0159994
672.703	0.0161148
672.781	0.0159836
672.859	0.0159483
672.937	0.0161231
673.015	0.0160663
673.093	0.0160937
673.172	0.0159869
673.250	0.0159605
673.328	0.0160845
673.406	0.0160097
673.484	0.0159644
673.562	0.0158759
673.640	0.0159679
673.718	0.0160509
673.797	0.0161378
673.875	0.0160695
673.953	0.0159180
674.031	0.0159785
674.109	0.0159195
674.187	0.0160186
674.265	0.0160371
674.343	0.0159235
674.422	0.0160110
674.500	0.0159815
674.578	0.0160137
674.656	0.0158596
674.734	0.0159093
674.812	0.0161214
674.890	0.0161450
674.968	0.0160451
675.047	0.0159038
675.125	0.0160220
675.203	0.0160589
675.281	0.0160056
675.359	0.0158985
675.437	0.0159762
675.515	0.0160235
675.593	0.0160639
675.672	0.0160651
675.750	0.0160551
675.828	0.0159867
675.906	0.0159949
675.984	0.0160720
676.062	0.0159101
676.140	0.0160102
676.218	0.0160480
676.297	0.0161060
676.375	0.0159618
676.453	0.0160074
676.531	0.0160234
676.609	0.0158999
676.687	0.0158670
676.765	0.0161387
676.843	0.0159720
676.922	0.0160226
677.000	0.0160469
677.078	0.0158396
677.156	0.0159554
677.234	0.0160477
677.312	0.0158893
677.390	0.0159077
677.468	0.0158234
677.547	0.0158116
677.625	0.0159167
677.703	0.0159167
677.781	0.0158542
677.859	0.0158801
677.937	0.0158726
678.015	0.0158350
678.093	0.0159478
678.172	0.0158154
678.250	0.0159335
678.328	0.0159177
678.406	0.0159660
678.484	0.0159268
678.562	0.0159554
678.640	0.0159710
678.718	0.0158927
678.797	0.0158295
678.875	0.0158650
678.953	0.0158602
679.031	0.0158888
679.109	0.0158444
679.187	0.0160443
679.265	0.0157902
679.343	0.0158463
679.422	0.0158150
679.500	0.0158697
679.578	0.0159074
679.656	0.0159594
679.734	0.0159436
679.812	0.0159316
679.890	0.0158980
679.968	0.0158534
680.047	0.0157622
680.125	0.0158286
680.203	0.0159146
680.281	0.0157893
680.359	0.0158376
680.437	0.0159517
680.515	0.0158311
680.593	0.0158641
680.672	0.0158215
680.750	0.0158732
680.828	0.0158601
680.906	0.0157932
680.984	0.0158860
681.062	0.0158275
681.140	0.0158471
681.218	0.0157883
681.297	0.0159184
681.375	0.0159092
681.453	0.0156824
681.531	0.0157537
681.609	0.0157903
681.687	0.0158805
681.765	0.0159397
681.843	0.0157440
681.922	0.0157337
682.000	0.0157046
682.078	0.0159216
682.156	0.0158188
682.234	0.0158526
682.312	0.0158360
682.390	0.0159196
682.468	0.0158253
682.547	0.0156842
682.625	0.0158099
682.703	0.0158335
682.781	0.0158334
682.859	0.0158544
682.937	0.0158033
683.015	0.0158179
683.093	0.0158994
683.172	0.0158654
683.250	0.0157252
683.328	0.0158043
683.406	0.0158427
683.484	0.0158798
683.562	0.0158253
683.640	0.0159676
683.718	0.0158429
683.797	0.0156990
683.875	0.0159108
683.953	0.0158214
684.031	0.0156769
684.109	0.0157525
684.187	0.0157645
684.265	0.0158345
684.343	0.0158089
684.422	0.0159158
684.500	0.0160309
684.578	0.0159608
684.656	0.0158948
684.734	0.0158123
684.812	0.0158935
684.890	0.0157538
684.968	0.0159473
685.047	0.0159567
685.125	0.0158456
685.203	0.0158012
685.281	0.0158340
685.359	0.0158619
685.437	0.0158950
685.515	0.0158344
685.593	0.0158719
685.672	0.0158374
