06/13/2022	14:47:48	Ver.	4.1	UNKNOWN
Optical Delay	599.968395	Delta X		0.078125	Sweeps	1	Scan Rate	0/0
Coordinates	Axis 1	NaN	Axis 2	NaN	Axis 3	NaN	Axis 4	NaN	Axis 5	NaN	Axis 6	0.000000
TX Power	0.000000	RX Power	0.000000

599.968	0.0164531
600.047	0.0164040
600.125	0.0164261
600.203	0.0164603
600.281	0.0162519
600.359	0.0164937
600.437	0.0164732
600.515	0.0163878
600.593	0.0164654
600.672	0.0165051
600.750	0.0164729
600.828	0.0164295
600.906	0.0165532
600.984	0.0163324
601.062	0.0163873
601.140	0.0164923
601.218	0.0164282
601.297	0.0164649
601.375	0.0165799
601.453	0.0164056
601.531	0.0164045
601.609	0.0163539
601.687	0.0164272
601.765	0.0165438
601.843	0.0164475
601.922	0.0163440
602.000	0.0164207
602.078	0.0164303
602.156	0.0165452
602.234	0.0163860
602.312	0.0165673
602.390	0.0164084
602.468	0.0164858
602.547	0.0164910
602.625	0.0164491
602.703	0.0164168
602.781	0.0164791
602.859	0.0165046
602.937	0.0164377
603.015	0.0165218
603.093	0.0164808
603.172	0.0165218
603.250	0.0164271
603.328	0.0164856
603.406	0.0164592
603.484	0.0164294
603.562	0.0164391
603.640	0.0163263
603.718	0.0163985
603.797	0.0164137
603.875	0.0164656
603.953	0.0163599
604.031	0.0165215
604.109	0.0164394
604.187	0.0163337
604.265	0.0165297
604.343	0.0163413
604.422	0.0164169
604.500	0.0164355
604.578	0.0164722
604.656	0.0164243
604.734	0.0165028
604.812	0.0164196
604.890	0.0164757
604.968	0.0164323
605.047	0.0163722
605.125	0.0165707
605.203	0.0163831
605.281	0.0164862
605.359	0.0163975
605.437	0.0163921
605.515	0.0164294
605.593	0.0163927
605.672	0.0163382
605.750	0.0164070
605.828	0.0163684
605.906	0.0164797
605.984	0.0163899
606.062	0.0163988
606.140	0.0164225
606.218	0.0163954
606.297	0.0164518
606.375	0.0162794
606.453	0.0164616
606.531	0.0164147
606.609	0.0164465
606.687	0.0163994
606.765	0.0163279
606.843	0.0164383
606.922	0.0163341
607.000	0.0164173
607.078	0.0165157
607.156	0.0164034
607.234	0.0164272
607.312	0.0164467
607.390	0.0164395
607.468	0.0163283
607.547	0.0162980
607.625	0.0164137
607.703	0.0162539
607.781	0.0164637
607.859	0.0165080
607.937	0.0164154
608.015	0.0164089
608.093	0.0164178
608.172	0.0163911
608.250	0.0163357
608.328	0.0164523
608.406	0.0163570
608.484	0.0163905
608.562	0.0164956
608.640	0.0163013
608.718	0.0164313
608.797	0.0163500
608.875	0.0163255
608.953	0.0163846
609.031	0.0164587
609.109	0.0162498
609.187	0.0163931
609.265	0.0163793
609.343	0.0164584
609.422	0.0164699
609.500	0.0163430
609.578	0.0163804
609.656	0.0165353
609.734	0.0165753
609.812	0.0164404
609.890	0.0164697
609.968	0.0163906
610.047	0.0164807
610.125	0.0164838
610.203	0.0164431
610.281	0.0163219
610.359	0.0164174
610.437	0.0164271
610.515	0.0164861
610.593	0.0164943
610.672	0.0164419
610.750	0.0165373
610.828	0.0165565
610.906	0.0164072
610.984	0.0164556
611.062	0.0164051
611.140	0.0163581
611.218	0.0165009
611.297	0.0163420
611.375	0.0163035
611.453	0.0163785
611.531	0.0165078
611.609	0.0164129
611.687	0.0163317
611.765	0.0164233
611.843	0.0164744
611.922	0.0166513
612.000	0.0163624
612.078	0.0164432
612.156	0.0164646
612.234	0.0164742
612.312	0.0164741
612.390	0.0163847
612.468	0.0163804
612.547	0.0163969
612.625	0.0165614
612.703	0.0165829
612.781	0.0164048
612.859	0.0164339
612.937	0.0162798
613.015	0.0163772
613.093	0.0165621
613.172	0.0164366
613.250	0.0163107
613.328	0.0164694
613.406	0.0165891
613.484	0.0165182
613.562	0.0163218
613.640	0.0165138
613.718	0.0165702
613.797	0.0164406
613.875	0.0164870
613.953	0.0165187
614.031	0.0163475
614.109	0.0164815
614.187	0.0165720
614.265	0.0165697
614.343	0.0163934
614.422	0.0165845
614.500	0.0164364
614.578	0.0164703
614.656	0.0165458
614.734	0.0164077
614.812	0.0164046
614.890	0.0165858
614.968	0.0163879
615.047	0.0164942
615.125	0.0163838
615.203	0.0165459
615.281	0.0164647
615.359	0.0164278
615.437	0.0165716
615.515	0.0164727
615.593	0.0164638
615.672	0.0164080
615.750	0.0164272
615.828	0.0164528
615.906	0.0164713
615.984	0.0164523
616.062	0.0164847
616.140	0.0164480
616.218	0.0164806
616.297	0.0164978
616.375	0.0166032
616.453	0.0164513
616.531	0.0165146
616.609	0.0163731
616.687	0.0163589
616.765	0.0165346
616.843	0.0164880
616.922	0.0165062
617.000	0.0164147
617.078	0.0163448
617.156	0.0163929
617.234	0.0166419
617.312	0.0163686
617.390	0.0163818
617.468	0.0163923
617.547	0.0165207
617.625	0.0164650
617.703	0.0163736
617.781	0.0163332
617.859	0.0163885
617.937	0.0165060
618.015	0.0163188
618.093	0.0163788
618.172	0.0164088
618.250	0.0164311
618.328	0.0165232
618.406	0.0163537
618.484	0.0163719
618.562	0.0164596
618.640	0.0164179
618.718	0.0164196
618.797	0.0163700
618.875	0.0163886
618.953	0.0164359
619.031	0.0163846
619.109	0.0164163
619.187	0.0164280
619.265	0.0164651
619.343	0.0164452
619.422	0.0165204
619.500	0.0164899
619.578	0.0163321
619.656	0.0164044
619.734	0.0163503
619.812	0.0164521
619.890	0.0164521
619.968	0.0165481
620.047	0.0164908
620.125	0.0163982
620.203	0.0163785
620.281	0.0163585
620.359	0.0166496
620.437	0.0165190
620.515	0.0163497
620.593	0.0164742
620.672	0.0165186
620.750	0.0164233
620.828	0.0166049
620.906	0.0165288
620.984	0.0163549
621.062	0.0164809
621.140	0.0164650
621.218	0.0164906
621.297	0.0165153
621.375	0.0163074
621.453	0.0163960
621.531	0.0164827
621.609	0.0164383
621.687	0.0163789
621.765	0.0165044
621.843	0.0164819
621.922	0.0164897
622.000	0.0166376
622.078	0.0165173
622.156	0.0164709
622.234	0.0164299
622.312	0.0165108
622.390	0.0163272
622.468	0.0164225
622.547	0.0165159
622.625	0.0165308
622.703	0.0163069
622.781	0.0164809
622.859	0.0165508
622.937	0.0164359
623.015	0.0164048
623.093	0.0164297
623.172	0.0165425
623.250	0.0164170
623.328	0.0163887
623.406	0.0164280
623.484	0.0165601
623.562	0.0164484
623.640	0.0164604
623.718	0.0164501
623.797	0.0165141
623.875	0.0165068
623.953	0.0164046
624.031	0.0164665
624.109	0.0163880
624.187	0.0164120
624.265	0.0164854
624.343	0.0164562
624.422	0.0163416
624.500	0.0164577
624.578	0.0165462
624.656	0.0163741
624.734	0.0163529
624.812	0.0164059
624.890	0.0163988
624.968	0.0164108
625.047	0.0164882
625.125	0.0165066
625.203	0.0164148
625.281	0.0164231
625.359	0.0164626
625.437	0.0163105
625.515	0.0163902
625.593	0.0164894
625.672	0.0164529
625.750	0.0165984
625.828	0.0163955
625.906	0.0164869
625.984	0.0165559
626.062	0.0163708
626.140	0.0165472
626.218	0.0164124
626.297	0.0163895
626.375	0.0165111
626.453	0.0163436
626.531	0.0166026
626.609	0.0163866
626.687	0.0164567
626.765	0.0165160
626.843	0.0163503
626.922	0.0165015
627.000	0.0165547
627.078	0.0164364
627.156	0.0165457
627.234	0.0162971
627.312	0.0165187
627.390	0.0165241
627.468	0.0164581
627.547	0.0165008
627.625	0.0163693
627.703	0.0166799
627.781	0.0165116
627.859	0.0164159
627.937	0.0165345
628.015	0.0164395
628.093	0.0164536
628.172	0.0164475
628.250	0.0166346
628.328	0.0164243
628.406	0.0164951
628.484	0.0165005
628.562	0.0164516
628.640	0.0163583
628.718	0.0163642
628.797	0.0163691
628.875	0.0163970
628.953	0.0164198
629.031	0.0164265
629.109	0.0165002
629.187	0.0165035
629.265	0.0164124
629.343	0.0163857
629.422	0.0164780
629.500	0.0165015
629.578	0.0163335
629.656	0.0164088
629.734	0.0164412
629.812	0.0164743
629.890	0.0164902
629.968	0.0163113
630.047	0.0164266
630.125	0.0164224
630.203	0.0164746
630.281	0.0165352
630.359	0.0165665
630.437	0.0163516
630.515	0.0163773
630.593	0.0165000
630.672	0.0164137
630.750	0.0164829
630.828	0.0165551
630.906	0.0164433
630.984	0.0163812
631.062	0.0165693
631.140	0.0164613
631.218	0.0164389
631.297	0.0164079
631.375	0.0164113
631.453	0.0165957
631.531	0.0164735
631.609	0.0164203
631.687	0.0164716
631.765	0.0164690
631.843	0.0164764
631.922	0.0164503
632.000	0.0165154
632.078	0.0165804
632.156	0.0164579
632.234	0.0164003
632.312	0.0164355
632.390	0.0164899
632.468	0.0164484
632.547	0.0163281
632.625	0.0164278
632.703	0.0163639
632.781	0.0165128
632.859	0.0164220
632.937	0.0164248
633.015	0.0164906
633.093	0.0165218
633.172	0.0164980
633.250	0.0163389
633.328	0.0163783
633.406	0.0166068
633.484	0.0165811
633.562	0.0164919
633.640	0.0163605
633.718	0.0163603
633.797	0.0165487
633.875	0.0164105
633.953	0.0164621
634.031	0.0164063
634.109	0.0164938
634.187	0.0164148
634.265	0.0165147
634.343	0.0163662
634.422	0.0164063
634.500	0.0165092
634.578	0.0166962
634.656	0.0165128
634.734	0.0163930
634.812	0.0163419
634.890	0.0164036
634.968	0.0164749
635.047	0.0163209
635.125	0.0164082
635.203	0.0164902
635.281	0.0163730
635.359	0.0164884
635.437	0.0164399
635.515	0.0162803
635.593	0.0165465
635.672	0.0163849
635.750	0.0164163
635.828	0.0164428
635.906	0.0164761
635.984	0.0165688
636.062	0.0165131
636.140	0.0163841
636.218	0.0163788
636.297	0.0163130
636.375	0.0164828
636.453	0.0165252
636.531	0.0164455
636.609	0.0164662
636.687	0.0164392
636.765	0.0164324
636.843	0.0162457
636.922	0.0165045
637.000	0.0164516
637.078	0.0163675
637.156	0.0166768
637.234	0.0164306
637.312	0.0164046
637.390	0.0164717
637.468	0.0165128
637.547	0.0163950
637.625	0.0164330
637.703	0.0164024
637.781	0.0164885
637.859	0.0163822
637.937	0.0164783
638.015	0.0165004
638.093	0.0164399
638.172	0.0164594
638.250	0.0164335
638.328	0.0165502
638.406	0.0163979
638.484	0.0164393
638.562	0.0165007
638.640	0.0165674
638.718	0.0165376
638.797	0.0163042
638.875	0.0162876
638.953	0.0164240
639.031	0.0163538
639.109	0.0164371
639.187	0.0163822
639.265	0.0165685
639.343	0.0163861
639.422	0.0164979
639.500	0.0164669
639.578	0.0164078
639.656	0.0165369
639.734	0.0165332
639.812	0.0164079
639.890	0.0164678
639.968	0.0165562
640.047	0.0163733
640.125	0.0165930
640.203	0.0165235
640.281	0.0163817
640.359	0.0166331
640.437	0.0164891
640.515	0.0164702
640.593	0.0164468
640.672	0.0165168
640.750	0.0164677
640.828	0.0163169
640.906	0.0163614
640.984	0.0165506
641.062	0.0165083
641.140	0.0164420
641.218	0.0164552
641.297	0.0163980
641.375	0.0164580
641.453	0.0165356
641.531	0.0165229
641.609	0.0164848
641.687	0.0165031
641.765	0.0163165
641.843	0.0164539
641.922	0.0164618
642.000	0.0165922
642.078	0.0164375
642.156	0.0164233
642.234	0.0164075
642.312	0.0163982
642.390	0.0164782
642.468	0.0164287
642.547	0.0165474
642.625	0.0165435
642.703	0.0164510
642.781	0.0164198
642.859	0.0163710
642.937	0.0164148
643.015	0.0164263
643.093	0.0164396
643.172	0.0163785
643.250	0.0164993
643.328	0.0166050
643.406	0.0164333
643.484	0.0164641
643.562	0.0164280
643.640	0.0165088
643.718	0.0163995
643.797	0.0163546
643.875	0.0165514
643.953	0.0164712
644.031	0.0163471
644.109	0.0164122
644.187	0.0162961
644.265	0.0164776
644.343	0.0164709
644.422	0.0164107
644.500	0.0164843
644.578	0.0164964
644.656	0.0165172
644.734	0.0164784
644.812	0.0164486
644.890	0.0165018
644.968	0.0163809
645.047	0.0164556
645.125	0.0164702
645.203	0.0164951
645.281	0.0165516
645.359	0.0164233
645.437	0.0165108
645.515	0.0164297
645.593	0.0164131
645.672	0.0165749
645.750	0.0164673
645.828	0.0164857
645.906	0.0164242
645.984	0.0163552
646.062	0.0165781
646.140	0.0164803
646.218	0.0163361
646.297	0.0165010
646.375	0.0163931
646.453	0.0162933
646.531	0.0164643
646.609	0.0165485
646.687	0.0163420
646.765	0.0165821
646.843	0.0166807
646.922	0.0164580
647.000	0.0164135
647.078	0.0164809
647.156	0.0164947
647.234	0.0164495
647.312	0.0164574
647.390	0.0164566
647.468	0.0165669
647.547	0.0165693
647.625	0.0163781
647.703	0.0164778
647.781	0.0165635
647.859	0.0165288
647.937	0.0164175
648.015	0.0164944
648.093	0.0164446
648.172	0.0166119
648.250	0.0166261
648.328	0.0165385
648.406	0.0163845
648.484	0.0164995
648.562	0.0165466
648.640	0.0165468
648.718	0.0165689
648.797	0.0164567
648.875	0.0165482
648.953	0.0165403
649.031	0.0164346
649.109	0.0165652
649.187	0.0165752
649.265	0.0165816
649.343	0.0164088
649.422	0.0164693
649.500	0.0163602
649.578	0.0166268
649.656	0.0164570
649.734	0.0164234
649.812	0.0165062
649.890	0.0164871
649.968	0.0165616
650.047	0.0164893
650.125	0.0165376
650.203	0.0164975
650.281	0.0165839
650.359	0.0165490
650.437	0.0164455
650.515	0.0165447
650.593	0.0165227
650.672	0.0163877
650.750	0.0165048
650.828	0.0165454
650.906	0.0165842
650.984	0.0166408
651.062	0.0164425
651.140	0.0164575
651.218	0.0162950
651.297	0.0165054
651.375	0.0165157
651.453	0.0163943
651.531	0.0165033
651.609	0.0164745
651.687	0.0165900
651.765	0.0165924
651.843	0.0165208
651.922	0.0164566
652.000	0.0163995
652.078	0.0165935
652.156	0.0165595
652.234	0.0164786
652.312	0.0166162
652.390	0.0165010
652.468	0.0164474
652.547	0.0164961
652.625	0.0164622
652.703	0.0163932
652.781	0.0166069
652.859	0.0165796
652.937	0.0165702
653.015	0.0165304
653.093	0.0165516
653.172	0.0165333
653.250	0.0165161
653.328	0.0165461
653.406	0.0164722
653.484	0.0164119
653.562	0.0164862
653.640	0.0167236
653.718	0.0165890
653.797	0.0164762
653.875	0.0166925
653.953	0.0164874
654.031	0.0165545
654.109	0.0165212
654.187	0.0166235
654.265	0.0166617
654.343	0.0165785
654.422	0.0165996
654.500	0.0166270
654.578	0.0166134
654.656	0.0165823
654.734	0.0165924
654.812	0.0165281
654.890	0.0166342
654.968	0.0166386
655.047	0.0165755
655.125	0.0165214
655.203	0.0164788
655.281	0.0165456
655.359	0.0166000
655.437	0.0165616
655.515	0.0165536
655.593	0.0165833
655.672	0.0165892
655.750	0.0167047
655.828	0.0165654
655.906	0.0165411
655.984	0.0165631
656.062	0.0164938
656.140	0.0165077
656.218	0.0166254
656.297	0.0166293
656.375	0.0165051
656.453	0.0165555
656.531	0.0165489
656.609	0.0166449
656.687	0.0166145
656.765	0.0165893
656.843	0.0166075
656.922	0.0165252
657.000	0.0164801
657.078	0.0165150
657.156	0.0164818
657.234	0.0164172
657.312	0.0165021
657.390	0.0165638
657.468	0.0165876
657.547	0.0164762
657.625	0.0164716
657.703	0.0164140
657.781	0.0164949
657.859	0.0165890
657.937	0.0163901
658.015	0.0162867
658.093	0.0163746
658.172	0.0163620
658.250	0.0165151
658.328	0.0164668
658.406	0.0165256
658.484	0.0163858
658.562	0.0164651
658.640	0.0164772
658.718	0.0163579
658.797	0.0163987
658.875	0.0163707
658.953	0.0162965
659.031	0.0164021
659.109	0.0163908
659.187	0.0163366
659.265	0.0163445
659.343	0.0162955
659.422	0.0163417
659.500	0.0163307
659.578	0.0163673
659.656	0.0163265
659.734	0.0164088
659.812	0.0163174
659.890	0.0163620
659.968	0.0162805
660.047	0.0162763
660.125	0.0164641
660.203	0.0163354
660.281	0.0163664
660.359	0.0163232
660.437	0.0163511
660.515	0.0163198
660.593	0.0162818
660.672	0.0163379
660.750	0.0163242
660.828	0.0163895
660.906	0.0163619
660.984	0.0164524
661.062	0.0163371
661.140	0.0164046
661.218	0.0164613
661.297	0.0163072
661.375	0.0162493
661.453	0.0163997
661.531	0.0163654
661.609	0.0163762
661.687	0.0162368
661.765	0.0163768
661.843	0.0164417
661.922	0.0164599
662.000	0.0164770
662.078	0.0163963
662.156	0.0162779
662.234	0.0164643
662.312	0.0164803
662.390	0.0164259
662.468	0.0162902
662.547	0.0165350
662.625	0.0163711
662.703	0.0164227
662.781	0.0164757
662.859	0.0162999
662.937	0.0163285
663.015	0.0164476
663.093	0.0164316
663.172	0.0165348
663.250	0.0163372
663.328	0.0163768
663.406	0.0164785
663.484	0.0162330
663.562	0.0163355
663.640	0.0165569
663.718	0.0164319
663.797	0.0163938
663.875	0.0164610
663.953	0.0163786
664.031	0.0164195
664.109	0.0163742
664.187	0.0163452
664.265	0.0163847
664.343	0.0163586
664.422	0.0164046
664.500	0.0165575
664.578	0.0164593
664.656	0.0163757
664.734	0.0164157
664.812	0.0164405
664.890	0.0163815
664.968	0.0164374
665.047	0.0164805
665.125	0.0163676
665.203	0.0165878
665.281	0.0164783
665.359	0.0163660
665.437	0.0163367
665.515	0.0163397
665.593	0.0162767
665.672	0.0163444
665.750	0.0164973
665.828	0.0164417
665.906	0.0164185
665.984	0.0164522
666.062	0.0163552
666.140	0.0163272
666.218	0.0163819
666.297	0.0164713
666.375	0.0164592
666.453	0.0164800
666.531	0.0163432
666.609	0.0164750
666.687	0.0164391
666.765	0.0165642
666.843	0.0164101
666.922	0.0163699
667.000	0.0164597
667.078	0.0164471
667.156	0.0164300
667.234	0.0164790
667.312	0.0164439
667.390	0.0164848
667.468	0.0165225
667.547	0.0164555
667.625	0.0164067
667.703	0.0164919
667.781	0.0165755
667.859	0.0165924
667.937	0.0166090
668.015	0.0164078
668.093	0.0165257
668.172	0.0163993
668.250	0.0163656
668.328	0.0165604
668.406	0.0165240
668.484	0.0164055
668.562	0.0164357
668.640	0.0165209
668.718	0.0165278
668.797	0.0165761
668.875	0.0165382
668.953	0.0164886
669.031	0.0165852
669.109	0.0165801
669.187	0.0164243
669.265	0.0164909
669.343	0.0163934
669.422	0.0164296
669.500	0.0165986
669.578	0.0165441
669.656	0.0164303
669.734	0.0165837
669.812	0.0164874
669.890	0.0165253
669.968	0.0165002
670.047	0.0165821
670.125	0.0164330
670.203	0.0164711
670.281	0.0165628
670.359	0.0165343
670.437	0.0165184
670.515	0.0165269
670.593	0.0166467
670.672	0.0165374
670.750	0.0165090
670.828	0.0165190
670.906	0.0165341
670.984	0.0165370
671.062	0.0165820
671.140	0.0165942
671.218	0.0165185
671.297	0.0164661
671.375	0.0166166
671.453	0.0164297
671.531	0.0165488
671.609	0.0166115
671.687	0.0165157
671.765	0.0165687
671.843	0.0165263
671.922	0.0166271
672.000	0.0165034
672.078	0.0165178
672.156	0.0164811
672.234	0.0164419
672.312	0.0165665
672.390	0.0166518
672.468	0.0166489
672.547	0.0166089
672.625	0.0164168
672.703	0.0166493
672.781	0.0166010
672.859	0.0164816
672.937	0.0165678
673.015	0.0165151
673.093	0.0164887
673.172	0.0166157
673.250	0.0165440
673.328	0.0165505
673.406	0.0165474
673.484	0.0165166
673.562	0.0166840
673.640	0.0165117
673.718	0.0165697
673.797	0.0166373
673.875	0.0164939
673.953	0.0167126
674.031	0.0166636
674.109	0.0166945
674.187	0.0165529
674.265	0.0165580
674.343	0.0164758
674.422	0.0166281
674.500	0.0166879
674.578	0.0166025
674.656	0.0167566
674.734	0.0166973
674.812	0.0165307
674.890	0.0165894
674.968	0.0165444
675.047	0.0165986
675.125	0.0165501
675.203	0.0166498
675.281	0.0166590
675.359	0.0164706
675.437	0.0166874
675.515	0.0166656
675.593	0.0164336
675.672	0.0166669
675.750	0.0167287
675.828	0.0166460
675.906	0.0166863
675.984	0.0166586
676.062	0.0166788
676.140	0.0164863
676.218	0.0165426
676.297	0.0165512
676.375	0.0166702
676.453	0.0165506
676.531	0.0166808
676.609	0.0165545
676.687	0.0165000
676.765	0.0167047
676.843	0.0165773
676.922	0.0165368
677.000	0.0167020
677.078	0.0165542
677.156	0.0165375
677.234	0.0166268
677.312	0.0166916
677.390	0.0165534
677.468	0.0165722
677.547	0.0165032
677.625	0.0164324
677.703	0.0165058
677.781	0.0165112
677.859	0.0164574
677.937	0.0164273
678.015	0.0165048
678.093	0.0165047
678.172	0.0165009
678.250	0.0165357
678.328	0.0164410
678.406	0.0164507
678.484	0.0166172
678.562	0.0164980
678.640	0.0165377
678.718	0.0164159
678.797	0.0163786
678.875	0.0165742
678.953	0.0164191
679.031	0.0164635
679.109	0.0164340
679.187	0.0163758
679.265	0.0164809
679.343	0.0164969
679.422	0.0163544
679.500	0.0163670
679.578	0.0163443
679.656	0.0164939
679.734	0.0163451
679.812	0.0164141
679.890	0.0163641
679.968	0.0162872
680.047	0.0164046
680.125	0.0164526
680.203	0.0162603
680.281	0.0163197
680.359	0.0163974
680.437	0.0164001
680.515	0.0163688
680.593	0.0162746
680.672	0.0163826
680.750	0.0162875
680.828	0.0164054
680.906	0.0164084
680.984	0.0164888
681.062	0.0164185
681.140	0.0163607
681.218	0.0164379
681.297	0.0163789
681.375	0.0162597
681.453	0.0163529
681.531	0.0163972
681.609	0.0161612
681.687	0.0162706
681.765	0.0163565
681.843	0.0162694
681.922	0.0162621
682.000	0.0163042
682.078	0.0163924
682.156	0.0162621
682.234	0.0162090
682.312	0.0162910
682.390	0.0163577
682.468	0.0163537
682.547	0.0162021
682.625	0.0162270
682.703	0.0163409
682.781	0.0164394
682.859	0.0163515
682.937	0.0161861
683.015	0.0163638
683.093	0.0163573
683.172	0.0163744
683.250	0.0163572
683.328	0.0163370
683.406	0.0163811
683.484	0.0164323
683.562	0.0163244
683.640	0.0163946
683.718	0.0164360
683.797	0.0162584
683.875	0.0162907
683.953	0.0164510
684.031	0.0163924
684.109	0.0163925
684.187	0.0162766
684.265	0.0162146
684.343	0.0163987
684.422	0.0163264
684.500	0.0163094
684.578	0.0163325
684.656	0.0163957
684.734	0.0163079
684.812	0.0162914
684.890	0.0164084
684.968	0.0165622
685.047	0.0163725
685.125	0.0163365
685.203	0.0162852
685.281	0.0164778
685.359	0.0163251
685.437	0.0163200
685.515	0.0165041
685.593	0.0164986
685.672	0.0163770
