06/13/2022	14:29:17	Ver.	4.1	UNKNOWN
Optical Delay	599.968395	Delta X		0.078125	Sweeps	1	Scan Rate	0/0
Coordinates	Axis 1	NaN	Axis 2	NaN	Axis 3	NaN	Axis 4	NaN	Axis 5	NaN	Axis 6	0.000000
TX Power	0.000000	RX Power	0.000000

599.968	0.0160526
600.047	0.0161824
600.125	0.0160765
600.203	0.0160251
600.281	0.0159701
600.359	0.0161246
600.437	0.0160646
600.515	0.0159705
600.593	0.0159184
600.672	0.0160950
600.750	0.0160130
600.828	0.0159695
600.906	0.0161071
600.984	0.0161093
601.062	0.0160568
601.140	0.0159212
601.218	0.0160172
601.297	0.0160876
601.375	0.0161362
601.453	0.0159897
601.531	0.0158905
601.609	0.0159810
601.687	0.0160815
601.765	0.0160191
601.843	0.0160214
601.922	0.0160565
602.000	0.0161361
602.078	0.0160552
602.156	0.0160609
602.234	0.0158600
602.312	0.0160583
602.390	0.0161251
602.468	0.0160467
602.547	0.0160352
602.625	0.0161077
602.703	0.0159696
602.781	0.0160513
602.859	0.0160731
602.937	0.0160523
603.015	0.0159702
603.093	0.0161720
603.172	0.0160592
603.250	0.0160815
603.328	0.0160943
603.406	0.0160948
603.484	0.0159893
603.562	0.0160071
603.640	0.0160094
603.718	0.0160801
603.797	0.0161022
603.875	0.0161285
603.953	0.0159721
604.031	0.0159138
604.109	0.0159922
604.187	0.0160311
604.265	0.0160085
604.343	0.0160630
604.422	0.0160394
604.500	0.0161248
604.578	0.0160078
604.656	0.0159186
604.734	0.0160043
604.812	0.0160767
604.890	0.0160309
604.968	0.0160539
605.047	0.0160105
605.125	0.0161028
605.203	0.0160918
605.281	0.0161038
605.359	0.0159589
605.437	0.0159058
605.515	0.0160257
605.593	0.0159682
605.672	0.0159573
605.750	0.0160503
605.828	0.0159785
605.906	0.0157856
605.984	0.0158488
606.062	0.0160777
606.140	0.0159689
606.218	0.0160355
606.297	0.0160470
606.375	0.0161372
606.453	0.0159640
606.531	0.0160786
606.609	0.0160847
606.687	0.0159826
606.765	0.0161083
606.843	0.0160675
606.922	0.0160793
607.000	0.0159620
607.078	0.0159531
607.156	0.0160347
607.234	0.0159975
607.312	0.0160465
607.390	0.0161304
607.468	0.0161433
607.547	0.0159826
607.625	0.0159738
607.703	0.0159912
607.781	0.0160238
607.859	0.0159678
607.937	0.0160348
608.015	0.0159060
608.093	0.0160507
608.172	0.0160373
608.250	0.0159676
608.328	0.0159931
608.406	0.0160701
608.484	0.0161104
608.562	0.0160696
608.640	0.0160118
608.718	0.0159609
608.797	0.0160406
608.875	0.0160545
608.953	0.0160886
609.031	0.0159676
609.109	0.0159914
609.187	0.0159497
609.265	0.0160332
609.343	0.0161175
609.422	0.0160050
609.500	0.0160101
609.578	0.0159687
609.656	0.0160852
609.734	0.0160678
609.812	0.0159908
609.890	0.0160461
609.968	0.0161481
610.047	0.0159803
610.125	0.0161145
610.203	0.0159962
610.281	0.0160868
610.359	0.0160092
610.437	0.0159233
610.515	0.0160699
610.593	0.0161380
610.672	0.0160863
610.750	0.0162138
610.828	0.0161225
610.906	0.0159970
610.984	0.0159637
611.062	0.0160336
611.140	0.0160256
611.218	0.0160259
611.297	0.0160506
611.375	0.0161152
611.453	0.0160414
611.531	0.0160072
611.609	0.0161011
611.687	0.0159264
611.765	0.0160383
611.843	0.0160432
611.922	0.0159549
612.000	0.0160004
612.078	0.0160072
612.156	0.0160377
612.234	0.0161064
612.312	0.0159197
612.390	0.0159483
612.468	0.0160751
612.547	0.0159659
612.625	0.0160535
612.703	0.0160844
612.781	0.0159953
612.859	0.0160790
612.937	0.0160461
613.015	0.0159603
613.093	0.0160487
613.172	0.0160116
613.250	0.0160335
613.328	0.0160214
613.406	0.0159985
613.484	0.0160528
613.562	0.0160031
613.640	0.0160761
613.718	0.0161172
613.797	0.0159495
613.875	0.0160519
613.953	0.0159316
614.031	0.0159180
614.109	0.0159444
614.187	0.0160171
614.265	0.0159849
614.343	0.0160712
614.422	0.0159240
614.500	0.0160534
614.578	0.0162396
614.656	0.0161940
614.734	0.0159086
614.812	0.0158947
614.890	0.0159735
614.968	0.0161501
615.047	0.0159533
615.125	0.0159431
615.203	0.0160612
615.281	0.0160784
615.359	0.0160899
615.437	0.0160423
615.515	0.0160515
615.593	0.0161472
615.672	0.0160191
615.750	0.0158863
615.828	0.0160520
615.906	0.0160841
615.984	0.0161012
616.062	0.0160963
616.140	0.0159061
616.218	0.0158947
616.297	0.0161505
616.375	0.0160229
616.453	0.0160269
616.531	0.0160738
616.609	0.0160063
616.687	0.0160661
616.765	0.0161118
616.843	0.0160028
616.922	0.0160255
617.000	0.0160004
617.078	0.0159488
617.156	0.0160511
617.234	0.0160136
617.312	0.0160588
617.390	0.0160510
617.468	0.0159312
617.547	0.0160279
617.625	0.0159524
617.703	0.0160934
617.781	0.0161008
617.859	0.0160362
617.937	0.0160214
618.015	0.0161787
618.093	0.0159367
618.172	0.0158565
618.250	0.0161623
618.328	0.0161255
618.406	0.0160130
618.484	0.0160799
618.562	0.0160542
618.640	0.0158735
618.718	0.0160278
618.797	0.0160012
618.875	0.0160503
618.953	0.0160684
619.031	0.0159396
619.109	0.0161220
619.187	0.0160493
619.265	0.0161818
619.343	0.0160024
619.422	0.0160434
619.500	0.0160926
619.578	0.0160045
619.656	0.0160538
619.734	0.0160255
619.812	0.0159393
619.890	0.0158854
619.968	0.0160046
620.047	0.0160262
620.125	0.0160473
620.203	0.0160553
620.281	0.0159501
620.359	0.0159090
620.437	0.0160577
620.515	0.0160340
620.593	0.0159682
620.672	0.0159848
620.750	0.0160820
620.828	0.0160626
620.906	0.0160974
620.984	0.0161221
621.062	0.0159265
621.140	0.0159145
621.218	0.0159863
621.297	0.0160181
621.375	0.0160651
621.453	0.0159806
621.531	0.0159190
621.609	0.0158783
621.687	0.0159461
621.765	0.0159647
621.843	0.0159012
621.922	0.0159237
622.000	0.0159109
622.078	0.0160578
622.156	0.0160320
622.234	0.0160551
622.312	0.0160196
622.390	0.0160376
622.468	0.0158846
622.547	0.0158952
622.625	0.0159756
622.703	0.0160940
622.781	0.0160556
622.859	0.0161528
622.937	0.0160136
623.015	0.0160012
623.093	0.0161295
623.172	0.0160820
623.250	0.0160312
623.328	0.0159896
623.406	0.0160922
623.484	0.0160748
623.562	0.0158947
623.640	0.0160262
623.718	0.0161465
623.797	0.0160035
623.875	0.0160139
623.953	0.0159683
624.031	0.0161876
624.109	0.0160004
624.187	0.0160873
624.265	0.0160290
624.343	0.0160980
624.422	0.0159913
624.500	0.0161079
624.578	0.0160606
624.656	0.0160350
624.734	0.0160726
624.812	0.0159938
624.890	0.0161911
624.968	0.0160101
625.047	0.0159779
625.125	0.0160113
625.203	0.0159937
625.281	0.0161101
625.359	0.0159131
625.437	0.0160738
625.515	0.0160782
625.593	0.0159759
625.672	0.0161724
625.750	0.0161493
625.828	0.0160398
625.906	0.0158926
625.984	0.0159099
626.062	0.0159973
626.140	0.0159734
626.218	0.0160447
626.297	0.0160878
626.375	0.0159711
626.453	0.0160040
626.531	0.0160143
626.609	0.0158706
626.687	0.0160291
626.765	0.0159394
626.843	0.0161974
626.922	0.0161544
627.000	0.0161213
627.078	0.0160133
627.156	0.0159079
627.234	0.0160107
627.312	0.0160545
627.390	0.0159284
627.468	0.0159590
627.547	0.0160622
627.625	0.0160694
627.703	0.0160614
627.781	0.0160191
627.859	0.0159885
627.937	0.0161204
628.015	0.0159961
628.093	0.0159844
628.172	0.0161327
628.250	0.0160487
628.328	0.0159354
628.406	0.0161121
628.484	0.0160438
628.562	0.0158402
628.640	0.0160215
628.718	0.0161043
628.797	0.0160415
628.875	0.0158816
628.953	0.0160581
629.031	0.0159721
629.109	0.0159012
629.187	0.0159880
629.265	0.0160394
629.343	0.0159958
629.422	0.0160167
629.500	0.0160867
629.578	0.0159898
629.656	0.0159776
629.734	0.0160349
629.812	0.0160020
629.890	0.0160383
629.968	0.0159147
630.047	0.0159946
630.125	0.0160702
630.203	0.0159630
630.281	0.0160574
630.359	0.0162133
630.437	0.0160600
630.515	0.0160188
630.593	0.0160715
630.672	0.0159676
630.750	0.0159556
630.828	0.0160950
630.906	0.0160047
630.984	0.0159671
631.062	0.0160582
631.140	0.0160232
631.218	0.0159703
631.297	0.0160262
631.375	0.0159909
631.453	0.0161201
631.531	0.0161228
631.609	0.0160477
631.687	0.0160007
631.765	0.0158635
631.843	0.0159471
631.922	0.0160383
632.000	0.0161102
632.078	0.0160294
632.156	0.0159406
632.234	0.0160253
632.312	0.0160535
632.390	0.0160276
632.468	0.0159701
632.547	0.0160831
632.625	0.0160590
632.703	0.0160149
632.781	0.0160303
632.859	0.0160075
632.937	0.0160940
633.015	0.0160090
633.093	0.0159645
633.172	0.0159818
633.250	0.0158830
633.328	0.0159263
633.406	0.0160873
633.484	0.0160189
633.562	0.0159365
633.640	0.0159524
633.718	0.0159880
633.797	0.0159647
633.875	0.0160318
633.953	0.0161267
634.031	0.0159981
634.109	0.0159560
634.187	0.0160287
634.265	0.0160339
634.343	0.0160342
634.422	0.0160410
634.500	0.0160314
634.578	0.0159662
634.656	0.0161120
634.734	0.0161234
634.812	0.0160161
634.890	0.0160370
634.968	0.0161099
635.047	0.0160184
635.125	0.0159800
635.203	0.0161510
635.281	0.0158264
635.359	0.0159988
635.437	0.0160008
635.515	0.0160239
635.593	0.0160119
635.672	0.0159740
635.750	0.0161128
635.828	0.0160310
635.906	0.0159749
635.984	0.0159781
636.062	0.0159928
636.140	0.0159713
636.218	0.0159866
636.297	0.0161224
636.375	0.0159455
636.453	0.0159803
636.531	0.0160652
636.609	0.0160114
636.687	0.0160275
636.765	0.0160538
636.843	0.0160325
636.922	0.0159258
637.000	0.0160876
637.078	0.0160139
637.156	0.0159996
637.234	0.0160902
637.312	0.0161749
637.390	0.0159847
637.468	0.0160364
637.547	0.0159258
637.625	0.0159359
637.703	0.0160840
637.781	0.0160773
637.859	0.0159064
637.937	0.0159966
638.015	0.0158528
638.093	0.0159917
638.172	0.0159666
638.250	0.0158767
638.328	0.0160160
638.406	0.0160057
638.484	0.0160284
638.562	0.0158755
638.640	0.0160188
638.718	0.0160503
638.797	0.0159891
638.875	0.0159716
638.953	0.0160909
639.031	0.0160680
639.109	0.0160015
639.187	0.0161388
639.265	0.0159927
639.343	0.0159707
639.422	0.0160200
639.500	0.0159588
639.578	0.0160439
639.656	0.0160048
639.734	0.0159083
639.812	0.0161334
639.890	0.0161169
639.968	0.0160448
640.047	0.0160458
640.125	0.0161201
640.203	0.0159235
640.281	0.0159101
640.359	0.0159162
640.437	0.0160427
640.515	0.0158955
640.593	0.0160547
640.672	0.0162482
640.750	0.0159668
640.828	0.0160754
640.906	0.0159914
640.984	0.0160344
641.062	0.0158807
641.140	0.0160785
641.218	0.0161127
641.297	0.0159901
641.375	0.0159540
641.453	0.0160046
641.531	0.0160114
641.609	0.0160282
641.687	0.0159982
641.765	0.0159739
641.843	0.0159769
641.922	0.0160442
642.000	0.0159548
642.078	0.0160899
642.156	0.0159715
642.234	0.0159770
642.312	0.0161520
642.390	0.0160094
642.468	0.0159071
642.547	0.0159165
642.625	0.0159904
642.703	0.0160303
642.781	0.0161056
642.859	0.0159614
642.937	0.0160239
643.015	0.0159335
643.093	0.0160758
643.172	0.0160976
643.250	0.0159783
643.328	0.0161298
643.406	0.0161107
643.484	0.0159903
643.562	0.0160687
643.640	0.0159681
643.718	0.0159780
643.797	0.0160738
643.875	0.0160302
643.953	0.0161157
644.031	0.0161401
644.109	0.0160801
644.187	0.0159988
644.265	0.0160220
644.343	0.0159798
644.422	0.0159895
644.500	0.0160870
644.578	0.0159943
644.656	0.0160316
644.734	0.0159389
644.812	0.0159098
644.890	0.0159640
644.968	0.0159878
645.047	0.0159530
645.125	0.0159905
645.203	0.0160468
645.281	0.0159776
645.359	0.0160954
645.437	0.0161100
645.515	0.0160789
645.593	0.0158986
645.672	0.0158835
645.750	0.0161150
645.828	0.0160458
645.906	0.0160769
645.984	0.0161012
646.062	0.0160078
646.140	0.0161016
646.218	0.0159901
646.297	0.0161599
646.375	0.0161043
646.453	0.0159786
646.531	0.0160293
646.609	0.0160458
646.687	0.0161362
646.765	0.0158450
646.843	0.0162377
646.922	0.0160490
647.000	0.0159486
647.078	0.0160643
647.156	0.0160444
647.234	0.0160612
647.312	0.0159479
647.390	0.0160725
647.468	0.0160186
647.547	0.0160069
647.625	0.0161461
647.703	0.0160870
647.781	0.0160204
647.859	0.0160403
647.937	0.0160165
648.015	0.0160223
648.093	0.0160837
648.172	0.0160357
648.250	0.0160350
648.328	0.0160175
648.406	0.0161367
648.484	0.0159671
648.562	0.0160412
648.640	0.0158799
648.718	0.0159227
648.797	0.0159067
648.875	0.0160163
648.953	0.0159946
649.031	0.0159235
649.109	0.0159406
649.187	0.0160257
649.265	0.0159633
649.343	0.0161383
649.422	0.0158677
649.500	0.0159688
649.578	0.0160801
649.656	0.0160392
649.734	0.0159324
649.812	0.0160245
649.890	0.0160133
649.968	0.0159513
650.047	0.0160763
650.125	0.0161786
650.203	0.0160593
650.281	0.0159122
650.359	0.0161139
650.437	0.0160421
650.515	0.0159062
650.593	0.0158418
650.672	0.0160777
650.750	0.0158931
650.828	0.0159579
650.906	0.0159256
650.984	0.0159406
651.062	0.0159876
651.140	0.0158677
651.218	0.0159268
651.297	0.0161144
651.375	0.0158600
651.453	0.0159566
651.531	0.0159866
651.609	0.0161613
651.687	0.0161108
651.765	0.0159776
651.843	0.0159674
651.922	0.0158726
652.000	0.0160844
652.078	0.0160671
652.156	0.0160649
652.234	0.0159199
652.312	0.0159857
652.390	0.0158980
652.468	0.0160117
652.547	0.0159879
652.625	0.0159348
652.703	0.0160928
652.781	0.0160102
652.859	0.0159960
652.937	0.0157951
653.015	0.0161163
653.093	0.0159123
653.172	0.0159123
653.250	0.0160136
653.328	0.0160493
653.406	0.0160912
653.484	0.0160918
653.562	0.0160350
653.640	0.0160173
653.718	0.0160436
653.797	0.0161722
653.875	0.0160603
653.953	0.0160494
654.031	0.0159771
654.109	0.0160779
654.187	0.0160135
654.265	0.0160954
654.343	0.0158801
654.422	0.0160310
654.500	0.0159261
654.578	0.0158646
654.656	0.0159805
654.734	0.0160452
654.812	0.0160207
654.890	0.0160619
654.968	0.0160606
655.047	0.0159706
655.125	0.0158781
655.203	0.0158887
655.281	0.0160516
655.359	0.0159667
655.437	0.0160328
655.515	0.0160275
655.593	0.0160577
655.672	0.0159755
655.750	0.0160548
655.828	0.0160609
655.906	0.0160191
655.984	0.0159580
656.062	0.0159151
656.140	0.0161362
656.218	0.0160090
656.297	0.0159563
656.375	0.0161106
656.453	0.0160926
656.531	0.0160675
656.609	0.0159651
656.687	0.0160359
656.765	0.0160419
656.843	0.0161293
656.922	0.0160278
657.000	0.0160191
657.078	0.0159746
657.156	0.0159871
657.234	0.0160355
657.312	0.0160071
657.390	0.0159554
657.468	0.0159501
657.547	0.0160544
657.625	0.0160152
657.703	0.0158439
657.781	0.0158790
657.859	0.0159786
657.937	0.0160722
658.015	0.0159644
658.093	0.0159768
658.172	0.0160072
658.250	0.0159438
658.328	0.0159795
658.406	0.0160580
658.484	0.0159724
658.562	0.0160189
658.640	0.0160718
658.718	0.0160017
658.797	0.0160916
658.875	0.0160191
658.953	0.0159891
659.031	0.0160158
659.109	0.0161677
659.187	0.0160181
659.265	0.0159964
659.343	0.0160196
659.422	0.0160914
659.500	0.0161806
659.578	0.0158999
659.656	0.0161031
659.734	0.0160481
659.812	0.0159592
659.890	0.0159875
659.968	0.0159255
660.047	0.0160155
660.125	0.0160041
660.203	0.0159363
660.281	0.0161213
660.359	0.0161039
660.437	0.0159921
660.515	0.0160033
660.593	0.0160591
660.672	0.0159556
660.750	0.0160880
660.828	0.0160084
660.906	0.0159740
660.984	0.0159936
661.062	0.0160758
661.140	0.0160471
661.218	0.0161290
661.297	0.0160091
661.375	0.0159436
661.453	0.0160513
661.531	0.0160402
661.609	0.0159784
661.687	0.0160577
661.765	0.0161769
661.843	0.0160053
661.922	0.0159186
662.000	0.0159647
662.078	0.0158676
662.156	0.0161304
662.234	0.0161478
662.312	0.0160064
662.390	0.0160362
662.468	0.0161235
662.547	0.0159816
662.625	0.0158964
662.703	0.0161427
662.781	0.0161076
662.859	0.0161060
662.937	0.0160667
663.015	0.0160542
663.093	0.0160217
663.172	0.0161372
663.250	0.0160875
663.328	0.0160733
663.406	0.0160329
663.484	0.0160278
663.562	0.0160297
663.640	0.0160967
663.718	0.0160957
663.797	0.0160397
663.875	0.0160497
663.953	0.0160994
664.031	0.0160445
664.109	0.0160480
664.187	0.0159871
664.265	0.0160239
664.343	0.0160104
664.422	0.0159969
664.500	0.0160824
664.578	0.0159377
664.656	0.0160568
664.734	0.0160572
664.812	0.0160616
664.890	0.0161006
664.968	0.0160403
665.047	0.0160652
665.125	0.0160112
665.203	0.0160318
665.281	0.0161214
665.359	0.0159994
665.437	0.0159996
665.515	0.0160532
665.593	0.0159988
665.672	0.0160155
665.750	0.0160603
665.828	0.0161246
665.906	0.0159466
665.984	0.0160357
666.062	0.0159380
666.140	0.0161183
666.218	0.0160004
666.297	0.0160101
666.375	0.0159865
666.453	0.0160044
666.531	0.0159988
666.609	0.0159830
666.687	0.0161337
666.765	0.0160298
666.843	0.0160414
666.922	0.0160548
667.000	0.0160313
667.078	0.0158990
667.156	0.0160085
667.234	0.0159817
667.312	0.0159555
667.390	0.0161024
667.468	0.0160197
667.547	0.0159999
667.625	0.0161193
667.703	0.0161077
667.781	0.0161110
667.859	0.0161081
667.937	0.0161660
668.015	0.0161716
668.093	0.0159955
668.172	0.0160036
668.250	0.0160439
668.328	0.0159278
668.406	0.0160260
668.484	0.0160949
668.562	0.0159776
668.640	0.0161079
668.718	0.0159624
668.797	0.0160687
668.875	0.0159991
668.953	0.0160395
669.031	0.0160416
669.109	0.0159548
669.187	0.0159268
669.265	0.0160544
669.343	0.0161890
669.422	0.0160568
669.500	0.0161610
669.578	0.0160431
669.656	0.0160887
669.734	0.0159674
669.812	0.0159758
669.890	0.0159740
669.968	0.0161315
670.047	0.0160245
670.125	0.0159019
670.203	0.0159745
670.281	0.0159367
670.359	0.0160356
670.437	0.0158831
670.515	0.0161638
670.593	0.0161187
670.672	0.0160567
670.750	0.0159502
670.828	0.0161478
670.906	0.0159531
670.984	0.0159740
671.062	0.0160838
671.140	0.0161238
671.218	0.0159923
671.297	0.0160238
671.375	0.0160868
671.453	0.0160362
671.531	0.0161414
671.609	0.0160023
671.687	0.0159694
671.765	0.0160973
671.843	0.0161280
671.922	0.0161372
672.000	0.0160700
672.078	0.0158884
672.156	0.0160354
672.234	0.0160477
672.312	0.0159815
672.390	0.0160211
672.468	0.0161479
672.547	0.0160709
672.625	0.0160386
672.703	0.0160336
672.781	0.0160361
672.859	0.0160391
672.937	0.0160120
673.015	0.0161099
673.093	0.0161078
673.172	0.0160599
673.250	0.0158956
673.328	0.0159553
673.406	0.0159934
673.484	0.0159649
673.562	0.0159885
673.640	0.0160566
673.718	0.0159959
673.797	0.0160173
673.875	0.0160084
673.953	0.0160319
674.031	0.0160716
674.109	0.0160026
674.187	0.0160323
674.265	0.0160305
674.343	0.0160428
674.422	0.0159574
674.500	0.0159208
674.578	0.0161974
674.656	0.0159600
674.734	0.0160214
674.812	0.0160356
674.890	0.0159985
674.968	0.0159858
675.047	0.0158374
675.125	0.0158234
675.203	0.0159292
675.281	0.0161098
675.359	0.0160882
675.437	0.0160353
675.515	0.0160395
675.593	0.0159819
675.672	0.0160738
675.750	0.0159769
675.828	0.0159808
675.906	0.0161057
675.984	0.0161250
676.062	0.0158968
676.140	0.0159380
676.218	0.0159961
676.297	0.0160809
676.375	0.0160689
676.453	0.0160674
676.531	0.0161522
676.609	0.0160460
676.687	0.0161281
676.765	0.0159464
676.843	0.0160516
676.922	0.0160938
677.000	0.0160689
677.078	0.0159383
677.156	0.0161127
677.234	0.0159592
677.312	0.0158776
677.390	0.0160791
677.468	0.0160652
677.547	0.0160670
677.625	0.0159148
677.703	0.0160793
677.781	0.0159040
677.859	0.0160452
677.937	0.0159822
678.015	0.0160130
678.093	0.0160912
678.172	0.0160004
678.250	0.0159018
678.328	0.0160262
678.406	0.0159583
678.484	0.0160695
678.562	0.0160818
678.640	0.0159602
678.718	0.0160297
678.797	0.0162248
678.875	0.0159644
678.953	0.0159267
679.031	0.0160419
679.109	0.0160733
679.187	0.0160616
679.265	0.0159451
679.343	0.0159569
679.422	0.0160619
679.500	0.0159587
679.578	0.0159170
679.656	0.0159949
679.734	0.0160975
679.812	0.0160712
679.890	0.0160741
679.968	0.0159836
680.047	0.0160015
680.125	0.0160441
680.203	0.0160152
680.281	0.0160906
680.359	0.0160388
680.437	0.0160149
680.515	0.0159513
680.593	0.0160490
680.672	0.0159749
680.750	0.0160623
680.828	0.0160312
680.906	0.0160285
680.984	0.0159180
681.062	0.0160426
681.140	0.0159331
681.218	0.0160369
681.297	0.0160562
681.375	0.0159599
681.453	0.0161458
681.531	0.0160071
681.609	0.0160190
681.687	0.0160892
681.765	0.0159921
681.843	0.0160886
681.922	0.0158994
682.000	0.0160517
682.078	0.0160892
682.156	0.0160374
682.234	0.0160551
682.312	0.0161086
682.390	0.0160279
682.468	0.0160746
682.547	0.0160165
682.625	0.0160784
682.703	0.0162043
682.781	0.0159481
682.859	0.0159754
682.937	0.0161189
683.015	0.0160317
683.093	0.0160507
683.172	0.0160669
683.250	0.0160446
683.328	0.0159630
683.406	0.0159816
683.484	0.0160757
683.562	0.0160688
683.640	0.0160938
683.718	0.0160240
683.797	0.0159006
683.875	0.0160703
683.953	0.0160249
684.031	0.0159840
684.109	0.0159982
684.187	0.0161713
684.265	0.0158693
684.343	0.0159338
684.422	0.0160590
684.500	0.0160571
684.578	0.0159719
684.656	0.0159637
684.734	0.0161089
684.812	0.0159593
684.890	0.0159976
684.968	0.0161509
685.047	0.0159858
685.125	0.0160602
685.203	0.0159870
685.281	0.0159161
685.359	0.0161048
685.437	0.0159086
685.515	0.0159329
685.593	0.0160826
685.672	0.0159746
