06/13/2022	14:52:08	Ver.	4.1	UNKNOWN
Optical Delay	599.968395	Delta X		0.078125	Sweeps	1	Scan Rate	0/0
Coordinates	Axis 1	NaN	Axis 2	NaN	Axis 3	NaN	Axis 4	NaN	Axis 5	NaN	Axis 6	0.000000
TX Power	0.000000	RX Power	0.000000

599.968	0.0157317
600.047	0.0155360
600.125	0.0154951
600.203	0.0156830
600.281	0.0155522
600.359	0.0154237
600.437	0.0154207
600.515	0.0155105
600.593	0.0155765
600.672	0.0155856
600.750	0.0155873
600.828	0.0155126
600.906	0.0155408
600.984	0.0155472
601.062	0.0155737
601.140	0.0155500
601.218	0.0156294
601.297	0.0157278
601.375	0.0155349
601.453	0.0156374
601.531	0.0156869
601.609	0.0157000
601.687	0.0156210
601.765	0.0154977
601.843	0.0156359
601.922	0.0156074
602.000	0.0155444
602.078	0.0155346
602.156	0.0155984
602.234	0.0157131
602.312	0.0156862
602.390	0.0157287
602.468	0.0156916
602.547	0.0156429
602.625	0.0156867
602.703	0.0157210
602.781	0.0155797
602.859	0.0156357
602.937	0.0157823
603.015	0.0157090
603.093	0.0156720
603.172	0.0156803
603.250	0.0157420
603.328	0.0156041
603.406	0.0156421
603.484	0.0157003
603.562	0.0157943
603.640	0.0157693
603.718	0.0156522
603.797	0.0156424
603.875	0.0157543
603.953	0.0156083
604.031	0.0156759
604.109	0.0156864
604.187	0.0156564
604.265	0.0157356
604.343	0.0156349
604.422	0.0156322
604.500	0.0157408
604.578	0.0156122
604.656	0.0156412
604.734	0.0156834
604.812	0.0156744
604.890	0.0156630
604.968	0.0155729
605.047	0.0155412
605.125	0.0157598
605.203	0.0155719
605.281	0.0156255
605.359	0.0155286
605.437	0.0155586
605.515	0.0155482
605.593	0.0156816
605.672	0.0156499
605.750	0.0157012
605.828	0.0156709
605.906	0.0155064
605.984	0.0156176
606.062	0.0157732
606.140	0.0156361
606.218	0.0155618
606.297	0.0156382
606.375	0.0156583
606.453	0.0157021
606.531	0.0157858
606.609	0.0156466
606.687	0.0156751
606.765	0.0156839
606.843	0.0155279
606.922	0.0156036
607.000	0.0157022
607.078	0.0155649
607.156	0.0157056
607.234	0.0156609
607.312	0.0156480
607.390	0.0156583
607.468	0.0156754
607.547	0.0157043
607.625	0.0156771
607.703	0.0158530
607.781	0.0157539
607.859	0.0157299
607.937	0.0156554
608.015	0.0157974
608.093	0.0157373
608.172	0.0156170
608.250	0.0158348
608.328	0.0157521
608.406	0.0157452
608.484	0.0158126
608.562	0.0157809
608.640	0.0158710
608.718	0.0159507
608.797	0.0157456
608.875	0.0158565
608.953	0.0158183
609.031	0.0158838
609.109	0.0160496
609.187	0.0159355
609.265	0.0159260
609.343	0.0158744
609.422	0.0159850
609.500	0.0158697
609.578	0.0158819
609.656	0.0158930
609.734	0.0159806
609.812	0.0158727
609.890	0.0158361
609.968	0.0160197
610.047	0.0159406
610.125	0.0158952
610.203	0.0157440
610.281	0.0159438
610.359	0.0158797
610.437	0.0159534
610.515	0.0159846
610.593	0.0159180
610.672	0.0158933
610.750	0.0158560
610.828	0.0158586
610.906	0.0159487
610.984	0.0159298
611.062	0.0159186
611.140	0.0159686
611.218	0.0159026
611.297	0.0157685
611.375	0.0157703
611.453	0.0158714
611.531	0.0159034
611.609	0.0159212
611.687	0.0159344
611.765	0.0159499
611.843	0.0160439
611.922	0.0158221
612.000	0.0159132
612.078	0.0158940
612.156	0.0158315
612.234	0.0158199
612.312	0.0158170
612.390	0.0157875
612.468	0.0158858
612.547	0.0159726
612.625	0.0157936
612.703	0.0157921
612.781	0.0158926
612.859	0.0158416
612.937	0.0158599
613.015	0.0157729
613.093	0.0158406
613.172	0.0157308
613.250	0.0159358
613.328	0.0158234
613.406	0.0158517
613.484	0.0158685
613.562	0.0157692
613.640	0.0158654
613.718	0.0158381
613.797	0.0159384
613.875	0.0157883
613.953	0.0157786
614.031	0.0158540
614.109	0.0158376
614.187	0.0158868
614.265	0.0159034
614.343	0.0157622
614.422	0.0158067
614.500	0.0158171
614.578	0.0159090
614.656	0.0158430
614.734	0.0158604
614.812	0.0156339
614.890	0.0157590
614.968	0.0157956
615.047	0.0157970
615.125	0.0158089
615.203	0.0158308
615.281	0.0157975
615.359	0.0157119
615.437	0.0158643
615.515	0.0158418
615.593	0.0158255
615.672	0.0159100
615.750	0.0159021
615.828	0.0158659
615.906	0.0158689
615.984	0.0158048
616.062	0.0157799
616.140	0.0159045
616.218	0.0157951
616.297	0.0156936
616.375	0.0159146
616.453	0.0159926
616.531	0.0158339
616.609	0.0159987
616.687	0.0158463
616.765	0.0156902
616.843	0.0158552
616.922	0.0159084
617.000	0.0158472
617.078	0.0158894
617.156	0.0157521
617.234	0.0158722
617.312	0.0159180
617.390	0.0157355
617.468	0.0157732
617.547	0.0159191
617.625	0.0158303
617.703	0.0158960
617.781	0.0159338
617.859	0.0158410
617.937	0.0158773
618.015	0.0158098
618.093	0.0157132
618.172	0.0156980
618.250	0.0158494
618.328	0.0157201
618.406	0.0157963
618.484	0.0158676
618.562	0.0158092
618.640	0.0156728
618.718	0.0158545
618.797	0.0157433
618.875	0.0157467
618.953	0.0157701
619.031	0.0157850
619.109	0.0158476
619.187	0.0157076
619.265	0.0156899
619.343	0.0157630
619.422	0.0159084
619.500	0.0157569
619.578	0.0159581
619.656	0.0157375
619.734	0.0159075
619.812	0.0157384
619.890	0.0157980
619.968	0.0157500
620.047	0.0156107
620.125	0.0157677
620.203	0.0157520
620.281	0.0157054
620.359	0.0156656
620.437	0.0157947
620.515	0.0156743
620.593	0.0158119
620.672	0.0156158
620.750	0.0155801
620.828	0.0156203
620.906	0.0157116
620.984	0.0156488
621.062	0.0155414
621.140	0.0157154
621.218	0.0155810
621.297	0.0155236
621.375	0.0155816
621.453	0.0156701
621.531	0.0155817
621.609	0.0156922
621.687	0.0156734
621.765	0.0156039
621.843	0.0156638
621.922	0.0155554
622.000	0.0154560
622.078	0.0155621
622.156	0.0156470
622.234	0.0156577
622.312	0.0154706
622.390	0.0155782
622.468	0.0155659
622.547	0.0155053
622.625	0.0155007
622.703	0.0156151
622.781	0.0155781
622.859	0.0156947
622.937	0.0156734
623.015	0.0156311
623.093	0.0155144
623.172	0.0156508
623.250	0.0156085
623.328	0.0157150
623.406	0.0155931
623.484	0.0156135
623.562	0.0157394
623.640	0.0156618
623.718	0.0155193
623.797	0.0155215
623.875	0.0155997
623.953	0.0156723
624.031	0.0156957
624.109	0.0156250
624.187	0.0155887
624.265	0.0155933
624.343	0.0155122
624.422	0.0155943
624.500	0.0155569
624.578	0.0154501
624.656	0.0155888
624.734	0.0157263
624.812	0.0157202
624.890	0.0156808
624.968	0.0156264
625.047	0.0156720
625.125	0.0155544
625.203	0.0156091
625.281	0.0155981
625.359	0.0156470
625.437	0.0156171
625.515	0.0156243
625.593	0.0155291
625.672	0.0156271
625.750	0.0157310
625.828	0.0156083
625.906	0.0155665
625.984	0.0155955
626.062	0.0154810
626.140	0.0155692
626.218	0.0156210
626.297	0.0155703
626.375	0.0156515
626.453	0.0156967
626.531	0.0156487
626.609	0.0155905
626.687	0.0155176
626.765	0.0156068
626.843	0.0156339
626.922	0.0155041
627.000	0.0156622
627.078	0.0156691
627.156	0.0155339
627.234	0.0155466
627.312	0.0156908
627.390	0.0156488
627.468	0.0156884
627.547	0.0156107
627.625	0.0156039
627.703	0.0156652
627.781	0.0156144
627.859	0.0155354
627.937	0.0156089
628.015	0.0155730
628.093	0.0155678
628.172	0.0157368
628.250	0.0157249
628.328	0.0157604
628.406	0.0156174
628.484	0.0156002
628.562	0.0157315
628.640	0.0157042
628.718	0.0156079
628.797	0.0158494
628.875	0.0157191
628.953	0.0155839
629.031	0.0157487
629.109	0.0157938
629.187	0.0156429
629.265	0.0156767
629.343	0.0157880
629.422	0.0156725
629.500	0.0158565
629.578	0.0157032
629.656	0.0157305
629.734	0.0155883
629.812	0.0156666
629.890	0.0157226
629.968	0.0156239
630.047	0.0157751
630.125	0.0158150
630.203	0.0157121
630.281	0.0157548
630.359	0.0157592
630.437	0.0158346
630.515	0.0158146
630.593	0.0157721
630.672	0.0157852
630.750	0.0156687
630.828	0.0158358
630.906	0.0158723
630.984	0.0158493
631.062	0.0158614
631.140	0.0157312
631.218	0.0158235
631.297	0.0158287
631.375	0.0157382
631.453	0.0156603
631.531	0.0157973
631.609	0.0158497
631.687	0.0158233
631.765	0.0157030
631.843	0.0157331
631.922	0.0157800
632.000	0.0157262
632.078	0.0158484
632.156	0.0157888
632.234	0.0158311
632.312	0.0159002
632.390	0.0158655
632.468	0.0157700
632.547	0.0156949
632.625	0.0156884
632.703	0.0158531
632.781	0.0157986
632.859	0.0156982
632.937	0.0158519
633.015	0.0159367
633.093	0.0157906
633.172	0.0158335
633.250	0.0158671
633.328	0.0159271
633.406	0.0157689
633.484	0.0158767
633.562	0.0158713
633.640	0.0157449
633.718	0.0158193
633.797	0.0159198
633.875	0.0158340
633.953	0.0158349
634.031	0.0157302
634.109	0.0157246
634.187	0.0158385
634.265	0.0159024
634.343	0.0158198
634.422	0.0157819
634.500	0.0158254
634.578	0.0159212
634.656	0.0157732
634.734	0.0159061
634.812	0.0158884
634.890	0.0158189
634.968	0.0157227
635.047	0.0158361
635.125	0.0157151
635.203	0.0156665
635.281	0.0157057
635.359	0.0157124
635.437	0.0157796
635.515	0.0157397
635.593	0.0158229
635.672	0.0159961
635.750	0.0157364
635.828	0.0157354
635.906	0.0157641
635.984	0.0158414
636.062	0.0158933
636.140	0.0156999
636.218	0.0157732
636.297	0.0158318
636.375	0.0157108
636.453	0.0156842
636.531	0.0157394
636.609	0.0157476
636.687	0.0157280
636.765	0.0158156
636.843	0.0157683
636.922	0.0157765
637.000	0.0159529
637.078	0.0156620
637.156	0.0158114
637.234	0.0157764
637.312	0.0157771
637.390	0.0158295
637.468	0.0158279
637.547	0.0157972
637.625	0.0157615
637.703	0.0157961
637.781	0.0157339
637.859	0.0156454
637.937	0.0157284
638.015	0.0156657
638.093	0.0157638
638.172	0.0158401
638.250	0.0158431
638.328	0.0157053
638.406	0.0158266
638.484	0.0158510
638.562	0.0158911
638.640	0.0158926
638.718	0.0158870
638.797	0.0158036
638.875	0.0157579
638.953	0.0158117
639.031	0.0158244
639.109	0.0157971
639.187	0.0157635
639.265	0.0157645
639.343	0.0158904
639.422	0.0157340
639.500	0.0157843
639.578	0.0158404
639.656	0.0157644
639.734	0.0158553
639.812	0.0156797
639.890	0.0157085
639.968	0.0158491
640.047	0.0158669
640.125	0.0157282
640.203	0.0157632
640.281	0.0157097
640.359	0.0156370
640.437	0.0157063
640.515	0.0157460
640.593	0.0157311
640.672	0.0157023
640.750	0.0157498
640.828	0.0156474
640.906	0.0155825
640.984	0.0156830
641.062	0.0157182
641.140	0.0157534
641.218	0.0158981
641.297	0.0156998
641.375	0.0155903
641.453	0.0156918
641.531	0.0158315
641.609	0.0156823
641.687	0.0158630
641.765	0.0156091
641.843	0.0155713
641.922	0.0156440
642.000	0.0157526
642.078	0.0156167
642.156	0.0157533
642.234	0.0157033
642.312	0.0157619
642.390	0.0156329
642.468	0.0157056
642.547	0.0155305
642.625	0.0156906
642.703	0.0157785
642.781	0.0157910
642.859	0.0156873
642.937	0.0157137
643.015	0.0157327
643.093	0.0157087
643.172	0.0157133
643.250	0.0156511
643.328	0.0157866
643.406	0.0157819
643.484	0.0157316
643.562	0.0157582
643.640	0.0157032
643.718	0.0157490
643.797	0.0156931
643.875	0.0158015
643.953	0.0157656
644.031	0.0157024
644.109	0.0158018
644.187	0.0156432
644.265	0.0155870
644.343	0.0156835
644.422	0.0157780
644.500	0.0157601
644.578	0.0156910
644.656	0.0158315
644.734	0.0157181
644.812	0.0157690
644.890	0.0156501
644.968	0.0157471
645.047	0.0155708
645.125	0.0157210
645.203	0.0158625
645.281	0.0157091
645.359	0.0156483
645.437	0.0155993
645.515	0.0156667
645.593	0.0156506
645.672	0.0158241
645.750	0.0156341
645.828	0.0158691
645.906	0.0156921
645.984	0.0155968
646.062	0.0156086
646.140	0.0157610
646.218	0.0157537
646.297	0.0156326
646.375	0.0156013
646.453	0.0156371
646.531	0.0155849
646.609	0.0156886
646.687	0.0156910
646.765	0.0156088
646.843	0.0155898
646.922	0.0155672
647.000	0.0157191
647.078	0.0155581
647.156	0.0156783
647.234	0.0157614
647.312	0.0155941
647.390	0.0155693
647.468	0.0156094
647.547	0.0156390
647.625	0.0158633
647.703	0.0155911
647.781	0.0155686
647.859	0.0156829
647.937	0.0156886
648.015	0.0155330
648.093	0.0156287
648.172	0.0155374
648.250	0.0157671
648.328	0.0154982
648.406	0.0154691
648.484	0.0156793
648.562	0.0156864
648.640	0.0155193
648.718	0.0155785
648.797	0.0155717
648.875	0.0156718
648.953	0.0156459
649.031	0.0156220
649.109	0.0156502
649.187	0.0156879
649.265	0.0156542
649.343	0.0157131
649.422	0.0157448
649.500	0.0156918
649.578	0.0155524
649.656	0.0156268
649.734	0.0156664
649.812	0.0157128
649.890	0.0155656
649.968	0.0156833
650.047	0.0158004
650.125	0.0156654
650.203	0.0157504
650.281	0.0157574
650.359	0.0156956
650.437	0.0157089
650.515	0.0156976
650.593	0.0157203
650.672	0.0158050
650.750	0.0155562
650.828	0.0156465
650.906	0.0156613
650.984	0.0157372
651.062	0.0156875
651.140	0.0157061
651.218	0.0155969
651.297	0.0156129
651.375	0.0156875
651.453	0.0156403
651.531	0.0157485
651.609	0.0155358
651.687	0.0156697
651.765	0.0156284
651.843	0.0157767
651.922	0.0156335
652.000	0.0156670
652.078	0.0158244
652.156	0.0157328
652.234	0.0157632
652.312	0.0157591
652.390	0.0157666
652.468	0.0156744
652.547	0.0157973
652.625	0.0156840
652.703	0.0156336
652.781	0.0157104
652.859	0.0158258
652.937	0.0157948
653.015	0.0157475
653.093	0.0156741
653.172	0.0157256
653.250	0.0156873
653.328	0.0156948
653.406	0.0157716
653.484	0.0158225
653.562	0.0157700
653.640	0.0156806
653.718	0.0157579
653.797	0.0157623
653.875	0.0156250
653.953	0.0156935
654.031	0.0157471
654.109	0.0157046
654.187	0.0157298
654.265	0.0157540
654.343	0.0157319
654.422	0.0157961
654.500	0.0157021
654.578	0.0156491
654.656	0.0157993
654.734	0.0157319
654.812	0.0157202
654.890	0.0156297
654.968	0.0156512
655.047	0.0156289
655.125	0.0156944
655.203	0.0155903
655.281	0.0157083
655.359	0.0156892
655.437	0.0156848
655.515	0.0157032
655.593	0.0157226
655.672	0.0158292
655.750	0.0159160
655.828	0.0157952
655.906	0.0158169
655.984	0.0156396
656.062	0.0158241
656.140	0.0157223
656.218	0.0159232
656.297	0.0157676
656.375	0.0157345
656.453	0.0157357
656.531	0.0157693
656.609	0.0158727
656.687	0.0157014
656.765	0.0156680
656.843	0.0158045
656.922	0.0157598
657.000	0.0157944
657.078	0.0156494
657.156	0.0157189
657.234	0.0157413
657.312	0.0156841
657.390	0.0158268
657.468	0.0158131
657.547	0.0156949
657.625	0.0157370
657.703	0.0158117
657.781	0.0158185
657.859	0.0157107
657.937	0.0157059
658.015	0.0158510
658.093	0.0157706
658.172	0.0158894
658.250	0.0159784
658.328	0.0158704
658.406	0.0157098
658.484	0.0157712
658.562	0.0159131
658.640	0.0158397
658.718	0.0157888
658.797	0.0157652
658.875	0.0157513
658.953	0.0158158
659.031	0.0158005
659.109	0.0159111
659.187	0.0157861
659.265	0.0157130
659.343	0.0159274
659.422	0.0157640
659.500	0.0158150
659.578	0.0158539
659.656	0.0158183
659.734	0.0157133
659.812	0.0158572
659.890	0.0158517
659.968	0.0159217
660.047	0.0158911
660.125	0.0159335
660.203	0.0157497
660.281	0.0158546
660.359	0.0159234
660.437	0.0157187
660.515	0.0159425
660.593	0.0157940
660.672	0.0157539
660.750	0.0156998
660.828	0.0157796
660.906	0.0158408
660.984	0.0156886
661.062	0.0158195
661.140	0.0158663
661.218	0.0157013
661.297	0.0157638
661.375	0.0158887
661.453	0.0158444
661.531	0.0157825
661.609	0.0156554
661.687	0.0157362
661.765	0.0159215
661.843	0.0157313
661.922	0.0156438
662.000	0.0158273
662.078	0.0156940
662.156	0.0157553
662.234	0.0158022
662.312	0.0157570
662.390	0.0157680
662.468	0.0156705
662.547	0.0157493
662.625	0.0158605
662.703	0.0158123
662.781	0.0157748
662.859	0.0158241
662.937	0.0157276
663.015	0.0157408
663.093	0.0157195
663.172	0.0158022
663.250	0.0156857
663.328	0.0155991
663.406	0.0157597
663.484	0.0157754
663.562	0.0156943
663.640	0.0157468
663.718	0.0158012
663.797	0.0156702
663.875	0.0156395
663.953	0.0156139
664.031	0.0158440
664.109	0.0157974
664.187	0.0157561
664.265	0.0157899
664.343	0.0156860
664.422	0.0157151
664.500	0.0157223
664.578	0.0157365
664.656	0.0157316
664.734	0.0157088
664.812	0.0158163
664.890	0.0157200
664.968	0.0157923
665.047	0.0157895
665.125	0.0156973
665.203	0.0156036
665.281	0.0158583
665.359	0.0157762
665.437	0.0157022
665.515	0.0157706
665.593	0.0158229
665.672	0.0156993
665.750	0.0158459
665.828	0.0157330
665.906	0.0157239
665.984	0.0157594
666.062	0.0157355
666.140	0.0158026
666.218	0.0157896
666.297	0.0158203
666.375	0.0157124
666.453	0.0156467
666.531	0.0155071
666.609	0.0157255
666.687	0.0157187
666.765	0.0157330
666.843	0.0157114
666.922	0.0156207
667.000	0.0155991
667.078	0.0158050
667.156	0.0158558
667.234	0.0156051
667.312	0.0156834
667.390	0.0157726
667.468	0.0157188
667.547	0.0156675
667.625	0.0156284
667.703	0.0157890
667.781	0.0156155
667.859	0.0156781
667.937	0.0157230
668.015	0.0156753
668.093	0.0157711
668.172	0.0156164
668.250	0.0157907
668.328	0.0157198
668.406	0.0157280
668.484	0.0157645
668.562	0.0156957
668.640	0.0157446
668.718	0.0158243
668.797	0.0158260
668.875	0.0156763
668.953	0.0157649
669.031	0.0157558
669.109	0.0157124
669.187	0.0158503
669.265	0.0156681
669.343	0.0156805
669.422	0.0157497
669.500	0.0157145
669.578	0.0157796
669.656	0.0157449
669.734	0.0157336
669.812	0.0157206
669.890	0.0157806
669.968	0.0158385
670.047	0.0157005
670.125	0.0157225
670.203	0.0156647
670.281	0.0157436
670.359	0.0157793
670.437	0.0158315
670.515	0.0158736
670.593	0.0156567
670.672	0.0157619
670.750	0.0157803
670.828	0.0157061
670.906	0.0158099
670.984	0.0158925
671.062	0.0158028
671.140	0.0158748
671.218	0.0157923
671.297	0.0157852
671.375	0.0157919
671.453	0.0157526
671.531	0.0157729
671.609	0.0156721
671.687	0.0158895
671.765	0.0157190
671.843	0.0157993
671.922	0.0157471
672.000	0.0157283
672.078	0.0157867
672.156	0.0157898
672.234	0.0157005
672.312	0.0158057
672.390	0.0157915
672.468	0.0156448
672.547	0.0157194
672.625	0.0157226
672.703	0.0157109
672.781	0.0157580
672.859	0.0157493
672.937	0.0158829
673.015	0.0158404
673.093	0.0158929
673.172	0.0158289
673.250	0.0156734
673.328	0.0157994
673.406	0.0159094
673.484	0.0158898
673.562	0.0157746
673.640	0.0158076
673.718	0.0157670
673.797	0.0158607
673.875	0.0157341
673.953	0.0157433
674.031	0.0158158
674.109	0.0158224
674.187	0.0158270
674.265	0.0159396
674.343	0.0159171
674.422	0.0157609
674.500	0.0158093
674.578	0.0157933
674.656	0.0159606
674.734	0.0159164
674.812	0.0157484
674.890	0.0156767
674.968	0.0158379
675.047	0.0158259
675.125	0.0157355
675.203	0.0157710
675.281	0.0158061
675.359	0.0156868
675.437	0.0156622
675.515	0.0158017
675.593	0.0157236
675.672	0.0156647
675.750	0.0158390
675.828	0.0157644
675.906	0.0158385
675.984	0.0158868
676.062	0.0158804
676.140	0.0156886
676.218	0.0159278
676.297	0.0158345
676.375	0.0158272
676.453	0.0156885
676.531	0.0158257
676.609	0.0158102
676.687	0.0157677
676.765	0.0158171
676.843	0.0157215
676.922	0.0158411
677.000	0.0159609
677.078	0.0160361
677.156	0.0158087
677.234	0.0158257
677.312	0.0157339
677.390	0.0157391
677.468	0.0156143
677.547	0.0159909
677.625	0.0158688
677.703	0.0156726
677.781	0.0156612
677.859	0.0156187
677.937	0.0157738
678.015	0.0159576
678.093	0.0157859
678.172	0.0156984
678.250	0.0157933
678.328	0.0159428
678.406	0.0156792
678.484	0.0157224
678.562	0.0157269
678.640	0.0156722
678.718	0.0157931
678.797	0.0157192
678.875	0.0157462
678.953	0.0157319
679.031	0.0158012
679.109	0.0159092
679.187	0.0157025
679.265	0.0156956
679.343	0.0158886
679.422	0.0157467
679.500	0.0157402
679.578	0.0157990
679.656	0.0157896
679.734	0.0157912
679.812	0.0157873
679.890	0.0158295
679.968	0.0157573
680.047	0.0156245
680.125	0.0157639
680.203	0.0157547
680.281	0.0156870
680.359	0.0158088
680.437	0.0158153
680.515	0.0156570
680.593	0.0157907
680.672	0.0156797
680.750	0.0156467
680.828	0.0157759
680.906	0.0157308
680.984	0.0157986
681.062	0.0156687
681.140	0.0156693
681.218	0.0156209
681.297	0.0156564
681.375	0.0156567
681.453	0.0158144
681.531	0.0158484
681.609	0.0157028
681.687	0.0157754
681.765	0.0157754
681.843	0.0157118
681.922	0.0156876
682.000	0.0156781
682.078	0.0157118
682.156	0.0157361
682.234	0.0157468
682.312	0.0155643
682.390	0.0156631
682.468	0.0156992
682.547	0.0156234
682.625	0.0156217
682.703	0.0157178
682.781	0.0156596
682.859	0.0157206
682.937	0.0156492
683.015	0.0158567
683.093	0.0157611
683.172	0.0156799
683.250	0.0157405
683.328	0.0157217
683.406	0.0156155
683.484	0.0156080
683.562	0.0156210
683.640	0.0156892
683.718	0.0157710
683.797	0.0157320
683.875	0.0157414
683.953	0.0158221
684.031	0.0156225
684.109	0.0155670
684.187	0.0158311
684.265	0.0155827
684.343	0.0156135
684.422	0.0156950
684.500	0.0158334
684.578	0.0157778
684.656	0.0156889
684.734	0.0157500
684.812	0.0156507
684.890	0.0155334
684.968	0.0157690
685.047	0.0158623
685.125	0.0156999
685.203	0.0157882
685.281	0.0157602
685.359	0.0157735
685.437	0.0158382
685.515	0.0157867
685.593	0.0158144
685.672	0.0156139
