06/13/2022	14:52:28	Ver.	4.1	UNKNOWN
Optical Delay	599.968395	Delta X		0.078125	Sweeps	1	Scan Rate	0/0
Coordinates	Axis 1	NaN	Axis 2	NaN	Axis 3	NaN	Axis 4	NaN	Axis 5	NaN	Axis 6	0.000000
TX Power	0.000000	RX Power	0.000000

599.968	0.0159379
600.047	0.0160268
600.125	0.0159411
600.203	0.0158810
600.281	0.0158364
600.359	0.0159232
600.437	0.0159114
600.515	0.0158333
600.593	0.0157270
600.672	0.0158704
600.750	0.0159369
600.828	0.0158356
600.906	0.0158269
600.984	0.0157254
601.062	0.0158990
601.140	0.0159131
601.218	0.0159007
601.297	0.0157625
601.375	0.0157478
601.453	0.0159578
601.531	0.0159278
601.609	0.0158526
601.687	0.0159867
601.765	0.0157272
601.843	0.0160091
601.922	0.0158060
602.000	0.0158719
602.078	0.0159473
602.156	0.0160146
602.234	0.0159883
602.312	0.0158733
602.390	0.0159563
602.468	0.0159281
602.547	0.0160810
602.625	0.0160496
602.703	0.0159599
602.781	0.0159467
602.859	0.0160783
602.937	0.0160269
603.015	0.0159319
603.093	0.0160622
603.172	0.0160574
603.250	0.0159900
603.328	0.0159679
603.406	0.0160741
603.484	0.0159950
603.562	0.0159209
603.640	0.0161191
603.718	0.0161089
603.797	0.0160622
603.875	0.0159689
603.953	0.0160572
604.031	0.0161765
604.109	0.0160858
604.187	0.0160979
604.265	0.0162025
604.343	0.0161161
604.422	0.0161700
604.500	0.0162066
604.578	0.0161460
604.656	0.0161868
604.734	0.0161686
604.812	0.0162959
604.890	0.0162671
604.968	0.0161689
605.047	0.0161163
605.125	0.0162017
605.203	0.0162185
605.281	0.0161853
605.359	0.0162808
605.437	0.0161324
605.515	0.0160857
605.593	0.0161343
605.672	0.0161349
605.750	0.0160806
605.828	0.0163007
605.906	0.0163362
605.984	0.0162493
606.062	0.0159548
606.140	0.0162318
606.218	0.0162897
606.297	0.0161994
606.375	0.0161285
606.453	0.0161740
606.531	0.0161344
606.609	0.0162350
606.687	0.0161792
606.765	0.0161162
606.843	0.0161166
606.922	0.0161118
607.000	0.0162011
607.078	0.0161658
607.156	0.0161550
607.234	0.0160924
607.312	0.0160693
607.390	0.0161248
607.468	0.0163326
607.547	0.0162020
607.625	0.0162010
607.703	0.0160739
607.781	0.0161605
607.859	0.0160714
607.937	0.0162052
608.015	0.0161258
608.093	0.0161402
608.172	0.0160709
608.250	0.0161956
608.328	0.0160096
608.406	0.0161403
608.484	0.0161604
608.562	0.0161148
608.640	0.0160709
608.718	0.0162365
608.797	0.0160841
608.875	0.0161191
608.953	0.0161766
609.031	0.0159830
609.109	0.0159404
609.187	0.0160508
609.265	0.0160044
609.343	0.0161667
609.422	0.0160795
609.500	0.0159019
609.578	0.0161841
609.656	0.0161126
609.734	0.0161213
609.812	0.0161624
609.890	0.0161063
609.968	0.0160753
610.047	0.0161178
610.125	0.0160520
610.203	0.0160978
610.281	0.0159708
610.359	0.0160882
610.437	0.0161838
610.515	0.0161105
610.593	0.0158660
610.672	0.0161727
610.750	0.0161775
610.828	0.0160406
610.906	0.0159826
610.984	0.0161967
611.062	0.0161111
611.140	0.0161661
611.218	0.0160519
611.297	0.0160298
611.375	0.0160049
611.453	0.0161732
611.531	0.0161868
611.609	0.0161149
611.687	0.0161406
611.765	0.0160686
611.843	0.0161523
611.922	0.0162152
612.000	0.0160743
612.078	0.0160039
612.156	0.0161310
612.234	0.0161832
612.312	0.0161662
612.390	0.0160075
612.468	0.0161483
612.547	0.0161289
612.625	0.0161133
612.703	0.0161510
612.781	0.0161444
612.859	0.0160358
612.937	0.0161327
613.015	0.0160217
613.093	0.0161636
613.172	0.0161992
613.250	0.0161537
613.328	0.0160357
613.406	0.0161501
613.484	0.0161181
613.562	0.0160123
613.640	0.0161469
613.718	0.0160164
613.797	0.0160592
613.875	0.0160686
613.953	0.0160892
614.031	0.0162190
614.109	0.0159532
614.187	0.0160413
614.265	0.0161893
614.343	0.0160912
614.422	0.0160819
614.500	0.0161423
614.578	0.0159649
614.656	0.0159557
614.734	0.0161127
614.812	0.0161125
614.890	0.0161086
614.968	0.0160037
615.047	0.0160616
615.125	0.0161344
615.203	0.0161141
615.281	0.0159707
615.359	0.0160352
615.437	0.0159570
615.515	0.0159988
615.593	0.0160718
615.672	0.0161471
615.750	0.0160685
615.828	0.0159356
615.906	0.0158504
615.984	0.0159742
616.062	0.0159494
616.140	0.0158727
616.218	0.0159814
616.297	0.0159199
616.375	0.0158007
616.453	0.0158807
616.531	0.0160439
616.609	0.0159000
616.687	0.0157542
616.765	0.0159121
616.843	0.0158488
616.922	0.0158463
617.000	0.0159975
617.078	0.0159026
617.156	0.0158617
617.234	0.0158629
617.312	0.0158326
617.390	0.0159578
617.468	0.0159492
617.547	0.0157361
617.625	0.0158334
617.703	0.0160485
617.781	0.0159734
617.859	0.0159403
617.937	0.0158929
618.015	0.0159372
618.093	0.0158671
618.172	0.0158938
618.250	0.0159628
618.328	0.0159413
618.406	0.0159692
618.484	0.0159420
618.562	0.0158926
618.640	0.0159695
618.718	0.0160397
618.797	0.0158592
618.875	0.0159989
618.953	0.0158276
619.031	0.0159663
619.109	0.0160382
619.187	0.0157880
619.265	0.0159531
619.343	0.0157428
619.422	0.0159476
619.500	0.0158961
619.578	0.0158675
619.656	0.0157435
619.734	0.0158851
619.812	0.0158106
619.890	0.0159612
619.968	0.0158404
620.047	0.0158402
620.125	0.0158073
620.203	0.0159194
620.281	0.0158878
620.359	0.0158724
620.437	0.0158783
620.515	0.0159704
620.593	0.0157487
620.672	0.0157402
620.750	0.0158461
620.828	0.0160697
620.906	0.0158112
620.984	0.0157442
621.062	0.0159560
621.140	0.0158377
621.218	0.0158678
621.297	0.0158215
621.375	0.0158729
621.453	0.0159209
621.531	0.0160735
621.609	0.0158231
621.687	0.0157970
621.765	0.0157565
621.843	0.0158068
621.922	0.0157961
622.000	0.0158510
622.078	0.0158504
622.156	0.0159155
622.234	0.0158269
622.312	0.0158823
622.390	0.0159959
622.468	0.0158540
622.547	0.0159189
622.625	0.0159347
622.703	0.0157343
622.781	0.0159016
622.859	0.0159407
622.937	0.0158633
623.015	0.0158380
623.093	0.0158605
623.172	0.0158768
623.250	0.0158263
623.328	0.0159058
623.406	0.0158787
623.484	0.0156748
623.562	0.0158467
623.640	0.0158189
623.718	0.0159517
623.797	0.0158274
623.875	0.0158466
623.953	0.0159838
624.031	0.0158353
624.109	0.0159519
624.187	0.0160295
624.265	0.0159255
624.343	0.0159298
624.422	0.0160062
624.500	0.0159888
624.578	0.0159291
624.656	0.0158324
624.734	0.0159331
624.812	0.0159991
624.890	0.0161213
624.968	0.0159392
625.047	0.0159420
625.125	0.0158900
625.203	0.0160448
625.281	0.0159695
625.359	0.0159730
625.437	0.0160844
625.515	0.0159968
625.593	0.0160336
625.672	0.0159740
625.750	0.0160071
625.828	0.0161151
625.906	0.0160317
625.984	0.0159814
626.062	0.0161287
626.140	0.0159173
626.218	0.0160138
626.297	0.0159846
626.375	0.0160739
626.453	0.0161571
626.531	0.0160611
626.609	0.0160822
626.687	0.0159637
626.765	0.0160865
626.843	0.0161292
626.922	0.0160549
627.000	0.0159687
627.078	0.0161064
627.156	0.0161128
627.234	0.0160652
627.312	0.0159651
627.390	0.0160004
627.468	0.0161296
627.547	0.0159076
627.625	0.0160062
627.703	0.0160027
627.781	0.0160732
627.859	0.0161793
627.937	0.0160890
628.015	0.0160326
628.093	0.0160915
628.172	0.0159875
628.250	0.0159620
628.328	0.0160547
628.406	0.0160658
628.484	0.0160800
628.562	0.0161492
628.640	0.0161806
628.718	0.0161360
628.797	0.0160605
628.875	0.0162323
628.953	0.0161610
629.031	0.0160126
629.109	0.0159632
629.187	0.0160851
629.265	0.0162137
629.343	0.0160611
629.422	0.0160705
629.500	0.0160547
629.578	0.0161018
629.656	0.0160396
629.734	0.0161076
629.812	0.0161897
629.890	0.0160490
629.968	0.0160207
630.047	0.0161118
630.125	0.0160202
630.203	0.0161319
630.281	0.0161461
630.359	0.0161305
630.437	0.0160490
630.515	0.0160494
630.593	0.0161388
630.672	0.0161245
630.750	0.0161530
630.828	0.0160800
630.906	0.0161230
630.984	0.0160502
631.062	0.0160748
631.140	0.0160213
631.218	0.0160369
631.297	0.0160471
631.375	0.0160671
631.453	0.0161887
631.531	0.0160603
631.609	0.0160214
631.687	0.0161777
631.765	0.0158830
631.843	0.0159184
631.922	0.0161672
632.000	0.0160350
632.078	0.0161623
632.156	0.0160204
632.234	0.0160654
632.312	0.0160542
632.390	0.0160838
632.468	0.0161108
632.547	0.0162110
632.625	0.0161407
632.703	0.0160818
632.781	0.0160038
632.859	0.0160806
632.937	0.0162393
633.015	0.0159441
633.093	0.0161102
633.172	0.0161163
633.250	0.0162275
633.328	0.0162646
633.406	0.0162159
633.484	0.0161312
633.562	0.0160966
633.640	0.0161723
633.718	0.0161329
633.797	0.0160868
633.875	0.0160496
633.953	0.0161340
634.031	0.0161311
634.109	0.0161192
634.187	0.0159693
634.265	0.0161385
634.343	0.0161596
634.422	0.0161070
634.500	0.0160426
634.578	0.0161462
634.656	0.0161667
634.734	0.0159925
634.812	0.0161285
634.890	0.0161114
634.968	0.0161544
635.047	0.0160876
635.125	0.0160159
635.203	0.0160064
635.281	0.0160648
635.359	0.0160989
635.437	0.0160863
635.515	0.0161507
635.593	0.0159721
635.672	0.0160116
635.750	0.0160731
635.828	0.0160030
635.906	0.0160484
635.984	0.0159732
636.062	0.0160619
636.140	0.0160323
636.218	0.0159145
636.297	0.0159869
636.375	0.0160639
636.453	0.0159598
636.531	0.0159144
636.609	0.0159306
636.687	0.0160655
636.765	0.0160500
636.843	0.0159601
636.922	0.0161129
637.000	0.0160683
637.078	0.0160004
637.156	0.0159573
637.234	0.0160258
637.312	0.0159568
637.390	0.0160041
637.468	0.0159086
637.547	0.0159569
637.625	0.0159113
637.703	0.0159361
637.781	0.0160419
637.859	0.0159650
637.937	0.0161043
638.015	0.0160468
638.093	0.0158861
638.172	0.0159575
638.250	0.0159573
638.328	0.0158736
638.406	0.0159781
638.484	0.0159582
638.562	0.0160526
638.640	0.0160386
638.718	0.0160371
638.797	0.0158936
638.875	0.0160595
638.953	0.0160363
639.031	0.0159779
639.109	0.0159914
639.187	0.0159351
639.265	0.0159541
639.343	0.0160452
639.422	0.0160173
639.500	0.0159754
639.578	0.0159786
639.656	0.0160428
639.734	0.0159069
639.812	0.0160139
639.890	0.0160536
639.968	0.0159402
640.047	0.0161327
640.125	0.0160767
640.203	0.0160511
640.281	0.0159866
640.359	0.0160116
640.437	0.0161273
640.515	0.0160336
640.593	0.0158121
640.672	0.0160007
640.750	0.0160879
640.828	0.0158808
640.906	0.0158139
640.984	0.0159998
641.062	0.0159670
641.140	0.0158620
641.218	0.0159512
641.297	0.0159325
641.375	0.0159452
641.453	0.0160499
641.531	0.0160262
641.609	0.0160590
641.687	0.0160205
641.765	0.0159150
641.843	0.0159948
641.922	0.0159583
642.000	0.0159668
642.078	0.0159114
642.156	0.0158381
642.234	0.0159560
642.312	0.0159976
642.390	0.0159307
642.468	0.0159789
642.547	0.0159209
642.625	0.0158587
642.703	0.0157831
642.781	0.0160227
642.859	0.0160115
642.937	0.0159615
643.015	0.0159538
643.093	0.0157940
643.172	0.0159235
643.250	0.0158655
643.328	0.0158057
643.406	0.0157417
643.484	0.0159267
643.562	0.0159357
643.640	0.0159752
643.718	0.0157965
643.797	0.0158466
643.875	0.0158578
643.953	0.0159406
644.031	0.0158972
644.109	0.0158482
644.187	0.0159383
644.265	0.0159428
644.343	0.0158707
644.422	0.0159410
644.500	0.0158740
644.578	0.0159527
644.656	0.0158968
644.734	0.0159913
644.812	0.0159143
644.890	0.0159325
644.968	0.0159530
645.047	0.0160226
645.125	0.0158949
645.203	0.0159398
645.281	0.0159717
645.359	0.0159969
645.437	0.0160682
645.515	0.0159412
645.593	0.0159591
645.672	0.0160236
645.750	0.0158646
645.828	0.0160403
645.906	0.0160590
645.984	0.0159478
646.062	0.0158787
646.140	0.0160608
646.218	0.0159599
646.297	0.0159417
646.375	0.0159552
646.453	0.0159541
646.531	0.0160411
646.609	0.0159890
646.687	0.0160990
646.765	0.0159415
646.843	0.0158633
646.922	0.0160494
647.000	0.0160320
647.078	0.0158848
647.156	0.0160237
647.234	0.0160214
647.312	0.0160251
647.390	0.0159174
647.468	0.0160316
647.547	0.0160867
647.625	0.0160303
647.703	0.0159663
647.781	0.0160135
647.859	0.0160693
647.937	0.0160255
648.015	0.0161448
648.093	0.0160468
648.172	0.0160868
648.250	0.0160398
648.328	0.0159661
648.406	0.0160506
648.484	0.0160972
648.562	0.0160584
648.640	0.0160601
648.718	0.0161379
648.797	0.0160092
648.875	0.0159782
648.953	0.0160958
649.031	0.0160580
649.109	0.0160502
649.187	0.0162303
649.265	0.0160023
649.343	0.0158085
649.422	0.0160191
649.500	0.0159988
649.578	0.0159621
649.656	0.0160751
649.734	0.0160217
649.812	0.0159259
649.890	0.0159475
649.968	0.0158838
650.047	0.0160433
650.125	0.0160052
650.203	0.0158706
650.281	0.0159707
650.359	0.0160361
650.437	0.0160201
650.515	0.0159684
650.593	0.0159535
650.672	0.0160295
650.750	0.0159910
650.828	0.0160236
650.906	0.0160031
650.984	0.0159267
651.062	0.0160999
651.140	0.0161258
651.218	0.0161012
651.297	0.0159470
651.375	0.0159972
651.453	0.0159039
651.531	0.0159655
651.609	0.0160468
651.687	0.0160110
651.765	0.0162463
651.843	0.0160257
651.922	0.0159193
652.000	0.0160366
652.078	0.0161508
652.156	0.0160059
652.234	0.0159795
652.312	0.0159149
652.390	0.0160538
652.468	0.0160970
652.547	0.0160013
652.625	0.0160561
652.703	0.0159642
652.781	0.0159985
652.859	0.0159751
652.937	0.0160585
653.015	0.0160473
653.093	0.0160207
653.172	0.0160274
653.250	0.0160310
653.328	0.0160404
653.406	0.0159882
653.484	0.0160757
653.562	0.0162135
653.640	0.0160240
653.718	0.0160835
653.797	0.0161449
653.875	0.0159287
653.953	0.0161433
654.031	0.0161039
654.109	0.0161182
654.187	0.0159930
654.265	0.0161528
654.343	0.0162051
654.422	0.0161201
654.500	0.0160677
654.578	0.0160938
654.656	0.0161289
654.734	0.0160196
654.812	0.0160531
654.890	0.0161315
654.968	0.0161835
655.047	0.0161226
655.125	0.0160886
655.203	0.0161092
655.281	0.0161198
655.359	0.0161158
655.437	0.0160249
655.515	0.0160435
655.593	0.0161845
655.672	0.0160111
655.750	0.0159084
655.828	0.0160268
655.906	0.0159708
655.984	0.0160062
656.062	0.0161242
656.140	0.0160804
656.218	0.0159916
656.297	0.0160378
656.375	0.0159016
656.453	0.0159389
656.531	0.0160886
656.609	0.0161398
656.687	0.0159491
656.765	0.0159646
656.843	0.0159836
656.922	0.0159874
657.000	0.0159752
657.078	0.0160749
657.156	0.0159317
657.234	0.0161201
657.312	0.0159388
657.390	0.0159291
657.468	0.0160056
657.547	0.0158926
657.625	0.0160318
657.703	0.0159731
657.781	0.0160558
657.859	0.0158144
657.937	0.0158685
658.015	0.0159198
658.093	0.0160400
658.172	0.0160952
658.250	0.0159252
658.328	0.0158943
658.406	0.0159364
658.484	0.0158579
658.562	0.0158736
658.640	0.0158456
658.718	0.0160544
658.797	0.0159511
658.875	0.0158411
658.953	0.0159821
659.031	0.0159060
659.109	0.0159007
659.187	0.0160149
659.265	0.0158253
659.343	0.0159897
659.422	0.0160583
659.500	0.0158022
659.578	0.0159621
659.656	0.0159030
659.734	0.0158657
659.812	0.0160863
659.890	0.0159843
659.968	0.0159377
660.047	0.0159341
660.125	0.0160162
660.203	0.0159512
660.281	0.0160380
660.359	0.0159990
660.437	0.0159998
660.515	0.0159773
660.593	0.0159583
660.672	0.0159299
660.750	0.0160417
660.828	0.0159818
660.906	0.0160545
660.984	0.0160342
661.062	0.0160057
661.140	0.0160142
661.218	0.0159535
661.297	0.0160034
661.375	0.0159622
661.453	0.0160503
661.531	0.0158906
661.609	0.0158092
661.687	0.0160876
661.765	0.0159787
661.843	0.0159757
661.922	0.0158641
662.000	0.0157925
662.078	0.0159608
662.156	0.0159884
662.234	0.0160277
662.312	0.0159680
662.390	0.0160355
662.468	0.0159591
662.547	0.0158556
662.625	0.0159339
662.703	0.0158698
662.781	0.0158626
662.859	0.0160773
662.937	0.0158878
663.015	0.0159271
663.093	0.0160308
663.172	0.0159928
663.250	0.0158800
663.328	0.0158767
663.406	0.0158859
663.484	0.0160177
663.562	0.0158599
663.640	0.0159071
663.718	0.0159876
663.797	0.0159860
663.875	0.0159819
663.953	0.0158870
664.031	0.0158798
664.109	0.0160137
664.187	0.0160533
664.265	0.0159383
664.343	0.0160249
664.422	0.0159932
664.500	0.0160550
664.578	0.0159717
664.656	0.0160161
664.734	0.0158292
664.812	0.0159662
664.890	0.0159608
664.968	0.0160117
665.047	0.0160567
665.125	0.0159987
665.203	0.0159209
665.281	0.0158918
665.359	0.0159055
665.437	0.0158511
665.515	0.0158490
665.593	0.0160174
665.672	0.0160187
665.750	0.0159480
665.828	0.0159370
665.906	0.0159653
665.984	0.0158891
666.062	0.0159659
666.140	0.0160469
666.218	0.0159009
666.297	0.0159950
666.375	0.0161690
666.453	0.0158537
666.531	0.0158831
666.609	0.0158611
666.687	0.0160175
666.765	0.0161279
666.843	0.0158396
666.922	0.0159737
667.000	0.0158772
667.078	0.0160355
667.156	0.0159158
667.234	0.0160053
667.312	0.0161192
667.390	0.0160062
667.468	0.0161234
667.547	0.0160423
667.625	0.0161236
667.703	0.0160250
667.781	0.0160909
667.859	0.0160487
667.937	0.0160934
668.015	0.0160218
668.093	0.0158596
668.172	0.0160091
668.250	0.0160511
668.328	0.0161933
668.406	0.0161558
668.484	0.0160800
668.562	0.0159892
668.640	0.0159625
668.718	0.0160315
668.797	0.0160371
668.875	0.0161523
668.953	0.0159707
669.031	0.0161403
669.109	0.0160166
669.187	0.0161018
669.265	0.0160040
669.343	0.0161234
669.422	0.0160593
669.500	0.0159113
669.578	0.0159131
669.656	0.0160903
669.734	0.0159615
669.812	0.0160615
669.890	0.0160595
669.968	0.0159882
670.047	0.0160809
670.125	0.0160293
670.203	0.0158932
670.281	0.0161018
670.359	0.0159270
670.437	0.0159801
670.515	0.0160517
670.593	0.0160895
670.672	0.0159692
670.750	0.0159739
670.828	0.0158748
670.906	0.0159937
670.984	0.0159100
671.062	0.0160918
671.140	0.0160863
671.218	0.0159778
671.297	0.0160330
671.375	0.0159668
671.453	0.0160705
671.531	0.0160214
671.609	0.0160349
671.687	0.0160927
671.765	0.0160696
671.843	0.0159488
671.922	0.0158346
672.000	0.0160844
672.078	0.0161324
672.156	0.0159937
672.234	0.0161933
672.312	0.0159696
672.390	0.0159722
672.468	0.0161582
672.547	0.0161118
672.625	0.0158793
672.703	0.0160645
672.781	0.0160392
672.859	0.0160658
672.937	0.0159736
673.015	0.0160023
673.093	0.0160488
673.172	0.0159491
673.250	0.0159235
673.328	0.0161303
673.406	0.0161694
673.484	0.0160092
673.562	0.0160326
673.640	0.0160858
673.718	0.0158819
673.797	0.0159851
673.875	0.0161112
673.953	0.0160858
674.031	0.0160334
674.109	0.0159481
674.187	0.0158809
674.265	0.0159914
674.343	0.0160081
674.422	0.0160399
674.500	0.0160338
674.578	0.0160543
674.656	0.0160905
674.734	0.0159669
674.812	0.0160175
674.890	0.0161119
674.968	0.0159773
675.047	0.0160310
675.125	0.0159604
675.203	0.0160008
675.281	0.0161170
675.359	0.0161352
675.437	0.0158805
675.515	0.0159263
675.593	0.0160786
675.672	0.0160796
675.750	0.0159703
675.828	0.0159236
675.906	0.0160311
675.984	0.0159881
676.062	0.0160555
676.140	0.0159041
676.218	0.0160710
676.297	0.0160678
676.375	0.0160772
676.453	0.0160344
676.531	0.0159467
676.609	0.0160330
676.687	0.0159312
676.765	0.0160072
676.843	0.0159895
676.922	0.0160481
677.000	0.0160452
677.078	0.0160207
677.156	0.0160212
677.234	0.0160247
677.312	0.0159541
677.390	0.0159999
677.468	0.0160709
677.547	0.0160267
677.625	0.0159195
677.703	0.0159517
677.781	0.0160314
677.859	0.0160558
677.937	0.0159139
678.015	0.0159867
678.093	0.0159682
678.172	0.0159950
678.250	0.0158951
678.328	0.0159214
678.406	0.0159397
678.484	0.0159727
678.562	0.0161483
678.640	0.0159959
678.718	0.0159175
678.797	0.0160756
678.875	0.0160412
678.953	0.0159246
679.031	0.0160005
679.109	0.0160802
679.187	0.0160535
679.265	0.0159715
679.343	0.0159450
679.422	0.0160548
679.500	0.0160327
679.578	0.0159898
679.656	0.0159464
679.734	0.0160283
679.812	0.0159575
679.890	0.0160423
679.968	0.0158855
680.047	0.0161060
680.125	0.0160525
680.203	0.0158771
680.281	0.0159774
680.359	0.0159557
680.437	0.0160829
680.515	0.0159039
680.593	0.0159970
680.672	0.0159891
680.750	0.0159655
680.828	0.0159923
680.906	0.0161560
680.984	0.0159725
681.062	0.0160963
681.140	0.0160738
681.218	0.0160239
681.297	0.0159814
681.375	0.0159882
681.453	0.0160445
681.531	0.0160357
681.609	0.0160040
681.687	0.0160301
681.765	0.0159302
681.843	0.0159449
681.922	0.0161654
682.000	0.0159866
682.078	0.0159862
682.156	0.0159093
682.234	0.0159633
682.312	0.0159613
682.390	0.0159901
682.468	0.0160136
682.547	0.0159675
682.625	0.0159046
682.703	0.0160591
682.781	0.0159513
682.859	0.0160159
682.937	0.0159524
683.015	0.0158649
683.093	0.0158043
683.172	0.0159412
683.250	0.0159688
683.328	0.0160503
683.406	0.0160863
683.484	0.0160192
683.562	0.0159184
683.640	0.0160294
683.718	0.0159613
683.797	0.0159647
683.875	0.0159158
683.953	0.0160347
684.031	0.0159223
684.109	0.0160946
684.187	0.0160650
684.265	0.0158970
684.343	0.0160445
684.422	0.0160505
684.500	0.0160931
684.578	0.0160968
684.656	0.0159482
684.734	0.0158806
684.812	0.0160847
684.890	0.0159380
684.968	0.0159784
685.047	0.0160332
685.125	0.0158600
685.203	0.0159911
685.281	0.0159756
685.359	0.0160049
685.437	0.0160445
685.515	0.0161047
685.593	0.0158755
685.672	0.0159329
