06/13/2022	14:53:34	Ver.	4.1	UNKNOWN
Optical Delay	599.968395	Delta X		0.078125	Sweeps	1	Scan Rate	0/0
Coordinates	Axis 1	NaN	Axis 2	NaN	Axis 3	NaN	Axis 4	NaN	Axis 5	NaN	Axis 6	0.000000
TX Power	0.000000	RX Power	0.000000

599.968	0.0159892
600.047	0.0159795
600.125	0.0159609
600.203	0.0158862
600.281	0.0159100
600.359	0.0160162
600.437	0.0160696
600.515	0.0159412
600.593	0.0158559
600.672	0.0157798
600.750	0.0159393
600.828	0.0161452
600.906	0.0159088
600.984	0.0159657
601.062	0.0158616
601.140	0.0159020
601.218	0.0159307
601.297	0.0159972
601.375	0.0159825
601.453	0.0157925
601.531	0.0159389
601.609	0.0158140
601.687	0.0158167
601.765	0.0158327
601.843	0.0159287
601.922	0.0158383
602.000	0.0158422
602.078	0.0159235
602.156	0.0158518
602.234	0.0159843
602.312	0.0159140
602.390	0.0158636
602.468	0.0157842
602.547	0.0159322
602.625	0.0158320
602.703	0.0157352
602.781	0.0159342
602.859	0.0158971
602.937	0.0157372
603.015	0.0159027
603.093	0.0158286
603.172	0.0158054
603.250	0.0156947
603.328	0.0159851
603.406	0.0157832
603.484	0.0157075
603.562	0.0157130
603.640	0.0158634
603.718	0.0157796
603.797	0.0158274
603.875	0.0159463
603.953	0.0158368
604.031	0.0158187
604.109	0.0157542
604.187	0.0157743
604.265	0.0157012
604.343	0.0159207
604.422	0.0156635
604.500	0.0156927
604.578	0.0157349
604.656	0.0158659
604.734	0.0157290
604.812	0.0156712
604.890	0.0157533
604.968	0.0157391
605.047	0.0158150
605.125	0.0158415
605.203	0.0156895
605.281	0.0158146
605.359	0.0158513
605.437	0.0158148
605.515	0.0157046
605.593	0.0158675
605.672	0.0158026
605.750	0.0157512
605.828	0.0158299
605.906	0.0156885
605.984	0.0156985
606.062	0.0157400
606.140	0.0157214
606.218	0.0157716
606.297	0.0157079
606.375	0.0158096
606.453	0.0157253
606.531	0.0157312
606.609	0.0158424
606.687	0.0157173
606.765	0.0158028
606.843	0.0157266
606.922	0.0157497
607.000	0.0157337
607.078	0.0158794
607.156	0.0157002
607.234	0.0158675
607.312	0.0157907
607.390	0.0157008
607.468	0.0158444
607.547	0.0158195
607.625	0.0157938
607.703	0.0156998
607.781	0.0157002
607.859	0.0156794
607.937	0.0158012
608.015	0.0157928
608.093	0.0156912
608.172	0.0157333
608.250	0.0157163
608.328	0.0156256
608.406	0.0157529
608.484	0.0156996
608.562	0.0158103
608.640	0.0157868
608.718	0.0157011
608.797	0.0157224
608.875	0.0157428
608.953	0.0157612
609.031	0.0158192
609.109	0.0157162
609.187	0.0157234
609.265	0.0158521
609.343	0.0158086
609.422	0.0156527
609.500	0.0156190
609.578	0.0158406
609.656	0.0158837
609.734	0.0158420
609.812	0.0157408
609.890	0.0157996
609.968	0.0155750
610.047	0.0158806
610.125	0.0158129
610.203	0.0157725
610.281	0.0157955
610.359	0.0157926
610.437	0.0157638
610.515	0.0158743
610.593	0.0158545
610.672	0.0158418
610.750	0.0159021
610.828	0.0159603
610.906	0.0157681
610.984	0.0157559
611.062	0.0158164
611.140	0.0158960
611.218	0.0158091
611.297	0.0158855
611.375	0.0158787
611.453	0.0160057
611.531	0.0158530
611.609	0.0158775
611.687	0.0158594
611.765	0.0157912
611.843	0.0159576
611.922	0.0160152
612.000	0.0158867
612.078	0.0159502
612.156	0.0158939
612.234	0.0158693
612.312	0.0159772
612.390	0.0158988
612.468	0.0160490
612.547	0.0160636
612.625	0.0159768
612.703	0.0160408
612.781	0.0158877
612.859	0.0159671
612.937	0.0159344
613.015	0.0160230
613.093	0.0158535
613.172	0.0160380
613.250	0.0160202
613.328	0.0160364
613.406	0.0158466
613.484	0.0159062
613.562	0.0159352
613.640	0.0159634
613.718	0.0159518
613.797	0.0159934
613.875	0.0161479
613.953	0.0159778
614.031	0.0160580
614.109	0.0157978
614.187	0.0160481
614.265	0.0160995
614.343	0.0159837
614.422	0.0159638
614.500	0.0159545
614.578	0.0159045
614.656	0.0159229
614.734	0.0159539
614.812	0.0159672
614.890	0.0160283
614.968	0.0158099
615.047	0.0160264
615.125	0.0161633
615.203	0.0159302
615.281	0.0158780
615.359	0.0159258
615.437	0.0158586
615.515	0.0160371
615.593	0.0160814
615.672	0.0158640
615.750	0.0158418
615.828	0.0159042
615.906	0.0159341
615.984	0.0160509
616.062	0.0158803
616.140	0.0159612
616.218	0.0160064
616.297	0.0160249
616.375	0.0159304
616.453	0.0160437
616.531	0.0159833
616.609	0.0161044
616.687	0.0160672
616.765	0.0160150
616.843	0.0159494
616.922	0.0159647
617.000	0.0160069
617.078	0.0159835
617.156	0.0160447
617.234	0.0160112
617.312	0.0159695
617.390	0.0160075
617.468	0.0159432
617.547	0.0159528
617.625	0.0160538
617.703	0.0160338
617.781	0.0160632
617.859	0.0161688
617.937	0.0160503
618.015	0.0160789
618.093	0.0160764
618.172	0.0160280
618.250	0.0160903
618.328	0.0161607
618.406	0.0160746
618.484	0.0159558
618.562	0.0160756
618.640	0.0159928
618.718	0.0160233
618.797	0.0161604
618.875	0.0161498
618.953	0.0159614
619.031	0.0161206
619.109	0.0161210
619.187	0.0160410
619.265	0.0160717
619.343	0.0159472
619.422	0.0161124
619.500	0.0159746
619.578	0.0159978
619.656	0.0159915
619.734	0.0160098
619.812	0.0159975
619.890	0.0159935
619.968	0.0160812
620.047	0.0160126
620.125	0.0159633
620.203	0.0160842
620.281	0.0160928
620.359	0.0161342
620.437	0.0159951
620.515	0.0159866
620.593	0.0160289
620.672	0.0160894
620.750	0.0159200
620.828	0.0160954
620.906	0.0160579
620.984	0.0160350
621.062	0.0157925
621.140	0.0160145
621.218	0.0161851
621.297	0.0159061
621.375	0.0158683
621.453	0.0159406
621.531	0.0158918
621.609	0.0159591
621.687	0.0159675
621.765	0.0159697
621.843	0.0159171
621.922	0.0158868
622.000	0.0160400
622.078	0.0160424
622.156	0.0160275
622.234	0.0159612
622.312	0.0159134
622.390	0.0159571
622.468	0.0159132
622.547	0.0159978
622.625	0.0158718
622.703	0.0159879
622.781	0.0159111
622.859	0.0159844
622.937	0.0159165
623.015	0.0157986
623.093	0.0158642
623.172	0.0159344
623.250	0.0158737
623.328	0.0159877
623.406	0.0157372
623.484	0.0157534
623.562	0.0158199
623.640	0.0158024
623.718	0.0158669
623.797	0.0159046
623.875	0.0158389
623.953	0.0157919
624.031	0.0159440
624.109	0.0158524
624.187	0.0158549
624.265	0.0160510
624.343	0.0157121
624.422	0.0159184
624.500	0.0159076
624.578	0.0158038
624.656	0.0158666
624.734	0.0157593
624.812	0.0158743
624.890	0.0158031
624.968	0.0158067
625.047	0.0157707
625.125	0.0159724
625.203	0.0159131
625.281	0.0159692
625.359	0.0159657
625.437	0.0159563
625.515	0.0159106
625.593	0.0157150
625.672	0.0157732
625.750	0.0160332
625.828	0.0158527
625.906	0.0159747
625.984	0.0160008
626.062	0.0159016
626.140	0.0158994
626.218	0.0158619
626.297	0.0158901
626.375	0.0159283
626.453	0.0159171
626.531	0.0159579
626.609	0.0158182
626.687	0.0158125
626.765	0.0159737
626.843	0.0159853
626.922	0.0158486
627.000	0.0159261
627.078	0.0158860
627.156	0.0157693
627.234	0.0158686
627.312	0.0158670
627.390	0.0159192
627.468	0.0158138
627.547	0.0158254
627.625	0.0157296
627.703	0.0158395
627.781	0.0157312
627.859	0.0159247
627.937	0.0158527
628.015	0.0157829
628.093	0.0158211
628.172	0.0159538
628.250	0.0158736
628.328	0.0158399
628.406	0.0157664
628.484	0.0158600
628.562	0.0158077
628.640	0.0157796
628.718	0.0157799
628.797	0.0158503
628.875	0.0159486
628.953	0.0158887
629.031	0.0158932
629.109	0.0158112
629.187	0.0157475
629.265	0.0157489
629.343	0.0157762
629.422	0.0158257
629.500	0.0159096
629.578	0.0158433
629.656	0.0156931
629.734	0.0158200
629.812	0.0157638
629.890	0.0157813
629.968	0.0158310
630.047	0.0160024
630.125	0.0157060
630.203	0.0156584
630.281	0.0158896
630.359	0.0159158
630.437	0.0157810
630.515	0.0158452
630.593	0.0158891
630.672	0.0157958
630.750	0.0158120
630.828	0.0159348
630.906	0.0158794
630.984	0.0159642
631.062	0.0158143
631.140	0.0159035
631.218	0.0160649
631.297	0.0158327
631.375	0.0158206
631.453	0.0159046
631.531	0.0159762
631.609	0.0159418
631.687	0.0160220
631.765	0.0159866
631.843	0.0158424
631.922	0.0158129
632.000	0.0158301
632.078	0.0158673
632.156	0.0158026
632.234	0.0158960
632.312	0.0159303
632.390	0.0159053
632.468	0.0159347
632.547	0.0158265
632.625	0.0159255
632.703	0.0158678
632.781	0.0158566
632.859	0.0158852
632.937	0.0158169
633.015	0.0159978
633.093	0.0160197
633.172	0.0158910
633.250	0.0159283
633.328	0.0158691
633.406	0.0158913
633.484	0.0159501
633.562	0.0158633
633.640	0.0159634
633.718	0.0158725
633.797	0.0159835
633.875	0.0159449
633.953	0.0159721
634.031	0.0158003
634.109	0.0158626
634.187	0.0159739
634.265	0.0160783
634.343	0.0159342
634.422	0.0159048
634.500	0.0159191
634.578	0.0158282
634.656	0.0159029
634.734	0.0158661
634.812	0.0158614
634.890	0.0158817
634.968	0.0159790
635.047	0.0158957
635.125	0.0159622
635.203	0.0158241
635.281	0.0158887
635.359	0.0158386
635.437	0.0157951
635.515	0.0158121
635.593	0.0158260
635.672	0.0158488
635.750	0.0158990
635.828	0.0158807
635.906	0.0159212
635.984	0.0157581
636.062	0.0158656
636.140	0.0159460
636.218	0.0157807
636.297	0.0158616
636.375	0.0158179
636.453	0.0157066
636.531	0.0159507
636.609	0.0158425
636.687	0.0160316
636.765	0.0158790
636.843	0.0159444
636.922	0.0157467
637.000	0.0159435
637.078	0.0158242
637.156	0.0159270
637.234	0.0159993
637.312	0.0157885
637.390	0.0159805
637.468	0.0159461
637.547	0.0158504
637.625	0.0159951
637.703	0.0160103
637.781	0.0159582
637.859	0.0159534
637.937	0.0158521
638.015	0.0160119
638.093	0.0159637
638.172	0.0160332
638.250	0.0160405
638.328	0.0160933
638.406	0.0158854
638.484	0.0160474
638.562	0.0159855
638.640	0.0159167
638.718	0.0159429
638.797	0.0159341
638.875	0.0157769
638.953	0.0160339
639.031	0.0160402
639.109	0.0159068
639.187	0.0157878
639.265	0.0159650
639.343	0.0159322
639.422	0.0160342
639.500	0.0159605
639.578	0.0159440
639.656	0.0159491
639.734	0.0159815
639.812	0.0160460
639.890	0.0158597
639.968	0.0158646
640.047	0.0159636
640.125	0.0159515
640.203	0.0160515
640.281	0.0159723
640.359	0.0159550
640.437	0.0159592
640.515	0.0158569
640.593	0.0158847
640.672	0.0159316
640.750	0.0158462
640.828	0.0160533
640.906	0.0160366
640.984	0.0159120
641.062	0.0160219
641.140	0.0160913
641.218	0.0160892
641.297	0.0160363
641.375	0.0160799
641.453	0.0160313
641.531	0.0160016
641.609	0.0158753
641.687	0.0159972
641.765	0.0159595
641.843	0.0159823
641.922	0.0159473
642.000	0.0160098
642.078	0.0159343
642.156	0.0159821
642.234	0.0161241
642.312	0.0159940
642.390	0.0160097
642.468	0.0158815
642.547	0.0160529
642.625	0.0159528
642.703	0.0160125
642.781	0.0158673
642.859	0.0159476
642.937	0.0159450
643.015	0.0158773
643.093	0.0159749
643.172	0.0160036
643.250	0.0158453
643.328	0.0159858
643.406	0.0160477
643.484	0.0158583
643.562	0.0158474
643.640	0.0158944
643.718	0.0158328
643.797	0.0158482
643.875	0.0158092
643.953	0.0159409
644.031	0.0157764
644.109	0.0157467
644.187	0.0157269
644.265	0.0158062
644.343	0.0157858
644.422	0.0159142
644.500	0.0158863
644.578	0.0159060
644.656	0.0158811
644.734	0.0157342
644.812	0.0158077
644.890	0.0158346
644.968	0.0157041
645.047	0.0159119
645.125	0.0157507
645.203	0.0158224
645.281	0.0158032
645.359	0.0158065
645.437	0.0158294
645.515	0.0158456
645.593	0.0158067
645.672	0.0158413
645.750	0.0158047
645.828	0.0158398
645.906	0.0157626
645.984	0.0158302
646.062	0.0158894
646.140	0.0159153
646.218	0.0158908
646.297	0.0159308
646.375	0.0158849
646.453	0.0158651
646.531	0.0159195
646.609	0.0158905
646.687	0.0158647
646.765	0.0160461
646.843	0.0159834
646.922	0.0158685
647.000	0.0159698
647.078	0.0160287
647.156	0.0159119
647.234	0.0159085
647.312	0.0158022
647.390	0.0159744
647.468	0.0159599
647.547	0.0158468
647.625	0.0157439
647.703	0.0157345
647.781	0.0159820
647.859	0.0158250
647.937	0.0158387
648.015	0.0160719
648.093	0.0158485
648.172	0.0158924
648.250	0.0159627
648.328	0.0159817
648.406	0.0158781
648.484	0.0158789
648.562	0.0158197
648.640	0.0158947
648.718	0.0158171
648.797	0.0159215
648.875	0.0158952
648.953	0.0158945
649.031	0.0160011
649.109	0.0158978
649.187	0.0158607
649.265	0.0158048
649.343	0.0158331
649.422	0.0158688
649.500	0.0159345
649.578	0.0159486
649.656	0.0157915
649.734	0.0158607
649.812	0.0159173
649.890	0.0158918
649.968	0.0157992
650.047	0.0158531
650.125	0.0158801
650.203	0.0160056
650.281	0.0157343
650.359	0.0159167
650.437	0.0159288
650.515	0.0157732
650.593	0.0159407
650.672	0.0158698
650.750	0.0158212
650.828	0.0159361
650.906	0.0159200
650.984	0.0159768
651.062	0.0159144
651.140	0.0158303
651.218	0.0158710
651.297	0.0157729
651.375	0.0158613
651.453	0.0157626
651.531	0.0158910
651.609	0.0158827
651.687	0.0158626
651.765	0.0158984
651.843	0.0159330
651.922	0.0158445
652.000	0.0158194
652.078	0.0159116
652.156	0.0158605
652.234	0.0157981
652.312	0.0158651
652.390	0.0158582
652.468	0.0158739
652.547	0.0160672
652.625	0.0160597
652.703	0.0158741
652.781	0.0158991
652.859	0.0160339
652.937	0.0159293
653.015	0.0159278
653.093	0.0158694
653.172	0.0158715
653.250	0.0158263
653.328	0.0160342
653.406	0.0159926
653.484	0.0158952
653.562	0.0160284
653.640	0.0159586
653.718	0.0159872
653.797	0.0159319
653.875	0.0158981
653.953	0.0161761
654.031	0.0160162
654.109	0.0159041
654.187	0.0159041
654.265	0.0159427
654.343	0.0159966
654.422	0.0158529
654.500	0.0159228
654.578	0.0160443
654.656	0.0159565
654.734	0.0158897
654.812	0.0159074
654.890	0.0158423
654.968	0.0159383
655.047	0.0161059
655.125	0.0160424
655.203	0.0160368
655.281	0.0159946
655.359	0.0159275
655.437	0.0160316
655.515	0.0160354
655.593	0.0158865
655.672	0.0159408
655.750	0.0159347
655.828	0.0158852
655.906	0.0159286
655.984	0.0160374
656.062	0.0159241
656.140	0.0159151
656.218	0.0159085
656.297	0.0158423
656.375	0.0158973
656.453	0.0158875
656.531	0.0158253
656.609	0.0159201
656.687	0.0159997
656.765	0.0159664
656.843	0.0159607
656.922	0.0158571
657.000	0.0159055
657.078	0.0156932
657.156	0.0160178
657.234	0.0159444
657.312	0.0159177
657.390	0.0159512
657.468	0.0159435
657.547	0.0159841
657.625	0.0158172
657.703	0.0159525
657.781	0.0159874
657.859	0.0158752
657.937	0.0159063
658.015	0.0158961
658.093	0.0158647
658.172	0.0159009
658.250	0.0160080
658.328	0.0159696
658.406	0.0158509
658.484	0.0160004
658.562	0.0158899
658.640	0.0160075
658.718	0.0158199
658.797	0.0158529
658.875	0.0157744
658.953	0.0161391
659.031	0.0158533
659.109	0.0160859
659.187	0.0158897
659.265	0.0158959
659.343	0.0158276
659.422	0.0158458
659.500	0.0159403
659.578	0.0160120
659.656	0.0158558
659.734	0.0159533
659.812	0.0159180
659.890	0.0159026
659.968	0.0159414
660.047	0.0159478
660.125	0.0161098
660.203	0.0159003
660.281	0.0158818
660.359	0.0158478
660.437	0.0158050
660.515	0.0158745
660.593	0.0159670
660.672	0.0159866
660.750	0.0159030
660.828	0.0159210
660.906	0.0159422
660.984	0.0159093
661.062	0.0159193
661.140	0.0159310
661.218	0.0158888
661.297	0.0158144
661.375	0.0158331
661.453	0.0159454
661.531	0.0158737
661.609	0.0160127
661.687	0.0159505
661.765	0.0159925
661.843	0.0158320
661.922	0.0160335
662.000	0.0159673
662.078	0.0158316
662.156	0.0159340
662.234	0.0159042
662.312	0.0159200
662.390	0.0158199
662.468	0.0158443
662.547	0.0160126
662.625	0.0159219
662.703	0.0159309
662.781	0.0159721
662.859	0.0158846
662.937	0.0158907
663.015	0.0160236
663.093	0.0160519
663.172	0.0157675
663.250	0.0158580
663.328	0.0159706
663.406	0.0158736
663.484	0.0158339
663.562	0.0158668
663.640	0.0159935
663.718	0.0160064
663.797	0.0159411
663.875	0.0159770
663.953	0.0159154
664.031	0.0160586
664.109	0.0160666
664.187	0.0159638
664.265	0.0159277
664.343	0.0158695
664.422	0.0158787
664.500	0.0160891
664.578	0.0159949
664.656	0.0159421
664.734	0.0160217
664.812	0.0160760
664.890	0.0158717
664.968	0.0160004
665.047	0.0159746
665.125	0.0160024
665.203	0.0157700
665.281	0.0159096
665.359	0.0159993
665.437	0.0159480
665.515	0.0160112
665.593	0.0159593
665.672	0.0158556
665.750	0.0158978
665.828	0.0158829
665.906	0.0158844
665.984	0.0158801
666.062	0.0159100
666.140	0.0159231
666.218	0.0159845
666.297	0.0158536
666.375	0.0158081
666.453	0.0159862
666.531	0.0158049
666.609	0.0158405
666.687	0.0159971
666.765	0.0157851
666.843	0.0158557
666.922	0.0159132
667.000	0.0158941
667.078	0.0157661
667.156	0.0158862
667.234	0.0158270
667.312	0.0159504
667.390	0.0158544
667.468	0.0157976
667.547	0.0160326
667.625	0.0159046
667.703	0.0159500
667.781	0.0158471
667.859	0.0159183
667.937	0.0159647
668.015	0.0157726
668.093	0.0157971
668.172	0.0158607
668.250	0.0159438
668.328	0.0158312
668.406	0.0158495
668.484	0.0157407
668.562	0.0157726
668.640	0.0158738
668.718	0.0158076
668.797	0.0159547
668.875	0.0158972
668.953	0.0157917
669.031	0.0159343
669.109	0.0157887
669.187	0.0158591
669.265	0.0158508
669.343	0.0158460
669.422	0.0158407
669.500	0.0159406
669.578	0.0159045
669.656	0.0157536
669.734	0.0157767
669.812	0.0158314
669.890	0.0157903
669.968	0.0159661
670.047	0.0159405
670.125	0.0159271
670.203	0.0158363
670.281	0.0158768
670.359	0.0159523
670.437	0.0157981
670.515	0.0160034
670.593	0.0158768
670.672	0.0158417
670.750	0.0158836
670.828	0.0159658
670.906	0.0160593
670.984	0.0158715
671.062	0.0160136
671.140	0.0158676
671.218	0.0159953
671.297	0.0159137
671.375	0.0159768
671.453	0.0159991
671.531	0.0158330
671.609	0.0157566
671.687	0.0158707
671.765	0.0160084
671.843	0.0159206
671.922	0.0158732
672.000	0.0158622
672.078	0.0158888
672.156	0.0158427
672.234	0.0157880
672.312	0.0160329
672.390	0.0159589
672.468	0.0159856
672.547	0.0158572
672.625	0.0159151
672.703	0.0160205
672.781	0.0158598
672.859	0.0158380
672.937	0.0160155
673.015	0.0159921
673.093	0.0159660
673.172	0.0160581
673.250	0.0159832
673.328	0.0160325
673.406	0.0160014
673.484	0.0159505
673.562	0.0159265
673.640	0.0159909
673.718	0.0160173
673.797	0.0160189
673.875	0.0159310
673.953	0.0161309
674.031	0.0159148
674.109	0.0159732
674.187	0.0159339
674.265	0.0160793
674.343	0.0161287
674.422	0.0159908
674.500	0.0160054
674.578	0.0159420
674.656	0.0158868
674.734	0.0159276
674.812	0.0160646
674.890	0.0159766
674.968	0.0160033
675.047	0.0159194
675.125	0.0158949
675.203	0.0159682
675.281	0.0159809
675.359	0.0159371
675.437	0.0159345
675.515	0.0160535
675.593	0.0160029
675.672	0.0159544
675.750	0.0158710
675.828	0.0159002
675.906	0.0160149
675.984	0.0158804
676.062	0.0160178
676.140	0.0158424
676.218	0.0159900
676.297	0.0159056
676.375	0.0159035
676.453	0.0160764
676.531	0.0159824
676.609	0.0159179
676.687	0.0159873
676.765	0.0161234
676.843	0.0158362
676.922	0.0159711
677.000	0.0161209
677.078	0.0160786
677.156	0.0158868
677.234	0.0159388
677.312	0.0160093
677.390	0.0160649
677.468	0.0160913
677.547	0.0159277
677.625	0.0159523
677.703	0.0159715
677.781	0.0161037
677.859	0.0160494
677.937	0.0159337
678.015	0.0159317
678.093	0.0159853
678.172	0.0159256
678.250	0.0159786
678.328	0.0160425
678.406	0.0159236
678.484	0.0161636
678.562	0.0159796
678.640	0.0158871
678.718	0.0161241
678.797	0.0159926
678.875	0.0159572
678.953	0.0160857
679.031	0.0160249
679.109	0.0159492
679.187	0.0160580
679.265	0.0160486
679.343	0.0160069
679.422	0.0160394
679.500	0.0160070
679.578	0.0158432
679.656	0.0160935
679.734	0.0159394
679.812	0.0159189
679.890	0.0158889
679.968	0.0157185
680.047	0.0158044
680.125	0.0160606
680.203	0.0159019
680.281	0.0159850
680.359	0.0160728
680.437	0.0160503
680.515	0.0159145
680.593	0.0160345
680.672	0.0159566
680.750	0.0159299
680.828	0.0159895
680.906	0.0159195
680.984	0.0161233
681.062	0.0159542
681.140	0.0158221
681.218	0.0159645
681.297	0.0160207
681.375	0.0160398
681.453	0.0158237
681.531	0.0157616
681.609	0.0158655
681.687	0.0159263
681.765	0.0159105
681.843	0.0158685
681.922	0.0158181
682.000	0.0157962
682.078	0.0160111
682.156	0.0159199
682.234	0.0158999
682.312	0.0160234
682.390	0.0159669
682.468	0.0159888
682.547	0.0159127
682.625	0.0158730
682.703	0.0160132
682.781	0.0159661
682.859	0.0159364
682.937	0.0158353
683.015	0.0159019
683.093	0.0159161
683.172	0.0159162
683.250	0.0159988
683.328	0.0159086
683.406	0.0158711
683.484	0.0157661
683.562	0.0159986
683.640	0.0159542
683.718	0.0159453
683.797	0.0159068
683.875	0.0158067
683.953	0.0158502
684.031	0.0158994
684.109	0.0158990
684.187	0.0159209
684.265	0.0159136
684.343	0.0158383
684.422	0.0158128
684.500	0.0158436
684.578	0.0158549
684.656	0.0158782
684.734	0.0158398
684.812	0.0159695
684.890	0.0158543
684.968	0.0156840
685.047	0.0158544
685.125	0.0158163
685.203	0.0156690
685.281	0.0158163
685.359	0.0159032
685.437	0.0157653
685.515	0.0158362
685.593	0.0158302
685.672	0.0158597
