06/13/2022	14:53:49	Ver.	4.1	UNKNOWN
Optical Delay	599.968395	Delta X		0.078125	Sweeps	1	Scan Rate	0/0
Coordinates	Axis 1	NaN	Axis 2	NaN	Axis 3	NaN	Axis 4	NaN	Axis 5	NaN	Axis 6	0.000000
TX Power	0.000000	RX Power	0.000000

599.968	0.0155989
600.047	0.0155914
600.125	0.0154990
600.203	0.0155414
600.281	0.0155677
600.359	0.0154713
600.437	0.0154020
600.515	0.0155682
600.593	0.0154799
600.672	0.0155996
600.750	0.0156269
600.828	0.0155091
600.906	0.0155521
600.984	0.0156743
601.062	0.0154831
601.140	0.0155797
601.218	0.0155937
601.297	0.0155943
601.375	0.0154720
601.453	0.0154315
601.531	0.0155457
601.609	0.0156113
601.687	0.0154794
601.765	0.0156092
601.843	0.0156208
601.922	0.0155183
602.000	0.0155366
602.078	0.0156057
602.156	0.0153933
602.234	0.0155460
602.312	0.0155072
602.390	0.0154953
602.468	0.0153470
602.547	0.0155843
602.625	0.0154661
602.703	0.0153068
602.781	0.0154508
602.859	0.0155457
602.937	0.0155630
603.015	0.0155096
603.093	0.0155698
603.172	0.0154563
603.250	0.0155065
603.328	0.0156062
603.406	0.0155463
603.484	0.0155659
603.562	0.0155552
603.640	0.0154848
603.718	0.0154337
603.797	0.0154858
603.875	0.0155122
603.953	0.0155884
604.031	0.0154399
604.109	0.0156417
604.187	0.0155282
604.265	0.0156649
604.343	0.0155304
604.422	0.0155632
604.500	0.0155537
604.578	0.0155985
604.656	0.0155171
604.734	0.0155802
604.812	0.0155090
604.890	0.0156254
604.968	0.0156377
605.047	0.0155478
605.125	0.0156966
605.203	0.0155151
605.281	0.0155479
605.359	0.0156847
605.437	0.0157410
605.515	0.0157240
605.593	0.0156448
605.672	0.0155710
605.750	0.0156257
605.828	0.0156082
605.906	0.0157504
605.984	0.0156516
606.062	0.0157455
606.140	0.0156089
606.218	0.0155511
606.297	0.0156087
606.375	0.0158164
606.453	0.0157600
606.531	0.0157045
606.609	0.0156945
606.687	0.0158135
606.765	0.0157796
606.843	0.0157592
606.922	0.0155974
607.000	0.0158222
607.078	0.0156293
607.156	0.0157040
607.234	0.0157142
607.312	0.0158000
607.390	0.0157411
607.468	0.0157078
607.547	0.0156683
607.625	0.0157053
607.703	0.0157047
607.781	0.0158553
607.859	0.0158422
607.937	0.0157083
608.015	0.0157806
608.093	0.0156707
608.172	0.0157892
608.250	0.0156439
608.328	0.0157696
608.406	0.0157047
608.484	0.0156394
608.562	0.0156538
608.640	0.0156970
608.718	0.0157915
608.797	0.0157330
608.875	0.0156917
608.953	0.0156060
609.031	0.0157767
609.109	0.0157060
609.187	0.0156617
609.265	0.0156208
609.343	0.0158008
609.422	0.0156772
609.500	0.0156089
609.578	0.0157485
609.656	0.0156538
609.734	0.0157085
609.812	0.0156953
609.890	0.0156591
609.968	0.0157815
610.047	0.0157096
610.125	0.0157872
610.203	0.0155665
610.281	0.0157393
610.359	0.0157387
610.437	0.0156385
610.515	0.0157452
610.593	0.0157822
610.672	0.0156239
610.750	0.0156512
610.828	0.0155547
610.906	0.0157219
610.984	0.0157992
611.062	0.0156060
611.140	0.0155218
611.218	0.0157337
611.297	0.0157453
611.375	0.0158514
611.453	0.0157014
611.531	0.0156924
611.609	0.0158462
611.687	0.0157580
611.765	0.0158273
611.843	0.0158471
611.922	0.0159125
612.000	0.0158131
612.078	0.0157430
612.156	0.0158959
612.234	0.0156682
612.312	0.0158184
612.390	0.0158624
612.468	0.0157420
612.547	0.0157584
612.625	0.0158638
612.703	0.0158463
612.781	0.0159071
612.859	0.0158141
612.937	0.0158892
613.015	0.0158340
613.093	0.0157342
613.172	0.0158694
613.250	0.0158205
613.328	0.0157463
613.406	0.0158688
613.484	0.0158429
613.562	0.0157342
613.640	0.0158150
613.718	0.0158903
613.797	0.0158697
613.875	0.0158362
613.953	0.0158348
614.031	0.0158456
614.109	0.0157537
614.187	0.0158861
614.265	0.0159323
614.343	0.0156879
614.422	0.0158655
614.500	0.0157641
614.578	0.0158725
614.656	0.0157706
614.734	0.0157698
614.812	0.0158270
614.890	0.0158118
614.968	0.0158671
615.047	0.0158839
615.125	0.0159238
615.203	0.0159326
615.281	0.0157971
615.359	0.0159650
615.437	0.0157832
615.515	0.0157535
615.593	0.0157713
615.672	0.0158026
615.750	0.0159018
615.828	0.0158892
615.906	0.0157322
615.984	0.0158199
616.062	0.0157047
616.140	0.0156905
616.218	0.0158488
616.297	0.0158115
616.375	0.0156611
616.453	0.0155930
616.531	0.0157095
616.609	0.0158189
616.687	0.0157368
616.765	0.0157756
616.843	0.0156958
616.922	0.0156316
617.000	0.0157356
617.078	0.0157317
617.156	0.0157803
617.234	0.0156696
617.312	0.0157028
617.390	0.0156958
617.468	0.0156490
617.547	0.0157288
617.625	0.0156421
617.703	0.0154662
617.781	0.0155912
617.859	0.0155991
617.937	0.0157025
618.015	0.0156140
618.093	0.0155454
618.172	0.0155297
618.250	0.0155904
618.328	0.0156133
618.406	0.0157489
618.484	0.0156789
618.562	0.0155665
618.640	0.0155613
618.718	0.0156425
618.797	0.0156396
618.875	0.0156714
618.953	0.0156066
619.031	0.0155547
619.109	0.0156395
619.187	0.0156694
619.265	0.0156008
619.343	0.0154274
619.422	0.0157153
619.500	0.0157056
619.578	0.0156066
619.656	0.0156703
619.734	0.0156618
619.812	0.0156207
619.890	0.0157146
619.968	0.0155862
620.047	0.0156339
620.125	0.0156911
620.203	0.0156892
620.281	0.0157362
620.359	0.0156708
620.437	0.0156105
620.515	0.0156330
620.593	0.0157214
620.672	0.0158304
620.750	0.0156808
620.828	0.0156051
620.906	0.0156013
620.984	0.0156155
621.062	0.0155376
621.140	0.0156166
621.218	0.0157677
621.297	0.0156681
621.375	0.0157086
621.453	0.0154925
621.531	0.0155979
621.609	0.0156686
621.687	0.0157135
621.765	0.0156440
621.843	0.0156290
621.922	0.0157234
622.000	0.0156319
622.078	0.0154887
622.156	0.0156443
622.234	0.0155348
622.312	0.0155634
622.390	0.0157044
622.468	0.0157024
622.547	0.0156613
622.625	0.0156029
622.703	0.0154881
622.781	0.0156521
622.859	0.0156841
622.937	0.0156059
623.015	0.0154749
623.093	0.0155727
623.172	0.0156575
623.250	0.0156379
623.328	0.0155790
623.406	0.0156974
623.484	0.0157157
623.562	0.0155640
623.640	0.0156229
623.718	0.0155270
623.797	0.0154774
623.875	0.0156342
623.953	0.0154330
624.031	0.0155969
624.109	0.0156322
624.187	0.0156582
624.265	0.0156413
624.343	0.0156160
624.422	0.0156318
624.500	0.0154506
624.578	0.0155772
624.656	0.0155976
624.734	0.0156425
624.812	0.0155662
624.890	0.0156709
624.968	0.0153523
625.047	0.0156789
625.125	0.0156153
625.203	0.0156097
625.281	0.0155457
625.359	0.0154734
625.437	0.0155298
625.515	0.0156197
625.593	0.0155579
625.672	0.0156573
625.750	0.0156678
625.828	0.0157200
625.906	0.0156725
625.984	0.0155550
626.062	0.0156163
626.140	0.0157549
626.218	0.0156422
626.297	0.0157401
626.375	0.0155943
626.453	0.0157226
626.531	0.0156776
626.609	0.0156506
626.687	0.0157059
626.765	0.0156763
626.843	0.0157365
626.922	0.0155685
627.000	0.0157433
627.078	0.0156457
627.156	0.0157502
627.234	0.0157069
627.312	0.0157658
627.390	0.0157167
627.468	0.0157454
627.547	0.0157796
627.625	0.0157555
627.703	0.0156987
627.781	0.0156475
627.859	0.0158244
627.937	0.0157095
628.015	0.0156293
628.093	0.0157320
628.172	0.0156754
628.250	0.0157249
628.328	0.0155230
628.406	0.0156618
628.484	0.0156843
628.562	0.0157117
628.640	0.0156718
628.718	0.0156694
628.797	0.0157836
628.875	0.0156451
628.953	0.0156411
629.031	0.0156873
629.109	0.0155755
629.187	0.0157674
629.265	0.0156042
629.343	0.0156880
629.422	0.0155914
629.500	0.0156426
629.578	0.0157761
629.656	0.0156037
629.734	0.0156263
629.812	0.0156332
629.890	0.0156036
629.968	0.0155830
630.047	0.0156109
630.125	0.0156017
630.203	0.0157469
630.281	0.0156643
630.359	0.0155709
630.437	0.0157510
630.515	0.0155450
630.593	0.0155972
630.672	0.0156310
630.750	0.0156052
630.828	0.0156014
630.906	0.0156564
630.984	0.0157811
631.062	0.0155610
631.140	0.0156759
631.218	0.0156667
631.297	0.0156736
631.375	0.0156528
631.453	0.0155847
631.531	0.0157289
631.609	0.0156266
631.687	0.0157551
631.765	0.0157505
631.843	0.0156554
631.922	0.0157426
632.000	0.0157199
632.078	0.0157510
632.156	0.0157202
632.234	0.0158559
632.312	0.0156010
632.390	0.0157417
632.468	0.0157334
632.547	0.0157626
632.625	0.0156921
632.703	0.0157916
632.781	0.0157034
632.859	0.0157256
632.937	0.0158382
633.015	0.0157171
633.093	0.0157952
633.172	0.0157405
633.250	0.0156207
633.328	0.0157436
633.406	0.0157478
633.484	0.0157875
633.562	0.0155995
633.640	0.0158065
633.718	0.0157881
633.797	0.0157261
633.875	0.0157439
633.953	0.0157182
634.031	0.0157509
634.109	0.0156780
634.187	0.0156209
634.265	0.0158127
634.343	0.0156779
634.422	0.0157117
634.500	0.0157372
634.578	0.0156930
634.656	0.0156031
634.734	0.0156393
634.812	0.0157179
634.890	0.0156634
634.968	0.0156977
635.047	0.0158311
635.125	0.0157780
635.203	0.0158349
635.281	0.0158247
635.359	0.0157817
635.437	0.0157790
635.515	0.0159157
635.593	0.0159100
635.672	0.0157810
635.750	0.0157274
635.828	0.0157110
635.906	0.0156960
635.984	0.0158330
636.062	0.0157546
636.140	0.0159526
636.218	0.0157956
636.297	0.0157886
636.375	0.0157937
636.453	0.0157861
636.531	0.0157610
636.609	0.0158350
636.687	0.0158289
636.765	0.0157642
636.843	0.0156764
636.922	0.0157047
637.000	0.0156799
637.078	0.0157613
637.156	0.0157945
637.234	0.0156895
637.312	0.0156589
637.390	0.0157999
637.468	0.0157258
637.547	0.0156676
637.625	0.0156581
637.703	0.0156571
637.781	0.0157217
637.859	0.0156450
637.937	0.0155245
638.015	0.0156496
638.093	0.0156505
638.172	0.0155994
638.250	0.0156940
638.328	0.0156964
638.406	0.0155681
638.484	0.0156380
638.562	0.0156132
638.640	0.0154364
638.718	0.0156492
638.797	0.0157120
638.875	0.0156775
638.953	0.0155799
639.031	0.0156825
639.109	0.0155396
639.187	0.0155625
639.265	0.0155148
639.343	0.0155247
639.422	0.0157197
639.500	0.0156725
639.578	0.0155999
639.656	0.0155553
639.734	0.0156165
639.812	0.0156589
639.890	0.0156126
639.968	0.0155829
640.047	0.0155762
640.125	0.0156790
640.203	0.0157109
640.281	0.0156117
640.359	0.0157975
640.437	0.0157652
640.515	0.0157075
640.593	0.0156194
640.672	0.0157114
640.750	0.0156877
640.828	0.0157751
640.906	0.0156837
640.984	0.0157720
641.062	0.0157643
641.140	0.0157652
641.218	0.0156055
641.297	0.0156419
641.375	0.0157030
641.453	0.0157439
641.531	0.0157224
641.609	0.0157746
641.687	0.0157069
641.765	0.0155917
641.843	0.0157142
641.922	0.0157669
642.000	0.0156656
642.078	0.0157795
642.156	0.0158080
642.234	0.0157071
642.312	0.0155608
642.390	0.0157429
642.468	0.0156880
642.547	0.0157986
642.625	0.0157250
642.703	0.0157088
642.781	0.0155951
642.859	0.0157555
642.937	0.0157513
643.015	0.0157043
643.093	0.0156332
643.172	0.0156884
643.250	0.0155685
643.328	0.0156876
643.406	0.0156590
643.484	0.0156271
643.562	0.0155422
643.640	0.0156554
643.718	0.0155840
643.797	0.0155929
643.875	0.0156958
643.953	0.0156190
644.031	0.0156890
644.109	0.0155089
644.187	0.0154998
644.265	0.0157669
644.343	0.0156231
644.422	0.0157599
644.500	0.0154436
644.578	0.0155718
644.656	0.0155895
644.734	0.0156728
644.812	0.0156658
644.890	0.0156792
644.968	0.0157030
645.047	0.0156287
645.125	0.0155277
645.203	0.0157561
645.281	0.0155347
645.359	0.0156005
645.437	0.0156725
645.515	0.0157877
645.593	0.0155591
645.672	0.0156438
645.750	0.0157288
645.828	0.0156284
645.906	0.0156709
645.984	0.0157435
646.062	0.0156033
646.140	0.0154494
646.218	0.0156432
646.297	0.0155708
646.375	0.0157433
646.453	0.0156595
646.531	0.0156480
646.609	0.0157314
646.687	0.0157564
646.765	0.0156253
646.843	0.0156941
646.922	0.0157308
647.000	0.0158205
647.078	0.0157522
647.156	0.0157129
647.234	0.0157835
647.312	0.0157767
647.390	0.0157727
647.468	0.0154868
647.547	0.0156917
647.625	0.0158353
647.703	0.0157430
647.781	0.0157504
647.859	0.0156699
647.937	0.0157162
648.015	0.0156963
648.093	0.0157521
648.172	0.0157912
648.250	0.0156480
648.328	0.0157992
648.406	0.0158569
648.484	0.0158514
648.562	0.0157529
648.640	0.0157369
648.718	0.0157076
648.797	0.0157711
648.875	0.0158138
648.953	0.0157277
649.031	0.0156702
649.109	0.0156091
649.187	0.0156826
649.265	0.0155341
649.343	0.0158249
649.422	0.0157782
649.500	0.0156709
649.578	0.0157008
649.656	0.0157026
649.734	0.0156293
649.812	0.0156955
649.890	0.0157554
649.968	0.0157627
650.047	0.0156412
650.125	0.0156457
650.203	0.0157770
650.281	0.0157309
650.359	0.0156755
650.437	0.0157022
650.515	0.0157621
650.593	0.0157282
650.672	0.0157049
650.750	0.0157040
650.828	0.0157594
650.906	0.0156387
650.984	0.0156657
651.062	0.0158489
651.140	0.0157004
651.218	0.0157023
651.297	0.0156403
651.375	0.0157121
651.453	0.0157068
651.531	0.0156244
651.609	0.0157200
651.687	0.0157128
651.765	0.0157122
651.843	0.0157414
651.922	0.0157284
652.000	0.0156169
652.078	0.0156717
652.156	0.0157894
652.234	0.0157333
652.312	0.0156260
652.390	0.0157437
652.468	0.0157347
652.547	0.0158438
652.625	0.0157439
652.703	0.0157240
652.781	0.0157508
652.859	0.0156416
652.937	0.0157072
653.015	0.0157535
653.093	0.0157016
653.172	0.0157938
653.250	0.0157528
653.328	0.0155752
653.406	0.0155777
653.484	0.0156986
653.562	0.0157289
653.640	0.0156785
653.718	0.0157291
653.797	0.0158161
653.875	0.0158153
653.953	0.0158021
654.031	0.0157397
654.109	0.0156861
654.187	0.0157752
654.265	0.0157616
654.343	0.0155687
654.422	0.0157080
654.500	0.0156220
654.578	0.0157681
654.656	0.0157165
654.734	0.0156831
654.812	0.0155457
654.890	0.0156941
654.968	0.0157616
655.047	0.0156103
655.125	0.0156228
655.203	0.0157020
655.281	0.0156923
655.359	0.0156726
655.437	0.0159084
655.515	0.0157875
655.593	0.0157171
655.672	0.0156998
655.750	0.0156575
655.828	0.0156955
655.906	0.0157193
655.984	0.0155878
656.062	0.0157245
656.140	0.0155416
656.218	0.0155811
656.297	0.0157285
656.375	0.0157873
656.453	0.0157719
656.531	0.0157608
656.609	0.0157359
656.687	0.0155688
656.765	0.0156303
656.843	0.0157196
656.922	0.0158550
657.000	0.0156881
657.078	0.0156240
657.156	0.0156643
657.234	0.0157375
657.312	0.0156642
657.390	0.0156422
657.468	0.0156756
657.547	0.0156662
657.625	0.0157430
657.703	0.0157236
657.781	0.0156164
657.859	0.0156764
657.937	0.0157172
658.015	0.0156801
658.093	0.0155481
658.172	0.0154742
658.250	0.0156567
658.328	0.0157024
658.406	0.0155515
658.484	0.0156734
658.562	0.0157692
658.640	0.0156991
658.718	0.0156096
658.797	0.0156826
658.875	0.0157717
658.953	0.0156503
659.031	0.0155530
659.109	0.0156103
659.187	0.0156283
659.265	0.0156492
659.343	0.0157065
659.422	0.0156725
659.500	0.0155859
659.578	0.0156650
659.656	0.0156599
659.734	0.0155246
659.812	0.0157318
659.890	0.0156239
659.968	0.0157691
660.047	0.0156457
660.125	0.0155666
660.203	0.0157158
660.281	0.0156246
660.359	0.0156470
660.437	0.0155307
660.515	0.0157016
660.593	0.0157420
660.672	0.0156857
660.750	0.0157299
660.828	0.0157559
660.906	0.0156724
660.984	0.0155699
661.062	0.0157471
661.140	0.0157262
661.218	0.0155297
661.297	0.0156466
661.375	0.0156425
661.453	0.0156278
661.531	0.0155907
661.609	0.0157879
661.687	0.0156641
661.765	0.0156310
661.843	0.0156702
661.922	0.0155522
662.000	0.0154736
662.078	0.0156730
662.156	0.0156885
662.234	0.0157465
662.312	0.0156928
662.390	0.0156516
662.468	0.0156076
662.547	0.0157301
662.625	0.0154678
662.703	0.0157365
662.781	0.0157600
662.859	0.0155215
662.937	0.0156985
663.015	0.0155717
663.093	0.0156386
663.172	0.0158248
663.250	0.0157220
663.328	0.0156590
663.406	0.0156651
663.484	0.0156667
663.562	0.0156102
663.640	0.0156510
663.718	0.0156972
663.797	0.0156305
663.875	0.0154195
663.953	0.0157276
664.031	0.0156180
664.109	0.0156569
664.187	0.0156322
664.265	0.0156655
664.343	0.0157710
664.422	0.0157916
664.500	0.0155160
664.578	0.0156607
664.656	0.0156731
664.734	0.0156900
664.812	0.0156573
664.890	0.0156757
664.968	0.0156820
665.047	0.0157264
665.125	0.0156403
665.203	0.0156815
665.281	0.0157734
665.359	0.0157356
665.437	0.0155890
665.515	0.0155393
665.593	0.0155920
665.672	0.0156869
665.750	0.0156020
665.828	0.0156034
665.906	0.0157172
665.984	0.0157104
666.062	0.0155723
666.140	0.0155724
666.218	0.0156881
666.297	0.0156213
666.375	0.0156277
666.453	0.0156752
666.531	0.0155846
666.609	0.0157023
666.687	0.0158322
666.765	0.0155756
666.843	0.0155927
666.922	0.0156782
667.000	0.0156522
667.078	0.0158245
667.156	0.0155744
667.234	0.0155713
667.312	0.0156638
667.390	0.0158022
667.468	0.0157336
667.547	0.0156208
667.625	0.0158795
667.703	0.0157340
667.781	0.0158177
667.859	0.0156834
667.937	0.0158940
668.015	0.0157806
668.093	0.0157386
668.172	0.0157368
668.250	0.0159251
668.328	0.0157751
668.406	0.0157555
668.484	0.0157614
668.562	0.0158304
668.640	0.0159469
668.718	0.0157548
668.797	0.0159312
668.875	0.0157855
668.953	0.0157649
669.031	0.0156739
669.109	0.0156067
669.187	0.0157526
669.265	0.0157661
669.343	0.0155616
669.422	0.0156812
669.500	0.0156571
669.578	0.0157387
669.656	0.0157261
669.734	0.0158076
669.812	0.0156927
669.890	0.0156297
669.968	0.0156281
670.047	0.0157262
670.125	0.0157789
670.203	0.0156390
670.281	0.0157848
670.359	0.0157865
670.437	0.0156312
670.515	0.0156546
670.593	0.0156960
670.672	0.0156602
670.750	0.0156756
670.828	0.0157645
670.906	0.0156622
670.984	0.0157670
671.062	0.0156998
671.140	0.0156969
671.218	0.0157051
671.297	0.0157414
671.375	0.0157753
671.453	0.0158369
671.531	0.0157753
671.609	0.0158410
671.687	0.0157404
671.765	0.0156107
671.843	0.0157626
671.922	0.0158119
672.000	0.0157285
672.078	0.0157491
672.156	0.0157496
672.234	0.0158051
672.312	0.0157575
672.390	0.0158786
672.468	0.0157639
672.547	0.0156721
672.625	0.0157837
672.703	0.0156476
672.781	0.0157114
672.859	0.0158268
672.937	0.0158642
673.015	0.0155957
673.093	0.0159035
673.172	0.0158609
673.250	0.0157664
673.328	0.0157452
673.406	0.0157368
673.484	0.0157129
673.562	0.0157864
673.640	0.0158387
673.718	0.0155827
673.797	0.0155772
673.875	0.0156654
673.953	0.0156796
674.031	0.0157309
674.109	0.0157307
674.187	0.0156314
674.265	0.0156091
674.343	0.0155954
674.422	0.0155746
674.500	0.0156822
674.578	0.0155529
674.656	0.0157613
674.734	0.0157160
674.812	0.0156501
674.890	0.0157385
674.968	0.0157775
675.047	0.0157789
675.125	0.0158421
675.203	0.0157056
675.281	0.0156165
675.359	0.0156411
675.437	0.0156741
675.515	0.0156487
675.593	0.0158264
675.672	0.0156491
675.750	0.0157355
675.828	0.0155859
675.906	0.0156286
675.984	0.0156772
676.062	0.0156822
676.140	0.0156474
676.218	0.0156476
676.297	0.0156428
676.375	0.0157942
676.453	0.0156326
676.531	0.0156549
676.609	0.0157013
676.687	0.0156762
676.765	0.0156647
676.843	0.0156230
676.922	0.0156348
677.000	0.0157658
677.078	0.0157612
677.156	0.0155328
677.234	0.0155947
677.312	0.0157135
677.390	0.0156970
677.468	0.0156472
677.547	0.0155836
677.625	0.0157359
677.703	0.0156596
677.781	0.0154739
677.859	0.0155871
677.937	0.0156655
678.015	0.0155541
678.093	0.0156474
678.172	0.0154865
678.250	0.0156263
678.328	0.0157166
678.406	0.0156036
678.484	0.0155269
678.562	0.0157310
678.640	0.0156683
678.718	0.0157365
678.797	0.0157030
678.875	0.0156017
678.953	0.0157233
679.031	0.0156853
679.109	0.0155714
679.187	0.0156639
679.265	0.0156699
679.343	0.0155718
679.422	0.0156718
679.500	0.0156744
679.578	0.0156249
679.656	0.0156811
679.734	0.0155896
679.812	0.0156733
679.890	0.0155889
679.968	0.0155980
680.047	0.0157246
680.125	0.0157372
680.203	0.0156372
680.281	0.0156313
680.359	0.0156157
680.437	0.0156644
680.515	0.0157516
680.593	0.0156979
680.672	0.0156306
680.750	0.0156810
680.828	0.0156473
680.906	0.0156071
680.984	0.0155791
681.062	0.0155821
681.140	0.0155235
681.218	0.0155318
681.297	0.0156384
681.375	0.0155862
681.453	0.0157507
681.531	0.0156694
681.609	0.0155300
681.687	0.0157126
681.765	0.0155811
681.843	0.0156377
681.922	0.0156664
682.000	0.0157888
682.078	0.0157337
682.156	0.0156509
682.234	0.0157178
682.312	0.0156865
682.390	0.0156775
682.468	0.0157936
682.547	0.0157864
682.625	0.0158015
682.703	0.0157556
682.781	0.0156273
682.859	0.0156985
682.937	0.0158269
683.015	0.0157044
683.093	0.0158372
683.172	0.0158313
683.250	0.0158114
683.328	0.0159068
683.406	0.0157067
683.484	0.0157985
683.562	0.0157167
683.640	0.0157077
683.718	0.0156283
683.797	0.0156841
683.875	0.0156618
683.953	0.0157404
684.031	0.0157655
684.109	0.0157582
684.187	0.0156977
684.265	0.0157657
684.343	0.0158253
684.422	0.0156412
684.500	0.0157364
684.578	0.0157922
684.656	0.0156989
684.734	0.0158660
684.812	0.0156321
684.890	0.0156206
684.968	0.0156927
685.047	0.0158242
685.125	0.0155710
685.203	0.0157632
685.281	0.0157369
685.359	0.0155759
685.437	0.0157103
685.515	0.0156552
685.593	0.0155975
685.672	0.0156933
