06/13/2022	15:01:09	Ver.	4.1	UNKNOWN
Optical Delay	599.968395	Delta X		0.078125	Sweeps	1	Scan Rate	0/0
Coordinates	Axis 1	NaN	Axis 2	NaN	Axis 3	NaN	Axis 4	NaN	Axis 5	NaN	Axis 6	0.000000
TX Power	0.000000	RX Power	0.000000

599.968	0.0155510
600.047	0.0155309
600.125	0.0154943
600.203	0.0155085
600.281	0.0156485
600.359	0.0156010
600.437	0.0154191
600.515	0.0154587
600.593	0.0154723
600.672	0.0155193
600.750	0.0155017
600.828	0.0154691
600.906	0.0156138
600.984	0.0154157
601.062	0.0154051
601.140	0.0154823
601.218	0.0155796
601.297	0.0155116
601.375	0.0155627
601.453	0.0155276
601.531	0.0155074
601.609	0.0156157
601.687	0.0155038
601.765	0.0155094
601.843	0.0155331
601.922	0.0154518
602.000	0.0154921
602.078	0.0155117
602.156	0.0155643
602.234	0.0155031
602.312	0.0154845
602.390	0.0154836
602.468	0.0154620
602.547	0.0153930
602.625	0.0154261
602.703	0.0154153
602.781	0.0154018
602.859	0.0154997
602.937	0.0155322
603.015	0.0154499
603.093	0.0154312
603.172	0.0154308
603.250	0.0154254
603.328	0.0155177
603.406	0.0155585
603.484	0.0155445
603.562	0.0154513
603.640	0.0155910
603.718	0.0154252
603.797	0.0156421
603.875	0.0155158
603.953	0.0154325
604.031	0.0155266
604.109	0.0153955
604.187	0.0154919
604.265	0.0155170
604.343	0.0154061
604.422	0.0154279
604.500	0.0154476
604.578	0.0153780
604.656	0.0155560
604.734	0.0155151
604.812	0.0153900
604.890	0.0154565
604.968	0.0155825
605.047	0.0155029
605.125	0.0154187
605.203	0.0154726
605.281	0.0153928
605.359	0.0155610
605.437	0.0153598
605.515	0.0154448
605.593	0.0154988
605.672	0.0155833
605.750	0.0154456
605.828	0.0153481
605.906	0.0154633
605.984	0.0154023
606.062	0.0155099
606.140	0.0154809
606.218	0.0154552
606.297	0.0154653
606.375	0.0155274
606.453	0.0154905
606.531	0.0155460
606.609	0.0155270
606.687	0.0156108
606.765	0.0155901
606.843	0.0154478
606.922	0.0155331
607.000	0.0154111
607.078	0.0155774
607.156	0.0155089
607.234	0.0155194
607.312	0.0155146
607.390	0.0155917
607.468	0.0155550
607.547	0.0155877
607.625	0.0154179
607.703	0.0154548
607.781	0.0156899
607.859	0.0155745
607.937	0.0155058
608.015	0.0155998
608.093	0.0156150
608.172	0.0156201
608.250	0.0155428
608.328	0.0155338
608.406	0.0156524
608.484	0.0156631
608.562	0.0156209
608.640	0.0155894
608.718	0.0156364
608.797	0.0156905
608.875	0.0156197
608.953	0.0155956
609.031	0.0156723
609.109	0.0157033
609.187	0.0156029
609.265	0.0156219
609.343	0.0157804
609.422	0.0155859
609.500	0.0156667
609.578	0.0157246
609.656	0.0157064
609.734	0.0158405
609.812	0.0157648
609.890	0.0156573
609.968	0.0157144
610.047	0.0156586
610.125	0.0157400
610.203	0.0157693
610.281	0.0156528
610.359	0.0157475
610.437	0.0158231
610.515	0.0157276
610.593	0.0157327
610.672	0.0156814
610.750	0.0157346
610.828	0.0156766
610.906	0.0155424
610.984	0.0157124
611.062	0.0156297
611.140	0.0157024
611.218	0.0157280
611.297	0.0156996
611.375	0.0157143
611.453	0.0156341
611.531	0.0155988
611.609	0.0156475
611.687	0.0155831
611.765	0.0156125
611.843	0.0156451
611.922	0.0156638
612.000	0.0156086
612.078	0.0156578
612.156	0.0157290
612.234	0.0155412
612.312	0.0157024
612.390	0.0157394
612.468	0.0157158
612.547	0.0156540
612.625	0.0156113
612.703	0.0156764
612.781	0.0156778
612.859	0.0156889
612.937	0.0155432
613.015	0.0155503
613.093	0.0155720
613.172	0.0156665
613.250	0.0157506
613.328	0.0155904
613.406	0.0157044
613.484	0.0155923
613.562	0.0157111
613.640	0.0157929
613.718	0.0156479
613.797	0.0156499
613.875	0.0155621
613.953	0.0155894
614.031	0.0156502
614.109	0.0156908
614.187	0.0155831
614.265	0.0156467
614.343	0.0155375
614.422	0.0154819
614.500	0.0154848
614.578	0.0157054
614.656	0.0156779
614.734	0.0155521
614.812	0.0156287
614.890	0.0155753
614.968	0.0155729
615.047	0.0156805
615.125	0.0155362
615.203	0.0155708
615.281	0.0155454
615.359	0.0155173
615.437	0.0155679
615.515	0.0156013
615.593	0.0153930
615.672	0.0154008
615.750	0.0155740
615.828	0.0155508
615.906	0.0153755
615.984	0.0155238
616.062	0.0155901
616.140	0.0156531
616.218	0.0155004
616.297	0.0156701
616.375	0.0155376
616.453	0.0154518
616.531	0.0157066
616.609	0.0155263
616.687	0.0154742
616.765	0.0155198
616.843	0.0156134
616.922	0.0156519
617.000	0.0155332
617.078	0.0155627
617.156	0.0154611
617.234	0.0156336
617.312	0.0156706
617.390	0.0155555
617.468	0.0155788
617.547	0.0155865
617.625	0.0155663
617.703	0.0155557
617.781	0.0154600
617.859	0.0155885
617.937	0.0155088
618.015	0.0155956
618.093	0.0156924
618.172	0.0156815
618.250	0.0156862
618.328	0.0155957
618.406	0.0156228
618.484	0.0156934
618.562	0.0156793
618.640	0.0156293
618.718	0.0156184
618.797	0.0157221
618.875	0.0157555
618.953	0.0156045
619.031	0.0155767
619.109	0.0155276
619.187	0.0157539
619.265	0.0156747
619.343	0.0154895
619.422	0.0156832
619.500	0.0155672
619.578	0.0156135
619.656	0.0156580
619.734	0.0155893
619.812	0.0155419
619.890	0.0156716
619.968	0.0155826
620.047	0.0155412
620.125	0.0155916
620.203	0.0155455
620.281	0.0155433
620.359	0.0156964
620.437	0.0155547
620.515	0.0156176
620.593	0.0156447
620.672	0.0156079
620.750	0.0155550
620.828	0.0156361
620.906	0.0155188
620.984	0.0154020
621.062	0.0155141
621.140	0.0155479
621.218	0.0156285
621.297	0.0156164
621.375	0.0155345
621.453	0.0154347
621.531	0.0155563
621.609	0.0155547
621.687	0.0156059
621.765	0.0155646
621.843	0.0155295
621.922	0.0155424
622.000	0.0155379
622.078	0.0154893
622.156	0.0156213
622.234	0.0156919
622.312	0.0154640
622.390	0.0154540
622.468	0.0155506
622.547	0.0155273
622.625	0.0155521
622.703	0.0155341
622.781	0.0155845
622.859	0.0156225
622.937	0.0155838
623.015	0.0155946
623.093	0.0155437
623.172	0.0156108
623.250	0.0155512
623.328	0.0153594
623.406	0.0154980
623.484	0.0154829
623.562	0.0154099
623.640	0.0154460
623.718	0.0154475
623.797	0.0155401
623.875	0.0154047
623.953	0.0154667
624.031	0.0155753
624.109	0.0155990
624.187	0.0153840
624.265	0.0154036
624.343	0.0155111
624.422	0.0153936
624.500	0.0154594
624.578	0.0154552
624.656	0.0155286
624.734	0.0155434
624.812	0.0154137
624.890	0.0154720
624.968	0.0155337
625.047	0.0156161
625.125	0.0155080
625.203	0.0153715
625.281	0.0155024
625.359	0.0153873
625.437	0.0154258
625.515	0.0155925
625.593	0.0155511
625.672	0.0155402
625.750	0.0156256
625.828	0.0154807
625.906	0.0154888
625.984	0.0155698
626.062	0.0153970
626.140	0.0155214
626.218	0.0155668
626.297	0.0154713
626.375	0.0155344
626.453	0.0154450
626.531	0.0155741
626.609	0.0156182
626.687	0.0154274
626.765	0.0155175
626.843	0.0156120
626.922	0.0155471
627.000	0.0153654
627.078	0.0154594
627.156	0.0155211
627.234	0.0156371
627.312	0.0156095
627.390	0.0155669
627.468	0.0153739
627.547	0.0155067
627.625	0.0155007
627.703	0.0155039
627.781	0.0154848
627.859	0.0153714
627.937	0.0156380
628.015	0.0154872
628.093	0.0155172
628.172	0.0155418
628.250	0.0156277
628.328	0.0156917
628.406	0.0156302
628.484	0.0154438
628.562	0.0155784
628.640	0.0155448
628.718	0.0155605
628.797	0.0155119
628.875	0.0155593
628.953	0.0156907
629.031	0.0156069
629.109	0.0156160
629.187	0.0155275
629.265	0.0154998
629.343	0.0155625
629.422	0.0156127
629.500	0.0156634
629.578	0.0157600
629.656	0.0156185
629.734	0.0156361
629.812	0.0155487
629.890	0.0155378
629.968	0.0155209
630.047	0.0156415
630.125	0.0155883
630.203	0.0156244
630.281	0.0155309
630.359	0.0156163
630.437	0.0155126
630.515	0.0156217
630.593	0.0156419
630.672	0.0156393
630.750	0.0156488
630.828	0.0156604
630.906	0.0156490
630.984	0.0156900
631.062	0.0156099
631.140	0.0154763
631.218	0.0156677
631.297	0.0157500
631.375	0.0156744
631.453	0.0157159
631.531	0.0156939
631.609	0.0155963
631.687	0.0155825
631.765	0.0155202
631.843	0.0156346
631.922	0.0157115
632.000	0.0156364
632.078	0.0156658
632.156	0.0157562
632.234	0.0157377
632.312	0.0156905
632.390	0.0156212
632.468	0.0156603
632.547	0.0156168
632.625	0.0156519
632.703	0.0156299
632.781	0.0153964
632.859	0.0156261
632.937	0.0156843
633.015	0.0156071
633.093	0.0157011
633.172	0.0156868
633.250	0.0156646
633.328	0.0156730
633.406	0.0157655
633.484	0.0155283
633.562	0.0157355
633.640	0.0156885
633.718	0.0156387
633.797	0.0156203
633.875	0.0157281
633.953	0.0157499
634.031	0.0156715
634.109	0.0156839
634.187	0.0156100
634.265	0.0157117
634.343	0.0157180
634.422	0.0157634
634.500	0.0156793
634.578	0.0155215
634.656	0.0157249
634.734	0.0158115
634.812	0.0156697
634.890	0.0155670
634.968	0.0157310
635.047	0.0157327
635.125	0.0156758
635.203	0.0157320
635.281	0.0156316
635.359	0.0156468
635.437	0.0156674
635.515	0.0157511
635.593	0.0156399
635.672	0.0156785
635.750	0.0155645
635.828	0.0156703
635.906	0.0157775
635.984	0.0156860
636.062	0.0158079
636.140	0.0156567
636.218	0.0156310
636.297	0.0157926
636.375	0.0156880
636.453	0.0157201
636.531	0.0157397
636.609	0.0156105
636.687	0.0157214
636.765	0.0156644
636.843	0.0155791
636.922	0.0156879
637.000	0.0157028
637.078	0.0156355
637.156	0.0157452
637.234	0.0156589
637.312	0.0157649
637.390	0.0156978
637.468	0.0155762
637.547	0.0158038
637.625	0.0156709
637.703	0.0156477
637.781	0.0157346
637.859	0.0156167
637.937	0.0156392
638.015	0.0155513
638.093	0.0157248
638.172	0.0156929
638.250	0.0156744
638.328	0.0157210
638.406	0.0156602
638.484	0.0156226
638.562	0.0155737
638.640	0.0155676
638.718	0.0156840
638.797	0.0156467
638.875	0.0157085
638.953	0.0156759
639.031	0.0156833
639.109	0.0155519
639.187	0.0156445
639.265	0.0157946
639.343	0.0156387
639.422	0.0156707
639.500	0.0158148
639.578	0.0156290
639.656	0.0156371
639.734	0.0156075
639.812	0.0156853
639.890	0.0157516
639.968	0.0157423
640.047	0.0156446
640.125	0.0157806
640.203	0.0156124
640.281	0.0156208
640.359	0.0156606
640.437	0.0157328
640.515	0.0156356
640.593	0.0158626
640.672	0.0156446
640.750	0.0155836
640.828	0.0156202
640.906	0.0155675
640.984	0.0156791
641.062	0.0156894
641.140	0.0157143
641.218	0.0158125
641.297	0.0155709
641.375	0.0155587
641.453	0.0157631
641.531	0.0155839
641.609	0.0155515
641.687	0.0157162
641.765	0.0156847
641.843	0.0156043
641.922	0.0155315
642.000	0.0157580
642.078	0.0155520
642.156	0.0156328
642.234	0.0155609
642.312	0.0156759
642.390	0.0156170
642.468	0.0154927
642.547	0.0156083
642.625	0.0156605
642.703	0.0155447
642.781	0.0156197
642.859	0.0156997
642.937	0.0156686
643.015	0.0156360
643.093	0.0156573
643.172	0.0157090
643.250	0.0155542
643.328	0.0155486
643.406	0.0156530
643.484	0.0156237
643.562	0.0156114
643.640	0.0155997
643.718	0.0156248
643.797	0.0155679
643.875	0.0155853
643.953	0.0156680
644.031	0.0155914
644.109	0.0155492
644.187	0.0155256
644.265	0.0155397
644.343	0.0155375
644.422	0.0154870
644.500	0.0155910
644.578	0.0155409
644.656	0.0155151
644.734	0.0154633
644.812	0.0155811
644.890	0.0152998
644.968	0.0156115
645.047	0.0155091
645.125	0.0154482
645.203	0.0155815
645.281	0.0155624
645.359	0.0155414
645.437	0.0155995
645.515	0.0155175
645.593	0.0155080
645.672	0.0155515
645.750	0.0155751
645.828	0.0154903
645.906	0.0156254
645.984	0.0155978
646.062	0.0155724
646.140	0.0154868
646.218	0.0155202
646.297	0.0155649
646.375	0.0154897
646.453	0.0154673
646.531	0.0155356
646.609	0.0155475
646.687	0.0154005
646.765	0.0155803
646.843	0.0155094
646.922	0.0155548
647.000	0.0155955
647.078	0.0154101
647.156	0.0154873
647.234	0.0155292
647.312	0.0153975
647.390	0.0154829
647.468	0.0154097
647.547	0.0155195
647.625	0.0155046
647.703	0.0155687
647.781	0.0156264
647.859	0.0153886
647.937	0.0153112
648.015	0.0155015
648.093	0.0155298
648.172	0.0155991
648.250	0.0154597
648.328	0.0155488
648.406	0.0154409
648.484	0.0154619
648.562	0.0155421
648.640	0.0155126
648.718	0.0154687
648.797	0.0154245
648.875	0.0153629
648.953	0.0155249
649.031	0.0156055
649.109	0.0155357
649.187	0.0155366
649.265	0.0156336
649.343	0.0155975
649.422	0.0154858
649.500	0.0154720
649.578	0.0156138
649.656	0.0155347
649.734	0.0154609
649.812	0.0154863
649.890	0.0156568
649.968	0.0157239
650.047	0.0156141
650.125	0.0155824
650.203	0.0153535
650.281	0.0156657
650.359	0.0155482
650.437	0.0155185
650.515	0.0154593
650.593	0.0153443
650.672	0.0155266
650.750	0.0154973
650.828	0.0154842
650.906	0.0154635
650.984	0.0155537
651.062	0.0155338
651.140	0.0155026
651.218	0.0155685
651.297	0.0155283
651.375	0.0155154
651.453	0.0154913
651.531	0.0154362
651.609	0.0155733
651.687	0.0156545
651.765	0.0154437
651.843	0.0155276
651.922	0.0155322
652.000	0.0155701
652.078	0.0155865
652.156	0.0154713
652.234	0.0155140
652.312	0.0154357
652.390	0.0154444
652.468	0.0155215
652.547	0.0155215
652.625	0.0155194
652.703	0.0156734
652.781	0.0155750
652.859	0.0154530
652.937	0.0155936
653.015	0.0155579
653.093	0.0155820
653.172	0.0155843
653.250	0.0155354
653.328	0.0155478
653.406	0.0155735
653.484	0.0156246
653.562	0.0157666
653.640	0.0156303
653.718	0.0155489
653.797	0.0155542
653.875	0.0156612
653.953	0.0157053
654.031	0.0156554
654.109	0.0156819
654.187	0.0156133
654.265	0.0154860
654.343	0.0154931
654.422	0.0155394
654.500	0.0155946
654.578	0.0156025
654.656	0.0156770
654.734	0.0154914
654.812	0.0155262
654.890	0.0155794
654.968	0.0156816
655.047	0.0156022
655.125	0.0155949
655.203	0.0156001
655.281	0.0156915
655.359	0.0158002
655.437	0.0157446
655.515	0.0156086
655.593	0.0157134
655.672	0.0156340
655.750	0.0156297
655.828	0.0155153
655.906	0.0155447
655.984	0.0156085
656.062	0.0156069
656.140	0.0156441
656.218	0.0156290
656.297	0.0155656
656.375	0.0157709
656.453	0.0156673
656.531	0.0157869
656.609	0.0155186
656.687	0.0155542
656.765	0.0156351
656.843	0.0156282
656.922	0.0156982
657.000	0.0157114
657.078	0.0157253
657.156	0.0156624
657.234	0.0156880
657.312	0.0156609
657.390	0.0155950
657.468	0.0155717
657.547	0.0156089
657.625	0.0155212
657.703	0.0156763
657.781	0.0156042
657.859	0.0155846
657.937	0.0156338
658.015	0.0157086
658.093	0.0156411
658.172	0.0155617
658.250	0.0156353
658.328	0.0156241
658.406	0.0157331
658.484	0.0156729
658.562	0.0156333
658.640	0.0155067
658.718	0.0156845
658.797	0.0155875
658.875	0.0156780
658.953	0.0155254
659.031	0.0155180
659.109	0.0155401
659.187	0.0155599
659.265	0.0155655
659.343	0.0155923
659.422	0.0156651
659.500	0.0155965
659.578	0.0156153
659.656	0.0155962
659.734	0.0156039
659.812	0.0156914
659.890	0.0156174
659.968	0.0155137
660.047	0.0156229
660.125	0.0156355
660.203	0.0156211
660.281	0.0154861
660.359	0.0154526
660.437	0.0157061
660.515	0.0156165
660.593	0.0155596
660.672	0.0155617
660.750	0.0157104
660.828	0.0155577
660.906	0.0155575
660.984	0.0157508
661.062	0.0156171
661.140	0.0155219
661.218	0.0155602
661.297	0.0154926
661.375	0.0155540
661.453	0.0155789
661.531	0.0156072
661.609	0.0154931
661.687	0.0156303
661.765	0.0155845
661.843	0.0155600
661.922	0.0155103
662.000	0.0153761
662.078	0.0154996
662.156	0.0155553
662.234	0.0155943
662.312	0.0154253
662.390	0.0154970
662.468	0.0155128
662.547	0.0155428
662.625	0.0155027
662.703	0.0155913
662.781	0.0154812
662.859	0.0154806
662.937	0.0154714
663.015	0.0155721
663.093	0.0155344
663.172	0.0154798
663.250	0.0153630
663.328	0.0155654
663.406	0.0154980
663.484	0.0154623
663.562	0.0156493
663.640	0.0154021
663.718	0.0153920
663.797	0.0154521
663.875	0.0154371
663.953	0.0154608
664.031	0.0155419
664.109	0.0155586
664.187	0.0155543
664.265	0.0155113
664.343	0.0155301
664.422	0.0154709
664.500	0.0154937
664.578	0.0155254
664.656	0.0154778
664.734	0.0157236
664.812	0.0155886
664.890	0.0155497
664.968	0.0156062
665.047	0.0155775
665.125	0.0155001
665.203	0.0153820
665.281	0.0156185
665.359	0.0155549
665.437	0.0154929
665.515	0.0154643
665.593	0.0155698
665.672	0.0155005
665.750	0.0156184
665.828	0.0155721
665.906	0.0154844
665.984	0.0156124
666.062	0.0154922
666.140	0.0156208
666.218	0.0155160
666.297	0.0155506
666.375	0.0154211
666.453	0.0154990
666.531	0.0155142
666.609	0.0156007
666.687	0.0154948
666.765	0.0154247
666.843	0.0154370
666.922	0.0155383
667.000	0.0155383
667.078	0.0155393
667.156	0.0154558
667.234	0.0154459
667.312	0.0155340
667.390	0.0155099
667.468	0.0155266
667.547	0.0156230
667.625	0.0155930
667.703	0.0155645
667.781	0.0155103
667.859	0.0155282
667.937	0.0155304
668.015	0.0155350
668.093	0.0156052
668.172	0.0155436
668.250	0.0155490
668.328	0.0155824
668.406	0.0154933
668.484	0.0154835
668.562	0.0154722
668.640	0.0156574
668.718	0.0156315
668.797	0.0155791
668.875	0.0155885
668.953	0.0155010
669.031	0.0156794
669.109	0.0154644
669.187	0.0156045
669.265	0.0155761
669.343	0.0156627
669.422	0.0156256
669.500	0.0156177
669.578	0.0156332
669.656	0.0155378
669.734	0.0155225
669.812	0.0156383
669.890	0.0156829
669.968	0.0155191
670.047	0.0157133
670.125	0.0157121
670.203	0.0157185
670.281	0.0155299
670.359	0.0155168
670.437	0.0155249
670.515	0.0155611
670.593	0.0157208
670.672	0.0157861
670.750	0.0156797
670.828	0.0155941
670.906	0.0156309
670.984	0.0155909
671.062	0.0156657
671.140	0.0156715
671.218	0.0155437
671.297	0.0156524
671.375	0.0155852
671.453	0.0157600
671.531	0.0156585
671.609	0.0157241
671.687	0.0157024
671.765	0.0157060
671.843	0.0156620
671.922	0.0156675
672.000	0.0156912
672.078	0.0156503
672.156	0.0157755
672.234	0.0156017
672.312	0.0156701
672.390	0.0156784
672.468	0.0155875
672.547	0.0155746
672.625	0.0156174
672.703	0.0156404
672.781	0.0156812
672.859	0.0157183
672.937	0.0156412
673.015	0.0156597
673.093	0.0156199
673.172	0.0156502
673.250	0.0156194
673.328	0.0156104
673.406	0.0156051
673.484	0.0156332
673.562	0.0157387
673.640	0.0156272
673.718	0.0155611
673.797	0.0154539
673.875	0.0156744
673.953	0.0156607
674.031	0.0155488
674.109	0.0154636
674.187	0.0155111
674.265	0.0157251
674.343	0.0156290
674.422	0.0155589
674.500	0.0156095
674.578	0.0154784
674.656	0.0156296
674.734	0.0156364
674.812	0.0154617
674.890	0.0155228
674.968	0.0155312
675.047	0.0155386
675.125	0.0155378
675.203	0.0155555
675.281	0.0156319
675.359	0.0155958
675.437	0.0156319
675.515	0.0155457
675.593	0.0155435
675.672	0.0155089
675.750	0.0154864
675.828	0.0155984
675.906	0.0155041
675.984	0.0156598
676.062	0.0154843
676.140	0.0155412
676.218	0.0155820
676.297	0.0154987
676.375	0.0154650
676.453	0.0155070
676.531	0.0155601
676.609	0.0155298
676.687	0.0155495
676.765	0.0154664
676.843	0.0154875
676.922	0.0153343
677.000	0.0156103
677.078	0.0154938
677.156	0.0153860
677.234	0.0155110
677.312	0.0153439
677.390	0.0155815
677.468	0.0154297
677.547	0.0154986
677.625	0.0156320
677.703	0.0154708
677.781	0.0154324
677.859	0.0152606
677.937	0.0154359
678.015	0.0156021
678.093	0.0155242
678.172	0.0155750
678.250	0.0155141
678.328	0.0154544
678.406	0.0156017
678.484	0.0153832
678.562	0.0154781
678.640	0.0155450
678.718	0.0155889
678.797	0.0155096
678.875	0.0154630
678.953	0.0154256
679.031	0.0154189
679.109	0.0154553
679.187	0.0154657
679.265	0.0153526
679.343	0.0154237
679.422	0.0154329
679.500	0.0155446
679.578	0.0153448
679.656	0.0153329
679.734	0.0155035
679.812	0.0153765
679.890	0.0154295
679.968	0.0153219
680.047	0.0154767
680.125	0.0153941
680.203	0.0154417
680.281	0.0153905
680.359	0.0153400
680.437	0.0155969
680.515	0.0155247
680.593	0.0154332
680.672	0.0152946
680.750	0.0154701
680.828	0.0154657
680.906	0.0155606
680.984	0.0154253
681.062	0.0154720
681.140	0.0154616
681.218	0.0154834
681.297	0.0153817
681.375	0.0153748
681.453	0.0155022
681.531	0.0153840
681.609	0.0151912
681.687	0.0154159
681.765	0.0155722
681.843	0.0154056
681.922	0.0154317
682.000	0.0154530
682.078	0.0154153
682.156	0.0154037
682.234	0.0154037
682.312	0.0155207
682.390	0.0153738
682.468	0.0153732
682.547	0.0155296
682.625	0.0155611
682.703	0.0156154
682.781	0.0153712
682.859	0.0155177
682.937	0.0155258
683.015	0.0154426
683.093	0.0155061
683.172	0.0155075
683.250	0.0154746
683.328	0.0154658
683.406	0.0154548
683.484	0.0155293
683.562	0.0153863
683.640	0.0154095
683.718	0.0154943
683.797	0.0155914
683.875	0.0155106
683.953	0.0155342
684.031	0.0155856
684.109	0.0155280
684.187	0.0155408
684.265	0.0155121
684.343	0.0156332
684.422	0.0155610
684.500	0.0155218
684.578	0.0155164
684.656	0.0155701
684.734	0.0157564
684.812	0.0155469
684.890	0.0154953
684.968	0.0156822
685.047	0.0155802
685.125	0.0156991
685.203	0.0155078
685.281	0.0154094
685.359	0.0155711
685.437	0.0156122
685.515	0.0155489
685.593	0.0155585
685.672	0.0156013
