06/13/2022	15:02:04	Ver.	4.1	UNKNOWN
Optical Delay	599.961724	Delta X		0.078125	Sweeps	1	Scan Rate	0/0
Coordinates	Axis 1	NaN	Axis 2	NaN	Axis 3	NaN	Axis 4	NaN	Axis 5	NaN	Axis 6	0.000000
TX Power	0.000000	RX Power	0.000000

599.962	0.0156979
600.040	0.0156528
600.118	0.0157961
600.196	0.0156473
600.274	0.0158231
600.352	0.0158102
600.430	0.0158105
600.509	0.0156899
600.587	0.0157811
600.665	0.0158915
600.743	0.0157468
600.821	0.0157623
600.899	0.0157380
600.977	0.0157338
601.055	0.0158714
601.134	0.0158350
601.212	0.0156516
601.290	0.0157629
601.368	0.0158274
601.446	0.0158007
601.524	0.0159084
601.602	0.0159299
601.680	0.0159113
601.759	0.0159377
601.837	0.0159737
601.915	0.0158910
601.993	0.0158849
602.071	0.0159147
602.149	0.0158709
602.227	0.0158818
602.305	0.0158001
602.384	0.0158885
602.462	0.0159322
602.540	0.0160409
602.618	0.0159396
602.696	0.0158306
602.774	0.0158098
602.852	0.0158643
602.930	0.0159951
603.009	0.0158514
603.087	0.0158717
603.165	0.0158383
603.243	0.0159065
603.321	0.0159661
603.399	0.0159567
603.477	0.0158846
603.555	0.0157608
603.634	0.0157996
603.712	0.0158973
603.790	0.0158472
603.868	0.0158360
603.946	0.0157509
604.024	0.0157917
604.102	0.0158953
604.180	0.0158219
604.259	0.0158164
604.337	0.0158183
604.415	0.0159933
604.493	0.0159398
604.571	0.0159287
604.649	0.0159155
604.727	0.0158067
604.805	0.0157722
604.884	0.0159096
604.962	0.0158848
605.040	0.0156831
605.118	0.0158381
605.196	0.0157987
605.274	0.0158642
605.352	0.0158931
605.430	0.0157785
605.509	0.0158340
605.587	0.0158097
605.665	0.0157764
605.743	0.0157742
605.821	0.0159152
605.899	0.0159163
605.977	0.0157649
606.055	0.0157405
606.134	0.0156047
606.212	0.0157842
606.290	0.0158509
606.368	0.0158157
606.446	0.0156950
606.524	0.0157491
606.602	0.0157651
606.680	0.0157769
606.759	0.0157961
606.837	0.0158153
606.915	0.0157787
606.993	0.0157392
607.071	0.0157287
607.149	0.0157528
607.227	0.0157266
607.305	0.0158367
607.384	0.0158044
607.462	0.0157259
607.540	0.0158820
607.618	0.0157436
607.696	0.0157490
607.774	0.0156979
607.852	0.0158184
607.930	0.0158521
608.009	0.0157043
608.087	0.0157278
608.165	0.0157905
608.243	0.0157740
608.321	0.0158248
608.399	0.0157987
608.477	0.0158242
608.555	0.0158365
608.634	0.0158408
608.712	0.0157470
608.790	0.0157504
608.868	0.0157852
608.946	0.0157573
609.024	0.0158597
609.102	0.0157841
609.180	0.0157292
609.259	0.0158217
609.337	0.0156702
609.415	0.0157967
609.493	0.0157514
609.571	0.0157623
609.649	0.0156751
609.727	0.0158125
609.805	0.0158537
609.884	0.0156388
609.962	0.0156756
610.040	0.0157391
610.118	0.0157505
610.196	0.0157574
610.274	0.0158427
610.352	0.0159341
610.430	0.0157468
610.509	0.0158666
610.587	0.0159182
610.665	0.0158355
610.743	0.0159270
610.821	0.0158793
610.899	0.0157549
610.977	0.0158936
611.055	0.0159787
611.134	0.0159580
611.212	0.0158360
611.290	0.0158112
611.368	0.0159770
611.446	0.0159089
611.524	0.0159468
611.602	0.0158768
611.680	0.0159763
611.759	0.0158401
611.837	0.0159284
611.915	0.0159293
611.993	0.0159292
612.071	0.0160114
612.149	0.0159084
612.227	0.0158455
612.305	0.0159129
612.384	0.0157936
612.462	0.0157937
612.540	0.0159735
612.618	0.0160432
612.696	0.0159451
612.774	0.0159900
612.852	0.0159498
612.930	0.0159254
613.009	0.0157436
613.087	0.0159470
613.165	0.0159772
613.243	0.0158479
613.321	0.0158485
613.399	0.0160026
613.477	0.0158095
613.555	0.0158604
613.634	0.0158663
613.712	0.0157716
613.790	0.0157699
613.868	0.0157380
613.946	0.0157165
614.024	0.0158691
614.102	0.0158391
614.180	0.0157980
614.259	0.0157864
614.337	0.0158768
614.415	0.0157795
614.493	0.0158284
614.571	0.0158955
614.649	0.0158272
614.727	0.0157621
614.805	0.0157363
614.884	0.0157584
614.962	0.0156910
615.040	0.0157853
615.118	0.0157690
615.196	0.0156472
615.274	0.0158373
615.352	0.0156075
615.430	0.0158854
615.509	0.0157141
615.587	0.0157024
615.665	0.0158553
615.743	0.0157838
615.821	0.0157648
615.899	0.0157983
615.977	0.0158412
616.055	0.0156113
616.134	0.0157402
616.212	0.0157094
616.290	0.0157505
616.368	0.0157404
616.446	0.0158634
616.524	0.0157101
616.602	0.0156559
616.680	0.0157149
616.759	0.0157022
616.837	0.0157198
616.915	0.0156696
616.993	0.0157259
617.071	0.0157796
617.149	0.0156755
617.227	0.0157626
617.305	0.0158100
617.384	0.0157932
617.462	0.0156972
617.540	0.0155763
617.618	0.0157382
617.696	0.0157476
617.774	0.0157389
617.852	0.0157321
617.930	0.0158209
618.009	0.0157079
618.087	0.0157148
618.165	0.0156683
618.243	0.0156658
618.321	0.0156236
618.399	0.0158248
618.477	0.0155753
618.555	0.0156705
618.634	0.0156918
618.712	0.0156540
618.790	0.0156950
618.868	0.0157548
618.946	0.0156452
619.024	0.0156432
619.102	0.0156805
619.180	0.0158044
619.259	0.0156529
619.337	0.0156775
619.415	0.0157111
619.493	0.0157499
619.571	0.0156773
619.649	0.0158057
619.727	0.0156644
619.805	0.0156359
619.884	0.0156544
619.962	0.0158205
620.040	0.0156900
620.118	0.0155933
620.196	0.0157098
620.274	0.0158519
620.352	0.0157866
620.430	0.0156959
620.509	0.0157320
620.587	0.0156916
620.665	0.0156335
620.743	0.0157459
620.821	0.0157420
620.899	0.0157181
620.977	0.0156663
621.055	0.0158934
621.134	0.0157552
621.212	0.0157961
621.290	0.0157052
621.368	0.0156795
621.446	0.0158689
621.524	0.0156355
621.602	0.0157158
621.680	0.0156316
621.759	0.0158293
621.837	0.0158493
621.915	0.0156323
621.993	0.0156831
622.071	0.0157747
622.149	0.0157189
622.227	0.0155847
622.305	0.0157372
622.384	0.0158649
622.462	0.0157986
622.540	0.0156666
622.618	0.0158164
622.696	0.0156108
622.774	0.0156909
622.852	0.0158180
622.930	0.0158691
623.009	0.0158257
623.087	0.0157884
623.165	0.0158594
623.243	0.0157511
623.321	0.0159673
623.399	0.0158594
623.477	0.0156788
623.555	0.0157243
623.634	0.0158031
623.712	0.0158038
623.790	0.0157576
623.868	0.0158871
623.946	0.0158220
624.024	0.0159170
624.102	0.0159016
624.180	0.0158607
624.259	0.0158811
624.337	0.0158833
624.415	0.0158308
624.493	0.0158930
624.571	0.0159007
624.649	0.0157735
624.727	0.0158392
624.805	0.0158243
624.884	0.0158308
624.962	0.0158559
625.040	0.0159760
625.118	0.0158258
625.196	0.0157675
625.274	0.0159043
625.352	0.0156934
625.430	0.0158868
625.509	0.0158537
625.587	0.0157782
625.665	0.0158172
625.743	0.0157417
625.821	0.0158366
625.899	0.0157201
625.977	0.0158019
626.055	0.0158381
626.134	0.0158598
626.212	0.0157964
626.290	0.0157394
626.368	0.0157999
626.446	0.0158327
626.524	0.0157561
626.602	0.0157920
626.680	0.0157364
626.759	0.0158285
626.837	0.0158794
626.915	0.0157584
626.993	0.0158693
627.071	0.0158167
627.149	0.0158990
627.227	0.0158109
627.305	0.0159087
627.384	0.0159277
627.462	0.0157664
627.540	0.0158498
627.618	0.0156776
627.696	0.0158230
627.774	0.0158893
627.852	0.0158402
627.930	0.0158162
628.009	0.0158202
628.087	0.0159138
628.165	0.0158894
628.243	0.0159742
628.321	0.0157390
628.399	0.0158237
628.477	0.0158773
628.555	0.0158630
628.634	0.0158547
628.712	0.0159826
628.790	0.0159160
628.868	0.0157774
628.946	0.0157769
629.024	0.0158856
629.102	0.0158936
629.180	0.0159127
629.259	0.0158593
629.337	0.0158616
629.415	0.0159294
629.493	0.0158553
629.571	0.0158350
629.649	0.0158595
629.727	0.0157629
629.805	0.0159153
629.884	0.0159756
629.962	0.0159372
630.040	0.0159657
630.118	0.0158221
630.196	0.0158120
630.274	0.0157358
630.352	0.0158339
630.430	0.0158694
630.509	0.0158939
630.587	0.0157479
630.665	0.0157366
630.743	0.0159431
630.821	0.0158419
630.899	0.0159190
630.977	0.0160605
631.055	0.0158621
631.134	0.0157901
631.212	0.0158771
631.290	0.0158365
631.368	0.0159800
631.446	0.0158355
631.524	0.0156574
631.602	0.0157761
631.680	0.0159134
631.759	0.0157351
631.837	0.0158501
631.915	0.0158685
631.993	0.0157932
632.071	0.0158475
632.149	0.0158368
632.227	0.0158344
632.305	0.0157938
632.384	0.0157288
632.462	0.0158902
632.540	0.0158179
632.618	0.0159810
632.696	0.0158491
632.774	0.0158560
632.852	0.0158506
632.930	0.0158839
633.009	0.0158414
633.087	0.0158402
633.165	0.0158918
633.243	0.0159117
633.321	0.0157209
633.399	0.0159513
633.477	0.0158761
633.555	0.0156808
633.634	0.0157987
633.712	0.0159419
633.790	0.0158663
633.868	0.0158582
633.946	0.0158968
634.024	0.0159219
634.102	0.0158057
634.180	0.0157896
634.259	0.0159599
634.337	0.0160332
634.415	0.0158352
634.493	0.0159505
634.571	0.0159113
634.649	0.0159535
634.727	0.0158189
634.805	0.0158333
634.884	0.0159463
634.962	0.0158288
635.040	0.0158889
635.118	0.0158752
635.196	0.0159043
635.274	0.0158316
635.352	0.0158820
635.430	0.0158919
635.509	0.0157824
635.587	0.0159395
635.665	0.0158970
635.743	0.0159515
635.821	0.0157822
635.899	0.0157289
635.977	0.0157591
636.055	0.0159034
636.134	0.0158553
636.212	0.0156900
636.290	0.0158604
636.368	0.0157653
636.446	0.0157788
636.524	0.0158602
636.602	0.0157698
636.680	0.0157106
636.759	0.0158890
636.837	0.0158012
636.915	0.0158149
636.993	0.0158501
637.071	0.0158087
637.149	0.0157221
637.227	0.0157759
637.305	0.0157390
637.384	0.0158466
637.462	0.0158587
637.540	0.0159869
637.618	0.0158932
637.696	0.0157058
637.774	0.0157738
637.852	0.0158189
637.930	0.0157926
638.009	0.0157309
638.087	0.0157924
638.165	0.0157520
638.243	0.0156831
638.321	0.0157775
638.399	0.0156663
638.477	0.0158643
638.555	0.0157822
638.634	0.0157018
638.712	0.0158155
638.790	0.0158832
638.868	0.0157489
638.946	0.0158176
639.024	0.0158483
639.102	0.0157818
639.180	0.0157119
639.259	0.0157140
639.337	0.0157346
639.415	0.0156525
639.493	0.0156950
639.571	0.0157233
639.649	0.0156768
639.727	0.0157346
639.805	0.0157074
639.884	0.0158146
639.962	0.0157067
640.040	0.0156952
640.118	0.0158424
640.196	0.0156705
640.274	0.0157067
640.352	0.0156968
640.430	0.0156212
640.509	0.0157285
640.587	0.0157430
640.665	0.0156669
640.743	0.0157687
640.821	0.0157578
640.899	0.0155617
640.977	0.0157256
641.055	0.0156387
641.134	0.0157021
641.212	0.0156541
641.290	0.0157506
641.368	0.0157277
641.446	0.0156357
641.524	0.0156055
641.602	0.0158326
641.680	0.0157402
641.759	0.0155400
641.837	0.0157855
641.915	0.0157293
641.993	0.0157511
642.071	0.0156796
642.149	0.0155769
642.227	0.0157598
642.305	0.0158598
642.384	0.0157858
642.462	0.0156920
642.540	0.0156165
642.618	0.0156674
642.696	0.0156046
642.774	0.0157288
642.852	0.0157497
642.930	0.0157388
643.009	0.0157413
643.087	0.0157689
643.165	0.0157388
643.243	0.0156618
643.321	0.0158173
643.399	0.0156563
643.477	0.0157061
643.555	0.0158033
643.634	0.0158366
643.712	0.0157105
643.790	0.0157738
643.868	0.0157153
643.946	0.0156167
644.024	0.0157765
644.102	0.0157607
644.180	0.0157081
644.259	0.0156322
644.337	0.0157255
644.415	0.0157329
644.493	0.0157057
644.571	0.0157780
644.649	0.0157859
644.727	0.0157121
644.805	0.0157739
644.884	0.0157204
644.962	0.0157150
645.040	0.0156731
645.118	0.0157786
645.196	0.0157898
645.274	0.0156281
645.352	0.0157857
645.430	0.0157893
645.509	0.0157587
645.587	0.0157838
645.665	0.0156171
645.743	0.0155745
645.821	0.0155707
645.899	0.0157535
645.977	0.0157949
646.055	0.0157498
646.134	0.0157640
646.212	0.0157397
646.290	0.0156557
646.368	0.0156271
646.446	0.0157616
646.524	0.0157330
646.602	0.0155478
646.680	0.0157061
646.759	0.0157726
646.837	0.0157353
646.915	0.0156300
646.993	0.0156422
647.071	0.0156483
647.149	0.0157536
647.227	0.0157498
647.305	0.0157345
647.384	0.0157394
647.462	0.0158157
647.540	0.0157316
647.618	0.0158095
647.696	0.0156325
647.774	0.0157537
647.852	0.0157389
647.930	0.0156095
648.009	0.0157174
648.087	0.0156520
648.165	0.0156720
648.243	0.0156667
648.321	0.0157143
648.399	0.0157411
648.477	0.0157088
648.555	0.0157303
648.634	0.0157153
648.712	0.0156982
648.790	0.0158663
648.868	0.0157382
648.946	0.0157369
649.024	0.0158626
649.102	0.0156637
649.180	0.0156376
649.259	0.0158933
649.337	0.0157612
649.415	0.0156509
649.493	0.0158700
649.571	0.0157269
649.649	0.0157370
649.727	0.0157711
649.805	0.0158360
649.884	0.0157352
649.962	0.0158532
650.040	0.0155748
650.118	0.0157603
650.196	0.0157690
650.274	0.0157122
650.352	0.0157095
650.430	0.0156838
650.509	0.0155981
650.587	0.0157816
650.665	0.0158716
650.743	0.0156654
650.821	0.0158054
650.899	0.0158792
650.977	0.0157420
651.055	0.0158897
651.134	0.0157478
651.212	0.0157222
651.290	0.0157578
651.368	0.0157546
651.446	0.0157915
651.524	0.0158440
651.602	0.0157840
651.680	0.0157347
651.759	0.0158237
651.837	0.0158410
651.915	0.0158341
651.993	0.0156731
652.071	0.0157696
652.149	0.0158950
652.227	0.0158170
652.305	0.0158502
652.384	0.0157402
652.462	0.0158227
652.540	0.0157098
652.618	0.0158156
652.696	0.0158141
652.774	0.0158067
652.852	0.0158836
652.930	0.0158646
653.009	0.0157876
653.087	0.0158981
653.165	0.0157455
653.243	0.0158228
653.321	0.0158283
653.399	0.0157728
653.477	0.0157681
653.555	0.0158367
653.634	0.0156998
653.712	0.0157733
653.790	0.0158480
653.868	0.0157114
653.946	0.0158300
654.024	0.0157538
654.102	0.0157388
654.180	0.0156974
654.259	0.0157393
654.337	0.0159373
654.415	0.0156953
654.493	0.0157320
654.571	0.0157662
654.649	0.0158264
654.727	0.0157036
654.805	0.0157363
654.884	0.0157589
654.962	0.0158118
655.040	0.0157247
655.118	0.0156911
655.196	0.0157843
655.274	0.0160371
655.352	0.0157734
655.430	0.0158189
655.509	0.0158407
655.587	0.0158331
655.665	0.0158089
655.743	0.0158236
655.821	0.0157652
655.899	0.0157354
655.977	0.0158170
656.055	0.0158642
656.134	0.0157164
656.212	0.0157778
656.290	0.0158686
656.368	0.0157360
656.446	0.0158048
656.524	0.0158783
656.602	0.0158270
656.680	0.0157900
656.759	0.0157355
656.837	0.0158926
656.915	0.0160031
656.993	0.0158679
657.071	0.0158670
657.149	0.0159641
657.227	0.0159374
657.305	0.0158064
657.384	0.0158189
657.462	0.0159689
657.540	0.0158018
657.618	0.0157577
657.696	0.0159300
657.774	0.0157679
657.852	0.0157710
657.930	0.0160391
658.009	0.0157879
658.087	0.0158259
658.165	0.0157593
658.243	0.0157471
658.321	0.0159104
658.399	0.0158466
658.477	0.0158391
658.555	0.0159028
658.634	0.0156575
658.712	0.0158294
658.790	0.0158478
658.868	0.0157912
658.946	0.0158677
659.024	0.0157772
659.102	0.0159200
659.180	0.0158562
659.259	0.0158370
659.337	0.0158795
659.415	0.0158141
659.493	0.0158112
659.571	0.0158231
659.649	0.0158725
659.727	0.0158771
659.805	0.0158646
659.884	0.0158278
659.962	0.0159420
660.040	0.0158551
660.118	0.0158636
660.196	0.0157174
660.274	0.0158723
660.352	0.0158678
660.430	0.0159179
660.509	0.0157669
660.587	0.0158866
660.665	0.0158672
660.743	0.0157909
660.821	0.0158640
660.899	0.0158437
660.977	0.0158555
661.055	0.0157978
661.134	0.0158806
661.212	0.0159279
661.290	0.0160208
661.368	0.0157849
661.446	0.0158808
661.524	0.0158673
661.602	0.0159418
661.680	0.0159302
661.759	0.0157422
661.837	0.0158170
661.915	0.0159593
661.993	0.0158934
662.071	0.0159525
662.149	0.0158652
662.227	0.0158592
662.305	0.0158566
662.384	0.0158895
662.462	0.0157281
662.540	0.0158207
662.618	0.0158198
662.696	0.0158396
662.774	0.0158253
662.852	0.0158359
662.930	0.0157916
663.009	0.0158435
663.087	0.0156976
663.165	0.0158138
663.243	0.0159523
663.321	0.0158324
663.399	0.0158067
663.477	0.0158910
663.555	0.0158649
663.634	0.0159340
663.712	0.0158638
663.790	0.0156890
663.868	0.0158630
663.946	0.0157895
664.024	0.0157586
664.102	0.0156604
664.180	0.0159077
664.259	0.0157600
664.337	0.0157793
664.415	0.0157436
664.493	0.0158308
664.571	0.0157491
664.649	0.0158192
664.727	0.0157724
664.805	0.0157488
664.884	0.0156728
664.962	0.0156763
665.040	0.0156408
665.118	0.0155628
665.196	0.0157859
665.274	0.0158175
665.352	0.0157899
665.430	0.0157538
665.509	0.0156558
665.587	0.0156670
665.665	0.0157485
665.743	0.0157655
665.821	0.0157703
665.899	0.0157555
665.977	0.0156644
666.055	0.0156454
666.134	0.0156754
666.212	0.0157951
666.290	0.0156619
666.368	0.0156061
666.446	0.0156744
666.524	0.0155997
666.602	0.0155563
666.680	0.0156823
666.759	0.0156744
666.837	0.0155125
666.915	0.0157030
666.993	0.0156258
667.071	0.0157458
667.149	0.0156097
667.227	0.0157292
667.305	0.0156895
667.384	0.0156160
667.462	0.0156998
667.540	0.0154707
667.618	0.0156963
667.696	0.0156622
667.774	0.0155364
667.852	0.0155627
667.930	0.0156432
668.009	0.0157095
668.087	0.0156099
668.165	0.0156227
668.243	0.0156369
668.321	0.0155686
668.399	0.0157370
668.477	0.0157584
668.555	0.0156192
668.634	0.0156170
668.712	0.0157021
668.790	0.0156057
668.868	0.0155850
668.946	0.0155422
669.024	0.0155402
669.102	0.0157172
669.180	0.0157239
669.259	0.0157196
669.337	0.0155670
669.415	0.0156654
669.493	0.0156361
669.571	0.0155457
669.649	0.0155656
669.727	0.0157174
669.805	0.0156364
669.884	0.0156061
669.962	0.0157169
670.040	0.0155862
670.118	0.0156255
670.196	0.0156564
670.274	0.0156441
670.352	0.0155221
670.430	0.0155320
670.509	0.0156324
670.587	0.0155840
670.665	0.0155898
670.743	0.0155948
670.821	0.0155752
670.899	0.0157579
670.977	0.0156879
671.055	0.0156754
671.134	0.0155148
671.212	0.0157037
671.290	0.0157994
671.368	0.0155846
671.446	0.0156174
671.524	0.0157182
671.602	0.0156770
671.680	0.0157138
671.759	0.0156784
671.837	0.0155963
671.915	0.0157246
671.993	0.0156865
672.071	0.0157230
672.149	0.0157375
672.227	0.0157393
672.305	0.0157407
672.384	0.0155027
672.462	0.0158044
672.540	0.0156821
672.618	0.0158435
672.696	0.0157874
672.774	0.0156371
672.852	0.0157489
672.930	0.0157758
673.009	0.0156522
673.087	0.0157955
673.165	0.0157718
673.243	0.0157508
673.321	0.0157156
673.399	0.0157262
673.477	0.0157591
673.555	0.0156999
673.634	0.0157294
673.712	0.0157990
673.790	0.0158542
673.868	0.0158601
673.946	0.0157756
674.024	0.0156984
674.102	0.0158920
674.180	0.0156874
674.259	0.0158599
674.337	0.0157186
674.415	0.0157413
674.493	0.0158600
674.571	0.0158576
674.649	0.0158314
674.727	0.0157331
674.805	0.0158150
674.884	0.0158093
674.962	0.0158342
675.040	0.0157578
675.118	0.0158476
675.196	0.0158036
675.274	0.0158197
675.352	0.0158662
675.430	0.0158150
675.509	0.0158476
675.587	0.0158328
675.665	0.0158637
675.743	0.0158855
675.821	0.0157294
675.899	0.0157995
675.977	0.0157426
676.055	0.0157739
676.134	0.0158603
676.212	0.0158770
676.290	0.0158318
676.368	0.0157766
676.446	0.0158885
676.524	0.0157973
676.602	0.0157210
676.680	0.0159696
676.759	0.0157867
676.837	0.0158314
676.915	0.0158087
676.993	0.0158070
677.071	0.0158192
677.149	0.0159016
677.227	0.0156842
677.305	0.0157928
677.384	0.0156693
677.462	0.0157755
677.540	0.0157716
677.618	0.0158146
677.696	0.0157861
677.774	0.0157823
677.852	0.0158494
677.930	0.0158830
678.009	0.0156697
678.087	0.0157476
678.165	0.0158283
678.243	0.0157439
678.321	0.0157394
678.399	0.0158338
678.477	0.0157909
678.555	0.0158886
678.634	0.0157306
678.712	0.0156998
678.790	0.0157526
678.868	0.0158056
678.946	0.0158235
679.024	0.0157920
679.102	0.0157203
679.180	0.0157305
679.259	0.0157646
679.337	0.0157758
679.415	0.0157124
679.493	0.0157880
679.571	0.0157028
679.649	0.0157466
679.727	0.0158185
679.805	0.0158213
679.884	0.0156857
679.962	0.0159115
680.040	0.0158447
680.118	0.0157369
680.196	0.0156987
680.274	0.0156956
680.352	0.0158855
680.430	0.0158445
680.509	0.0159480
680.587	0.0156892
680.665	0.0158797
680.743	0.0157922
680.821	0.0157146
680.899	0.0157618
680.977	0.0159931
681.055	0.0159438
681.134	0.0158530
681.212	0.0157402
681.290	0.0159743
681.368	0.0157816
681.446	0.0156944
681.524	0.0160231
681.602	0.0158590
681.680	0.0159350
681.759	0.0158588
681.837	0.0158033
681.915	0.0158248
681.993	0.0159121
682.071	0.0159329
682.149	0.0158063
682.227	0.0159061
682.305	0.0158742
682.384	0.0159678
682.462	0.0158322
682.540	0.0159446
682.618	0.0158678
682.696	0.0158586
682.774	0.0157522
682.852	0.0159769
682.930	0.0159368
683.009	0.0156748
683.087	0.0157476
683.165	0.0158714
683.243	0.0159203
683.321	0.0157816
683.399	0.0158282
683.477	0.0158026
683.555	0.0157177
683.634	0.0159646
683.712	0.0160017
683.790	0.0160009
683.868	0.0158322
683.946	0.0157788
684.024	0.0159544
684.102	0.0158789
684.180	0.0158598
684.259	0.0158723
684.337	0.0157895
684.415	0.0158935
684.493	0.0159321
684.571	0.0158392
684.649	0.0158662
684.727	0.0158937
684.805	0.0158699
684.884	0.0160614
684.962	0.0159975
685.040	0.0159337
685.118	0.0158955
685.196	0.0158248
685.274	0.0157891
685.352	0.0159713
685.430	0.0158675
685.509	0.0158666
685.587	0.0158463
685.665	0.0159338
