05/28/2022	14:29:37	Ver.	4.1	UNKNOWN
Optical Delay	599.988409	Delta X		0.078125	Sweeps	1	Scan Rate	0/0
Coordinates	Axis 1	NaN	Axis 2	NaN	Axis 3	NaN	Axis 4	NaN	Axis 5	NaN	Axis 6	0.000000
TX Power	0.000000	RX Power	0.000000

599.988	0.0142511
600.067	0.0141338
600.145	0.0141715
600.223	0.0141660
600.301	0.0141976
600.379	0.0141290
600.457	0.0141272
600.535	0.0142191
600.613	0.0142406
600.692	0.0142342
600.770	0.0142206
600.848	0.0142757
600.926	0.0142624
601.004	0.0141987
601.082	0.0142009
601.160	0.0141458
601.238	0.0141059
601.317	0.0142126
601.395	0.0142124
601.473	0.0142559
601.551	0.0143260
601.629	0.0142807
601.707	0.0141808
601.785	0.0141884
601.863	0.0143340
601.942	0.0142162
602.020	0.0141925
602.098	0.0143642
602.176	0.0142882
602.254	0.0142953
602.332	0.0142690
602.410	0.0143083
602.488	0.0141275
602.567	0.0141382
602.645	0.0143098
602.723	0.0141888
602.801	0.0141504
602.879	0.0142947
602.957	0.0141532
603.035	0.0143268
603.113	0.0143546
603.192	0.0142319
603.270	0.0142603
603.348	0.0143240
603.426	0.0142278
603.504	0.0143646
603.582	0.0143078
603.660	0.0142244
603.738	0.0141322
603.817	0.0142619
603.895	0.0143042
603.973	0.0142899
604.051	0.0142125
604.129	0.0142855
604.207	0.0144041
604.285	0.0142554
604.363	0.0143829
604.442	0.0143256
604.520	0.0142479
604.598	0.0142365
604.676	0.0143823
604.754	0.0143314
604.832	0.0142738
604.910	0.0142718
604.988	0.0142424
605.067	0.0143858
605.145	0.0142490
605.223	0.0142970
605.301	0.0143049
605.379	0.0143129
605.457	0.0142451
605.535	0.0142913
605.613	0.0144633
605.692	0.0144453
605.770	0.0143364
605.848	0.0142271
605.926	0.0143605
606.004	0.0142802
606.082	0.0143002
606.160	0.0141665
606.238	0.0142533
606.317	0.0143220
606.395	0.0142461
606.473	0.0141378
606.551	0.0142643
606.629	0.0142908
606.707	0.0142753
606.785	0.0142399
606.863	0.0141856
606.942	0.0140773
607.020	0.0141812
607.098	0.0140905
607.176	0.0140269
607.254	0.0141295
607.332	0.0142440
607.410	0.0142200
607.488	0.0142908
607.567	0.0141642
607.645	0.0141418
607.723	0.0142875
607.801	0.0142648
607.879	0.0142024
607.957	0.0141689
608.035	0.0141402
608.113	0.0141034
608.192	0.0140860
608.270	0.0142068
608.348	0.0142569
608.426	0.0141698
608.504	0.0141248
608.582	0.0142186
608.660	0.0141632
608.738	0.0142470
608.817	0.0143794
608.895	0.0143198
608.973	0.0141906
609.051	0.0143097
609.129	0.0142472
609.207	0.0141048
609.285	0.0142864
609.363	0.0142267
609.442	0.0142710
609.520	0.0141348
609.598	0.0141409
609.676	0.0140668
609.754	0.0143452
609.832	0.0142894
609.910	0.0141970
609.988	0.0141182
610.067	0.0141645
610.145	0.0141522
610.223	0.0142206
610.301	0.0141859
610.379	0.0142243
610.457	0.0141308
610.535	0.0142025
610.613	0.0140815
610.692	0.0142083
610.770	0.0141766
610.848	0.0142400
610.926	0.0141146
611.004	0.0140799
611.082	0.0142003
611.160	0.0142166
611.238	0.0141822
611.317	0.0142020
611.395	0.0141190
611.473	0.0142879
611.551	0.0140874
611.629	0.0141016
611.707	0.0142209
611.785	0.0141303
611.863	0.0139831
611.942	0.0142015
612.020	0.0141062
612.098	0.0141068
612.176	0.0139695
612.254	0.0140430
612.332	0.0140247
612.410	0.0141761
612.488	0.0142245
612.567	0.0140707
612.645	0.0141401
612.723	0.0140424
612.801	0.0142447
612.879	0.0141322
612.957	0.0141024
613.035	0.0140662
613.113	0.0141084
613.192	0.0141803
613.270	0.0140972
613.348	0.0140288
613.426	0.0142239
613.504	0.0141731
613.582	0.0140823
613.660	0.0141278
613.738	0.0141943
613.817	0.0139159
613.895	0.0140847
613.973	0.0140619
614.051	0.0141979
614.129	0.0142004
614.207	0.0140775
614.285	0.0141396
614.363	0.0140273
614.442	0.0142181
614.520	0.0141778
614.598	0.0142985
614.676	0.0141934
614.754	0.0141562
614.832	0.0141561
614.910	0.0141998
614.988	0.0141591
615.067	0.0141655
615.145	0.0140497
615.223	0.0140997
615.301	0.0141290
615.379	0.0141352
615.457	0.0141605
615.535	0.0141725
615.613	0.0142487
615.692	0.0142067
615.770	0.0141468
615.848	0.0141378
615.926	0.0141528
616.004	0.0140181
616.082	0.0141763
616.160	0.0141489
616.238	0.0142077
616.317	0.0140506
616.395	0.0140710
616.473	0.0141026
616.551	0.0142389
616.629	0.0140765
616.707	0.0141785
616.785	0.0140903
616.863	0.0141174
616.942	0.0141522
617.020	0.0141550
617.098	0.0141477
617.176	0.0141632
617.254	0.0143189
617.332	0.0143079
617.410	0.0140712
617.488	0.0141967
617.567	0.0142195
617.645	0.0141183
617.723	0.0141668
617.801	0.0142170
617.879	0.0143498
617.957	0.0143094
618.035	0.0141029
618.113	0.0140565
618.192	0.0140863
618.270	0.0141618
618.348	0.0140437
618.426	0.0141518
618.504	0.0141065
618.582	0.0140646
618.660	0.0141306
618.738	0.0141689
618.817	0.0140379
618.895	0.0140364
618.973	0.0140857
619.051	0.0140698
619.129	0.0140031
619.207	0.0140617
619.285	0.0140574
619.363	0.0141329
619.442	0.0140850
619.520	0.0141126
619.598	0.0140659
619.676	0.0140157
619.754	0.0139811
619.832	0.0139944
619.910	0.0141107
619.988	0.0140789
620.067	0.0140458
620.145	0.0139127
620.223	0.0139253
620.301	0.0139601
620.379	0.0140497
620.457	0.0140309
620.535	0.0139349
620.613	0.0140487
620.692	0.0140212
620.770	0.0138473
620.848	0.0139675
620.926	0.0139008
621.004	0.0139261
621.082	0.0138498
621.160	0.0138887
621.238	0.0140133
621.317	0.0140542
621.395	0.0138000
621.473	0.0139088
621.551	0.0139617
621.629	0.0140587
621.707	0.0140614
621.785	0.0139249
621.863	0.0139673
621.942	0.0141134
622.020	0.0141263
622.098	0.0140856
622.176	0.0141040
622.254	0.0141316
622.332	0.0140646
622.410	0.0139462
622.488	0.0139688
622.567	0.0141547
622.645	0.0141096
622.723	0.0141030
622.801	0.0141568
622.879	0.0140556
622.957	0.0141105
623.035	0.0140279
623.113	0.0140466
623.192	0.0142910
623.270	0.0140906
623.348	0.0142638
623.426	0.0143158
623.504	0.0142239
623.582	0.0142504
623.660	0.0143338
623.738	0.0142958
623.817	0.0143021
623.895	0.0142838
623.973	0.0144254
624.051	0.0143099
624.129	0.0143108
624.207	0.0143169
624.285	0.0142148
624.363	0.0142816
624.442	0.0142445
624.520	0.0142213
624.598	0.0144897
624.676	0.0143059
624.754	0.0143280
624.832	0.0142838
624.910	0.0142920
624.988	0.0143886
625.067	0.0142789
625.145	0.0141957
625.223	0.0143479
625.301	0.0142467
625.379	0.0142351
625.457	0.0141870
625.535	0.0143220
625.613	0.0144376
625.692	0.0142821
625.770	0.0142250
625.848	0.0142613
625.926	0.0143258
626.004	0.0142168
626.082	0.0141330
626.160	0.0142215
626.238	0.0143478
626.317	0.0143120
626.395	0.0141900
626.473	0.0142167
626.551	0.0143272
626.629	0.0142763
626.707	0.0144008
626.785	0.0142891
626.863	0.0143887
626.942	0.0143021
627.020	0.0143403
627.098	0.0142901
627.176	0.0143433
627.254	0.0144101
627.332	0.0142495
627.410	0.0142727
627.488	0.0143100
627.567	0.0143557
627.645	0.0141618
627.723	0.0142501
627.801	0.0141920
627.879	0.0142829
627.957	0.0143276
628.035	0.0140864
628.113	0.0142247
628.192	0.0141575
628.270	0.0142210
628.348	0.0142850
628.426	0.0141937
628.504	0.0140789
628.582	0.0143496
628.660	0.0142242
628.738	0.0142212
628.817	0.0142857
628.895	0.0141664
628.973	0.0143230
629.051	0.0143146
629.129	0.0141808
629.207	0.0142284
629.285	0.0142899
629.363	0.0142211
629.442	0.0144183
629.520	0.0142345
629.598	0.0143123
629.676	0.0143867
629.754	0.0144523
629.832	0.0144158
629.910	0.0144618
629.988	0.0144531
630.067	0.0143578
630.145	0.0143706
630.223	0.0144186
630.301	0.0143968
630.379	0.0144760
630.457	0.0142522
630.535	0.0143472
630.613	0.0143198
630.692	0.0142811
630.770	0.0143152
630.848	0.0142171
630.926	0.0141120
631.004	0.0141895
631.082	0.0141835
631.160	0.0139902
631.238	0.0141182
631.317	0.0141425
631.395	0.0141669
631.473	0.0141167
631.551	0.0139749
631.629	0.0140627
631.707	0.0142058
631.785	0.0140661
631.863	0.0142130
631.942	0.0142078
632.020	0.0141314
632.098	0.0142000
632.176	0.0142865
632.254	0.0142773
632.332	0.0143333
632.410	0.0142079
632.488	0.0141724
632.567	0.0141749
632.645	0.0142938
632.723	0.0140983
632.801	0.0141659
632.879	0.0140269
632.957	0.0141086
633.035	0.0141148
633.113	0.0142184
633.192	0.0140382
633.270	0.0140388
633.348	0.0141177
633.426	0.0140292
633.504	0.0139628
633.582	0.0143375
633.660	0.0141008
633.738	0.0141710
633.817	0.0141383
633.895	0.0143959
633.973	0.0142336
634.051	0.0142466
634.129	0.0143571
634.207	0.0143510
634.285	0.0143560
634.363	0.0143472
634.442	0.0143802
634.520	0.0143875
634.598	0.0143927
634.676	0.0144563
634.754	0.0145095
634.832	0.0145093
634.910	0.0142458
634.988	0.0143476
635.067	0.0144913
635.145	0.0143689
635.223	0.0144173
635.301	0.0144586
635.379	0.0144608
635.457	0.0144263
635.535	0.0143393
635.613	0.0142917
635.692	0.0143048
635.770	0.0144410
635.848	0.0142768
635.926	0.0142245
636.004	0.0142251
636.082	0.0142905
636.160	0.0141716
636.238	0.0140852
636.317	0.0141466
636.395	0.0140353
636.473	0.0138824
636.551	0.0138498
636.629	0.0139017
636.707	0.0138596
636.785	0.0139432
636.863	0.0139307
636.942	0.0138701
637.020	0.0138020
637.098	0.0138493
637.176	0.0139823
637.254	0.0139635
637.332	0.0140812
637.410	0.0141515
637.488	0.0141079
637.567	0.0142094
637.645	0.0143136
637.723	0.0141270
637.801	0.0142565
637.879	0.0142877
637.957	0.0143533
638.035	0.0143345
638.113	0.0142743
638.192	0.0143358
638.270	0.0142109
638.348	0.0142548
638.426	0.0143110
638.504	0.0142374
638.582	0.0141739
638.660	0.0142825
638.738	0.0143659
638.817	0.0142051
638.895	0.0142215
638.973	0.0143826
639.051	0.0143509
639.129	0.0143591
639.207	0.0143642
639.285	0.0143793
639.363	0.0143340
639.442	0.0143005
639.520	0.0144135
639.598	0.0142639
639.676	0.0144646
639.754	0.0142754
639.832	0.0141331
639.910	0.0143470
639.988	0.0142524
640.067	0.0142422
640.145	0.0140241
640.223	0.0140715
640.301	0.0140919
640.379	0.0139819
640.457	0.0139678
640.535	0.0140510
640.613	0.0139262
640.692	0.0138255
640.770	0.0138696
640.848	0.0138695
640.926	0.0139821
641.004	0.0138379
641.082	0.0138229
641.160	0.0139423
641.238	0.0137682
641.317	0.0137759
641.395	0.0136884
641.473	0.0137728
641.551	0.0137504
641.629	0.0136928
641.707	0.0136467
641.785	0.0136929
641.863	0.0138200
641.942	0.0138071
642.020	0.0137866
642.098	0.0137677
642.176	0.0139117
642.254	0.0138793
642.332	0.0140417
642.410	0.0140588
642.488	0.0141237
642.567	0.0142068
642.645	0.0141497
642.723	0.0142575
642.801	0.0141344
642.879	0.0141653
642.957	0.0142616
643.035	0.0144281
643.113	0.0142061
643.192	0.0142693
643.270	0.0143137
643.348	0.0142393
643.426	0.0140831
643.504	0.0142356
643.582	0.0143198
643.660	0.0143205
643.738	0.0142796
643.817	0.0142932
643.895	0.0143182
643.973	0.0143027
644.051	0.0140801
644.129	0.0143036
644.207	0.0143478
644.285	0.0142174
644.363	0.0141649
644.442	0.0143345
644.520	0.0140866
644.598	0.0140723
644.676	0.0141063
644.754	0.0141303
644.832	0.0140984
644.910	0.0141623
644.988	0.0141206
645.067	0.0141428
645.145	0.0141715
645.223	0.0140453
645.301	0.0141202
645.379	0.0139552
645.457	0.0140491
645.535	0.0140352
645.613	0.0140130
645.692	0.0140807
645.770	0.0138958
645.848	0.0139743
645.926	0.0139879
646.004	0.0140012
646.082	0.0139635
646.160	0.0138080
646.238	0.0139410
646.317	0.0138914
646.395	0.0138974
646.473	0.0140456
646.551	0.0140710
646.629	0.0140804
646.707	0.0140282
646.785	0.0139598
646.863	0.0141335
646.942	0.0139898
647.020	0.0140965
647.098	0.0140347
647.176	0.0142188
647.254	0.0142875
647.332	0.0141850
647.410	0.0142050
647.488	0.0143771
647.567	0.0143318
647.645	0.0144433
647.723	0.0144553
647.801	0.0143572
647.879	0.0144164
647.957	0.0144455
648.035	0.0142709
648.113	0.0143580
648.192	0.0144431
648.270	0.0144662
648.348	0.0143020
648.426	0.0142272
648.504	0.0142819
648.582	0.0142763
648.660	0.0142193
648.738	0.0141866
648.817	0.0141056
648.895	0.0141358
648.973	0.0141885
649.051	0.0141840
649.129	0.0141203
649.207	0.0141061
649.285	0.0141409
649.363	0.0144281
649.442	0.0142618
649.520	0.0142690
649.598	0.0144008
649.676	0.0142274
649.754	0.0142395
649.832	0.0144278
649.910	0.0145415
649.988	0.0144276
650.067	0.0143502
650.145	0.0143166
650.223	0.0145042
650.301	0.0143965
650.379	0.0142345
650.457	0.0143594
650.535	0.0144176
650.613	0.0142132
650.692	0.0142850
650.770	0.0142384
650.848	0.0142039
650.926	0.0142469
651.004	0.0142696
651.082	0.0143779
651.160	0.0142932
651.238	0.0142303
651.317	0.0141946
651.395	0.0142503
651.473	0.0142889
651.551	0.0143198
651.629	0.0141934
651.707	0.0142043
651.785	0.0142176
651.863	0.0143053
651.942	0.0142474
652.020	0.0142712
652.098	0.0143649
652.176	0.0143080
652.254	0.0141644
652.332	0.0143240
652.410	0.0142928
652.488	0.0143120
652.567	0.0141926
652.645	0.0142856
652.723	0.0142394
652.801	0.0142081
652.879	0.0140839
652.957	0.0141792
653.035	0.0142075
653.113	0.0142644
653.192	0.0144207
653.270	0.0144476
653.348	0.0142909
653.426	0.0143934
653.504	0.0144114
653.582	0.0143919
653.660	0.0144347
653.738	0.0144645
653.817	0.0144879
653.895	0.0144357
653.973	0.0144872
654.051	0.0144832
654.129	0.0143083
654.207	0.0142264
654.285	0.0142439
654.363	0.0142455
654.442	0.0140811
654.520	0.0140724
654.598	0.0140376
654.676	0.0140115
654.754	0.0139759
654.832	0.0140063
654.910	0.0139517
654.988	0.0139919
655.067	0.0139987
655.145	0.0141360
655.223	0.0140875
655.301	0.0141708
655.379	0.0141769
655.457	0.0141933
655.535	0.0141582
655.613	0.0142863
655.692	0.0144034
655.770	0.0144624
655.848	0.0143879
655.926	0.0144416
656.004	0.0146955
656.082	0.0145724
656.160	0.0146497
656.238	0.0146848
656.317	0.0146881
656.395	0.0146085
656.473	0.0147598
656.551	0.0147643
656.629	0.0147379
656.707	0.0148706
656.785	0.0146813
656.863	0.0145801
656.942	0.0145277
657.020	0.0144879
657.098	0.0145551
657.176	0.0143020
657.254	0.0141492
657.332	0.0141146
657.410	0.0139957
657.488	0.0140755
657.567	0.0138444
657.645	0.0137621
657.723	0.0136172
657.801	0.0138474
657.879	0.0137224
657.957	0.0137787
658.035	0.0137994
658.113	0.0137814
658.192	0.0138022
658.270	0.0140064
658.348	0.0140239
658.426	0.0140740
658.504	0.0140527
658.582	0.0141544
658.660	0.0141970
658.738	0.0140730
658.817	0.0142661
658.895	0.0140752
658.973	0.0141138
659.051	0.0140177
659.129	0.0140948
659.207	0.0141164
659.285	0.0141319
659.363	0.0141269
659.442	0.0142609
659.520	0.0141972
659.598	0.0141326
659.676	0.0142223
659.754	0.0142392
659.832	0.0141734
659.910	0.0143259
659.988	0.0144639
660.067	0.0142617
660.145	0.0143187
660.223	0.0142704
660.301	0.0144156
660.379	0.0145298
660.457	0.0143446
660.535	0.0144207
660.613	0.0144588
660.692	0.0145694
660.770	0.0146381
660.848	0.0145268
660.926	0.0144798
661.004	0.0146165
661.082	0.0146340
661.160	0.0146421
661.238	0.0145228
661.317	0.0145805
661.395	0.0145066
661.473	0.0144806
661.551	0.0145893
661.629	0.0143984
661.707	0.0143656
661.785	0.0143900
661.863	0.0143536
661.942	0.0141670
662.020	0.0141634
662.098	0.0142346
662.176	0.0140269
662.254	0.0138921
662.332	0.0137751
662.410	0.0139671
662.488	0.0138351
662.567	0.0137848
662.645	0.0137972
662.723	0.0137971
662.801	0.0137093
662.879	0.0137090
662.957	0.0137381
663.035	0.0137031
663.113	0.0136227
663.192	0.0137115
663.270	0.0138098
663.348	0.0137311
663.426	0.0137057
663.504	0.0138109
663.582	0.0137670
663.660	0.0139790
663.738	0.0139711
663.817	0.0138877
663.895	0.0140009
663.973	0.0141718
664.051	0.0140418
664.129	0.0143164
664.207	0.0142532
664.285	0.0142535
664.363	0.0142789
664.442	0.0143822
664.520	0.0144790
664.598	0.0144108
664.676	0.0144479
664.754	0.0144736
664.832	0.0144102
664.910	0.0144730
664.988	0.0144870
665.067	0.0145176
665.145	0.0144888
665.223	0.0144937
665.301	0.0144696
665.379	0.0143007
665.457	0.0143858
665.535	0.0143877
665.613	0.0142791
665.692	0.0141710
665.770	0.0140781
665.848	0.0140159
665.926	0.0140414
666.004	0.0140225
666.082	0.0139589
666.160	0.0137060
666.238	0.0138237
666.317	0.0137614
666.395	0.0135626
666.473	0.0138069
666.551	0.0138940
666.629	0.0138037
666.707	0.0135957
666.785	0.0137917
666.863	0.0138385
666.942	0.0139821
667.020	0.0139697
667.098	0.0139238
667.176	0.0140112
667.254	0.0141511
667.332	0.0143148
667.410	0.0142501
667.488	0.0143055
667.567	0.0144388
667.645	0.0144965
667.723	0.0144018
667.801	0.0144302
667.879	0.0146070
667.957	0.0146812
668.035	0.0147099
668.113	0.0147485
668.192	0.0147992
668.270	0.0146276
668.348	0.0146353
668.426	0.0146135
668.504	0.0145683
668.582	0.0144163
668.660	0.0144015
668.738	0.0143163
668.817	0.0141987
668.895	0.0140768
668.973	0.0140599
669.051	0.0138451
669.129	0.0137978
669.207	0.0137943
669.285	0.0136423
669.363	0.0136817
669.442	0.0136755
669.520	0.0135470
669.598	0.0135638
669.676	0.0136082
669.754	0.0136027
669.832	0.0138257
669.910	0.0138748
669.988	0.0140249
670.067	0.0140716
670.145	0.0140873
670.223	0.0142120
670.301	0.0143147
670.379	0.0144949
670.457	0.0145172
670.535	0.0144992
670.613	0.0145024
670.692	0.0145513
670.770	0.0144667
670.848	0.0144593
670.926	0.0144666
671.004	0.0143166
671.082	0.0143630
671.160	0.0144742
671.238	0.0142735
671.317	0.0142249
671.395	0.0140135
671.473	0.0141305
671.551	0.0142049
671.629	0.0140482
671.707	0.0140686
671.785	0.0141943
671.863	0.0141434
671.942	0.0142409
672.020	0.0142364
672.098	0.0142857
672.176	0.0145213
672.254	0.0145377
672.332	0.0146841
672.410	0.0149195
672.488	0.0148465
672.567	0.0148779
672.645	0.0148749
672.723	0.0148960
672.801	0.0148696
672.879	0.0149275
672.957	0.0147689
673.035	0.0147399
673.113	0.0146876
673.192	0.0145911
673.270	0.0145646
673.348	0.0143793
673.426	0.0143443
673.504	0.0141814
673.582	0.0141109
673.660	0.0140540
673.738	0.0138614
673.817	0.0138435
673.895	0.0138128
673.973	0.0137531
674.051	0.0136478
674.129	0.0136405
674.207	0.0136671
674.285	0.0135572
674.363	0.0135637
674.442	0.0138270
674.520	0.0136978
674.598	0.0136040
674.676	0.0138728
674.754	0.0138068
674.832	0.0138336
674.910	0.0141124
674.988	0.0141071
675.067	0.0141343
675.145	0.0142679
675.223	0.0143820
675.301	0.0145641
675.379	0.0146529
675.457	0.0146867
675.535	0.0147270
675.613	0.0148029
675.692	0.0148249
675.770	0.0150349
675.848	0.0149308
675.926	0.0150282
676.004	0.0150252
676.082	0.0149428
676.160	0.0149097
676.238	0.0147897
676.317	0.0148381
676.395	0.0147549
676.473	0.0145640
676.551	0.0145709
676.629	0.0145439
676.707	0.0145499
676.785	0.0143499
676.863	0.0143045
676.942	0.0143221
677.020	0.0142376
677.098	0.0142533
677.176	0.0141862
677.254	0.0142061
677.332	0.0142188
677.410	0.0140970
677.488	0.0143384
677.567	0.0141557
677.645	0.0140796
677.723	0.0142168
677.801	0.0142575
677.879	0.0142442
677.957	0.0141650
678.035	0.0143496
678.113	0.0141232
678.192	0.0140720
678.270	0.0140191
678.348	0.0141184
678.426	0.0139799
678.504	0.0139901
678.582	0.0139200
678.660	0.0138998
678.738	0.0138766
678.817	0.0139182
678.895	0.0138432
678.973	0.0138749
679.051	0.0139510
679.129	0.0138770
679.207	0.0139515
679.285	0.0139982
679.363	0.0139201
679.442	0.0141522
679.520	0.0142661
679.598	0.0143182
679.676	0.0142354
679.754	0.0142765
679.832	0.0143300
679.910	0.0142890
679.988	0.0143515
680.067	0.0142497
680.145	0.0142113
680.223	0.0141513
680.301	0.0141976
680.379	0.0141307
680.457	0.0140565
680.535	0.0140304
680.613	0.0139108
680.692	0.0138377
680.770	0.0139014
680.848	0.0139675
680.926	0.0139076
681.004	0.0138051
681.082	0.0140678
681.160	0.0139215
681.238	0.0139281
681.317	0.0140263
681.395	0.0140310
681.473	0.0140205
681.551	0.0139123
681.629	0.0142020
681.707	0.0142686
681.785	0.0142242
681.863	0.0140907
681.942	0.0139310
682.020	0.0139087
682.098	0.0139716
682.176	0.0139138
682.254	0.0138477
682.332	0.0138868
682.410	0.0138527
682.488	0.0138512
682.567	0.0137375
682.645	0.0136087
682.723	0.0136679
682.801	0.0135410
682.879	0.0136156
682.957	0.0135905
683.035	0.0135167
683.113	0.0134485
683.192	0.0135419
683.270	0.0136266
683.348	0.0136192
683.426	0.0136581
683.504	0.0137723
683.582	0.0137955
683.660	0.0138424
683.738	0.0140533
683.817	0.0141043
683.895	0.0142647
683.973	0.0143811
684.051	0.0144244
684.129	0.0146821
684.207	0.0147076
684.285	0.0148921
684.363	0.0148493
684.442	0.0149908
684.520	0.0151653
684.598	0.0151549
684.676	0.0151855
684.754	0.0153639
684.832	0.0153917
684.910	0.0151757
684.988	0.0152204
685.067	0.0152248
685.145	0.0151128
685.223	0.0148121
685.301	0.0147878
685.379	0.0145685
685.457	0.0146037
685.535	0.0145580
685.613	0.0143072
685.692	0.0142300
