05/28/2022	14:30:17	Ver.	4.1	UNKNOWN
Optical Delay	599.988409	Delta X		0.078125	Sweeps	1	Scan Rate	0/0
Coordinates	Axis 1	NaN	Axis 2	NaN	Axis 3	NaN	Axis 4	NaN	Axis 5	NaN	Axis 6	0.000000
TX Power	0.000000	RX Power	0.000000

599.988	0.0149742
600.067	0.0150099
600.145	0.0150494
600.223	0.0149329
600.301	0.0150784
600.379	0.0148556
600.457	0.0148160
600.535	0.0149534
600.613	0.0150024
600.692	0.0148817
600.770	0.0149335
600.848	0.0150090
600.926	0.0149672
601.004	0.0149984
601.082	0.0149770
601.160	0.0149269
601.238	0.0148669
601.317	0.0149043
601.395	0.0150174
601.473	0.0149342
601.551	0.0149872
601.629	0.0149145
601.707	0.0148405
601.785	0.0149338
601.863	0.0149059
601.942	0.0148769
602.020	0.0148800
602.098	0.0149248
602.176	0.0148972
602.254	0.0149208
602.332	0.0150097
602.410	0.0149196
602.488	0.0149030
602.567	0.0147546
602.645	0.0148244
602.723	0.0150665
602.801	0.0150288
602.879	0.0149812
602.957	0.0150021
603.035	0.0148538
603.113	0.0150146
603.192	0.0148618
603.270	0.0149377
603.348	0.0149483
603.426	0.0148811
603.504	0.0150143
603.582	0.0150124
603.660	0.0148881
603.738	0.0149806
603.817	0.0149954
603.895	0.0148745
603.973	0.0148835
604.051	0.0148935
604.129	0.0151097
604.207	0.0149019
604.285	0.0148901
604.363	0.0148871
604.442	0.0148926
604.520	0.0149231
604.598	0.0149615
604.676	0.0147559
604.754	0.0148346
604.832	0.0148868
604.910	0.0148038
604.988	0.0148174
605.067	0.0150054
605.145	0.0149207
605.223	0.0147866
605.301	0.0148097
605.379	0.0147851
605.457	0.0149129
605.535	0.0148352
605.613	0.0148172
605.692	0.0149576
605.770	0.0149212
605.848	0.0148828
605.926	0.0147750
606.004	0.0148756
606.082	0.0147679
606.160	0.0147495
606.238	0.0148414
606.317	0.0147974
606.395	0.0148345
606.473	0.0148478
606.551	0.0148840
606.629	0.0146219
606.707	0.0147973
606.785	0.0148206
606.863	0.0147478
606.942	0.0147792
607.020	0.0146595
607.098	0.0146583
607.176	0.0148253
607.254	0.0147626
607.332	0.0146743
607.410	0.0147694
607.488	0.0148125
607.567	0.0148268
607.645	0.0148481
607.723	0.0147292
607.801	0.0147014
607.879	0.0147689
607.957	0.0148421
608.035	0.0146982
608.113	0.0148067
608.192	0.0147289
608.270	0.0146651
608.348	0.0146796
608.426	0.0148161
608.504	0.0148569
608.582	0.0146077
608.660	0.0146770
608.738	0.0148184
608.817	0.0147272
608.895	0.0147151
608.973	0.0145676
609.051	0.0148224
609.129	0.0146741
609.207	0.0146615
609.285	0.0147530
609.363	0.0147436
609.442	0.0148250
609.520	0.0148083
609.598	0.0146233
609.676	0.0146550
609.754	0.0147250
609.832	0.0148619
609.910	0.0146864
609.988	0.0147699
610.067	0.0148648
610.145	0.0147460
610.223	0.0147753
610.301	0.0146062
610.379	0.0147543
610.457	0.0147353
610.535	0.0148415
610.613	0.0149400
610.692	0.0149018
610.770	0.0147378
610.848	0.0148640
610.926	0.0148931
611.004	0.0147914
611.082	0.0148235
611.160	0.0147894
611.238	0.0147829
611.317	0.0148071
611.395	0.0149001
611.473	0.0149304
611.551	0.0147465
611.629	0.0147421
611.707	0.0148466
611.785	0.0147967
611.863	0.0146358
611.942	0.0148878
612.020	0.0148128
612.098	0.0147353
612.176	0.0148531
612.254	0.0148347
612.332	0.0146983
612.410	0.0146931
612.488	0.0147946
612.567	0.0147216
612.645	0.0147557
612.723	0.0147707
612.801	0.0147309
612.879	0.0147427
612.957	0.0149152
613.035	0.0147249
613.113	0.0147437
613.192	0.0146534
613.270	0.0146807
613.348	0.0147720
613.426	0.0147044
613.504	0.0147382
613.582	0.0146889
613.660	0.0145757
613.738	0.0146687
613.817	0.0148123
613.895	0.0145786
613.973	0.0147287
614.051	0.0146892
614.129	0.0146711
614.207	0.0145823
614.285	0.0147061
614.363	0.0147811
614.442	0.0146612
614.520	0.0148460
614.598	0.0146915
614.676	0.0147758
614.754	0.0147327
614.832	0.0147135
614.910	0.0147118
614.988	0.0146909
615.067	0.0148364
615.145	0.0146080
615.223	0.0147382
615.301	0.0147881
615.379	0.0148326
615.457	0.0147311
615.535	0.0147615
615.613	0.0146939
615.692	0.0147306
615.770	0.0148088
615.848	0.0148442
615.926	0.0147958
616.004	0.0148245
616.082	0.0146574
616.160	0.0147765
616.238	0.0149085
616.317	0.0147971
616.395	0.0146618
616.473	0.0147665
616.551	0.0148077
616.629	0.0148038
616.707	0.0146768
616.785	0.0147896
616.863	0.0148022
616.942	0.0147687
617.020	0.0148542
617.098	0.0148412
617.176	0.0147725
617.254	0.0149108
617.332	0.0149546
617.410	0.0149072
617.488	0.0149870
617.567	0.0148903
617.645	0.0149426
617.723	0.0149150
617.801	0.0148415
617.879	0.0150217
617.957	0.0150442
618.035	0.0148783
618.113	0.0148933
618.192	0.0150660
618.270	0.0149536
618.348	0.0149194
618.426	0.0149918
618.504	0.0149223
618.582	0.0149706
618.660	0.0150240
618.738	0.0150053
618.817	0.0149850
618.895	0.0150783
618.973	0.0151002
619.051	0.0151806
619.129	0.0151685
619.207	0.0149960
619.285	0.0150138
619.363	0.0149538
619.442	0.0151143
619.520	0.0149593
619.598	0.0149271
619.676	0.0149454
619.754	0.0150336
619.832	0.0150677
619.910	0.0149275
619.988	0.0152280
620.067	0.0149868
620.145	0.0149876
620.223	0.0149456
620.301	0.0150217
620.379	0.0150919
620.457	0.0150896
620.535	0.0151350
620.613	0.0151965
620.692	0.0150075
620.770	0.0149809
620.848	0.0149283
620.926	0.0150087
621.004	0.0151131
621.082	0.0150309
621.160	0.0150808
621.238	0.0150072
621.317	0.0149630
621.395	0.0149935
621.473	0.0149583
621.551	0.0149957
621.629	0.0150529
621.707	0.0152082
621.785	0.0151848
621.863	0.0150607
621.942	0.0150544
622.020	0.0149937
622.098	0.0151360
622.176	0.0152513
622.254	0.0150365
622.332	0.0151080
622.410	0.0150143
622.488	0.0150288
622.567	0.0150211
622.645	0.0150749
622.723	0.0149945
622.801	0.0150203
622.879	0.0150234
622.957	0.0150829
623.035	0.0149224
623.113	0.0149126
623.192	0.0148622
623.270	0.0148092
623.348	0.0150356
623.426	0.0149865
623.504	0.0149218
623.582	0.0150059
623.660	0.0149855
623.738	0.0148174
623.817	0.0147366
623.895	0.0149614
623.973	0.0148567
624.051	0.0147209
624.129	0.0148003
624.207	0.0148449
624.285	0.0149034
624.363	0.0148769
624.442	0.0149282
624.520	0.0149311
624.598	0.0149054
624.676	0.0150681
624.754	0.0149091
624.832	0.0149840
624.910	0.0148922
624.988	0.0149632
625.067	0.0149830
625.145	0.0150117
625.223	0.0150136
625.301	0.0149672
625.379	0.0150204
625.457	0.0149660
625.535	0.0148106
625.613	0.0149319
625.692	0.0149627
625.770	0.0149094
625.848	0.0149510
625.926	0.0149944
626.004	0.0150372
626.082	0.0149136
626.160	0.0149275
626.238	0.0150757
626.317	0.0150285
626.395	0.0150014
626.473	0.0149533
626.551	0.0148801
626.629	0.0147482
626.707	0.0149153
626.785	0.0148457
626.863	0.0148775
626.942	0.0147765
627.020	0.0148846
627.098	0.0149035
627.176	0.0148725
627.254	0.0150103
627.332	0.0148466
627.410	0.0149315
627.488	0.0148599
627.567	0.0148574
627.645	0.0148514
627.723	0.0149454
627.801	0.0149212
627.879	0.0148695
627.957	0.0149748
628.035	0.0148694
628.113	0.0150557
628.192	0.0149102
628.270	0.0148365
628.348	0.0149338
628.426	0.0151326
628.504	0.0150424
628.582	0.0150600
628.660	0.0149949
628.738	0.0149376
628.817	0.0150162
628.895	0.0151500
628.973	0.0151067
629.051	0.0149180
629.129	0.0149533
629.207	0.0150184
629.285	0.0148777
629.363	0.0148546
629.442	0.0148726
629.520	0.0148356
629.598	0.0148256
629.676	0.0146926
629.754	0.0147229
629.832	0.0147366
629.910	0.0148212
629.988	0.0146294
630.067	0.0148131
630.145	0.0148195
630.223	0.0147330
630.301	0.0146890
630.379	0.0148894
630.457	0.0146107
630.535	0.0148267
630.613	0.0148486
630.692	0.0148336
630.770	0.0149515
630.848	0.0148780
630.926	0.0148337
631.004	0.0148275
631.082	0.0148100
631.160	0.0147989
631.238	0.0147933
631.317	0.0148158
631.395	0.0148215
631.473	0.0146693
631.551	0.0147999
631.629	0.0148020
631.707	0.0147244
631.785	0.0147988
631.863	0.0147215
631.942	0.0147199
632.020	0.0147495
632.098	0.0146731
632.176	0.0146809
632.254	0.0147195
632.332	0.0147246
632.410	0.0145654
632.488	0.0147119
632.567	0.0148029
632.645	0.0147907
632.723	0.0148789
632.801	0.0147751
632.879	0.0150587
632.957	0.0149623
633.035	0.0148743
633.113	0.0148393
633.192	0.0148579
633.270	0.0150304
633.348	0.0150004
633.426	0.0150044
633.504	0.0149294
633.582	0.0149894
633.660	0.0149944
633.738	0.0149193
633.817	0.0149374
633.895	0.0149445
633.973	0.0150475
634.051	0.0150558
634.129	0.0147755
634.207	0.0148154
634.285	0.0148082
634.363	0.0148122
634.442	0.0147222
634.520	0.0147149
634.598	0.0147366
634.676	0.0146319
634.754	0.0145735
634.832	0.0144177
634.910	0.0143522
634.988	0.0143406
635.067	0.0143533
635.145	0.0142135
635.223	0.0142921
635.301	0.0142412
635.379	0.0141650
635.457	0.0143065
635.535	0.0142962
635.613	0.0142434
635.692	0.0144183
635.770	0.0144727
635.848	0.0144477
635.926	0.0145261
636.004	0.0145531
636.082	0.0146360
636.160	0.0146891
636.238	0.0147366
636.317	0.0147491
636.395	0.0147240
636.473	0.0149449
636.551	0.0148032
636.629	0.0147462
636.707	0.0150385
636.785	0.0149419
636.863	0.0148637
636.942	0.0149752
637.020	0.0147555
637.098	0.0149377
637.176	0.0150911
637.254	0.0149290
637.332	0.0149020
637.410	0.0149889
637.488	0.0149261
637.567	0.0149130
637.645	0.0150605
637.723	0.0149958
637.801	0.0150249
637.879	0.0150682
637.957	0.0150191
638.035	0.0150445
638.113	0.0150134
638.192	0.0150716
638.270	0.0150742
638.348	0.0150044
638.426	0.0151469
638.504	0.0150586
638.582	0.0150433
638.660	0.0150224
638.738	0.0148724
638.817	0.0148644
638.895	0.0149807
638.973	0.0148065
639.051	0.0147488
639.129	0.0147412
639.207	0.0147047
639.285	0.0147976
639.363	0.0146300
639.442	0.0146755
639.520	0.0145756
639.598	0.0144821
639.676	0.0148190
639.754	0.0148086
639.832	0.0145798
639.910	0.0146783
639.988	0.0146957
640.067	0.0146339
640.145	0.0146965
640.223	0.0146892
640.301	0.0145699
640.379	0.0144961
640.457	0.0147008
640.535	0.0147729
640.613	0.0148528
640.692	0.0146022
640.770	0.0146243
640.848	0.0148949
640.926	0.0148241
641.004	0.0147755
641.082	0.0149586
641.160	0.0149602
641.238	0.0150681
641.317	0.0152151
641.395	0.0150829
641.473	0.0152245
641.551	0.0153053
641.629	0.0152377
641.707	0.0152914
641.785	0.0153016
641.863	0.0151735
641.942	0.0152265
642.020	0.0151740
642.098	0.0153691
642.176	0.0153727
642.254	0.0151729
642.332	0.0151482
642.410	0.0151215
642.488	0.0152022
642.567	0.0151278
642.645	0.0150796
642.723	0.0149729
642.801	0.0149864
642.879	0.0151491
642.957	0.0150642
643.035	0.0150134
643.113	0.0150292
643.192	0.0150601
643.270	0.0150574
643.348	0.0150007
643.426	0.0149332
643.504	0.0150017
643.582	0.0149427
643.660	0.0148669
643.738	0.0149820
643.817	0.0148962
643.895	0.0149230
643.973	0.0148280
644.051	0.0149616
644.129	0.0148157
644.207	0.0147661
644.285	0.0148304
644.363	0.0148075
644.442	0.0147443
644.520	0.0148611
644.598	0.0147994
644.676	0.0148611
644.754	0.0146765
644.832	0.0148180
644.910	0.0148825
644.988	0.0149075
645.067	0.0147813
645.145	0.0147707
645.223	0.0147929
645.301	0.0146864
645.379	0.0148412
645.457	0.0148512
645.535	0.0148950
645.613	0.0149368
645.692	0.0149500
645.770	0.0148862
645.848	0.0148936
645.926	0.0149654
646.004	0.0149409
646.082	0.0149612
646.160	0.0148972
646.238	0.0148932
646.317	0.0150343
646.395	0.0152422
646.473	0.0151633
646.551	0.0151734
646.629	0.0152190
646.707	0.0151556
646.785	0.0151719
646.863	0.0152005
646.942	0.0151725
647.020	0.0152424
647.098	0.0152088
647.176	0.0151617
647.254	0.0151408
647.332	0.0150321
647.410	0.0151436
647.488	0.0150945
647.567	0.0149296
647.645	0.0150468
647.723	0.0149712
647.801	0.0148983
647.879	0.0148940
647.957	0.0150191
648.035	0.0148323
648.113	0.0150079
648.192	0.0149627
648.270	0.0148274
648.348	0.0149107
648.426	0.0150175
648.504	0.0149342
648.582	0.0149023
648.660	0.0150114
648.738	0.0149375
648.817	0.0149892
648.895	0.0150073
648.973	0.0149241
649.051	0.0148793
649.129	0.0148905
649.207	0.0149516
649.285	0.0149887
649.363	0.0148328
649.442	0.0149892
649.520	0.0149086
649.598	0.0149361
649.676	0.0149608
649.754	0.0148615
649.832	0.0149492
649.910	0.0149760
649.988	0.0148226
650.067	0.0147729
650.145	0.0147807
650.223	0.0148296
650.301	0.0147648
650.379	0.0148293
650.457	0.0149488
650.535	0.0147675
650.613	0.0149592
650.692	0.0150237
650.770	0.0150208
650.848	0.0149136
650.926	0.0150979
651.004	0.0150016
651.082	0.0149088
651.160	0.0148697
651.238	0.0149509
651.317	0.0148596
651.395	0.0147544
651.473	0.0148514
651.551	0.0148320
651.629	0.0147213
651.707	0.0146944
651.785	0.0148919
651.863	0.0147121
651.942	0.0147366
652.020	0.0147330
652.098	0.0147826
652.176	0.0148348
652.254	0.0148701
652.332	0.0149163
652.410	0.0147041
652.488	0.0149337
652.567	0.0149358
652.645	0.0149276
652.723	0.0150523
652.801	0.0148893
652.879	0.0148145
652.957	0.0149884
653.035	0.0148806
653.113	0.0148992
653.192	0.0149543
653.270	0.0149606
653.348	0.0149754
653.426	0.0151643
653.504	0.0148148
653.582	0.0149574
653.660	0.0150317
653.738	0.0149329
653.817	0.0149500
653.895	0.0148653
653.973	0.0148904
654.051	0.0149510
654.129	0.0148938
654.207	0.0148396
654.285	0.0148392
654.363	0.0148846
654.442	0.0149509
654.520	0.0149460
654.598	0.0148204
654.676	0.0150095
654.754	0.0151238
654.832	0.0151707
654.910	0.0152551
654.988	0.0151954
655.067	0.0151730
655.145	0.0151663
655.223	0.0152818
655.301	0.0153310
655.379	0.0153113
655.457	0.0152238
655.535	0.0152389
655.613	0.0152450
655.692	0.0153078
655.770	0.0151015
655.848	0.0150658
655.926	0.0149239
656.004	0.0148814
656.082	0.0148050
656.160	0.0147143
656.238	0.0146541
656.317	0.0145190
656.395	0.0146162
656.473	0.0143385
656.551	0.0144447
656.629	0.0144489
656.707	0.0144647
656.785	0.0143960
656.863	0.0143866
656.942	0.0143432
657.020	0.0144244
657.098	0.0144425
657.176	0.0144825
657.254	0.0144814
657.332	0.0144585
657.410	0.0147183
657.488	0.0144698
657.567	0.0145380
657.645	0.0145427
657.723	0.0147413
657.801	0.0146730
657.879	0.0146459
657.957	0.0147641
658.035	0.0146518
658.113	0.0147040
658.192	0.0146806
658.270	0.0146824
658.348	0.0147121
658.426	0.0146970
658.504	0.0147447
658.582	0.0148612
658.660	0.0148923
658.738	0.0148829
658.817	0.0148967
658.895	0.0149505
658.973	0.0148988
659.051	0.0150392
659.129	0.0150410
659.207	0.0150154
659.285	0.0150678
659.363	0.0151354
659.442	0.0152405
659.520	0.0151450
659.598	0.0151045
659.676	0.0152768
659.754	0.0152706
659.832	0.0152289
659.910	0.0152998
659.988	0.0151610
660.067	0.0151144
660.145	0.0152412
660.223	0.0151904
660.301	0.0151540
660.379	0.0149159
660.457	0.0151692
660.535	0.0151843
660.613	0.0149943
660.692	0.0150282
660.770	0.0148723
660.848	0.0149483
660.926	0.0148701
661.004	0.0149178
661.082	0.0148672
661.160	0.0147772
661.238	0.0148245
661.317	0.0148051
661.395	0.0148058
661.473	0.0148759
661.551	0.0147254
661.629	0.0147022
661.707	0.0146967
661.785	0.0147025
661.863	0.0146359
661.942	0.0146349
662.020	0.0146466
662.098	0.0146191
662.176	0.0145814
662.254	0.0145063
662.332	0.0145084
662.410	0.0146024
662.488	0.0144085
662.567	0.0145099
662.645	0.0147369
662.723	0.0147179
662.801	0.0146220
662.879	0.0145753
662.957	0.0146491
663.035	0.0150233
663.113	0.0149440
663.192	0.0149992
663.270	0.0150523
663.348	0.0150889
663.426	0.0150507
663.504	0.0150896
663.582	0.0153024
663.660	0.0154801
663.738	0.0154768
663.817	0.0154119
663.895	0.0154287
663.973	0.0155316
664.051	0.0153423
664.129	0.0154459
664.207	0.0155500
664.285	0.0155290
664.363	0.0154816
664.442	0.0154984
664.520	0.0154298
664.598	0.0152615
664.676	0.0153093
664.754	0.0152115
664.832	0.0151633
664.910	0.0151546
664.988	0.0151666
665.067	0.0149809
665.145	0.0149397
665.223	0.0150039
665.301	0.0149293
665.379	0.0147805
665.457	0.0149391
665.535	0.0146237
665.613	0.0144918
665.692	0.0146961
665.770	0.0146545
665.848	0.0146104
665.926	0.0144650
666.004	0.0144987
666.082	0.0145345
666.160	0.0145425
666.238	0.0146108
666.317	0.0147767
666.395	0.0147765
666.473	0.0146576
666.551	0.0146519
666.629	0.0147147
666.707	0.0148199
666.785	0.0150146
666.863	0.0150578
666.942	0.0151184
667.020	0.0153017
667.098	0.0152427
667.176	0.0153569
667.254	0.0156364
667.332	0.0154723
667.410	0.0155031
667.488	0.0155064
667.567	0.0154659
667.645	0.0155829
667.723	0.0154120
667.801	0.0153487
667.879	0.0152251
667.957	0.0152791
668.035	0.0151664
668.113	0.0151530
668.192	0.0150183
668.270	0.0149004
668.348	0.0148607
668.426	0.0147823
668.504	0.0147226
668.582	0.0145856
668.660	0.0144727
668.738	0.0143945
668.817	0.0143655
668.895	0.0142735
668.973	0.0143170
669.051	0.0144804
669.129	0.0141621
669.207	0.0144443
669.285	0.0144884
669.363	0.0144893
669.442	0.0145883
669.520	0.0145690
669.598	0.0146716
669.676	0.0149030
669.754	0.0148596
669.832	0.0150356
669.910	0.0150060
669.988	0.0150085
670.067	0.0150791
670.145	0.0151276
670.223	0.0151600
670.301	0.0152385
670.379	0.0150935
670.457	0.0153070
670.535	0.0152151
670.613	0.0150484
670.692	0.0150806
670.770	0.0150643
670.848	0.0149425
670.926	0.0148538
671.004	0.0148883
671.082	0.0146915
671.160	0.0148050
671.238	0.0145876
671.317	0.0145509
671.395	0.0145609
671.473	0.0145823
671.551	0.0145398
671.629	0.0144299
671.707	0.0145672
671.785	0.0145468
671.863	0.0147035
671.942	0.0147186
672.020	0.0146924
672.098	0.0146694
672.176	0.0147785
672.254	0.0147590
672.332	0.0148038
672.410	0.0148515
672.488	0.0149655
672.567	0.0148375
672.645	0.0150188
672.723	0.0149834
672.801	0.0149732
672.879	0.0150286
672.957	0.0151161
673.035	0.0150239
673.113	0.0149332
673.192	0.0147980
673.270	0.0147508
673.348	0.0146723
673.426	0.0146016
673.504	0.0146004
673.582	0.0145322
673.660	0.0144228
673.738	0.0142120
673.817	0.0143805
673.895	0.0143375
673.973	0.0142516
674.051	0.0142886
674.129	0.0143478
674.207	0.0142316
674.285	0.0140027
674.363	0.0142516
674.442	0.0144447
674.520	0.0144098
674.598	0.0143443
674.676	0.0145142
674.754	0.0145754
674.832	0.0145923
674.910	0.0147830
674.988	0.0148489
675.067	0.0150044
675.145	0.0151166
675.223	0.0151433
675.301	0.0151909
675.379	0.0152295
675.457	0.0152802
675.535	0.0153834
675.613	0.0154885
675.692	0.0153850
675.770	0.0153503
675.848	0.0153719
675.926	0.0155086
676.004	0.0153808
676.082	0.0154259
676.160	0.0153585
676.238	0.0153670
676.317	0.0154234
676.395	0.0154351
676.473	0.0152528
676.551	0.0152740
676.629	0.0152563
676.707	0.0151836
676.785	0.0151969
676.863	0.0151133
676.942	0.0150409
677.020	0.0150243
677.098	0.0148947
677.176	0.0149259
677.254	0.0150130
677.332	0.0148570
677.410	0.0146652
677.488	0.0147609
677.567	0.0147923
677.645	0.0149418
677.723	0.0147878
677.801	0.0146207
677.879	0.0148036
677.957	0.0147654
678.035	0.0147910
678.113	0.0148038
678.192	0.0148687
678.270	0.0147446
678.348	0.0147846
678.426	0.0148193
678.504	0.0147873
678.582	0.0147776
678.660	0.0148981
678.738	0.0147111
678.817	0.0148985
678.895	0.0147974
678.973	0.0147380
679.051	0.0147746
679.129	0.0149524
679.207	0.0149030
679.285	0.0148170
679.363	0.0147432
679.442	0.0148145
679.520	0.0148038
679.598	0.0148511
679.676	0.0148405
679.754	0.0148952
679.832	0.0148514
679.910	0.0148688
679.988	0.0148228
680.067	0.0149010
680.145	0.0148349
680.223	0.0148093
680.301	0.0147815
680.379	0.0149377
680.457	0.0149075
680.535	0.0150443
680.613	0.0150542
680.692	0.0149485
680.770	0.0151277
680.848	0.0150462
680.926	0.0151308
681.004	0.0151245
681.082	0.0150417
681.160	0.0151916
681.238	0.0150810
681.317	0.0150915
681.395	0.0151817
681.473	0.0149046
681.551	0.0149780
681.629	0.0150595
681.707	0.0151379
681.785	0.0149749
681.863	0.0149197
681.942	0.0149918
682.020	0.0149849
682.098	0.0148863
682.176	0.0147986
682.254	0.0147757
682.332	0.0147012
682.410	0.0145679
682.488	0.0145567
682.567	0.0145727
682.645	0.0144398
682.723	0.0144167
682.801	0.0144713
682.879	0.0144169
682.957	0.0143008
683.035	0.0142323
683.113	0.0143691
683.192	0.0145280
683.270	0.0144331
683.348	0.0146577
683.426	0.0146799
683.504	0.0145676
683.582	0.0148467
683.660	0.0149055
683.738	0.0152348
683.817	0.0151878
683.895	0.0153431
683.973	0.0155389
684.051	0.0155892
684.129	0.0156737
684.207	0.0157458
684.285	0.0157335
684.363	0.0158279
684.442	0.0158195
684.520	0.0156939
684.598	0.0157347
684.676	0.0157011
684.754	0.0156438
684.832	0.0155209
684.910	0.0153628
684.988	0.0152573
685.067	0.0153993
685.145	0.0152776
685.223	0.0150605
685.301	0.0149338
685.379	0.0148766
685.457	0.0148901
685.535	0.0147548
685.613	0.0147414
685.692	0.0145978
