05/28/2022	14:30:42	Ver.	4.1	UNKNOWN
Optical Delay	599.988409	Delta X		0.078125	Sweeps	1	Scan Rate	0/0
Coordinates	Axis 1	NaN	Axis 2	NaN	Axis 3	NaN	Axis 4	NaN	Axis 5	NaN	Axis 6	0.000000
TX Power	0.000000	RX Power	0.000000

599.988	0.0141792
600.067	0.0140708
600.145	0.0140388
600.223	0.0139782
600.301	0.0141244
600.379	0.0140379
600.457	0.0140273
600.535	0.0140725
600.613	0.0140797
600.692	0.0140179
600.770	0.0139423
600.848	0.0140419
600.926	0.0140598
601.004	0.0139571
601.082	0.0140179
601.160	0.0139057
601.238	0.0140918
601.317	0.0140855
601.395	0.0140025
601.473	0.0140105
601.551	0.0139659
601.629	0.0138459
601.707	0.0138735
601.785	0.0138902
601.863	0.0140344
601.942	0.0138986
602.020	0.0140177
602.098	0.0138077
602.176	0.0139367
602.254	0.0139126
602.332	0.0139417
602.410	0.0141017
602.488	0.0139601
602.567	0.0140564
602.645	0.0139883
602.723	0.0138064
602.801	0.0139237
602.879	0.0141434
602.957	0.0140274
603.035	0.0137745
603.113	0.0139445
603.192	0.0140507
603.270	0.0140525
603.348	0.0139842
603.426	0.0138741
603.504	0.0138612
603.582	0.0140742
603.660	0.0140569
603.738	0.0139388
603.817	0.0139066
603.895	0.0138837
603.973	0.0139246
604.051	0.0139481
604.129	0.0140334
604.207	0.0140623
604.285	0.0139040
604.363	0.0140990
604.442	0.0141010
604.520	0.0140607
604.598	0.0139747
604.676	0.0141282
604.754	0.0139268
604.832	0.0140204
604.910	0.0140291
604.988	0.0139501
605.067	0.0139767
605.145	0.0140325
605.223	0.0138765
605.301	0.0138829
605.379	0.0141154
605.457	0.0140308
605.535	0.0140019
605.613	0.0141221
605.692	0.0141269
605.770	0.0141281
605.848	0.0140223
605.926	0.0138129
606.004	0.0139545
606.082	0.0140904
606.160	0.0139529
606.238	0.0139645
606.317	0.0138919
606.395	0.0139721
606.473	0.0140294
606.551	0.0139201
606.629	0.0139692
606.707	0.0139198
606.785	0.0140590
606.863	0.0139417
606.942	0.0139365
607.020	0.0138973
607.098	0.0138476
607.176	0.0139539
607.254	0.0140108
607.332	0.0139992
607.410	0.0138897
607.488	0.0138749
607.567	0.0139488
607.645	0.0140347
607.723	0.0139582
607.801	0.0139853
607.879	0.0138767
607.957	0.0138641
608.035	0.0139540
608.113	0.0139169
608.192	0.0139581
608.270	0.0139742
608.348	0.0138753
608.426	0.0138132
608.504	0.0139382
608.582	0.0139191
608.660	0.0139550
608.738	0.0138963
608.817	0.0139281
608.895	0.0138641
608.973	0.0138361
609.051	0.0139198
609.129	0.0138702
609.207	0.0139191
609.285	0.0139056
609.363	0.0138447
609.442	0.0139801
609.520	0.0139090
609.598	0.0139381
609.676	0.0139113
609.754	0.0139628
609.832	0.0139714
609.910	0.0140071
609.988	0.0140930
610.067	0.0139606
610.145	0.0139558
610.223	0.0141669
610.301	0.0140332
610.379	0.0140543
610.457	0.0138963
610.535	0.0140826
610.613	0.0140746
610.692	0.0141074
610.770	0.0139837
610.848	0.0139285
610.926	0.0141872
611.004	0.0140010
611.082	0.0139552
611.160	0.0138754
611.238	0.0139719
611.317	0.0141408
611.395	0.0141110
611.473	0.0141055
611.551	0.0140422
611.629	0.0139804
611.707	0.0140320
611.785	0.0142307
611.863	0.0140909
611.942	0.0140822
612.020	0.0140208
612.098	0.0141093
612.176	0.0140397
612.254	0.0140480
612.332	0.0141090
612.410	0.0141787
612.488	0.0141580
612.567	0.0140921
612.645	0.0141753
612.723	0.0141157
612.801	0.0142867
612.879	0.0140478
612.957	0.0140089
613.035	0.0142397
613.113	0.0142269
613.192	0.0140631
613.270	0.0141618
613.348	0.0141053
613.426	0.0142152
613.504	0.0141515
613.582	0.0141977
613.660	0.0142249
613.738	0.0143403
613.817	0.0142461
613.895	0.0142771
613.973	0.0142699
614.051	0.0142292
614.129	0.0141758
614.207	0.0141717
614.285	0.0142368
614.363	0.0142281
614.442	0.0142270
614.520	0.0142616
614.598	0.0143365
614.676	0.0143307
614.754	0.0141907
614.832	0.0142049
614.910	0.0143679
614.988	0.0142712
615.067	0.0143500
615.145	0.0143440
615.223	0.0144094
615.301	0.0141217
615.379	0.0142976
615.457	0.0143681
615.535	0.0142171
615.613	0.0142990
615.692	0.0142618
615.770	0.0142521
615.848	0.0142146
615.926	0.0142152
616.004	0.0142190
616.082	0.0142912
616.160	0.0143556
616.238	0.0143351
616.317	0.0142142
616.395	0.0141963
616.473	0.0142628
616.551	0.0143150
616.629	0.0142138
616.707	0.0142357
616.785	0.0142537
616.863	0.0141338
616.942	0.0142573
617.020	0.0142137
617.098	0.0142255
617.176	0.0143496
617.254	0.0142212
617.332	0.0142045
617.410	0.0142732
617.488	0.0143240
617.567	0.0140774
617.645	0.0141628
617.723	0.0141580
617.801	0.0141805
617.879	0.0141165
617.957	0.0142338
618.035	0.0141451
618.113	0.0142413
618.192	0.0139804
618.270	0.0141629
618.348	0.0141659
618.426	0.0142828
618.504	0.0142209
618.582	0.0141296
618.660	0.0140823
618.738	0.0141947
618.817	0.0140839
618.895	0.0140401
618.973	0.0140056
619.051	0.0141855
619.129	0.0142104
619.207	0.0142587
619.285	0.0141013
619.363	0.0141467
619.442	0.0140745
619.520	0.0142110
619.598	0.0140328
619.676	0.0141045
619.754	0.0141242
619.832	0.0140848
619.910	0.0140549
619.988	0.0142309
620.067	0.0142026
620.145	0.0140248
620.223	0.0139826
620.301	0.0140211
620.379	0.0142106
620.457	0.0141504
620.535	0.0141122
620.613	0.0140816
620.692	0.0142215
620.770	0.0140264
620.848	0.0141222
620.926	0.0141290
621.004	0.0140641
621.082	0.0141600
621.160	0.0142178
621.238	0.0143037
621.317	0.0142357
621.395	0.0141443
621.473	0.0140706
621.551	0.0141582
621.629	0.0142949
621.707	0.0140607
621.785	0.0140804
621.863	0.0140604
621.942	0.0142422
622.020	0.0141758
622.098	0.0140716
622.176	0.0141344
622.254	0.0141001
622.332	0.0140369
622.410	0.0140642
622.488	0.0141058
622.567	0.0140690
622.645	0.0142055
622.723	0.0142705
622.801	0.0140208
622.879	0.0141284
622.957	0.0138951
623.035	0.0140392
623.113	0.0140899
623.192	0.0142970
623.270	0.0140505
623.348	0.0142249
623.426	0.0141097
623.504	0.0141473
623.582	0.0141230
623.660	0.0141760
623.738	0.0139677
623.817	0.0142326
623.895	0.0140915
623.973	0.0141019
624.051	0.0140900
624.129	0.0141777
624.207	0.0142180
624.285	0.0140761
624.363	0.0142857
624.442	0.0141011
624.520	0.0142165
624.598	0.0141770
624.676	0.0142679
624.754	0.0141055
624.832	0.0141545
624.910	0.0141844
624.988	0.0141718
625.067	0.0141206
625.145	0.0142738
625.223	0.0141073
625.301	0.0143563
625.379	0.0141393
625.457	0.0140852
625.535	0.0141737
625.613	0.0141988
625.692	0.0141351
625.770	0.0140401
625.848	0.0140199
625.926	0.0140764
626.004	0.0140067
626.082	0.0139660
626.160	0.0140515
626.238	0.0141538
626.317	0.0140850
626.395	0.0140218
626.473	0.0140309
626.551	0.0140415
626.629	0.0140939
626.707	0.0141273
626.785	0.0141873
626.863	0.0141225
626.942	0.0140930
627.020	0.0141711
627.098	0.0142096
627.176	0.0140153
627.254	0.0141158
627.332	0.0141867
627.410	0.0143309
627.488	0.0141930
627.567	0.0141408
627.645	0.0141953
627.723	0.0141394
627.801	0.0142755
627.879	0.0141744
627.957	0.0141095
628.035	0.0142229
628.113	0.0141989
628.192	0.0141171
628.270	0.0141425
628.348	0.0139687
628.426	0.0140521
628.504	0.0141223
628.582	0.0140290
628.660	0.0138403
628.738	0.0139120
628.817	0.0139550
628.895	0.0139051
628.973	0.0138293
629.051	0.0138837
629.129	0.0139323
629.207	0.0140282
629.285	0.0137996
629.363	0.0139026
629.442	0.0139079
629.520	0.0138760
629.598	0.0139411
629.676	0.0138943
629.754	0.0138663
629.832	0.0138519
629.910	0.0139239
629.988	0.0139212
630.067	0.0138606
630.145	0.0138874
630.223	0.0138619
630.301	0.0140094
630.379	0.0140442
630.457	0.0139548
630.535	0.0139855
630.613	0.0140147
630.692	0.0138882
630.770	0.0139579
630.848	0.0140579
630.926	0.0140392
631.004	0.0138818
631.082	0.0138783
631.160	0.0139151
631.238	0.0138917
631.317	0.0138989
631.395	0.0138657
631.473	0.0138597
631.551	0.0138708
631.629	0.0138274
631.707	0.0137708
631.785	0.0138579
631.863	0.0139169
631.942	0.0139135
632.020	0.0139709
632.098	0.0139857
632.176	0.0140839
632.254	0.0141200
632.332	0.0139500
632.410	0.0141443
632.488	0.0141116
632.567	0.0140886
632.645	0.0141940
632.723	0.0142381
632.801	0.0142751
632.879	0.0143084
632.957	0.0141613
633.035	0.0143055
633.113	0.0143015
633.192	0.0141461
633.270	0.0142839
633.348	0.0141094
633.426	0.0141427
633.504	0.0143282
633.582	0.0142105
633.660	0.0141093
633.738	0.0139964
633.817	0.0142080
633.895	0.0140456
633.973	0.0140009
634.051	0.0139999
634.129	0.0138853
634.207	0.0138151
634.285	0.0138918
634.363	0.0139161
634.442	0.0137527
634.520	0.0137903
634.598	0.0137814
634.676	0.0137850
634.754	0.0136414
634.832	0.0138922
634.910	0.0138103
634.988	0.0137112
635.067	0.0139429
635.145	0.0140369
635.223	0.0141449
635.301	0.0140578
635.379	0.0141898
635.457	0.0141280
635.535	0.0141202
635.613	0.0142627
635.692	0.0143200
635.770	0.0141672
635.848	0.0141978
635.926	0.0144128
636.004	0.0143550
636.082	0.0142932
636.160	0.0143673
636.238	0.0143383
636.317	0.0142257
636.395	0.0142310
636.473	0.0141528
636.551	0.0142441
636.629	0.0143480
636.707	0.0142667
636.785	0.0142216
636.863	0.0140804
636.942	0.0142447
637.020	0.0142932
637.098	0.0142785
637.176	0.0143723
637.254	0.0143881
637.332	0.0142932
637.410	0.0143334
637.488	0.0143514
637.567	0.0143465
637.645	0.0144227
637.723	0.0143822
637.801	0.0142329
637.879	0.0143624
637.957	0.0142764
638.035	0.0142088
638.113	0.0142461
638.192	0.0143212
638.270	0.0141548
638.348	0.0142056
638.426	0.0142764
638.504	0.0141490
638.582	0.0140514
638.660	0.0139261
638.738	0.0140501
638.817	0.0139783
638.895	0.0139763
638.973	0.0140414
639.051	0.0140512
639.129	0.0138782
639.207	0.0138592
639.285	0.0140965
639.363	0.0140244
639.442	0.0139203
639.520	0.0139400
639.598	0.0137910
639.676	0.0138288
639.754	0.0139157
639.832	0.0140340
639.910	0.0140482
639.988	0.0140175
640.067	0.0139803
640.145	0.0140109
640.223	0.0139995
640.301	0.0140400
640.379	0.0142210
640.457	0.0141185
640.535	0.0141682
640.613	0.0143467
640.692	0.0143994
640.770	0.0142674
640.848	0.0143009
640.926	0.0145153
641.004	0.0145839
641.082	0.0144581
641.160	0.0146596
641.238	0.0145264
641.317	0.0144708
641.395	0.0145404
641.473	0.0143913
641.551	0.0143867
641.629	0.0143323
641.707	0.0143793
641.785	0.0144067
641.863	0.0142001
641.942	0.0143305
642.020	0.0142447
642.098	0.0142532
642.176	0.0142341
642.254	0.0140733
642.332	0.0142307
642.410	0.0142733
642.488	0.0141609
642.567	0.0140926
642.645	0.0141832
642.723	0.0142737
642.801	0.0142106
642.879	0.0140233
642.957	0.0141146
643.035	0.0140916
643.113	0.0141191
643.192	0.0141534
643.270	0.0140887
643.348	0.0140050
643.426	0.0140218
643.504	0.0138671
643.582	0.0138833
643.660	0.0139706
643.738	0.0139509
643.817	0.0139971
643.895	0.0140443
643.973	0.0139543
644.051	0.0139788
644.129	0.0141556
644.207	0.0140305
644.285	0.0140358
644.363	0.0141199
644.442	0.0140023
644.520	0.0140363
644.598	0.0140575
644.676	0.0139493
644.754	0.0140058
644.832	0.0142393
644.910	0.0141074
644.988	0.0140862
645.067	0.0141153
645.145	0.0138885
645.223	0.0138918
645.301	0.0140578
645.379	0.0141471
645.457	0.0140449
645.535	0.0142281
645.613	0.0142600
645.692	0.0141458
645.770	0.0142200
645.848	0.0143755
645.926	0.0143685
646.004	0.0142931
646.082	0.0143602
646.160	0.0143838
646.238	0.0143601
646.317	0.0144101
646.395	0.0143452
646.473	0.0144366
646.551	0.0144382
646.629	0.0143484
646.707	0.0143352
646.785	0.0142461
646.863	0.0143385
646.942	0.0143717
647.020	0.0143750
647.098	0.0142416
647.176	0.0141427
647.254	0.0141136
647.332	0.0141066
647.410	0.0141293
647.488	0.0142192
647.567	0.0140585
647.645	0.0140016
647.723	0.0139934
647.801	0.0140002
647.879	0.0139404
647.957	0.0140947
648.035	0.0141323
648.113	0.0140498
648.192	0.0140852
648.270	0.0139390
648.348	0.0140572
648.426	0.0141849
648.504	0.0141970
648.582	0.0140794
648.660	0.0142009
648.738	0.0142270
648.817	0.0142860
648.895	0.0142488
648.973	0.0142490
649.051	0.0143317
649.129	0.0142596
649.207	0.0141019
649.285	0.0141563
649.363	0.0142010
649.442	0.0142378
649.520	0.0141219
649.598	0.0142635
649.676	0.0142487
649.754	0.0142448
649.832	0.0141405
649.910	0.0142210
649.988	0.0142318
650.067	0.0141271
650.145	0.0142677
650.223	0.0143413
650.301	0.0143579
650.379	0.0142828
650.457	0.0143605
650.535	0.0143621
650.613	0.0141982
650.692	0.0142921
650.770	0.0142344
650.848	0.0141583
650.926	0.0140328
651.004	0.0140616
651.082	0.0141198
651.160	0.0141084
651.238	0.0139195
651.317	0.0139441
651.395	0.0139989
651.473	0.0139448
651.551	0.0138680
651.629	0.0139451
651.707	0.0139211
651.785	0.0138600
651.863	0.0140298
651.942	0.0140321
652.020	0.0140312
652.098	0.0138566
652.176	0.0138726
652.254	0.0140063
652.332	0.0140765
652.410	0.0140981
652.488	0.0139160
652.567	0.0140186
652.645	0.0140920
652.723	0.0140582
652.801	0.0141730
652.879	0.0140773
652.957	0.0141256
653.035	0.0140569
653.113	0.0141422
653.192	0.0141893
653.270	0.0141302
653.348	0.0141431
653.426	0.0140466
653.504	0.0140222
653.582	0.0139989
653.660	0.0141644
653.738	0.0142614
653.817	0.0139838
653.895	0.0141531
653.973	0.0142439
654.051	0.0142091
654.129	0.0140919
654.207	0.0141717
654.285	0.0143069
654.363	0.0142070
654.442	0.0142963
654.520	0.0143695
654.598	0.0144246
654.676	0.0144409
654.754	0.0145819
654.832	0.0145325
654.910	0.0144439
654.988	0.0144322
655.067	0.0144230
655.145	0.0143401
655.223	0.0142845
655.301	0.0143818
655.379	0.0142562
655.457	0.0140793
655.535	0.0141621
655.613	0.0140372
655.692	0.0140145
655.770	0.0139059
655.848	0.0139999
655.926	0.0138609
656.004	0.0138050
656.082	0.0138673
656.160	0.0140309
656.238	0.0139968
656.317	0.0139371
656.395	0.0138577
656.473	0.0140073
656.551	0.0138376
656.629	0.0139240
656.707	0.0137752
656.785	0.0140027
656.863	0.0139426
656.942	0.0139196
657.020	0.0140125
657.098	0.0139936
657.176	0.0140347
657.254	0.0138953
657.332	0.0139761
657.410	0.0138975
657.488	0.0140296
657.567	0.0140188
657.645	0.0140970
657.723	0.0141052
657.801	0.0142056
657.879	0.0141239
657.957	0.0140940
658.035	0.0140065
658.113	0.0140891
658.192	0.0141578
658.270	0.0142873
658.348	0.0143207
658.426	0.0141551
658.504	0.0141422
658.582	0.0144341
658.660	0.0145103
658.738	0.0144042
658.817	0.0143639
658.895	0.0144353
658.973	0.0145744
659.051	0.0145048
659.129	0.0145193
659.207	0.0145040
659.285	0.0143603
659.363	0.0143510
659.442	0.0145213
659.520	0.0145033
659.598	0.0144229
659.676	0.0142776
659.754	0.0143036
659.832	0.0143324
659.910	0.0143693
659.988	0.0143368
660.067	0.0143463
660.145	0.0142677
660.223	0.0142706
660.301	0.0142163
660.379	0.0142397
660.457	0.0141145
660.535	0.0142300
660.613	0.0141099
660.692	0.0141655
660.770	0.0141288
660.848	0.0141247
660.926	0.0141122
661.004	0.0141311
661.082	0.0139951
661.160	0.0139926
661.238	0.0140131
661.317	0.0138885
661.395	0.0139063
661.473	0.0139900
661.551	0.0138723
661.629	0.0139709
661.707	0.0139249
661.785	0.0138459
661.863	0.0138094
661.942	0.0137487
662.020	0.0138728
662.098	0.0138774
662.176	0.0139243
662.254	0.0138364
662.332	0.0138640
662.410	0.0138513
662.488	0.0139412
662.567	0.0140043
662.645	0.0140680
662.723	0.0140178
662.801	0.0141649
662.879	0.0142416
662.957	0.0143244
663.035	0.0142123
663.113	0.0142907
663.192	0.0145187
663.270	0.0144736
663.348	0.0145369
663.426	0.0144463
663.504	0.0147321
663.582	0.0146600
663.660	0.0145396
663.738	0.0146409
663.817	0.0146974
663.895	0.0146786
663.973	0.0145316
664.051	0.0145650
664.129	0.0144589
664.207	0.0145094
664.285	0.0143760
664.363	0.0143926
664.442	0.0144794
664.520	0.0142381
664.598	0.0142468
664.676	0.0142645
664.754	0.0141246
664.832	0.0141980
664.910	0.0140298
664.988	0.0139104
665.067	0.0138622
665.145	0.0139330
665.223	0.0137901
665.301	0.0136884
665.379	0.0136517
665.457	0.0136836
665.535	0.0135233
665.613	0.0136000
665.692	0.0135813
665.770	0.0135457
665.848	0.0135369
665.926	0.0135587
666.004	0.0135681
666.082	0.0135157
666.160	0.0135931
666.238	0.0136436
666.317	0.0137710
666.395	0.0138319
666.473	0.0137911
666.551	0.0140658
666.629	0.0140385
666.707	0.0139944
666.785	0.0140386
666.863	0.0141504
666.942	0.0143436
667.020	0.0140805
667.098	0.0143169
667.176	0.0143458
667.254	0.0144051
667.332	0.0143152
667.410	0.0143192
667.488	0.0142881
667.567	0.0144156
667.645	0.0143088
667.723	0.0143389
667.801	0.0142702
667.879	0.0142242
667.957	0.0143202
668.035	0.0141538
668.113	0.0140894
668.192	0.0139919
668.270	0.0139530
668.348	0.0139239
668.426	0.0138815
668.504	0.0138784
668.582	0.0137066
668.660	0.0136145
668.738	0.0136467
668.817	0.0136381
668.895	0.0134153
668.973	0.0137005
669.051	0.0136369
669.129	0.0135815
669.207	0.0136715
669.285	0.0136541
669.363	0.0137440
669.442	0.0137971
669.520	0.0138984
669.598	0.0141022
669.676	0.0140072
669.754	0.0140596
669.832	0.0142215
669.910	0.0143458
669.988	0.0145528
670.067	0.0145387
670.145	0.0146709
670.223	0.0146120
670.301	0.0146983
670.379	0.0147404
670.457	0.0147398
670.535	0.0146171
670.613	0.0146980
670.692	0.0147311
670.770	0.0145060
670.848	0.0143684
670.926	0.0143993
671.004	0.0143354
671.082	0.0141908
671.160	0.0140732
671.238	0.0141833
671.317	0.0140203
671.395	0.0139832
671.473	0.0138869
671.551	0.0140494
671.629	0.0140803
671.707	0.0139381
671.785	0.0140388
671.863	0.0140758
671.942	0.0140841
672.020	0.0141187
672.098	0.0142995
672.176	0.0143606
672.254	0.0143242
672.332	0.0143707
672.410	0.0145174
672.488	0.0146224
672.567	0.0146508
672.645	0.0145919
672.723	0.0143927
672.801	0.0146023
672.879	0.0146038
672.957	0.0145519
673.035	0.0145876
673.113	0.0144317
673.192	0.0142619
673.270	0.0142614
673.348	0.0142138
673.426	0.0143742
673.504	0.0141259
673.582	0.0139979
673.660	0.0139463
673.738	0.0137374
673.817	0.0137222
673.895	0.0137492
673.973	0.0137057
674.051	0.0136962
674.129	0.0135345
674.207	0.0134612
674.285	0.0135274
674.363	0.0134132
674.442	0.0135678
674.520	0.0136758
674.598	0.0137988
674.676	0.0137884
674.754	0.0138595
674.832	0.0138036
674.910	0.0139386
674.988	0.0140265
675.067	0.0140374
675.145	0.0142139
675.223	0.0145007
675.301	0.0144251
675.379	0.0144649
675.457	0.0144959
675.535	0.0146468
675.613	0.0145777
675.692	0.0145258
675.770	0.0146497
675.848	0.0146164
675.926	0.0145176
676.004	0.0145701
676.082	0.0144220
676.160	0.0144505
676.238	0.0143666
676.317	0.0142670
676.395	0.0142947
676.473	0.0142908
676.551	0.0142252
676.629	0.0142502
676.707	0.0141660
676.785	0.0141303
676.863	0.0139723
676.942	0.0139307
677.020	0.0140291
677.098	0.0139177
677.176	0.0138844
677.254	0.0139037
677.332	0.0139317
677.410	0.0139677
677.488	0.0137907
677.567	0.0138334
677.645	0.0140947
677.723	0.0140030
677.801	0.0139294
677.879	0.0140052
677.957	0.0140801
678.035	0.0139949
678.113	0.0141232
678.192	0.0140433
678.270	0.0139771
678.348	0.0139442
678.426	0.0139958
678.504	0.0140228
678.582	0.0140680
678.660	0.0139385
678.738	0.0140066
678.817	0.0139660
678.895	0.0140126
678.973	0.0140220
679.051	0.0141100
679.129	0.0141228
679.207	0.0141249
679.285	0.0139610
679.363	0.0140513
679.442	0.0141781
679.520	0.0140314
679.598	0.0141752
679.676	0.0143088
679.754	0.0139449
679.832	0.0140823
679.910	0.0141393
679.988	0.0143156
680.067	0.0141962
680.145	0.0143413
680.223	0.0142955
680.301	0.0142796
680.379	0.0144353
680.457	0.0145171
680.535	0.0145248
680.613	0.0145052
680.692	0.0146262
680.770	0.0145448
680.848	0.0145872
680.926	0.0145509
681.004	0.0146298
681.082	0.0145921
681.160	0.0144351
681.238	0.0144897
681.317	0.0144250
681.395	0.0144406
681.473	0.0145306
681.551	0.0142117
681.629	0.0142024
681.707	0.0142059
681.785	0.0142116
681.863	0.0142142
681.942	0.0138838
682.020	0.0139878
682.098	0.0138874
682.176	0.0137036
682.254	0.0137280
682.332	0.0137318
682.410	0.0136137
682.488	0.0136112
682.567	0.0134740
682.645	0.0133269
682.723	0.0133324
682.801	0.0136263
682.879	0.0133704
682.957	0.0133365
683.035	0.0134241
683.113	0.0135551
683.192	0.0136031
683.270	0.0136359
683.348	0.0137885
683.426	0.0137894
683.504	0.0138582
683.582	0.0139732
683.660	0.0140665
683.738	0.0142566
683.817	0.0142298
683.895	0.0144478
683.973	0.0145780
684.051	0.0146500
684.129	0.0147679
684.207	0.0147871
684.285	0.0148814
684.363	0.0147947
684.442	0.0148874
684.520	0.0149112
684.598	0.0148682
684.676	0.0146817
684.754	0.0147876
684.832	0.0146951
684.910	0.0145876
684.988	0.0146416
685.067	0.0144666
685.145	0.0143730
685.223	0.0144442
685.301	0.0143256
685.379	0.0140494
685.457	0.0139833
685.535	0.0140499
685.613	0.0138477
685.692	0.0138674
