05/28/2022	14:31:32	Ver.	4.1	UNKNOWN
Optical Delay	599.988409	Delta X		0.078125	Sweeps	1	Scan Rate	0/0
Coordinates	Axis 1	NaN	Axis 2	NaN	Axis 3	NaN	Axis 4	NaN	Axis 5	NaN	Axis 6	0.000000
TX Power	0.000000	RX Power	0.000000

599.988	0.0145008
600.067	0.0143913
600.145	0.0145130
600.223	0.0144864
600.301	0.0144890
600.379	0.0146346
600.457	0.0146449
600.535	0.0144479
600.613	0.0144147
600.692	0.0145340
600.770	0.0145281
600.848	0.0145043
600.926	0.0144655
601.004	0.0145583
601.082	0.0144372
601.160	0.0145177
601.238	0.0144831
601.317	0.0145092
601.395	0.0145628
601.473	0.0145222
601.551	0.0144887
601.629	0.0144099
601.707	0.0144579
601.785	0.0144959
601.863	0.0144387
601.942	0.0143835
602.020	0.0143497
602.098	0.0143713
602.176	0.0144089
602.254	0.0143625
602.332	0.0144824
602.410	0.0145200
602.488	0.0142838
602.567	0.0143102
602.645	0.0145485
602.723	0.0144235
602.801	0.0144959
602.879	0.0142718
602.957	0.0143552
603.035	0.0145389
603.113	0.0143273
603.192	0.0144168
603.270	0.0143712
603.348	0.0144355
603.426	0.0143844
603.504	0.0143203
603.582	0.0144872
603.660	0.0143962
603.738	0.0143823
603.817	0.0143337
603.895	0.0143213
603.973	0.0144378
604.051	0.0145358
604.129	0.0145407
604.207	0.0144455
604.285	0.0145214
604.363	0.0143571
604.442	0.0145820
604.520	0.0144245
604.598	0.0146581
604.676	0.0146796
604.754	0.0145880
604.832	0.0145226
604.910	0.0144713
604.988	0.0144065
605.067	0.0145641
605.145	0.0145285
605.223	0.0146194
605.301	0.0145470
605.379	0.0144467
605.457	0.0145729
605.535	0.0145103
605.613	0.0145647
605.692	0.0144038
605.770	0.0145095
605.848	0.0144369
605.926	0.0145953
606.004	0.0145708
606.082	0.0145320
606.160	0.0145750
606.238	0.0145612
606.317	0.0144755
606.395	0.0146268
606.473	0.0146848
606.551	0.0146150
606.629	0.0144952
606.707	0.0145942
606.785	0.0145246
606.863	0.0145249
606.942	0.0145038
607.020	0.0146057
607.098	0.0145687
607.176	0.0145004
607.254	0.0145713
607.332	0.0145409
607.410	0.0144784
607.488	0.0146193
607.567	0.0145009
607.645	0.0144414
607.723	0.0146151
607.801	0.0144770
607.879	0.0143868
607.957	0.0146106
608.035	0.0145188
608.113	0.0145618
608.192	0.0145934
608.270	0.0143496
608.348	0.0145242
608.426	0.0145780
608.504	0.0144266
608.582	0.0144289
608.660	0.0143576
608.738	0.0145327
608.817	0.0144988
608.895	0.0144881
608.973	0.0145358
609.051	0.0145943
609.129	0.0144489
609.207	0.0142999
609.285	0.0144313
609.363	0.0145154
609.442	0.0144836
609.520	0.0145103
609.598	0.0143345
609.676	0.0145038
609.754	0.0143437
609.832	0.0145004
609.910	0.0145113
609.988	0.0143728
610.067	0.0143259
610.145	0.0144096
610.223	0.0143589
610.301	0.0145588
610.379	0.0144173
610.457	0.0144563
610.535	0.0145747
610.613	0.0144019
610.692	0.0144135
610.770	0.0144131
610.848	0.0144921
610.926	0.0145132
611.004	0.0143736
611.082	0.0144576
611.160	0.0144596
611.238	0.0143416
611.317	0.0143040
611.395	0.0143996
611.473	0.0144492
611.551	0.0145306
611.629	0.0145309
611.707	0.0144560
611.785	0.0144303
611.863	0.0143949
611.942	0.0145068
612.020	0.0145445
612.098	0.0144083
612.176	0.0145298
612.254	0.0143854
612.332	0.0143489
612.410	0.0144696
612.488	0.0144884
612.567	0.0146331
612.645	0.0145481
612.723	0.0143726
612.801	0.0145270
612.879	0.0143103
612.957	0.0146295
613.035	0.0144539
613.113	0.0144534
613.192	0.0145453
613.270	0.0145346
613.348	0.0145545
613.426	0.0144130
613.504	0.0145341
613.582	0.0144478
613.660	0.0145040
613.738	0.0145149
613.817	0.0144906
613.895	0.0144899
613.973	0.0147128
614.051	0.0144831
614.129	0.0145528
614.207	0.0146248
614.285	0.0144604
614.363	0.0144685
614.442	0.0144897
614.520	0.0144572
614.598	0.0145226
614.676	0.0145586
614.754	0.0145387
614.832	0.0144630
614.910	0.0144514
614.988	0.0146203
615.067	0.0144978
615.145	0.0145039
615.223	0.0144369
615.301	0.0145496
615.379	0.0144193
615.457	0.0143389
615.535	0.0145219
615.613	0.0144778
615.692	0.0143694
615.770	0.0143971
615.848	0.0144420
615.926	0.0144876
616.004	0.0145798
616.082	0.0145039
616.160	0.0144005
616.238	0.0144703
616.317	0.0144508
616.395	0.0142612
616.473	0.0144691
616.551	0.0143762
616.629	0.0144031
616.707	0.0144573
616.785	0.0144464
616.863	0.0142692
616.942	0.0144067
617.020	0.0143038
617.098	0.0143780
617.176	0.0143035
617.254	0.0143925
617.332	0.0143269
617.410	0.0144006
617.488	0.0143449
617.567	0.0144474
617.645	0.0143127
617.723	0.0143587
617.801	0.0143867
617.879	0.0144358
617.957	0.0144070
618.035	0.0143702
618.113	0.0144363
618.192	0.0143473
618.270	0.0142638
618.348	0.0142786
618.426	0.0143056
618.504	0.0144747
618.582	0.0144737
618.660	0.0143710
618.738	0.0143032
618.817	0.0144141
618.895	0.0144596
618.973	0.0143225
619.051	0.0143058
619.129	0.0144610
619.207	0.0144362
619.285	0.0143385
619.363	0.0144010
619.442	0.0144685
619.520	0.0144119
619.598	0.0143766
619.676	0.0142490
619.754	0.0143466
619.832	0.0143145
619.910	0.0143277
619.988	0.0143420
620.067	0.0142345
620.145	0.0142993
620.223	0.0143100
620.301	0.0143150
620.379	0.0143056
620.457	0.0143159
620.535	0.0143346
620.613	0.0142749
620.692	0.0142532
620.770	0.0142966
620.848	0.0142333
620.926	0.0142981
621.004	0.0143254
621.082	0.0142019
621.160	0.0141919
621.238	0.0141842
621.317	0.0142462
621.395	0.0142793
621.473	0.0143286
621.551	0.0142957
621.629	0.0144360
621.707	0.0143411
621.785	0.0142750
621.863	0.0144070
621.942	0.0143925
622.020	0.0143200
622.098	0.0143566
622.176	0.0143396
622.254	0.0143612
622.332	0.0142746
622.410	0.0144302
622.488	0.0145042
622.567	0.0143476
622.645	0.0143022
622.723	0.0144221
622.801	0.0143705
622.879	0.0143607
622.957	0.0143334
623.035	0.0144894
623.113	0.0144845
623.192	0.0144099
623.270	0.0144167
623.348	0.0143062
623.426	0.0144089
623.504	0.0143483
623.582	0.0143602
623.660	0.0142565
623.738	0.0143810
623.817	0.0143058
623.895	0.0141151
623.973	0.0142938
624.051	0.0142314
624.129	0.0142855
624.207	0.0142647
624.285	0.0142593
624.363	0.0142996
624.442	0.0142727
624.520	0.0143902
624.598	0.0144385
624.676	0.0144701
624.754	0.0143494
624.832	0.0142513
624.910	0.0143250
624.988	0.0145979
625.067	0.0145119
625.145	0.0144588
625.223	0.0144077
625.301	0.0144518
625.379	0.0144914
625.457	0.0144486
625.535	0.0146439
625.613	0.0144984
625.692	0.0145324
625.770	0.0144764
625.848	0.0144810
625.926	0.0145763
626.004	0.0146072
626.082	0.0146152
626.160	0.0145461
626.238	0.0145948
626.317	0.0145924
626.395	0.0144301
626.473	0.0144965
626.551	0.0144386
626.629	0.0144430
626.707	0.0147089
626.785	0.0143649
626.863	0.0143774
626.942	0.0144712
627.020	0.0142959
627.098	0.0143149
627.176	0.0142654
627.254	0.0143394
627.332	0.0144120
627.410	0.0143098
627.488	0.0143501
627.567	0.0143825
627.645	0.0143039
627.723	0.0142987
627.801	0.0144196
627.879	0.0142640
627.957	0.0143869
628.035	0.0143462
628.113	0.0144239
628.192	0.0143564
628.270	0.0144669
628.348	0.0144829
628.426	0.0143821
628.504	0.0145161
628.582	0.0144104
628.660	0.0143937
628.738	0.0145043
628.817	0.0144955
628.895	0.0144952
628.973	0.0144933
629.051	0.0144884
629.129	0.0146335
629.207	0.0146187
629.285	0.0144631
629.363	0.0144096
629.442	0.0144791
629.520	0.0144302
629.598	0.0143062
629.676	0.0144489
629.754	0.0144198
629.832	0.0143846
629.910	0.0144572
629.988	0.0144569
630.067	0.0143124
630.145	0.0145291
630.223	0.0145248
630.301	0.0144952
630.379	0.0145264
630.457	0.0145744
630.535	0.0145925
630.613	0.0147600
630.692	0.0145306
630.770	0.0146479
630.848	0.0146924
630.926	0.0147060
631.004	0.0147226
631.082	0.0146403
631.160	0.0146952
631.238	0.0147565
631.317	0.0148537
631.395	0.0148013
631.473	0.0146868
631.551	0.0147840
631.629	0.0146986
631.707	0.0146590
631.785	0.0145693
631.863	0.0144759
631.942	0.0144944
632.020	0.0145596
632.098	0.0144472
632.176	0.0142345
632.254	0.0143199
632.332	0.0142821
632.410	0.0141204
632.488	0.0141277
632.567	0.0141203
632.645	0.0139679
632.723	0.0140702
632.801	0.0140749
632.879	0.0140657
632.957	0.0140563
633.035	0.0141326
633.113	0.0141811
633.192	0.0142640
633.270	0.0144429
633.348	0.0143420
633.426	0.0145728
633.504	0.0144991
633.582	0.0146339
633.660	0.0145586
633.738	0.0145683
633.817	0.0146921
633.895	0.0146953
633.973	0.0147079
634.051	0.0146107
634.129	0.0145996
634.207	0.0147939
634.285	0.0146652
634.363	0.0146503
634.442	0.0146346
634.520	0.0147185
634.598	0.0147192
634.676	0.0147285
634.754	0.0145946
634.832	0.0146374
634.910	0.0145327
634.988	0.0145375
635.067	0.0145554
635.145	0.0146031
635.223	0.0145267
635.301	0.0147141
635.379	0.0145096
635.457	0.0145628
635.535	0.0145219
635.613	0.0146719
635.692	0.0145358
635.770	0.0145876
635.848	0.0145136
635.926	0.0146497
636.004	0.0146657
636.082	0.0147063
636.160	0.0146245
636.238	0.0144425
636.317	0.0145293
636.395	0.0145737
636.473	0.0144193
636.551	0.0144627
636.629	0.0144424
636.707	0.0144364
636.785	0.0144807
636.863	0.0144363
636.942	0.0142926
637.020	0.0143752
637.098	0.0142877
637.176	0.0142770
637.254	0.0141458
637.332	0.0141863
637.410	0.0142154
637.488	0.0142280
637.567	0.0142318
637.645	0.0142546
637.723	0.0141764
637.801	0.0142098
637.879	0.0142214
637.957	0.0143263
638.035	0.0142883
638.113	0.0143693
638.192	0.0143390
638.270	0.0144894
638.348	0.0144134
638.426	0.0143929
638.504	0.0144866
638.582	0.0144492
638.660	0.0145226
638.738	0.0145362
638.817	0.0145260
638.895	0.0145111
638.973	0.0147394
639.051	0.0146259
639.129	0.0147209
639.207	0.0146758
639.285	0.0146487
639.363	0.0147251
639.442	0.0147168
639.520	0.0146024
639.598	0.0146909
639.676	0.0146871
639.754	0.0146220
639.832	0.0146496
639.910	0.0146282
639.988	0.0144917
640.067	0.0144919
640.145	0.0144794
640.223	0.0144044
640.301	0.0144743
640.379	0.0143709
640.457	0.0143597
640.535	0.0144090
640.613	0.0142320
640.692	0.0143296
640.770	0.0144758
640.848	0.0143671
640.926	0.0143465
641.004	0.0143186
641.082	0.0143996
641.160	0.0142573
641.238	0.0143948
641.317	0.0144885
641.395	0.0144015
641.473	0.0144429
641.551	0.0144408
641.629	0.0143423
641.707	0.0143732
641.785	0.0142817
641.863	0.0144003
641.942	0.0143070
642.020	0.0142597
642.098	0.0142381
642.176	0.0142707
642.254	0.0142970
642.332	0.0144081
642.410	0.0142878
642.488	0.0142793
642.567	0.0144425
642.645	0.0144019
642.723	0.0144225
642.801	0.0144490
642.879	0.0144709
642.957	0.0144604
643.035	0.0144689
643.113	0.0144998
643.192	0.0143817
643.270	0.0143674
643.348	0.0144292
643.426	0.0144456
643.504	0.0144096
643.582	0.0143221
643.660	0.0144155
643.738	0.0143665
643.817	0.0142373
643.895	0.0143716
643.973	0.0143822
644.051	0.0144746
644.129	0.0143707
644.207	0.0144443
644.285	0.0144562
644.363	0.0144301
644.442	0.0144619
644.520	0.0143719
644.598	0.0145763
644.676	0.0145177
644.754	0.0146082
644.832	0.0147567
644.910	0.0146687
644.988	0.0147745
645.067	0.0147394
645.145	0.0145800
645.223	0.0145419
645.301	0.0147246
645.379	0.0146255
645.457	0.0145261
645.535	0.0145215
645.613	0.0145357
645.692	0.0144353
645.770	0.0145193
645.848	0.0143852
645.926	0.0142928
646.004	0.0142291
646.082	0.0142735
646.160	0.0143382
646.238	0.0142708
646.317	0.0141551
646.395	0.0142415
646.473	0.0141882
646.551	0.0143226
646.629	0.0143530
646.707	0.0142318
646.785	0.0143176
646.863	0.0141956
646.942	0.0143127
647.020	0.0144140
647.098	0.0142649
647.176	0.0143930
647.254	0.0145802
647.332	0.0146445
647.410	0.0145880
647.488	0.0144738
647.567	0.0145689
647.645	0.0145671
647.723	0.0146783
647.801	0.0147775
647.879	0.0147624
647.957	0.0146588
648.035	0.0146693
648.113	0.0147244
648.192	0.0146514
648.270	0.0147672
648.348	0.0148136
648.426	0.0147447
648.504	0.0146868
648.582	0.0147837
648.660	0.0147181
648.738	0.0148266
648.817	0.0145396
648.895	0.0144965
648.973	0.0146449
649.051	0.0145997
649.129	0.0146207
649.207	0.0146072
649.285	0.0145497
649.363	0.0145225
649.442	0.0145081
649.520	0.0145719
649.598	0.0144896
649.676	0.0143418
649.754	0.0143304
649.832	0.0142987
649.910	0.0143075
649.988	0.0143321
650.067	0.0141964
650.145	0.0141746
650.223	0.0141777
650.301	0.0142153
650.379	0.0142715
650.457	0.0142850
650.535	0.0142685
650.613	0.0140850
650.692	0.0141538
650.770	0.0141206
650.848	0.0141920
650.926	0.0141856
651.004	0.0142844
651.082	0.0143552
651.160	0.0142426
651.238	0.0142374
651.317	0.0142647
651.395	0.0144637
651.473	0.0145014
651.551	0.0144716
651.629	0.0144421
651.707	0.0144288
651.785	0.0145570
651.863	0.0146307
651.942	0.0145056
652.020	0.0145827
652.098	0.0147217
652.176	0.0146093
652.254	0.0146468
652.332	0.0146514
652.410	0.0147019
652.488	0.0146545
652.567	0.0145100
652.645	0.0145892
652.723	0.0144732
652.801	0.0143127
652.879	0.0144795
652.957	0.0145084
653.035	0.0143554
653.113	0.0144059
653.192	0.0144044
653.270	0.0144545
653.348	0.0143940
653.426	0.0143299
653.504	0.0143503
653.582	0.0143931
653.660	0.0143578
653.738	0.0143722
653.817	0.0142452
653.895	0.0142076
653.973	0.0142788
654.051	0.0141557
654.129	0.0141274
654.207	0.0142875
654.285	0.0142680
654.363	0.0141711
654.442	0.0142036
654.520	0.0141975
654.598	0.0142078
654.676	0.0141332
654.754	0.0142237
654.832	0.0144033
654.910	0.0143674
654.988	0.0141637
655.067	0.0142638
655.145	0.0143104
655.223	0.0142982
655.301	0.0143570
655.379	0.0142776
655.457	0.0141973
655.535	0.0142939
655.613	0.0143947
655.692	0.0143698
655.770	0.0143500
655.848	0.0143684
655.926	0.0143803
656.004	0.0144445
656.082	0.0144862
656.160	0.0144930
656.238	0.0146009
656.317	0.0146343
656.395	0.0145518
656.473	0.0146674
656.551	0.0147155
656.629	0.0147290
656.707	0.0148063
656.785	0.0147843
656.863	0.0146048
656.942	0.0147789
657.020	0.0148617
657.098	0.0148324
657.176	0.0149230
657.254	0.0148708
657.332	0.0148658
657.410	0.0147832
657.488	0.0145963
657.567	0.0148544
657.645	0.0147855
657.723	0.0146556
657.801	0.0148403
657.879	0.0148249
657.957	0.0147555
658.035	0.0147839
658.113	0.0146378
658.192	0.0147386
658.270	0.0148531
658.348	0.0147102
658.426	0.0147426
658.504	0.0146352
658.582	0.0146255
658.660	0.0146222
658.738	0.0146523
658.817	0.0146143
658.895	0.0146680
658.973	0.0143822
659.051	0.0145572
659.129	0.0145302
659.207	0.0143690
659.285	0.0143449
659.363	0.0143453
659.442	0.0142068
659.520	0.0142397
659.598	0.0142993
659.676	0.0142748
659.754	0.0142075
659.832	0.0142351
659.910	0.0142157
659.988	0.0141669
660.067	0.0141914
660.145	0.0140977
660.223	0.0141542
660.301	0.0141548
660.379	0.0139965
660.457	0.0140214
660.535	0.0139189
660.613	0.0140427
660.692	0.0139372
660.770	0.0139195
660.848	0.0139117
660.926	0.0139610
661.004	0.0139843
661.082	0.0139996
661.160	0.0142116
661.238	0.0142036
661.317	0.0142265
661.395	0.0141914
661.473	0.0143362
661.551	0.0142758
661.629	0.0144511
661.707	0.0145770
661.785	0.0145563
661.863	0.0144463
661.942	0.0146710
662.020	0.0146271
662.098	0.0147734
662.176	0.0146695
662.254	0.0147166
662.332	0.0148123
662.410	0.0147646
662.488	0.0147474
662.567	0.0146934
662.645	0.0148588
662.723	0.0147356
662.801	0.0147734
662.879	0.0147289
662.957	0.0147652
663.035	0.0147849
663.113	0.0148278
663.192	0.0148393
663.270	0.0147425
663.348	0.0147797
663.426	0.0148801
663.504	0.0149179
663.582	0.0147984
663.660	0.0147238
663.738	0.0146828
663.817	0.0146020
663.895	0.0146204
663.973	0.0146011
664.051	0.0145595
664.129	0.0145446
664.207	0.0142959
664.285	0.0142889
664.363	0.0142039
664.442	0.0141450
664.520	0.0140327
664.598	0.0141174
664.676	0.0141171
664.754	0.0140113
664.832	0.0140915
664.910	0.0139346
664.988	0.0137517
665.067	0.0139133
665.145	0.0139998
665.223	0.0139188
665.301	0.0139365
665.379	0.0142657
665.457	0.0141325
665.535	0.0141889
665.613	0.0143407
665.692	0.0144351
665.770	0.0145734
665.848	0.0146832
665.926	0.0146648
666.004	0.0148788
666.082	0.0150378
666.160	0.0149764
666.238	0.0150513
666.317	0.0150632
666.395	0.0150198
666.473	0.0150457
666.551	0.0151501
666.629	0.0149358
666.707	0.0150565
666.785	0.0151000
666.863	0.0148898
666.942	0.0149940
667.020	0.0148855
667.098	0.0149170
667.176	0.0148042
667.254	0.0149475
667.332	0.0147588
667.410	0.0146306
667.488	0.0147784
667.567	0.0146756
667.645	0.0147037
667.723	0.0143945
667.801	0.0145800
667.879	0.0143551
667.957	0.0142313
668.035	0.0141975
668.113	0.0141917
668.192	0.0140125
668.270	0.0140472
668.348	0.0139945
668.426	0.0140395
668.504	0.0139358
668.582	0.0138294
668.660	0.0139620
668.738	0.0139504
668.817	0.0138403
668.895	0.0139989
668.973	0.0139690
669.051	0.0140865
669.129	0.0142002
669.207	0.0143629
669.285	0.0141956
669.363	0.0143649
669.442	0.0144794
669.520	0.0145586
669.598	0.0146430
669.676	0.0145491
669.754	0.0146779
669.832	0.0148561
669.910	0.0147964
669.988	0.0147607
670.067	0.0148401
670.145	0.0149490
670.223	0.0148866
670.301	0.0148628
670.379	0.0147341
670.457	0.0146318
670.535	0.0145583
670.613	0.0144260
670.692	0.0144038
670.770	0.0143368
670.848	0.0142841
670.926	0.0141058
671.004	0.0140084
671.082	0.0140244
671.160	0.0140549
671.238	0.0141237
671.317	0.0141233
671.395	0.0140343
671.473	0.0140129
671.551	0.0141535
671.629	0.0142691
671.707	0.0143142
671.785	0.0144127
671.863	0.0144748
671.942	0.0145106
672.020	0.0147116
672.098	0.0147301
672.176	0.0146243
672.254	0.0148486
672.332	0.0148563
672.410	0.0147733
672.488	0.0146515
672.567	0.0147053
672.645	0.0148476
672.723	0.0145920
672.801	0.0146618
672.879	0.0144939
672.957	0.0145167
673.035	0.0145316
673.113	0.0143491
673.192	0.0142295
673.270	0.0141552
673.348	0.0141268
673.426	0.0139187
673.504	0.0139097
673.582	0.0139659
673.660	0.0138925
673.738	0.0139851
673.817	0.0140505
673.895	0.0139200
673.973	0.0139732
674.051	0.0140302
674.129	0.0141552
674.207	0.0139939
674.285	0.0141071
674.363	0.0140025
674.442	0.0142279
674.520	0.0140160
674.598	0.0141801
674.676	0.0142449
674.754	0.0144342
674.832	0.0143727
674.910	0.0143359
674.988	0.0146155
675.067	0.0146579
675.145	0.0146008
675.223	0.0147430
675.301	0.0147830
675.379	0.0146177
675.457	0.0148754
675.535	0.0148805
675.613	0.0148988
675.692	0.0150333
675.770	0.0150049
675.848	0.0149165
675.926	0.0149886
676.004	0.0149139
676.082	0.0148077
676.160	0.0147733
676.238	0.0149363
676.317	0.0148079
676.395	0.0147945
676.473	0.0147324
676.551	0.0146963
676.629	0.0145389
676.707	0.0145667
676.785	0.0143367
676.863	0.0144432
676.942	0.0143681
677.020	0.0141624
677.098	0.0142770
677.176	0.0142376
677.254	0.0141908
677.332	0.0141060
677.410	0.0141995
677.488	0.0142715
677.567	0.0141295
677.645	0.0141573
677.723	0.0141676
677.801	0.0141728
677.879	0.0141213
677.957	0.0141619
678.035	0.0139977
678.113	0.0141072
678.192	0.0141389
678.270	0.0139837
678.348	0.0141035
678.426	0.0142101
678.504	0.0141693
678.582	0.0141277
678.660	0.0143862
678.738	0.0143176
678.817	0.0144551
678.895	0.0145036
678.973	0.0146117
679.051	0.0146846
679.129	0.0146859
679.207	0.0148531
679.285	0.0149371
679.363	0.0148184
679.442	0.0148920
679.520	0.0148121
679.598	0.0149676
679.676	0.0148674
679.754	0.0149424
679.832	0.0149726
679.910	0.0149145
679.988	0.0148957
680.067	0.0150576
680.145	0.0152529
680.223	0.0150118
680.301	0.0149796
680.379	0.0150388
680.457	0.0152094
680.535	0.0150800
680.613	0.0150934
680.692	0.0150128
680.770	0.0149373
680.848	0.0149155
680.926	0.0149723
681.004	0.0147411
681.082	0.0148005
681.160	0.0147514
681.238	0.0146285
681.317	0.0144473
681.395	0.0143211
681.473	0.0143157
681.551	0.0142884
681.629	0.0141132
681.707	0.0140906
681.785	0.0140123
681.863	0.0140137
681.942	0.0139279
682.020	0.0136993
682.098	0.0137587
682.176	0.0137984
682.254	0.0137001
682.332	0.0137773
682.410	0.0137257
682.488	0.0137743
682.567	0.0137837
682.645	0.0139235
682.723	0.0139227
682.801	0.0139892
682.879	0.0142044
682.957	0.0143221
683.035	0.0140918
683.113	0.0142577
683.192	0.0143825
683.270	0.0147001
683.348	0.0145581
683.426	0.0145460
683.504	0.0146422
683.582	0.0149031
683.660	0.0149663
683.738	0.0150359
683.817	0.0150035
683.895	0.0150390
683.973	0.0151479
684.051	0.0150822
684.129	0.0150488
684.207	0.0152390
684.285	0.0152458
684.363	0.0152686
684.442	0.0152177
684.520	0.0150525
684.598	0.0150026
684.676	0.0150831
684.754	0.0149606
684.832	0.0145869
684.910	0.0147082
684.988	0.0144305
685.067	0.0143833
685.145	0.0142403
685.223	0.0142561
685.301	0.0141132
685.379	0.0139785
685.457	0.0139025
685.535	0.0138952
685.613	0.0137971
685.692	0.0136762
