05/28/2022	14:31:47	Ver.	4.1	UNKNOWN
Optical Delay	599.988409	Delta X		0.078125	Sweeps	1	Scan Rate	0/0
Coordinates	Axis 1	NaN	Axis 2	NaN	Axis 3	NaN	Axis 4	NaN	Axis 5	NaN	Axis 6	0.000000
TX Power	0.000000	RX Power	0.000000

599.988	0.0149377
600.067	0.0148093
600.145	0.0147965
600.223	0.0147727
600.301	0.0149388
600.379	0.0149011
600.457	0.0149181
600.535	0.0149009
600.613	0.0148936
600.692	0.0148077
600.770	0.0149349
600.848	0.0148489
600.926	0.0149402
601.004	0.0149130
601.082	0.0150211
601.160	0.0149739
601.238	0.0149652
601.317	0.0150031
601.395	0.0149512
601.473	0.0147931
601.551	0.0149569
601.629	0.0150427
601.707	0.0150406
601.785	0.0149348
601.863	0.0149671
601.942	0.0149747
602.020	0.0149309
602.098	0.0148897
602.176	0.0150726
602.254	0.0149919
602.332	0.0148690
602.410	0.0150151
602.488	0.0149751
602.567	0.0149355
602.645	0.0149357
602.723	0.0148779
602.801	0.0149623
602.879	0.0149615
602.957	0.0150353
603.035	0.0149428
603.113	0.0149588
603.192	0.0148860
603.270	0.0150530
603.348	0.0148544
603.426	0.0150156
603.504	0.0150463
603.582	0.0149610
603.660	0.0150792
603.738	0.0149807
603.817	0.0150027
603.895	0.0149791
603.973	0.0150743
604.051	0.0148898
604.129	0.0148272
604.207	0.0150301
604.285	0.0149145
604.363	0.0149792
604.442	0.0149723
604.520	0.0150091
604.598	0.0149288
604.676	0.0149069
604.754	0.0149742
604.832	0.0149572
604.910	0.0148875
604.988	0.0148882
605.067	0.0149059
605.145	0.0149848
605.223	0.0149338
605.301	0.0148320
605.379	0.0150436
605.457	0.0150747
605.535	0.0149837
605.613	0.0149909
605.692	0.0147787
605.770	0.0148838
605.848	0.0149060
605.926	0.0149290
606.004	0.0149014
606.082	0.0149552
606.160	0.0148830
606.238	0.0149067
606.317	0.0149245
606.395	0.0150253
606.473	0.0149329
606.551	0.0148553
606.629	0.0148530
606.707	0.0147755
606.785	0.0149158
606.863	0.0151302
606.942	0.0148655
607.020	0.0148542
607.098	0.0149637
607.176	0.0148820
607.254	0.0148408
607.332	0.0149335
607.410	0.0148587
607.488	0.0148490
607.567	0.0149638
607.645	0.0149358
607.723	0.0149049
607.801	0.0148453
607.879	0.0149206
607.957	0.0149339
608.035	0.0148310
608.113	0.0148367
608.192	0.0148537
608.270	0.0149401
608.348	0.0149268
608.426	0.0148291
608.504	0.0148311
608.582	0.0149147
608.660	0.0149408
608.738	0.0148271
608.817	0.0147758
608.895	0.0149400
608.973	0.0148640
609.051	0.0147607
609.129	0.0149210
609.207	0.0149594
609.285	0.0148578
609.363	0.0149120
609.442	0.0148413
609.520	0.0147584
609.598	0.0149259
609.676	0.0149448
609.754	0.0147939
609.832	0.0147675
609.910	0.0151154
609.988	0.0149442
610.067	0.0148197
610.145	0.0149066
610.223	0.0149107
610.301	0.0149052
610.379	0.0149732
610.457	0.0148994
610.535	0.0149712
610.613	0.0149132
610.692	0.0149374
610.770	0.0150483
610.848	0.0148825
610.926	0.0148572
611.004	0.0148561
611.082	0.0148619
611.160	0.0149913
611.238	0.0150887
611.317	0.0149249
611.395	0.0149223
611.473	0.0149841
611.551	0.0148991
611.629	0.0150077
611.707	0.0148120
611.785	0.0147446
611.863	0.0148532
611.942	0.0147847
612.020	0.0149075
612.098	0.0148274
612.176	0.0150063
612.254	0.0149000
612.332	0.0148808
612.410	0.0148167
612.488	0.0148661
612.567	0.0149287
612.645	0.0147289
612.723	0.0148567
612.801	0.0148441
612.879	0.0149462
612.957	0.0148879
613.035	0.0148853
613.113	0.0147848
613.192	0.0149738
613.270	0.0150219
613.348	0.0148467
613.426	0.0148286
613.504	0.0148779
613.582	0.0148794
613.660	0.0149294
613.738	0.0149242
613.817	0.0148630
613.895	0.0148155
613.973	0.0148481
614.051	0.0147545
614.129	0.0147804
614.207	0.0148804
614.285	0.0148454
614.363	0.0148958
614.442	0.0147332
614.520	0.0149003
614.598	0.0149136
614.676	0.0147352
614.754	0.0147498
614.832	0.0149064
614.910	0.0150654
614.988	0.0148132
615.067	0.0147983
615.145	0.0148053
615.223	0.0146601
615.301	0.0146797
615.379	0.0149978
615.457	0.0148605
615.535	0.0148907
615.613	0.0149172
615.692	0.0148470
615.770	0.0146964
615.848	0.0147652
615.926	0.0148648
616.004	0.0148675
616.082	0.0148405
616.160	0.0149412
616.238	0.0146652
616.317	0.0147893
616.395	0.0147462
616.473	0.0149104
616.551	0.0148606
616.629	0.0148508
616.707	0.0148328
616.785	0.0147433
616.863	0.0148143
616.942	0.0146989
617.020	0.0148201
617.098	0.0147629
617.176	0.0147499
617.254	0.0147249
617.332	0.0146205
617.410	0.0148138
617.488	0.0146849
617.567	0.0148569
617.645	0.0148486
617.723	0.0146702
617.801	0.0147297
617.879	0.0147874
617.957	0.0148482
618.035	0.0147147
618.113	0.0146199
618.192	0.0147244
618.270	0.0147425
618.348	0.0147764
618.426	0.0147369
618.504	0.0146206
618.582	0.0146866
618.660	0.0147463
618.738	0.0148320
618.817	0.0146515
618.895	0.0148717
618.973	0.0148887
619.051	0.0148470
619.129	0.0148156
619.207	0.0147442
619.285	0.0147942
619.363	0.0148309
619.442	0.0148412
619.520	0.0147082
619.598	0.0147737
619.676	0.0146992
619.754	0.0147647
619.832	0.0148488
619.910	0.0149109
619.988	0.0148123
620.067	0.0147782
620.145	0.0149442
620.223	0.0149477
620.301	0.0147684
620.379	0.0148210
620.457	0.0148074
620.535	0.0148648
620.613	0.0147665
620.692	0.0147813
620.770	0.0147773
620.848	0.0147784
620.926	0.0147478
621.004	0.0149005
621.082	0.0148466
621.160	0.0148776
621.238	0.0147803
621.317	0.0148759
621.395	0.0150570
621.473	0.0148404
621.551	0.0147829
621.629	0.0149084
621.707	0.0149861
621.785	0.0148850
621.863	0.0149495
621.942	0.0148891
622.020	0.0150058
622.098	0.0148351
622.176	0.0149126
622.254	0.0148730
622.332	0.0149165
622.410	0.0150379
622.488	0.0149656
622.567	0.0149619
622.645	0.0148766
622.723	0.0149522
622.801	0.0149323
622.879	0.0149775
622.957	0.0149417
623.035	0.0148415
623.113	0.0149241
623.192	0.0148737
623.270	0.0150022
623.348	0.0148831
623.426	0.0148767
623.504	0.0149346
623.582	0.0149204
623.660	0.0150175
623.738	0.0149236
623.817	0.0149419
623.895	0.0149561
623.973	0.0148712
624.051	0.0149281
624.129	0.0149825
624.207	0.0149003
624.285	0.0148897
624.363	0.0150288
624.442	0.0149412
624.520	0.0150431
624.598	0.0151176
624.676	0.0150194
624.754	0.0149909
624.832	0.0149989
624.910	0.0149364
624.988	0.0150861
625.067	0.0148955
625.145	0.0151208
625.223	0.0150404
625.301	0.0149187
625.379	0.0150352
625.457	0.0151083
625.535	0.0150117
625.613	0.0150301
625.692	0.0149310
625.770	0.0150293
625.848	0.0150241
625.926	0.0150938
626.004	0.0150082
626.082	0.0151067
626.160	0.0148666
626.238	0.0148533
626.317	0.0148580
626.395	0.0149625
626.473	0.0148901
626.551	0.0148605
626.629	0.0150138
626.707	0.0149052
626.785	0.0147021
626.863	0.0147806
626.942	0.0148363
627.020	0.0149208
627.098	0.0149714
627.176	0.0147572
627.254	0.0149447
627.332	0.0148280
627.410	0.0149207
627.488	0.0149747
627.567	0.0148528
627.645	0.0149072
627.723	0.0148909
627.801	0.0149550
627.879	0.0148569
627.957	0.0150131
628.035	0.0149295
628.113	0.0149722
628.192	0.0151431
628.270	0.0149826
628.348	0.0150502
628.426	0.0150778
628.504	0.0149418
628.582	0.0149606
628.660	0.0149800
628.738	0.0150234
628.817	0.0149902
628.895	0.0149181
628.973	0.0149013
629.051	0.0148393
629.129	0.0148428
629.207	0.0147580
629.285	0.0148576
629.363	0.0148772
629.442	0.0149059
629.520	0.0148383
629.598	0.0147842
629.676	0.0148814
629.754	0.0150459
629.832	0.0151094
629.910	0.0150508
629.988	0.0149899
630.067	0.0150563
630.145	0.0150783
630.223	0.0151596
630.301	0.0152344
630.379	0.0152334
630.457	0.0151853
630.535	0.0150989
630.613	0.0152320
630.692	0.0152420
630.770	0.0153073
630.848	0.0152506
630.926	0.0152200
631.004	0.0151632
631.082	0.0149947
631.160	0.0150581
631.238	0.0151212
631.317	0.0150164
631.395	0.0149088
631.473	0.0149928
631.551	0.0148520
631.629	0.0147255
631.707	0.0147193
631.785	0.0146901
631.863	0.0147218
631.942	0.0145647
632.020	0.0145178
632.098	0.0145645
632.176	0.0145861
632.254	0.0145009
632.332	0.0146101
632.410	0.0145391
632.488	0.0146538
632.567	0.0147360
632.645	0.0147456
632.723	0.0148727
632.801	0.0147708
632.879	0.0149548
632.957	0.0150451
633.035	0.0148854
633.113	0.0150552
633.192	0.0151594
633.270	0.0149325
633.348	0.0150804
633.426	0.0150592
633.504	0.0151897
633.582	0.0150615
633.660	0.0150909
633.738	0.0149886
633.817	0.0151049
633.895	0.0150803
633.973	0.0151195
634.051	0.0150582
634.129	0.0149877
634.207	0.0150530
634.285	0.0149689
634.363	0.0147508
634.442	0.0149263
634.520	0.0149206
634.598	0.0149727
634.676	0.0148158
634.754	0.0148463
634.832	0.0148714
634.910	0.0148701
634.988	0.0149731
635.067	0.0148940
635.145	0.0149915
635.223	0.0150341
635.301	0.0148740
635.379	0.0149380
635.457	0.0148767
635.535	0.0148649
635.613	0.0148857
635.692	0.0149990
635.770	0.0149944
635.848	0.0147369
635.926	0.0147223
636.004	0.0148930
636.082	0.0148262
636.160	0.0148874
636.238	0.0148953
636.317	0.0146828
636.395	0.0146963
636.473	0.0144672
636.551	0.0146832
636.629	0.0146829
636.707	0.0144300
636.785	0.0145998
636.863	0.0146037
636.942	0.0145216
637.020	0.0146906
637.098	0.0145213
637.176	0.0146193
637.254	0.0146160
637.332	0.0145287
637.410	0.0146106
637.488	0.0147192
637.567	0.0147099
637.645	0.0147401
637.723	0.0147816
637.801	0.0146899
637.879	0.0148561
637.957	0.0148418
638.035	0.0148660
638.113	0.0150288
638.192	0.0150465
638.270	0.0149712
638.348	0.0151180
638.426	0.0151471
638.504	0.0152792
638.582	0.0151462
638.660	0.0152419
638.738	0.0152447
638.817	0.0151649
638.895	0.0151183
638.973	0.0152833
639.051	0.0151836
639.129	0.0151844
639.207	0.0150957
639.285	0.0149546
639.363	0.0152103
639.442	0.0151055
639.520	0.0149983
639.598	0.0151263
639.676	0.0149919
639.754	0.0148112
639.832	0.0148266
639.910	0.0148365
639.988	0.0148682
640.067	0.0148784
640.145	0.0149293
640.223	0.0147932
640.301	0.0149818
640.379	0.0148248
640.457	0.0147474
640.535	0.0149088
640.613	0.0148880
640.692	0.0148164
640.770	0.0147816
640.848	0.0148658
640.926	0.0148575
641.004	0.0148463
641.082	0.0147611
641.160	0.0147279
641.238	0.0149689
641.317	0.0147639
641.395	0.0147694
641.473	0.0146786
641.551	0.0147013
641.629	0.0146411
641.707	0.0145674
641.785	0.0147094
641.863	0.0147324
641.942	0.0146524
642.020	0.0147501
642.098	0.0149715
642.176	0.0149989
642.254	0.0149843
642.332	0.0148543
642.410	0.0148740
642.488	0.0148837
642.567	0.0150038
642.645	0.0150044
642.723	0.0151021
642.801	0.0150695
642.879	0.0149992
642.957	0.0149064
643.035	0.0147784
643.113	0.0148849
643.192	0.0148763
643.270	0.0148694
643.348	0.0148505
643.426	0.0148948
643.504	0.0150041
643.582	0.0148543
643.660	0.0148077
643.738	0.0150256
643.817	0.0149930
643.895	0.0150405
643.973	0.0150265
644.051	0.0150755
644.129	0.0150024
644.207	0.0151623
644.285	0.0151215
644.363	0.0152538
644.442	0.0152731
644.520	0.0153929
644.598	0.0153827
644.676	0.0152086
644.754	0.0152311
644.832	0.0153062
644.910	0.0152238
644.988	0.0151795
645.067	0.0152708
645.145	0.0151682
645.223	0.0150957
645.301	0.0147976
645.379	0.0149621
645.457	0.0149266
645.535	0.0147518
645.613	0.0147121
645.692	0.0148079
645.770	0.0148447
645.848	0.0147159
645.926	0.0147295
646.004	0.0145900
646.082	0.0146133
646.160	0.0147641
646.238	0.0147804
646.317	0.0147105
646.395	0.0147471
646.473	0.0145944
646.551	0.0146609
646.629	0.0147104
646.707	0.0147262
646.785	0.0145916
646.863	0.0147473
646.942	0.0147918
647.020	0.0148594
647.098	0.0148512
647.176	0.0148370
647.254	0.0148612
647.332	0.0149324
647.410	0.0150235
647.488	0.0149570
647.567	0.0150376
647.645	0.0148901
647.723	0.0149792
647.801	0.0150044
647.879	0.0150230
647.957	0.0152155
648.035	0.0150119
648.113	0.0147959
648.192	0.0150294
648.270	0.0149667
648.348	0.0148138
648.426	0.0148898
648.504	0.0148369
648.582	0.0148170
648.660	0.0148530
648.738	0.0147749
648.817	0.0148105
648.895	0.0147858
648.973	0.0147968
649.051	0.0148286
649.129	0.0148229
649.207	0.0147411
649.285	0.0146745
649.363	0.0146851
649.442	0.0145948
649.520	0.0146065
649.598	0.0146223
649.676	0.0145805
649.754	0.0146033
649.832	0.0145725
649.910	0.0145940
649.988	0.0146407
650.067	0.0146543
650.145	0.0146631
650.223	0.0147276
650.301	0.0145546
650.379	0.0147424
650.457	0.0147766
650.535	0.0145898
650.613	0.0147357
650.692	0.0147609
650.770	0.0148795
650.848	0.0148531
650.926	0.0149131
651.004	0.0149620
651.082	0.0149391
651.160	0.0149975
651.238	0.0150779
651.317	0.0150387
651.395	0.0150751
651.473	0.0151743
651.551	0.0152921
651.629	0.0152930
651.707	0.0152055
651.785	0.0152183
651.863	0.0152167
651.942	0.0153078
652.020	0.0154256
652.098	0.0151352
652.176	0.0152612
652.254	0.0150830
652.332	0.0150658
652.410	0.0152122
652.488	0.0151865
652.567	0.0150712
652.645	0.0150711
652.723	0.0150999
652.801	0.0149510
652.879	0.0149593
652.957	0.0149002
653.035	0.0149943
653.113	0.0148666
653.192	0.0148723
653.270	0.0148784
653.348	0.0149166
653.426	0.0150487
653.504	0.0149989
653.582	0.0147813
653.660	0.0147952
653.738	0.0148406
653.817	0.0149365
653.895	0.0148270
653.973	0.0148486
654.051	0.0148307
654.129	0.0147546
654.207	0.0149440
654.285	0.0148869
654.363	0.0146868
654.442	0.0148292
654.520	0.0149214
654.598	0.0148301
654.676	0.0149477
654.754	0.0147229
654.832	0.0149374
654.910	0.0148144
654.988	0.0147830
655.067	0.0148859
655.145	0.0149872
655.223	0.0149554
655.301	0.0148735
655.379	0.0149701
655.457	0.0147292
655.535	0.0148387
655.613	0.0148855
655.692	0.0150233
655.770	0.0148814
655.848	0.0151105
655.926	0.0150985
656.004	0.0150074
656.082	0.0149403
656.160	0.0150899
656.238	0.0149798
656.317	0.0151511
656.395	0.0151492
656.473	0.0148720
656.551	0.0150851
656.629	0.0151097
656.707	0.0150425
656.785	0.0149757
656.863	0.0149397
656.942	0.0148838
657.020	0.0149586
657.098	0.0150150
657.176	0.0149245
657.254	0.0149509
657.332	0.0150465
657.410	0.0149918
657.488	0.0149236
657.567	0.0150801
657.645	0.0150259
657.723	0.0150340
657.801	0.0150352
657.879	0.0150980
657.957	0.0150243
658.035	0.0150141
658.113	0.0148792
658.192	0.0150720
658.270	0.0150168
658.348	0.0150288
658.426	0.0148692
658.504	0.0147997
658.582	0.0149485
658.660	0.0148941
658.738	0.0146386
658.817	0.0147876
658.895	0.0147936
658.973	0.0147727
659.051	0.0148605
659.129	0.0147653
659.207	0.0145433
659.285	0.0147568
659.363	0.0146330
659.442	0.0146421
659.520	0.0146632
659.598	0.0146413
659.676	0.0147814
659.754	0.0147716
659.832	0.0146474
659.910	0.0145625
659.988	0.0145063
660.067	0.0144850
660.145	0.0145760
660.223	0.0144614
660.301	0.0146413
660.379	0.0145020
660.457	0.0144836
660.535	0.0145111
660.613	0.0148540
660.692	0.0147107
660.770	0.0146760
660.848	0.0148279
660.926	0.0148013
661.004	0.0148908
661.082	0.0149561
661.160	0.0152648
661.238	0.0151411
661.317	0.0152197
661.395	0.0153138
661.473	0.0153397
661.551	0.0153209
661.629	0.0154096
661.707	0.0154308
661.785	0.0154569
661.863	0.0155947
661.942	0.0154651
662.020	0.0154771
662.098	0.0154053
662.176	0.0154174
662.254	0.0153358
662.332	0.0153754
662.410	0.0154305
662.488	0.0153306
662.567	0.0151670
662.645	0.0152924
662.723	0.0154021
662.801	0.0154890
662.879	0.0152666
662.957	0.0151475
663.035	0.0152115
663.113	0.0153739
663.192	0.0152270
663.270	0.0151229
663.348	0.0152112
663.426	0.0152591
663.504	0.0151802
663.582	0.0150397
663.660	0.0150411
663.738	0.0150147
663.817	0.0149313
663.895	0.0149306
663.973	0.0148260
664.051	0.0146615
664.129	0.0147119
664.207	0.0147485
664.285	0.0144353
664.363	0.0144636
664.442	0.0142397
664.520	0.0143135
664.598	0.0142605
664.676	0.0142525
664.754	0.0141809
664.832	0.0141937
664.910	0.0141299
664.988	0.0141571
665.067	0.0142698
665.145	0.0143420
665.223	0.0143069
665.301	0.0145248
665.379	0.0146203
665.457	0.0148150
665.535	0.0149191
665.613	0.0149136
665.692	0.0149845
665.770	0.0150088
665.848	0.0152122
665.926	0.0153068
666.004	0.0151799
666.082	0.0153970
666.160	0.0152993
666.238	0.0154480
666.317	0.0152081
666.395	0.0152558
666.473	0.0153003
666.551	0.0152670
666.629	0.0153220
666.707	0.0152135
666.785	0.0152042
666.863	0.0152027
666.942	0.0152081
667.020	0.0152637
667.098	0.0150703
667.176	0.0151854
667.254	0.0151347
667.332	0.0152461
667.410	0.0150160
667.488	0.0147773
667.567	0.0148265
667.645	0.0149127
667.723	0.0147945
667.801	0.0148199
667.879	0.0147773
667.957	0.0144124
668.035	0.0145141
668.113	0.0143756
668.192	0.0142927
668.270	0.0144327
668.348	0.0144405
668.426	0.0143882
668.504	0.0142615
668.582	0.0143130
668.660	0.0142628
668.738	0.0143699
668.817	0.0144478
668.895	0.0144503
668.973	0.0143840
669.051	0.0145828
669.129	0.0146931
669.207	0.0145798
669.285	0.0148148
669.363	0.0148503
669.442	0.0148496
669.520	0.0149700
669.598	0.0150474
669.676	0.0150494
669.754	0.0151678
669.832	0.0150595
669.910	0.0151267
669.988	0.0152437
670.067	0.0152259
670.145	0.0152023
670.223	0.0153191
670.301	0.0150449
670.379	0.0150867
670.457	0.0151526
670.535	0.0149487
670.613	0.0149197
670.692	0.0149641
670.770	0.0149096
670.848	0.0147121
670.926	0.0145435
671.004	0.0144888
671.082	0.0144944
671.160	0.0146053
671.238	0.0145378
671.317	0.0145136
671.395	0.0146896
671.473	0.0146518
671.551	0.0147141
671.629	0.0148013
671.707	0.0148036
671.785	0.0148885
671.863	0.0149591
671.942	0.0149079
672.020	0.0150318
672.098	0.0151198
672.176	0.0150967
672.254	0.0149787
672.332	0.0150678
672.410	0.0153034
672.488	0.0152074
672.567	0.0150390
672.645	0.0151037
672.723	0.0150568
672.801	0.0150082
672.879	0.0150834
672.957	0.0150354
673.035	0.0150784
673.113	0.0148478
673.192	0.0148761
673.270	0.0148247
673.348	0.0148196
673.426	0.0148568
673.504	0.0147449
673.582	0.0147356
673.660	0.0148538
673.738	0.0147517
673.817	0.0149229
673.895	0.0146363
673.973	0.0146997
674.051	0.0147209
674.129	0.0145979
674.207	0.0147155
674.285	0.0147481
674.363	0.0147638
674.442	0.0147849
674.520	0.0147555
674.598	0.0147970
674.676	0.0148439
674.754	0.0149255
674.832	0.0150604
674.910	0.0152065
674.988	0.0151013
675.067	0.0152021
675.145	0.0153899
675.223	0.0154543
675.301	0.0154735
675.379	0.0155740
675.457	0.0156013
675.535	0.0155582
675.613	0.0156311
675.692	0.0156230
675.770	0.0156084
675.848	0.0155032
675.926	0.0155119
676.004	0.0155328
676.082	0.0154330
676.160	0.0153333
676.238	0.0153368
676.317	0.0151871
676.395	0.0150452
676.473	0.0151373
676.551	0.0150835
676.629	0.0149545
676.707	0.0147992
676.785	0.0146815
676.863	0.0147961
676.942	0.0146995
677.020	0.0147246
677.098	0.0146024
677.176	0.0144580
677.254	0.0143191
677.332	0.0144088
677.410	0.0142776
677.488	0.0144674
677.567	0.0145300
677.645	0.0144466
677.723	0.0144191
677.801	0.0144102
677.879	0.0146719
677.957	0.0145679
678.035	0.0145097
678.113	0.0145552
678.192	0.0146213
678.270	0.0146567
678.348	0.0145751
678.426	0.0147712
678.504	0.0148102
678.582	0.0150323
678.660	0.0148382
678.738	0.0150421
678.817	0.0151720
678.895	0.0150737
678.973	0.0151660
679.051	0.0151057
679.129	0.0153018
679.207	0.0152965
679.285	0.0153658
679.363	0.0152884
679.442	0.0151882
679.520	0.0153745
679.598	0.0153460
679.676	0.0154991
679.754	0.0153290
679.832	0.0153871
679.910	0.0152872
679.988	0.0153338
680.067	0.0152980
680.145	0.0152579
680.223	0.0154987
680.301	0.0152867
680.379	0.0151243
680.457	0.0152000
680.535	0.0150931
680.613	0.0153175
680.692	0.0152569
680.770	0.0151344
680.848	0.0152016
680.926	0.0152069
681.004	0.0149975
681.082	0.0149604
681.160	0.0149648
681.238	0.0147608
681.317	0.0146710
681.395	0.0145611
681.473	0.0145239
681.551	0.0146036
681.629	0.0144813
681.707	0.0143442
681.785	0.0142716
681.863	0.0142706
681.942	0.0140804
682.020	0.0139803
682.098	0.0141383
682.176	0.0140627
682.254	0.0140205
682.332	0.0141235
682.410	0.0140800
682.488	0.0142885
682.567	0.0142208
682.645	0.0144395
682.723	0.0144001
682.801	0.0146253
682.879	0.0147617
682.957	0.0146468
683.035	0.0148003
683.113	0.0149516
683.192	0.0149721
683.270	0.0151405
683.348	0.0152367
683.426	0.0152148
683.504	0.0153639
683.582	0.0154552
683.660	0.0154520
683.738	0.0154829
683.817	0.0155889
683.895	0.0157223
683.973	0.0156510
684.051	0.0157617
684.129	0.0157394
684.207	0.0157483
684.285	0.0155707
684.363	0.0156991
684.442	0.0156300
684.520	0.0158588
684.598	0.0156556
684.676	0.0154433
684.754	0.0154993
684.832	0.0153990
684.910	0.0152419
684.988	0.0150766
685.067	0.0149136
685.145	0.0147965
685.223	0.0148312
685.301	0.0146320
685.379	0.0144456
685.457	0.0144069
685.535	0.0143253
685.613	0.0141321
685.692	0.0140969
