05/28/2022	14:32:57	Ver.	4.1	UNKNOWN
Optical Delay	599.988409	Delta X		0.078125	Sweeps	1	Scan Rate	0/0
Coordinates	Axis 1	NaN	Axis 2	NaN	Axis 3	NaN	Axis 4	NaN	Axis 5	NaN	Axis 6	0.000000
TX Power	0.000000	RX Power	0.000000

599.988	0.0141502
600.067	0.0141903
600.145	0.0143500
600.223	0.0141340
600.301	0.0143414
600.379	0.0143230
600.457	0.0143967
600.535	0.0142462
600.613	0.0142718
600.692	0.0142633
600.770	0.0142612
600.848	0.0141985
600.926	0.0144058
601.004	0.0143453
601.082	0.0142993
601.160	0.0142815
601.238	0.0142554
601.317	0.0142478
601.395	0.0141670
601.473	0.0143147
601.551	0.0142926
601.629	0.0143399
601.707	0.0143803
601.785	0.0142990
601.863	0.0142736
601.942	0.0143926
602.020	0.0142818
602.098	0.0141754
602.176	0.0142548
602.254	0.0142535
602.332	0.0142581
602.410	0.0141740
602.488	0.0141869
602.567	0.0142712
602.645	0.0143547
602.723	0.0142445
602.801	0.0142001
602.879	0.0142950
602.957	0.0142200
603.035	0.0142824
603.113	0.0141401
603.192	0.0143263
603.270	0.0142028
603.348	0.0142097
603.426	0.0143078
603.504	0.0142860
603.582	0.0143047
603.660	0.0142682
603.738	0.0143012
603.817	0.0142312
603.895	0.0143809
603.973	0.0142793
604.051	0.0142159
604.129	0.0142041
604.207	0.0141670
604.285	0.0142963
604.363	0.0142454
604.442	0.0143475
604.520	0.0142880
604.598	0.0142347
604.676	0.0142448
604.754	0.0143109
604.832	0.0142998
604.910	0.0142634
604.988	0.0143101
605.067	0.0143606
605.145	0.0142511
605.223	0.0141903
605.301	0.0142342
605.379	0.0142339
605.457	0.0142878
605.535	0.0142208
605.613	0.0142778
605.692	0.0141764
605.770	0.0142239
605.848	0.0142648
605.926	0.0142617
606.004	0.0140681
606.082	0.0141843
606.160	0.0142965
606.238	0.0141976
606.317	0.0142470
606.395	0.0141875
606.473	0.0141138
606.551	0.0142346
606.629	0.0142024
606.707	0.0141922
606.785	0.0141806
606.863	0.0142497
606.942	0.0141438
607.020	0.0140816
607.098	0.0142480
607.176	0.0140777
607.254	0.0141545
607.332	0.0140974
607.410	0.0141871
607.488	0.0142372
607.567	0.0142859
607.645	0.0140884
607.723	0.0142836
607.801	0.0141203
607.879	0.0140175
607.957	0.0142399
608.035	0.0141647
608.113	0.0141568
608.192	0.0142839
608.270	0.0142249
608.348	0.0143750
608.426	0.0141474
608.504	0.0142307
608.582	0.0142548
608.660	0.0141010
608.738	0.0142341
608.817	0.0142144
608.895	0.0142215
608.973	0.0142530
609.051	0.0144352
609.129	0.0141533
609.207	0.0141658
609.285	0.0143152
609.363	0.0142446
609.442	0.0142543
609.520	0.0142159
609.598	0.0142544
609.676	0.0143122
609.754	0.0143346
609.832	0.0142318
609.910	0.0142533
609.988	0.0142686
610.067	0.0142379
610.145	0.0142918
610.223	0.0142838
610.301	0.0142569
610.379	0.0143732
610.457	0.0144405
610.535	0.0142533
610.613	0.0141588
610.692	0.0142630
610.770	0.0143058
610.848	0.0141845
610.926	0.0142003
611.004	0.0143499
611.082	0.0142894
611.160	0.0143803
611.238	0.0142618
611.317	0.0143391
611.395	0.0142105
611.473	0.0142343
611.551	0.0142147
611.629	0.0142477
611.707	0.0143928
611.785	0.0143758
611.863	0.0142184
611.942	0.0143285
612.020	0.0143346
612.098	0.0142641
612.176	0.0142363
612.254	0.0143597
612.332	0.0142374
612.410	0.0142562
612.488	0.0142612
612.567	0.0141532
612.645	0.0143665
612.723	0.0140913
612.801	0.0142201
612.879	0.0142959
612.957	0.0143477
613.035	0.0141818
613.113	0.0140078
613.192	0.0140386
613.270	0.0141466
613.348	0.0141632
613.426	0.0143227
613.504	0.0141984
613.582	0.0142342
613.660	0.0142142
613.738	0.0141009
613.817	0.0142058
613.895	0.0141899
613.973	0.0142196
614.051	0.0142038
614.129	0.0142061
614.207	0.0142490
614.285	0.0142155
614.363	0.0141579
614.442	0.0140913
614.520	0.0140732
614.598	0.0141752
614.676	0.0141322
614.754	0.0142262
614.832	0.0141201
614.910	0.0141338
614.988	0.0141978
615.067	0.0141175
615.145	0.0141621
615.223	0.0141048
615.301	0.0142101
615.379	0.0141399
615.457	0.0141743
615.535	0.0141776
615.613	0.0142680
615.692	0.0141830
615.770	0.0141969
615.848	0.0143301
615.926	0.0143347
616.004	0.0142291
616.082	0.0141625
616.160	0.0143667
616.238	0.0142091
616.317	0.0142558
616.395	0.0142131
616.473	0.0143236
616.551	0.0141919
616.629	0.0141689
616.707	0.0141677
616.785	0.0143559
616.863	0.0142079
616.942	0.0141542
617.020	0.0140644
617.098	0.0141608
617.176	0.0142326
617.254	0.0140932
617.332	0.0140341
617.410	0.0141257
617.488	0.0141515
617.567	0.0141461
617.645	0.0141478
617.723	0.0141205
617.801	0.0141963
617.879	0.0140486
617.957	0.0140156
618.035	0.0141441
618.113	0.0140852
618.192	0.0141571
618.270	0.0141715
618.348	0.0142212
618.426	0.0141462
618.504	0.0140923
618.582	0.0142421
618.660	0.0142521
618.738	0.0141058
618.817	0.0141413
618.895	0.0141598
618.973	0.0140984
619.051	0.0142928
619.129	0.0141608
619.207	0.0142226
619.285	0.0142327
619.363	0.0141877
619.442	0.0143019
619.520	0.0142184
619.598	0.0142352
619.676	0.0142067
619.754	0.0141714
619.832	0.0141312
619.910	0.0142219
619.988	0.0141833
620.067	0.0141982
620.145	0.0142355
620.223	0.0140769
620.301	0.0142278
620.379	0.0142233
620.457	0.0141647
620.535	0.0142850
620.613	0.0142863
620.692	0.0141293
620.770	0.0140530
620.848	0.0141931
620.926	0.0141801
621.004	0.0142207
621.082	0.0141500
621.160	0.0140836
621.238	0.0141766
621.317	0.0142995
621.395	0.0140726
621.473	0.0140881
621.551	0.0140786
621.629	0.0141880
621.707	0.0142372
621.785	0.0141264
621.863	0.0140980
621.942	0.0142078
622.020	0.0142738
622.098	0.0141842
622.176	0.0141467
622.254	0.0142892
622.332	0.0142283
622.410	0.0143077
622.488	0.0142559
622.567	0.0142252
622.645	0.0142197
622.723	0.0142550
622.801	0.0142361
622.879	0.0142387
622.957	0.0144385
623.035	0.0143169
623.113	0.0143766
623.192	0.0142075
623.270	0.0142557
623.348	0.0142065
623.426	0.0142914
623.504	0.0141920
623.582	0.0141389
623.660	0.0142258
623.738	0.0142310
623.817	0.0142404
623.895	0.0142513
623.973	0.0140026
624.051	0.0141743
624.129	0.0142612
624.207	0.0141541
624.285	0.0140835
624.363	0.0141983
624.442	0.0141706
624.520	0.0141196
624.598	0.0141093
624.676	0.0141733
624.754	0.0142567
624.832	0.0141790
624.910	0.0140868
624.988	0.0140788
625.067	0.0141058
625.145	0.0141949
625.223	0.0141241
625.301	0.0141702
625.379	0.0139940
625.457	0.0141411
625.535	0.0142527
625.613	0.0143323
625.692	0.0143575
625.770	0.0142310
625.848	0.0143916
625.926	0.0143862
626.004	0.0145718
626.082	0.0144323
626.160	0.0145081
626.238	0.0145425
626.317	0.0146053
626.395	0.0144565
626.473	0.0145454
626.551	0.0144711
626.629	0.0144668
626.707	0.0146143
626.785	0.0144816
626.863	0.0144324
626.942	0.0144608
627.020	0.0142722
627.098	0.0143306
627.176	0.0143262
627.254	0.0142304
627.332	0.0142239
627.410	0.0143282
627.488	0.0144063
627.567	0.0141388
627.645	0.0143038
627.723	0.0144113
627.801	0.0144864
627.879	0.0145147
627.957	0.0145581
628.035	0.0144640
628.113	0.0145465
628.192	0.0145454
628.270	0.0144134
628.348	0.0146875
628.426	0.0146335
628.504	0.0145312
628.582	0.0143645
628.660	0.0145890
628.738	0.0145139
628.817	0.0144167
628.895	0.0144891
628.973	0.0144668
629.051	0.0142874
629.129	0.0141673
629.207	0.0143004
629.285	0.0140995
629.363	0.0141743
629.442	0.0140488
629.520	0.0139500
629.598	0.0139220
629.676	0.0138682
629.754	0.0137888
629.832	0.0137126
629.910	0.0137005
629.988	0.0138654
630.067	0.0137382
630.145	0.0135793
630.223	0.0136043
630.301	0.0137936
630.379	0.0137719
630.457	0.0137266
630.535	0.0138501
630.613	0.0139236
630.692	0.0140855
630.770	0.0141173
630.848	0.0141171
630.926	0.0141483
631.004	0.0141972
631.082	0.0141818
631.160	0.0142525
631.238	0.0143052
631.317	0.0144331
631.395	0.0145206
631.473	0.0143698
631.551	0.0142770
631.629	0.0143938
631.707	0.0143187
631.785	0.0142772
631.863	0.0142558
631.942	0.0142372
632.020	0.0142643
632.098	0.0142989
632.176	0.0142588
632.254	0.0143394
632.332	0.0140747
632.410	0.0141640
632.488	0.0140849
632.567	0.0141216
632.645	0.0141500
632.723	0.0141203
632.801	0.0141804
632.879	0.0140868
632.957	0.0141415
633.035	0.0141898
633.113	0.0141991
633.192	0.0142486
633.270	0.0142389
633.348	0.0143178
633.426	0.0144012
633.504	0.0142908
633.582	0.0142042
633.660	0.0142059
633.738	0.0143221
633.817	0.0143732
633.895	0.0142104
633.973	0.0143065
634.051	0.0142185
634.129	0.0142369
634.207	0.0141497
634.285	0.0143600
634.363	0.0141849
634.442	0.0140774
634.520	0.0141248
634.598	0.0142215
634.676	0.0141254
634.754	0.0140877
634.832	0.0140897
634.910	0.0141106
634.988	0.0139516
635.067	0.0141331
635.145	0.0142869
635.223	0.0141322
635.301	0.0141966
635.379	0.0142393
635.457	0.0142704
635.535	0.0141675
635.613	0.0143727
635.692	0.0144593
635.770	0.0143842
635.848	0.0145112
635.926	0.0144908
636.004	0.0146005
636.082	0.0146523
636.160	0.0145982
636.238	0.0146411
636.317	0.0145860
636.395	0.0146428
636.473	0.0146275
636.551	0.0146885
636.629	0.0145928
636.707	0.0146410
636.785	0.0146946
636.863	0.0146719
636.942	0.0146610
637.020	0.0146253
637.098	0.0146298
637.176	0.0146318
637.254	0.0144901
637.332	0.0145316
637.410	0.0144829
637.488	0.0145053
637.567	0.0144209
637.645	0.0142632
637.723	0.0143517
637.801	0.0143005
637.879	0.0142201
637.957	0.0143176
638.035	0.0142698
638.113	0.0142694
638.192	0.0141695
638.270	0.0141629
638.348	0.0141016
638.426	0.0140318
638.504	0.0142352
638.582	0.0142426
638.660	0.0142382
638.738	0.0142316
638.817	0.0140450
638.895	0.0140781
638.973	0.0142071
639.051	0.0141576
639.129	0.0140812
639.207	0.0141077
639.285	0.0141588
639.363	0.0140049
639.442	0.0141087
639.520	0.0141737
639.598	0.0142207
639.676	0.0139661
639.754	0.0142081
639.832	0.0140988
639.910	0.0142107
639.988	0.0141814
640.067	0.0141373
640.145	0.0142287
640.223	0.0143325
640.301	0.0142634
640.379	0.0142267
640.457	0.0142966
640.535	0.0143662
640.613	0.0143622
640.692	0.0141566
640.770	0.0142310
640.848	0.0141589
640.926	0.0143174
641.004	0.0145047
641.082	0.0144300
641.160	0.0143104
641.238	0.0143677
641.317	0.0143341
641.395	0.0142078
641.473	0.0142644
641.551	0.0143195
641.629	0.0143647
641.707	0.0142710
641.785	0.0142200
641.863	0.0141489
641.942	0.0142860
642.020	0.0142254
642.098	0.0142812
642.176	0.0143713
642.254	0.0144152
642.332	0.0142711
642.410	0.0142976
642.488	0.0145069
642.567	0.0143741
642.645	0.0143533
642.723	0.0144206
642.801	0.0143948
642.879	0.0143723
642.957	0.0144516
643.035	0.0144594
643.113	0.0144502
643.192	0.0143723
643.270	0.0143190
643.348	0.0144937
643.426	0.0144189
643.504	0.0143931
643.582	0.0142962
643.660	0.0141351
643.738	0.0141840
643.817	0.0143336
643.895	0.0141930
643.973	0.0141049
644.051	0.0141823
644.129	0.0142239
644.207	0.0141081
644.285	0.0142553
644.363	0.0142627
644.442	0.0141570
644.520	0.0142545
644.598	0.0141856
644.676	0.0142097
644.754	0.0142832
644.832	0.0142242
644.910	0.0142652
644.988	0.0142905
645.067	0.0142435
645.145	0.0143145
645.223	0.0143127
645.301	0.0142608
645.379	0.0141912
645.457	0.0142832
645.535	0.0143217
645.613	0.0143826
645.692	0.0144933
645.770	0.0143712
645.848	0.0144681
645.926	0.0146154
646.004	0.0145248
646.082	0.0144794
646.160	0.0146369
646.238	0.0146355
646.317	0.0146949
646.395	0.0146187
646.473	0.0146336
646.551	0.0144345
646.629	0.0146687
646.707	0.0143839
646.785	0.0143722
646.863	0.0141926
646.942	0.0142561
647.020	0.0141881
647.098	0.0140649
647.176	0.0140817
647.254	0.0139917
647.332	0.0140289
647.410	0.0139728
647.488	0.0139729
647.567	0.0139869
647.645	0.0141087
647.723	0.0139794
647.801	0.0140230
647.879	0.0140253
647.957	0.0140393
648.035	0.0140462
648.113	0.0139031
648.192	0.0140883
648.270	0.0140971
648.348	0.0142328
648.426	0.0141993
648.504	0.0140703
648.582	0.0140878
648.660	0.0140010
648.738	0.0139972
648.817	0.0140907
648.895	0.0140884
648.973	0.0140369
649.051	0.0141477
649.129	0.0140269
649.207	0.0141503
649.285	0.0143492
649.363	0.0141891
649.442	0.0142824
649.520	0.0142929
649.598	0.0143317
649.676	0.0143185
649.754	0.0142716
649.832	0.0143178
649.910	0.0143539
649.988	0.0142696
650.067	0.0144141
650.145	0.0143966
650.223	0.0142728
650.301	0.0142990
650.379	0.0142961
650.457	0.0142218
650.535	0.0142852
650.613	0.0142550
650.692	0.0142996
650.770	0.0142757
650.848	0.0142578
650.926	0.0141505
651.004	0.0141920
651.082	0.0141106
651.160	0.0140677
651.238	0.0142409
651.317	0.0141270
651.395	0.0140470
651.473	0.0140007
651.551	0.0139982
651.629	0.0139435
651.707	0.0141160
651.785	0.0139671
651.863	0.0139777
651.942	0.0138912
652.020	0.0139980
652.098	0.0139079
652.176	0.0138955
652.254	0.0138744
652.332	0.0138161
652.410	0.0137391
652.488	0.0137507
652.567	0.0137302
652.645	0.0135345
652.723	0.0135674
652.801	0.0137611
652.879	0.0136361
652.957	0.0136156
653.035	0.0138329
653.113	0.0137138
653.192	0.0138519
653.270	0.0138470
653.348	0.0139552
653.426	0.0139256
653.504	0.0140572
653.582	0.0140848
653.660	0.0141312
653.738	0.0143362
653.817	0.0143200
653.895	0.0143670
653.973	0.0145312
654.051	0.0145071
654.129	0.0144533
654.207	0.0145321
654.285	0.0145830
654.363	0.0144566
654.442	0.0145396
654.520	0.0144374
654.598	0.0144072
654.676	0.0144482
654.754	0.0143788
654.832	0.0143382
654.910	0.0143950
654.988	0.0143297
655.067	0.0141829
655.145	0.0143164
655.223	0.0141933
655.301	0.0141667
655.379	0.0141566
655.457	0.0140930
655.535	0.0141308
655.613	0.0143307
655.692	0.0141627
655.770	0.0141105
655.848	0.0142464
655.926	0.0142825
656.004	0.0142195
656.082	0.0143879
656.160	0.0143252
656.238	0.0144138
656.317	0.0143291
656.395	0.0143868
656.473	0.0144304
656.551	0.0145679
656.629	0.0144318
656.707	0.0144433
656.785	0.0143697
656.863	0.0145973
656.942	0.0144756
657.020	0.0144013
657.098	0.0144614
657.176	0.0143990
657.254	0.0143063
657.332	0.0144928
657.410	0.0143126
657.488	0.0144177
657.567	0.0143104
657.645	0.0142326
657.723	0.0143857
657.801	0.0143633
657.879	0.0142866
657.957	0.0142308
658.035	0.0142761
658.113	0.0143522
658.192	0.0141992
658.270	0.0144203
658.348	0.0143742
658.426	0.0142249
658.504	0.0143314
658.582	0.0141920
658.660	0.0142764
658.738	0.0143222
658.817	0.0141785
658.895	0.0142583
658.973	0.0142049
659.051	0.0142554
659.129	0.0142360
659.207	0.0142418
659.285	0.0141560
659.363	0.0141547
659.442	0.0143092
659.520	0.0142534
659.598	0.0143439
659.676	0.0144051
659.754	0.0144565
659.832	0.0146631
659.910	0.0145136
659.988	0.0145552
660.067	0.0144641
660.145	0.0145782
660.223	0.0145783
660.301	0.0145998
660.379	0.0147184
660.457	0.0146677
660.535	0.0147340
660.613	0.0146852
660.692	0.0146622
660.770	0.0145943
660.848	0.0145229
660.926	0.0146532
661.004	0.0147196
661.082	0.0145640
661.160	0.0144904
661.238	0.0144420
661.317	0.0144925
661.395	0.0143591
661.473	0.0144245
661.551	0.0144167
661.629	0.0142981
661.707	0.0143109
661.785	0.0143609
661.863	0.0143091
661.942	0.0142058
662.020	0.0142084
662.098	0.0142428
662.176	0.0140160
662.254	0.0139662
662.332	0.0141151
662.410	0.0142476
662.488	0.0140038
662.567	0.0138433
662.645	0.0138611
662.723	0.0138177
662.801	0.0138873
662.879	0.0137720
662.957	0.0138406
663.035	0.0138868
663.113	0.0137619
663.192	0.0137493
663.270	0.0137329
663.348	0.0138008
663.426	0.0137736
663.504	0.0138329
663.582	0.0138638
663.660	0.0139034
663.738	0.0139351
663.817	0.0139913
663.895	0.0138689
663.973	0.0139334
664.051	0.0140968
664.129	0.0142030
664.207	0.0141236
664.285	0.0142377
664.363	0.0142710
664.442	0.0142251
664.520	0.0142700
664.598	0.0143284
664.676	0.0143499
664.754	0.0144181
664.832	0.0145377
664.910	0.0146349
664.988	0.0146536
665.067	0.0146904
665.145	0.0147446
665.223	0.0147417
665.301	0.0148675
665.379	0.0149696
665.457	0.0148865
665.535	0.0149284
665.613	0.0147606
665.692	0.0147803
665.770	0.0148296
665.848	0.0148979
665.926	0.0148295
666.004	0.0146735
666.082	0.0146478
666.160	0.0147375
666.238	0.0144606
666.317	0.0143919
666.395	0.0145318
666.473	0.0145010
666.551	0.0144064
666.629	0.0144263
666.707	0.0143448
666.785	0.0141972
666.863	0.0142397
666.942	0.0143156
667.020	0.0141537
667.098	0.0142215
667.176	0.0143558
667.254	0.0142242
667.332	0.0142111
667.410	0.0142451
667.488	0.0142691
667.567	0.0141991
667.645	0.0142330
667.723	0.0142923
667.801	0.0142481
667.879	0.0143281
667.957	0.0144052
668.035	0.0143490
668.113	0.0143163
668.192	0.0141769
668.270	0.0141838
668.348	0.0141724
668.426	0.0142970
668.504	0.0143100
668.582	0.0142769
668.660	0.0141965
668.738	0.0141383
668.817	0.0141763
668.895	0.0143176
668.973	0.0144036
669.051	0.0143507
669.129	0.0143004
669.207	0.0143824
669.285	0.0144454
669.363	0.0143147
669.442	0.0145135
669.520	0.0145972
669.598	0.0145557
669.676	0.0146470
669.754	0.0146687
669.832	0.0146726
669.910	0.0147212
669.988	0.0146861
670.067	0.0147015
670.145	0.0145434
670.223	0.0146831
670.301	0.0146075
670.379	0.0145800
670.457	0.0145506
670.535	0.0144451
670.613	0.0144056
670.692	0.0144257
670.770	0.0142493
670.848	0.0141511
670.926	0.0141212
671.004	0.0140987
671.082	0.0140384
671.160	0.0139205
671.238	0.0138052
671.317	0.0138397
671.395	0.0139120
671.473	0.0138275
671.551	0.0139212
671.629	0.0138371
671.707	0.0138408
671.785	0.0139120
671.863	0.0139197
671.942	0.0139796
672.020	0.0138624
672.098	0.0139876
672.176	0.0142590
672.254	0.0141611
672.332	0.0139460
672.410	0.0140998
672.488	0.0142364
672.567	0.0140440
672.645	0.0140324
672.723	0.0139062
672.801	0.0140106
672.879	0.0139857
672.957	0.0140186
673.035	0.0139455
673.113	0.0139242
673.192	0.0139729
673.270	0.0138456
673.348	0.0139460
673.426	0.0139692
673.504	0.0139870
673.582	0.0139713
673.660	0.0139812
673.738	0.0139651
673.817	0.0139569
673.895	0.0139106
673.973	0.0141328
674.051	0.0139526
674.129	0.0138010
674.207	0.0140804
674.285	0.0141673
674.363	0.0140775
674.442	0.0139703
674.520	0.0140418
674.598	0.0141792
674.676	0.0141425
674.754	0.0141629
674.832	0.0141699
674.910	0.0142301
674.988	0.0143260
675.067	0.0142448
675.145	0.0142352
675.223	0.0142721
675.301	0.0142928
675.379	0.0145142
675.457	0.0144448
675.535	0.0144638
675.613	0.0142894
675.692	0.0144385
675.770	0.0142300
675.848	0.0143454
675.926	0.0143391
676.004	0.0142403
676.082	0.0142123
676.160	0.0140397
676.238	0.0141096
676.317	0.0140080
676.395	0.0140160
676.473	0.0136974
676.551	0.0137849
676.629	0.0137058
676.707	0.0135970
676.785	0.0135072
676.863	0.0136952
676.942	0.0137060
677.020	0.0135494
677.098	0.0136534
677.176	0.0137000
677.254	0.0136809
677.332	0.0137053
677.410	0.0138931
677.488	0.0136790
677.567	0.0137954
677.645	0.0139173
677.723	0.0139866
677.801	0.0139592
677.879	0.0140771
677.957	0.0142355
678.035	0.0142732
678.113	0.0142963
678.192	0.0143961
678.270	0.0144113
678.348	0.0144978
678.426	0.0145717
678.504	0.0145922
678.582	0.0147065
678.660	0.0146597
678.738	0.0146523
678.817	0.0147236
678.895	0.0147092
678.973	0.0147999
679.051	0.0147833
679.129	0.0148857
679.207	0.0148133
679.285	0.0148217
679.363	0.0146994
679.442	0.0146740
679.520	0.0147900
679.598	0.0145699
679.676	0.0146348
679.754	0.0144382
679.832	0.0144931
679.910	0.0144130
679.988	0.0143990
680.067	0.0143136
680.145	0.0142040
680.223	0.0141952
680.301	0.0141059
680.379	0.0142075
680.457	0.0142722
680.535	0.0141058
680.613	0.0141092
680.692	0.0141302
680.770	0.0141602
680.848	0.0140793
680.926	0.0141017
681.004	0.0140704
681.082	0.0140283
681.160	0.0139738
681.238	0.0141035
681.317	0.0139822
681.395	0.0139517
681.473	0.0139452
681.551	0.0140305
681.629	0.0140658
681.707	0.0140749
681.785	0.0139703
681.863	0.0139617
681.942	0.0138869
682.020	0.0138552
682.098	0.0138835
682.176	0.0140151
682.254	0.0139722
682.332	0.0139886
682.410	0.0139164
682.488	0.0140604
682.567	0.0141203
682.645	0.0139924
682.723	0.0142138
682.801	0.0142046
682.879	0.0142533
682.957	0.0144064
683.035	0.0143916
683.113	0.0144808
683.192	0.0146956
683.270	0.0147335
683.348	0.0148035
683.426	0.0148374
683.504	0.0148958
683.582	0.0149528
683.660	0.0150942
683.738	0.0149868
683.817	0.0150353
683.895	0.0151548
683.973	0.0151141
684.051	0.0150182
684.129	0.0149973
684.207	0.0149937
684.285	0.0151107
684.363	0.0148079
684.442	0.0146606
684.520	0.0147987
684.598	0.0146837
684.676	0.0144493
684.754	0.0144608
684.832	0.0145219
684.910	0.0141833
684.988	0.0140736
685.067	0.0141149
685.145	0.0138870
685.223	0.0139236
685.301	0.0137020
685.379	0.0135961
685.457	0.0136642
685.535	0.0138127
685.613	0.0136214
685.692	0.0137046
