05/28/2022	14:33:12	Ver.	4.1	UNKNOWN
Optical Delay	599.988409	Delta X		0.078125	Sweeps	1	Scan Rate	0/0
Coordinates	Axis 1	NaN	Axis 2	NaN	Axis 3	NaN	Axis 4	NaN	Axis 5	NaN	Axis 6	0.000000
TX Power	0.000000	RX Power	0.000000

599.988	0.0145776
600.067	0.0146032
600.145	0.0145731
600.223	0.0146384
600.301	0.0145775
600.379	0.0146979
600.457	0.0146556
600.535	0.0145788
600.613	0.0144044
600.692	0.0146813
600.770	0.0145727
600.848	0.0144965
600.926	0.0146362
601.004	0.0146478
601.082	0.0146987
601.160	0.0145727
601.238	0.0145461
601.317	0.0145290
601.395	0.0146052
601.473	0.0146246
601.551	0.0145201
601.629	0.0146291
601.707	0.0144411
601.785	0.0145294
601.863	0.0145957
601.942	0.0146008
602.020	0.0147066
602.098	0.0144677
602.176	0.0145783
602.254	0.0145460
602.332	0.0145164
602.410	0.0144608
602.488	0.0144644
602.567	0.0145040
602.645	0.0144930
602.723	0.0146014
602.801	0.0145074
602.879	0.0144938
602.957	0.0144624
603.035	0.0144444
603.113	0.0143661
603.192	0.0145802
603.270	0.0145475
603.348	0.0145089
603.426	0.0145741
603.504	0.0145042
603.582	0.0144648
603.660	0.0144628
603.738	0.0145071
603.817	0.0145695
603.895	0.0143807
603.973	0.0145150
604.051	0.0143143
604.129	0.0144968
604.207	0.0145139
604.285	0.0143556
604.363	0.0144992
604.442	0.0144776
604.520	0.0145611
604.598	0.0144415
604.676	0.0144302
604.754	0.0144083
604.832	0.0145547
604.910	0.0144861
604.988	0.0144189
605.067	0.0143866
605.145	0.0144787
605.223	0.0145052
605.301	0.0145602
605.379	0.0146273
605.457	0.0144559
605.535	0.0144043
605.613	0.0144286
605.692	0.0145850
605.770	0.0144986
605.848	0.0143928
605.926	0.0144404
606.004	0.0144794
606.082	0.0145317
606.160	0.0144519
606.238	0.0144370
606.317	0.0144959
606.395	0.0145618
606.473	0.0145403
606.551	0.0145709
606.629	0.0144165
606.707	0.0145067
606.785	0.0145184
606.863	0.0145266
606.942	0.0144675
607.020	0.0143796
607.098	0.0145833
607.176	0.0145110
607.254	0.0145954
607.332	0.0144877
607.410	0.0145759
607.488	0.0146127
607.567	0.0145755
607.645	0.0144981
607.723	0.0146461
607.801	0.0145404
607.879	0.0145378
607.957	0.0145587
608.035	0.0145309
608.113	0.0143758
608.192	0.0146606
608.270	0.0145309
608.348	0.0146504
608.426	0.0144516
608.504	0.0145756
608.582	0.0145918
608.660	0.0146172
608.738	0.0145353
608.817	0.0145391
608.895	0.0144628
608.973	0.0143948
609.051	0.0144954
609.129	0.0146074
609.207	0.0144543
609.285	0.0146014
609.363	0.0143687
609.442	0.0143810
609.520	0.0145269
609.598	0.0145998
609.676	0.0144565
609.754	0.0144959
609.832	0.0144100
609.910	0.0143511
609.988	0.0145653
610.067	0.0143760
610.145	0.0144744
610.223	0.0145204
610.301	0.0145746
610.379	0.0145235
610.457	0.0143182
610.535	0.0145016
610.613	0.0145125
610.692	0.0143832
610.770	0.0144323
610.848	0.0144800
610.926	0.0144041
611.004	0.0144609
611.082	0.0146389
611.160	0.0145046
611.238	0.0145606
611.317	0.0145364
611.395	0.0145419
611.473	0.0145928
611.551	0.0144842
611.629	0.0145314
611.707	0.0142828
611.785	0.0142953
611.863	0.0143723
611.942	0.0143179
612.020	0.0142711
612.098	0.0144781
612.176	0.0145121
612.254	0.0143984
612.332	0.0143126
612.410	0.0145267
612.488	0.0145737
612.567	0.0145052
612.645	0.0144603
612.723	0.0144368
612.801	0.0144394
612.879	0.0144382
612.957	0.0145250
613.035	0.0145837
613.113	0.0145736
613.192	0.0145920
613.270	0.0144649
613.348	0.0145545
613.426	0.0145695
613.504	0.0143888
613.582	0.0145802
613.660	0.0145033
613.738	0.0145139
613.817	0.0144386
613.895	0.0144387
613.973	0.0144096
614.051	0.0144449
614.129	0.0144318
614.207	0.0143997
614.285	0.0144638
614.363	0.0145667
614.442	0.0144232
614.520	0.0143890
614.598	0.0144540
614.676	0.0144492
614.754	0.0144209
614.832	0.0144518
614.910	0.0146072
614.988	0.0145628
615.067	0.0144275
615.145	0.0143707
615.223	0.0143551
615.301	0.0144839
615.379	0.0143907
615.457	0.0144269
615.535	0.0143895
615.613	0.0145490
615.692	0.0144199
615.770	0.0144350
615.848	0.0145040
615.926	0.0144500
616.004	0.0144701
616.082	0.0144144
616.160	0.0146719
616.238	0.0145264
616.317	0.0143975
616.395	0.0144448
616.473	0.0145683
616.551	0.0144812
616.629	0.0144454
616.707	0.0144548
616.785	0.0145028
616.863	0.0145949
616.942	0.0144118
617.020	0.0145893
617.098	0.0144706
617.176	0.0144559
617.254	0.0145993
617.332	0.0144936
617.410	0.0144349
617.488	0.0144617
617.567	0.0144652
617.645	0.0144436
617.723	0.0144923
617.801	0.0143250
617.879	0.0145337
617.957	0.0145670
618.035	0.0143835
618.113	0.0143716
618.192	0.0144769
618.270	0.0144864
618.348	0.0142659
618.426	0.0145370
618.504	0.0145216
618.582	0.0145687
618.660	0.0145891
618.738	0.0145409
618.817	0.0145847
618.895	0.0143693
618.973	0.0144116
619.051	0.0145109
619.129	0.0143719
619.207	0.0145006
619.285	0.0143665
619.363	0.0143896
619.442	0.0144077
619.520	0.0144795
619.598	0.0143449
619.676	0.0144541
619.754	0.0144601
619.832	0.0145400
619.910	0.0145046
619.988	0.0145850
620.067	0.0144028
620.145	0.0143347
620.223	0.0143732
620.301	0.0144196
620.379	0.0145289
620.457	0.0143728
620.535	0.0144743
620.613	0.0144496
620.692	0.0143922
620.770	0.0145937
620.848	0.0145070
620.926	0.0145092
621.004	0.0144971
621.082	0.0145411
621.160	0.0144116
621.238	0.0146529
621.317	0.0145305
621.395	0.0145895
621.473	0.0146800
621.551	0.0146561
621.629	0.0146273
621.707	0.0146853
621.785	0.0143800
621.863	0.0146514
621.942	0.0147960
622.020	0.0146097
622.098	0.0145649
622.176	0.0147959
622.254	0.0146426
622.332	0.0145892
622.410	0.0146946
622.488	0.0146539
622.567	0.0146877
622.645	0.0147601
622.723	0.0146275
622.801	0.0145657
622.879	0.0146957
622.957	0.0146443
623.035	0.0147484
623.113	0.0146961
623.192	0.0145945
623.270	0.0146304
623.348	0.0145595
623.426	0.0144846
623.504	0.0144720
623.582	0.0146063
623.660	0.0145588
623.738	0.0145277
623.817	0.0145229
623.895	0.0144878
623.973	0.0145169
624.051	0.0145317
624.129	0.0144434
624.207	0.0143808
624.285	0.0143121
624.363	0.0144971
624.442	0.0145938
624.520	0.0144547
624.598	0.0143825
624.676	0.0144662
624.754	0.0146448
624.832	0.0145693
624.910	0.0145359
624.988	0.0145776
625.067	0.0145771
625.145	0.0146401
625.223	0.0145728
625.301	0.0145457
625.379	0.0145703
625.457	0.0147377
625.535	0.0146286
625.613	0.0145329
625.692	0.0144961
625.770	0.0145103
625.848	0.0144907
625.926	0.0143777
626.004	0.0143868
626.082	0.0145218
626.160	0.0143999
626.238	0.0142877
626.317	0.0141901
626.395	0.0142574
626.473	0.0144220
626.551	0.0141960
626.629	0.0143436
626.707	0.0142474
626.785	0.0143008
626.863	0.0143714
626.942	0.0142986
627.020	0.0142889
627.098	0.0143448
627.176	0.0144924
627.254	0.0142635
627.332	0.0144460
627.410	0.0145666
627.488	0.0146076
627.567	0.0146223
627.645	0.0145869
627.723	0.0145104
627.801	0.0146223
627.879	0.0145210
627.957	0.0144207
628.035	0.0145174
628.113	0.0144577
628.192	0.0144192
628.270	0.0144532
628.348	0.0142749
628.426	0.0143768
628.504	0.0143364
628.582	0.0142860
628.660	0.0143240
628.738	0.0141764
628.817	0.0141382
628.895	0.0141979
628.973	0.0141431
629.051	0.0141428
629.129	0.0140887
629.207	0.0140123
629.285	0.0141201
629.363	0.0140124
629.442	0.0139505
629.520	0.0141289
629.598	0.0142178
629.676	0.0142541
629.754	0.0141935
629.832	0.0144464
629.910	0.0145215
629.988	0.0145382
630.067	0.0145475
630.145	0.0146919
630.223	0.0148891
630.301	0.0148184
630.379	0.0147578
630.457	0.0149422
630.535	0.0148293
630.613	0.0148697
630.692	0.0148917
630.770	0.0149625
630.848	0.0148994
630.926	0.0148151
631.004	0.0147208
631.082	0.0148188
631.160	0.0147586
631.238	0.0146365
631.317	0.0147549
631.395	0.0148052
631.473	0.0146352
631.551	0.0147291
631.629	0.0146464
631.707	0.0146339
631.785	0.0147612
631.863	0.0145303
631.942	0.0144768
632.020	0.0145567
632.098	0.0146307
632.176	0.0144913
632.254	0.0145309
632.332	0.0144233
632.410	0.0144420
632.488	0.0145562
632.567	0.0147283
632.645	0.0147007
632.723	0.0146533
632.801	0.0145438
632.879	0.0146251
632.957	0.0146397
633.035	0.0144630
633.113	0.0147366
633.192	0.0146617
633.270	0.0145722
633.348	0.0145277
633.426	0.0144431
633.504	0.0145383
633.582	0.0144908
633.660	0.0143494
633.738	0.0143572
633.817	0.0144315
633.895	0.0144556
633.973	0.0143981
634.051	0.0143111
634.129	0.0143112
634.207	0.0142797
634.285	0.0143990
634.363	0.0144193
634.442	0.0143474
634.520	0.0144854
634.598	0.0145254
634.676	0.0143903
634.754	0.0144547
634.832	0.0144473
634.910	0.0146702
634.988	0.0146054
635.067	0.0145027
635.145	0.0146272
635.223	0.0146878
635.301	0.0147668
635.379	0.0147240
635.457	0.0147411
635.535	0.0147643
635.613	0.0148265
635.692	0.0147884
635.770	0.0147256
635.848	0.0147514
635.926	0.0146991
636.004	0.0147237
636.082	0.0148349
636.160	0.0147583
636.238	0.0147330
636.317	0.0146610
636.395	0.0146964
636.473	0.0147272
636.551	0.0145867
636.629	0.0145082
636.707	0.0145611
636.785	0.0145016
636.863	0.0145444
636.942	0.0145194
637.020	0.0144048
637.098	0.0144276
637.176	0.0143372
637.254	0.0144363
637.332	0.0144399
637.410	0.0142790
637.488	0.0145267
637.567	0.0144381
637.645	0.0143938
637.723	0.0143981
637.801	0.0144696
637.879	0.0143803
637.957	0.0143163
638.035	0.0143029
638.113	0.0142853
638.192	0.0144359
638.270	0.0144764
638.348	0.0144347
638.426	0.0145164
638.504	0.0144606
638.582	0.0144334
638.660	0.0143244
638.738	0.0144285
638.817	0.0145847
638.895	0.0144162
638.973	0.0145724
639.051	0.0145388
639.129	0.0146433
639.207	0.0145728
639.285	0.0145319
639.363	0.0146270
639.442	0.0146500
639.520	0.0147527
639.598	0.0147353
639.676	0.0146711
639.754	0.0145728
639.832	0.0146687
639.910	0.0147623
639.988	0.0147624
640.067	0.0146401
640.145	0.0147149
640.223	0.0146799
640.301	0.0145993
640.379	0.0145838
640.457	0.0145950
640.535	0.0146482
640.613	0.0146935
640.692	0.0146304
640.770	0.0146048
640.848	0.0147018
640.926	0.0145388
641.004	0.0147749
641.082	0.0146857
641.160	0.0145731
641.238	0.0145258
641.317	0.0146301
641.395	0.0146307
641.473	0.0146155
641.551	0.0146101
641.629	0.0146003
641.707	0.0145760
641.785	0.0147767
641.863	0.0145326
641.942	0.0146043
642.020	0.0145620
642.098	0.0143629
642.176	0.0144401
642.254	0.0146521
642.332	0.0146751
642.410	0.0146042
642.488	0.0146664
642.567	0.0144608
642.645	0.0144201
642.723	0.0146677
642.801	0.0145057
642.879	0.0143971
642.957	0.0146333
643.035	0.0144565
643.113	0.0142897
643.192	0.0144260
643.270	0.0143096
643.348	0.0144203
643.426	0.0142875
643.504	0.0143681
643.582	0.0143951
643.660	0.0144401
643.738	0.0144672
643.817	0.0144478
643.895	0.0143782
643.973	0.0143941
644.051	0.0145078
644.129	0.0144646
644.207	0.0144662
644.285	0.0143876
644.363	0.0143569
644.442	0.0144851
644.520	0.0144062
644.598	0.0144054
644.676	0.0144032
644.754	0.0143331
644.832	0.0144113
644.910	0.0145982
644.988	0.0145430
645.067	0.0145827
645.145	0.0144086
645.223	0.0144433
645.301	0.0146332
645.379	0.0147159
645.457	0.0145518
645.535	0.0146478
645.613	0.0147388
645.692	0.0146510
645.770	0.0144955
645.848	0.0145847
645.926	0.0146466
646.004	0.0145605
646.082	0.0144808
646.160	0.0144296
646.238	0.0143996
646.317	0.0143504
646.395	0.0141171
646.473	0.0141120
646.551	0.0142239
646.629	0.0141545
646.707	0.0141505
646.785	0.0142551
646.863	0.0140890
646.942	0.0140787
647.020	0.0140546
647.098	0.0141313
647.176	0.0140192
647.254	0.0142133
647.332	0.0142375
647.410	0.0142458
647.488	0.0143250
647.567	0.0142954
647.645	0.0142969
647.723	0.0144418
647.801	0.0141884
647.879	0.0143155
647.957	0.0143642
648.035	0.0143124
648.113	0.0143826
648.192	0.0143090
648.270	0.0143745
648.348	0.0143888
648.426	0.0143328
648.504	0.0143648
648.582	0.0144345
648.660	0.0146594
648.738	0.0145466
648.817	0.0146104
648.895	0.0145020
648.973	0.0145425
649.051	0.0145250
649.129	0.0144735
649.207	0.0145658
649.285	0.0147401
649.363	0.0147373
649.442	0.0145258
649.520	0.0145184
649.598	0.0146488
649.676	0.0146448
649.754	0.0144196
649.832	0.0144170
649.910	0.0145330
649.988	0.0145567
650.067	0.0144936
650.145	0.0146428
650.223	0.0146052
650.301	0.0146568
650.379	0.0145665
650.457	0.0145259
650.535	0.0144734
650.613	0.0146057
650.692	0.0145139
650.770	0.0144212
650.848	0.0144286
650.926	0.0144689
651.004	0.0143314
651.082	0.0143348
651.160	0.0144685
651.238	0.0143408
651.317	0.0142230
651.395	0.0143882
651.473	0.0143029
651.551	0.0142216
651.629	0.0141674
651.707	0.0141264
651.785	0.0140675
651.863	0.0142113
651.942	0.0142148
652.020	0.0141866
652.098	0.0140992
652.176	0.0140814
652.254	0.0142331
652.332	0.0140881
652.410	0.0143231
652.488	0.0143565
652.567	0.0144202
652.645	0.0144506
652.723	0.0143698
652.801	0.0146221
652.879	0.0147109
652.957	0.0148396
653.035	0.0149497
653.113	0.0147572
653.192	0.0150908
653.270	0.0150922
653.348	0.0150793
653.426	0.0151139
653.504	0.0151250
653.582	0.0150449
653.660	0.0151291
653.738	0.0150886
653.817	0.0150568
653.895	0.0150181
653.973	0.0150216
654.051	0.0147752
654.129	0.0148660
654.207	0.0147332
654.285	0.0145263
654.363	0.0146935
654.442	0.0147332
654.520	0.0146706
654.598	0.0146256
654.676	0.0145475
654.754	0.0144566
654.832	0.0145327
654.910	0.0145426
654.988	0.0145085
655.067	0.0145393
655.145	0.0144372
655.223	0.0143786
655.301	0.0145132
655.379	0.0145850
655.457	0.0144684
655.535	0.0143922
655.613	0.0146248
655.692	0.0146535
655.770	0.0146757
655.848	0.0145695
655.926	0.0145086
656.004	0.0147401
656.082	0.0146266
656.160	0.0147135
656.238	0.0145561
656.317	0.0147224
656.395	0.0146529
656.473	0.0146276
656.551	0.0146935
656.629	0.0146860
656.707	0.0147653
656.785	0.0146365
656.863	0.0145187
656.942	0.0146192
657.020	0.0146521
657.098	0.0145922
657.176	0.0143124
657.254	0.0145193
657.332	0.0144489
657.410	0.0144247
657.488	0.0143434
657.567	0.0144878
657.645	0.0143220
657.723	0.0144835
657.801	0.0142904
657.879	0.0142901
657.957	0.0143518
658.035	0.0144289
658.113	0.0143673
658.192	0.0144048
658.270	0.0143110
658.348	0.0142396
658.426	0.0142673
658.504	0.0142906
658.582	0.0143608
658.660	0.0144175
658.738	0.0144833
658.817	0.0144688
658.895	0.0145650
658.973	0.0144603
659.051	0.0144643
659.129	0.0146637
659.207	0.0146503
659.285	0.0146494
659.363	0.0148228
659.442	0.0147486
659.520	0.0146419
659.598	0.0146922
659.676	0.0147784
659.754	0.0148171
659.832	0.0147870
659.910	0.0150433
659.988	0.0149175
660.067	0.0149625
660.145	0.0148600
660.223	0.0148834
660.301	0.0149173
660.379	0.0150066
660.457	0.0149850
660.535	0.0147885
660.613	0.0148515
660.692	0.0148431
660.770	0.0147215
660.848	0.0147131
660.926	0.0147414
661.004	0.0145914
661.082	0.0147243
661.160	0.0145859
661.238	0.0145271
661.317	0.0145089
661.395	0.0145239
661.473	0.0143216
661.551	0.0143456
661.629	0.0143577
661.707	0.0143845
661.785	0.0143491
661.863	0.0142671
661.942	0.0143417
662.020	0.0143156
662.098	0.0142617
662.176	0.0143323
662.254	0.0141914
662.332	0.0142090
662.410	0.0143057
662.488	0.0144009
662.567	0.0143917
662.645	0.0142702
662.723	0.0142558
662.801	0.0143497
662.879	0.0145806
662.957	0.0145049
663.035	0.0144376
663.113	0.0145251
663.192	0.0145470
663.270	0.0145108
663.348	0.0145545
663.426	0.0145105
663.504	0.0145780
663.582	0.0146687
663.660	0.0145631
663.738	0.0146547
663.817	0.0147432
663.895	0.0145570
663.973	0.0146479
664.051	0.0147730
664.129	0.0147094
664.207	0.0147819
664.285	0.0148886
664.363	0.0148626
664.442	0.0148445
664.520	0.0150090
664.598	0.0150155
664.676	0.0151085
664.754	0.0151090
664.832	0.0151068
664.910	0.0151597
664.988	0.0151354
665.067	0.0150401
665.145	0.0150664
665.223	0.0150190
665.301	0.0150143
665.379	0.0150060
665.457	0.0150308
665.535	0.0148261
665.613	0.0147733
665.692	0.0148074
665.770	0.0147389
665.848	0.0146534
665.926	0.0145276
666.004	0.0145793
666.082	0.0143938
666.160	0.0143468
666.238	0.0143567
666.317	0.0143621
666.395	0.0142234
666.473	0.0141863
666.551	0.0143146
666.629	0.0142519
666.707	0.0143113
666.785	0.0143526
666.863	0.0143735
666.942	0.0143552
667.020	0.0144564
667.098	0.0142557
667.176	0.0144547
667.254	0.0144374
667.332	0.0144496
667.410	0.0143625
667.488	0.0144214
667.567	0.0143758
667.645	0.0143763
667.723	0.0143922
667.801	0.0143584
667.879	0.0142953
667.957	0.0143835
668.035	0.0141768
668.113	0.0141342
668.192	0.0141424
668.270	0.0141564
668.348	0.0143169
668.426	0.0141394
668.504	0.0141708
668.582	0.0143955
668.660	0.0143013
668.738	0.0142045
668.817	0.0142227
668.895	0.0144039
668.973	0.0144643
669.051	0.0145558
669.129	0.0144801
669.207	0.0145892
669.285	0.0146645
669.363	0.0146527
669.442	0.0147309
669.520	0.0145638
669.598	0.0147607
669.676	0.0147717
669.754	0.0146674
669.832	0.0146697
669.910	0.0145983
669.988	0.0145488
670.067	0.0146161
670.145	0.0144753
670.223	0.0146085
670.301	0.0144173
670.379	0.0144653
670.457	0.0144591
670.535	0.0142722
670.613	0.0141893
670.692	0.0141328
670.770	0.0141906
670.848	0.0141885
670.926	0.0142718
671.004	0.0140805
671.082	0.0140852
671.160	0.0140015
671.238	0.0139664
671.317	0.0140212
671.395	0.0139849
671.473	0.0141664
671.551	0.0140485
671.629	0.0141192
671.707	0.0141341
671.785	0.0141860
671.863	0.0142600
671.942	0.0142350
672.020	0.0140943
672.098	0.0142307
672.176	0.0143994
672.254	0.0142145
672.332	0.0141633
672.410	0.0142410
672.488	0.0143895
672.567	0.0141566
672.645	0.0141938
672.723	0.0142927
672.801	0.0143616
672.879	0.0144198
672.957	0.0142764
673.035	0.0142860
673.113	0.0145612
673.192	0.0143690
673.270	0.0144567
673.348	0.0145050
673.426	0.0145280
673.504	0.0146554
673.582	0.0145655
673.660	0.0146238
673.738	0.0145483
673.817	0.0146558
673.895	0.0146388
673.973	0.0145999
674.051	0.0145996
674.129	0.0145079
674.207	0.0145612
674.285	0.0146571
674.363	0.0146353
674.442	0.0145952
674.520	0.0145696
674.598	0.0144331
674.676	0.0145796
674.754	0.0148425
674.832	0.0147148
674.910	0.0147218
674.988	0.0147919
675.067	0.0147266
675.145	0.0148232
675.223	0.0147546
675.301	0.0148330
675.379	0.0148288
675.457	0.0148012
675.535	0.0146772
675.613	0.0147990
675.692	0.0145628
675.770	0.0146960
675.848	0.0146414
675.926	0.0144057
676.004	0.0145219
676.082	0.0143976
676.160	0.0143305
676.238	0.0143016
676.317	0.0143085
676.395	0.0141192
676.473	0.0141434
676.551	0.0143440
676.629	0.0142279
676.707	0.0141860
676.785	0.0141290
676.863	0.0142920
676.942	0.0143185
677.020	0.0141754
677.098	0.0142397
677.176	0.0142899
677.254	0.0143629
677.332	0.0144191
677.410	0.0143730
677.488	0.0144390
677.567	0.0146158
677.645	0.0146864
677.723	0.0146012
677.801	0.0147497
677.879	0.0148998
677.957	0.0149447
678.035	0.0148898
678.113	0.0150636
678.192	0.0149908
678.270	0.0149997
678.348	0.0151283
678.426	0.0151133
678.504	0.0151402
678.582	0.0149279
678.660	0.0149398
678.738	0.0149325
678.817	0.0150021
678.895	0.0149772
678.973	0.0148938
679.051	0.0148299
679.129	0.0148321
679.207	0.0150414
679.285	0.0147150
679.363	0.0147327
679.442	0.0146710
679.520	0.0146516
679.598	0.0146527
679.676	0.0145541
679.754	0.0145470
679.832	0.0145728
679.910	0.0145416
679.988	0.0145434
680.067	0.0146120
680.145	0.0146374
680.223	0.0145704
680.301	0.0144249
680.379	0.0145144
680.457	0.0144888
680.535	0.0144650
680.613	0.0144094
680.692	0.0144473
680.770	0.0144384
680.848	0.0143235
680.926	0.0143475
681.004	0.0143892
681.082	0.0144326
681.160	0.0143037
681.238	0.0143191
681.317	0.0142549
681.395	0.0141735
681.473	0.0142388
681.551	0.0142080
681.629	0.0141145
681.707	0.0141769
681.785	0.0142297
681.863	0.0140789
681.942	0.0140688
682.020	0.0140694
682.098	0.0141557
682.176	0.0142224
682.254	0.0143823
682.332	0.0142233
682.410	0.0143474
682.488	0.0145242
682.567	0.0144884
682.645	0.0145103
682.723	0.0146365
682.801	0.0149457
682.879	0.0148157
682.957	0.0148091
683.035	0.0150275
683.113	0.0150176
683.192	0.0150039
683.270	0.0151076
683.348	0.0151748
683.426	0.0152090
683.504	0.0151897
683.582	0.0152847
683.660	0.0152377
683.738	0.0152407
683.817	0.0151576
683.895	0.0151712
683.973	0.0152583
684.051	0.0150455
684.129	0.0148637
684.207	0.0148107
684.285	0.0147401
684.363	0.0147675
684.442	0.0146059
684.520	0.0146455
684.598	0.0144793
684.676	0.0144598
684.754	0.0142637
684.832	0.0141802
684.910	0.0141692
684.988	0.0139848
685.067	0.0140055
685.145	0.0139330
685.223	0.0139572
685.301	0.0139219
685.379	0.0139552
685.457	0.0138898
685.535	0.0139220
685.613	0.0139526
685.692	0.0138670
