05/28/2022	14:35:52	Ver.	4.1	UNKNOWN
Optical Delay	599.988409	Delta X		0.078125	Sweeps	1	Scan Rate	0/0
Coordinates	Axis 1	NaN	Axis 2	NaN	Axis 3	NaN	Axis 4	NaN	Axis 5	NaN	Axis 6	0.000000
TX Power	0.000000	RX Power	0.000000

599.988	0.0143094
600.067	0.0142585
600.145	0.0143968
600.223	0.0143002
600.301	0.0141603
600.379	0.0143375
600.457	0.0142939
600.535	0.0142210
600.613	0.0144158
600.692	0.0142946
600.770	0.0144637
600.848	0.0142673
600.926	0.0140688
601.004	0.0142374
601.082	0.0143140
601.160	0.0141546
601.238	0.0142363
601.317	0.0143198
601.395	0.0141924
601.473	0.0141605
601.551	0.0142242
601.629	0.0142417
601.707	0.0142442
601.785	0.0142068
601.863	0.0142076
601.942	0.0141923
602.020	0.0140556
602.098	0.0141473
602.176	0.0141546
602.254	0.0141470
602.332	0.0142393
602.410	0.0141805
602.488	0.0141492
602.567	0.0140670
602.645	0.0141591
602.723	0.0141247
602.801	0.0142216
602.879	0.0141389
602.957	0.0141183
603.035	0.0142174
603.113	0.0142075
603.192	0.0142495
603.270	0.0141239
603.348	0.0140959
603.426	0.0141115
603.504	0.0142480
603.582	0.0141215
603.660	0.0141710
603.738	0.0142520
603.817	0.0141714
603.895	0.0140646
603.973	0.0140999
604.051	0.0141648
604.129	0.0141373
604.207	0.0141280
604.285	0.0141248
604.363	0.0140668
604.442	0.0139541
604.520	0.0140594
604.598	0.0140394
604.676	0.0140658
604.754	0.0141441
604.832	0.0140598
604.910	0.0140845
604.988	0.0141295
605.067	0.0141900
605.145	0.0140617
605.223	0.0141769
605.301	0.0141363
605.379	0.0142567
605.457	0.0141519
605.535	0.0141197
605.613	0.0139863
605.692	0.0142010
605.770	0.0141863
605.848	0.0141451
605.926	0.0140586
606.004	0.0140676
606.082	0.0141339
606.160	0.0142638
606.238	0.0143073
606.317	0.0143018
606.395	0.0141479
606.473	0.0143079
606.551	0.0142444
606.629	0.0141663
606.707	0.0141896
606.785	0.0143552
606.863	0.0142497
606.942	0.0142776
607.020	0.0142101
607.098	0.0142286
607.176	0.0143592
607.254	0.0143223
607.332	0.0142628
607.410	0.0142558
607.488	0.0143534
607.567	0.0142535
607.645	0.0141664
607.723	0.0142996
607.801	0.0143994
607.879	0.0142713
607.957	0.0140806
608.035	0.0142586
608.113	0.0142918
608.192	0.0142651
608.270	0.0141157
608.348	0.0142288
608.426	0.0141548
608.504	0.0142575
608.582	0.0143443
608.660	0.0141238
608.738	0.0141866
608.817	0.0142542
608.895	0.0142988
608.973	0.0142941
609.051	0.0141127
609.129	0.0141354
609.207	0.0143865
609.285	0.0143768
609.363	0.0141915
609.442	0.0142109
609.520	0.0142427
609.598	0.0143168
609.676	0.0143309
609.754	0.0142614
609.832	0.0141853
609.910	0.0143345
609.988	0.0142722
610.067	0.0143151
610.145	0.0144416
610.223	0.0144167
610.301	0.0143967
610.379	0.0142696
610.457	0.0142675
610.535	0.0143530
610.613	0.0143130
610.692	0.0142891
610.770	0.0142545
610.848	0.0143604
610.926	0.0144286
611.004	0.0143469
611.082	0.0143502
611.160	0.0142985
611.238	0.0143364
611.317	0.0142628
611.395	0.0141545
611.473	0.0142929
611.551	0.0142328
611.629	0.0143503
611.707	0.0144097
611.785	0.0142863
611.863	0.0144490
611.942	0.0143002
612.020	0.0141983
612.098	0.0143368
612.176	0.0142172
612.254	0.0143134
612.332	0.0142234
612.410	0.0142358
612.488	0.0142201
612.567	0.0141879
612.645	0.0141103
612.723	0.0142007
612.801	0.0143216
612.879	0.0143216
612.957	0.0142709
613.035	0.0142048
613.113	0.0143346
613.192	0.0143291
613.270	0.0142707
613.348	0.0143549
613.426	0.0142709
613.504	0.0143303
613.582	0.0141841
613.660	0.0142578
613.738	0.0141982
613.817	0.0143021
613.895	0.0141953
613.973	0.0142161
614.051	0.0142364
614.129	0.0143508
614.207	0.0142615
614.285	0.0142131
614.363	0.0142587
614.442	0.0142001
614.520	0.0142847
614.598	0.0141113
614.676	0.0141280
614.754	0.0141202
614.832	0.0142033
614.910	0.0140867
614.988	0.0142471
615.067	0.0142851
615.145	0.0141451
615.223	0.0140714
615.301	0.0140219
615.379	0.0141954
615.457	0.0140938
615.535	0.0141415
615.613	0.0139867
615.692	0.0141258
615.770	0.0139979
615.848	0.0139207
615.926	0.0140370
616.004	0.0141183
616.082	0.0142870
616.160	0.0141981
616.238	0.0140446
616.317	0.0139223
616.395	0.0139247
616.473	0.0141081
616.551	0.0139706
616.629	0.0138713
616.707	0.0139748
616.785	0.0140374
616.863	0.0140596
616.942	0.0141672
617.020	0.0140712
617.098	0.0140434
617.176	0.0140131
617.254	0.0140589
617.332	0.0140611
617.410	0.0141342
617.488	0.0140945
617.567	0.0142659
617.645	0.0142033
617.723	0.0140809
617.801	0.0140231
617.879	0.0141723
617.957	0.0140858
618.035	0.0140659
618.113	0.0141180
618.192	0.0141325
618.270	0.0142724
618.348	0.0141433
618.426	0.0141747
618.504	0.0141259
618.582	0.0141483
618.660	0.0142373
618.738	0.0141464
618.817	0.0141560
618.895	0.0142384
618.973	0.0141869
619.051	0.0141706
619.129	0.0141969
619.207	0.0141718
619.285	0.0141490
619.363	0.0141816
619.442	0.0140765
619.520	0.0141288
619.598	0.0141156
619.676	0.0140711
619.754	0.0141246
619.832	0.0141013
619.910	0.0141647
619.988	0.0141601
620.067	0.0142745
620.145	0.0141873
620.223	0.0144559
620.301	0.0143637
620.379	0.0142227
620.457	0.0143607
620.535	0.0144030
620.613	0.0144653
620.692	0.0144189
620.770	0.0144455
620.848	0.0144608
620.926	0.0144275
621.004	0.0144910
621.082	0.0144294
621.160	0.0143679
621.238	0.0144200
621.317	0.0144304
621.395	0.0142802
621.473	0.0143027
621.551	0.0143032
621.629	0.0141577
621.707	0.0141917
621.785	0.0140964
621.863	0.0142006
621.942	0.0141061
622.020	0.0138757
622.098	0.0140487
622.176	0.0141221
622.254	0.0139919
622.332	0.0141679
622.410	0.0141839
622.488	0.0141013
622.567	0.0141988
622.645	0.0141775
622.723	0.0142971
622.801	0.0142300
622.879	0.0143143
622.957	0.0143192
623.035	0.0141702
623.113	0.0142014
623.192	0.0144701
623.270	0.0142610
623.348	0.0141972
623.426	0.0143089
623.504	0.0141586
623.582	0.0141504
623.660	0.0141935
623.738	0.0140952
623.817	0.0140952
623.895	0.0140757
623.973	0.0140363
624.051	0.0139573
624.129	0.0141594
624.207	0.0140694
624.285	0.0138849
624.363	0.0139487
624.442	0.0140440
624.520	0.0138918
624.598	0.0140839
624.676	0.0139221
624.754	0.0139201
624.832	0.0139782
624.910	0.0138999
624.988	0.0138825
625.067	0.0138142
625.145	0.0138833
625.223	0.0139170
625.301	0.0140236
625.379	0.0140383
625.457	0.0140691
625.535	0.0142467
625.613	0.0143483
625.692	0.0142484
625.770	0.0143982
625.848	0.0145911
625.926	0.0144597
626.004	0.0144720
626.082	0.0144400
626.160	0.0145528
626.238	0.0145374
626.317	0.0145190
626.395	0.0145690
626.473	0.0147173
626.551	0.0144817
626.629	0.0144503
626.707	0.0143195
626.785	0.0144331
626.863	0.0145039
626.942	0.0142131
627.020	0.0142632
627.098	0.0142653
627.176	0.0141450
627.254	0.0141213
627.332	0.0141615
627.410	0.0142366
627.488	0.0139359
627.567	0.0139401
627.645	0.0141071
627.723	0.0140119
627.801	0.0140173
627.879	0.0140135
627.957	0.0141031
628.035	0.0141777
628.113	0.0141108
628.192	0.0140668
628.270	0.0141706
628.348	0.0142566
628.426	0.0142832
628.504	0.0142105
628.582	0.0142212
628.660	0.0141743
628.738	0.0142119
628.817	0.0141458
628.895	0.0142397
628.973	0.0142228
629.051	0.0143019
629.129	0.0140958
629.207	0.0140202
629.285	0.0140909
629.363	0.0140630
629.442	0.0139984
629.520	0.0140532
629.598	0.0140744
629.676	0.0141443
629.754	0.0141295
629.832	0.0139884
629.910	0.0140641
629.988	0.0141319
630.067	0.0140866
630.145	0.0140819
630.223	0.0140534
630.301	0.0142114
630.379	0.0142404
630.457	0.0141960
630.535	0.0143288
630.613	0.0143134
630.692	0.0142255
630.770	0.0143040
630.848	0.0143626
630.926	0.0145367
631.004	0.0145568
631.082	0.0144821
631.160	0.0145918
631.238	0.0145456
631.317	0.0146363
631.395	0.0145377
631.473	0.0144519
631.551	0.0145218
631.629	0.0145825
631.707	0.0145398
631.785	0.0143874
631.863	0.0143800
631.942	0.0143115
632.020	0.0143487
632.098	0.0141904
632.176	0.0142126
632.254	0.0142664
632.332	0.0141805
632.410	0.0140529
632.488	0.0141441
632.567	0.0141281
632.645	0.0140148
632.723	0.0140182
632.801	0.0139666
632.879	0.0139619
632.957	0.0141558
633.035	0.0141901
633.113	0.0140650
633.192	0.0142001
633.270	0.0141200
633.348	0.0140020
633.426	0.0142485
633.504	0.0142370
633.582	0.0143045
633.660	0.0141656
633.738	0.0143628
633.817	0.0145113
633.895	0.0144493
633.973	0.0143440
634.051	0.0143220
634.129	0.0143969
634.207	0.0144221
634.285	0.0143206
634.363	0.0143578
634.442	0.0144551
634.520	0.0144324
634.598	0.0143382
634.676	0.0143597
634.754	0.0143590
634.832	0.0143488
634.910	0.0143359
634.988	0.0143481
635.067	0.0143670
635.145	0.0144270
635.223	0.0143988
635.301	0.0143834
635.379	0.0143047
635.457	0.0143389
635.535	0.0145332
635.613	0.0145437
635.692	0.0145161
635.770	0.0144323
635.848	0.0144570
635.926	0.0145465
636.004	0.0143981
636.082	0.0142580
636.160	0.0143420
636.238	0.0144044
636.317	0.0144067
636.395	0.0144942
636.473	0.0144496
636.551	0.0144669
636.629	0.0145477
636.707	0.0144344
636.785	0.0144504
636.863	0.0142908
636.942	0.0143568
637.020	0.0143661
637.098	0.0142797
637.176	0.0143800
637.254	0.0142861
637.332	0.0143381
637.410	0.0143814
637.488	0.0143107
637.567	0.0142466
637.645	0.0143446
637.723	0.0141600
637.801	0.0143148
637.879	0.0143011
637.957	0.0141644
638.035	0.0142910
638.113	0.0142281
638.192	0.0141949
638.270	0.0141248
638.348	0.0141073
638.426	0.0141253
638.504	0.0141828
638.582	0.0140165
638.660	0.0141036
638.738	0.0140826
638.817	0.0140588
638.895	0.0141021
638.973	0.0140913
639.051	0.0140112
639.129	0.0141338
639.207	0.0141428
639.285	0.0143014
639.363	0.0142847
639.442	0.0141756
639.520	0.0142155
639.598	0.0142744
639.676	0.0141261
639.754	0.0141394
639.832	0.0141344
639.910	0.0142078
639.988	0.0142693
640.067	0.0141748
640.145	0.0141206
640.223	0.0140920
640.301	0.0140742
640.379	0.0140276
640.457	0.0141321
640.535	0.0141213
640.613	0.0141626
640.692	0.0139983
640.770	0.0140876
640.848	0.0139823
640.926	0.0140453
641.004	0.0141796
641.082	0.0140167
641.160	0.0140823
641.238	0.0140102
641.317	0.0140369
641.395	0.0140253
641.473	0.0138640
641.551	0.0138637
641.629	0.0139124
641.707	0.0137796
641.785	0.0138184
641.863	0.0136575
641.942	0.0138358
642.020	0.0136748
642.098	0.0137313
642.176	0.0137373
642.254	0.0136529
642.332	0.0136325
642.410	0.0137853
642.488	0.0139748
642.567	0.0137700
642.645	0.0136353
642.723	0.0139486
642.801	0.0138795
642.879	0.0139754
642.957	0.0139531
643.035	0.0139709
643.113	0.0141133
643.192	0.0141483
643.270	0.0142270
643.348	0.0141771
643.426	0.0141119
643.504	0.0142043
643.582	0.0142670
643.660	0.0142894
643.738	0.0141570
643.817	0.0142569
643.895	0.0142326
643.973	0.0142504
644.051	0.0141691
644.129	0.0140477
644.207	0.0141521
644.285	0.0140840
644.363	0.0139640
644.442	0.0139793
644.520	0.0141089
644.598	0.0139423
644.676	0.0140438
644.754	0.0140613
644.832	0.0140024
644.910	0.0138770
644.988	0.0140127
645.067	0.0140443
645.145	0.0140229
645.223	0.0140865
645.301	0.0140833
645.379	0.0141717
645.457	0.0142589
645.535	0.0141496
645.613	0.0142508
645.692	0.0142318
645.770	0.0142632
645.848	0.0142763
645.926	0.0142487
646.004	0.0142998
646.082	0.0141983
646.160	0.0142617
646.238	0.0142632
646.317	0.0141949
646.395	0.0141808
646.473	0.0142787
646.551	0.0142335
646.629	0.0142644
646.707	0.0142066
646.785	0.0142121
646.863	0.0142053
646.942	0.0141180
647.020	0.0141748
647.098	0.0141988
647.176	0.0140112
647.254	0.0141161
647.332	0.0140769
647.410	0.0140549
647.488	0.0140099
647.567	0.0141331
647.645	0.0141383
647.723	0.0141866
647.801	0.0141332
647.879	0.0142044
647.957	0.0141730
648.035	0.0140279
648.113	0.0142136
648.192	0.0142578
648.270	0.0142272
648.348	0.0141853
648.426	0.0143771
648.504	0.0143803
648.582	0.0144080
648.660	0.0144147
648.738	0.0144986
648.817	0.0144205
648.895	0.0143055
648.973	0.0144790
649.051	0.0144611
649.129	0.0143732
649.207	0.0143256
649.285	0.0141920
649.363	0.0142291
649.442	0.0142084
649.520	0.0142898
649.598	0.0142578
649.676	0.0142306
649.754	0.0140810
649.832	0.0140847
649.910	0.0142036
649.988	0.0142816
650.067	0.0143313
650.145	0.0143159
650.223	0.0142800
650.301	0.0142792
650.379	0.0143304
650.457	0.0142528
650.535	0.0143984
650.613	0.0144048
650.692	0.0143229
650.770	0.0144093
650.848	0.0142483
650.926	0.0144028
651.004	0.0144070
651.082	0.0143028
651.160	0.0142617
651.238	0.0142709
651.317	0.0143315
651.395	0.0143988
651.473	0.0144323
651.551	0.0142941
651.629	0.0143213
651.707	0.0143400
651.785	0.0143462
651.863	0.0143203
651.942	0.0142313
652.020	0.0141407
652.098	0.0142067
652.176	0.0142236
652.254	0.0141704
652.332	0.0141489
652.410	0.0140121
652.488	0.0139137
652.567	0.0139053
652.645	0.0141039
652.723	0.0139211
652.801	0.0139084
652.879	0.0138589
652.957	0.0138340
653.035	0.0137836
653.113	0.0139446
653.192	0.0138498
653.270	0.0140565
653.348	0.0140517
653.426	0.0139899
653.504	0.0139603
653.582	0.0140891
653.660	0.0140830
653.738	0.0141463
653.817	0.0143691
653.895	0.0142479
653.973	0.0143211
654.051	0.0143644
654.129	0.0143352
654.207	0.0143447
654.285	0.0144467
654.363	0.0144292
654.442	0.0144448
654.520	0.0144070
654.598	0.0145350
654.676	0.0145135
654.754	0.0143959
654.832	0.0144382
654.910	0.0144654
654.988	0.0144218
655.067	0.0142569
655.145	0.0144578
655.223	0.0143526
655.301	0.0142023
655.379	0.0143282
655.457	0.0143203
655.535	0.0144152
655.613	0.0144928
655.692	0.0142885
655.770	0.0143134
655.848	0.0142633
655.926	0.0143369
656.004	0.0142242
656.082	0.0143178
656.160	0.0141640
656.238	0.0141013
656.317	0.0142922
656.395	0.0141022
656.473	0.0140489
656.551	0.0139474
656.629	0.0139467
656.707	0.0139574
656.785	0.0140260
656.863	0.0139613
656.942	0.0141231
657.020	0.0140979
657.098	0.0141367
657.176	0.0140495
657.254	0.0139677
657.332	0.0142220
657.410	0.0142197
657.488	0.0141344
657.567	0.0142398
657.645	0.0141923
657.723	0.0142216
657.801	0.0142019
657.879	0.0143537
657.957	0.0142632
658.035	0.0143424
658.113	0.0142081
658.192	0.0141630
658.270	0.0141763
658.348	0.0142332
658.426	0.0143576
658.504	0.0140775
658.582	0.0141851
658.660	0.0141605
658.738	0.0142120
658.817	0.0144278
658.895	0.0141525
658.973	0.0142172
659.051	0.0142365
659.129	0.0141926
659.207	0.0142511
659.285	0.0142976
659.363	0.0141644
659.442	0.0142390
659.520	0.0141302
659.598	0.0142270
659.676	0.0142143
659.754	0.0141679
659.832	0.0141534
659.910	0.0141282
659.988	0.0140981
660.067	0.0142725
660.145	0.0141731
660.223	0.0139790
660.301	0.0141198
660.379	0.0141840
660.457	0.0140060
660.535	0.0139214
660.613	0.0140314
660.692	0.0141887
660.770	0.0141669
660.848	0.0141438
660.926	0.0141830
661.004	0.0142583
661.082	0.0143587
661.160	0.0142535
661.238	0.0143236
661.317	0.0144616
661.395	0.0143910
661.473	0.0145441
661.551	0.0143703
661.629	0.0143919
661.707	0.0143732
661.785	0.0143866
661.863	0.0144069
661.942	0.0143839
662.020	0.0143467
662.098	0.0143376
662.176	0.0143777
662.254	0.0141720
662.332	0.0142063
662.410	0.0143481
662.488	0.0142657
662.567	0.0142596
662.645	0.0143748
662.723	0.0143097
662.801	0.0143185
662.879	0.0141962
662.957	0.0142030
663.035	0.0141671
663.113	0.0142483
663.192	0.0142963
663.270	0.0142307
663.348	0.0142147
663.426	0.0142104
663.504	0.0142986
663.582	0.0141663
663.660	0.0141746
663.738	0.0139639
663.817	0.0140881
663.895	0.0139145
663.973	0.0138911
664.051	0.0139501
664.129	0.0140233
664.207	0.0140203
664.285	0.0139598
664.363	0.0139472
664.442	0.0140169
664.520	0.0139839
664.598	0.0139905
664.676	0.0140559
664.754	0.0140893
664.832	0.0140569
664.910	0.0140959
664.988	0.0140802
665.067	0.0141410
665.145	0.0141669
665.223	0.0140142
665.301	0.0141043
665.379	0.0140893
665.457	0.0140041
665.535	0.0140373
665.613	0.0141058
665.692	0.0142300
665.770	0.0141898
665.848	0.0139789
665.926	0.0140369
666.004	0.0139870
666.082	0.0140060
666.160	0.0139681
666.238	0.0140810
666.317	0.0140328
666.395	0.0139684
666.473	0.0142638
666.551	0.0140733
666.629	0.0140205
666.707	0.0140849
666.785	0.0139632
666.863	0.0139101
666.942	0.0140320
667.020	0.0141155
667.098	0.0141373
667.176	0.0141390
667.254	0.0141220
667.332	0.0140922
667.410	0.0141784
667.488	0.0141436
667.567	0.0140397
667.645	0.0142192
667.723	0.0142580
667.801	0.0143385
667.879	0.0143249
667.957	0.0144814
668.035	0.0145361
668.113	0.0144594
668.192	0.0145379
668.270	0.0145761
668.348	0.0145316
668.426	0.0144940
668.504	0.0143876
668.582	0.0144853
668.660	0.0144880
668.738	0.0143726
668.817	0.0142838
668.895	0.0143488
668.973	0.0142099
669.051	0.0142529
669.129	0.0141806
669.207	0.0142351
669.285	0.0140763
669.363	0.0141002
669.442	0.0140723
669.520	0.0141464
669.598	0.0141365
669.676	0.0141501
669.754	0.0138945
669.832	0.0140828
669.910	0.0140169
669.988	0.0140145
670.067	0.0139833
670.145	0.0139888
670.223	0.0140375
670.301	0.0141504
670.379	0.0140792
670.457	0.0140095
670.535	0.0139668
670.613	0.0140813
670.692	0.0141849
670.770	0.0139961
670.848	0.0139399
670.926	0.0140512
671.004	0.0139217
671.082	0.0139789
671.160	0.0139464
671.238	0.0141057
671.317	0.0139406
671.395	0.0139770
671.473	0.0139388
671.551	0.0139436
671.629	0.0139619
671.707	0.0139706
671.785	0.0139997
671.863	0.0139262
671.942	0.0140025
672.020	0.0140525
672.098	0.0140895
672.176	0.0143670
672.254	0.0143260
672.332	0.0142322
672.410	0.0143637
672.488	0.0145828
672.567	0.0146811
672.645	0.0147404
672.723	0.0148091
672.801	0.0149153
672.879	0.0150154
672.957	0.0149010
673.035	0.0150962
673.113	0.0150064
673.192	0.0149451
673.270	0.0149209
673.348	0.0149076
673.426	0.0147147
673.504	0.0147669
673.582	0.0146982
673.660	0.0145303
673.738	0.0143753
673.817	0.0143279
673.895	0.0141932
673.973	0.0141168
674.051	0.0141147
674.129	0.0141428
674.207	0.0140536
674.285	0.0140474
674.363	0.0139502
674.442	0.0138009
674.520	0.0138296
674.598	0.0137811
674.676	0.0137856
674.754	0.0137170
674.832	0.0137961
674.910	0.0138142
674.988	0.0138070
675.067	0.0136504
675.145	0.0137664
675.223	0.0137178
675.301	0.0136721
675.379	0.0138885
675.457	0.0140444
675.535	0.0138678
675.613	0.0139447
675.692	0.0141067
675.770	0.0143220
675.848	0.0141593
675.926	0.0143860
676.004	0.0144500
676.082	0.0145646
676.160	0.0145167
676.238	0.0144824
676.317	0.0146216
676.395	0.0146838
676.473	0.0146313
676.551	0.0148643
676.629	0.0147127
676.707	0.0146124
676.785	0.0147215
676.863	0.0146408
676.942	0.0146597
677.020	0.0146449
677.098	0.0145306
677.176	0.0144718
677.254	0.0144506
677.332	0.0143954
677.410	0.0143885
677.488	0.0143516
677.567	0.0142490
677.645	0.0141712
677.723	0.0141535
677.801	0.0141138
677.879	0.0140277
677.957	0.0140759
678.035	0.0141379
678.113	0.0140601
678.192	0.0141083
678.270	0.0140756
678.348	0.0140427
678.426	0.0140675
678.504	0.0140025
678.582	0.0137754
678.660	0.0139985
678.738	0.0140842
678.817	0.0138670
678.895	0.0139687
678.973	0.0140860
679.051	0.0139683
679.129	0.0139445
679.207	0.0140757
679.285	0.0141496
679.363	0.0138031
679.442	0.0140818
679.520	0.0140930
679.598	0.0141158
679.676	0.0140278
679.754	0.0140079
679.832	0.0141153
679.910	0.0140381
679.988	0.0140483
680.067	0.0139942
680.145	0.0139891
680.223	0.0140018
680.301	0.0141534
680.379	0.0141299
680.457	0.0141517
680.535	0.0140477
680.613	0.0141720
680.692	0.0139823
680.770	0.0140995
680.848	0.0141356
680.926	0.0139793
681.004	0.0140682
681.082	0.0140132
681.160	0.0140525
681.238	0.0140408
681.317	0.0139790
681.395	0.0138698
681.473	0.0138358
681.551	0.0139790
681.629	0.0140136
681.707	0.0138569
681.785	0.0139788
681.863	0.0139510
681.942	0.0138996
682.020	0.0141473
682.098	0.0141521
682.176	0.0141846
682.254	0.0141608
682.332	0.0141658
682.410	0.0141031
682.488	0.0142347
682.567	0.0141801
682.645	0.0141295
682.723	0.0142141
682.801	0.0141815
682.879	0.0142780
682.957	0.0141905
683.035	0.0142001
683.113	0.0141373
683.192	0.0141438
683.270	0.0140467
683.348	0.0142118
683.426	0.0141813
683.504	0.0141818
683.582	0.0141943
683.660	0.0142152
683.738	0.0142537
683.817	0.0143232
683.895	0.0143609
683.973	0.0144343
684.051	0.0143821
684.129	0.0144882
684.207	0.0144865
684.285	0.0143934
684.363	0.0145077
684.442	0.0145055
684.520	0.0143002
684.598	0.0144253
684.676	0.0143903
684.754	0.0143240
684.832	0.0142571
684.910	0.0143378
684.988	0.0143182
685.067	0.0141833
685.145	0.0141083
685.223	0.0141734
685.301	0.0141621
685.379	0.0140273
685.457	0.0140328
685.535	0.0139966
685.613	0.0138200
685.692	0.0139084
