05/28/2022	14:36:07	Ver.	4.1	UNKNOWN
Optical Delay	599.988409	Delta X		0.078125	Sweeps	1	Scan Rate	0/0
Coordinates	Axis 1	NaN	Axis 2	NaN	Axis 3	NaN	Axis 4	NaN	Axis 5	NaN	Axis 6	0.000000
TX Power	0.000000	RX Power	0.000000

599.988	0.0140679
600.067	0.0139915
600.145	0.0141222
600.223	0.0139878
600.301	0.0139777
600.379	0.0140690
600.457	0.0139195
600.535	0.0139155
600.613	0.0139581
600.692	0.0139409
600.770	0.0139298
600.848	0.0140425
600.926	0.0139018
601.004	0.0139181
601.082	0.0140030
601.160	0.0140355
601.238	0.0141869
601.317	0.0140761
601.395	0.0139858
601.473	0.0140247
601.551	0.0139808
601.629	0.0140250
601.707	0.0141106
601.785	0.0140483
601.863	0.0140343
601.942	0.0141046
602.020	0.0139944
602.098	0.0141035
602.176	0.0141155
602.254	0.0141662
602.332	0.0141517
602.410	0.0141245
602.488	0.0140574
602.567	0.0140327
602.645	0.0142036
602.723	0.0141233
602.801	0.0140758
602.879	0.0142542
602.957	0.0142308
603.035	0.0141895
603.113	0.0140979
603.192	0.0141396
603.270	0.0142177
603.348	0.0143400
603.426	0.0142329
603.504	0.0142454
603.582	0.0142355
603.660	0.0141518
603.738	0.0142303
603.817	0.0142047
603.895	0.0142619
603.973	0.0143405
604.051	0.0142164
604.129	0.0142545
604.207	0.0142036
604.285	0.0143456
604.363	0.0141728
604.442	0.0142838
604.520	0.0142137
604.598	0.0142794
604.676	0.0141814
604.754	0.0141944
604.832	0.0141589
604.910	0.0141295
604.988	0.0140969
605.067	0.0141548
605.145	0.0141502
605.223	0.0140996
605.301	0.0140983
605.379	0.0141651
605.457	0.0140736
605.535	0.0142032
605.613	0.0141997
605.692	0.0141388
605.770	0.0141063
605.848	0.0142666
605.926	0.0141756
606.004	0.0141660
606.082	0.0142146
606.160	0.0140589
606.238	0.0140980
606.317	0.0142279
606.395	0.0142582
606.473	0.0141563
606.551	0.0141256
606.629	0.0142228
606.707	0.0141109
606.785	0.0140711
606.863	0.0141752
606.942	0.0142700
607.020	0.0141003
607.098	0.0141122
607.176	0.0141518
607.254	0.0141069
607.332	0.0139928
607.410	0.0140982
607.488	0.0139834
607.567	0.0141019
607.645	0.0141782
607.723	0.0142719
607.801	0.0140034
607.879	0.0140090
607.957	0.0142432
608.035	0.0141142
608.113	0.0141853
608.192	0.0142610
608.270	0.0142393
608.348	0.0141124
608.426	0.0141689
608.504	0.0142268
608.582	0.0139976
608.660	0.0143391
608.738	0.0142733
608.817	0.0141898
608.895	0.0141363
608.973	0.0142810
609.051	0.0141938
609.129	0.0142032
609.207	0.0142201
609.285	0.0141650
609.363	0.0142368
609.442	0.0141676
609.520	0.0141523
609.598	0.0142539
609.676	0.0142564
609.754	0.0141586
609.832	0.0140148
609.910	0.0140171
609.988	0.0141110
610.067	0.0140507
610.145	0.0140992
610.223	0.0142152
610.301	0.0141744
610.379	0.0141656
610.457	0.0141230
610.535	0.0140566
610.613	0.0140154
610.692	0.0141095
610.770	0.0140742
610.848	0.0141164
610.926	0.0140157
611.004	0.0140363
611.082	0.0140259
611.160	0.0139489
611.238	0.0140634
611.317	0.0140612
611.395	0.0140038
611.473	0.0138820
611.551	0.0140253
611.629	0.0140615
611.707	0.0140105
611.785	0.0140344
611.863	0.0141432
611.942	0.0139637
612.020	0.0139780
612.098	0.0140360
612.176	0.0140804
612.254	0.0140099
612.332	0.0139478
612.410	0.0140926
612.488	0.0140955
612.567	0.0140333
612.645	0.0140574
612.723	0.0139868
612.801	0.0139561
612.879	0.0139840
612.957	0.0140869
613.035	0.0141259
613.113	0.0141358
613.192	0.0140784
613.270	0.0140775
613.348	0.0141518
613.426	0.0139583
613.504	0.0139450
613.582	0.0141682
613.660	0.0139494
613.738	0.0139403
613.817	0.0140546
613.895	0.0140915
613.973	0.0140294
614.051	0.0140038
614.129	0.0141380
614.207	0.0140974
614.285	0.0139842
614.363	0.0139880
614.442	0.0140059
614.520	0.0142017
614.598	0.0141128
614.676	0.0139874
614.754	0.0140790
614.832	0.0140327
614.910	0.0140335
614.988	0.0139880
615.067	0.0141251
615.145	0.0140983
615.223	0.0140108
615.301	0.0139831
615.379	0.0140423
615.457	0.0140635
615.535	0.0139823
615.613	0.0141633
615.692	0.0140420
615.770	0.0141492
615.848	0.0140324
615.926	0.0140179
616.004	0.0140319
616.082	0.0139584
616.160	0.0140643
616.238	0.0139144
616.317	0.0139951
616.395	0.0140109
616.473	0.0139723
616.551	0.0141494
616.629	0.0140663
616.707	0.0142044
616.785	0.0140835
616.863	0.0142657
616.942	0.0141612
617.020	0.0140096
617.098	0.0142532
617.176	0.0142429
617.254	0.0141797
617.332	0.0140520
617.410	0.0139978
617.488	0.0139822
617.567	0.0140967
617.645	0.0141827
617.723	0.0140273
617.801	0.0141805
617.879	0.0140315
617.957	0.0141355
618.035	0.0141630
618.113	0.0141209
618.192	0.0141701
618.270	0.0141163
618.348	0.0140166
618.426	0.0141912
618.504	0.0142120
618.582	0.0140813
618.660	0.0141170
618.738	0.0141025
618.817	0.0139907
618.895	0.0139576
618.973	0.0140086
619.051	0.0139809
619.129	0.0140187
619.207	0.0139132
619.285	0.0140585
619.363	0.0140208
619.442	0.0139629
619.520	0.0139930
619.598	0.0139966
619.676	0.0139365
619.754	0.0140725
619.832	0.0140565
619.910	0.0141099
619.988	0.0141080
620.067	0.0140250
620.145	0.0142175
620.223	0.0141371
620.301	0.0141621
620.379	0.0141138
620.457	0.0141089
620.535	0.0140754
620.613	0.0140945
620.692	0.0140534
620.770	0.0140597
620.848	0.0140327
620.926	0.0140263
621.004	0.0138753
621.082	0.0139396
621.160	0.0139880
621.238	0.0141166
621.317	0.0139037
621.395	0.0138966
621.473	0.0139140
621.551	0.0138146
621.629	0.0139822
621.707	0.0137873
621.785	0.0138042
621.863	0.0138821
621.942	0.0140932
622.020	0.0140376
622.098	0.0138896
622.176	0.0139478
622.254	0.0141780
622.332	0.0140858
622.410	0.0141763
622.488	0.0140305
622.567	0.0141341
622.645	0.0141270
622.723	0.0140380
622.801	0.0141219
622.879	0.0142963
622.957	0.0141711
623.035	0.0141452
623.113	0.0141222
623.192	0.0141499
623.270	0.0140570
623.348	0.0139760
623.426	0.0140874
623.504	0.0139597
623.582	0.0140396
623.660	0.0141217
623.738	0.0140379
623.817	0.0139604
623.895	0.0139808
623.973	0.0140756
624.051	0.0139568
624.129	0.0139938
624.207	0.0139660
624.285	0.0138362
624.363	0.0139356
624.442	0.0139117
624.520	0.0137949
624.598	0.0139018
624.676	0.0139766
624.754	0.0141277
624.832	0.0140720
624.910	0.0140714
624.988	0.0140130
625.067	0.0142197
625.145	0.0144128
625.223	0.0143404
625.301	0.0142587
625.379	0.0144170
625.457	0.0143617
625.535	0.0144502
625.613	0.0144744
625.692	0.0144185
625.770	0.0143616
625.848	0.0145451
625.926	0.0144746
626.004	0.0143928
626.082	0.0144809
626.160	0.0142192
626.238	0.0143368
626.317	0.0142374
626.395	0.0141842
626.473	0.0141640
626.551	0.0141546
626.629	0.0141996
626.707	0.0140483
626.785	0.0141090
626.863	0.0139359
626.942	0.0140481
627.020	0.0139919
627.098	0.0138969
627.176	0.0138559
627.254	0.0139943
627.332	0.0141785
627.410	0.0140598
627.488	0.0138474
627.567	0.0141330
627.645	0.0139806
627.723	0.0140283
627.801	0.0142327
627.879	0.0140147
627.957	0.0141614
628.035	0.0142270
628.113	0.0141325
628.192	0.0141382
628.270	0.0141312
628.348	0.0140899
628.426	0.0140491
628.504	0.0140876
628.582	0.0141150
628.660	0.0139757
628.738	0.0140736
628.817	0.0140880
628.895	0.0140350
628.973	0.0140645
629.051	0.0138284
629.129	0.0138773
629.207	0.0139113
629.285	0.0139288
629.363	0.0138863
629.442	0.0138264
629.520	0.0138647
629.598	0.0139741
629.676	0.0139352
629.754	0.0138475
629.832	0.0139388
629.910	0.0139373
629.988	0.0141529
630.067	0.0140784
630.145	0.0140367
630.223	0.0141637
630.301	0.0142567
630.379	0.0142712
630.457	0.0141965
630.535	0.0143114
630.613	0.0143509
630.692	0.0142677
630.770	0.0145794
630.848	0.0145131
630.926	0.0145656
631.004	0.0144701
631.082	0.0146204
631.160	0.0145097
631.238	0.0145189
631.317	0.0144939
631.395	0.0143886
631.473	0.0144518
631.551	0.0142510
631.629	0.0142441
631.707	0.0142262
631.785	0.0140532
631.863	0.0139114
631.942	0.0140460
632.020	0.0140131
632.098	0.0139543
632.176	0.0140405
632.254	0.0140020
632.332	0.0139782
632.410	0.0137794
632.488	0.0138514
632.567	0.0140713
632.645	0.0140542
632.723	0.0140900
632.801	0.0140171
632.879	0.0140668
632.957	0.0141248
633.035	0.0141293
633.113	0.0142699
633.192	0.0141964
633.270	0.0142814
633.348	0.0144292
633.426	0.0142850
633.504	0.0142971
633.582	0.0142899
633.660	0.0141945
633.738	0.0141522
633.817	0.0141672
633.895	0.0141940
633.973	0.0142277
634.051	0.0142272
634.129	0.0142283
634.207	0.0141779
634.285	0.0142295
634.363	0.0141901
634.442	0.0141805
634.520	0.0141615
634.598	0.0141948
634.676	0.0141489
634.754	0.0142044
634.832	0.0141295
634.910	0.0141955
634.988	0.0143039
635.067	0.0141302
635.145	0.0141100
635.223	0.0141981
635.301	0.0142550
635.379	0.0142257
635.457	0.0142432
635.535	0.0141000
635.613	0.0141521
635.692	0.0142440
635.770	0.0140860
635.848	0.0141079
635.926	0.0140990
636.004	0.0140382
636.082	0.0141167
636.160	0.0139870
636.238	0.0140953
636.317	0.0140024
636.395	0.0140462
636.473	0.0140607
636.551	0.0140705
636.629	0.0140018
636.707	0.0138216
636.785	0.0139795
636.863	0.0139097
636.942	0.0139663
637.020	0.0139835
637.098	0.0138768
637.176	0.0138618
637.254	0.0138582
637.332	0.0138350
637.410	0.0138788
637.488	0.0137844
637.567	0.0138666
637.645	0.0137230
637.723	0.0136612
637.801	0.0136932
637.879	0.0138426
637.957	0.0138587
638.035	0.0137402
638.113	0.0137736
638.192	0.0136640
638.270	0.0138194
638.348	0.0138689
638.426	0.0136677
638.504	0.0137670
638.582	0.0138081
638.660	0.0138203
638.738	0.0138163
638.817	0.0139137
638.895	0.0138174
638.973	0.0139117
639.051	0.0139935
639.129	0.0139968
639.207	0.0139058
639.285	0.0139324
639.363	0.0139931
639.442	0.0140091
639.520	0.0139865
639.598	0.0141973
639.676	0.0139619
639.754	0.0140428
639.832	0.0141000
639.910	0.0139234
639.988	0.0139712
640.067	0.0140359
640.145	0.0139516
640.223	0.0139709
640.301	0.0139977
640.379	0.0140025
640.457	0.0140113
640.535	0.0139175
640.613	0.0139696
640.692	0.0138854
640.770	0.0140036
640.848	0.0139812
640.926	0.0139182
641.004	0.0139642
641.082	0.0139364
641.160	0.0139446
641.238	0.0138879
641.317	0.0137932
641.395	0.0137425
641.473	0.0138312
641.551	0.0137634
641.629	0.0138488
641.707	0.0137515
641.785	0.0138879
641.863	0.0138463
641.942	0.0138728
642.020	0.0138992
642.098	0.0138702
642.176	0.0139130
642.254	0.0138798
642.332	0.0139066
642.410	0.0140321
642.488	0.0140004
642.567	0.0141435
642.645	0.0140927
642.723	0.0141821
642.801	0.0143040
642.879	0.0143909
642.957	0.0142891
643.035	0.0142406
643.113	0.0144367
643.192	0.0144911
643.270	0.0143208
643.348	0.0144396
643.426	0.0142086
643.504	0.0144741
643.582	0.0144163
643.660	0.0141835
643.738	0.0142713
643.817	0.0142128
643.895	0.0141497
643.973	0.0141346
644.051	0.0140346
644.129	0.0138651
644.207	0.0141292
644.285	0.0139893
644.363	0.0139252
644.442	0.0140187
644.520	0.0139975
644.598	0.0139334
644.676	0.0139339
644.754	0.0141736
644.832	0.0142663
644.910	0.0140861
644.988	0.0141206
645.067	0.0141904
645.145	0.0141090
645.223	0.0142544
645.301	0.0142444
645.379	0.0142522
645.457	0.0142918
645.535	0.0143433
645.613	0.0142513
645.692	0.0142825
645.770	0.0142731
645.848	0.0143202
645.926	0.0141997
646.004	0.0141614
646.082	0.0144092
646.160	0.0142910
646.238	0.0142909
646.317	0.0141483
646.395	0.0142113
646.473	0.0141068
646.551	0.0141498
646.629	0.0140519
646.707	0.0140585
646.785	0.0140693
646.863	0.0139759
646.942	0.0140478
647.020	0.0139563
647.098	0.0140673
647.176	0.0138680
647.254	0.0139398
647.332	0.0139056
647.410	0.0139183
647.488	0.0140833
647.567	0.0139832
647.645	0.0141438
647.723	0.0140204
647.801	0.0142274
647.879	0.0139725
647.957	0.0141286
648.035	0.0142632
648.113	0.0142445
648.192	0.0142241
648.270	0.0141724
648.348	0.0141965
648.426	0.0142470
648.504	0.0144184
648.582	0.0142444
648.660	0.0141569
648.738	0.0142140
648.817	0.0141037
648.895	0.0140576
648.973	0.0140867
649.051	0.0139748
649.129	0.0139436
649.207	0.0139439
649.285	0.0139481
649.363	0.0138412
649.442	0.0140227
649.520	0.0140060
649.598	0.0139664
649.676	0.0140501
649.754	0.0139676
649.832	0.0139188
649.910	0.0140170
649.988	0.0141350
650.067	0.0139598
650.145	0.0140731
650.223	0.0140406
650.301	0.0141715
650.379	0.0142115
650.457	0.0140512
650.535	0.0142109
650.613	0.0141828
650.692	0.0141419
650.770	0.0141061
650.848	0.0141926
650.926	0.0140354
651.004	0.0141358
651.082	0.0141467
651.160	0.0141274
651.238	0.0141512
651.317	0.0141571
651.395	0.0141664
651.473	0.0142139
651.551	0.0141476
651.629	0.0142091
651.707	0.0139991
651.785	0.0139890
651.863	0.0140092
651.942	0.0139923
652.020	0.0138655
652.098	0.0139325
652.176	0.0139787
652.254	0.0138263
652.332	0.0138053
652.410	0.0136539
652.488	0.0136906
652.567	0.0137791
652.645	0.0138730
652.723	0.0138442
652.801	0.0137539
652.879	0.0138515
652.957	0.0139243
653.035	0.0138354
653.113	0.0138792
653.192	0.0139587
653.270	0.0140807
653.348	0.0140897
653.426	0.0142470
653.504	0.0142408
653.582	0.0142165
653.660	0.0142741
653.738	0.0142665
653.817	0.0143909
653.895	0.0144270
653.973	0.0144186
654.051	0.0143864
654.129	0.0142414
654.207	0.0143143
654.285	0.0143927
654.363	0.0144096
654.442	0.0142825
654.520	0.0142974
654.598	0.0143272
654.676	0.0141698
654.754	0.0142725
654.832	0.0143036
654.910	0.0142746
654.988	0.0143736
655.067	0.0143190
655.145	0.0142648
655.223	0.0142738
655.301	0.0143570
655.379	0.0143616
655.457	0.0142196
655.535	0.0142610
655.613	0.0141444
655.692	0.0141566
655.770	0.0141959
655.848	0.0139948
655.926	0.0140395
656.004	0.0141354
656.082	0.0139433
656.160	0.0137610
656.238	0.0139431
656.317	0.0139063
656.395	0.0139311
656.473	0.0138539
656.551	0.0138566
656.629	0.0138350
656.707	0.0139010
656.785	0.0139432
656.863	0.0140623
656.942	0.0139720
657.020	0.0140869
657.098	0.0139409
657.176	0.0140315
657.254	0.0140017
657.332	0.0140290
657.410	0.0142484
657.488	0.0141459
657.567	0.0141666
657.645	0.0142632
657.723	0.0141727
657.801	0.0143063
657.879	0.0143439
657.957	0.0141150
658.035	0.0141119
658.113	0.0141772
658.192	0.0141014
658.270	0.0140551
658.348	0.0141138
658.426	0.0140680
658.504	0.0140353
658.582	0.0140924
658.660	0.0140005
658.738	0.0140640
658.817	0.0140802
658.895	0.0140513
658.973	0.0140695
659.051	0.0140124
659.129	0.0140419
659.207	0.0140768
659.285	0.0141817
659.363	0.0141223
659.442	0.0140620
659.520	0.0141908
659.598	0.0140852
659.676	0.0139761
659.754	0.0138667
659.832	0.0139497
659.910	0.0140587
659.988	0.0138935
660.067	0.0141313
660.145	0.0140214
660.223	0.0139709
660.301	0.0139745
660.379	0.0139632
660.457	0.0141016
660.535	0.0139899
660.613	0.0140075
660.692	0.0141177
660.770	0.0140579
660.848	0.0141600
660.926	0.0140816
661.004	0.0140876
661.082	0.0142284
661.160	0.0142531
661.238	0.0142639
661.317	0.0140813
661.395	0.0141389
661.473	0.0142569
661.551	0.0141548
661.629	0.0141711
661.707	0.0141026
661.785	0.0140792
661.863	0.0140820
661.942	0.0140393
662.020	0.0141584
662.098	0.0140366
662.176	0.0140368
662.254	0.0139861
662.332	0.0139909
662.410	0.0139544
662.488	0.0139681
662.567	0.0140465
662.645	0.0140454
662.723	0.0141313
662.801	0.0141191
662.879	0.0141098
662.957	0.0140620
663.035	0.0140208
663.113	0.0140099
663.192	0.0140024
663.270	0.0140414
663.348	0.0138688
663.426	0.0138198
663.504	0.0139151
663.582	0.0139252
663.660	0.0138412
663.738	0.0138358
663.817	0.0138535
663.895	0.0136979
663.973	0.0137848
664.051	0.0138680
664.129	0.0137049
664.207	0.0139234
664.285	0.0138810
664.363	0.0138802
664.442	0.0139449
664.520	0.0139983
664.598	0.0139550
664.676	0.0139653
664.754	0.0139471
664.832	0.0140314
664.910	0.0140669
664.988	0.0140601
665.067	0.0139680
665.145	0.0139654
665.223	0.0140287
665.301	0.0140945
665.379	0.0139924
665.457	0.0140697
665.535	0.0140041
665.613	0.0140746
665.692	0.0139742
665.770	0.0141080
665.848	0.0140269
665.926	0.0140987
666.004	0.0141174
666.082	0.0141269
666.160	0.0139566
666.238	0.0140414
666.317	0.0140078
666.395	0.0140022
666.473	0.0142219
666.551	0.0141562
666.629	0.0141514
666.707	0.0140645
666.785	0.0140907
666.863	0.0142818
666.942	0.0142570
667.020	0.0140474
667.098	0.0141850
667.176	0.0141568
667.254	0.0142142
667.332	0.0142735
667.410	0.0141839
667.488	0.0141960
667.567	0.0142796
667.645	0.0142874
667.723	0.0144624
667.801	0.0144424
667.879	0.0143958
667.957	0.0143773
668.035	0.0144137
668.113	0.0143477
668.192	0.0142960
668.270	0.0141637
668.348	0.0143041
668.426	0.0144421
668.504	0.0141561
668.582	0.0141991
668.660	0.0141122
668.738	0.0139663
668.817	0.0140218
668.895	0.0141779
668.973	0.0139862
669.051	0.0139075
669.129	0.0140637
669.207	0.0140085
669.285	0.0140104
669.363	0.0140267
669.442	0.0138442
669.520	0.0138955
669.598	0.0139003
669.676	0.0141873
669.754	0.0138548
669.832	0.0139835
669.910	0.0138864
669.988	0.0139467
670.067	0.0139318
670.145	0.0140266
670.223	0.0140308
670.301	0.0140759
670.379	0.0141030
670.457	0.0140939
670.535	0.0141430
670.613	0.0140672
670.692	0.0138963
670.770	0.0140269
670.848	0.0140052
670.926	0.0139420
671.004	0.0139410
671.082	0.0139405
671.160	0.0138494
671.238	0.0136802
671.317	0.0138901
671.395	0.0140162
671.473	0.0138499
671.551	0.0138413
671.629	0.0137734
671.707	0.0140392
671.785	0.0141527
671.863	0.0139656
671.942	0.0140364
672.020	0.0141217
672.098	0.0143461
672.176	0.0143583
672.254	0.0143644
672.332	0.0144919
672.410	0.0146756
672.488	0.0147056
672.567	0.0147044
672.645	0.0147229
672.723	0.0149442
672.801	0.0147581
672.879	0.0147373
672.957	0.0148053
673.035	0.0147427
673.113	0.0146825
673.192	0.0145196
673.270	0.0145305
673.348	0.0145345
673.426	0.0143962
673.504	0.0142651
673.582	0.0142313
673.660	0.0141901
673.738	0.0140779
673.817	0.0139485
673.895	0.0138685
673.973	0.0138567
674.051	0.0138927
674.129	0.0137644
674.207	0.0137165
674.285	0.0137377
674.363	0.0138257
674.442	0.0138628
674.520	0.0135657
674.598	0.0136389
674.676	0.0137129
674.754	0.0135354
674.832	0.0134822
674.910	0.0136439
674.988	0.0135314
675.067	0.0135667
675.145	0.0136230
675.223	0.0136833
675.301	0.0136597
675.379	0.0138375
675.457	0.0138927
675.535	0.0137233
675.613	0.0139285
675.692	0.0139407
675.770	0.0140691
675.848	0.0142358
675.926	0.0142085
676.004	0.0142510
676.082	0.0143694
676.160	0.0143983
676.238	0.0144755
676.317	0.0143761
676.395	0.0144361
676.473	0.0144621
676.551	0.0144357
676.629	0.0143257
676.707	0.0144284
676.785	0.0143388
676.863	0.0144056
676.942	0.0142989
677.020	0.0142021
677.098	0.0142057
677.176	0.0142171
677.254	0.0141843
677.332	0.0140171
677.410	0.0140125
677.488	0.0139843
677.567	0.0139014
677.645	0.0138618
677.723	0.0138863
677.801	0.0138908
677.879	0.0139400
677.957	0.0139899
678.035	0.0136915
678.113	0.0138210
678.192	0.0138392
678.270	0.0138538
678.348	0.0137923
678.426	0.0136480
678.504	0.0138090
678.582	0.0138145
678.660	0.0138036
678.738	0.0137412
678.817	0.0139210
678.895	0.0138282
678.973	0.0139401
679.051	0.0138523
679.129	0.0138498
679.207	0.0139085
679.285	0.0138740
679.363	0.0139295
679.442	0.0139578
679.520	0.0139373
679.598	0.0138928
679.676	0.0140057
679.754	0.0140800
679.832	0.0140772
679.910	0.0139937
679.988	0.0140370
680.067	0.0141729
680.145	0.0140234
680.223	0.0140243
680.301	0.0141068
680.379	0.0141033
680.457	0.0140833
680.535	0.0141074
680.613	0.0140706
680.692	0.0141240
680.770	0.0140521
680.848	0.0140359
680.926	0.0139433
681.004	0.0140115
681.082	0.0140060
681.160	0.0140034
681.238	0.0139529
681.317	0.0140388
681.395	0.0139639
681.473	0.0140301
681.551	0.0140028
681.629	0.0140340
681.707	0.0142041
681.785	0.0142406
681.863	0.0143509
681.942	0.0142065
682.020	0.0143777
682.098	0.0143085
682.176	0.0143901
682.254	0.0142604
682.332	0.0144068
682.410	0.0143591
682.488	0.0143821
682.567	0.0142258
682.645	0.0141221
682.723	0.0141508
682.801	0.0140369
682.879	0.0141000
682.957	0.0141335
683.035	0.0140149
683.113	0.0140701
683.192	0.0140253
683.270	0.0140428
683.348	0.0140985
683.426	0.0140744
683.504	0.0141389
683.582	0.0141142
683.660	0.0141241
683.738	0.0141386
683.817	0.0139909
683.895	0.0140862
683.973	0.0141776
684.051	0.0140569
684.129	0.0142004
684.207	0.0141766
684.285	0.0141367
684.363	0.0142151
684.442	0.0141899
684.520	0.0140314
684.598	0.0140833
684.676	0.0141786
684.754	0.0140932
684.832	0.0140880
684.910	0.0140252
684.988	0.0140480
685.067	0.0140677
685.145	0.0139806
685.223	0.0138655
685.301	0.0139053
685.379	0.0139319
685.457	0.0137747
685.535	0.0138763
685.613	0.0138322
685.692	0.0137792
