05/28/2022	14:37:17	Ver.	4.1	UNKNOWN
Optical Delay	599.988409	Delta X		0.078125	Sweeps	1	Scan Rate	0/0
Coordinates	Axis 1	NaN	Axis 2	NaN	Axis 3	NaN	Axis 4	NaN	Axis 5	NaN	Axis 6	0.000000
TX Power	0.000000	RX Power	0.000000

599.988	0.0144885
600.067	0.0145511
600.145	0.0144784
600.223	0.0144830
600.301	0.0145136
600.379	0.0144112
600.457	0.0144485
600.535	0.0144180
600.613	0.0144572
600.692	0.0144107
600.770	0.0144803
600.848	0.0145008
600.926	0.0143584
601.004	0.0145164
601.082	0.0144450
601.160	0.0144637
601.238	0.0144996
601.317	0.0144536
601.395	0.0144090
601.473	0.0145303
601.551	0.0145183
601.629	0.0143677
601.707	0.0144283
601.785	0.0144367
601.863	0.0143999
601.942	0.0144323
602.020	0.0145753
602.098	0.0143827
602.176	0.0143846
602.254	0.0141984
602.332	0.0143251
602.410	0.0143706
602.488	0.0143214
602.567	0.0142776
602.645	0.0143762
602.723	0.0142920
602.801	0.0142747
602.879	0.0143676
602.957	0.0143214
603.035	0.0143307
603.113	0.0142748
603.192	0.0143040
603.270	0.0142409
603.348	0.0141460
603.426	0.0142947
603.504	0.0143209
603.582	0.0141998
603.660	0.0142991
603.738	0.0142649
603.817	0.0143682
603.895	0.0143469
603.973	0.0142779
604.051	0.0142667
604.129	0.0141333
604.207	0.0142340
604.285	0.0143877
604.363	0.0142508
604.442	0.0141695
604.520	0.0142430
604.598	0.0141720
604.676	0.0142612
604.754	0.0141996
604.832	0.0140986
604.910	0.0142149
604.988	0.0142562
605.067	0.0143342
605.145	0.0142154
605.223	0.0143565
605.301	0.0142081
605.379	0.0141338
605.457	0.0142341
605.535	0.0142792
605.613	0.0142928
605.692	0.0142178
605.770	0.0142474
605.848	0.0141249
605.926	0.0141828
606.004	0.0142320
606.082	0.0142182
606.160	0.0140710
606.238	0.0142497
606.317	0.0142558
606.395	0.0141486
606.473	0.0141772
606.551	0.0143114
606.629	0.0140175
606.707	0.0141969
606.785	0.0141882
606.863	0.0141022
606.942	0.0142577
607.020	0.0142379
607.098	0.0141463
607.176	0.0141865
607.254	0.0143584
607.332	0.0144216
607.410	0.0143048
607.488	0.0141602
607.567	0.0142703
607.645	0.0142911
607.723	0.0142948
607.801	0.0143146
607.879	0.0143695
607.957	0.0143610
608.035	0.0143875
608.113	0.0143279
608.192	0.0143804
608.270	0.0142176
608.348	0.0143277
608.426	0.0143171
608.504	0.0142726
608.582	0.0142822
608.660	0.0142189
608.738	0.0142982
608.817	0.0142541
608.895	0.0142871
608.973	0.0143121
609.051	0.0144463
609.129	0.0143112
609.207	0.0143062
609.285	0.0144550
609.363	0.0143871
609.442	0.0144602
609.520	0.0143575
609.598	0.0143082
609.676	0.0142791
609.754	0.0144736
609.832	0.0144726
609.910	0.0143404
609.988	0.0143331
610.067	0.0144973
610.145	0.0144163
610.223	0.0143871
610.301	0.0144439
610.379	0.0144694
610.457	0.0143511
610.535	0.0144071
610.613	0.0143558
610.692	0.0143964
610.770	0.0145505
610.848	0.0143288
610.926	0.0145057
611.004	0.0144821
611.082	0.0146655
611.160	0.0145153
611.238	0.0145422
611.317	0.0145315
611.395	0.0145653
611.473	0.0144408
611.551	0.0144847
611.629	0.0145268
611.707	0.0145297
611.785	0.0144860
611.863	0.0144834
611.942	0.0144917
612.020	0.0146312
612.098	0.0145856
612.176	0.0146523
612.254	0.0146371
612.332	0.0143882
612.410	0.0145860
612.488	0.0145724
612.567	0.0143706
612.645	0.0145231
612.723	0.0145431
612.801	0.0145251
612.879	0.0145586
612.957	0.0145174
613.035	0.0144476
613.113	0.0145650
613.192	0.0145927
613.270	0.0145529
613.348	0.0145236
613.426	0.0144537
613.504	0.0145486
613.582	0.0144053
613.660	0.0144047
613.738	0.0143644
613.817	0.0143187
613.895	0.0144329
613.973	0.0145814
614.051	0.0144463
614.129	0.0143581
614.207	0.0144095
614.285	0.0143761
614.363	0.0142384
614.442	0.0143526
614.520	0.0144466
614.598	0.0145021
614.676	0.0143697
614.754	0.0144650
614.832	0.0145007
614.910	0.0143661
614.988	0.0143369
615.067	0.0144749
615.145	0.0145664
615.223	0.0144277
615.301	0.0143528
615.379	0.0143101
615.457	0.0144263
615.535	0.0143124
615.613	0.0144756
615.692	0.0144415
615.770	0.0145137
615.848	0.0144139
615.926	0.0143336
616.004	0.0144637
616.082	0.0143835
616.160	0.0143322
616.238	0.0143747
616.317	0.0143356
616.395	0.0143549
616.473	0.0143594
616.551	0.0144456
616.629	0.0144530
616.707	0.0144212
616.785	0.0143949
616.863	0.0145088
616.942	0.0143170
617.020	0.0145428
617.098	0.0144933
617.176	0.0144894
617.254	0.0144214
617.332	0.0143819
617.410	0.0144914
617.488	0.0145499
617.567	0.0142566
617.645	0.0143566
617.723	0.0143552
617.801	0.0143198
617.879	0.0143072
617.957	0.0143896
618.035	0.0143715
618.113	0.0141685
618.192	0.0143841
618.270	0.0144118
618.348	0.0143683
618.426	0.0142364
618.504	0.0142293
618.582	0.0143436
618.660	0.0143277
618.738	0.0144676
618.817	0.0144269
618.895	0.0144322
618.973	0.0145439
619.051	0.0145599
619.129	0.0145442
619.207	0.0147029
619.285	0.0144770
619.363	0.0146645
619.442	0.0146606
619.520	0.0146751
619.598	0.0146685
619.676	0.0147161
619.754	0.0146960
619.832	0.0146436
619.910	0.0146272
619.988	0.0144756
620.067	0.0145356
620.145	0.0144906
620.223	0.0145215
620.301	0.0144875
620.379	0.0145549
620.457	0.0145705
620.535	0.0142796
620.613	0.0143829
620.692	0.0143731
620.770	0.0144216
620.848	0.0144057
620.926	0.0144530
621.004	0.0144504
621.082	0.0144302
621.160	0.0145126
621.238	0.0145732
621.317	0.0145863
621.395	0.0145605
621.473	0.0146007
621.551	0.0146903
621.629	0.0146670
621.707	0.0146158
621.785	0.0146308
621.863	0.0145834
621.942	0.0145059
622.020	0.0144782
622.098	0.0144969
622.176	0.0144580
622.254	0.0143829
622.332	0.0146401
622.410	0.0145164
622.488	0.0145156
622.567	0.0146542
622.645	0.0145362
622.723	0.0144570
622.801	0.0143488
622.879	0.0145433
622.957	0.0144678
623.035	0.0143394
623.113	0.0144433
623.192	0.0143671
623.270	0.0144347
623.348	0.0142892
623.426	0.0143320
623.504	0.0144154
623.582	0.0142780
623.660	0.0142722
623.738	0.0143948
623.817	0.0144200
623.895	0.0144250
623.973	0.0143834
624.051	0.0144477
624.129	0.0144814
624.207	0.0146197
624.285	0.0145393
624.363	0.0145997
624.442	0.0147292
624.520	0.0147151
624.598	0.0146043
624.676	0.0147171
624.754	0.0146481
624.832	0.0146347
624.910	0.0147481
624.988	0.0146028
625.067	0.0146760
625.145	0.0145724
625.223	0.0144861
625.301	0.0144569
625.379	0.0145500
625.457	0.0144717
625.535	0.0143532
625.613	0.0143307
625.692	0.0143474
625.770	0.0143288
625.848	0.0141420
625.926	0.0142642
626.004	0.0141143
626.082	0.0141362
626.160	0.0141186
626.238	0.0139153
626.317	0.0138956
626.395	0.0140618
626.473	0.0140697
626.551	0.0139026
626.629	0.0139172
626.707	0.0141260
626.785	0.0141279
626.863	0.0140360
626.942	0.0140331
627.020	0.0140794
627.098	0.0140342
627.176	0.0141698
627.254	0.0142359
627.332	0.0141687
627.410	0.0141883
627.488	0.0141686
627.567	0.0140556
627.645	0.0141331
627.723	0.0139423
627.801	0.0142846
627.879	0.0142580
627.957	0.0141534
628.035	0.0139815
628.113	0.0141560
628.192	0.0139902
628.270	0.0140350
628.348	0.0141728
628.426	0.0140607
628.504	0.0140955
628.582	0.0141407
628.660	0.0139814
628.738	0.0141075
628.817	0.0140976
628.895	0.0141113
628.973	0.0140839
629.051	0.0140498
629.129	0.0141501
629.207	0.0142361
629.285	0.0142230
629.363	0.0142780
629.442	0.0143120
629.520	0.0143092
629.598	0.0144916
629.676	0.0144216
629.754	0.0144418
629.832	0.0146491
629.910	0.0146260
629.988	0.0146336
630.067	0.0145772
630.145	0.0146001
630.223	0.0146317
630.301	0.0147001
630.379	0.0145775
630.457	0.0143988
630.535	0.0144512
630.613	0.0144240
630.692	0.0143757
630.770	0.0144310
630.848	0.0142686
630.926	0.0144103
631.004	0.0142927
631.082	0.0141850
631.160	0.0141010
631.238	0.0142509
631.317	0.0142088
631.395	0.0141601
631.473	0.0141350
631.551	0.0141597
631.629	0.0141650
631.707	0.0143327
631.785	0.0142064
631.863	0.0142577
631.942	0.0143282
632.020	0.0144623
632.098	0.0143797
632.176	0.0143440
632.254	0.0142762
632.332	0.0143774
632.410	0.0144534
632.488	0.0144257
632.567	0.0144791
632.645	0.0143886
632.723	0.0142673
632.801	0.0143864
632.879	0.0145083
632.957	0.0145028
633.035	0.0143310
633.113	0.0143799
633.192	0.0145795
633.270	0.0145148
633.348	0.0144516
633.426	0.0143133
633.504	0.0143999
633.582	0.0143566
633.660	0.0142918
633.738	0.0144613
633.817	0.0143433
633.895	0.0143365
633.973	0.0144509
634.051	0.0144998
634.129	0.0144755
634.207	0.0144171
634.285	0.0145248
634.363	0.0146325
634.442	0.0144975
634.520	0.0143347
634.598	0.0144647
634.676	0.0145667
634.754	0.0145801
634.832	0.0145435
634.910	0.0146107
634.988	0.0145610
635.067	0.0145423
635.145	0.0146001
635.223	0.0145612
635.301	0.0145333
635.379	0.0144991
635.457	0.0143738
635.535	0.0143464
635.613	0.0144109
635.692	0.0143394
635.770	0.0142048
635.848	0.0143642
635.926	0.0144272
636.004	0.0145215
636.082	0.0143904
636.160	0.0143696
636.238	0.0142963
636.317	0.0143289
636.395	0.0143367
636.473	0.0143590
636.551	0.0143127
636.629	0.0143255
636.707	0.0143000
636.785	0.0141396
636.863	0.0144176
636.942	0.0143191
637.020	0.0142829
637.098	0.0142165
637.176	0.0143241
637.254	0.0143638
637.332	0.0143428
637.410	0.0143636
637.488	0.0142450
637.567	0.0142409
637.645	0.0142725
637.723	0.0143746
637.801	0.0143465
637.879	0.0144675
637.957	0.0142779
638.035	0.0143873
638.113	0.0144611
638.192	0.0144660
638.270	0.0145144
638.348	0.0146572
638.426	0.0146817
638.504	0.0147910
638.582	0.0144913
638.660	0.0144474
638.738	0.0145885
638.817	0.0145687
638.895	0.0145257
638.973	0.0145713
639.051	0.0145529
639.129	0.0146853
639.207	0.0146083
639.285	0.0145793
639.363	0.0145186
639.442	0.0146167
639.520	0.0145857
639.598	0.0144785
639.676	0.0145219
639.754	0.0143719
639.832	0.0143121
639.910	0.0143820
639.988	0.0143694
640.067	0.0143730
640.145	0.0143644
640.223	0.0142557
640.301	0.0144006
640.379	0.0142155
640.457	0.0144028
640.535	0.0142851
640.613	0.0143277
640.692	0.0143788
640.770	0.0143539
640.848	0.0142892
640.926	0.0143437
641.004	0.0142777
641.082	0.0144139
641.160	0.0143040
641.238	0.0143970
641.317	0.0143446
641.395	0.0143525
641.473	0.0143989
641.551	0.0144448
641.629	0.0143751
641.707	0.0143919
641.785	0.0144034
641.863	0.0146752
641.942	0.0144290
642.020	0.0144619
642.098	0.0145289
642.176	0.0146714
642.254	0.0145702
642.332	0.0146127
642.410	0.0147488
642.488	0.0147048
642.567	0.0148185
642.645	0.0146522
642.723	0.0146329
642.801	0.0147376
642.879	0.0147790
642.957	0.0146870
643.035	0.0145597
643.113	0.0144132
643.192	0.0145320
643.270	0.0145928
643.348	0.0143348
643.426	0.0144017
643.504	0.0143352
643.582	0.0144586
643.660	0.0142327
643.738	0.0143376
643.817	0.0142432
643.895	0.0141895
643.973	0.0142691
644.051	0.0141894
644.129	0.0141858
644.207	0.0143668
644.285	0.0143655
644.363	0.0141360
644.442	0.0142599
644.520	0.0143883
644.598	0.0144643
644.676	0.0144871
644.754	0.0144167
644.832	0.0144870
644.910	0.0145335
644.988	0.0144982
645.067	0.0144501
645.145	0.0143869
645.223	0.0144732
645.301	0.0145098
645.379	0.0144634
645.457	0.0145065
645.535	0.0145224
645.613	0.0144074
645.692	0.0145818
645.770	0.0145266
645.848	0.0144385
645.926	0.0143571
646.004	0.0145084
646.082	0.0144656
646.160	0.0142301
646.238	0.0143212
646.317	0.0143169
646.395	0.0142447
646.473	0.0143771
646.551	0.0142795
646.629	0.0144231
646.707	0.0142712
646.785	0.0143621
646.863	0.0143331
646.942	0.0143773
647.020	0.0143380
647.098	0.0145609
647.176	0.0145998
647.254	0.0144211
647.332	0.0143998
647.410	0.0146189
647.488	0.0146177
647.567	0.0146017
647.645	0.0145335
647.723	0.0146455
647.801	0.0146107
647.879	0.0146194
647.957	0.0148589
648.035	0.0147148
648.113	0.0145335
648.192	0.0144700
648.270	0.0145812
648.348	0.0144564
648.426	0.0144674
648.504	0.0144530
648.582	0.0143182
648.660	0.0145041
648.738	0.0143407
648.817	0.0143652
648.895	0.0144486
648.973	0.0143058
649.051	0.0141593
649.129	0.0143314
649.207	0.0143127
649.285	0.0141201
649.363	0.0140913
649.442	0.0141711
649.520	0.0142099
649.598	0.0143285
649.676	0.0142230
649.754	0.0141397
649.832	0.0141304
649.910	0.0141074
649.988	0.0141544
650.067	0.0142482
650.145	0.0143813
650.223	0.0143820
650.301	0.0143896
650.379	0.0145400
650.457	0.0145105
650.535	0.0145041
650.613	0.0146296
650.692	0.0145795
650.770	0.0146239
650.848	0.0144913
650.926	0.0146246
651.004	0.0146748
651.082	0.0145822
651.160	0.0145071
651.238	0.0145996
651.317	0.0145053
651.395	0.0143429
651.473	0.0142636
651.551	0.0141221
651.629	0.0140736
651.707	0.0142565
651.785	0.0142677
651.863	0.0142063
651.942	0.0141509
652.020	0.0140719
652.098	0.0140686
652.176	0.0140038
652.254	0.0141418
652.332	0.0141940
652.410	0.0140762
652.488	0.0141721
652.567	0.0143567
652.645	0.0144015
652.723	0.0143827
652.801	0.0144823
652.879	0.0144946
652.957	0.0144675
653.035	0.0143833
653.113	0.0145560
653.192	0.0144677
653.270	0.0144582
653.348	0.0145498
653.426	0.0143673
653.504	0.0145200
653.582	0.0143942
653.660	0.0143587
653.738	0.0143498
653.817	0.0144737
653.895	0.0143733
653.973	0.0144836
654.051	0.0143233
654.129	0.0145204
654.207	0.0142905
654.285	0.0144499
654.363	0.0144054
654.442	0.0144808
654.520	0.0143689
654.598	0.0143046
654.676	0.0144348
654.754	0.0143649
654.832	0.0143581
654.910	0.0143724
654.988	0.0143253
655.067	0.0143677
655.145	0.0143974
655.223	0.0143391
655.301	0.0144726
655.379	0.0144066
655.457	0.0145728
655.535	0.0143976
655.613	0.0142450
655.692	0.0143336
655.770	0.0144785
655.848	0.0142878
655.926	0.0143210
656.004	0.0141963
656.082	0.0142847
656.160	0.0142502
656.238	0.0144074
656.317	0.0143188
656.395	0.0142112
656.473	0.0141223
656.551	0.0142896
656.629	0.0144153
656.707	0.0142977
656.785	0.0143954
656.863	0.0143124
656.942	0.0143504
657.020	0.0142094
657.098	0.0143908
657.176	0.0144473
657.254	0.0144027
657.332	0.0144801
657.410	0.0146013
657.488	0.0143626
657.567	0.0144605
657.645	0.0145644
657.723	0.0144283
657.801	0.0146272
657.879	0.0147183
657.957	0.0145299
658.035	0.0145719
658.113	0.0143382
658.192	0.0144476
658.270	0.0145133
658.348	0.0144411
658.426	0.0143796
658.504	0.0145301
658.582	0.0144270
658.660	0.0144347
658.738	0.0144592
658.817	0.0144573
658.895	0.0144118
658.973	0.0144397
659.051	0.0143416
659.129	0.0142116
659.207	0.0143549
659.285	0.0143820
659.363	0.0144521
659.442	0.0143759
659.520	0.0144018
659.598	0.0145322
659.676	0.0145306
659.754	0.0143874
659.832	0.0143748
659.910	0.0144440
659.988	0.0143400
660.067	0.0143702
660.145	0.0143678
660.223	0.0143874
660.301	0.0143019
660.379	0.0144970
660.457	0.0142776
660.535	0.0144135
660.613	0.0143314
660.692	0.0144129
660.770	0.0145416
660.848	0.0144430
660.926	0.0143864
661.004	0.0142363
661.082	0.0143073
661.160	0.0144077
661.238	0.0143324
661.317	0.0143654
661.395	0.0144546
661.473	0.0143613
661.551	0.0143775
661.629	0.0142744
661.707	0.0141949
661.785	0.0143403
661.863	0.0143330
661.942	0.0144527
662.020	0.0142722
662.098	0.0143159
662.176	0.0144054
662.254	0.0143362
662.332	0.0143420
662.410	0.0143750
662.488	0.0144145
662.567	0.0142561
662.645	0.0142828
662.723	0.0144175
662.801	0.0142992
662.879	0.0144736
662.957	0.0144051
663.035	0.0145286
663.113	0.0144344
663.192	0.0145054
663.270	0.0145705
663.348	0.0144999
663.426	0.0144592
663.504	0.0143757
663.582	0.0144349
663.660	0.0143017
663.738	0.0142994
663.817	0.0143092
663.895	0.0141936
663.973	0.0142236
664.051	0.0141833
664.129	0.0141269
664.207	0.0141487
664.285	0.0141033
664.363	0.0140391
664.442	0.0140649
664.520	0.0140804
664.598	0.0141790
664.676	0.0143365
664.754	0.0143687
664.832	0.0141914
664.910	0.0143062
664.988	0.0141821
665.067	0.0144326
665.145	0.0145197
665.223	0.0145754
665.301	0.0143188
665.379	0.0143861
665.457	0.0145023
665.535	0.0145770
665.613	0.0145115
665.692	0.0144544
665.770	0.0143195
665.848	0.0143332
665.926	0.0143478
666.004	0.0144215
666.082	0.0143781
666.160	0.0143015
666.238	0.0143681
666.317	0.0144576
666.395	0.0144390
666.473	0.0143057
666.551	0.0143886
666.629	0.0143918
666.707	0.0143669
666.785	0.0143765
666.863	0.0142529
666.942	0.0143246
667.020	0.0143507
667.098	0.0144413
667.176	0.0143942
667.254	0.0143241
667.332	0.0142189
667.410	0.0141742
667.488	0.0141847
667.567	0.0143069
667.645	0.0143848
667.723	0.0141707
667.801	0.0141244
667.879	0.0142024
667.957	0.0143023
668.035	0.0141201
668.113	0.0142018
668.192	0.0143764
668.270	0.0142901
668.348	0.0142562
668.426	0.0143042
668.504	0.0143015
668.582	0.0142399
668.660	0.0143625
668.738	0.0143578
668.817	0.0144909
668.895	0.0143418
668.973	0.0141965
669.051	0.0142203
669.129	0.0141828
669.207	0.0140982
669.285	0.0141214
669.363	0.0141269
669.442	0.0140740
669.520	0.0139338
669.598	0.0141071
669.676	0.0141488
669.754	0.0141159
669.832	0.0141217
669.910	0.0140805
669.988	0.0141362
670.067	0.0141428
670.145	0.0140015
670.223	0.0140350
670.301	0.0142778
670.379	0.0141396
670.457	0.0141495
670.535	0.0141677
670.613	0.0141794
670.692	0.0143404
670.770	0.0142902
670.848	0.0143720
670.926	0.0143349
671.004	0.0142805
671.082	0.0144440
671.160	0.0143116
671.238	0.0143560
671.317	0.0144973
671.395	0.0142578
671.473	0.0145065
671.551	0.0144186
671.629	0.0144337
671.707	0.0146585
671.785	0.0145992
671.863	0.0145760
671.942	0.0146358
672.020	0.0145158
672.098	0.0144261
672.176	0.0146391
672.254	0.0145250
672.332	0.0145142
672.410	0.0145018
672.488	0.0145963
672.567	0.0144635
672.645	0.0143708
672.723	0.0143031
672.801	0.0143890
672.879	0.0144164
672.957	0.0144324
673.035	0.0142467
673.113	0.0143376
673.192	0.0142500
673.270	0.0143839
673.348	0.0143060
673.426	0.0143456
673.504	0.0144948
673.582	0.0143312
673.660	0.0143656
673.738	0.0145181
673.817	0.0143794
673.895	0.0143317
673.973	0.0145387
674.051	0.0146548
674.129	0.0145155
674.207	0.0146630
674.285	0.0145601
674.363	0.0145054
674.442	0.0145641
674.520	0.0144569
674.598	0.0144504
674.676	0.0144947
674.754	0.0142563
674.832	0.0141695
674.910	0.0143179
674.988	0.0142293
675.067	0.0142786
675.145	0.0142783
675.223	0.0143153
675.301	0.0141328
675.379	0.0141735
675.457	0.0141576
675.535	0.0142223
675.613	0.0142400
675.692	0.0143112
675.770	0.0142038
675.848	0.0142414
675.926	0.0142210
676.004	0.0141305
676.082	0.0143192
676.160	0.0142322
676.238	0.0142744
676.317	0.0142419
676.395	0.0142184
676.473	0.0143800
676.551	0.0143684
676.629	0.0143869
676.707	0.0143260
676.785	0.0145126
676.863	0.0144335
676.942	0.0144420
677.020	0.0143938
677.098	0.0145245
677.176	0.0143724
677.254	0.0145094
677.332	0.0145407
677.410	0.0145810
677.488	0.0146439
677.567	0.0147169
677.645	0.0145613
677.723	0.0144647
677.801	0.0144791
677.879	0.0147080
677.957	0.0145573
678.035	0.0145580
678.113	0.0145529
678.192	0.0143708
678.270	0.0146989
678.348	0.0145766
678.426	0.0144582
678.504	0.0145019
678.582	0.0142534
678.660	0.0143035
678.738	0.0143834
678.817	0.0142838
678.895	0.0143645
678.973	0.0143877
679.051	0.0142908
679.129	0.0144104
679.207	0.0142799
679.285	0.0144183
679.363	0.0143369
679.442	0.0143071
679.520	0.0143455
679.598	0.0143401
679.676	0.0142271
679.754	0.0142316
679.832	0.0142012
679.910	0.0141784
679.988	0.0143188
680.067	0.0142386
680.145	0.0140376
680.223	0.0140625
680.301	0.0141518
680.379	0.0140715
680.457	0.0140646
680.535	0.0140314
680.613	0.0141549
680.692	0.0141514
680.770	0.0141573
680.848	0.0141367
680.926	0.0141508
681.004	0.0142219
681.082	0.0142674
681.160	0.0141911
681.238	0.0141145
681.317	0.0143701
681.395	0.0143217
681.473	0.0143731
681.551	0.0142159
681.629	0.0143472
681.707	0.0144986
681.785	0.0144672
681.863	0.0145463
681.942	0.0146703
682.020	0.0145258
682.098	0.0145052
682.176	0.0145617
682.254	0.0144567
682.332	0.0144150
682.410	0.0146339
682.488	0.0145014
682.567	0.0144141
682.645	0.0143184
682.723	0.0144657
682.801	0.0144167
682.879	0.0144434
682.957	0.0144719
683.035	0.0145919
683.113	0.0143136
683.192	0.0142811
683.270	0.0142498
683.348	0.0142963
683.426	0.0142696
683.504	0.0143991
683.582	0.0143281
683.660	0.0142834
683.738	0.0142254
683.817	0.0143095
683.895	0.0142241
683.973	0.0140585
684.051	0.0139508
684.129	0.0141748
684.207	0.0141647
684.285	0.0140603
684.363	0.0141457
684.442	0.0140603
684.520	0.0140715
684.598	0.0141051
684.676	0.0139922
684.754	0.0140302
684.832	0.0141721
684.910	0.0141637
684.988	0.0139751
685.067	0.0140961
685.145	0.0141419
685.223	0.0141329
685.301	0.0142693
685.379	0.0144659
685.457	0.0144504
685.535	0.0143969
685.613	0.0144628
685.692	0.0145405
