05/28/2022	13:53:50	Ver.	4.1	UNKNOWN
Optical Delay	599.988409	Delta X		0.078125	Sweeps	1	Scan Rate	0/0
Coordinates	Axis 1	NaN	Axis 2	NaN	Axis 3	NaN	Axis 4	NaN	Axis 5	NaN	Axis 6	0.000000
TX Power	0.000000	RX Power	0.000000

599.988	0.0144514
600.067	0.0144854
600.145	0.0144914
600.223	0.0144649
600.301	0.0143558
600.379	0.0144066
600.457	0.0143637
600.535	0.0144678
600.613	0.0143858
600.692	0.0145123
600.770	0.0144619
600.848	0.0142776
600.926	0.0145962
601.004	0.0144917
601.082	0.0146228
601.160	0.0145791
601.238	0.0143817
601.317	0.0143682
601.395	0.0144740
601.473	0.0145508
601.551	0.0144695
601.629	0.0144418
601.707	0.0145473
601.785	0.0144656
601.863	0.0144536
601.942	0.0145162
602.020	0.0145686
602.098	0.0145412
602.176	0.0143589
602.254	0.0144265
602.332	0.0144946
602.410	0.0145387
602.488	0.0145272
602.567	0.0143492
602.645	0.0145757
602.723	0.0144690
602.801	0.0145028
602.879	0.0144775
602.957	0.0144868
603.035	0.0145283
603.113	0.0144759
603.192	0.0143858
603.270	0.0143763
603.348	0.0146625
603.426	0.0144879
603.504	0.0143573
603.582	0.0144556
603.660	0.0144792
603.738	0.0144914
603.817	0.0145663
603.895	0.0144475
603.973	0.0143758
604.051	0.0144793
604.129	0.0143384
604.207	0.0146132
604.285	0.0145074
604.363	0.0144263
604.442	0.0143848
604.520	0.0143701
604.598	0.0144247
604.676	0.0145571
604.754	0.0143954
604.832	0.0145325
604.910	0.0144949
604.988	0.0145860
605.067	0.0144650
605.145	0.0144463
605.223	0.0144589
605.301	0.0145210
605.379	0.0145787
605.457	0.0144035
605.535	0.0144017
605.613	0.0144650
605.692	0.0144778
605.770	0.0144377
605.848	0.0143995
605.926	0.0143587
606.004	0.0146191
606.082	0.0146013
606.160	0.0144582
606.238	0.0144607
606.317	0.0144641
606.395	0.0145342
606.473	0.0144972
606.551	0.0144724
606.629	0.0143652
606.707	0.0144283
606.785	0.0144384
606.863	0.0145077
606.942	0.0145062
607.020	0.0145255
607.098	0.0143978
607.176	0.0143947
607.254	0.0144659
607.332	0.0144737
607.410	0.0144016
607.488	0.0145042
607.567	0.0145798
607.645	0.0144389
607.723	0.0145332
607.801	0.0144800
607.879	0.0144724
607.957	0.0145128
608.035	0.0146630
608.113	0.0143736
608.192	0.0145340
608.270	0.0145242
608.348	0.0144411
608.426	0.0144289
608.504	0.0145242
608.582	0.0145235
608.660	0.0145728
608.738	0.0145479
608.817	0.0145464
608.895	0.0144698
608.973	0.0144284
609.051	0.0145030
609.129	0.0144812
609.207	0.0144083
609.285	0.0144789
609.363	0.0144730
609.442	0.0144627
609.520	0.0144875
609.598	0.0142483
609.676	0.0145138
609.754	0.0144067
609.832	0.0144802
609.910	0.0144822
609.988	0.0144679
610.067	0.0144891
610.145	0.0143149
610.223	0.0143495
610.301	0.0144478
610.379	0.0144168
610.457	0.0144701
610.535	0.0143702
610.613	0.0143523
610.692	0.0144111
610.770	0.0143483
610.848	0.0144077
610.926	0.0145187
611.004	0.0144433
611.082	0.0144391
611.160	0.0143384
611.238	0.0144376
611.317	0.0144484
611.395	0.0145051
611.473	0.0145106
611.551	0.0144212
611.629	0.0145586
611.707	0.0145948
611.785	0.0144411
611.863	0.0144190
611.942	0.0144496
612.020	0.0145095
612.098	0.0143816
612.176	0.0144704
612.254	0.0144452
612.332	0.0143317
612.410	0.0144434
612.488	0.0143995
612.567	0.0143291
612.645	0.0144047
612.723	0.0145916
612.801	0.0145345
612.879	0.0144537
612.957	0.0144924
613.035	0.0144604
613.113	0.0145656
613.192	0.0144984
613.270	0.0144150
613.348	0.0145438
613.426	0.0145468
613.504	0.0145306
613.582	0.0144507
613.660	0.0146533
613.738	0.0145380
613.817	0.0144615
613.895	0.0143628
613.973	0.0143542
614.051	0.0145111
614.129	0.0144658
614.207	0.0145203
614.285	0.0144863
614.363	0.0144816
614.442	0.0145085
614.520	0.0145103
614.598	0.0144240
614.676	0.0144388
614.754	0.0144255
614.832	0.0144746
614.910	0.0144138
614.988	0.0144227
615.067	0.0144218
615.145	0.0144705
615.223	0.0146693
615.301	0.0143846
615.379	0.0142615
615.457	0.0145097
615.535	0.0144507
615.613	0.0145258
615.692	0.0143768
615.770	0.0144538
615.848	0.0145250
615.926	0.0144249
616.004	0.0144935
616.082	0.0144127
616.160	0.0145170
616.238	0.0144153
616.317	0.0144518
616.395	0.0144701
616.473	0.0143661
616.551	0.0143990
616.629	0.0145293
616.707	0.0146194
616.785	0.0144995
616.863	0.0144511
616.942	0.0143978
617.020	0.0145206
617.098	0.0145151
617.176	0.0144466
617.254	0.0143645
617.332	0.0146774
617.410	0.0144715
617.488	0.0144617
617.567	0.0144550
617.645	0.0143707
617.723	0.0144485
617.801	0.0144120
617.879	0.0143906
617.957	0.0145954
618.035	0.0143998
618.113	0.0143028
618.192	0.0145010
618.270	0.0145804
618.348	0.0144141
618.426	0.0144707
618.504	0.0143880
618.582	0.0145163
618.660	0.0143585
618.738	0.0145245
618.817	0.0145178
618.895	0.0144482
618.973	0.0144696
619.051	0.0145547
619.129	0.0146320
619.207	0.0144992
619.285	0.0144046
619.363	0.0144588
619.442	0.0144647
619.520	0.0143952
619.598	0.0143925
619.676	0.0145285
619.754	0.0143164
619.832	0.0144805
619.910	0.0144308
619.988	0.0143931
620.067	0.0144141
620.145	0.0143279
620.223	0.0145210
620.301	0.0144990
620.379	0.0144809
620.457	0.0143772
620.535	0.0143287
620.613	0.0144239
620.692	0.0144909
620.770	0.0145007
620.848	0.0144016
620.926	0.0144370
621.004	0.0144381
621.082	0.0142963
621.160	0.0143591
621.238	0.0144003
621.317	0.0144176
621.395	0.0143638
621.473	0.0143733
621.551	0.0144671
621.629	0.0144260
621.707	0.0144025
621.785	0.0144425
621.863	0.0144595
621.942	0.0144990
622.020	0.0145022
622.098	0.0145304
622.176	0.0143523
622.254	0.0143762
622.332	0.0144896
622.410	0.0145388
622.488	0.0143559
622.567	0.0145118
622.645	0.0145379
622.723	0.0144191
622.801	0.0143260
622.879	0.0144930
622.957	0.0144637
623.035	0.0143709
623.113	0.0144563
623.192	0.0144785
623.270	0.0144463
623.348	0.0144402
623.426	0.0145164
623.504	0.0145650
623.582	0.0145001
623.660	0.0143808
623.738	0.0145676
623.817	0.0146472
623.895	0.0142778
623.973	0.0144363
624.051	0.0145045
624.129	0.0144439
624.207	0.0143747
624.285	0.0144166
624.363	0.0145140
624.442	0.0145166
624.520	0.0145129
624.598	0.0145539
624.676	0.0145283
624.754	0.0145058
624.832	0.0144474
624.910	0.0145044
624.988	0.0144260
625.067	0.0143362
625.145	0.0144716
625.223	0.0144691
625.301	0.0144206
625.379	0.0144997
625.457	0.0144740
625.535	0.0144521
625.613	0.0146198
625.692	0.0146509
625.770	0.0144210
625.848	0.0145554
625.926	0.0144961
626.004	0.0144620
626.082	0.0143985
626.160	0.0144303
626.238	0.0145893
626.317	0.0145501
626.395	0.0144932
626.473	0.0144617
626.551	0.0144186
626.629	0.0144695
626.707	0.0145123
626.785	0.0143671
626.863	0.0143620
626.942	0.0143758
627.020	0.0145391
627.098	0.0144112
627.176	0.0143376
627.254	0.0144667
627.332	0.0145213
627.410	0.0144529
627.488	0.0145657
627.567	0.0144383
627.645	0.0144152
627.723	0.0145820
627.801	0.0146126
627.879	0.0145843
627.957	0.0144389
628.035	0.0143993
628.113	0.0146564
628.192	0.0142332
628.270	0.0144239
628.348	0.0144130
628.426	0.0144613
628.504	0.0144579
628.582	0.0143252
628.660	0.0145835
628.738	0.0144894
628.817	0.0143951
628.895	0.0143384
628.973	0.0143592
629.051	0.0143336
629.129	0.0144740
629.207	0.0145332
629.285	0.0144813
629.363	0.0144060
629.442	0.0144131
629.520	0.0144683
629.598	0.0144065
629.676	0.0144552
629.754	0.0145180
629.832	0.0146103
629.910	0.0145142
629.988	0.0144672
630.067	0.0144234
630.145	0.0144610
630.223	0.0145504
630.301	0.0145541
630.379	0.0143462
630.457	0.0144824
630.535	0.0145688
630.613	0.0143597
630.692	0.0145341
630.770	0.0145233
630.848	0.0144938
630.926	0.0144835
631.004	0.0144106
631.082	0.0143543
631.160	0.0145683
631.238	0.0146169
631.317	0.0145372
631.395	0.0145553
631.473	0.0144212
631.551	0.0145642
631.629	0.0144508
631.707	0.0144604
631.785	0.0145345
631.863	0.0144464
631.942	0.0144638
632.020	0.0143859
632.098	0.0145182
632.176	0.0143847
632.254	0.0144622
632.332	0.0144698
632.410	0.0144887
632.488	0.0144489
632.567	0.0145593
632.645	0.0145083
632.723	0.0144749
632.801	0.0144987
632.879	0.0146073
632.957	0.0146027
633.035	0.0144561
633.113	0.0146080
633.192	0.0144215
633.270	0.0144875
633.348	0.0144799
633.426	0.0145132
633.504	0.0145232
633.582	0.0145146
633.660	0.0144502
633.738	0.0143637
633.817	0.0144657
633.895	0.0144714
633.973	0.0145347
634.051	0.0146732
634.129	0.0142849
634.207	0.0145246
634.285	0.0144905
634.363	0.0145158
634.442	0.0145306
634.520	0.0144992
634.598	0.0145272
634.676	0.0144415
634.754	0.0143912
634.832	0.0146086
634.910	0.0144999
634.988	0.0143696
635.067	0.0144888
635.145	0.0144437
635.223	0.0145098
635.301	0.0142445
635.379	0.0143835
635.457	0.0144954
635.535	0.0144884
635.613	0.0144097
635.692	0.0144080
635.770	0.0144450
635.848	0.0144458
635.926	0.0143668
636.004	0.0144646
636.082	0.0144702
636.160	0.0143653
636.238	0.0145586
636.317	0.0144878
636.395	0.0145432
636.473	0.0146104
636.551	0.0144667
636.629	0.0145275
636.707	0.0144344
636.785	0.0145286
636.863	0.0143990
636.942	0.0145145
637.020	0.0145686
637.098	0.0145846
637.176	0.0144946
637.254	0.0145743
637.332	0.0145404
637.410	0.0146520
637.488	0.0144368
637.567	0.0144043
637.645	0.0145992
637.723	0.0145325
637.801	0.0144629
637.879	0.0144897
637.957	0.0144657
638.035	0.0143974
638.113	0.0145105
638.192	0.0145613
638.270	0.0145222
638.348	0.0144739
638.426	0.0145975
638.504	0.0145561
638.582	0.0144276
638.660	0.0144640
638.738	0.0143653
638.817	0.0144431
638.895	0.0145773
638.973	0.0143391
639.051	0.0143832
639.129	0.0145142
639.207	0.0144472
639.285	0.0144794
639.363	0.0144147
639.442	0.0144254
639.520	0.0144713
639.598	0.0146513
639.676	0.0145517
639.754	0.0144423
639.832	0.0145624
639.910	0.0145206
639.988	0.0145744
640.067	0.0143755
640.145	0.0145148
640.223	0.0145298
640.301	0.0144081
640.379	0.0145243
640.457	0.0145988
640.535	0.0145670
640.613	0.0144782
640.692	0.0145055
640.770	0.0144782
640.848	0.0143954
640.926	0.0144528
641.004	0.0144343
641.082	0.0144790
641.160	0.0144826
641.238	0.0145122
641.317	0.0145714
641.395	0.0145084
641.473	0.0145187
641.551	0.0144513
641.629	0.0147065
641.707	0.0145394
641.785	0.0145238
641.863	0.0144431
641.942	0.0145801
642.020	0.0145004
642.098	0.0145058
642.176	0.0144370
642.254	0.0144888
642.332	0.0144025
642.410	0.0144678
642.488	0.0144057
642.567	0.0145198
642.645	0.0145947
642.723	0.0144415
642.801	0.0144046
642.879	0.0145056
642.957	0.0144186
643.035	0.0144734
643.113	0.0145188
643.192	0.0144714
643.270	0.0145437
643.348	0.0145692
643.426	0.0144711
643.504	0.0143314
643.582	0.0143673
643.660	0.0145670
643.738	0.0144924
643.817	0.0144130
643.895	0.0144671
643.973	0.0145313
644.051	0.0145338
644.129	0.0145237
644.207	0.0143775
644.285	0.0145415
644.363	0.0144177
644.442	0.0144948
644.520	0.0143987
644.598	0.0144839
644.676	0.0145565
644.754	0.0144911
644.832	0.0143655
644.910	0.0144549
644.988	0.0144863
645.067	0.0144370
645.145	0.0144749
645.223	0.0145048
645.301	0.0145327
645.379	0.0144689
645.457	0.0145465
645.535	0.0145551
645.613	0.0145124
645.692	0.0143733
645.770	0.0143877
645.848	0.0144543
645.926	0.0144457
646.004	0.0144250
646.082	0.0144769
646.160	0.0144201
646.238	0.0142212
646.317	0.0144891
646.395	0.0144714
646.473	0.0144872
646.551	0.0145695
646.629	0.0144913
646.707	0.0144223
646.785	0.0145058
646.863	0.0144623
646.942	0.0143876
647.020	0.0143761
647.098	0.0143888
647.176	0.0144463
647.254	0.0145523
647.332	0.0145509
647.410	0.0145129
647.488	0.0145538
647.567	0.0145075
647.645	0.0145195
647.723	0.0144260
647.801	0.0144463
647.879	0.0145356
647.957	0.0144810
648.035	0.0143369
648.113	0.0143803
648.192	0.0144727
648.270	0.0144972
648.348	0.0144178
648.426	0.0145208
648.504	0.0144856
648.582	0.0144232
648.660	0.0145087
648.738	0.0143970
648.817	0.0143787
648.895	0.0143925
648.973	0.0145036
649.051	0.0144958
649.129	0.0143744
649.207	0.0144077
649.285	0.0143546
649.363	0.0144283
649.442	0.0145023
649.520	0.0144688
649.598	0.0144768
649.676	0.0144965
649.754	0.0143024
649.832	0.0144349
649.910	0.0144942
649.988	0.0144646
650.067	0.0144639
650.145	0.0145754
650.223	0.0145201
650.301	0.0143042
650.379	0.0144742
650.457	0.0145609
650.535	0.0144250
650.613	0.0145929
650.692	0.0145200
650.770	0.0143305
650.848	0.0143897
650.926	0.0145702
651.004	0.0143558
651.082	0.0143716
651.160	0.0144115
651.238	0.0144722
651.317	0.0144941
651.395	0.0144552
651.473	0.0144744
651.551	0.0143097
651.629	0.0143600
651.707	0.0144094
651.785	0.0143988
651.863	0.0143447
651.942	0.0144040
652.020	0.0143871
652.098	0.0142797
652.176	0.0144295
652.254	0.0146231
652.332	0.0143472
652.410	0.0144022
652.488	0.0143823
652.567	0.0144692
652.645	0.0144540
652.723	0.0144565
652.801	0.0144353
652.879	0.0144920
652.957	0.0143783
653.035	0.0144698
653.113	0.0145165
653.192	0.0144758
653.270	0.0143472
653.348	0.0144418
653.426	0.0144949
653.504	0.0145361
653.582	0.0145254
653.660	0.0145306
653.738	0.0145261
653.817	0.0143806
653.895	0.0143357
653.973	0.0144054
654.051	0.0145092
654.129	0.0145902
654.207	0.0144711
654.285	0.0144136
654.363	0.0144406
654.442	0.0144480
654.520	0.0143187
654.598	0.0145412
654.676	0.0144616
654.754	0.0144720
654.832	0.0144745
654.910	0.0142732
654.988	0.0145156
655.067	0.0143751
655.145	0.0142625
655.223	0.0143384
655.301	0.0144807
655.379	0.0144528
655.457	0.0144493
655.535	0.0144669
655.613	0.0144163
655.692	0.0144022
655.770	0.0145599
655.848	0.0143919
655.926	0.0143392
656.004	0.0145206
656.082	0.0144151
656.160	0.0142699
656.238	0.0144012
656.317	0.0145396
656.395	0.0142709
656.473	0.0142969
656.551	0.0143867
656.629	0.0142852
656.707	0.0144032
656.785	0.0143368
656.863	0.0144061
656.942	0.0144494
657.020	0.0144311
657.098	0.0145524
657.176	0.0144900
657.254	0.0144698
657.332	0.0144717
657.410	0.0144392
657.488	0.0143774
657.567	0.0142971
657.645	0.0144318
657.723	0.0143794
657.801	0.0144027
657.879	0.0145880
657.957	0.0142911
658.035	0.0144775
658.113	0.0144984
658.192	0.0142644
658.270	0.0143779
658.348	0.0145525
658.426	0.0144733
658.504	0.0144688
658.582	0.0145162
658.660	0.0145251
658.738	0.0145199
658.817	0.0146546
658.895	0.0145161
658.973	0.0144640
659.051	0.0145384
659.129	0.0144769
659.207	0.0143411
659.285	0.0144777
659.363	0.0144235
659.442	0.0145445
659.520	0.0144956
659.598	0.0145101
659.676	0.0144678
659.754	0.0144612
659.832	0.0144977
659.910	0.0145213
659.988	0.0145595
660.067	0.0144690
660.145	0.0144355
660.223	0.0144494
660.301	0.0144047
660.379	0.0146177
660.457	0.0144936
660.535	0.0144866
660.613	0.0144863
660.692	0.0143306
660.770	0.0144701
660.848	0.0144461
660.926	0.0145436
661.004	0.0144353
661.082	0.0144640
661.160	0.0144160
661.238	0.0145004
661.317	0.0144016
661.395	0.0145320
661.473	0.0145149
661.551	0.0143081
661.629	0.0144295
661.707	0.0143534
661.785	0.0144733
661.863	0.0144675
661.942	0.0144032
662.020	0.0143176
662.098	0.0144943
662.176	0.0145423
662.254	0.0145127
662.332	0.0144611
662.410	0.0144202
662.488	0.0145226
662.567	0.0145907
662.645	0.0144681
662.723	0.0143516
662.801	0.0145602
662.879	0.0146066
662.957	0.0144576
663.035	0.0144170
663.113	0.0144996
663.192	0.0144474
663.270	0.0145192
663.348	0.0143367
663.426	0.0144707
663.504	0.0146407
663.582	0.0145419
663.660	0.0145216
663.738	0.0143912
663.817	0.0144144
663.895	0.0145359
663.973	0.0145622
664.051	0.0143990
664.129	0.0143641
664.207	0.0144874
664.285	0.0144915
664.363	0.0143304
664.442	0.0144254
664.520	0.0145094
664.598	0.0145242
664.676	0.0144856
664.754	0.0144246
664.832	0.0144571
664.910	0.0146362
664.988	0.0146187
665.067	0.0145045
665.145	0.0143768
665.223	0.0145537
665.301	0.0145372
665.379	0.0144522
665.457	0.0144652
665.535	0.0144166
665.613	0.0144600
665.692	0.0145278
665.770	0.0144265
665.848	0.0144732
665.926	0.0144650
666.004	0.0144149
666.082	0.0143247
666.160	0.0143998
666.238	0.0144337
666.317	0.0146157
666.395	0.0144359
666.473	0.0144579
666.551	0.0143804
666.629	0.0144969
666.707	0.0143931
666.785	0.0145312
666.863	0.0145690
666.942	0.0143867
667.020	0.0145888
667.098	0.0145535
667.176	0.0144545
667.254	0.0145617
667.332	0.0144815
667.410	0.0145448
667.488	0.0145052
667.567	0.0144837
667.645	0.0145262
667.723	0.0145090
667.801	0.0145068
667.879	0.0144549
667.957	0.0145080
668.035	0.0143839
668.113	0.0144740
668.192	0.0144054
668.270	0.0145566
668.348	0.0144427
668.426	0.0144086
668.504	0.0144638
668.582	0.0144008
668.660	0.0144796
668.738	0.0144468
668.817	0.0144620
668.895	0.0144325
668.973	0.0145119
669.051	0.0144878
669.129	0.0144907
669.207	0.0144025
669.285	0.0145751
669.363	0.0144222
669.442	0.0144659
669.520	0.0144035
669.598	0.0143581
669.676	0.0143810
669.754	0.0144465
669.832	0.0144389
669.910	0.0143903
669.988	0.0144451
670.067	0.0142175
670.145	0.0143298
670.223	0.0144285
670.301	0.0144120
670.379	0.0142767
670.457	0.0143542
670.535	0.0143545
670.613	0.0143998
670.692	0.0142900
670.770	0.0145336
670.848	0.0144745
670.926	0.0144341
671.004	0.0143587
671.082	0.0143414
671.160	0.0144048
671.238	0.0143744
671.317	0.0143382
671.395	0.0144904
671.473	0.0144563
671.551	0.0144009
671.629	0.0143739
671.707	0.0144273
671.785	0.0143590
671.863	0.0143746
671.942	0.0145083
672.020	0.0143996
672.098	0.0143425
672.176	0.0143096
672.254	0.0144855
672.332	0.0144091
672.410	0.0144344
672.488	0.0144389
672.567	0.0143423
672.645	0.0144422
672.723	0.0144685
672.801	0.0144901
672.879	0.0143044
672.957	0.0142056
673.035	0.0144332
673.113	0.0144034
673.192	0.0143047
673.270	0.0143741
673.348	0.0143651
673.426	0.0143485
673.504	0.0143678
673.582	0.0143554
673.660	0.0143102
673.738	0.0144509
673.817	0.0142503
673.895	0.0143650
673.973	0.0144051
674.051	0.0144434
674.129	0.0144337
674.207	0.0143213
674.285	0.0143053
674.363	0.0145766
674.442	0.0143465
674.520	0.0144283
674.598	0.0143873
674.676	0.0143612
674.754	0.0144022
674.832	0.0143998
674.910	0.0143755
674.988	0.0144344
675.067	0.0144420
675.145	0.0144336
675.223	0.0145469
675.301	0.0144974
675.379	0.0146045
675.457	0.0144722
675.535	0.0145297
675.613	0.0144693
675.692	0.0145070
675.770	0.0143961
675.848	0.0145698
675.926	0.0146315
676.004	0.0145069
676.082	0.0144224
676.160	0.0144903
676.238	0.0144097
676.317	0.0145910
676.395	0.0145567
676.473	0.0144296
676.551	0.0144753
676.629	0.0144533
676.707	0.0145013
676.785	0.0144537
676.863	0.0144817
676.942	0.0145285
677.020	0.0144811
677.098	0.0144946
677.176	0.0145420
677.254	0.0145452
677.332	0.0144233
677.410	0.0143723
677.488	0.0145568
677.567	0.0145275
677.645	0.0145593
677.723	0.0144563
677.801	0.0144935
677.879	0.0146680
677.957	0.0146091
678.035	0.0145141
678.113	0.0145851
678.192	0.0146346
678.270	0.0146153
678.348	0.0145183
678.426	0.0147028
678.504	0.0147544
678.582	0.0145208
678.660	0.0146062
678.738	0.0146656
678.817	0.0147092
678.895	0.0145811
678.973	0.0144316
679.051	0.0146461
679.129	0.0145149
679.207	0.0144739
679.285	0.0144284
679.363	0.0146764
679.442	0.0147260
679.520	0.0144951
679.598	0.0146104
679.676	0.0145222
679.754	0.0146156
679.832	0.0145109
679.910	0.0145124
679.988	0.0146946
680.067	0.0146086
680.145	0.0145783
680.223	0.0146329
680.301	0.0145283
680.379	0.0145979
680.457	0.0144462
680.535	0.0145142
680.613	0.0145880
680.692	0.0144746
680.770	0.0145450
680.848	0.0145056
680.926	0.0144611
681.004	0.0144257
681.082	0.0146178
681.160	0.0145390
681.238	0.0145904
681.317	0.0144396
681.395	0.0143484
681.473	0.0143423
681.551	0.0144607
681.629	0.0144177
681.707	0.0144650
681.785	0.0143205
681.863	0.0145116
681.942	0.0144678
682.020	0.0142738
682.098	0.0143784
682.176	0.0143529
682.254	0.0142905
682.332	0.0145061
682.410	0.0143051
682.488	0.0144482
682.567	0.0143076
682.645	0.0144648
682.723	0.0143527
682.801	0.0144586
682.879	0.0144590
682.957	0.0142632
683.035	0.0145229
683.113	0.0143709
683.192	0.0144135
683.270	0.0144083
683.348	0.0144379
683.426	0.0143713
683.504	0.0144291
683.582	0.0142611
683.660	0.0144271
683.738	0.0143270
683.817	0.0142465
683.895	0.0144486
683.973	0.0144236
684.051	0.0143687
684.129	0.0143778
684.207	0.0144169
684.285	0.0144154
684.363	0.0144267
684.442	0.0142949
684.520	0.0144376
684.598	0.0143494
684.676	0.0143455
684.754	0.0142974
684.832	0.0144993
684.910	0.0144875
684.988	0.0143272
685.067	0.0144546
685.145	0.0143948
685.223	0.0143600
685.301	0.0144730
685.379	0.0142949
685.457	0.0145093
685.535	0.0144404
685.613	0.0143150
685.692	0.0143769
