05/28/2022	14:38:22	Ver.	4.1	UNKNOWN
Optical Delay	599.988409	Delta X		0.078125	Sweeps	1	Scan Rate	0/0
Coordinates	Axis 1	NaN	Axis 2	NaN	Axis 3	NaN	Axis 4	NaN	Axis 5	NaN	Axis 6	0.000000
TX Power	0.000000	RX Power	0.000000

599.988	0.0147202
600.067	0.0146899
600.145	0.0146692
600.223	0.0147833
600.301	0.0149118
600.379	0.0148108
600.457	0.0147190
600.535	0.0149373
600.613	0.0148827
600.692	0.0149635
600.770	0.0149492
600.848	0.0149393
600.926	0.0148993
601.004	0.0148038
601.082	0.0149646
601.160	0.0149559
601.238	0.0149673
601.317	0.0148606
601.395	0.0150103
601.473	0.0150326
601.551	0.0149829
601.629	0.0149971
601.707	0.0148340
601.785	0.0148765
601.863	0.0149879
601.942	0.0149198
602.020	0.0148618
602.098	0.0149465
602.176	0.0149945
602.254	0.0148588
602.332	0.0147407
602.410	0.0149580
602.488	0.0149555
602.567	0.0150267
602.645	0.0150039
602.723	0.0150528
602.801	0.0148851
602.879	0.0149400
602.957	0.0148534
603.035	0.0149141
603.113	0.0150017
603.192	0.0148458
603.270	0.0148645
603.348	0.0150050
603.426	0.0148762
603.504	0.0147414
603.582	0.0149470
603.660	0.0147493
603.738	0.0148460
603.817	0.0147997
603.895	0.0148471
603.973	0.0148501
604.051	0.0148099
604.129	0.0148353
604.207	0.0146864
604.285	0.0148866
604.363	0.0148052
604.442	0.0147980
604.520	0.0148014
604.598	0.0146790
604.676	0.0148603
604.754	0.0146982
604.832	0.0147720
604.910	0.0147028
604.988	0.0149336
605.067	0.0147800
605.145	0.0149495
605.223	0.0147784
605.301	0.0147481
605.379	0.0147482
605.457	0.0147439
605.535	0.0148596
605.613	0.0148205
605.692	0.0147028
605.770	0.0147623
605.848	0.0148653
605.926	0.0148351
606.004	0.0147637
606.082	0.0148103
606.160	0.0148518
606.238	0.0148251
606.317	0.0147995
606.395	0.0147660
606.473	0.0148169
606.551	0.0147438
606.629	0.0146252
606.707	0.0148135
606.785	0.0146284
606.863	0.0146296
606.942	0.0146111
607.020	0.0147634
607.098	0.0146795
607.176	0.0147708
607.254	0.0146015
607.332	0.0146401
607.410	0.0146867
607.488	0.0146062
607.567	0.0145504
607.645	0.0145888
607.723	0.0145883
607.801	0.0146891
607.879	0.0147074
607.957	0.0145580
608.035	0.0145600
608.113	0.0146908
608.192	0.0145749
608.270	0.0146267
608.348	0.0145137
608.426	0.0145521
608.504	0.0145956
608.582	0.0146523
608.660	0.0146595
608.738	0.0146012
608.817	0.0145384
608.895	0.0147999
608.973	0.0147363
609.051	0.0145557
609.129	0.0146878
609.207	0.0148410
609.285	0.0146436
609.363	0.0147956
609.442	0.0147764
609.520	0.0147554
609.598	0.0146829
609.676	0.0148249
609.754	0.0147012
609.832	0.0147723
609.910	0.0148087
609.988	0.0146902
610.067	0.0147710
610.145	0.0147986
610.223	0.0148925
610.301	0.0147898
610.379	0.0149328
610.457	0.0147636
610.535	0.0147341
610.613	0.0147505
610.692	0.0147977
610.770	0.0148879
610.848	0.0147330
610.926	0.0149191
611.004	0.0150073
611.082	0.0149168
611.160	0.0147401
611.238	0.0148741
611.317	0.0148081
611.395	0.0148645
611.473	0.0148468
611.551	0.0147517
611.629	0.0148228
611.707	0.0148978
611.785	0.0147793
611.863	0.0149242
611.942	0.0148936
612.020	0.0149268
612.098	0.0149286
612.176	0.0148920
612.254	0.0148225
612.332	0.0149235
612.410	0.0148834
612.488	0.0149472
612.567	0.0148612
612.645	0.0148458
612.723	0.0148304
612.801	0.0147472
612.879	0.0147991
612.957	0.0148265
613.035	0.0147990
613.113	0.0146915
613.192	0.0147076
613.270	0.0147260
613.348	0.0148047
613.426	0.0148141
613.504	0.0148244
613.582	0.0147845
613.660	0.0148752
613.738	0.0148038
613.817	0.0148603
613.895	0.0147554
613.973	0.0146937
614.051	0.0148794
614.129	0.0150211
614.207	0.0148518
614.285	0.0149797
614.363	0.0148597
614.442	0.0148803
614.520	0.0149578
614.598	0.0147729
614.676	0.0147588
614.754	0.0148531
614.832	0.0148637
614.910	0.0147041
614.988	0.0146922
615.067	0.0147211
615.145	0.0148196
615.223	0.0146093
615.301	0.0144917
615.379	0.0147048
615.457	0.0146697
615.535	0.0145765
615.613	0.0146238
615.692	0.0146478
615.770	0.0146269
615.848	0.0148132
615.926	0.0146941
616.004	0.0146225
616.082	0.0146846
616.160	0.0145921
616.238	0.0145475
616.317	0.0146276
616.395	0.0147160
616.473	0.0146663
616.551	0.0146770
616.629	0.0145288
616.707	0.0146534
616.785	0.0146581
616.863	0.0146062
616.942	0.0146360
617.020	0.0146466
617.098	0.0147152
617.176	0.0145055
617.254	0.0148014
617.332	0.0149097
617.410	0.0149023
617.488	0.0146962
617.567	0.0148410
617.645	0.0147259
617.723	0.0149246
617.801	0.0149900
617.879	0.0148785
617.957	0.0148110
618.035	0.0149052
618.113	0.0148959
618.192	0.0148640
618.270	0.0149087
618.348	0.0149578
618.426	0.0148859
618.504	0.0148438
618.582	0.0147664
618.660	0.0149036
618.738	0.0147124
618.817	0.0145853
618.895	0.0146723
618.973	0.0146459
619.051	0.0146269
619.129	0.0146133
619.207	0.0144998
619.285	0.0145107
619.363	0.0145749
619.442	0.0147194
619.520	0.0146014
619.598	0.0146314
619.676	0.0146148
619.754	0.0146951
619.832	0.0147229
619.910	0.0147626
619.988	0.0146793
620.067	0.0147379
620.145	0.0145858
620.223	0.0147183
620.301	0.0148293
620.379	0.0147675
620.457	0.0147272
620.535	0.0146850
620.613	0.0147478
620.692	0.0148347
620.770	0.0146653
620.848	0.0146302
620.926	0.0147691
621.004	0.0148511
621.082	0.0148061
621.160	0.0147788
621.238	0.0147346
621.317	0.0147993
621.395	0.0147815
621.473	0.0147028
621.551	0.0149368
621.629	0.0148180
621.707	0.0146807
621.785	0.0145773
621.863	0.0147552
621.942	0.0148036
622.020	0.0147693
622.098	0.0146622
622.176	0.0146304
622.254	0.0146777
622.332	0.0147900
622.410	0.0145464
622.488	0.0147984
622.567	0.0148023
622.645	0.0148553
622.723	0.0148164
622.801	0.0149739
622.879	0.0149398
622.957	0.0147685
623.035	0.0149711
623.113	0.0150331
623.192	0.0149944
623.270	0.0151587
623.348	0.0150201
623.426	0.0149986
623.504	0.0148807
623.582	0.0149234
623.660	0.0149709
623.738	0.0149785
623.817	0.0149148
623.895	0.0148473
623.973	0.0148837
624.051	0.0146976
624.129	0.0148032
624.207	0.0148240
624.285	0.0147174
624.363	0.0147774
624.442	0.0146795
624.520	0.0147314
624.598	0.0147696
624.676	0.0147126
624.754	0.0146436
624.832	0.0146400
624.910	0.0146657
624.988	0.0146450
625.067	0.0144534
625.145	0.0144521
625.223	0.0147006
625.301	0.0146786
625.379	0.0146366
625.457	0.0147006
625.535	0.0147485
625.613	0.0146609
625.692	0.0147279
625.770	0.0148313
625.848	0.0147876
625.926	0.0147826
626.004	0.0147635
626.082	0.0148993
626.160	0.0148895
626.238	0.0148322
626.317	0.0148527
626.395	0.0147695
626.473	0.0148875
626.551	0.0150037
626.629	0.0149007
626.707	0.0148428
626.785	0.0148206
626.863	0.0147838
626.942	0.0148262
627.020	0.0147353
627.098	0.0147748
627.176	0.0148344
627.254	0.0147713
627.332	0.0146831
627.410	0.0148000
627.488	0.0148470
627.567	0.0147363
627.645	0.0148083
627.723	0.0149667
627.801	0.0149381
627.879	0.0148620
627.957	0.0149858
628.035	0.0149338
628.113	0.0150473
628.192	0.0148820
628.270	0.0149534
628.348	0.0151778
628.426	0.0149091
628.504	0.0150441
628.582	0.0150869
628.660	0.0151035
628.738	0.0150859
628.817	0.0150896
628.895	0.0150072
628.973	0.0151016
629.051	0.0150792
629.129	0.0151067
629.207	0.0150208
629.285	0.0150037
629.363	0.0151299
629.442	0.0150523
629.520	0.0149121
629.598	0.0148938
629.676	0.0148463
629.754	0.0148086
629.832	0.0148261
629.910	0.0147381
629.988	0.0146896
630.067	0.0147578
630.145	0.0146221
630.223	0.0147736
630.301	0.0146961
630.379	0.0147608
630.457	0.0147267
630.535	0.0147618
630.613	0.0148562
630.692	0.0148344
630.770	0.0149146
630.848	0.0150712
630.926	0.0147992
631.004	0.0148730
631.082	0.0149889
631.160	0.0150307
631.238	0.0149637
631.317	0.0149043
631.395	0.0150392
631.473	0.0148583
631.551	0.0150128
631.629	0.0149246
631.707	0.0149635
631.785	0.0148447
631.863	0.0147655
631.942	0.0148115
632.020	0.0148390
632.098	0.0148402
632.176	0.0148210
632.254	0.0148043
632.332	0.0148025
632.410	0.0148660
632.488	0.0147688
632.567	0.0147418
632.645	0.0147698
632.723	0.0147575
632.801	0.0147334
632.879	0.0148035
632.957	0.0148557
633.035	0.0148908
633.113	0.0149300
633.192	0.0148551
633.270	0.0147396
633.348	0.0147013
633.426	0.0150690
633.504	0.0149129
633.582	0.0148181
633.660	0.0148487
633.738	0.0148119
633.817	0.0147005
633.895	0.0148798
633.973	0.0148560
634.051	0.0147450
634.129	0.0148911
634.207	0.0147572
634.285	0.0146526
634.363	0.0145926
634.442	0.0147576
634.520	0.0146997
634.598	0.0147113
634.676	0.0146629
634.754	0.0146223
634.832	0.0146649
634.910	0.0147271
634.988	0.0146347
635.067	0.0145618
635.145	0.0147372
635.223	0.0145483
635.301	0.0148216
635.379	0.0147625
635.457	0.0146147
635.535	0.0146577
635.613	0.0147466
635.692	0.0148362
635.770	0.0147177
635.848	0.0147598
635.926	0.0147543
636.004	0.0148657
636.082	0.0148618
636.160	0.0147986
636.238	0.0149671
636.317	0.0147622
636.395	0.0148392
636.473	0.0147732
636.551	0.0148673
636.629	0.0147560
636.707	0.0148325
636.785	0.0148347
636.863	0.0148551
636.942	0.0147839
637.020	0.0147391
637.098	0.0148631
637.176	0.0148432
637.254	0.0147179
637.332	0.0148942
637.410	0.0149287
637.488	0.0148848
637.567	0.0150790
637.645	0.0149024
637.723	0.0148302
637.801	0.0149295
637.879	0.0148092
637.957	0.0149959
638.035	0.0148749
638.113	0.0149502
638.192	0.0148836
638.270	0.0148215
638.348	0.0147784
638.426	0.0147487
638.504	0.0149362
638.582	0.0146937
638.660	0.0147749
638.738	0.0145997
638.817	0.0147811
638.895	0.0146341
638.973	0.0145244
639.051	0.0145997
639.129	0.0147734
639.207	0.0145779
639.285	0.0147031
639.363	0.0147465
639.442	0.0145974
639.520	0.0147829
639.598	0.0147740
639.676	0.0147654
639.754	0.0147791
639.832	0.0149512
639.910	0.0148661
639.988	0.0147330
640.067	0.0148725
640.145	0.0148717
640.223	0.0147968
640.301	0.0148351
640.379	0.0149096
640.457	0.0147491
640.535	0.0147552
640.613	0.0147905
640.692	0.0149500
640.770	0.0148553
640.848	0.0150842
640.926	0.0150046
641.004	0.0149718
641.082	0.0149420
641.160	0.0148589
641.238	0.0147527
641.317	0.0147766
641.395	0.0148466
641.473	0.0147641
641.551	0.0147841
641.629	0.0148582
641.707	0.0147050
641.785	0.0147881
641.863	0.0148714
641.942	0.0148151
642.020	0.0147369
642.098	0.0149242
642.176	0.0147644
642.254	0.0147418
642.332	0.0148202
642.410	0.0147652
642.488	0.0148009
642.567	0.0148763
642.645	0.0146956
642.723	0.0146377
642.801	0.0146419
642.879	0.0145067
642.957	0.0145052
643.035	0.0144907
643.113	0.0144725
643.192	0.0145226
643.270	0.0145839
643.348	0.0144872
643.426	0.0144165
643.504	0.0143820
643.582	0.0143156
643.660	0.0144337
643.738	0.0145357
643.817	0.0144266
643.895	0.0143511
643.973	0.0146114
644.051	0.0145842
644.129	0.0145755
644.207	0.0146343
644.285	0.0146333
644.363	0.0146741
644.442	0.0146309
644.520	0.0146908
644.598	0.0147272
644.676	0.0146793
644.754	0.0147150
644.832	0.0146862
644.910	0.0147125
644.988	0.0146132
645.067	0.0147353
645.145	0.0147391
645.223	0.0147752
645.301	0.0146578
645.379	0.0146667
645.457	0.0146136
645.535	0.0145283
645.613	0.0146254
645.692	0.0147645
645.770	0.0145794
645.848	0.0146416
645.926	0.0145602
646.004	0.0146539
646.082	0.0146827
646.160	0.0146795
646.238	0.0148421
646.317	0.0147040
646.395	0.0147572
646.473	0.0148488
646.551	0.0146967
646.629	0.0146812
646.707	0.0147971
646.785	0.0146439
646.863	0.0146989
646.942	0.0147631
647.020	0.0147251
647.098	0.0147194
647.176	0.0146615
647.254	0.0148315
647.332	0.0147737
647.410	0.0147897
647.488	0.0146341
647.567	0.0147002
647.645	0.0147935
647.723	0.0147363
647.801	0.0146898
647.879	0.0147675
647.957	0.0147089
648.035	0.0146767
648.113	0.0147041
648.192	0.0146080
648.270	0.0148328
648.348	0.0147594
648.426	0.0148106
648.504	0.0148487
648.582	0.0147942
648.660	0.0147365
648.738	0.0147665
648.817	0.0148039
648.895	0.0150377
648.973	0.0149030
649.051	0.0148643
649.129	0.0149536
649.207	0.0151064
649.285	0.0149924
649.363	0.0151005
649.442	0.0151281
649.520	0.0151268
649.598	0.0152055
649.676	0.0153125
649.754	0.0152046
649.832	0.0151823
649.910	0.0152854
649.988	0.0152608
650.067	0.0151677
650.145	0.0152330
650.223	0.0152179
650.301	0.0152745
650.379	0.0153061
650.457	0.0150669
650.535	0.0150524
650.613	0.0149986
650.692	0.0150640
650.770	0.0151366
650.848	0.0148750
650.926	0.0149201
651.004	0.0149736
651.082	0.0149178
651.160	0.0148789
651.238	0.0147186
651.317	0.0147980
651.395	0.0148536
651.473	0.0147314
651.551	0.0146888
651.629	0.0145776
651.707	0.0147787
651.785	0.0147012
651.863	0.0147949
651.942	0.0147291
652.020	0.0148262
652.098	0.0148071
652.176	0.0149162
652.254	0.0147622
652.332	0.0148174
652.410	0.0148413
652.488	0.0147582
652.567	0.0148446
652.645	0.0147710
652.723	0.0148342
652.801	0.0147437
652.879	0.0146327
652.957	0.0146770
653.035	0.0145022
653.113	0.0147273
653.192	0.0145482
653.270	0.0144653
653.348	0.0146127
653.426	0.0144849
653.504	0.0143887
653.582	0.0143720
653.660	0.0145950
653.738	0.0146197
653.817	0.0145964
653.895	0.0144528
653.973	0.0145313
654.051	0.0148380
654.129	0.0146906
654.207	0.0148017
654.285	0.0149051
654.363	0.0148798
654.442	0.0147910
654.520	0.0148621
654.598	0.0147898
654.676	0.0148691
654.754	0.0148677
654.832	0.0148061
654.910	0.0147600
654.988	0.0147824
655.067	0.0147558
655.145	0.0146899
655.223	0.0147170
655.301	0.0146854
655.379	0.0144988
655.457	0.0145482
655.535	0.0146458
655.613	0.0146297
655.692	0.0145302
655.770	0.0146282
655.848	0.0145100
655.926	0.0145852
656.004	0.0145812
656.082	0.0146306
656.160	0.0145159
656.238	0.0147134
656.317	0.0145737
656.395	0.0147420
656.473	0.0147838
656.551	0.0148269
656.629	0.0148968
656.707	0.0147359
656.785	0.0147724
656.863	0.0147575
656.942	0.0148134
657.020	0.0147378
657.098	0.0149280
657.176	0.0147093
657.254	0.0148139
657.332	0.0148324
657.410	0.0149256
657.488	0.0148648
657.567	0.0147330
657.645	0.0148875
657.723	0.0148561
657.801	0.0148946
657.879	0.0148160
657.957	0.0146072
658.035	0.0147560
658.113	0.0148675
658.192	0.0148072
658.270	0.0147656
658.348	0.0148013
658.426	0.0147559
658.504	0.0147894
658.582	0.0148648
658.660	0.0147629
658.738	0.0149058
658.817	0.0149159
658.895	0.0148398
658.973	0.0147198
659.051	0.0147878
659.129	0.0148349
659.207	0.0148991
659.285	0.0148742
659.363	0.0147353
659.442	0.0149026
659.520	0.0148554
659.598	0.0148187
659.676	0.0147928
659.754	0.0147276
659.832	0.0148561
659.910	0.0146767
659.988	0.0147826
660.067	0.0145937
660.145	0.0146559
660.223	0.0146723
660.301	0.0146378
660.379	0.0147018
660.457	0.0146060
660.535	0.0146594
660.613	0.0146677
660.692	0.0145834
660.770	0.0145692
660.848	0.0146439
660.926	0.0144855
661.004	0.0146833
661.082	0.0147556
661.160	0.0145536
661.238	0.0145876
661.317	0.0146131
661.395	0.0146230
661.473	0.0144886
661.551	0.0145642
661.629	0.0145999
661.707	0.0146040
661.785	0.0147250
661.863	0.0146812
661.942	0.0145726
662.020	0.0147041
662.098	0.0146284
662.176	0.0146943
662.254	0.0146193
662.332	0.0146907
662.410	0.0146724
662.488	0.0148540
662.567	0.0147945
662.645	0.0146688
662.723	0.0145890
662.801	0.0146001
662.879	0.0147791
662.957	0.0148340
663.035	0.0148537
663.113	0.0146462
663.192	0.0148096
663.270	0.0147567
663.348	0.0147215
663.426	0.0147360
663.504	0.0147207
663.582	0.0147919
663.660	0.0146471
663.738	0.0146260
663.817	0.0145818
663.895	0.0144382
663.973	0.0145226
664.051	0.0146343
664.129	0.0145191
664.207	0.0146647
664.285	0.0147080
664.363	0.0145039
664.442	0.0145685
664.520	0.0145967
664.598	0.0146370
664.676	0.0146438
664.754	0.0147874
664.832	0.0146657
664.910	0.0146981
664.988	0.0147118
665.067	0.0149031
665.145	0.0146902
665.223	0.0147669
665.301	0.0148504
665.379	0.0148610
665.457	0.0146642
665.535	0.0148270
665.613	0.0146616
665.692	0.0147450
665.770	0.0147379
665.848	0.0147266
665.926	0.0145892
666.004	0.0146821
666.082	0.0146457
666.160	0.0146272
666.238	0.0146728
666.317	0.0146072
666.395	0.0146193
666.473	0.0146345
666.551	0.0146620
666.629	0.0147120
666.707	0.0146379
666.785	0.0146085
666.863	0.0147261
666.942	0.0147139
667.020	0.0147054
667.098	0.0146530
667.176	0.0146980
667.254	0.0147015
667.332	0.0147417
667.410	0.0146399
667.488	0.0148473
667.567	0.0148560
667.645	0.0147091
667.723	0.0147929
667.801	0.0147491
667.879	0.0148103
667.957	0.0146906
668.035	0.0147196
668.113	0.0147829
668.192	0.0147468
668.270	0.0148120
668.348	0.0147073
668.426	0.0146957
668.504	0.0147101
668.582	0.0146400
668.660	0.0146456
668.738	0.0145142
668.817	0.0144621
668.895	0.0144812
668.973	0.0146001
669.051	0.0144231
669.129	0.0145238
669.207	0.0145515
669.285	0.0144985
669.363	0.0146304
669.442	0.0146410
669.520	0.0145807
669.598	0.0147103
669.676	0.0146704
669.754	0.0148058
669.832	0.0147903
669.910	0.0147354
669.988	0.0147453
670.067	0.0149179
670.145	0.0147869
670.223	0.0148384
670.301	0.0147701
670.379	0.0149073
670.457	0.0147847
670.535	0.0147912
670.613	0.0149309
670.692	0.0148923
670.770	0.0148037
670.848	0.0149763
670.926	0.0148876
671.004	0.0147355
671.082	0.0149289
671.160	0.0149665
671.238	0.0148872
671.317	0.0148764
671.395	0.0149606
671.473	0.0149003
671.551	0.0149674
671.629	0.0149066
671.707	0.0149008
671.785	0.0148287
671.863	0.0148765
671.942	0.0148590
672.020	0.0148544
672.098	0.0149271
672.176	0.0149557
672.254	0.0149265
672.332	0.0147987
672.410	0.0147275
672.488	0.0148470
672.567	0.0147351
672.645	0.0147324
672.723	0.0147965
672.801	0.0147686
672.879	0.0147449
672.957	0.0147643
673.035	0.0146609
673.113	0.0146370
673.192	0.0145868
673.270	0.0147325
673.348	0.0147663
673.426	0.0147555
673.504	0.0147945
673.582	0.0147995
673.660	0.0147389
673.738	0.0147281
673.817	0.0147826
673.895	0.0148071
673.973	0.0147633
674.051	0.0148540
674.129	0.0149207
674.207	0.0148469
674.285	0.0149292
674.363	0.0148559
674.442	0.0147572
674.520	0.0149100
674.598	0.0148390
674.676	0.0148152
674.754	0.0148479
674.832	0.0147439
674.910	0.0148390
674.988	0.0148023
675.067	0.0147242
675.145	0.0146896
675.223	0.0146992
675.301	0.0145766
675.379	0.0145200
675.457	0.0145954
675.535	0.0145753
675.613	0.0145773
675.692	0.0143502
675.770	0.0144197
675.848	0.0144973
675.926	0.0145362
676.004	0.0145763
676.082	0.0145267
676.160	0.0144883
676.238	0.0144596
676.317	0.0145212
676.395	0.0145196
676.473	0.0144552
676.551	0.0145676
676.629	0.0145046
676.707	0.0144866
676.785	0.0146403
676.863	0.0145953
676.942	0.0146368
677.020	0.0146151
677.098	0.0147212
677.176	0.0147496
677.254	0.0147191
677.332	0.0147056
677.410	0.0147839
677.488	0.0149459
677.567	0.0148991
677.645	0.0150128
677.723	0.0149087
677.801	0.0150433
677.879	0.0151186
677.957	0.0151075
678.035	0.0151752
678.113	0.0150581
678.192	0.0149330
678.270	0.0150646
678.348	0.0150539
678.426	0.0148724
678.504	0.0149139
678.582	0.0148192
678.660	0.0148688
678.738	0.0147133
678.817	0.0146451
678.895	0.0147208
678.973	0.0147750
679.051	0.0145871
679.129	0.0146107
679.207	0.0146583
679.285	0.0146827
679.363	0.0145507
679.442	0.0145335
679.520	0.0145435
679.598	0.0146005
679.676	0.0145224
679.754	0.0144568
679.832	0.0146079
679.910	0.0146223
679.988	0.0145306
680.067	0.0145998
680.145	0.0146269
680.223	0.0145089
680.301	0.0146387
680.379	0.0145370
680.457	0.0144401
680.535	0.0145668
680.613	0.0145853
680.692	0.0146145
680.770	0.0146819
680.848	0.0147577
680.926	0.0148364
681.004	0.0149493
681.082	0.0149487
681.160	0.0149385
681.238	0.0150425
681.317	0.0150628
681.395	0.0150914
681.473	0.0151270
681.551	0.0152357
681.629	0.0151047
681.707	0.0152005
681.785	0.0151631
681.863	0.0151878
681.942	0.0152713
682.020	0.0150758
682.098	0.0152452
682.176	0.0153266
682.254	0.0151308
682.332	0.0151734
682.410	0.0152547
682.488	0.0149659
682.567	0.0151178
682.645	0.0150105
682.723	0.0150142
682.801	0.0150520
682.879	0.0150148
682.957	0.0149791
683.035	0.0147948
683.113	0.0147887
683.192	0.0148622
683.270	0.0147842
683.348	0.0147093
683.426	0.0147204
683.504	0.0147057
683.582	0.0146040
683.660	0.0145860
683.738	0.0145473
683.817	0.0145485
683.895	0.0144630
683.973	0.0145846
684.051	0.0145447
684.129	0.0144490
684.207	0.0144380
684.285	0.0144861
684.363	0.0143383
684.442	0.0144418
684.520	0.0144678
684.598	0.0144592
684.676	0.0145961
684.754	0.0144305
684.832	0.0144508
684.910	0.0146188
684.988	0.0145583
685.067	0.0146222
685.145	0.0144447
685.223	0.0145649
685.301	0.0146505
685.379	0.0147201
685.457	0.0146529
685.535	0.0148188
685.613	0.0148011
685.692	0.0148198
