05/28/2022	14:38:57	Ver.	4.1	UNKNOWN
Optical Delay	599.988409	Delta X		0.078125	Sweeps	1	Scan Rate	0/0
Coordinates	Axis 1	NaN	Axis 2	NaN	Axis 3	NaN	Axis 4	NaN	Axis 5	NaN	Axis 6	0.000000
TX Power	0.000000	RX Power	0.000000

599.988	0.0150063
600.067	0.0149214
600.145	0.0148753
600.223	0.0149690
600.301	0.0149155
600.379	0.0148316
600.457	0.0148145
600.535	0.0149265
600.613	0.0148723
600.692	0.0149147
600.770	0.0148517
600.848	0.0151063
600.926	0.0149843
601.004	0.0150151
601.082	0.0150703
601.160	0.0149001
601.238	0.0150529
601.317	0.0149646
601.395	0.0150639
601.473	0.0150248
601.551	0.0149805
601.629	0.0151064
601.707	0.0148901
601.785	0.0147382
601.863	0.0151073
601.942	0.0148374
602.020	0.0149693
602.098	0.0149095
602.176	0.0148742
602.254	0.0149361
602.332	0.0149416
602.410	0.0149945
602.488	0.0148698
602.567	0.0147975
602.645	0.0147256
602.723	0.0149848
602.801	0.0147360
602.879	0.0148105
602.957	0.0148189
603.035	0.0148150
603.113	0.0147762
603.192	0.0149413
603.270	0.0148528
603.348	0.0147861
603.426	0.0148222
603.504	0.0148155
603.582	0.0149281
603.660	0.0149463
603.738	0.0149003
603.817	0.0148273
603.895	0.0148451
603.973	0.0148373
604.051	0.0149184
604.129	0.0148457
604.207	0.0148311
604.285	0.0148430
604.363	0.0148615
604.442	0.0148781
604.520	0.0147153
604.598	0.0147643
604.676	0.0148679
604.754	0.0148991
604.832	0.0148935
604.910	0.0148706
604.988	0.0148536
605.067	0.0149206
605.145	0.0149706
605.223	0.0149845
605.301	0.0149251
605.379	0.0149284
605.457	0.0149605
605.535	0.0150335
605.613	0.0150838
605.692	0.0151798
605.770	0.0151925
605.848	0.0150523
605.926	0.0151373
606.004	0.0150044
606.082	0.0152487
606.160	0.0152323
606.238	0.0152559
606.317	0.0151799
606.395	0.0152083
606.473	0.0152133
606.551	0.0152260
606.629	0.0152776
606.707	0.0152254
606.785	0.0153258
606.863	0.0152526
606.942	0.0153739
607.020	0.0153428
607.098	0.0152413
607.176	0.0152631
607.254	0.0153161
607.332	0.0153207
607.410	0.0152217
607.488	0.0152002
607.567	0.0152821
607.645	0.0153031
607.723	0.0154059
607.801	0.0152072
607.879	0.0152316
607.957	0.0151468
608.035	0.0151811
608.113	0.0150502
608.192	0.0151537
608.270	0.0150424
608.348	0.0151463
608.426	0.0151839
608.504	0.0151542
608.582	0.0150830
608.660	0.0149043
608.738	0.0151110
608.817	0.0151424
608.895	0.0150089
608.973	0.0149228
609.051	0.0151102
609.129	0.0149043
609.207	0.0149596
609.285	0.0148829
609.363	0.0148151
609.442	0.0148755
609.520	0.0149658
609.598	0.0148672
609.676	0.0148752
609.754	0.0148716
609.832	0.0149427
609.910	0.0149601
609.988	0.0147575
610.067	0.0148985
610.145	0.0149245
610.223	0.0149539
610.301	0.0147834
610.379	0.0149078
610.457	0.0148441
610.535	0.0147934
610.613	0.0148197
610.692	0.0147967
610.770	0.0148537
610.848	0.0147758
610.926	0.0145609
611.004	0.0147863
611.082	0.0148810
611.160	0.0146228
611.238	0.0146740
611.317	0.0147137
611.395	0.0147119
611.473	0.0147253
611.551	0.0147733
611.629	0.0147827
611.707	0.0149214
611.785	0.0148235
611.863	0.0145817
611.942	0.0148093
612.020	0.0148665
612.098	0.0148784
612.176	0.0148164
612.254	0.0148753
612.332	0.0148490
612.410	0.0148214
612.488	0.0149709
612.567	0.0148295
612.645	0.0149347
612.723	0.0149012
612.801	0.0150414
612.879	0.0149672
612.957	0.0150381
613.035	0.0151966
613.113	0.0150204
613.192	0.0151645
613.270	0.0152226
613.348	0.0152804
613.426	0.0152773
613.504	0.0152287
613.582	0.0151447
613.660	0.0153666
613.738	0.0152400
613.817	0.0151128
613.895	0.0151251
613.973	0.0150748
614.051	0.0152270
614.129	0.0151878
614.207	0.0151280
614.285	0.0151102
614.363	0.0152529
614.442	0.0151474
614.520	0.0150060
614.598	0.0149994
614.676	0.0150608
614.754	0.0149687
614.832	0.0149844
614.910	0.0150289
614.988	0.0150900
615.067	0.0149837
615.145	0.0148818
615.223	0.0150412
615.301	0.0150133
615.379	0.0151301
615.457	0.0150586
615.535	0.0147925
615.613	0.0147935
615.692	0.0149611
615.770	0.0148487
615.848	0.0149684
615.926	0.0148328
616.004	0.0147095
616.082	0.0148362
616.160	0.0149432
616.238	0.0149281
616.317	0.0149116
616.395	0.0148606
616.473	0.0148779
616.551	0.0149929
616.629	0.0150788
616.707	0.0151102
616.785	0.0150368
616.863	0.0151675
616.942	0.0149734
617.020	0.0151543
617.098	0.0152058
617.176	0.0151675
617.254	0.0154060
617.332	0.0151087
617.410	0.0151471
617.488	0.0153076
617.567	0.0152754
617.645	0.0152938
617.723	0.0151333
617.801	0.0151434
617.879	0.0153220
617.957	0.0151938
618.035	0.0150898
618.113	0.0149769
618.192	0.0148768
618.270	0.0150576
618.348	0.0150411
618.426	0.0150995
618.504	0.0148572
618.582	0.0148634
618.660	0.0148663
618.738	0.0150169
618.817	0.0149563
618.895	0.0148891
618.973	0.0148849
619.051	0.0149468
619.129	0.0149148
619.207	0.0147767
619.285	0.0147702
619.363	0.0150259
619.442	0.0150649
619.520	0.0150061
619.598	0.0149026
619.676	0.0149804
619.754	0.0148409
619.832	0.0147676
619.910	0.0148698
619.988	0.0149400
620.067	0.0150032
620.145	0.0150555
620.223	0.0148479
620.301	0.0148875
620.379	0.0148610
620.457	0.0149868
620.535	0.0147929
620.613	0.0148302
620.692	0.0149120
620.770	0.0148251
620.848	0.0148828
620.926	0.0147562
621.004	0.0149643
621.082	0.0147942
621.160	0.0147083
621.238	0.0148232
621.317	0.0147164
621.395	0.0146555
621.473	0.0147814
621.551	0.0147852
621.629	0.0148478
621.707	0.0148312
621.785	0.0147445
621.863	0.0148847
621.942	0.0147822
622.020	0.0149123
622.098	0.0149200
622.176	0.0150590
622.254	0.0150224
622.332	0.0152209
622.410	0.0152184
622.488	0.0152346
622.567	0.0152863
622.645	0.0153540
622.723	0.0154177
622.801	0.0153561
622.879	0.0152885
622.957	0.0152873
623.035	0.0152370
623.113	0.0153346
623.192	0.0154011
623.270	0.0151176
623.348	0.0151466
623.426	0.0150600
623.504	0.0152076
623.582	0.0152157
623.660	0.0151520
623.738	0.0152175
623.817	0.0150731
623.895	0.0151846
623.973	0.0151746
624.051	0.0151328
624.129	0.0151066
624.207	0.0150349
624.285	0.0150214
624.363	0.0150468
624.442	0.0150105
624.520	0.0149803
624.598	0.0150428
624.676	0.0150301
624.754	0.0149376
624.832	0.0148727
624.910	0.0150523
624.988	0.0149194
625.067	0.0150409
625.145	0.0150213
625.223	0.0151273
625.301	0.0150870
625.379	0.0150844
625.457	0.0151270
625.535	0.0151575
625.613	0.0151248
625.692	0.0151046
625.770	0.0151122
625.848	0.0151311
625.926	0.0151358
626.004	0.0152195
626.082	0.0153070
626.160	0.0151640
626.238	0.0151592
626.317	0.0151993
626.395	0.0151917
626.473	0.0150620
626.551	0.0151323
626.629	0.0151118
626.707	0.0149932
626.785	0.0150330
626.863	0.0149970
626.942	0.0149745
627.020	0.0150780
627.098	0.0151123
627.176	0.0149416
627.254	0.0149024
627.332	0.0149620
627.410	0.0150373
627.488	0.0151798
627.567	0.0150787
627.645	0.0150774
627.723	0.0150310
627.801	0.0150792
627.879	0.0152182
627.957	0.0152998
628.035	0.0152126
628.113	0.0150366
628.192	0.0151714
628.270	0.0152013
628.348	0.0150817
628.426	0.0151714
628.504	0.0152278
628.582	0.0149686
628.660	0.0151614
628.738	0.0150771
628.817	0.0150139
628.895	0.0149312
628.973	0.0150143
629.051	0.0150823
629.129	0.0149016
629.207	0.0149160
629.285	0.0147999
629.363	0.0148553
629.442	0.0148198
629.520	0.0146876
629.598	0.0148375
629.676	0.0147219
629.754	0.0148283
629.832	0.0147407
629.910	0.0147231
629.988	0.0146846
630.067	0.0146952
630.145	0.0147948
630.223	0.0149232
630.301	0.0150359
630.379	0.0149966
630.457	0.0150374
630.535	0.0150362
630.613	0.0149971
630.692	0.0150813
630.770	0.0150871
630.848	0.0151193
630.926	0.0150329
631.004	0.0152139
631.082	0.0151740
631.160	0.0151592
631.238	0.0152551
631.317	0.0150063
631.395	0.0150655
631.473	0.0151128
631.551	0.0150473
631.629	0.0149269
631.707	0.0148767
631.785	0.0148976
631.863	0.0149085
631.942	0.0150391
632.020	0.0150008
632.098	0.0148103
632.176	0.0149748
632.254	0.0148980
632.332	0.0148788
632.410	0.0149773
632.488	0.0149879
632.567	0.0149855
632.645	0.0149556
632.723	0.0148830
632.801	0.0149607
632.879	0.0149756
632.957	0.0149899
633.035	0.0151443
633.113	0.0150276
633.192	0.0151198
633.270	0.0150567
633.348	0.0149864
633.426	0.0151030
633.504	0.0152038
633.582	0.0150910
633.660	0.0149809
633.738	0.0150145
633.817	0.0151120
633.895	0.0150273
633.973	0.0149651
634.051	0.0150217
634.129	0.0149950
634.207	0.0149154
634.285	0.0147734
634.363	0.0149294
634.442	0.0149175
634.520	0.0148779
634.598	0.0148596
634.676	0.0148920
634.754	0.0148505
634.832	0.0147610
634.910	0.0149229
634.988	0.0149784
635.067	0.0149353
635.145	0.0148045
635.223	0.0148859
635.301	0.0149043
635.379	0.0148536
635.457	0.0149882
635.535	0.0149465
635.613	0.0149844
635.692	0.0149545
635.770	0.0148546
635.848	0.0150555
635.926	0.0149673
636.004	0.0151049
636.082	0.0149070
636.160	0.0150111
636.238	0.0151247
636.317	0.0149552
636.395	0.0149044
636.473	0.0149133
636.551	0.0150038
636.629	0.0149812
636.707	0.0150543
636.785	0.0149924
636.863	0.0148983
636.942	0.0148603
637.020	0.0149140
637.098	0.0149348
637.176	0.0148804
637.254	0.0149488
637.332	0.0150522
637.410	0.0151041
637.488	0.0151026
637.567	0.0150404
637.645	0.0148501
637.723	0.0149352
637.801	0.0149241
637.879	0.0147806
637.957	0.0148332
638.035	0.0148102
638.113	0.0148498
638.192	0.0147832
638.270	0.0148712
638.348	0.0148231
638.426	0.0147952
638.504	0.0146037
638.582	0.0147553
638.660	0.0146955
638.738	0.0147290
638.817	0.0146651
638.895	0.0148450
638.973	0.0148298
639.051	0.0147618
639.129	0.0146757
639.207	0.0146541
639.285	0.0148792
639.363	0.0148789
639.442	0.0147473
639.520	0.0148971
639.598	0.0148079
639.676	0.0147177
639.754	0.0148313
639.832	0.0148650
639.910	0.0148932
639.988	0.0147327
640.067	0.0148795
640.145	0.0148436
640.223	0.0148051
640.301	0.0147793
640.379	0.0147832
640.457	0.0149333
640.535	0.0148816
640.613	0.0148575
640.692	0.0149262
640.770	0.0148579
640.848	0.0147894
640.926	0.0148132
641.004	0.0148503
641.082	0.0148345
641.160	0.0148722
641.238	0.0147777
641.317	0.0147707
641.395	0.0147800
641.473	0.0148858
641.551	0.0148870
641.629	0.0149120
641.707	0.0148328
641.785	0.0148328
641.863	0.0148353
641.942	0.0150814
642.020	0.0149699
642.098	0.0148978
642.176	0.0151846
642.254	0.0149922
642.332	0.0150030
642.410	0.0150199
642.488	0.0151568
642.567	0.0150480
642.645	0.0150240
642.723	0.0150259
642.801	0.0150073
642.879	0.0150697
642.957	0.0149823
643.035	0.0148753
643.113	0.0149585
643.192	0.0149202
643.270	0.0149675
643.348	0.0150780
643.426	0.0150091
643.504	0.0151727
643.582	0.0150418
643.660	0.0150240
643.738	0.0151302
643.817	0.0151641
643.895	0.0150998
643.973	0.0152145
644.051	0.0152358
644.129	0.0152219
644.207	0.0153115
644.285	0.0153715
644.363	0.0152729
644.442	0.0153121
644.520	0.0154678
644.598	0.0154014
644.676	0.0153326
644.754	0.0153161
644.832	0.0153786
644.910	0.0153091
644.988	0.0154851
645.067	0.0155251
645.145	0.0152812
645.223	0.0154108
645.301	0.0154251
645.379	0.0154252
645.457	0.0153613
645.535	0.0154470
645.613	0.0153031
645.692	0.0153659
645.770	0.0153773
645.848	0.0154150
645.926	0.0155489
646.004	0.0153186
646.082	0.0154812
646.160	0.0153828
646.238	0.0153157
646.317	0.0152718
646.395	0.0152857
646.473	0.0153202
646.551	0.0151698
646.629	0.0152735
646.707	0.0151891
646.785	0.0151020
646.863	0.0150967
646.942	0.0151415
647.020	0.0150330
647.098	0.0150616
647.176	0.0149595
647.254	0.0150290
647.332	0.0150034
647.410	0.0150836
647.488	0.0148106
647.567	0.0150028
647.645	0.0149075
647.723	0.0148153
647.801	0.0147176
647.879	0.0147897
647.957	0.0147910
648.035	0.0147535
648.113	0.0147580
648.192	0.0145834
648.270	0.0146799
648.348	0.0146039
648.426	0.0146017
648.504	0.0145808
648.582	0.0146252
648.660	0.0145236
648.738	0.0146496
648.817	0.0146641
648.895	0.0145467
648.973	0.0146619
649.051	0.0146638
649.129	0.0147375
649.207	0.0146947
649.285	0.0147719
649.363	0.0146694
649.442	0.0146699
649.520	0.0148693
649.598	0.0146229
649.676	0.0146666
649.754	0.0147990
649.832	0.0148026
649.910	0.0149552
649.988	0.0149467
650.067	0.0150170
650.145	0.0149760
650.223	0.0149936
650.301	0.0148583
650.379	0.0149149
650.457	0.0149953
650.535	0.0149333
650.613	0.0150612
650.692	0.0149609
650.770	0.0149332
650.848	0.0149870
650.926	0.0149168
651.004	0.0148277
651.082	0.0147733
651.160	0.0149557
651.238	0.0147887
651.317	0.0148302
651.395	0.0146790
651.473	0.0147234
651.551	0.0147198
651.629	0.0148531
651.707	0.0148652
651.785	0.0148184
651.863	0.0148527
651.942	0.0147965
652.020	0.0150450
652.098	0.0149787
652.176	0.0148668
652.254	0.0149986
652.332	0.0150600
652.410	0.0150328
652.488	0.0150484
652.567	0.0150314
652.645	0.0150019
652.723	0.0150192
652.801	0.0150578
652.879	0.0148283
652.957	0.0149776
653.035	0.0150114
653.113	0.0149879
653.192	0.0149741
653.270	0.0151271
653.348	0.0148650
653.426	0.0148577
653.504	0.0149442
653.582	0.0149798
653.660	0.0150290
653.738	0.0151292
653.817	0.0150928
653.895	0.0150256
653.973	0.0151044
654.051	0.0148918
654.129	0.0149931
654.207	0.0151308
654.285	0.0150624
654.363	0.0151498
654.442	0.0151871
654.520	0.0151122
654.598	0.0150075
654.676	0.0151649
654.754	0.0151253
654.832	0.0150655
654.910	0.0150238
654.988	0.0150830
655.067	0.0149538
655.145	0.0148874
655.223	0.0149233
655.301	0.0147875
655.379	0.0147488
655.457	0.0149492
655.535	0.0147891
655.613	0.0146817
655.692	0.0148367
655.770	0.0149119
655.848	0.0146783
655.926	0.0147784
656.004	0.0148472
656.082	0.0146798
656.160	0.0146869
656.238	0.0146908
656.317	0.0149316
656.395	0.0148868
656.473	0.0147001
656.551	0.0149212
656.629	0.0146978
656.707	0.0149584
656.785	0.0149185
656.863	0.0148918
656.942	0.0149238
657.020	0.0149523
657.098	0.0149271
657.176	0.0147906
657.254	0.0149236
657.332	0.0148896
657.410	0.0148993
657.488	0.0148968
657.567	0.0150633
657.645	0.0147728
657.723	0.0148089
657.801	0.0148609
657.879	0.0148380
657.957	0.0148243
658.035	0.0149532
658.113	0.0148181
658.192	0.0148993
658.270	0.0150849
658.348	0.0149753
658.426	0.0150277
658.504	0.0149122
658.582	0.0146980
658.660	0.0149217
658.738	0.0148370
658.817	0.0149002
658.895	0.0148938
658.973	0.0149831
659.051	0.0148376
659.129	0.0147679
659.207	0.0148058
659.285	0.0148086
659.363	0.0148827
659.442	0.0146761
659.520	0.0147906
659.598	0.0148505
659.676	0.0146898
659.754	0.0147003
659.832	0.0146406
659.910	0.0146220
659.988	0.0147526
660.067	0.0147084
660.145	0.0146889
660.223	0.0146093
660.301	0.0145979
660.379	0.0146192
660.457	0.0145462
660.535	0.0145422
660.613	0.0146619
660.692	0.0146355
660.770	0.0144617
660.848	0.0145899
660.926	0.0147931
661.004	0.0145963
661.082	0.0146497
661.160	0.0146692
661.238	0.0147120
661.317	0.0146703
661.395	0.0148636
661.473	0.0148363
661.551	0.0148490
661.629	0.0148679
661.707	0.0147557
661.785	0.0148392
661.863	0.0147898
661.942	0.0147759
662.020	0.0146658
662.098	0.0148537
662.176	0.0147519
662.254	0.0150412
662.332	0.0148765
662.410	0.0149112
662.488	0.0149204
662.567	0.0148765
662.645	0.0151276
662.723	0.0149606
662.801	0.0151272
662.879	0.0149345
662.957	0.0149073
663.035	0.0150735
663.113	0.0150967
663.192	0.0149352
663.270	0.0149564
663.348	0.0149347
663.426	0.0149440
663.504	0.0149870
663.582	0.0149041
663.660	0.0148865
663.738	0.0147575
663.817	0.0149113
663.895	0.0148750
663.973	0.0149075
664.051	0.0146926
664.129	0.0147634
664.207	0.0149716
664.285	0.0148733
664.363	0.0147702
664.442	0.0148349
664.520	0.0148886
664.598	0.0150127
664.676	0.0149284
664.754	0.0150404
664.832	0.0150249
664.910	0.0149189
664.988	0.0149685
665.067	0.0150483
665.145	0.0151533
665.223	0.0149942
665.301	0.0149792
665.379	0.0149130
665.457	0.0149626
665.535	0.0149400
665.613	0.0149665
665.692	0.0150277
665.770	0.0148892
665.848	0.0148755
665.926	0.0149303
666.004	0.0149833
666.082	0.0149654
666.160	0.0149660
666.238	0.0150774
666.317	0.0151011
666.395	0.0151246
666.473	0.0151847
666.551	0.0150700
666.629	0.0151082
666.707	0.0151997
666.785	0.0150935
666.863	0.0151921
666.942	0.0151091
667.020	0.0151025
667.098	0.0150983
667.176	0.0149214
667.254	0.0151162
667.332	0.0149554
667.410	0.0149142
667.488	0.0148160
667.567	0.0151208
667.645	0.0148428
667.723	0.0148340
667.801	0.0148859
667.879	0.0150092
667.957	0.0150398
668.035	0.0149178
668.113	0.0148815
668.192	0.0149284
668.270	0.0149580
668.348	0.0148482
668.426	0.0148601
668.504	0.0149931
668.582	0.0147242
668.660	0.0148676
668.738	0.0149104
668.817	0.0149239
668.895	0.0148875
668.973	0.0150290
669.051	0.0148600
669.129	0.0149957
669.207	0.0148782
669.285	0.0148709
669.363	0.0148855
669.442	0.0147704
669.520	0.0149253
669.598	0.0148943
669.676	0.0149095
669.754	0.0146999
669.832	0.0148042
669.910	0.0150379
669.988	0.0149380
670.067	0.0149083
670.145	0.0149709
670.223	0.0147807
670.301	0.0149046
670.379	0.0149129
670.457	0.0149654
670.535	0.0148534
670.613	0.0149178
670.692	0.0149520
670.770	0.0148943
670.848	0.0148524
670.926	0.0148460
671.004	0.0149552
671.082	0.0147460
671.160	0.0146962
671.238	0.0147594
671.317	0.0146207
671.395	0.0147954
671.473	0.0149666
671.551	0.0146236
671.629	0.0146082
671.707	0.0145838
671.785	0.0146716
671.863	0.0147036
671.942	0.0148748
672.020	0.0147762
672.098	0.0147839
672.176	0.0148553
672.254	0.0148650
672.332	0.0150105
672.410	0.0148976
672.488	0.0149300
672.567	0.0149583
672.645	0.0149528
672.723	0.0149680
672.801	0.0149857
672.879	0.0148235
672.957	0.0149454
673.035	0.0149249
673.113	0.0149651
673.192	0.0150983
673.270	0.0148417
673.348	0.0149115
673.426	0.0149383
673.504	0.0148067
673.582	0.0148227
673.660	0.0148443
673.738	0.0148859
673.817	0.0149148
673.895	0.0149961
673.973	0.0148984
674.051	0.0150342
674.129	0.0149657
674.207	0.0148834
674.285	0.0151609
674.363	0.0150612
674.442	0.0150576
674.520	0.0151544
674.598	0.0151127
674.676	0.0151665
674.754	0.0152552
674.832	0.0151127
674.910	0.0151443
674.988	0.0152258
675.067	0.0151160
675.145	0.0152898
675.223	0.0151667
675.301	0.0150224
675.379	0.0150827
675.457	0.0149131
675.535	0.0150306
675.613	0.0149796
675.692	0.0149790
675.770	0.0148716
675.848	0.0149165
675.926	0.0147327
676.004	0.0148840
676.082	0.0147979
676.160	0.0148707
676.238	0.0148330
676.317	0.0146959
676.395	0.0148038
676.473	0.0147636
676.551	0.0145383
676.629	0.0146511
676.707	0.0147271
676.785	0.0148425
676.863	0.0149548
676.942	0.0148328
677.020	0.0148785
677.098	0.0147995
677.176	0.0149883
677.254	0.0149282
677.332	0.0150497
677.410	0.0151165
677.488	0.0150647
677.567	0.0151899
677.645	0.0152627
677.723	0.0152960
677.801	0.0153389
677.879	0.0152956
677.957	0.0154430
678.035	0.0153827
678.113	0.0154227
678.192	0.0155741
678.270	0.0154702
678.348	0.0154933
678.426	0.0153636
678.504	0.0153143
678.582	0.0152454
678.660	0.0152866
678.738	0.0152626
678.817	0.0151026
678.895	0.0150948
678.973	0.0150182
679.051	0.0149295
679.129	0.0149989
679.207	0.0149059
679.285	0.0148189
679.363	0.0148322
679.442	0.0147268
679.520	0.0148347
679.598	0.0146912
679.676	0.0146432
679.754	0.0146415
679.832	0.0146378
679.910	0.0146011
679.988	0.0146282
680.067	0.0147281
680.145	0.0147488
680.223	0.0146252
680.301	0.0146853
680.379	0.0147435
680.457	0.0146853
680.535	0.0146967
680.613	0.0147624
680.692	0.0147007
680.770	0.0146884
680.848	0.0147296
680.926	0.0149577
681.004	0.0148420
681.082	0.0147614
681.160	0.0148579
681.238	0.0148892
681.317	0.0149066
681.395	0.0148393
681.473	0.0147154
681.551	0.0149723
681.629	0.0148036
681.707	0.0148438
681.785	0.0151301
681.863	0.0148296
681.942	0.0149026
682.020	0.0149706
682.098	0.0151877
682.176	0.0148727
682.254	0.0150007
682.332	0.0150662
682.410	0.0151023
682.488	0.0150210
682.567	0.0149736
682.645	0.0150523
682.723	0.0149812
682.801	0.0150454
682.879	0.0149724
682.957	0.0149088
683.035	0.0149605
683.113	0.0148907
683.192	0.0147275
683.270	0.0148530
683.348	0.0148582
683.426	0.0147982
683.504	0.0148244
683.582	0.0147553
683.660	0.0146790
683.738	0.0147462
683.817	0.0146996
683.895	0.0145573
683.973	0.0145914
684.051	0.0145519
684.129	0.0144797
684.207	0.0146068
684.285	0.0145587
684.363	0.0145633
684.442	0.0145089
684.520	0.0144901
684.598	0.0144671
684.676	0.0145581
684.754	0.0145098
684.832	0.0147030
684.910	0.0144624
684.988	0.0146651
685.067	0.0148370
685.145	0.0146519
685.223	0.0146935
685.301	0.0148717
685.379	0.0148722
685.457	0.0148466
685.535	0.0150757
685.613	0.0149255
685.692	0.0150095
