05/28/2022	14:39:32	Ver.	4.1	UNKNOWN
Optical Delay	599.988409	Delta X		0.078125	Sweeps	1	Scan Rate	0/0
Coordinates	Axis 1	NaN	Axis 2	NaN	Axis 3	NaN	Axis 4	NaN	Axis 5	NaN	Axis 6	0.000000
TX Power	0.000000	RX Power	0.000000

599.988	0.0147776
600.067	0.0146371
600.145	0.0147257
600.223	0.0145087
600.301	0.0146228
600.379	0.0146288
600.457	0.0146654
600.535	0.0146871
600.613	0.0147205
600.692	0.0147602
600.770	0.0147358
600.848	0.0148038
600.926	0.0148431
601.004	0.0148054
601.082	0.0148092
601.160	0.0148508
601.238	0.0149121
601.317	0.0149097
601.395	0.0149442
601.473	0.0150211
601.551	0.0149533
601.629	0.0150992
601.707	0.0149860
601.785	0.0150209
601.863	0.0150145
601.942	0.0149866
602.020	0.0149088
602.098	0.0149158
602.176	0.0150109
602.254	0.0148827
602.332	0.0149706
602.410	0.0150224
602.488	0.0150140
602.567	0.0148812
602.645	0.0149125
602.723	0.0150369
602.801	0.0149039
602.879	0.0149649
602.957	0.0149418
603.035	0.0150164
603.113	0.0150829
603.192	0.0148335
603.270	0.0148798
603.348	0.0149319
603.426	0.0150459
603.504	0.0147755
603.582	0.0148902
603.660	0.0147999
603.738	0.0149029
603.817	0.0149360
603.895	0.0149763
603.973	0.0149365
604.051	0.0148088
604.129	0.0147935
604.207	0.0148358
604.285	0.0147149
604.363	0.0148025
604.442	0.0147462
604.520	0.0146743
604.598	0.0145673
604.676	0.0147172
604.754	0.0147128
604.832	0.0146496
604.910	0.0147120
604.988	0.0146296
605.067	0.0146555
605.145	0.0145998
605.223	0.0146481
605.301	0.0147214
605.379	0.0146401
605.457	0.0145964
605.535	0.0145904
605.613	0.0146795
605.692	0.0146147
605.770	0.0145880
605.848	0.0147002
605.926	0.0146253
606.004	0.0147044
606.082	0.0147957
606.160	0.0147406
606.238	0.0147791
606.317	0.0148865
606.395	0.0148708
606.473	0.0147012
606.551	0.0147118
606.629	0.0147384
606.707	0.0147877
606.785	0.0147284
606.863	0.0148102
606.942	0.0147247
607.020	0.0147883
607.098	0.0148493
607.176	0.0149628
607.254	0.0148282
607.332	0.0147436
607.410	0.0147900
607.488	0.0148861
607.567	0.0148712
607.645	0.0147231
607.723	0.0149256
607.801	0.0148237
607.879	0.0147404
607.957	0.0148141
608.035	0.0145750
608.113	0.0147118
608.192	0.0147858
608.270	0.0146761
608.348	0.0147655
608.426	0.0148209
608.504	0.0147773
608.582	0.0148379
608.660	0.0149370
608.738	0.0148913
608.817	0.0149198
608.895	0.0149575
608.973	0.0148883
609.051	0.0150465
609.129	0.0151829
609.207	0.0150449
609.285	0.0150653
609.363	0.0151796
609.442	0.0151717
609.520	0.0150316
609.598	0.0150745
609.676	0.0153511
609.754	0.0152773
609.832	0.0153189
609.910	0.0150827
609.988	0.0151727
610.067	0.0153238
610.145	0.0152896
610.223	0.0152655
610.301	0.0152256
610.379	0.0151456
610.457	0.0151767
610.535	0.0151411
610.613	0.0151212
610.692	0.0151639
610.770	0.0151724
610.848	0.0151186
610.926	0.0151348
611.004	0.0151145
611.082	0.0151062
611.160	0.0149927
611.238	0.0150074
611.317	0.0148412
611.395	0.0149062
611.473	0.0149499
611.551	0.0149286
611.629	0.0148590
611.707	0.0147985
611.785	0.0147396
611.863	0.0147002
611.942	0.0147262
612.020	0.0146199
612.098	0.0148025
612.176	0.0146288
612.254	0.0147526
612.332	0.0144772
612.410	0.0146841
612.488	0.0145293
612.567	0.0146304
612.645	0.0147034
612.723	0.0146842
612.801	0.0146554
612.879	0.0146685
612.957	0.0146409
613.035	0.0147581
613.113	0.0148033
613.192	0.0147915
613.270	0.0148107
613.348	0.0148710
613.426	0.0147768
613.504	0.0147516
613.582	0.0148151
613.660	0.0148460
613.738	0.0148434
613.817	0.0149318
613.895	0.0146738
613.973	0.0147958
614.051	0.0149110
614.129	0.0147462
614.207	0.0147338
614.285	0.0147858
614.363	0.0148540
614.442	0.0147362
614.520	0.0147997
614.598	0.0148523
614.676	0.0149259
614.754	0.0146123
614.832	0.0147396
614.910	0.0149053
614.988	0.0147773
615.067	0.0147950
615.145	0.0147605
615.223	0.0146893
615.301	0.0147653
615.379	0.0147723
615.457	0.0146474
615.535	0.0146302
615.613	0.0148887
615.692	0.0147186
615.770	0.0146772
615.848	0.0146711
615.926	0.0147462
616.004	0.0147166
616.082	0.0147450
616.160	0.0146983
616.238	0.0148923
616.317	0.0147846
616.395	0.0146694
616.473	0.0148532
616.551	0.0148714
616.629	0.0149485
616.707	0.0148562
616.785	0.0147112
616.863	0.0148421
616.942	0.0149258
617.020	0.0147995
617.098	0.0147578
617.176	0.0147363
617.254	0.0148771
617.332	0.0147337
617.410	0.0148154
617.488	0.0148026
617.567	0.0147005
617.645	0.0148141
617.723	0.0148299
617.801	0.0147661
617.879	0.0148615
617.957	0.0147216
618.035	0.0147513
618.113	0.0149514
618.192	0.0149318
618.270	0.0148226
618.348	0.0148665
618.426	0.0149628
618.504	0.0148209
618.582	0.0149911
618.660	0.0149681
618.738	0.0148438
618.817	0.0149521
618.895	0.0149826
618.973	0.0150374
619.051	0.0151602
619.129	0.0150570
619.207	0.0149724
619.285	0.0150809
619.363	0.0149921
619.442	0.0149843
619.520	0.0150705
619.598	0.0149217
619.676	0.0149789
619.754	0.0150980
619.832	0.0150847
619.910	0.0150218
619.988	0.0150899
620.067	0.0149761
620.145	0.0150426
620.223	0.0150239
620.301	0.0150161
620.379	0.0149237
620.457	0.0150216
620.535	0.0150111
620.613	0.0150636
620.692	0.0150256
620.770	0.0148042
620.848	0.0148685
620.926	0.0150308
621.004	0.0148985
621.082	0.0148778
621.160	0.0147853
621.238	0.0149974
621.317	0.0148540
621.395	0.0148679
621.473	0.0148943
621.551	0.0148699
621.629	0.0150922
621.707	0.0151338
621.785	0.0150880
621.863	0.0150632
621.942	0.0151841
622.020	0.0150985
622.098	0.0151376
622.176	0.0151576
622.254	0.0150380
622.332	0.0151102
622.410	0.0151344
622.488	0.0150359
622.567	0.0151250
622.645	0.0150050
622.723	0.0150252
622.801	0.0148751
622.879	0.0150486
622.957	0.0149044
623.035	0.0147968
623.113	0.0148414
623.192	0.0148586
623.270	0.0148020
623.348	0.0146752
623.426	0.0148766
623.504	0.0148660
623.582	0.0148383
623.660	0.0147223
623.738	0.0147314
623.817	0.0148215
623.895	0.0147642
623.973	0.0148161
624.051	0.0147587
624.129	0.0147294
624.207	0.0148759
624.285	0.0148927
624.363	0.0147869
624.442	0.0149382
624.520	0.0148845
624.598	0.0147372
624.676	0.0147057
624.754	0.0148029
624.832	0.0147602
624.910	0.0149168
624.988	0.0147575
625.067	0.0147849
625.145	0.0149063
625.223	0.0147923
625.301	0.0147489
625.379	0.0147716
625.457	0.0148278
625.535	0.0147676
625.613	0.0147872
625.692	0.0147048
625.770	0.0147633
625.848	0.0147599
625.926	0.0146526
626.004	0.0147540
626.082	0.0147101
626.160	0.0145288
626.238	0.0145876
626.317	0.0146328
626.395	0.0146699
626.473	0.0144705
626.551	0.0144202
626.629	0.0145457
626.707	0.0145195
626.785	0.0146080
626.863	0.0146559
626.942	0.0145395
627.020	0.0146479
627.098	0.0146339
627.176	0.0147771
627.254	0.0147167
627.332	0.0146542
627.410	0.0147538
627.488	0.0148782
627.567	0.0147954
627.645	0.0148312
627.723	0.0148257
627.801	0.0147293
627.879	0.0149126
627.957	0.0146885
628.035	0.0147784
628.113	0.0148156
628.192	0.0147167
628.270	0.0147286
628.348	0.0147754
628.426	0.0146563
628.504	0.0147030
628.582	0.0147427
628.660	0.0146390
628.738	0.0146087
628.817	0.0145644
628.895	0.0145570
628.973	0.0143733
629.051	0.0145354
629.129	0.0145028
629.207	0.0143810
629.285	0.0145522
629.363	0.0144759
629.442	0.0145729
629.520	0.0145451
629.598	0.0144946
629.676	0.0145332
629.754	0.0146008
629.832	0.0146639
629.910	0.0146655
629.988	0.0147510
630.067	0.0147781
630.145	0.0148811
630.223	0.0148933
630.301	0.0148330
630.379	0.0149001
630.457	0.0147883
630.535	0.0149118
630.613	0.0150780
630.692	0.0150604
630.770	0.0151154
630.848	0.0150166
630.926	0.0148640
631.004	0.0148166
631.082	0.0150375
631.160	0.0149895
631.238	0.0149181
631.317	0.0148713
631.395	0.0148954
631.473	0.0148192
631.551	0.0148965
631.629	0.0148199
631.707	0.0148173
631.785	0.0148724
631.863	0.0148320
631.942	0.0147459
632.020	0.0149418
632.098	0.0149434
632.176	0.0147649
632.254	0.0148260
632.332	0.0149673
632.410	0.0150335
632.488	0.0149168
632.567	0.0149466
632.645	0.0150067
632.723	0.0149006
632.801	0.0150394
632.879	0.0150303
632.957	0.0150152
633.035	0.0148746
633.113	0.0148551
633.192	0.0148306
633.270	0.0148654
633.348	0.0148162
633.426	0.0147312
633.504	0.0147964
633.582	0.0146486
633.660	0.0146978
633.738	0.0146430
633.817	0.0146793
633.895	0.0145949
633.973	0.0147022
634.051	0.0145450
634.129	0.0144992
634.207	0.0147223
634.285	0.0147335
634.363	0.0144337
634.442	0.0145068
634.520	0.0145453
634.598	0.0146107
634.676	0.0146830
634.754	0.0146852
634.832	0.0145383
634.910	0.0145497
634.988	0.0146767
635.067	0.0145180
635.145	0.0146936
635.223	0.0146371
635.301	0.0147510
635.379	0.0147557
635.457	0.0146625
635.535	0.0148371
635.613	0.0147221
635.692	0.0146571
635.770	0.0146466
635.848	0.0145732
635.926	0.0146163
636.004	0.0147354
636.082	0.0146726
636.160	0.0146567
636.238	0.0147137
636.317	0.0145973
636.395	0.0146194
636.473	0.0145222
636.551	0.0146121
636.629	0.0147280
636.707	0.0146389
636.785	0.0145321
636.863	0.0146135
636.942	0.0146812
637.020	0.0146909
637.098	0.0146366
637.176	0.0147773
637.254	0.0146976
637.332	0.0146836
637.410	0.0145421
637.488	0.0146530
637.567	0.0146667
637.645	0.0147507
637.723	0.0146607
637.801	0.0145589
637.879	0.0146432
637.957	0.0146305
638.035	0.0147429
638.113	0.0147944
638.192	0.0147388
638.270	0.0148447
638.348	0.0147273
638.426	0.0148033
638.504	0.0148360
638.582	0.0148998
638.660	0.0148489
638.738	0.0149479
638.817	0.0149438
638.895	0.0150584
638.973	0.0148363
639.051	0.0149276
639.129	0.0151498
639.207	0.0150076
639.285	0.0150206
639.363	0.0151820
639.442	0.0149847
639.520	0.0151079
639.598	0.0149211
639.676	0.0151106
639.754	0.0151017
639.832	0.0152119
639.910	0.0151851
639.988	0.0150709
640.067	0.0151385
640.145	0.0150767
640.223	0.0151035
640.301	0.0152875
640.379	0.0152433
640.457	0.0151824
640.535	0.0150981
640.613	0.0152168
640.692	0.0153293
640.770	0.0151941
640.848	0.0152448
640.926	0.0153976
641.004	0.0151749
641.082	0.0151774
641.160	0.0153674
641.238	0.0152557
641.317	0.0152794
641.395	0.0152062
641.473	0.0151677
641.551	0.0151006
641.629	0.0153112
641.707	0.0152779
641.785	0.0153103
641.863	0.0151265
641.942	0.0151987
642.020	0.0150142
642.098	0.0150836
642.176	0.0150377
642.254	0.0150400
642.332	0.0148534
642.410	0.0151250
642.488	0.0148219
642.567	0.0148201
642.645	0.0149290
642.723	0.0149387
642.801	0.0147845
642.879	0.0148287
642.957	0.0147414
643.035	0.0148381
643.113	0.0148399
643.192	0.0148170
643.270	0.0147227
643.348	0.0147728
643.426	0.0147338
643.504	0.0147444
643.582	0.0146119
643.660	0.0147296
643.738	0.0147591
643.817	0.0145499
643.895	0.0146908
643.973	0.0146724
644.051	0.0146698
644.129	0.0147897
644.207	0.0147598
644.285	0.0146661
644.363	0.0146777
644.442	0.0145879
644.520	0.0145031
644.598	0.0146141
644.676	0.0146386
644.754	0.0145545
644.832	0.0147896
644.910	0.0148244
644.988	0.0146000
645.067	0.0145732
645.145	0.0146335
645.223	0.0147266
645.301	0.0147536
645.379	0.0146573
645.457	0.0146171
645.535	0.0146097
645.613	0.0146671
645.692	0.0146587
645.770	0.0144899
645.848	0.0145089
645.926	0.0145316
646.004	0.0145942
646.082	0.0145699
646.160	0.0144343
646.238	0.0144662
646.317	0.0144722
646.395	0.0145876
646.473	0.0145563
646.551	0.0145220
646.629	0.0145424
646.707	0.0144749
646.785	0.0144585
646.863	0.0145052
646.942	0.0145847
647.020	0.0145372
647.098	0.0145982
647.176	0.0146919
647.254	0.0146753
647.332	0.0146205
647.410	0.0146274
647.488	0.0147292
647.567	0.0146413
647.645	0.0147447
647.723	0.0146816
647.801	0.0147759
647.879	0.0147256
647.957	0.0146847
648.035	0.0146031
648.113	0.0146681
648.192	0.0145292
648.270	0.0145892
648.348	0.0147166
648.426	0.0145567
648.504	0.0146490
648.582	0.0146907
648.660	0.0147627
648.738	0.0147514
648.817	0.0146640
648.895	0.0146204
648.973	0.0148592
649.051	0.0147820
649.129	0.0146842
649.207	0.0147214
649.285	0.0147865
649.363	0.0148708
649.442	0.0148558
649.520	0.0149545
649.598	0.0149211
649.676	0.0149314
649.754	0.0149413
649.832	0.0149805
649.910	0.0149924
649.988	0.0150561
650.067	0.0150806
650.145	0.0149754
650.223	0.0149474
650.301	0.0149036
650.379	0.0149078
650.457	0.0149657
650.535	0.0148139
650.613	0.0148663
650.692	0.0146808
650.770	0.0147489
650.848	0.0146939
650.926	0.0147403
651.004	0.0146290
651.082	0.0146493
651.160	0.0145066
651.238	0.0145699
651.317	0.0146564
651.395	0.0147681
651.473	0.0146604
651.551	0.0147234
651.629	0.0146667
651.707	0.0147386
651.785	0.0147826
651.863	0.0147495
651.942	0.0147389
652.020	0.0148125
652.098	0.0148119
652.176	0.0147723
652.254	0.0147431
652.332	0.0147675
652.410	0.0147275
652.488	0.0149394
652.567	0.0148152
652.645	0.0147557
652.723	0.0147632
652.801	0.0148033
652.879	0.0148624
652.957	0.0146899
653.035	0.0145933
653.113	0.0147465
653.192	0.0146011
653.270	0.0145859
653.348	0.0145889
653.426	0.0147399
653.504	0.0147433
653.582	0.0148167
653.660	0.0146583
653.738	0.0145399
653.817	0.0146361
653.895	0.0147030
653.973	0.0146706
654.051	0.0148116
654.129	0.0146766
654.207	0.0148228
654.285	0.0148553
654.363	0.0147948
654.442	0.0146332
654.520	0.0147628
654.598	0.0146004
654.676	0.0147628
654.754	0.0146754
654.832	0.0146558
654.910	0.0146574
654.988	0.0146088
655.067	0.0146753
655.145	0.0145469
655.223	0.0147267
655.301	0.0145893
655.379	0.0145271
655.457	0.0146179
655.535	0.0146301
655.613	0.0147002
655.692	0.0147285
655.770	0.0145076
655.848	0.0144518
655.926	0.0146165
656.004	0.0145969
656.082	0.0145576
656.160	0.0145596
656.238	0.0146365
656.317	0.0146067
656.395	0.0146407
656.473	0.0144823
656.551	0.0145493
656.629	0.0147345
656.707	0.0146230
656.785	0.0146445
656.863	0.0145441
656.942	0.0146439
657.020	0.0146344
657.098	0.0145734
657.176	0.0147029
657.254	0.0146690
657.332	0.0146914
657.410	0.0146822
657.488	0.0146646
657.567	0.0148255
657.645	0.0147250
657.723	0.0148453
657.801	0.0146710
657.879	0.0146046
657.957	0.0147987
658.035	0.0148730
658.113	0.0147859
658.192	0.0148129
658.270	0.0147704
658.348	0.0148742
658.426	0.0148942
658.504	0.0147460
658.582	0.0148192
658.660	0.0149226
658.738	0.0148824
658.817	0.0147015
658.895	0.0147976
658.973	0.0149270
659.051	0.0148785
659.129	0.0147986
659.207	0.0149451
659.285	0.0148035
659.363	0.0147211
659.442	0.0149033
659.520	0.0148321
659.598	0.0148495
659.676	0.0147419
659.754	0.0147125
659.832	0.0147549
659.910	0.0147695
659.988	0.0147373
660.067	0.0148046
660.145	0.0146661
660.223	0.0146782
660.301	0.0146308
660.379	0.0146995
660.457	0.0146257
660.535	0.0144759
660.613	0.0145724
660.692	0.0147355
660.770	0.0147350
660.848	0.0146313
660.926	0.0147356
661.004	0.0146722
661.082	0.0147942
661.160	0.0148277
661.238	0.0147253
661.317	0.0148164
661.395	0.0148428
661.473	0.0148745
661.551	0.0148264
661.629	0.0150797
661.707	0.0149898
661.785	0.0151118
661.863	0.0149491
661.942	0.0150543
662.020	0.0149377
662.098	0.0150990
662.176	0.0151047
662.254	0.0149156
662.332	0.0149449
662.410	0.0150549
662.488	0.0151259
662.567	0.0151824
662.645	0.0149888
662.723	0.0149728
662.801	0.0150582
662.879	0.0150871
662.957	0.0151655
663.035	0.0150107
663.113	0.0149084
663.192	0.0149741
663.270	0.0149183
663.348	0.0148668
663.426	0.0148502
663.504	0.0148920
663.582	0.0147636
663.660	0.0148371
663.738	0.0147336
663.817	0.0148287
663.895	0.0147812
663.973	0.0146712
664.051	0.0147408
664.129	0.0146441
664.207	0.0146683
664.285	0.0147224
664.363	0.0146134
664.442	0.0145770
664.520	0.0147014
664.598	0.0145884
664.676	0.0145434
664.754	0.0147850
664.832	0.0147059
664.910	0.0146284
664.988	0.0146131
665.067	0.0147169
665.145	0.0147265
665.223	0.0147541
665.301	0.0148303
665.379	0.0147533
665.457	0.0147965
665.535	0.0148127
665.613	0.0148945
665.692	0.0148079
665.770	0.0149281
665.848	0.0150445
665.926	0.0148650
666.004	0.0148239
666.082	0.0148138
666.160	0.0149287
666.238	0.0148417
666.317	0.0147004
666.395	0.0148578
666.473	0.0147667
666.551	0.0147138
666.629	0.0146658
666.707	0.0148194
666.785	0.0147357
666.863	0.0147191
666.942	0.0146366
667.020	0.0145793
667.098	0.0145842
667.176	0.0146902
667.254	0.0146884
667.332	0.0147216
667.410	0.0144827
667.488	0.0146895
667.567	0.0145127
667.645	0.0145631
667.723	0.0144049
667.801	0.0146339
667.879	0.0144874
667.957	0.0144861
668.035	0.0144448
668.113	0.0144657
668.192	0.0146177
668.270	0.0145860
668.348	0.0145704
668.426	0.0145948
668.504	0.0146207
668.582	0.0145547
668.660	0.0145784
668.738	0.0146310
668.817	0.0146241
668.895	0.0146810
668.973	0.0147570
669.051	0.0144715
669.129	0.0145435
669.207	0.0147668
669.285	0.0147812
669.363	0.0146458
669.442	0.0146210
669.520	0.0145638
669.598	0.0146233
669.676	0.0146661
669.754	0.0146464
669.832	0.0147426
669.910	0.0146574
669.988	0.0147252
670.067	0.0147390
670.145	0.0147857
670.223	0.0147263
670.301	0.0148400
670.379	0.0147060
670.457	0.0147463
670.535	0.0148575
670.613	0.0148650
670.692	0.0148741
670.770	0.0147340
670.848	0.0147425
670.926	0.0147998
671.004	0.0148607
671.082	0.0147018
671.160	0.0146484
671.238	0.0148489
671.317	0.0147268
671.395	0.0147496
671.473	0.0147215
671.551	0.0146211
671.629	0.0146529
671.707	0.0148262
671.785	0.0147592
671.863	0.0147054
671.942	0.0146915
672.020	0.0149274
672.098	0.0148454
672.176	0.0147526
672.254	0.0149653
672.332	0.0149557
672.410	0.0149107
672.488	0.0149012
672.567	0.0149393
672.645	0.0149081
672.723	0.0150769
672.801	0.0150032
672.879	0.0149491
672.957	0.0149360
673.035	0.0150260
673.113	0.0148923
673.192	0.0150309
673.270	0.0149683
673.348	0.0148987
673.426	0.0148518
673.504	0.0149357
673.582	0.0149930
673.660	0.0149033
673.738	0.0149783
673.817	0.0147932
673.895	0.0148200
673.973	0.0150077
674.051	0.0148949
674.129	0.0149345
674.207	0.0149258
674.285	0.0151329
674.363	0.0151516
674.442	0.0149583
674.520	0.0150983
674.598	0.0151463
674.676	0.0152745
674.754	0.0151257
674.832	0.0153172
674.910	0.0152165
674.988	0.0152570
675.067	0.0152341
675.145	0.0151523
675.223	0.0152878
675.301	0.0152557
675.379	0.0152690
675.457	0.0150460
675.535	0.0150036
675.613	0.0150517
675.692	0.0148060
675.770	0.0148183
675.848	0.0147293
675.926	0.0147221
676.004	0.0146712
676.082	0.0147607
676.160	0.0147628
676.238	0.0145339
676.317	0.0145379
676.395	0.0146274
676.473	0.0145931
676.551	0.0143700
676.629	0.0146318
676.707	0.0147305
676.785	0.0145148
676.863	0.0145261
676.942	0.0146584
677.020	0.0146190
677.098	0.0146323
677.176	0.0146903
677.254	0.0147103
677.332	0.0148344
677.410	0.0148490
677.488	0.0146199
677.567	0.0149885
677.645	0.0148528
677.723	0.0149371
677.801	0.0149337
677.879	0.0149711
677.957	0.0147769
678.035	0.0150468
678.113	0.0149264
678.192	0.0149232
678.270	0.0148527
678.348	0.0148300
678.426	0.0148967
678.504	0.0149570
678.582	0.0148286
678.660	0.0147311
678.738	0.0147984
678.817	0.0147131
678.895	0.0145254
678.973	0.0146409
679.051	0.0145256
679.129	0.0146671
679.207	0.0145950
679.285	0.0144785
679.363	0.0144205
679.442	0.0144668
679.520	0.0144876
679.598	0.0144340
679.676	0.0143678
679.754	0.0144538
679.832	0.0145695
679.910	0.0144256
679.988	0.0145593
680.067	0.0147043
680.145	0.0144977
680.223	0.0146597
680.301	0.0146503
680.379	0.0145396
680.457	0.0144922
680.535	0.0146858
680.613	0.0146582
680.692	0.0145422
680.770	0.0145665
680.848	0.0145366
680.926	0.0146088
681.004	0.0145394
681.082	0.0145838
681.160	0.0145898
681.238	0.0145860
681.317	0.0145994
681.395	0.0146385
681.473	0.0146659
681.551	0.0146320
681.629	0.0149001
681.707	0.0147924
681.785	0.0147639
681.863	0.0149651
681.942	0.0148425
682.020	0.0148907
682.098	0.0148618
682.176	0.0149240
682.254	0.0150219
682.332	0.0150555
682.410	0.0149477
682.488	0.0149284
682.567	0.0150063
682.645	0.0150043
682.723	0.0150780
682.801	0.0150800
682.879	0.0150690
682.957	0.0150769
683.035	0.0151798
683.113	0.0150808
683.192	0.0151347
683.270	0.0149432
683.348	0.0150981
683.426	0.0149683
683.504	0.0151257
683.582	0.0151156
683.660	0.0149350
683.738	0.0150390
683.817	0.0150152
683.895	0.0149662
683.973	0.0148735
684.051	0.0149227
684.129	0.0148233
684.207	0.0147033
684.285	0.0148123
684.363	0.0148247
684.442	0.0147229
684.520	0.0148006
684.598	0.0147464
684.676	0.0148357
684.754	0.0147189
684.832	0.0149465
684.910	0.0148890
684.988	0.0150233
685.067	0.0148940
685.145	0.0149159
685.223	0.0149268
685.301	0.0151328
685.379	0.0151669
685.457	0.0153240
685.535	0.0152666
685.613	0.0151796
685.692	0.0151991
