05/28/2022	14:41:32	Ver.	4.1	UNKNOWN
Optical Delay	559.987403	Delta X		0.078125	Sweeps	1	Scan Rate	0/0
Coordinates	Axis 1	NaN	Axis 2	NaN	Axis 3	NaN	Axis 4	NaN	Axis 5	NaN	Axis 6	0.000000
TX Power	0.000000	RX Power	0.000000

559.987	0.0143533
560.066	0.0141497
560.144	0.0141890
560.222	0.0141027
560.300	0.0142659
560.378	0.0142243
560.456	0.0142120
560.534	0.0142467
560.612	0.0142760
560.691	0.0142429
560.769	0.0142809
560.847	0.0143502
560.925	0.0142338
561.003	0.0143777
561.081	0.0143947
561.159	0.0142452
561.237	0.0142331
561.316	0.0143847
561.394	0.0143842
561.472	0.0143301
561.550	0.0143951
561.628	0.0143281
561.706	0.0144627
561.784	0.0145148
561.862	0.0145037
561.941	0.0143550
562.019	0.0143828
562.097	0.0144778
562.175	0.0144014
562.253	0.0143642
562.331	0.0144649
562.409	0.0143539
562.487	0.0144123
562.566	0.0144429
562.644	0.0143702
562.722	0.0143893
562.800	0.0144534
562.878	0.0144756
562.956	0.0143448
563.034	0.0144102
563.112	0.0143180
563.191	0.0144176
563.269	0.0145030
563.347	0.0144174
563.425	0.0144451
563.503	0.0144577
563.581	0.0144646
563.659	0.0144594
563.737	0.0144080
563.816	0.0143893
563.894	0.0144100
563.972	0.0144342
564.050	0.0145241
564.128	0.0144382
564.206	0.0144140
564.284	0.0145031
564.362	0.0145923
564.441	0.0145640
564.519	0.0146404
564.597	0.0145723
564.675	0.0146371
564.753	0.0146309
564.831	0.0146297
564.909	0.0146189
564.987	0.0147556
565.066	0.0146795
565.144	0.0146014
565.222	0.0146868
565.300	0.0146855
565.378	0.0146062
565.456	0.0147601
565.534	0.0148010
565.612	0.0146786
565.691	0.0147740
565.769	0.0147586
565.847	0.0145584
565.925	0.0147631
566.003	0.0146722
566.081	0.0147516
566.159	0.0148441
566.237	0.0148223
566.316	0.0147449
566.394	0.0149345
566.472	0.0147148
566.550	0.0146876
566.628	0.0148336
566.706	0.0148158
566.784	0.0147272
566.862	0.0147131
566.941	0.0148737
567.019	0.0147690
567.097	0.0147337
567.175	0.0147422
567.253	0.0148110
567.331	0.0147690
567.409	0.0148640
567.487	0.0148856
567.566	0.0147051
567.644	0.0148472
567.722	0.0148370
567.800	0.0148152
567.878	0.0147462
567.956	0.0148349
568.034	0.0146954
568.112	0.0147691
568.191	0.0147766
568.269	0.0146024
568.347	0.0148063
568.425	0.0148235
568.503	0.0146822
568.581	0.0147318
568.659	0.0147540
568.737	0.0147670
568.816	0.0146546
568.894	0.0147465
568.972	0.0146488
569.050	0.0147162
569.128	0.0148695
569.206	0.0147130
569.284	0.0147124
569.362	0.0147363
569.441	0.0146526
569.519	0.0147069
569.597	0.0146339
569.675	0.0146026
569.753	0.0146709
569.831	0.0147200
569.909	0.0146162
569.987	0.0146027
570.066	0.0146416
570.144	0.0147692
570.222	0.0146995
570.300	0.0145330
570.378	0.0145874
570.456	0.0147319
570.534	0.0146005
570.612	0.0146793
570.691	0.0145612
570.769	0.0145561
570.847	0.0146446
570.925	0.0146333
571.003	0.0145807
571.081	0.0145305
571.159	0.0145822
571.237	0.0145474
571.316	0.0145124
571.394	0.0146283
571.472	0.0144897
571.550	0.0144987
571.628	0.0145864
571.706	0.0145941
571.784	0.0144993
571.862	0.0146620
571.941	0.0146055
572.019	0.0146718
572.097	0.0146294
572.175	0.0146581
572.253	0.0146369
572.331	0.0145345
572.409	0.0146976
572.487	0.0147176
572.566	0.0145583
572.644	0.0145834
572.722	0.0146804
572.800	0.0145499
572.878	0.0145906
572.956	0.0145865
573.034	0.0146983
573.112	0.0147526
573.191	0.0146640
573.269	0.0147765
573.347	0.0147828
573.425	0.0147137
573.503	0.0145477
573.581	0.0147396
573.659	0.0147349
573.737	0.0147157
573.816	0.0147191
573.894	0.0149603
573.972	0.0146667
574.050	0.0147252
574.128	0.0147617
574.206	0.0146526
574.284	0.0147841
574.362	0.0148241
574.441	0.0149062
574.519	0.0148088
574.597	0.0146798
574.675	0.0148000
574.753	0.0147443
574.831	0.0147390
574.909	0.0147025
574.987	0.0147603
575.066	0.0147208
575.144	0.0147945
575.222	0.0146265
575.300	0.0147340
575.378	0.0147591
575.456	0.0147620
575.534	0.0146793
575.612	0.0147910
575.691	0.0148965
575.769	0.0148444
575.847	0.0147223
575.925	0.0149134
576.003	0.0148306
576.081	0.0147973
576.159	0.0147057
576.237	0.0147041
576.316	0.0147501
576.394	0.0147083
576.472	0.0148940
576.550	0.0148428
576.628	0.0147499
576.706	0.0147031
576.784	0.0146476
576.862	0.0147858
576.941	0.0147009
577.019	0.0148003
577.097	0.0147726
577.175	0.0147564
577.253	0.0148814
577.331	0.0148234
577.409	0.0148956
577.487	0.0147897
577.566	0.0148074
577.644	0.0149312
577.722	0.0149451
577.800	0.0148715
577.878	0.0149694
577.956	0.0149780
578.034	0.0149818
578.112	0.0148020
578.191	0.0147755
578.269	0.0148365
578.347	0.0148467
578.425	0.0148875
578.503	0.0147628
578.581	0.0148520
578.659	0.0149044
578.737	0.0148801
578.816	0.0149010
578.894	0.0149557
578.972	0.0149010
579.050	0.0150244
579.128	0.0150932
579.206	0.0148793
579.284	0.0148721
579.362	0.0150520
579.441	0.0149750
579.519	0.0150203
579.597	0.0148791
579.675	0.0148798
579.753	0.0148003
579.831	0.0149364
579.909	0.0149854
579.987	0.0149306
580.066	0.0148441
580.144	0.0148629
580.222	0.0147618
580.300	0.0149526
580.378	0.0148792
580.456	0.0148534
580.534	0.0146925
580.612	0.0148936
580.691	0.0148431
580.769	0.0147272
580.847	0.0146654
580.925	0.0145039
581.003	0.0145779
581.081	0.0147556
581.159	0.0147875
581.237	0.0146490
581.316	0.0145486
581.394	0.0146323
581.472	0.0146465
581.550	0.0146262
581.628	0.0144243
581.706	0.0143388
581.784	0.0142681
581.862	0.0145784
581.941	0.0145062
582.019	0.0144842
582.097	0.0145325
582.175	0.0144537
582.253	0.0144570
582.331	0.0145055
582.409	0.0142765
582.487	0.0144481
582.566	0.0144033
582.644	0.0143690
582.722	0.0144135
582.800	0.0144370
582.878	0.0143988
582.956	0.0144691
583.034	0.0144633
583.112	0.0143926
583.191	0.0144714
583.269	0.0144678
583.347	0.0144016
583.425	0.0143739
583.503	0.0145479
583.581	0.0144781
583.659	0.0144642
583.737	0.0144370
583.816	0.0144778
583.894	0.0146828
583.972	0.0145050
584.050	0.0142955
584.128	0.0144341
584.206	0.0143953
584.284	0.0144688
584.362	0.0144605
584.441	0.0144606
584.519	0.0143845
584.597	0.0143471
584.675	0.0143730
584.753	0.0144232
584.831	0.0142701
584.909	0.0143493
584.987	0.0142810
585.066	0.0143076
585.144	0.0143541
585.222	0.0142448
585.300	0.0142230
585.378	0.0145042
585.456	0.0144840
585.534	0.0142875
585.612	0.0142877
585.691	0.0144516
585.769	0.0144385
585.847	0.0142668
585.925	0.0142689
586.003	0.0144582
586.081	0.0145095
586.159	0.0143444
586.237	0.0144817
586.316	0.0144199
586.394	0.0145063
586.472	0.0144515
586.550	0.0145446
586.628	0.0144557
586.706	0.0144648
586.784	0.0144995
586.862	0.0145383
586.941	0.0145798
587.019	0.0144315
587.097	0.0145908
587.175	0.0144533
587.253	0.0145797
587.331	0.0147208
587.409	0.0146668
587.487	0.0146114
587.566	0.0146449
587.644	0.0145114
587.722	0.0145242
587.800	0.0147060
587.878	0.0147492
587.956	0.0147497
588.034	0.0147855
588.112	0.0147826
588.191	0.0148372
588.269	0.0145914
588.347	0.0147453
588.425	0.0148225
588.503	0.0147704
588.581	0.0146926
588.659	0.0147168
588.737	0.0147244
588.816	0.0146551
588.894	0.0147393
588.972	0.0146804
589.050	0.0147086
589.128	0.0147637
589.206	0.0148005
589.284	0.0147688
589.362	0.0148891
589.441	0.0148320
589.519	0.0147647
589.597	0.0147626
589.675	0.0148154
589.753	0.0148714
589.831	0.0148872
589.909	0.0148700
589.987	0.0149570
590.066	0.0148251
590.144	0.0148388
590.222	0.0148578
590.300	0.0148569
590.378	0.0148178
590.456	0.0147664
590.534	0.0146138
590.612	0.0147058
590.691	0.0148215
590.769	0.0147058
590.847	0.0147414
590.925	0.0146709
591.003	0.0146457
591.081	0.0146981
591.159	0.0147446
591.237	0.0147250
591.316	0.0146241
591.394	0.0145164
591.472	0.0146514
591.550	0.0146407
591.628	0.0146738
591.706	0.0146992
591.784	0.0146839
591.862	0.0146201
591.941	0.0146309
592.019	0.0144481
592.097	0.0147033
592.175	0.0146751
592.253	0.0146953
592.331	0.0145844
592.409	0.0147679
592.487	0.0145605
592.566	0.0146334
592.644	0.0146420
592.722	0.0147668
592.800	0.0146146
592.878	0.0146906
592.956	0.0147237
593.034	0.0145481
593.112	0.0145057
593.191	0.0145158
593.269	0.0146455
593.347	0.0144871
593.425	0.0144528
593.503	0.0144604
593.581	0.0144970
593.659	0.0144610
593.737	0.0143554
593.816	0.0144934
593.894	0.0143008
593.972	0.0144132
594.050	0.0144646
594.128	0.0144032
594.206	0.0143469
594.284	0.0143149
594.362	0.0145010
594.441	0.0144447
594.519	0.0144649
594.597	0.0145042
594.675	0.0144418
594.753	0.0145699
594.831	0.0145894
594.909	0.0145886
594.987	0.0145612
595.066	0.0145834
595.144	0.0145819
595.222	0.0145555
595.300	0.0143485
595.378	0.0146626
595.456	0.0145503
595.534	0.0145863
595.612	0.0147265
595.691	0.0147272
595.769	0.0146193
595.847	0.0146433
595.925	0.0146040
596.003	0.0147177
596.081	0.0146825
596.159	0.0146040
596.237	0.0145806
596.316	0.0145342
596.394	0.0145982
596.472	0.0146561
596.550	0.0145446
596.628	0.0146038
596.706	0.0145288
596.784	0.0146803
596.862	0.0146101
596.941	0.0146713
597.019	0.0145412
597.097	0.0146490
597.175	0.0147417
597.253	0.0146280
597.331	0.0146747
597.409	0.0145300
597.487	0.0147690
597.566	0.0147482
597.644	0.0146893
597.722	0.0146733
597.800	0.0147426
597.878	0.0148251
597.956	0.0147449
598.034	0.0146195
598.112	0.0147765
598.191	0.0146828
598.269	0.0148177
598.347	0.0147061
598.425	0.0147553
598.503	0.0146525
598.581	0.0147168
598.659	0.0147810
598.737	0.0147730
598.816	0.0147724
598.894	0.0147294
598.972	0.0146220
599.050	0.0145762
599.128	0.0146507
599.206	0.0146121
599.284	0.0147214
599.362	0.0145819
599.441	0.0144954
599.519	0.0146127
599.597	0.0146176
599.675	0.0147018
599.753	0.0148357
599.831	0.0146629
599.909	0.0147892
599.987	0.0148895
600.066	0.0147958
600.144	0.0148907
600.222	0.0148170
600.300	0.0148809
600.378	0.0148647
600.456	0.0149734
600.534	0.0150400
600.612	0.0148261
600.691	0.0148472
600.769	0.0149899
600.847	0.0150544
600.925	0.0148919
601.003	0.0148689
601.081	0.0150274
601.159	0.0149707
601.237	0.0149103
601.316	0.0149014
601.394	0.0147197
601.472	0.0148605
601.550	0.0148392
601.628	0.0148678
601.706	0.0148758
601.784	0.0148069
601.862	0.0148153
601.941	0.0147549
602.019	0.0147678
602.097	0.0147396
602.175	0.0147329
602.253	0.0146474
602.331	0.0146957
602.409	0.0147813
602.487	0.0148210
602.566	0.0147251
602.644	0.0147027
602.722	0.0147468
602.800	0.0146535
602.878	0.0147391
602.956	0.0146714
603.034	0.0147223
603.112	0.0147356
603.191	0.0147031
603.269	0.0144728
603.347	0.0145450
603.425	0.0145599
603.503	0.0144966
603.581	0.0144823
603.659	0.0145058
603.737	0.0145819
603.816	0.0143485
603.894	0.0142950
603.972	0.0142680
604.050	0.0144175
604.128	0.0143913
604.206	0.0141203
604.284	0.0142001
604.362	0.0142746
604.441	0.0143300
604.519	0.0142909
604.597	0.0141648
604.675	0.0142880
604.753	0.0141481
604.831	0.0142503
604.909	0.0143131
604.987	0.0143855
605.066	0.0143163
605.144	0.0142721
605.222	0.0142998
605.300	0.0144261
605.378	0.0142295
605.456	0.0144103
605.534	0.0143178
605.612	0.0144106
605.691	0.0144553
605.769	0.0144331
605.847	0.0144149
605.925	0.0144411
606.003	0.0145488
606.081	0.0145164
606.159	0.0146136
606.237	0.0144885
606.316	0.0146160
606.394	0.0145638
606.472	0.0146368
606.550	0.0146229
606.628	0.0147327
606.706	0.0147013
606.784	0.0147810
606.862	0.0147437
606.941	0.0147042
607.019	0.0147248
607.097	0.0146726
607.175	0.0147267
607.253	0.0148160
607.331	0.0145907
607.409	0.0147806
607.487	0.0147697
607.566	0.0147845
607.644	0.0149493
607.722	0.0146732
607.800	0.0146644
607.878	0.0148672
607.956	0.0149332
608.034	0.0149097
608.112	0.0148649
608.191	0.0147606
608.269	0.0147462
608.347	0.0148463
608.425	0.0149036
608.503	0.0148318
608.581	0.0149478
608.659	0.0148692
608.737	0.0147943
608.816	0.0147108
608.894	0.0147558
608.972	0.0148536
609.050	0.0148212
609.128	0.0148337
609.206	0.0147929
609.284	0.0148656
609.362	0.0148099
609.441	0.0148627
609.519	0.0147517
609.597	0.0147791
609.675	0.0148326
609.753	0.0148091
609.831	0.0149006
609.909	0.0148373
609.987	0.0148436
610.066	0.0148759
610.144	0.0148022
610.222	0.0148583
610.300	0.0148585
610.378	0.0148460
610.456	0.0150388
610.534	0.0148629
610.612	0.0149083
610.691	0.0149538
610.769	0.0149857
610.847	0.0149345
610.925	0.0149782
611.003	0.0149142
611.081	0.0148692
611.159	0.0148080
611.237	0.0149986
611.316	0.0148678
611.394	0.0148136
611.472	0.0147132
611.550	0.0148771
611.628	0.0148925
611.706	0.0147506
611.784	0.0147028
611.862	0.0146468
611.941	0.0147446
612.019	0.0147481
612.097	0.0146554
612.175	0.0146042
612.253	0.0144923
612.331	0.0145782
612.409	0.0145307
612.487	0.0146493
612.566	0.0144573
612.644	0.0143689
612.722	0.0144761
612.800	0.0145203
612.878	0.0143275
612.956	0.0143222
613.034	0.0143819
613.112	0.0144671
613.191	0.0143613
613.269	0.0143429
613.347	0.0143740
613.425	0.0143164
613.503	0.0144444
613.581	0.0144810
613.659	0.0145831
613.737	0.0146185
613.816	0.0144759
613.894	0.0144713
613.972	0.0145492
614.050	0.0145174
614.128	0.0145739
614.206	0.0145614
614.284	0.0146620
614.362	0.0146674
614.441	0.0146437
614.519	0.0146864
614.597	0.0146790
614.675	0.0145641
614.753	0.0145406
614.831	0.0145069
614.909	0.0143678
614.987	0.0145039
615.066	0.0145709
615.144	0.0146003
615.222	0.0144221
615.300	0.0143684
615.378	0.0144202
615.456	0.0143941
615.534	0.0144601
615.612	0.0144040
615.691	0.0145557
615.769	0.0143964
615.847	0.0142773
615.925	0.0144655
616.003	0.0145007
616.081	0.0144366
616.159	0.0143948
616.237	0.0142796
616.316	0.0144537
616.394	0.0145210
616.472	0.0143623
616.550	0.0145253
616.628	0.0144237
616.706	0.0144761
616.784	0.0144392
616.862	0.0146104
616.941	0.0144215
617.019	0.0145444
617.097	0.0145447
617.175	0.0144166
617.253	0.0144971
617.331	0.0144865
617.409	0.0143679
617.487	0.0146578
617.566	0.0145877
617.644	0.0145306
617.722	0.0145685
617.800	0.0145422
617.878	0.0145174
617.956	0.0146492
618.034	0.0146458
618.112	0.0147466
618.191	0.0145569
618.269	0.0145064
618.347	0.0147857
618.425	0.0148259
618.503	0.0147128
618.581	0.0147616
618.659	0.0147977
618.737	0.0147426
618.816	0.0146869
618.894	0.0147061
618.972	0.0147930
619.050	0.0147918
619.128	0.0146973
619.206	0.0146835
619.284	0.0147180
619.362	0.0146137
619.441	0.0146793
619.519	0.0147313
619.597	0.0145539
619.675	0.0146946
619.753	0.0147243
619.831	0.0146698
619.909	0.0146196
619.987	0.0145744
620.066	0.0145728
620.144	0.0146287
620.222	0.0147459
620.300	0.0146793
620.378	0.0147334
620.456	0.0146456
620.534	0.0146326
620.612	0.0146075
620.691	0.0145073
620.769	0.0145345
620.847	0.0145311
620.925	0.0146098
621.003	0.0144556
621.081	0.0146339
621.159	0.0145726
621.237	0.0146010
621.316	0.0146671
621.394	0.0146195
621.472	0.0147018
621.550	0.0145918
621.628	0.0146143
621.706	0.0146563
621.784	0.0147881
621.862	0.0146178
621.941	0.0147048
622.019	0.0146782
622.097	0.0145404
622.175	0.0148129
622.253	0.0147604
622.331	0.0147662
622.409	0.0146818
622.487	0.0146918
622.566	0.0145993
622.644	0.0147127
622.722	0.0146680
622.800	0.0147562
622.878	0.0146745
622.956	0.0144677
623.034	0.0146043
623.112	0.0147800
623.191	0.0145898
623.269	0.0145377
623.347	0.0146217
623.425	0.0145718
623.503	0.0145314
623.581	0.0145396
623.659	0.0145821
623.737	0.0146664
623.816	0.0146606
623.894	0.0144879
623.972	0.0145788
624.050	0.0146814
624.128	0.0146301
624.206	0.0145449
624.284	0.0145419
624.362	0.0146677
624.441	0.0145831
624.519	0.0147255
624.597	0.0145472
624.675	0.0146467
624.753	0.0145878
624.831	0.0144966
624.909	0.0143658
624.987	0.0145250
625.066	0.0144202
625.144	0.0143159
625.222	0.0144064
625.300	0.0143542
625.378	0.0143656
625.456	0.0143706
625.534	0.0142661
625.612	0.0145319
625.691	0.0144816
625.769	0.0144433
625.847	0.0143867
625.925	0.0143990
626.003	0.0145027
626.081	0.0144314
626.159	0.0143264
626.237	0.0142065
626.316	0.0144363
626.394	0.0143352
626.472	0.0143610
626.550	0.0143449
626.628	0.0142061
626.706	0.0142494
626.784	0.0141995
626.862	0.0144287
626.941	0.0141721
627.019	0.0142696
627.097	0.0142732
627.175	0.0143442
627.253	0.0144322
627.331	0.0143654
627.409	0.0143527
627.487	0.0143110
627.566	0.0143327
627.644	0.0144913
627.722	0.0144694
627.800	0.0144328
627.878	0.0145313
627.956	0.0146238
628.034	0.0144644
628.112	0.0143134
628.191	0.0143720
628.269	0.0144696
628.347	0.0145969
628.425	0.0145218
628.503	0.0144283
628.581	0.0144584
628.659	0.0146156
628.737	0.0145222
628.816	0.0145668
628.894	0.0144933
628.972	0.0146062
629.050	0.0146478
629.128	0.0147107
629.206	0.0147171
629.284	0.0146624
629.362	0.0148272
629.441	0.0147994
629.519	0.0147368
629.597	0.0148837
629.675	0.0148672
629.753	0.0149439
629.831	0.0148701
629.909	0.0148943
629.987	0.0149029
630.066	0.0148177
630.144	0.0148087
630.222	0.0148851
630.300	0.0148183
630.378	0.0147454
630.456	0.0147733
630.534	0.0148341
630.612	0.0150482
630.691	0.0150200
630.769	0.0149188
630.847	0.0150542
630.925	0.0150134
631.003	0.0149780
631.081	0.0149967
631.159	0.0149034
631.237	0.0149794
631.316	0.0149578
631.394	0.0149191
631.472	0.0149799
631.550	0.0150220
631.628	0.0149886
631.706	0.0149984
631.784	0.0148281
631.862	0.0149431
631.941	0.0149918
632.019	0.0149481
632.097	0.0148715
632.175	0.0149158
632.253	0.0147590
632.331	0.0147620
632.409	0.0147435
632.487	0.0146449
632.566	0.0147421
632.644	0.0147372
632.722	0.0145790
632.800	0.0145036
632.878	0.0144704
632.956	0.0146059
633.034	0.0145473
633.112	0.0144478
633.191	0.0143444
633.269	0.0144241
633.347	0.0143512
633.425	0.0144855
633.503	0.0143672
633.581	0.0143913
633.659	0.0144582
633.737	0.0143745
633.816	0.0143751
633.894	0.0143176
633.972	0.0143333
634.050	0.0143137
634.128	0.0145584
634.206	0.0145888
634.284	0.0144183
634.362	0.0143547
634.441	0.0143451
634.519	0.0143404
634.597	0.0144168
634.675	0.0144920
634.753	0.0143616
634.831	0.0144620
634.909	0.0144599
634.987	0.0144009
635.066	0.0144080
635.144	0.0144645
635.222	0.0145835
635.300	0.0144440
635.378	0.0145328
635.456	0.0144918
635.534	0.0144492
635.612	0.0145721
635.691	0.0146877
635.769	0.0145779
635.847	0.0145416
635.925	0.0145612
636.003	0.0146325
636.081	0.0147102
636.159	0.0144688
636.237	0.0144716
636.316	0.0145726
636.394	0.0145503
636.472	0.0145860
636.550	0.0144946
636.628	0.0145895
636.706	0.0144702
636.784	0.0144880
636.862	0.0144443
636.941	0.0143925
637.019	0.0144416
637.097	0.0144292
637.175	0.0142737
637.253	0.0145123
637.331	0.0144782
637.409	0.0143755
637.487	0.0143555
637.566	0.0143541
637.644	0.0144954
637.722	0.0146001
637.800	0.0143654
637.878	0.0145011
637.956	0.0144277
638.034	0.0144918
638.112	0.0145010
638.191	0.0145441
638.269	0.0144002
638.347	0.0145142
638.425	0.0143919
638.503	0.0145527
638.581	0.0144936
638.659	0.0145546
638.737	0.0144178
638.816	0.0145658
638.894	0.0145638
638.972	0.0145740
639.050	0.0144930
639.128	0.0144696
639.206	0.0145789
639.284	0.0145352
639.362	0.0146014
639.441	0.0145073
639.519	0.0146039
639.597	0.0146264
639.675	0.0145681
639.753	0.0145022
639.831	0.0147307
639.909	0.0146841
639.987	0.0145902
640.066	0.0144833
640.144	0.0145419
640.222	0.0145053
640.300	0.0145881
640.378	0.0147372
640.456	0.0145381
640.534	0.0145689
640.612	0.0147132
640.691	0.0146498
640.769	0.0145918
640.847	0.0147054
640.925	0.0146251
641.003	0.0146243
641.081	0.0146997
641.159	0.0147282
641.237	0.0145818
641.316	0.0146626
641.394	0.0146973
641.472	0.0146422
641.550	0.0145087
641.628	0.0145613
641.706	0.0145464
641.784	0.0147028
641.862	0.0146263
641.941	0.0146793
642.019	0.0146609
642.097	0.0146377
642.175	0.0146217
642.253	0.0146106
642.331	0.0143494
642.409	0.0145110
642.487	0.0144360
642.566	0.0144798
642.644	0.0145741
642.722	0.0144010
642.800	0.0143458
642.878	0.0145098
642.956	0.0145663
643.034	0.0145042
643.112	0.0145075
643.191	0.0145900
643.269	0.0143793
643.347	0.0145049
643.425	0.0145751
643.503	0.0144484
643.581	0.0145604
643.659	0.0147219
643.737	0.0144484
643.816	0.0145757
643.894	0.0145406
643.972	0.0144323
644.050	0.0143301
644.128	0.0145569
644.206	0.0146219
644.284	0.0144863
644.362	0.0144569
644.441	0.0146183
644.519	0.0144780
644.597	0.0144080
644.675	0.0144529
644.753	0.0144130
644.831	0.0144897
644.909	0.0144467
644.987	0.0144029
645.066	0.0144941
645.144	0.0143565
645.222	0.0143841
645.300	0.0144907
645.378	0.0143922
645.456	0.0143034
645.534	0.0143137
645.612	0.0143740
645.691	0.0143388
