05/28/2022	14:43:48	Ver.	4.1	UNKNOWN
Optical Delay	559.987403	Delta X		0.078125	Sweeps	1	Scan Rate	0/0
Coordinates	Axis 1	NaN	Axis 2	NaN	Axis 3	NaN	Axis 4	NaN	Axis 5	NaN	Axis 6	0.000000
TX Power	0.000000	RX Power	0.000000

559.987	0.0148313
560.066	0.0147714
560.144	0.0148398
560.222	0.0148918
560.300	0.0147435
560.378	0.0147802
560.456	0.0149131
560.534	0.0150327
560.612	0.0149746
560.691	0.0149287
560.769	0.0149267
560.847	0.0149716
560.925	0.0149879
561.003	0.0150001
561.081	0.0150989
561.159	0.0150118
561.237	0.0148851
561.316	0.0149602
561.394	0.0149581
561.472	0.0149073
561.550	0.0148844
561.628	0.0148740
561.706	0.0149419
561.784	0.0147438
561.862	0.0146650
561.941	0.0147811
562.019	0.0147533
562.097	0.0147299
562.175	0.0146487
562.253	0.0146606
562.331	0.0146321
562.409	0.0146388
562.487	0.0146561
562.566	0.0146040
562.644	0.0147134
562.722	0.0144783
562.800	0.0144045
562.878	0.0145907
562.956	0.0145329
563.034	0.0145375
563.112	0.0145706
563.191	0.0145789
563.269	0.0145088
563.347	0.0145094
563.425	0.0145649
563.503	0.0144926
563.581	0.0145348
563.659	0.0146013
563.737	0.0144171
563.816	0.0144286
563.894	0.0144232
563.972	0.0145525
564.050	0.0144696
564.128	0.0146087
564.206	0.0145882
564.284	0.0144862
564.362	0.0144742
564.441	0.0146143
564.519	0.0145727
564.597	0.0145464
564.675	0.0146333
564.753	0.0145411
564.831	0.0144862
564.909	0.0145275
564.987	0.0144194
565.066	0.0144631
565.144	0.0144551
565.222	0.0144247
565.300	0.0144228
565.378	0.0144503
565.456	0.0146606
565.534	0.0146069
565.612	0.0146101
565.691	0.0145084
565.769	0.0145630
565.847	0.0145135
565.925	0.0145679
566.003	0.0146777
566.081	0.0145190
566.159	0.0144498
566.237	0.0147121
566.316	0.0145424
566.394	0.0145808
566.472	0.0144935
566.550	0.0145418
566.628	0.0146093
566.706	0.0145408
566.784	0.0144884
566.862	0.0145323
566.941	0.0145055
567.019	0.0143156
567.097	0.0144679
567.175	0.0144743
567.253	0.0144857
567.331	0.0144788
567.409	0.0144902
567.487	0.0146336
567.566	0.0144459
567.644	0.0144370
567.722	0.0144935
567.800	0.0144740
567.878	0.0145492
567.956	0.0146623
568.034	0.0146481
568.112	0.0144902
568.191	0.0144771
568.269	0.0145705
568.347	0.0143733
568.425	0.0144552
568.503	0.0143756
568.581	0.0145215
568.659	0.0144972
568.737	0.0145123
568.816	0.0145238
568.894	0.0144456
568.972	0.0145184
569.050	0.0145539
569.128	0.0146437
569.206	0.0147224
569.284	0.0147920
569.362	0.0147968
569.441	0.0147891
569.519	0.0147178
569.597	0.0146739
569.675	0.0148360
569.753	0.0148188
569.831	0.0146948
569.909	0.0147424
569.987	0.0148017
570.066	0.0146148
570.144	0.0147601
570.222	0.0147528
570.300	0.0146527
570.378	0.0147365
570.456	0.0147573
570.534	0.0147327
570.612	0.0146135
570.691	0.0145863
570.769	0.0146990
570.847	0.0147356
570.925	0.0145877
571.003	0.0146395
571.081	0.0145055
571.159	0.0145227
571.237	0.0146394
571.316	0.0145642
571.394	0.0146132
571.472	0.0145556
571.550	0.0144692
571.628	0.0144318
571.706	0.0144411
571.784	0.0144046
571.862	0.0143873
571.941	0.0144981
572.019	0.0143909
572.097	0.0143329
572.175	0.0145054
572.253	0.0144620
572.331	0.0145544
572.409	0.0143672
572.487	0.0144605
572.566	0.0144675
572.644	0.0143374
572.722	0.0143754
572.800	0.0145039
572.878	0.0143552
572.956	0.0144802
573.034	0.0144760
573.112	0.0145023
573.191	0.0144307
573.269	0.0144418
573.347	0.0143748
573.425	0.0145164
573.503	0.0146424
573.581	0.0144877
573.659	0.0145869
573.737	0.0145528
573.816	0.0145307
573.894	0.0147603
573.972	0.0148236
574.050	0.0146756
574.128	0.0148232
574.206	0.0148006
574.284	0.0146753
574.362	0.0147852
574.441	0.0147923
574.519	0.0148765
574.597	0.0148119
574.675	0.0147616
574.753	0.0148370
574.831	0.0148779
574.909	0.0147219
574.987	0.0147630
575.066	0.0148863
575.144	0.0146062
575.222	0.0146801
575.300	0.0148386
575.378	0.0147147
575.456	0.0146707
575.534	0.0146410
575.612	0.0147103
575.691	0.0146697
575.769	0.0147005
575.847	0.0146938
575.925	0.0146593
576.003	0.0147260
576.081	0.0146674
576.159	0.0147681
576.237	0.0149592
576.316	0.0148263
576.394	0.0149138
576.472	0.0148464
576.550	0.0147984
576.628	0.0149226
576.706	0.0147516
576.784	0.0147565
576.862	0.0147536
576.941	0.0147985
577.019	0.0147073
577.097	0.0146861
577.175	0.0146944
577.253	0.0145375
577.331	0.0146597
577.409	0.0146342
577.487	0.0145433
577.566	0.0144843
577.644	0.0143661
577.722	0.0144236
577.800	0.0144743
577.878	0.0143675
577.956	0.0142738
578.034	0.0142303
578.112	0.0144119
578.191	0.0141738
578.269	0.0143372
578.347	0.0143239
578.425	0.0142184
578.503	0.0142805
578.581	0.0142950
578.659	0.0143470
578.737	0.0142926
578.816	0.0142269
578.894	0.0142113
578.972	0.0141744
579.050	0.0143304
579.128	0.0142645
579.206	0.0142870
579.284	0.0142245
579.362	0.0142927
579.441	0.0142714
579.519	0.0143475
579.597	0.0142660
579.675	0.0143700
579.753	0.0142391
579.831	0.0142120
579.909	0.0143906
579.987	0.0143976
580.066	0.0144021
580.144	0.0143067
580.222	0.0142329
580.300	0.0143399
580.378	0.0143056
580.456	0.0142616
580.534	0.0144086
580.612	0.0143955
580.691	0.0143777
580.769	0.0143890
580.847	0.0144445
580.925	0.0143573
581.003	0.0145373
581.081	0.0146151
581.159	0.0145481
581.237	0.0145736
581.316	0.0145743
581.394	0.0144827
581.472	0.0145662
581.550	0.0146541
581.628	0.0146507
581.706	0.0145553
581.784	0.0146581
581.862	0.0146777
581.941	0.0145468
582.019	0.0145752
582.097	0.0145665
582.175	0.0145079
582.253	0.0146264
582.331	0.0146701
582.409	0.0146346
582.487	0.0145160
582.566	0.0145797
582.644	0.0144473
582.722	0.0145454
582.800	0.0145538
582.878	0.0143290
582.956	0.0144821
583.034	0.0143923
583.112	0.0144798
583.191	0.0144424
583.269	0.0144548
583.347	0.0143443
583.425	0.0145656
583.503	0.0143606
583.581	0.0143792
583.659	0.0143764
583.737	0.0143888
583.816	0.0145502
583.894	0.0143385
583.972	0.0145245
584.050	0.0145802
584.128	0.0145270
584.206	0.0145410
584.284	0.0144732
584.362	0.0146149
584.441	0.0143935
584.519	0.0144319
584.597	0.0145557
584.675	0.0143847
584.753	0.0144611
584.831	0.0144131
584.909	0.0144125
584.987	0.0143861
585.066	0.0143586
585.144	0.0143332
585.222	0.0141508
585.300	0.0142726
585.378	0.0143111
585.456	0.0143224
585.534	0.0141708
585.612	0.0142564
585.691	0.0143481
585.769	0.0142991
585.847	0.0141449
585.925	0.0142567
586.003	0.0144404
586.081	0.0142920
586.159	0.0143298
586.237	0.0144492
586.316	0.0145158
586.394	0.0144249
586.472	0.0143717
586.550	0.0145090
586.628	0.0143858
586.706	0.0144296
586.784	0.0144151
586.862	0.0144112
586.941	0.0143426
587.019	0.0145150
587.097	0.0143864
587.175	0.0144375
587.253	0.0145198
587.331	0.0145654
587.409	0.0144409
587.487	0.0145705
587.566	0.0145747
587.644	0.0146343
587.722	0.0145746
587.800	0.0146706
587.878	0.0146979
587.956	0.0146873
588.034	0.0147385
588.112	0.0147404
588.191	0.0147484
588.269	0.0148056
588.347	0.0146703
588.425	0.0148662
588.503	0.0148057
588.581	0.0148238
588.659	0.0148700
588.737	0.0149220
588.816	0.0149637
588.894	0.0149067
588.972	0.0148866
589.050	0.0147408
589.128	0.0148298
589.206	0.0149545
589.284	0.0149902
589.362	0.0148018
589.441	0.0147647
589.519	0.0147073
589.597	0.0147829
589.675	0.0147681
589.753	0.0146165
589.831	0.0148511
589.909	0.0148045
589.987	0.0148183
590.066	0.0146445
590.144	0.0147150
590.222	0.0148606
590.300	0.0148563
590.378	0.0146341
590.456	0.0147352
590.534	0.0149133
590.612	0.0148374
590.691	0.0147115
590.769	0.0146616
590.847	0.0146317
590.925	0.0146356
591.003	0.0146841
591.081	0.0146684
591.159	0.0145461
591.237	0.0146610
591.316	0.0147217
591.394	0.0146889
591.472	0.0146304
591.550	0.0146896
591.628	0.0145132
591.706	0.0146157
591.784	0.0145901
591.862	0.0146408
591.941	0.0146616
592.019	0.0147501
592.097	0.0147590
592.175	0.0147013
592.253	0.0146755
592.331	0.0146252
592.409	0.0148089
592.487	0.0146935
592.566	0.0148598
592.644	0.0148072
592.722	0.0149559
592.800	0.0148070
592.878	0.0148868
592.956	0.0148682
593.034	0.0149088
593.112	0.0147775
593.191	0.0147517
593.269	0.0148069
593.347	0.0147279
593.425	0.0148310
593.503	0.0148706
593.581	0.0148062
593.659	0.0146691
593.737	0.0146522
593.816	0.0147711
593.894	0.0147012
593.972	0.0146116
594.050	0.0144775
594.128	0.0144714
594.206	0.0143916
594.284	0.0143982
594.362	0.0144646
594.441	0.0143340
594.519	0.0143056
594.597	0.0143560
594.675	0.0142790
594.753	0.0141479
594.831	0.0142149
594.909	0.0142682
594.987	0.0141491
595.066	0.0142138
595.144	0.0142204
595.222	0.0142078
595.300	0.0142182
595.378	0.0141730
595.456	0.0141595
595.534	0.0143102
595.612	0.0142085
595.691	0.0141374
595.769	0.0143128
595.847	0.0140755
595.925	0.0143403
596.003	0.0143217
596.081	0.0143031
596.159	0.0142664
596.237	0.0143525
596.316	0.0144001
596.394	0.0143473
596.472	0.0144176
596.550	0.0144536
596.628	0.0143733
596.706	0.0142326
596.784	0.0141698
596.862	0.0142270
596.941	0.0142302
597.019	0.0142536
597.097	0.0141196
597.175	0.0142302
597.253	0.0141889
597.331	0.0140419
597.409	0.0140086
597.487	0.0141290
597.566	0.0140285
597.644	0.0142173
597.722	0.0143169
597.800	0.0142754
597.878	0.0142220
597.956	0.0142598
598.034	0.0143159
598.112	0.0142650
598.191	0.0143356
598.269	0.0142812
598.347	0.0144637
598.425	0.0142802
598.503	0.0142741
598.581	0.0144091
598.659	0.0144374
598.737	0.0146417
598.816	0.0143887
598.894	0.0145335
598.972	0.0145840
599.050	0.0146664
599.128	0.0146502
599.206	0.0145708
599.284	0.0146555
599.362	0.0146275
599.441	0.0147083
599.519	0.0146237
599.597	0.0146237
599.675	0.0146453
599.753	0.0144688
599.831	0.0144410
599.909	0.0144356
599.987	0.0144302
600.066	0.0144743
600.144	0.0144181
600.222	0.0144238
600.300	0.0143410
600.378	0.0143173
600.456	0.0143743
600.534	0.0144145
600.612	0.0144203
600.691	0.0144572
600.769	0.0143951
600.847	0.0144257
600.925	0.0145403
601.003	0.0146236
601.081	0.0146013
601.159	0.0145844
601.237	0.0146664
601.316	0.0147482
601.394	0.0148102
601.472	0.0145306
601.550	0.0146185
601.628	0.0147510
601.706	0.0145921
601.784	0.0146935
601.862	0.0146042
601.941	0.0146519
602.019	0.0146963
602.097	0.0145885
602.175	0.0145972
602.253	0.0146542
602.331	0.0146516
602.409	0.0145226
602.487	0.0146685
602.566	0.0145180
602.644	0.0147725
602.722	0.0146595
602.800	0.0147892
602.878	0.0147572
602.956	0.0147099
603.034	0.0146493
603.112	0.0145951
603.191	0.0148053
603.269	0.0146191
603.347	0.0146485
603.425	0.0147187
603.503	0.0147076
603.581	0.0147921
603.659	0.0147148
603.737	0.0147659
603.816	0.0146588
603.894	0.0148196
603.972	0.0146529
604.050	0.0147319
604.128	0.0148841
604.206	0.0147661
604.284	0.0148006
604.362	0.0148304
604.441	0.0149162
604.519	0.0148935
604.597	0.0148153
604.675	0.0147922
604.753	0.0149348
604.831	0.0147519
604.909	0.0148475
604.987	0.0148866
605.066	0.0148172
605.144	0.0147109
605.222	0.0147752
605.300	0.0147487
605.378	0.0147087
605.456	0.0148666
605.534	0.0147843
605.612	0.0146246
605.691	0.0145516
605.769	0.0147448
605.847	0.0146666
605.925	0.0144564
606.003	0.0145087
606.081	0.0144897
606.159	0.0146113
606.237	0.0144624
606.316	0.0143599
606.394	0.0145009
606.472	0.0145715
606.550	0.0144952
606.628	0.0145065
606.706	0.0145721
606.784	0.0143576
606.862	0.0143726
606.941	0.0144982
607.019	0.0142721
607.097	0.0142543
607.175	0.0142879
607.253	0.0142209
607.331	0.0141409
607.409	0.0141042
607.487	0.0140727
607.566	0.0140930
607.644	0.0139950
607.722	0.0140600
607.800	0.0140078
607.878	0.0140853
607.956	0.0141790
608.034	0.0140795
608.112	0.0139911
608.191	0.0141139
608.269	0.0142675
608.347	0.0142690
608.425	0.0141958
608.503	0.0140982
608.581	0.0142569
608.659	0.0144889
608.737	0.0144912
608.816	0.0143364
608.894	0.0144070
608.972	0.0144599
609.050	0.0145125
609.128	0.0145611
609.206	0.0144459
609.284	0.0145399
609.362	0.0146214
609.441	0.0144923
609.519	0.0144275
609.597	0.0146349
609.675	0.0145848
609.753	0.0145676
609.831	0.0146807
609.909	0.0143634
609.987	0.0145332
610.066	0.0145861
610.144	0.0145234
610.222	0.0146146
610.300	0.0144567
610.378	0.0145654
610.456	0.0145795
610.534	0.0144872
610.612	0.0144302
610.691	0.0145582
610.769	0.0146652
610.847	0.0145693
610.925	0.0145182
611.003	0.0145687
611.081	0.0146966
611.159	0.0145991
611.237	0.0146239
611.316	0.0148418
611.394	0.0146515
611.472	0.0147900
611.550	0.0146371
611.628	0.0146976
611.706	0.0147128
611.784	0.0147868
611.862	0.0146959
611.941	0.0146864
612.019	0.0146076
612.097	0.0145168
612.175	0.0145967
612.253	0.0146122
612.331	0.0146352
612.409	0.0146630
612.487	0.0147133
612.566	0.0147346
612.644	0.0148122
612.722	0.0146906
612.800	0.0147447
612.878	0.0148360
612.956	0.0148558
613.034	0.0149659
613.112	0.0148566
613.191	0.0147720
613.269	0.0148381
613.347	0.0148381
613.425	0.0146935
613.503	0.0147810
613.581	0.0148701
613.659	0.0148270
613.737	0.0148540
613.816	0.0147234
613.894	0.0148276
613.972	0.0148969
614.050	0.0147208
614.128	0.0147131
614.206	0.0147862
614.284	0.0148163
614.362	0.0147867
614.441	0.0147676
614.519	0.0147643
614.597	0.0146467
614.675	0.0147234
614.753	0.0147425
614.831	0.0146785
614.909	0.0147268
614.987	0.0147213
615.066	0.0148338
615.144	0.0148250
615.222	0.0145840
615.300	0.0146948
615.378	0.0147153
615.456	0.0144782
615.534	0.0146921
615.612	0.0146006
615.691	0.0146727
615.769	0.0146316
615.847	0.0145837
615.925	0.0146766
616.003	0.0146129
616.081	0.0147388
616.159	0.0144519
616.237	0.0145726
616.316	0.0144991
616.394	0.0145366
616.472	0.0145748
616.550	0.0145689
616.628	0.0145084
616.706	0.0145511
616.784	0.0145734
616.862	0.0145844
616.941	0.0143817
617.019	0.0145506
617.097	0.0144719
617.175	0.0143949
617.253	0.0142757
617.331	0.0142514
617.409	0.0143669
617.487	0.0143407
617.566	0.0142705
617.644	0.0143078
617.722	0.0141738
617.800	0.0143464
617.878	0.0144328
617.956	0.0142489
618.034	0.0143178
618.112	0.0142812
618.191	0.0143072
618.269	0.0143485
618.347	0.0143980
618.425	0.0144335
618.503	0.0143929
618.581	0.0144229
618.659	0.0142480
618.737	0.0143980
618.816	0.0144787
618.894	0.0144006
618.972	0.0142959
619.050	0.0142322
619.128	0.0143172
619.206	0.0145231
619.284	0.0143755
619.362	0.0143305
619.441	0.0144853
619.519	0.0144479
619.597	0.0144283
619.675	0.0146383
619.753	0.0146964
619.831	0.0146233
619.909	0.0146728
619.987	0.0145015
620.066	0.0147016
620.144	0.0147244
620.222	0.0146933
620.300	0.0145967
620.378	0.0147701
620.456	0.0146614
620.534	0.0147194
620.612	0.0146212
620.691	0.0146434
620.769	0.0145616
620.847	0.0145874
620.925	0.0144347
621.003	0.0145382
621.081	0.0146017
621.159	0.0144444
621.237	0.0144710
621.316	0.0144165
621.394	0.0144791
621.472	0.0144685
621.550	0.0142982
621.628	0.0143867
621.706	0.0143159
621.784	0.0144867
621.862	0.0143456
621.941	0.0143711
622.019	0.0143846
622.097	0.0145390
622.175	0.0144810
622.253	0.0144547
622.331	0.0145003
622.409	0.0146842
622.487	0.0145835
622.566	0.0145758
622.644	0.0147053
622.722	0.0147564
622.800	0.0147025
622.878	0.0147297
622.956	0.0147870
623.034	0.0148706
623.112	0.0148579
623.191	0.0147475
623.269	0.0149075
623.347	0.0148902
623.425	0.0150099
623.503	0.0150026
623.581	0.0148944
623.659	0.0151260
623.737	0.0149720
623.816	0.0148784
623.894	0.0149795
623.972	0.0148999
624.050	0.0149570
624.128	0.0148471
624.206	0.0148178
624.284	0.0147235
624.362	0.0146605
624.441	0.0147811
624.519	0.0146754
624.597	0.0146284
624.675	0.0145840
624.753	0.0146049
624.831	0.0146606
624.909	0.0145618
624.987	0.0146817
625.066	0.0147636
625.144	0.0146280
625.222	0.0146221
625.300	0.0145032
625.378	0.0144843
625.456	0.0146419
625.534	0.0146178
625.612	0.0145860
625.691	0.0146465
625.769	0.0146071
625.847	0.0147756
625.925	0.0147138
626.003	0.0146016
626.081	0.0146358
626.159	0.0146214
626.237	0.0147748
626.316	0.0146317
626.394	0.0147539
626.472	0.0149059
626.550	0.0147318
626.628	0.0147283
626.706	0.0147104
626.784	0.0149406
626.862	0.0149962
626.941	0.0148197
627.019	0.0147951
627.097	0.0150341
627.175	0.0149056
627.253	0.0149112
627.331	0.0148204
627.409	0.0148834
627.487	0.0148182
627.566	0.0148246
627.644	0.0148878
627.722	0.0148494
627.800	0.0147273
627.878	0.0146020
627.956	0.0148108
628.034	0.0148365
628.112	0.0147976
628.191	0.0149176
628.269	0.0149208
628.347	0.0148527
628.425	0.0148791
628.503	0.0148838
628.581	0.0148286
628.659	0.0148556
628.737	0.0148113
628.816	0.0149314
628.894	0.0148378
628.972	0.0147853
629.050	0.0148775
629.128	0.0148180
629.206	0.0146835
629.284	0.0147891
629.362	0.0147885
629.441	0.0146918
629.519	0.0146846
629.597	0.0146809
629.675	0.0146634
629.753	0.0147154
629.831	0.0146967
629.909	0.0147211
629.987	0.0146682
630.066	0.0147021
630.144	0.0146394
630.222	0.0146548
630.300	0.0146765
630.378	0.0145557
630.456	0.0146132
630.534	0.0145776
630.612	0.0146323
630.691	0.0146309
630.769	0.0145572
630.847	0.0145655
630.925	0.0146736
631.003	0.0145759
631.081	0.0144923
631.159	0.0145609
631.237	0.0147119
631.316	0.0147178
631.394	0.0147964
631.472	0.0146436
631.550	0.0145650
631.628	0.0145468
631.706	0.0144702
631.784	0.0146417
631.862	0.0147091
631.941	0.0147649
632.019	0.0147686
632.097	0.0145238
632.175	0.0146645
632.253	0.0145544
632.331	0.0146571
632.409	0.0147913
632.487	0.0148283
632.566	0.0145467
632.644	0.0146808
632.722	0.0146281
632.800	0.0146885
632.878	0.0146691
632.956	0.0147483
633.034	0.0146672
633.112	0.0147439
633.191	0.0147408
633.269	0.0147130
633.347	0.0148218
633.425	0.0146037
633.503	0.0146625
633.581	0.0146897
633.659	0.0148009
633.737	0.0145925
633.816	0.0146498
633.894	0.0146111
633.972	0.0146033
634.050	0.0146553
634.128	0.0147341
634.206	0.0145009
634.284	0.0145062
634.362	0.0146284
634.441	0.0146787
634.519	0.0146105
634.597	0.0145654
634.675	0.0145227
634.753	0.0145779
634.831	0.0145861
634.909	0.0146444
634.987	0.0145038
635.066	0.0144585
635.144	0.0144859
635.222	0.0146162
635.300	0.0145309
635.378	0.0146062
635.456	0.0144655
635.534	0.0144377
635.612	0.0145491
635.691	0.0145861
635.769	0.0145406
635.847	0.0145174
635.925	0.0145880
636.003	0.0145493
636.081	0.0144330
636.159	0.0145036
636.237	0.0144736
636.316	0.0143563
636.394	0.0144941
636.472	0.0144504
636.550	0.0143319
636.628	0.0143221
636.706	0.0144846
636.784	0.0143484
636.862	0.0143288
636.941	0.0143065
637.019	0.0144208
637.097	0.0144988
637.175	0.0145781
637.253	0.0144810
637.331	0.0145557
637.409	0.0145161
637.487	0.0143617
637.566	0.0145309
637.644	0.0145463
637.722	0.0145416
637.800	0.0145302
637.878	0.0144507
637.956	0.0145426
638.034	0.0145559
638.112	0.0146527
638.191	0.0146017
638.269	0.0144945
638.347	0.0146336
638.425	0.0146537
638.503	0.0146115
638.581	0.0144449
638.659	0.0145004
638.737	0.0146403
638.816	0.0145277
638.894	0.0144803
638.972	0.0145087
639.050	0.0146159
639.128	0.0144799
639.206	0.0146526
639.284	0.0147067
639.362	0.0146490
639.441	0.0146507
639.519	0.0146410
639.597	0.0146218
639.675	0.0148248
639.753	0.0147901
639.831	0.0148012
639.909	0.0147004
639.987	0.0148117
640.066	0.0147393
640.144	0.0147308
640.222	0.0146690
640.300	0.0146707
640.378	0.0147192
640.456	0.0146961
640.534	0.0145674
640.612	0.0147310
640.691	0.0146686
640.769	0.0146733
640.847	0.0146397
640.925	0.0148003
641.003	0.0147673
641.081	0.0147724
641.159	0.0148055
641.237	0.0147446
641.316	0.0147478
641.394	0.0148058
641.472	0.0147972
641.550	0.0146106
641.628	0.0147364
641.706	0.0149231
641.784	0.0147633
641.862	0.0147704
641.941	0.0147987
642.019	0.0147826
642.097	0.0147602
642.175	0.0147001
642.253	0.0148494
642.331	0.0148454
642.409	0.0147627
642.487	0.0147058
642.566	0.0145571
642.644	0.0147917
642.722	0.0147962
642.800	0.0146832
642.878	0.0147497
642.956	0.0148884
643.034	0.0147410
643.112	0.0147896
643.191	0.0147279
643.269	0.0148904
643.347	0.0147967
643.425	0.0147704
643.503	0.0146839
643.581	0.0148399
643.659	0.0149712
643.737	0.0149324
643.816	0.0147546
643.894	0.0147791
643.972	0.0147360
644.050	0.0146502
644.128	0.0146378
644.206	0.0146199
644.284	0.0146366
644.362	0.0144671
644.441	0.0145763
644.519	0.0145300
644.597	0.0145441
644.675	0.0145161
644.753	0.0144989
644.831	0.0145920
644.909	0.0144830
644.987	0.0146066
645.066	0.0145808
645.144	0.0146047
645.222	0.0144110
645.300	0.0144218
645.378	0.0145748
645.456	0.0144146
645.534	0.0144307
645.612	0.0145815
645.691	0.0145752
