05/28/2022	14:44:03	Ver.	4.1	UNKNOWN
Optical Delay	559.987403	Delta X		0.078125	Sweeps	1	Scan Rate	0/0
Coordinates	Axis 1	NaN	Axis 2	NaN	Axis 3	NaN	Axis 4	NaN	Axis 5	NaN	Axis 6	0.000000
TX Power	0.000000	RX Power	0.000000

559.987	0.0149188
560.066	0.0148497
560.144	0.0150291
560.222	0.0149575
560.300	0.0150913
560.378	0.0151286
560.456	0.0151803
560.534	0.0149860
560.612	0.0150899
560.691	0.0153694
560.769	0.0152990
560.847	0.0151762
560.925	0.0152603
561.003	0.0151994
561.081	0.0152530
561.159	0.0153905
561.237	0.0152944
561.316	0.0150679
561.394	0.0150321
561.472	0.0151472
561.550	0.0150928
561.628	0.0150121
561.706	0.0148695
561.784	0.0149220
561.862	0.0149879
561.941	0.0149209
562.019	0.0148164
562.097	0.0149229
562.175	0.0148764
562.253	0.0147966
562.331	0.0147421
562.409	0.0146964
562.487	0.0146730
562.566	0.0147047
562.644	0.0146124
562.722	0.0145409
562.800	0.0146604
562.878	0.0146096
562.956	0.0144772
563.034	0.0144963
563.112	0.0143940
563.191	0.0144746
563.269	0.0145572
563.347	0.0145499
563.425	0.0146506
563.503	0.0146231
563.581	0.0145860
563.659	0.0143404
563.737	0.0145441
563.816	0.0145821
563.894	0.0145271
563.972	0.0146271
564.050	0.0145521
564.128	0.0144789
564.206	0.0147120
564.284	0.0146440
564.362	0.0145312
564.441	0.0145128
564.519	0.0145831
564.597	0.0146483
564.675	0.0144929
564.753	0.0145987
564.831	0.0145015
564.909	0.0145322
564.987	0.0146718
565.066	0.0147803
565.144	0.0146267
565.222	0.0146252
565.300	0.0148245
565.378	0.0147565
565.456	0.0146542
565.534	0.0147529
565.612	0.0147977
565.691	0.0147852
565.769	0.0146784
565.847	0.0147038
565.925	0.0149042
566.003	0.0148571
566.081	0.0148419
566.159	0.0148736
566.237	0.0148494
566.316	0.0147887
566.394	0.0147688
566.472	0.0147775
566.550	0.0147655
566.628	0.0148330
566.706	0.0147849
566.784	0.0146568
566.862	0.0147202
566.941	0.0146526
567.019	0.0148061
567.097	0.0147494
567.175	0.0147260
567.253	0.0146896
567.331	0.0147210
567.409	0.0148460
567.487	0.0146330
567.566	0.0148133
567.644	0.0146163
567.722	0.0147416
567.800	0.0147559
567.878	0.0147064
567.956	0.0147778
568.034	0.0147335
568.112	0.0145750
568.191	0.0146391
568.269	0.0146930
568.347	0.0146718
568.425	0.0147482
568.503	0.0147424
568.581	0.0146836
568.659	0.0147952
568.737	0.0147714
568.816	0.0147318
568.894	0.0146799
568.972	0.0148173
569.050	0.0148270
569.128	0.0148777
569.206	0.0146914
569.284	0.0147434
569.362	0.0146502
569.441	0.0147261
569.519	0.0149084
569.597	0.0147903
569.675	0.0147529
569.753	0.0147411
569.831	0.0146352
569.909	0.0145775
569.987	0.0148657
570.066	0.0147018
570.144	0.0146805
570.222	0.0146050
570.300	0.0146666
570.378	0.0147546
570.456	0.0147150
570.534	0.0146922
570.612	0.0147711
570.691	0.0147536
570.769	0.0147703
570.847	0.0148652
570.925	0.0146278
571.003	0.0146919
571.081	0.0146319
571.159	0.0147111
571.237	0.0147633
571.316	0.0145774
571.394	0.0146304
571.472	0.0146989
571.550	0.0146569
571.628	0.0146101
571.706	0.0147057
571.784	0.0145313
571.862	0.0145533
571.941	0.0144530
572.019	0.0145295
572.097	0.0146713
572.175	0.0144809
572.253	0.0145161
572.331	0.0145367
572.409	0.0145177
572.487	0.0146468
572.566	0.0144434
572.644	0.0144499
572.722	0.0145480
572.800	0.0144598
572.878	0.0145057
572.956	0.0145510
573.034	0.0144686
573.112	0.0144370
573.191	0.0144238
573.269	0.0144521
573.347	0.0144350
573.425	0.0144701
573.503	0.0145128
573.581	0.0146796
573.659	0.0147044
573.737	0.0147299
573.816	0.0146781
573.894	0.0146820
573.972	0.0148369
574.050	0.0148087
574.128	0.0147274
574.206	0.0147292
574.284	0.0147261
574.362	0.0148420
574.441	0.0148199
574.519	0.0147776
574.597	0.0148829
574.675	0.0148772
574.753	0.0147536
574.831	0.0147723
574.909	0.0148656
574.987	0.0148981
575.066	0.0147584
575.144	0.0148620
575.222	0.0147585
575.300	0.0146465
575.378	0.0147894
575.456	0.0148848
575.534	0.0150499
575.612	0.0149079
575.691	0.0149532
575.769	0.0149312
575.847	0.0150021
575.925	0.0150306
576.003	0.0150317
576.081	0.0149013
576.159	0.0150465
576.237	0.0152229
576.316	0.0150269
576.394	0.0150149
576.472	0.0150454
576.550	0.0151270
576.628	0.0150390
576.706	0.0148936
576.784	0.0149458
576.862	0.0148402
576.941	0.0149632
577.019	0.0149328
577.097	0.0148336
577.175	0.0147643
577.253	0.0148090
577.331	0.0148120
577.409	0.0146030
577.487	0.0146827
577.566	0.0146604
577.644	0.0144879
577.722	0.0145547
577.800	0.0145449
577.878	0.0144669
577.956	0.0145242
578.034	0.0143360
578.112	0.0142943
578.191	0.0143295
578.269	0.0144484
578.347	0.0145252
578.425	0.0143970
578.503	0.0143044
578.581	0.0144698
578.659	0.0144915
578.737	0.0144962
578.816	0.0143568
578.894	0.0144816
578.972	0.0143507
579.050	0.0143456
579.128	0.0144544
579.206	0.0143677
579.284	0.0143812
579.362	0.0145368
579.441	0.0143068
579.519	0.0143802
579.597	0.0143995
579.675	0.0143376
579.753	0.0143161
579.831	0.0144126
579.909	0.0144601
579.987	0.0143627
580.066	0.0142689
580.144	0.0143433
580.222	0.0143837
580.300	0.0143950
580.378	0.0144927
580.456	0.0145789
580.534	0.0144577
580.612	0.0145088
580.691	0.0145518
580.769	0.0146128
580.847	0.0145492
580.925	0.0146062
581.003	0.0146020
581.081	0.0145776
581.159	0.0146440
581.237	0.0148013
581.316	0.0147002
581.394	0.0147828
581.472	0.0146819
581.550	0.0148870
581.628	0.0149083
581.706	0.0148772
581.784	0.0149055
581.862	0.0148470
581.941	0.0148077
582.019	0.0148878
582.097	0.0147799
582.175	0.0147649
582.253	0.0146980
582.331	0.0147278
582.409	0.0148095
582.487	0.0147610
582.566	0.0146352
582.644	0.0145727
582.722	0.0145937
582.800	0.0146640
582.878	0.0146472
582.956	0.0146210
583.034	0.0146301
583.112	0.0146738
583.191	0.0145023
583.269	0.0147337
583.347	0.0144785
583.425	0.0144910
583.503	0.0145945
583.581	0.0146413
583.659	0.0145953
583.737	0.0146976
583.816	0.0145223
583.894	0.0146258
583.972	0.0147185
584.050	0.0146870
584.128	0.0146321
584.206	0.0144884
584.284	0.0145711
584.362	0.0144755
584.441	0.0145694
584.519	0.0144554
584.597	0.0144676
584.675	0.0144032
584.753	0.0143548
584.831	0.0143199
584.909	0.0143823
584.987	0.0141293
585.066	0.0142148
585.144	0.0141254
585.222	0.0141862
585.300	0.0142919
585.378	0.0142776
585.456	0.0143507
585.534	0.0144402
585.612	0.0144537
585.691	0.0143513
585.769	0.0145286
585.847	0.0144614
585.925	0.0145322
586.003	0.0145607
586.081	0.0145201
586.159	0.0146470
586.237	0.0145340
586.316	0.0146461
586.394	0.0147040
586.472	0.0145169
586.550	0.0145351
586.628	0.0145068
586.706	0.0144463
586.784	0.0144014
586.862	0.0144981
586.941	0.0146311
587.019	0.0145221
587.097	0.0146011
587.175	0.0145443
587.253	0.0145691
587.331	0.0145713
587.409	0.0145160
587.487	0.0146250
587.566	0.0147232
587.644	0.0147703
587.722	0.0149698
587.800	0.0149161
587.878	0.0147951
587.956	0.0149033
588.034	0.0149619
588.112	0.0149594
588.191	0.0151005
588.269	0.0151948
588.347	0.0150919
588.425	0.0150148
588.503	0.0150340
588.581	0.0150336
588.659	0.0151967
588.737	0.0151552
588.816	0.0150597
588.894	0.0151421
588.972	0.0152635
589.050	0.0151380
589.128	0.0151051
589.206	0.0150609
589.284	0.0150995
589.362	0.0149538
589.441	0.0150250
589.519	0.0149844
589.597	0.0150356
589.675	0.0149755
589.753	0.0149408
589.831	0.0150286
589.909	0.0150486
589.987	0.0150027
590.066	0.0150990
590.144	0.0149309
590.222	0.0148695
590.300	0.0148560
590.378	0.0149677
590.456	0.0148206
590.534	0.0147468
590.612	0.0147910
590.691	0.0147428
590.769	0.0147495
590.847	0.0147630
590.925	0.0147342
591.003	0.0146320
591.081	0.0146411
591.159	0.0146248
591.237	0.0145736
591.316	0.0146319
591.394	0.0145843
591.472	0.0145280
591.550	0.0146638
591.628	0.0146739
591.706	0.0147852
591.784	0.0147340
591.862	0.0147733
591.941	0.0148182
592.019	0.0147146
592.097	0.0147276
592.175	0.0148598
592.253	0.0147985
592.331	0.0149249
592.409	0.0149250
592.487	0.0148185
592.566	0.0150031
592.644	0.0149944
592.722	0.0149072
592.800	0.0148051
592.878	0.0148590
592.956	0.0148556
593.034	0.0149516
593.112	0.0147161
593.191	0.0146501
593.269	0.0148077
593.347	0.0148089
593.425	0.0147996
593.503	0.0146489
593.581	0.0145084
593.659	0.0144699
593.737	0.0145107
593.816	0.0145583
593.894	0.0145730
593.972	0.0144883
594.050	0.0143182
594.128	0.0143586
594.206	0.0144565
594.284	0.0144241
594.362	0.0142291
594.441	0.0143221
594.519	0.0143541
594.597	0.0143679
594.675	0.0143243
594.753	0.0142096
594.831	0.0142535
594.909	0.0144589
594.987	0.0144019
595.066	0.0143968
595.144	0.0142446
595.222	0.0143641
595.300	0.0143475
595.378	0.0142950
595.456	0.0141470
595.534	0.0143987
595.612	0.0144052
595.691	0.0143250
595.769	0.0143794
595.847	0.0144979
595.925	0.0143627
596.003	0.0143078
596.081	0.0144077
596.159	0.0143996
596.237	0.0143850
596.316	0.0144484
596.394	0.0142815
596.472	0.0143366
596.550	0.0143237
596.628	0.0143252
596.706	0.0143840
596.784	0.0142838
596.862	0.0141454
596.941	0.0142834
597.019	0.0141991
597.097	0.0142232
597.175	0.0143097
597.253	0.0143904
597.331	0.0144088
597.409	0.0144292
597.487	0.0144310
597.566	0.0144327
597.644	0.0145341
597.722	0.0145697
597.800	0.0146989
597.878	0.0146906
597.956	0.0146997
598.034	0.0145627
598.112	0.0148109
598.191	0.0147681
598.269	0.0147726
598.347	0.0148072
598.425	0.0149062
598.503	0.0148792
598.581	0.0148840
598.659	0.0150475
598.737	0.0150661
598.816	0.0149067
598.894	0.0150079
598.972	0.0150040
599.050	0.0150208
599.128	0.0149044
599.206	0.0149933
599.284	0.0150113
599.362	0.0148471
599.441	0.0147472
599.519	0.0148482
599.597	0.0148820
599.675	0.0145841
599.753	0.0147545
599.831	0.0146127
599.909	0.0145470
599.987	0.0145021
600.066	0.0145597
600.144	0.0145283
600.222	0.0145718
600.300	0.0146720
600.378	0.0145725
600.456	0.0146635
600.534	0.0145039
600.612	0.0148996
600.691	0.0147492
600.769	0.0148827
600.847	0.0148923
600.925	0.0148887
601.003	0.0149049
601.081	0.0148388
601.159	0.0147724
601.237	0.0149564
601.316	0.0150500
601.394	0.0148303
601.472	0.0148276
601.550	0.0150044
601.628	0.0151111
601.706	0.0150587
601.784	0.0148569
601.862	0.0149815
601.941	0.0149187
602.019	0.0150343
602.097	0.0149132
602.175	0.0148961
602.253	0.0149525
602.331	0.0148766
602.409	0.0148788
602.487	0.0148506
602.566	0.0148097
602.644	0.0147797
602.722	0.0148234
602.800	0.0149368
602.878	0.0146877
602.956	0.0148391
603.034	0.0149279
603.112	0.0148120
603.191	0.0148804
603.269	0.0147553
603.347	0.0147217
603.425	0.0148497
603.503	0.0148016
603.581	0.0147041
603.659	0.0148069
603.737	0.0147747
603.816	0.0146831
603.894	0.0148470
603.972	0.0148087
604.050	0.0147604
604.128	0.0148273
604.206	0.0148592
604.284	0.0148566
604.362	0.0150234
604.441	0.0149158
604.519	0.0150254
604.597	0.0150168
604.675	0.0150214
604.753	0.0149889
604.831	0.0149961
604.909	0.0150261
604.987	0.0149201
605.066	0.0148885
605.144	0.0148454
605.222	0.0147641
605.300	0.0147497
605.378	0.0147284
605.456	0.0147676
605.534	0.0147809
605.612	0.0147610
605.691	0.0147717
605.769	0.0147221
605.847	0.0147804
605.925	0.0147080
606.003	0.0146825
606.081	0.0146819
606.159	0.0147682
606.237	0.0146937
606.316	0.0146109
606.394	0.0146075
606.472	0.0146367
606.550	0.0145451
606.628	0.0146065
606.706	0.0144205
606.784	0.0145139
606.862	0.0143803
606.941	0.0144002
607.019	0.0144180
607.097	0.0142928
607.175	0.0143902
607.253	0.0142617
607.331	0.0142022
607.409	0.0143314
607.487	0.0141808
607.566	0.0141294
607.644	0.0141644
607.722	0.0142389
607.800	0.0141903
607.878	0.0141949
607.956	0.0141264
608.034	0.0142915
608.112	0.0142906
608.191	0.0141718
608.269	0.0142903
608.347	0.0143972
608.425	0.0143149
608.503	0.0142442
608.581	0.0143628
608.659	0.0143970
608.737	0.0145486
608.816	0.0145824
608.894	0.0145151
608.972	0.0145450
609.050	0.0146693
609.128	0.0148351
609.206	0.0147922
609.284	0.0148150
609.362	0.0148557
609.441	0.0148499
609.519	0.0149136
609.597	0.0148895
609.675	0.0147924
609.753	0.0147937
609.831	0.0148578
609.909	0.0149275
609.987	0.0147734
610.066	0.0147806
610.144	0.0147461
610.222	0.0148283
610.300	0.0148661
610.378	0.0149720
610.456	0.0149879
610.534	0.0149509
610.612	0.0148343
610.691	0.0148686
610.769	0.0149148
610.847	0.0149985
610.925	0.0150379
611.003	0.0149245
611.081	0.0150544
611.159	0.0151015
611.237	0.0149911
611.316	0.0150726
611.394	0.0150184
611.472	0.0149771
611.550	0.0149064
611.628	0.0147173
611.706	0.0148067
611.784	0.0148643
611.862	0.0149651
611.941	0.0147192
612.019	0.0146478
612.097	0.0147368
612.175	0.0146753
612.253	0.0148263
612.331	0.0148029
612.409	0.0149819
612.487	0.0149375
612.566	0.0148451
612.644	0.0149561
612.722	0.0150800
612.800	0.0150082
612.878	0.0148998
612.956	0.0150465
613.034	0.0149815
613.112	0.0149517
613.191	0.0148167
613.269	0.0148162
613.347	0.0148013
613.425	0.0146474
613.503	0.0148080
613.581	0.0148725
613.659	0.0149983
613.737	0.0148744
613.816	0.0148764
613.894	0.0147746
613.972	0.0147863
614.050	0.0147134
614.128	0.0147201
614.206	0.0147594
614.284	0.0148176
614.362	0.0146638
614.441	0.0145532
614.519	0.0145753
614.597	0.0146172
614.675	0.0146266
614.753	0.0145916
614.831	0.0146191
614.909	0.0147221
614.987	0.0146807
615.066	0.0144779
615.144	0.0145712
615.222	0.0145983
615.300	0.0146546
615.378	0.0146680
615.456	0.0146582
615.534	0.0147462
615.612	0.0147392
615.691	0.0148055
615.769	0.0147839
615.847	0.0148920
615.925	0.0147087
616.003	0.0148041
616.081	0.0148383
616.159	0.0148813
616.237	0.0148560
616.316	0.0147721
616.394	0.0146212
616.472	0.0146848
616.550	0.0146119
616.628	0.0146898
616.706	0.0147276
616.784	0.0145116
616.862	0.0145768
616.941	0.0145333
617.019	0.0144245
617.097	0.0145153
617.175	0.0144939
617.253	0.0144785
617.331	0.0145674
617.409	0.0145634
617.487	0.0145271
617.566	0.0144686
617.644	0.0146159
617.722	0.0144980
617.800	0.0145805
617.878	0.0147438
617.956	0.0146106
618.034	0.0146154
618.112	0.0146095
618.191	0.0147552
618.269	0.0145930
618.347	0.0147009
618.425	0.0145785
618.503	0.0145775
618.581	0.0146707
618.659	0.0146955
618.737	0.0145906
618.816	0.0146205
618.894	0.0145986
618.972	0.0144779
619.050	0.0147329
619.128	0.0147416
619.206	0.0146253
619.284	0.0146306
619.362	0.0147243
619.441	0.0146487
619.519	0.0146105
619.597	0.0148241
619.675	0.0147179
619.753	0.0147555
619.831	0.0147779
619.909	0.0147562
619.987	0.0147842
620.066	0.0148773
620.144	0.0147546
620.222	0.0149646
620.300	0.0148377
620.378	0.0148421
620.456	0.0150014
620.534	0.0148930
620.612	0.0147812
620.691	0.0148263
620.769	0.0149433
620.847	0.0146112
620.925	0.0147428
621.003	0.0148672
621.081	0.0147851
621.159	0.0146550
621.237	0.0148299
621.316	0.0147404
621.394	0.0146118
621.472	0.0148524
621.550	0.0145814
621.628	0.0145208
621.706	0.0146232
621.784	0.0146688
621.862	0.0145916
621.941	0.0148001
622.019	0.0149548
622.097	0.0148051
622.175	0.0147811
622.253	0.0148920
622.331	0.0148474
622.409	0.0149987
622.487	0.0150562
622.566	0.0150484
622.644	0.0150739
622.722	0.0152683
622.800	0.0151037
622.878	0.0151250
622.956	0.0150990
623.034	0.0151106
623.112	0.0151920
623.191	0.0152525
623.269	0.0152548
623.347	0.0153126
623.425	0.0154144
623.503	0.0151183
623.581	0.0151528
623.659	0.0152237
623.737	0.0150755
623.816	0.0152072
623.894	0.0152369
623.972	0.0151022
624.050	0.0150326
624.128	0.0150682
624.206	0.0150613
624.284	0.0149688
624.362	0.0150881
624.441	0.0149880
624.519	0.0149458
624.597	0.0149376
624.675	0.0148849
624.753	0.0148027
624.831	0.0147058
624.909	0.0148090
624.987	0.0147729
625.066	0.0146915
625.144	0.0147578
625.222	0.0146868
625.300	0.0147608
625.378	0.0146931
625.456	0.0147460
625.534	0.0147478
625.612	0.0146957
625.691	0.0147507
625.769	0.0148817
625.847	0.0148874
625.925	0.0148093
626.003	0.0147809
626.081	0.0149033
626.159	0.0149577
626.237	0.0149084
626.316	0.0148787
626.394	0.0152158
626.472	0.0151179
626.550	0.0149065
626.628	0.0149451
626.706	0.0149406
626.784	0.0148618
626.862	0.0148474
626.941	0.0149070
627.019	0.0148918
627.097	0.0147755
627.175	0.0148354
627.253	0.0146978
627.331	0.0148734
627.409	0.0148093
627.487	0.0146335
627.566	0.0145493
627.644	0.0146732
627.722	0.0147060
627.800	0.0147789
627.878	0.0148385
627.956	0.0148826
628.034	0.0149455
628.112	0.0148862
628.191	0.0148444
628.269	0.0149216
628.347	0.0149834
628.425	0.0150267
628.503	0.0150440
628.581	0.0150223
628.659	0.0150983
628.737	0.0149090
628.816	0.0151653
628.894	0.0150718
628.972	0.0149874
629.050	0.0151071
629.128	0.0150101
629.206	0.0150514
629.284	0.0150690
629.362	0.0149244
629.441	0.0148415
629.519	0.0149367
629.597	0.0150189
629.675	0.0149186
629.753	0.0149319
629.831	0.0149628
629.909	0.0148843
629.987	0.0149550
630.066	0.0150974
630.144	0.0149922
630.222	0.0149476
630.300	0.0149203
630.378	0.0148528
630.456	0.0150352
630.534	0.0149782
630.612	0.0150002
630.691	0.0149751
630.769	0.0147975
630.847	0.0149616
630.925	0.0150005
631.003	0.0150671
631.081	0.0149566
631.159	0.0151426
631.237	0.0151512
631.316	0.0149656
631.394	0.0151553
631.472	0.0151232
631.550	0.0151521
631.628	0.0150785
631.706	0.0151411
631.784	0.0151495
631.862	0.0151857
631.941	0.0151127
632.019	0.0151308
632.097	0.0151310
632.175	0.0149854
632.253	0.0151097
632.331	0.0151672
632.409	0.0150830
632.487	0.0150202
632.566	0.0149893
632.644	0.0150794
632.722	0.0149545
632.800	0.0148555
632.878	0.0149703
632.956	0.0149621
633.034	0.0150453
633.112	0.0148369
633.191	0.0148524
633.269	0.0150510
633.347	0.0148971
633.425	0.0148283
633.503	0.0148276
633.581	0.0149242
633.659	0.0148054
633.737	0.0148066
633.816	0.0148698
633.894	0.0148400
633.972	0.0146764
634.050	0.0147119
634.128	0.0147204
634.206	0.0147232
634.284	0.0146394
634.362	0.0147520
634.441	0.0145704
634.519	0.0145730
634.597	0.0146716
634.675	0.0147439
634.753	0.0145722
634.831	0.0145449
634.909	0.0146069
634.987	0.0146480
635.066	0.0146454
635.144	0.0146428
635.222	0.0144993
635.300	0.0146691
635.378	0.0145595
635.456	0.0145379
635.534	0.0146359
635.612	0.0147231
635.691	0.0146098
635.769	0.0145619
635.847	0.0145054
635.925	0.0145051
636.003	0.0144111
636.081	0.0143289
636.159	0.0143494
636.237	0.0143652
636.316	0.0143022
636.394	0.0143394
636.472	0.0143607
636.550	0.0142902
636.628	0.0143433
636.706	0.0143259
636.784	0.0143446
636.862	0.0144460
636.941	0.0143603
637.019	0.0143991
637.097	0.0145355
637.175	0.0144757
637.253	0.0145486
637.331	0.0145245
637.409	0.0145971
637.487	0.0146887
637.566	0.0146619
637.644	0.0146645
637.722	0.0146900
637.800	0.0146297
637.878	0.0148214
637.956	0.0147107
638.034	0.0146588
638.112	0.0147019
638.191	0.0147494
638.269	0.0146470
638.347	0.0147215
638.425	0.0147912
638.503	0.0147332
638.581	0.0146721
638.659	0.0145209
638.737	0.0147740
638.816	0.0148640
638.894	0.0148454
638.972	0.0147078
639.050	0.0146397
639.128	0.0148388
639.206	0.0149041
639.284	0.0149455
639.362	0.0149224
639.441	0.0148699
639.519	0.0148038
639.597	0.0149014
639.675	0.0149043
639.753	0.0149506
639.831	0.0150211
639.909	0.0148767
639.987	0.0147585
640.066	0.0148808
640.144	0.0147790
640.222	0.0149030
640.300	0.0148605
640.378	0.0147890
640.456	0.0147917
640.534	0.0148925
640.612	0.0149789
640.691	0.0149661
640.769	0.0148518
640.847	0.0149498
640.925	0.0149049
641.003	0.0148256
641.081	0.0148878
641.159	0.0151210
641.237	0.0150403
641.316	0.0150983
641.394	0.0149532
641.472	0.0149802
641.550	0.0150755
641.628	0.0148532
641.706	0.0149068
641.784	0.0150436
641.862	0.0147694
641.941	0.0148480
642.019	0.0149282
642.097	0.0148675
642.175	0.0146880
642.253	0.0148006
642.331	0.0147736
642.409	0.0148074
642.487	0.0149899
642.566	0.0147748
642.644	0.0147765
642.722	0.0148205
642.800	0.0146743
642.878	0.0147202
642.956	0.0149858
643.034	0.0148602
643.112	0.0146435
643.191	0.0147736
643.269	0.0149932
643.347	0.0147948
643.425	0.0148022
643.503	0.0150319
643.581	0.0149210
643.659	0.0148018
643.737	0.0150104
643.816	0.0149734
643.894	0.0148955
643.972	0.0149739
644.050	0.0149535
644.128	0.0149294
644.206	0.0148476
644.284	0.0147179
644.362	0.0147234
644.441	0.0149414
644.519	0.0147454
644.597	0.0146969
644.675	0.0149146
644.753	0.0148609
644.831	0.0147547
644.909	0.0148044
644.987	0.0148029
645.066	0.0148064
645.144	0.0149710
645.222	0.0149515
645.300	0.0148798
645.378	0.0148295
645.456	0.0150539
645.534	0.0150537
645.612	0.0149825
645.691	0.0149428
