05/28/2022	13:55:45	Ver.	4.1	UNKNOWN
Optical Delay	599.988409	Delta X		0.078125	Sweeps	1	Scan Rate	0/0
Coordinates	Axis 1	NaN	Axis 2	NaN	Axis 3	NaN	Axis 4	NaN	Axis 5	NaN	Axis 6	0.000000
TX Power	0.000000	RX Power	0.000000

599.988	0.0149023
600.067	0.0149812
600.145	0.0149898
600.223	0.0149176
600.301	0.0149388
600.379	0.0149963
600.457	0.0150501
600.535	0.0150114
600.613	0.0149075
600.692	0.0148769
600.770	0.0148292
600.848	0.0149081
600.926	0.0149971
601.004	0.0150620
601.082	0.0150308
601.160	0.0148804
601.238	0.0148996
601.317	0.0149345
601.395	0.0149310
601.473	0.0148345
601.551	0.0148223
601.629	0.0148412
601.707	0.0149200
601.785	0.0148658
601.863	0.0149225
601.942	0.0148249
602.020	0.0148514
602.098	0.0148541
602.176	0.0148903
602.254	0.0149914
602.332	0.0148635
602.410	0.0149092
602.488	0.0148911
602.567	0.0148525
602.645	0.0148905
602.723	0.0149052
602.801	0.0149328
602.879	0.0149339
602.957	0.0149965
603.035	0.0149020
603.113	0.0150446
603.192	0.0149277
603.270	0.0149181
603.348	0.0150589
603.426	0.0148772
603.504	0.0149609
603.582	0.0150457
603.660	0.0149899
603.738	0.0150429
603.817	0.0150061
603.895	0.0149576
603.973	0.0149847
604.051	0.0150018
604.129	0.0149503
604.207	0.0149593
604.285	0.0148904
604.363	0.0149163
604.442	0.0149805
604.520	0.0149241
604.598	0.0148261
604.676	0.0150622
604.754	0.0149567
604.832	0.0149251
604.910	0.0149195
604.988	0.0149274
605.067	0.0149503
605.145	0.0149200
605.223	0.0150688
605.301	0.0150030
605.379	0.0148667
605.457	0.0149835
605.535	0.0151007
605.613	0.0150008
605.692	0.0149834
605.770	0.0150397
605.848	0.0149487
605.926	0.0150260
606.004	0.0149915
606.082	0.0148691
606.160	0.0147834
606.238	0.0147292
606.317	0.0148006
606.395	0.0149744
606.473	0.0150674
606.551	0.0150335
606.629	0.0149834
606.707	0.0148948
606.785	0.0150836
606.863	0.0149349
606.942	0.0149168
607.020	0.0149754
607.098	0.0149946
607.176	0.0149049
607.254	0.0148924
607.332	0.0149723
607.410	0.0149597
607.488	0.0148887
607.567	0.0148290
607.645	0.0149088
607.723	0.0149818
607.801	0.0148940
607.879	0.0147971
607.957	0.0150452
608.035	0.0149996
608.113	0.0149813
608.192	0.0148910
608.270	0.0148737
608.348	0.0150315
608.426	0.0148526
608.504	0.0148894
608.582	0.0149601
608.660	0.0149520
608.738	0.0149437
608.817	0.0150094
608.895	0.0149360
608.973	0.0148320
609.051	0.0148249
609.129	0.0148231
609.207	0.0148867
609.285	0.0150229
609.363	0.0149581
609.442	0.0148940
609.520	0.0150299
609.598	0.0148874
609.676	0.0148949
609.754	0.0149284
609.832	0.0150632
609.910	0.0148788
609.988	0.0147691
610.067	0.0149813
610.145	0.0148309
610.223	0.0148154
610.301	0.0149092
610.379	0.0149406
610.457	0.0150128
610.535	0.0148446
610.613	0.0149552
610.692	0.0148694
610.770	0.0150430
610.848	0.0150295
610.926	0.0149574
611.004	0.0149359
611.082	0.0149117
611.160	0.0150958
611.238	0.0149837
611.317	0.0148930
611.395	0.0148709
611.473	0.0148611
611.551	0.0148478
611.629	0.0150029
611.707	0.0149705
611.785	0.0149261
611.863	0.0148610
611.942	0.0149569
612.020	0.0150217
612.098	0.0149306
612.176	0.0148621
612.254	0.0150244
612.332	0.0149553
612.410	0.0149776
612.488	0.0149238
612.567	0.0148826
612.645	0.0150246
612.723	0.0149060
612.801	0.0149400
612.879	0.0150832
612.957	0.0149017
613.035	0.0149499
613.113	0.0150255
613.192	0.0150791
613.270	0.0150186
613.348	0.0149508
613.426	0.0148962
613.504	0.0151522
613.582	0.0150152
613.660	0.0148561
613.738	0.0149747
613.817	0.0149003
613.895	0.0149451
613.973	0.0149187
614.051	0.0150556
614.129	0.0148042
614.207	0.0149037
614.285	0.0149464
614.363	0.0149504
614.442	0.0150117
614.520	0.0148653
614.598	0.0149213
614.676	0.0151203
614.754	0.0149070
614.832	0.0149104
614.910	0.0149366
614.988	0.0148792
615.067	0.0149574
615.145	0.0147746
615.223	0.0149739
615.301	0.0149910
615.379	0.0148084
615.457	0.0148698
615.535	0.0149146
615.613	0.0148688
615.692	0.0149418
615.770	0.0150250
615.848	0.0148664
615.926	0.0148879
616.004	0.0149586
616.082	0.0149204
616.160	0.0148948
616.238	0.0149924
616.317	0.0149346
616.395	0.0150062
616.473	0.0149354
616.551	0.0148125
616.629	0.0148171
616.707	0.0149008
616.785	0.0148618
616.863	0.0147981
616.942	0.0149212
617.020	0.0149454
617.098	0.0149719
617.176	0.0149328
617.254	0.0148272
617.332	0.0148228
617.410	0.0149655
617.488	0.0149196
617.567	0.0149522
617.645	0.0149385
617.723	0.0149323
617.801	0.0149545
617.879	0.0147726
617.957	0.0149351
618.035	0.0147458
618.113	0.0148409
618.192	0.0149344
618.270	0.0149172
618.348	0.0149289
618.426	0.0149902
618.504	0.0148013
618.582	0.0149166
618.660	0.0149165
618.738	0.0148103
618.817	0.0150540
618.895	0.0148596
618.973	0.0148842
619.051	0.0149069
619.129	0.0148742
619.207	0.0149811
619.285	0.0148930
619.363	0.0148242
619.442	0.0150454
619.520	0.0150293
619.598	0.0150883
619.676	0.0149272
619.754	0.0148297
619.832	0.0149710
619.910	0.0148347
619.988	0.0148080
620.067	0.0149182
620.145	0.0149757
620.223	0.0148577
620.301	0.0149664
620.379	0.0148389
620.457	0.0148706
620.535	0.0148679
620.613	0.0149706
620.692	0.0149824
620.770	0.0150114
620.848	0.0150455
620.926	0.0149712
621.004	0.0147879
621.082	0.0150845
621.160	0.0148981
621.238	0.0148197
621.317	0.0149196
621.395	0.0150188
621.473	0.0148582
621.551	0.0149710
621.629	0.0149847
621.707	0.0150974
621.785	0.0149734
621.863	0.0149919
621.942	0.0149265
622.020	0.0149452
622.098	0.0149765
622.176	0.0149200
622.254	0.0149867
622.332	0.0149718
622.410	0.0148508
622.488	0.0149770
622.567	0.0148726
622.645	0.0148328
622.723	0.0150618
622.801	0.0150759
622.879	0.0149790
622.957	0.0148740
623.035	0.0148087
623.113	0.0149503
623.192	0.0150083
623.270	0.0148290
623.348	0.0148866
623.426	0.0148582
623.504	0.0149635
623.582	0.0149385
623.660	0.0148831
623.738	0.0150706
623.817	0.0149268
623.895	0.0150147
623.973	0.0150297
624.051	0.0148312
624.129	0.0149577
624.207	0.0147662
624.285	0.0148693
624.363	0.0149753
624.442	0.0149713
624.520	0.0149580
624.598	0.0149247
624.676	0.0147799
624.754	0.0148638
624.832	0.0149228
624.910	0.0148395
624.988	0.0149240
625.067	0.0149343
625.145	0.0150272
625.223	0.0148830
625.301	0.0148000
625.379	0.0148528
625.457	0.0150224
625.535	0.0148394
625.613	0.0149461
625.692	0.0150388
625.770	0.0149918
625.848	0.0147780
625.926	0.0148541
626.004	0.0150024
626.082	0.0148832
626.160	0.0149785
626.238	0.0149789
626.317	0.0149136
626.395	0.0148513
626.473	0.0148957
626.551	0.0150910
626.629	0.0150480
626.707	0.0148088
626.785	0.0148781
626.863	0.0149400
626.942	0.0148454
627.020	0.0149717
627.098	0.0148309
627.176	0.0149042
627.254	0.0150121
627.332	0.0149858
627.410	0.0149449
627.488	0.0148402
627.567	0.0150634
627.645	0.0148452
627.723	0.0148366
627.801	0.0148688
627.879	0.0150036
627.957	0.0148680
628.035	0.0149641
628.113	0.0149224
628.192	0.0149060
628.270	0.0150482
628.348	0.0149438
628.426	0.0147781
628.504	0.0149193
628.582	0.0149557
628.660	0.0149294
628.738	0.0148975
628.817	0.0148637
628.895	0.0150832
628.973	0.0150285
629.051	0.0149900
629.129	0.0148875
629.207	0.0148046
629.285	0.0149380
629.363	0.0149426
629.442	0.0148849
629.520	0.0149226
629.598	0.0148589
629.676	0.0149513
629.754	0.0148273
629.832	0.0149531
629.910	0.0150156
629.988	0.0148698
630.067	0.0147767
630.145	0.0148780
630.223	0.0150681
630.301	0.0147377
630.379	0.0148919
630.457	0.0149184
630.535	0.0148500
630.613	0.0148531
630.692	0.0149932
630.770	0.0150163
630.848	0.0148985
630.926	0.0149362
631.004	0.0147782
631.082	0.0147301
631.160	0.0149345
631.238	0.0150542
631.317	0.0149309
631.395	0.0148617
631.473	0.0149619
631.551	0.0149375
631.629	0.0148460
631.707	0.0148212
631.785	0.0149044
631.863	0.0149059
631.942	0.0150089
632.020	0.0149200
632.098	0.0147430
632.176	0.0149781
632.254	0.0149081
632.332	0.0148647
632.410	0.0149150
632.488	0.0149792
632.567	0.0149696
632.645	0.0149920
632.723	0.0149354
632.801	0.0148214
632.879	0.0149501
632.957	0.0147278
633.035	0.0149510
633.113	0.0150024
633.192	0.0150465
633.270	0.0150195
633.348	0.0149874
633.426	0.0148290
633.504	0.0148385
633.582	0.0150031
633.660	0.0148624
633.738	0.0149332
633.817	0.0150294
633.895	0.0148994
633.973	0.0147537
634.051	0.0149286
634.129	0.0148948
634.207	0.0149224
634.285	0.0148824
634.363	0.0149748
634.442	0.0150134
634.520	0.0146622
634.598	0.0149423
634.676	0.0149677
634.754	0.0149068
634.832	0.0148518
634.910	0.0148843
634.988	0.0148783
635.067	0.0149115
635.145	0.0148476
635.223	0.0147396
635.301	0.0147607
635.379	0.0150403
635.457	0.0148826
635.535	0.0149905
635.613	0.0149489
635.692	0.0149163
635.770	0.0148645
635.848	0.0148287
635.926	0.0149792
636.004	0.0150084
636.082	0.0149710
636.160	0.0148717
636.238	0.0148682
636.317	0.0149698
636.395	0.0149313
636.473	0.0148825
636.551	0.0150094
636.629	0.0148820
636.707	0.0148498
636.785	0.0147804
636.863	0.0148552
636.942	0.0150777
637.020	0.0151405
637.098	0.0148989
637.176	0.0147002
637.254	0.0150224
637.332	0.0150150
637.410	0.0149201
637.488	0.0149471
637.567	0.0148315
637.645	0.0149332
637.723	0.0149021
637.801	0.0148569
637.879	0.0149268
637.957	0.0149483
638.035	0.0149416
638.113	0.0150897
638.192	0.0149117
638.270	0.0149169
638.348	0.0148511
638.426	0.0150653
638.504	0.0149963
638.582	0.0148192
638.660	0.0149721
638.738	0.0148442
638.817	0.0148987
638.895	0.0150665
638.973	0.0150413
639.051	0.0148682
639.129	0.0149059
639.207	0.0150696
639.285	0.0149002
639.363	0.0148508
639.442	0.0150378
639.520	0.0148702
639.598	0.0148120
639.676	0.0149507
639.754	0.0149593
639.832	0.0149876
639.910	0.0149301
639.988	0.0150468
640.067	0.0150382
640.145	0.0149178
640.223	0.0148520
640.301	0.0148252
640.379	0.0147929
640.457	0.0149841
640.535	0.0149796
640.613	0.0149202
640.692	0.0149250
640.770	0.0148671
640.848	0.0150153
640.926	0.0149790
641.004	0.0149963
641.082	0.0149629
641.160	0.0148888
641.238	0.0150476
641.317	0.0150823
641.395	0.0149548
641.473	0.0149139
641.551	0.0150591
641.629	0.0148846
641.707	0.0148651
641.785	0.0148665
641.863	0.0148743
641.942	0.0150047
642.020	0.0149659
642.098	0.0149626
642.176	0.0148699
642.254	0.0148615
642.332	0.0148516
642.410	0.0148926
642.488	0.0149014
642.567	0.0148681
642.645	0.0149783
642.723	0.0150093
642.801	0.0148242
642.879	0.0147797
642.957	0.0148901
643.035	0.0149705
643.113	0.0148888
643.192	0.0149484
643.270	0.0149466
643.348	0.0150414
643.426	0.0150477
643.504	0.0149140
643.582	0.0148196
643.660	0.0148833
643.738	0.0149201
643.817	0.0148876
643.895	0.0150526
643.973	0.0150288
644.051	0.0148840
644.129	0.0149999
644.207	0.0148050
644.285	0.0149106
644.363	0.0149968
644.442	0.0148798
644.520	0.0149651
644.598	0.0148845
644.676	0.0149337
644.754	0.0149314
644.832	0.0151106
644.910	0.0150299
644.988	0.0150063
645.067	0.0149287
645.145	0.0149814
645.223	0.0149371
645.301	0.0149074
645.379	0.0148421
645.457	0.0149662
645.535	0.0149464
645.613	0.0151089
645.692	0.0149376
645.770	0.0148473
645.848	0.0148051
645.926	0.0148654
646.004	0.0148918
646.082	0.0148990
646.160	0.0149004
646.238	0.0149287
646.317	0.0149099
646.395	0.0148908
646.473	0.0149378
646.551	0.0149019
646.629	0.0148890
646.707	0.0148639
646.785	0.0149985
646.863	0.0149443
646.942	0.0148812
647.020	0.0150966
647.098	0.0147865
647.176	0.0149129
647.254	0.0150481
647.332	0.0149245
647.410	0.0149084
647.488	0.0148660
647.567	0.0150128
647.645	0.0148948
647.723	0.0149345
647.801	0.0148538
647.879	0.0149641
647.957	0.0148649
648.035	0.0148837
648.113	0.0149503
648.192	0.0150275
648.270	0.0147954
648.348	0.0148406
648.426	0.0149015
648.504	0.0149876
648.582	0.0149927
648.660	0.0150272
648.738	0.0150381
648.817	0.0148347
648.895	0.0149548
648.973	0.0150220
649.051	0.0149323
649.129	0.0149137
649.207	0.0148774
649.285	0.0148268
649.363	0.0150787
649.442	0.0149602
649.520	0.0148315
649.598	0.0149725
649.676	0.0149609
649.754	0.0150784
649.832	0.0147900
649.910	0.0149064
649.988	0.0149821
650.067	0.0148770
650.145	0.0149366
650.223	0.0147813
650.301	0.0149444
650.379	0.0149609
650.457	0.0149497
650.535	0.0148470
650.613	0.0150300
650.692	0.0150998
650.770	0.0149353
650.848	0.0149606
650.926	0.0149587
651.004	0.0150146
651.082	0.0149361
651.160	0.0149858
651.238	0.0149493
651.317	0.0148869
651.395	0.0150497
651.473	0.0150028
651.551	0.0149197
651.629	0.0149767
651.707	0.0148761
651.785	0.0149129
651.863	0.0151402
651.942	0.0149641
652.020	0.0150451
652.098	0.0150391
652.176	0.0149306
652.254	0.0148623
652.332	0.0149924
652.410	0.0150433
652.488	0.0149510
652.567	0.0149081
652.645	0.0148879
652.723	0.0148307
652.801	0.0150047
652.879	0.0149390
652.957	0.0148459
653.035	0.0149935
653.113	0.0147662
653.192	0.0150867
653.270	0.0150205
653.348	0.0148458
653.426	0.0149243
653.504	0.0149577
653.582	0.0149513
653.660	0.0149786
653.738	0.0149336
653.817	0.0149868
653.895	0.0149248
653.973	0.0149182
654.051	0.0148827
654.129	0.0149323
654.207	0.0149557
654.285	0.0149670
654.363	0.0149628
654.442	0.0148850
654.520	0.0150462
654.598	0.0149985
654.676	0.0149733
654.754	0.0150103
654.832	0.0149103
654.910	0.0148537
654.988	0.0148945
655.067	0.0149215
655.145	0.0149239
655.223	0.0148684
655.301	0.0149245
655.379	0.0148468
655.457	0.0149968
655.535	0.0151070
655.613	0.0148779
655.692	0.0149806
655.770	0.0149298
655.848	0.0150337
655.926	0.0150755
656.004	0.0149857
656.082	0.0150362
656.160	0.0150377
656.238	0.0148771
656.317	0.0149319
656.395	0.0149402
656.473	0.0149096
656.551	0.0149356
656.629	0.0150328
656.707	0.0148820
656.785	0.0149968
656.863	0.0150403
656.942	0.0149082
657.020	0.0150211
657.098	0.0149646
657.176	0.0149690
657.254	0.0149603
657.332	0.0148209
657.410	0.0147803
657.488	0.0150285
657.567	0.0150033
657.645	0.0149622
657.723	0.0149626
657.801	0.0149248
657.879	0.0149361
657.957	0.0149569
658.035	0.0149265
658.113	0.0148949
658.192	0.0148716
658.270	0.0150151
658.348	0.0148605
658.426	0.0149725
658.504	0.0149986
658.582	0.0149390
658.660	0.0148705
658.738	0.0148303
658.817	0.0149855
658.895	0.0150594
658.973	0.0149308
659.051	0.0150159
659.129	0.0150493
659.207	0.0149480
659.285	0.0149039
659.363	0.0147886
659.442	0.0149357
659.520	0.0149059
659.598	0.0149242
659.676	0.0149117
659.754	0.0149427
659.832	0.0150237
659.910	0.0148817
659.988	0.0149463
660.067	0.0149381
660.145	0.0149018
660.223	0.0149254
660.301	0.0149551
660.379	0.0148927
660.457	0.0149837
660.535	0.0148244
660.613	0.0150058
660.692	0.0149059
660.770	0.0149375
660.848	0.0148167
660.926	0.0148713
661.004	0.0148227
661.082	0.0148715
661.160	0.0148571
661.238	0.0149606
661.317	0.0149435
661.395	0.0148856
661.473	0.0148454
661.551	0.0150970
661.629	0.0149584
661.707	0.0149158
661.785	0.0148439
661.863	0.0148830
661.942	0.0147980
662.020	0.0148402
662.098	0.0148866
662.176	0.0149753
662.254	0.0150762
662.332	0.0150452
662.410	0.0148876
662.488	0.0148692
662.567	0.0148509
662.645	0.0150295
662.723	0.0150678
662.801	0.0150187
662.879	0.0147955
662.957	0.0148509
663.035	0.0149000
663.113	0.0149743
663.192	0.0149094
663.270	0.0151167
663.348	0.0150886
663.426	0.0148267
663.504	0.0149491
663.582	0.0149456
663.660	0.0150931
663.738	0.0149907
663.817	0.0149121
663.895	0.0147955
663.973	0.0148664
664.051	0.0148071
664.129	0.0149300
664.207	0.0148875
664.285	0.0150117
664.363	0.0148473
664.442	0.0149754
664.520	0.0150636
664.598	0.0149090
664.676	0.0148212
664.754	0.0150358
664.832	0.0149915
664.910	0.0149953
664.988	0.0149390
665.067	0.0148450
665.145	0.0149081
665.223	0.0149802
665.301	0.0148978
665.379	0.0149360
665.457	0.0149513
665.535	0.0148783
665.613	0.0148401
665.692	0.0148885
665.770	0.0149158
665.848	0.0149483
665.926	0.0149216
666.004	0.0148466
666.082	0.0148598
666.160	0.0149236
666.238	0.0148997
666.317	0.0148115
666.395	0.0150278
666.473	0.0149870
666.551	0.0149728
666.629	0.0149949
666.707	0.0149725
666.785	0.0149939
666.863	0.0149824
666.942	0.0149031
667.020	0.0150091
667.098	0.0148643
667.176	0.0149081
667.254	0.0148913
667.332	0.0149993
667.410	0.0149422
667.488	0.0149503
667.567	0.0149169
667.645	0.0149403
667.723	0.0149055
667.801	0.0149003
667.879	0.0147331
667.957	0.0149679
668.035	0.0150579
668.113	0.0148505
668.192	0.0150156
668.270	0.0150086
668.348	0.0148861
668.426	0.0149355
668.504	0.0149201
668.582	0.0149404
668.660	0.0150272
668.738	0.0149969
668.817	0.0149452
668.895	0.0148625
668.973	0.0148392
669.051	0.0149861
669.129	0.0149081
669.207	0.0149790
669.285	0.0148416
669.363	0.0150108
669.442	0.0148785
669.520	0.0149793
669.598	0.0149606
669.676	0.0148011
669.754	0.0150424
669.832	0.0148006
669.910	0.0148999
669.988	0.0149298
670.067	0.0147848
670.145	0.0149268
670.223	0.0149014
670.301	0.0148882
670.379	0.0148485
670.457	0.0149476
670.535	0.0148602
670.613	0.0148859
670.692	0.0148849
670.770	0.0148856
670.848	0.0148353
670.926	0.0149631
671.004	0.0148614
671.082	0.0149898
671.160	0.0148658
671.238	0.0147588
671.317	0.0148519
671.395	0.0150657
671.473	0.0149822
671.551	0.0148431
671.629	0.0148238
671.707	0.0148782
671.785	0.0148146
671.863	0.0150005
671.942	0.0150338
672.020	0.0149361
672.098	0.0149249
672.176	0.0149785
672.254	0.0149387
672.332	0.0149584
672.410	0.0149931
672.488	0.0149504
672.567	0.0149209
672.645	0.0148919
672.723	0.0149079
672.801	0.0149294
672.879	0.0148613
672.957	0.0149451
673.035	0.0149706
673.113	0.0150089
673.192	0.0150377
673.270	0.0149865
673.348	0.0148850
673.426	0.0149638
673.504	0.0149435
673.582	0.0147030
673.660	0.0148896
673.738	0.0150908
673.817	0.0149501
673.895	0.0150181
673.973	0.0149933
674.051	0.0148598
674.129	0.0149817
674.207	0.0150935
674.285	0.0149500
674.363	0.0150246
674.442	0.0150315
674.520	0.0150233
674.598	0.0148528
674.676	0.0150262
674.754	0.0150087
674.832	0.0148603
674.910	0.0150388
674.988	0.0150356
675.067	0.0151855
675.145	0.0150858
675.223	0.0149851
675.301	0.0149381
675.379	0.0149357
675.457	0.0151083
675.535	0.0150280
675.613	0.0149423
675.692	0.0149705
675.770	0.0149893
675.848	0.0149626
675.926	0.0150706
676.004	0.0150728
676.082	0.0150028
676.160	0.0151328
676.238	0.0150425
676.317	0.0150327
676.395	0.0150524
676.473	0.0151131
676.551	0.0149780
676.629	0.0150546
676.707	0.0151436
676.785	0.0149905
676.863	0.0150607
676.942	0.0149984
677.020	0.0149742
677.098	0.0149723
677.176	0.0150476
677.254	0.0149209
677.332	0.0149289
677.410	0.0150241
677.488	0.0149792
677.567	0.0148500
677.645	0.0150256
677.723	0.0149376
677.801	0.0149616
677.879	0.0148936
677.957	0.0149694
678.035	0.0149873
678.113	0.0151219
678.192	0.0149384
678.270	0.0149937
678.348	0.0149958
678.426	0.0149575
678.504	0.0150818
678.582	0.0148952
678.660	0.0148967
678.738	0.0148619
678.817	0.0150553
678.895	0.0150156
678.973	0.0148989
679.051	0.0149751
679.129	0.0147546
679.207	0.0148930
679.285	0.0149743
679.363	0.0148957
679.442	0.0149884
679.520	0.0150751
679.598	0.0149265
679.676	0.0148550
679.754	0.0149699
679.832	0.0147682
679.910	0.0148068
679.988	0.0149937
680.067	0.0149264
680.145	0.0150132
680.223	0.0149290
680.301	0.0148485
680.379	0.0148936
680.457	0.0148139
680.535	0.0148119
680.613	0.0149339
680.692	0.0149204
680.770	0.0148972
680.848	0.0148729
680.926	0.0148878
681.004	0.0147474
681.082	0.0147778
681.160	0.0148700
681.238	0.0147217
681.317	0.0148628
681.395	0.0148502
681.473	0.0148479
681.551	0.0149139
681.629	0.0148815
681.707	0.0148408
681.785	0.0149097
681.863	0.0149560
681.942	0.0149352
682.020	0.0147944
682.098	0.0148758
682.176	0.0148152
682.254	0.0147700
682.332	0.0148774
682.410	0.0148830
682.488	0.0148440
682.567	0.0148208
682.645	0.0147977
682.723	0.0148161
682.801	0.0149642
682.879	0.0149213
682.957	0.0149489
683.035	0.0147662
683.113	0.0148670
683.192	0.0148895
683.270	0.0147609
683.348	0.0149094
683.426	0.0147013
683.504	0.0148970
683.582	0.0147578
683.660	0.0149812
683.738	0.0148286
683.817	0.0148569
683.895	0.0148139
683.973	0.0149832
684.051	0.0149066
684.129	0.0148514
684.207	0.0148901
684.285	0.0148537
684.363	0.0149168
684.442	0.0149181
684.520	0.0149075
684.598	0.0148956
684.676	0.0149060
684.754	0.0149316
684.832	0.0148171
684.910	0.0150111
684.988	0.0149554
685.067	0.0149458
685.145	0.0148339
685.223	0.0149948
685.301	0.0149178
685.379	0.0149988
685.457	0.0149698
685.535	0.0149442
685.613	0.0148559
685.692	0.0149055
