05/28/2022	13:56:35	Ver.	4.1	UNKNOWN
Optical Delay	599.988409	Delta X		0.078125	Sweeps	1	Scan Rate	0/0
Coordinates	Axis 1	NaN	Axis 2	NaN	Axis 3	NaN	Axis 4	NaN	Axis 5	NaN	Axis 6	0.000000
TX Power	0.000000	RX Power	0.000000

599.988	0.0147771
600.067	0.0147837
600.145	0.0148102
600.223	0.0147290
600.301	0.0147128
600.379	0.0146389
600.457	0.0146870
600.535	0.0148436
600.613	0.0148035
600.692	0.0147244
600.770	0.0149032
600.848	0.0147967
600.926	0.0147659
601.004	0.0147306
601.082	0.0146559
601.160	0.0147440
601.238	0.0147028
601.317	0.0147950
601.395	0.0148242
601.473	0.0147018
601.551	0.0147501
601.629	0.0148343
601.707	0.0147669
601.785	0.0147992
601.863	0.0148488
601.942	0.0147633
602.020	0.0147221
602.098	0.0147317
602.176	0.0147218
602.254	0.0148067
602.332	0.0147955
602.410	0.0147243
602.488	0.0148515
602.567	0.0147862
602.645	0.0146908
602.723	0.0146927
602.801	0.0148155
602.879	0.0147530
602.957	0.0148319
603.035	0.0146992
603.113	0.0147585
603.192	0.0148049
603.270	0.0147556
603.348	0.0147194
603.426	0.0148038
603.504	0.0148749
603.582	0.0147352
603.660	0.0147205
603.738	0.0147582
603.817	0.0148659
603.895	0.0147000
603.973	0.0148750
604.051	0.0147438
604.129	0.0148039
604.207	0.0146832
604.285	0.0147810
604.363	0.0149081
604.442	0.0147764
604.520	0.0147146
604.598	0.0148553
604.676	0.0148430
604.754	0.0147014
604.832	0.0148547
604.910	0.0146200
604.988	0.0148045
605.067	0.0148621
605.145	0.0146240
605.223	0.0147836
605.301	0.0147630
605.379	0.0149042
605.457	0.0146741
605.535	0.0147287
605.613	0.0146154
605.692	0.0147579
605.770	0.0149004
605.848	0.0146677
605.926	0.0148012
606.004	0.0148337
606.082	0.0146975
606.160	0.0148713
606.238	0.0147583
606.317	0.0148034
606.395	0.0147955
606.473	0.0148981
606.551	0.0148312
606.629	0.0148037
606.707	0.0147673
606.785	0.0147754
606.863	0.0147342
606.942	0.0146299
607.020	0.0147809
607.098	0.0147182
607.176	0.0147751
607.254	0.0147765
607.332	0.0147581
607.410	0.0147096
607.488	0.0147832
607.567	0.0148145
607.645	0.0147771
607.723	0.0148322
607.801	0.0147657
607.879	0.0148389
607.957	0.0148557
608.035	0.0147270
608.113	0.0146679
608.192	0.0148621
608.270	0.0148042
608.348	0.0146903
608.426	0.0148520
608.504	0.0147932
608.582	0.0147688
608.660	0.0146539
608.738	0.0148200
608.817	0.0148318
608.895	0.0147428
608.973	0.0146994
609.051	0.0148177
609.129	0.0148157
609.207	0.0147013
609.285	0.0147796
609.363	0.0148062
609.442	0.0147891
609.520	0.0146944
609.598	0.0149469
609.676	0.0148077
609.754	0.0147953
609.832	0.0147373
609.910	0.0146993
609.988	0.0146958
610.067	0.0147300
610.145	0.0148688
610.223	0.0147002
610.301	0.0146571
610.379	0.0146668
610.457	0.0147377
610.535	0.0147075
610.613	0.0146880
610.692	0.0147054
610.770	0.0147250
610.848	0.0147654
610.926	0.0145666
611.004	0.0148063
611.082	0.0148208
611.160	0.0148893
611.238	0.0147776
611.317	0.0147662
611.395	0.0148373
611.473	0.0148142
611.551	0.0146550
611.629	0.0146658
611.707	0.0147192
611.785	0.0147408
611.863	0.0148244
611.942	0.0148218
612.020	0.0148457
612.098	0.0149397
612.176	0.0147827
612.254	0.0147166
612.332	0.0147831
612.410	0.0146228
612.488	0.0148092
612.567	0.0146855
612.645	0.0148201
612.723	0.0146303
612.801	0.0146731
612.879	0.0147388
612.957	0.0148004
613.035	0.0148010
613.113	0.0147710
613.192	0.0147200
613.270	0.0148105
613.348	0.0148531
613.426	0.0148901
613.504	0.0146793
613.582	0.0148065
613.660	0.0148137
613.738	0.0146825
613.817	0.0147632
613.895	0.0148200
613.973	0.0147682
614.051	0.0147319
614.129	0.0146909
614.207	0.0148370
614.285	0.0147438
614.363	0.0147250
614.442	0.0147446
614.520	0.0146754
614.598	0.0149110
614.676	0.0148387
614.754	0.0147493
614.832	0.0147367
614.910	0.0147475
614.988	0.0147577
615.067	0.0147507
615.145	0.0146898
615.223	0.0147622
615.301	0.0148985
615.379	0.0148157
615.457	0.0147732
615.535	0.0147464
615.613	0.0147619
615.692	0.0149312
615.770	0.0147968
615.848	0.0147735
615.926	0.0147605
616.004	0.0148390
616.082	0.0147585
616.160	0.0147384
616.238	0.0147823
616.317	0.0146995
616.395	0.0147495
616.473	0.0146519
616.551	0.0147700
616.629	0.0146756
616.707	0.0147359
616.785	0.0147651
616.863	0.0148137
616.942	0.0148315
617.020	0.0147185
617.098	0.0146472
617.176	0.0147625
617.254	0.0147318
617.332	0.0147508
617.410	0.0147194
617.488	0.0148023
617.567	0.0147609
617.645	0.0146725
617.723	0.0146525
617.801	0.0147992
617.879	0.0148214
617.957	0.0147284
618.035	0.0147266
618.113	0.0147540
618.192	0.0148297
618.270	0.0148484
618.348	0.0147908
618.426	0.0146905
618.504	0.0148608
618.582	0.0146512
618.660	0.0147844
618.738	0.0148660
618.817	0.0148191
618.895	0.0148350
618.973	0.0147768
619.051	0.0148289
619.129	0.0147406
619.207	0.0147898
619.285	0.0147485
619.363	0.0147531
619.442	0.0147935
619.520	0.0148563
619.598	0.0146902
619.676	0.0146111
619.754	0.0146637
619.832	0.0147372
619.910	0.0145979
619.988	0.0146970
620.067	0.0147411
620.145	0.0145879
620.223	0.0147461
620.301	0.0146774
620.379	0.0146971
620.457	0.0146826
620.535	0.0146101
620.613	0.0147291
620.692	0.0148027
620.770	0.0147863
620.848	0.0146974
620.926	0.0147540
621.004	0.0147549
621.082	0.0147674
621.160	0.0148618
621.238	0.0147291
621.317	0.0149186
621.395	0.0148682
621.473	0.0147415
621.551	0.0147954
621.629	0.0148363
621.707	0.0147485
621.785	0.0147697
621.863	0.0146796
621.942	0.0146983
622.020	0.0147678
622.098	0.0147795
622.176	0.0146812
622.254	0.0148887
622.332	0.0147775
622.410	0.0146714
622.488	0.0147399
622.567	0.0147722
622.645	0.0148413
622.723	0.0146799
622.801	0.0148590
622.879	0.0146253
622.957	0.0147635
623.035	0.0146585
623.113	0.0147993
623.192	0.0147510
623.270	0.0147567
623.348	0.0148495
623.426	0.0148770
623.504	0.0148994
623.582	0.0148545
623.660	0.0147879
623.738	0.0148466
623.817	0.0148305
623.895	0.0147920
623.973	0.0147650
624.051	0.0147574
624.129	0.0149584
624.207	0.0148194
624.285	0.0148172
624.363	0.0147057
624.442	0.0147304
624.520	0.0147955
624.598	0.0148560
624.676	0.0148544
624.754	0.0147375
624.832	0.0147855
624.910	0.0147558
624.988	0.0147844
625.067	0.0147701
625.145	0.0147558
625.223	0.0145959
625.301	0.0147077
625.379	0.0147688
625.457	0.0147789
625.535	0.0148191
625.613	0.0147072
625.692	0.0148353
625.770	0.0148519
625.848	0.0147713
625.926	0.0147449
626.004	0.0148257
626.082	0.0147223
626.160	0.0147626
626.238	0.0148090
626.317	0.0147678
626.395	0.0148497
626.473	0.0149232
626.551	0.0146943
626.629	0.0148440
626.707	0.0146720
626.785	0.0147373
626.863	0.0147694
626.942	0.0146937
627.020	0.0148251
627.098	0.0147707
627.176	0.0147683
627.254	0.0148576
627.332	0.0148360
627.410	0.0146983
627.488	0.0147090
627.567	0.0147292
627.645	0.0148030
627.723	0.0147277
627.801	0.0146638
627.879	0.0147981
627.957	0.0148930
628.035	0.0147721
628.113	0.0147600
628.192	0.0148122
628.270	0.0147551
628.348	0.0148238
628.426	0.0146040
628.504	0.0146944
628.582	0.0148746
628.660	0.0147279
628.738	0.0148061
628.817	0.0148431
628.895	0.0147484
628.973	0.0148407
629.051	0.0147541
629.129	0.0147217
629.207	0.0147816
629.285	0.0148700
629.363	0.0147775
629.442	0.0147617
629.520	0.0147997
629.598	0.0148484
629.676	0.0148044
629.754	0.0147437
629.832	0.0147252
629.910	0.0148201
629.988	0.0148872
630.067	0.0147157
630.145	0.0146947
630.223	0.0147926
630.301	0.0146905
630.379	0.0147088
630.457	0.0148212
630.535	0.0147020
630.613	0.0147549
630.692	0.0147734
630.770	0.0147699
630.848	0.0148455
630.926	0.0145432
631.004	0.0148646
631.082	0.0147783
631.160	0.0147181
631.238	0.0148283
631.317	0.0147514
631.395	0.0147820
631.473	0.0146893
631.551	0.0147284
631.629	0.0147141
631.707	0.0147213
631.785	0.0146989
631.863	0.0148803
631.942	0.0147958
632.020	0.0146656
632.098	0.0148260
632.176	0.0147322
632.254	0.0148640
632.332	0.0147254
632.410	0.0148460
632.488	0.0148187
632.567	0.0147850
632.645	0.0147298
632.723	0.0148099
632.801	0.0148447
632.879	0.0147356
632.957	0.0149282
633.035	0.0147739
633.113	0.0147609
633.192	0.0148433
633.270	0.0146894
633.348	0.0147880
633.426	0.0147984
633.504	0.0148593
633.582	0.0147282
633.660	0.0149165
633.738	0.0148244
633.817	0.0147916
633.895	0.0145850
633.973	0.0146915
634.051	0.0147575
634.129	0.0148721
634.207	0.0149192
634.285	0.0149143
634.363	0.0147555
634.442	0.0149343
634.520	0.0148335
634.598	0.0147569
634.676	0.0148011
634.754	0.0147741
634.832	0.0147057
634.910	0.0148336
634.988	0.0147349
635.067	0.0147845
635.145	0.0148705
635.223	0.0147427
635.301	0.0146813
635.379	0.0147327
635.457	0.0147501
635.535	0.0147883
635.613	0.0147640
635.692	0.0147104
635.770	0.0148186
635.848	0.0147989
635.926	0.0147719
636.004	0.0147337
636.082	0.0148090
636.160	0.0147350
636.238	0.0148063
636.317	0.0147108
636.395	0.0147497
636.473	0.0147305
636.551	0.0147713
636.629	0.0147662
636.707	0.0146306
636.785	0.0148012
636.863	0.0146764
636.942	0.0148040
637.020	0.0147212
637.098	0.0147208
637.176	0.0147623
637.254	0.0147780
637.332	0.0147282
637.410	0.0147297
637.488	0.0148394
637.567	0.0147380
637.645	0.0147075
637.723	0.0147906
637.801	0.0146468
637.879	0.0147699
637.957	0.0148435
638.035	0.0147637
638.113	0.0147240
638.192	0.0147108
638.270	0.0145515
638.348	0.0145621
638.426	0.0148108
638.504	0.0147860
638.582	0.0148299
638.660	0.0147656
638.738	0.0147213
638.817	0.0149011
638.895	0.0148007
638.973	0.0147826
639.051	0.0147698
639.129	0.0148164
639.207	0.0147279
639.285	0.0147942
639.363	0.0146494
639.442	0.0147686
639.520	0.0147928
639.598	0.0148372
639.676	0.0147120
639.754	0.0147326
639.832	0.0147506
639.910	0.0148390
639.988	0.0146446
640.067	0.0147317
640.145	0.0148201
640.223	0.0147561
640.301	0.0147845
640.379	0.0147678
640.457	0.0148520
640.535	0.0147723
640.613	0.0147560
640.692	0.0147523
640.770	0.0147687
640.848	0.0145950
640.926	0.0148266
641.004	0.0148409
641.082	0.0147197
641.160	0.0147935
641.238	0.0147173
641.317	0.0146970
641.395	0.0148133
641.473	0.0148425
641.551	0.0148728
641.629	0.0147475
641.707	0.0147461
641.785	0.0147607
641.863	0.0147699
641.942	0.0147720
642.020	0.0148816
642.098	0.0147726
642.176	0.0147827
642.254	0.0146709
642.332	0.0146962
642.410	0.0147137
642.488	0.0146500
642.567	0.0146616
642.645	0.0146797
642.723	0.0147986
642.801	0.0148162
642.879	0.0147655
642.957	0.0146921
643.035	0.0148025
643.113	0.0147157
643.192	0.0147765
643.270	0.0147198
643.348	0.0148692
643.426	0.0147607
643.504	0.0147428
643.582	0.0148273
643.660	0.0147864
643.738	0.0146149
643.817	0.0147004
643.895	0.0147253
643.973	0.0147544
644.051	0.0148054
644.129	0.0147502
644.207	0.0147065
644.285	0.0147652
644.363	0.0148103
644.442	0.0147401
644.520	0.0149484
644.598	0.0149195
644.676	0.0148391
644.754	0.0147523
644.832	0.0147971
644.910	0.0149301
644.988	0.0147681
645.067	0.0147732
645.145	0.0147312
645.223	0.0148835
645.301	0.0147909
645.379	0.0147698
645.457	0.0149809
645.535	0.0148618
645.613	0.0147535
645.692	0.0147371
645.770	0.0148627
645.848	0.0148622
645.926	0.0148135
646.004	0.0147376
646.082	0.0148460
646.160	0.0147572
646.238	0.0148086
646.317	0.0149002
646.395	0.0148491
646.473	0.0147872
646.551	0.0148282
646.629	0.0147657
646.707	0.0146672
646.785	0.0147332
646.863	0.0147502
646.942	0.0148317
647.020	0.0149018
647.098	0.0148325
647.176	0.0147443
647.254	0.0147834
647.332	0.0147842
647.410	0.0147109
647.488	0.0148812
647.567	0.0147971
647.645	0.0148267
647.723	0.0148170
647.801	0.0147497
647.879	0.0148389
647.957	0.0148938
648.035	0.0147520
648.113	0.0148112
648.192	0.0149017
648.270	0.0148531
648.348	0.0148579
648.426	0.0148703
648.504	0.0148328
648.582	0.0147884
648.660	0.0147598
648.738	0.0148780
648.817	0.0148986
648.895	0.0147662
648.973	0.0147615
649.051	0.0148727
649.129	0.0148063
649.207	0.0146881
649.285	0.0147443
649.363	0.0147913
649.442	0.0147923
649.520	0.0148436
649.598	0.0148203
649.676	0.0147694
649.754	0.0146586
649.832	0.0147090
649.910	0.0148492
649.988	0.0148599
650.067	0.0147998
650.145	0.0148036
650.223	0.0146812
650.301	0.0146465
650.379	0.0147089
650.457	0.0147963
650.535	0.0148408
650.613	0.0148148
650.692	0.0146672
650.770	0.0147067
650.848	0.0147980
650.926	0.0146500
651.004	0.0147846
651.082	0.0147854
651.160	0.0147061
651.238	0.0148129
651.317	0.0147815
651.395	0.0146738
651.473	0.0146631
651.551	0.0147672
651.629	0.0148166
651.707	0.0146547
651.785	0.0148009
651.863	0.0146766
651.942	0.0147695
652.020	0.0147652
652.098	0.0147581
652.176	0.0148821
652.254	0.0147496
652.332	0.0147748
652.410	0.0146740
652.488	0.0148312
652.567	0.0148062
652.645	0.0147038
652.723	0.0147904
652.801	0.0147494
652.879	0.0146964
652.957	0.0147717
653.035	0.0147939
653.113	0.0148057
653.192	0.0148289
653.270	0.0148875
653.348	0.0147686
653.426	0.0147202
653.504	0.0146600
653.582	0.0147536
653.660	0.0148130
653.738	0.0147372
653.817	0.0146938
653.895	0.0146957
653.973	0.0147556
654.051	0.0146156
654.129	0.0147974
654.207	0.0148614
654.285	0.0148011
654.363	0.0147590
654.442	0.0148332
654.520	0.0147989
654.598	0.0148566
654.676	0.0148184
654.754	0.0146921
654.832	0.0146993
654.910	0.0147829
654.988	0.0148135
655.067	0.0146512
655.145	0.0147493
655.223	0.0148335
655.301	0.0148267
655.379	0.0147799
655.457	0.0147708
655.535	0.0147420
655.613	0.0145844
655.692	0.0146174
655.770	0.0148014
655.848	0.0147861
655.926	0.0147688
656.004	0.0147713
656.082	0.0147034
656.160	0.0146154
656.238	0.0147070
656.317	0.0147765
656.395	0.0146835
656.473	0.0146777
656.551	0.0147183
656.629	0.0148445
656.707	0.0147367
656.785	0.0148385
656.863	0.0147137
656.942	0.0146178
657.020	0.0146199
657.098	0.0146899
657.176	0.0147692
657.254	0.0147855
657.332	0.0147667
657.410	0.0147712
657.488	0.0146820
657.567	0.0146770
657.645	0.0146171
657.723	0.0146704
657.801	0.0148163
657.879	0.0148579
657.957	0.0148463
658.035	0.0145882
658.113	0.0147404
658.192	0.0147614
658.270	0.0146213
658.348	0.0147885
658.426	0.0148241
658.504	0.0147569
658.582	0.0147355
658.660	0.0146571
658.738	0.0148895
658.817	0.0148899
658.895	0.0147729
658.973	0.0148029
659.051	0.0148363
659.129	0.0147527
659.207	0.0148336
659.285	0.0148427
659.363	0.0146670
659.442	0.0147017
659.520	0.0147779
659.598	0.0147875
659.676	0.0146681
659.754	0.0147900
659.832	0.0148567
659.910	0.0148122
659.988	0.0148096
660.067	0.0147997
660.145	0.0146534
660.223	0.0147039
660.301	0.0147424
660.379	0.0149608
660.457	0.0147055
660.535	0.0147025
660.613	0.0147637
660.692	0.0148276
660.770	0.0147081
660.848	0.0146535
660.926	0.0147352
661.004	0.0147829
661.082	0.0147201
661.160	0.0149322
661.238	0.0147497
661.317	0.0147498
661.395	0.0148364
661.473	0.0149175
661.551	0.0149186
661.629	0.0149247
661.707	0.0148027
661.785	0.0146663
661.863	0.0149521
661.942	0.0148546
662.020	0.0146537
662.098	0.0147433
662.176	0.0148076
662.254	0.0147579
662.332	0.0146973
662.410	0.0147556
662.488	0.0148747
662.567	0.0148782
662.645	0.0147138
662.723	0.0148238
662.801	0.0147379
662.879	0.0147714
662.957	0.0147292
663.035	0.0147500
663.113	0.0147450
663.192	0.0146664
663.270	0.0146327
663.348	0.0148167
663.426	0.0146771
663.504	0.0148284
663.582	0.0147363
663.660	0.0146918
663.738	0.0147456
663.817	0.0147331
663.895	0.0147628
663.973	0.0147291
664.051	0.0147310
664.129	0.0148139
664.207	0.0148219
664.285	0.0147063
664.363	0.0147664
664.442	0.0147945
664.520	0.0147277
664.598	0.0147868
664.676	0.0149004
664.754	0.0148078
664.832	0.0146041
664.910	0.0147874
664.988	0.0147218
665.067	0.0147599
665.145	0.0149824
665.223	0.0147845
665.301	0.0147150
665.379	0.0146695
665.457	0.0147276
665.535	0.0148510
665.613	0.0147201
665.692	0.0147863
665.770	0.0148237
665.848	0.0148181
665.926	0.0147420
666.004	0.0146777
666.082	0.0147437
666.160	0.0147579
666.238	0.0147908
666.317	0.0146430
666.395	0.0147602
666.473	0.0147027
666.551	0.0145840
666.629	0.0146527
666.707	0.0149158
666.785	0.0148030
666.863	0.0147721
666.942	0.0146470
667.020	0.0147363
667.098	0.0147095
667.176	0.0147364
667.254	0.0146807
667.332	0.0147166
667.410	0.0148044
667.488	0.0147650
667.567	0.0146813
667.645	0.0147736
667.723	0.0146935
667.801	0.0146304
667.879	0.0147329
667.957	0.0147510
668.035	0.0146586
668.113	0.0147596
668.192	0.0146500
668.270	0.0145808
668.348	0.0147269
668.426	0.0148350
668.504	0.0146703
668.582	0.0145532
668.660	0.0146876
668.738	0.0147361
668.817	0.0147375
668.895	0.0147121
668.973	0.0146703
669.051	0.0146845
669.129	0.0145876
669.207	0.0147222
669.285	0.0147859
669.363	0.0148259
669.442	0.0148287
669.520	0.0145442
669.598	0.0147323
669.676	0.0146642
669.754	0.0147458
669.832	0.0149136
669.910	0.0146436
669.988	0.0147367
670.067	0.0149000
670.145	0.0147932
670.223	0.0147291
670.301	0.0146961
670.379	0.0146541
670.457	0.0147478
670.535	0.0147414
670.613	0.0147472
670.692	0.0146244
670.770	0.0147451
670.848	0.0147990
670.926	0.0147095
671.004	0.0147174
671.082	0.0147944
671.160	0.0148308
671.238	0.0147765
671.317	0.0148245
671.395	0.0147050
671.473	0.0145798
671.551	0.0147108
671.629	0.0146556
671.707	0.0147440
671.785	0.0146619
671.863	0.0148205
671.942	0.0147931
672.020	0.0147901
672.098	0.0146246
672.176	0.0146598
672.254	0.0147449
672.332	0.0147616
672.410	0.0147919
672.488	0.0147802
672.567	0.0145844
672.645	0.0148032
672.723	0.0149014
672.801	0.0149077
672.879	0.0146573
672.957	0.0147379
673.035	0.0149844
673.113	0.0148366
673.192	0.0148385
673.270	0.0147923
673.348	0.0148086
673.426	0.0147685
673.504	0.0148429
673.582	0.0147090
673.660	0.0147511
673.738	0.0147786
673.817	0.0148231
673.895	0.0148326
673.973	0.0148700
674.051	0.0146985
674.129	0.0148548
674.207	0.0148395
674.285	0.0149278
674.363	0.0148552
674.442	0.0147948
674.520	0.0147605
674.598	0.0148390
674.676	0.0149095
674.754	0.0148705
674.832	0.0150193
674.910	0.0148582
674.988	0.0147666
675.067	0.0149668
675.145	0.0148116
675.223	0.0148125
675.301	0.0146890
675.379	0.0149120
675.457	0.0148026
675.535	0.0148429
675.613	0.0149265
675.692	0.0148263
675.770	0.0149211
675.848	0.0148271
675.926	0.0148364
676.004	0.0148325
676.082	0.0148460
676.160	0.0147698
676.238	0.0147491
676.317	0.0148225
676.395	0.0148406
676.473	0.0147440
676.551	0.0148528
676.629	0.0147318
676.707	0.0149066
676.785	0.0148531
676.863	0.0148445
676.942	0.0148175
677.020	0.0148476
677.098	0.0147442
677.176	0.0147334
677.254	0.0149358
677.332	0.0149738
677.410	0.0146574
677.488	0.0148677
677.567	0.0147086
677.645	0.0147737
677.723	0.0147166
677.801	0.0146326
677.879	0.0147070
677.957	0.0148070
678.035	0.0148155
678.113	0.0147626
678.192	0.0147015
678.270	0.0147869
678.348	0.0147636
678.426	0.0146477
678.504	0.0146899
678.582	0.0146938
678.660	0.0147601
678.738	0.0146922
678.817	0.0146942
678.895	0.0147111
678.973	0.0146367
679.051	0.0146626
679.129	0.0147461
679.207	0.0146488
679.285	0.0146934
679.363	0.0148162
679.442	0.0148376
679.520	0.0147021
679.598	0.0146158
679.676	0.0147273
679.754	0.0146133
679.832	0.0147378
679.910	0.0146390
679.988	0.0148085
680.067	0.0147429
680.145	0.0147922
680.223	0.0146426
680.301	0.0145726
680.379	0.0147694
680.457	0.0146821
680.535	0.0146806
680.613	0.0145552
680.692	0.0147134
680.770	0.0146935
680.848	0.0147296
680.926	0.0146589
681.004	0.0147117
681.082	0.0147397
681.160	0.0146494
681.238	0.0146524
681.317	0.0147092
681.395	0.0147642
681.473	0.0145617
681.551	0.0146471
681.629	0.0146537
681.707	0.0146674
681.785	0.0147059
681.863	0.0146087
681.942	0.0146532
682.020	0.0147686
682.098	0.0145985
682.176	0.0147449
682.254	0.0146159
682.332	0.0147177
682.410	0.0147381
682.488	0.0147739
682.567	0.0146678
682.645	0.0146201
682.723	0.0147150
682.801	0.0147599
682.879	0.0146421
682.957	0.0147752
683.035	0.0147146
683.113	0.0147978
683.192	0.0146700
683.270	0.0147217
683.348	0.0146925
683.426	0.0147302
683.504	0.0147815
683.582	0.0147625
683.660	0.0147227
683.738	0.0148572
683.817	0.0148212
683.895	0.0146934
683.973	0.0146880
684.051	0.0148081
684.129	0.0148071
684.207	0.0146689
684.285	0.0147431
684.363	0.0149072
684.442	0.0147418
684.520	0.0146798
684.598	0.0147384
684.676	0.0147443
684.754	0.0147155
684.832	0.0146600
684.910	0.0147707
684.988	0.0146614
685.067	0.0147178
685.145	0.0148154
685.223	0.0147337
685.301	0.0148442
685.379	0.0147562
685.457	0.0148354
685.535	0.0149532
685.613	0.0148527
685.692	0.0148276
