05/28/2022	13:57:15	Ver.	4.1	UNKNOWN
Optical Delay	599.988409	Delta X		0.078125	Sweeps	1	Scan Rate	0/0
Coordinates	Axis 1	NaN	Axis 2	NaN	Axis 3	NaN	Axis 4	NaN	Axis 5	NaN	Axis 6	0.000000
TX Power	0.000000	RX Power	0.000000

599.988	0.0148949
600.067	0.0149174
600.145	0.0148475
600.223	0.0148536
600.301	0.0148640
600.379	0.0148244
600.457	0.0150193
600.535	0.0148071
600.613	0.0148260
600.692	0.0150402
600.770	0.0148814
600.848	0.0148133
600.926	0.0149030
601.004	0.0148756
601.082	0.0147893
601.160	0.0148911
601.238	0.0148854
601.317	0.0149049
601.395	0.0149419
601.473	0.0148171
601.551	0.0149039
601.629	0.0148889
601.707	0.0147169
601.785	0.0149217
601.863	0.0150189
601.942	0.0149478
602.020	0.0149245
602.098	0.0149126
602.176	0.0148486
602.254	0.0148736
602.332	0.0148761
602.410	0.0148428
602.488	0.0148622
602.567	0.0149438
602.645	0.0149876
602.723	0.0148903
602.801	0.0148105
602.879	0.0149505
602.957	0.0149490
603.035	0.0148872
603.113	0.0147813
603.192	0.0150398
603.270	0.0150086
603.348	0.0148792
603.426	0.0148320
603.504	0.0149594
603.582	0.0148959
603.660	0.0149564
603.738	0.0150091
603.817	0.0148647
603.895	0.0147533
603.973	0.0148454
604.051	0.0148934
604.129	0.0148898
604.207	0.0148753
604.285	0.0148629
604.363	0.0148692
604.442	0.0148740
604.520	0.0149609
604.598	0.0148838
604.676	0.0149134
604.754	0.0148172
604.832	0.0149110
604.910	0.0148843
604.988	0.0150195
605.067	0.0149265
605.145	0.0149715
605.223	0.0149182
605.301	0.0149206
605.379	0.0148403
605.457	0.0148555
605.535	0.0149012
605.613	0.0149410
605.692	0.0149718
605.770	0.0149496
605.848	0.0148997
605.926	0.0148338
606.004	0.0149793
606.082	0.0149478
606.160	0.0148737
606.238	0.0149726
606.317	0.0150927
606.395	0.0148078
606.473	0.0148152
606.551	0.0149052
606.629	0.0148458
606.707	0.0149316
606.785	0.0148692
606.863	0.0148642
606.942	0.0148461
607.020	0.0148842
607.098	0.0149546
607.176	0.0148627
607.254	0.0149786
607.332	0.0148776
607.410	0.0148391
607.488	0.0149829
607.567	0.0149368
607.645	0.0150069
607.723	0.0149417
607.801	0.0149146
607.879	0.0149547
607.957	0.0148862
608.035	0.0148203
608.113	0.0148629
608.192	0.0148808
608.270	0.0146670
608.348	0.0149580
608.426	0.0149798
608.504	0.0148987
608.582	0.0148900
608.660	0.0149661
608.738	0.0149215
608.817	0.0148267
608.895	0.0149517
608.973	0.0149406
609.051	0.0148602
609.129	0.0147782
609.207	0.0148408
609.285	0.0147739
609.363	0.0148631
609.442	0.0148927
609.520	0.0148934
609.598	0.0148431
609.676	0.0149442
609.754	0.0148752
609.832	0.0148447
609.910	0.0148645
609.988	0.0148995
610.067	0.0149155
610.145	0.0148388
610.223	0.0148714
610.301	0.0149615
610.379	0.0148699
610.457	0.0149159
610.535	0.0147144
610.613	0.0148765
610.692	0.0148136
610.770	0.0148602
610.848	0.0148282
610.926	0.0149082
611.004	0.0148905
611.082	0.0149058
611.160	0.0148325
611.238	0.0148824
611.317	0.0149191
611.395	0.0148219
611.473	0.0148797
611.551	0.0148327
611.629	0.0148079
611.707	0.0147332
611.785	0.0149369
611.863	0.0149171
611.942	0.0147877
612.020	0.0148141
612.098	0.0148296
612.176	0.0148444
612.254	0.0148683
612.332	0.0149718
612.410	0.0149391
612.488	0.0147758
612.567	0.0148306
612.645	0.0148727
612.723	0.0148988
612.801	0.0148373
612.879	0.0149185
612.957	0.0149413
613.035	0.0148405
613.113	0.0148501
613.192	0.0149689
613.270	0.0148988
613.348	0.0149438
613.426	0.0149236
613.504	0.0149237
613.582	0.0149103
613.660	0.0149437
613.738	0.0149272
613.817	0.0148064
613.895	0.0148763
613.973	0.0148318
614.051	0.0149287
614.129	0.0147539
614.207	0.0147910
614.285	0.0147859
614.363	0.0149138
614.442	0.0148883
614.520	0.0148456
614.598	0.0149644
614.676	0.0149655
614.754	0.0149689
614.832	0.0149351
614.910	0.0148760
614.988	0.0149100
615.067	0.0147844
615.145	0.0147666
615.223	0.0148379
615.301	0.0149553
615.379	0.0149591
615.457	0.0149776
615.535	0.0149529
615.613	0.0149386
615.692	0.0148435
615.770	0.0148462
615.848	0.0149641
615.926	0.0148223
616.004	0.0149114
616.082	0.0149325
616.160	0.0148388
616.238	0.0148843
616.317	0.0148608
616.395	0.0148042
616.473	0.0150230
616.551	0.0149237
616.629	0.0148969
616.707	0.0148575
616.785	0.0149423
616.863	0.0148154
616.942	0.0146893
617.020	0.0149924
617.098	0.0149048
617.176	0.0148138
617.254	0.0150127
617.332	0.0148145
617.410	0.0148584
617.488	0.0148971
617.567	0.0149436
617.645	0.0149184
617.723	0.0148666
617.801	0.0148332
617.879	0.0149259
617.957	0.0148985
618.035	0.0148257
618.113	0.0149440
618.192	0.0150728
618.270	0.0149268
618.348	0.0147523
618.426	0.0148577
618.504	0.0147835
618.582	0.0150804
618.660	0.0148422
618.738	0.0148962
618.817	0.0148072
618.895	0.0148584
618.973	0.0148056
619.051	0.0147213
619.129	0.0147729
619.207	0.0148307
619.285	0.0148717
619.363	0.0147146
619.442	0.0148530
619.520	0.0147991
619.598	0.0147940
619.676	0.0148145
619.754	0.0147296
619.832	0.0148823
619.910	0.0148177
619.988	0.0148185
620.067	0.0148078
620.145	0.0148769
620.223	0.0148817
620.301	0.0147572
620.379	0.0148013
620.457	0.0148793
620.535	0.0148210
620.613	0.0147767
620.692	0.0148535
620.770	0.0148971
620.848	0.0147958
620.926	0.0148723
621.004	0.0149262
621.082	0.0148936
621.160	0.0149789
621.238	0.0148477
621.317	0.0148179
621.395	0.0149003
621.473	0.0148838
621.551	0.0149358
621.629	0.0148553
621.707	0.0148345
621.785	0.0149173
621.863	0.0148663
621.942	0.0147704
622.020	0.0147598
622.098	0.0147030
622.176	0.0148161
622.254	0.0148691
622.332	0.0149459
622.410	0.0149055
622.488	0.0148386
622.567	0.0148542
622.645	0.0147463
622.723	0.0148654
622.801	0.0148582
622.879	0.0147768
622.957	0.0148214
623.035	0.0149191
623.113	0.0148022
623.192	0.0148902
623.270	0.0148273
623.348	0.0148483
623.426	0.0149097
623.504	0.0149535
623.582	0.0147718
623.660	0.0148930
623.738	0.0148152
623.817	0.0148826
623.895	0.0148370
623.973	0.0148389
624.051	0.0148592
624.129	0.0148988
624.207	0.0150146
624.285	0.0149069
624.363	0.0147955
624.442	0.0148140
624.520	0.0149429
624.598	0.0148571
624.676	0.0148361
624.754	0.0148611
624.832	0.0149185
624.910	0.0148806
624.988	0.0148571
625.067	0.0147833
625.145	0.0148933
625.223	0.0148509
625.301	0.0149754
625.379	0.0150203
625.457	0.0148177
625.535	0.0148557
625.613	0.0149899
625.692	0.0149906
625.770	0.0147962
625.848	0.0148465
625.926	0.0149564
626.004	0.0149315
626.082	0.0149474
626.160	0.0149744
626.238	0.0148401
626.317	0.0148331
626.395	0.0150105
626.473	0.0147753
626.551	0.0148203
626.629	0.0147873
626.707	0.0149376
626.785	0.0149027
626.863	0.0149313
626.942	0.0148738
627.020	0.0148547
627.098	0.0147902
627.176	0.0149947
627.254	0.0147674
627.332	0.0148165
627.410	0.0149419
627.488	0.0149760
627.567	0.0149287
627.645	0.0148698
627.723	0.0150050
627.801	0.0146700
627.879	0.0149635
627.957	0.0147892
628.035	0.0147939
628.113	0.0147797
628.192	0.0149419
628.270	0.0150486
628.348	0.0149353
628.426	0.0148988
628.504	0.0149294
628.582	0.0148721
628.660	0.0149270
628.738	0.0148811
628.817	0.0148197
628.895	0.0148223
628.973	0.0149184
629.051	0.0147442
629.129	0.0148482
629.207	0.0149244
629.285	0.0148387
629.363	0.0149292
629.442	0.0148972
629.520	0.0149244
629.598	0.0150134
629.676	0.0146989
629.754	0.0147598
629.832	0.0149304
629.910	0.0149499
629.988	0.0148797
630.067	0.0147749
630.145	0.0148579
630.223	0.0149695
630.301	0.0147651
630.379	0.0148701
630.457	0.0149031
630.535	0.0148907
630.613	0.0150026
630.692	0.0149227
630.770	0.0147301
630.848	0.0148620
630.926	0.0149003
631.004	0.0149294
631.082	0.0149197
631.160	0.0149568
631.238	0.0148981
631.317	0.0149669
631.395	0.0150194
631.473	0.0149987
631.551	0.0149135
631.629	0.0149245
631.707	0.0149075
631.785	0.0148012
631.863	0.0148122
631.942	0.0148775
632.020	0.0148771
632.098	0.0149807
632.176	0.0148595
632.254	0.0148426
632.332	0.0148053
632.410	0.0148793
632.488	0.0148602
632.567	0.0148934
632.645	0.0149658
632.723	0.0149283
632.801	0.0148710
632.879	0.0149667
632.957	0.0149071
633.035	0.0148392
633.113	0.0148980
633.192	0.0148438
633.270	0.0149755
633.348	0.0148209
633.426	0.0149503
633.504	0.0149118
633.582	0.0149558
633.660	0.0147842
633.738	0.0150824
633.817	0.0148745
633.895	0.0147440
633.973	0.0146973
634.051	0.0148207
634.129	0.0149592
634.207	0.0149577
634.285	0.0148949
634.363	0.0150237
634.442	0.0148598
634.520	0.0148949
634.598	0.0148788
634.676	0.0148376
634.754	0.0148442
634.832	0.0148572
634.910	0.0147764
634.988	0.0148663
635.067	0.0150067
635.145	0.0148560
635.223	0.0147675
635.301	0.0149124
635.379	0.0148702
635.457	0.0148351
635.535	0.0148664
635.613	0.0148190
635.692	0.0149380
635.770	0.0149071
635.848	0.0149818
635.926	0.0149107
636.004	0.0148878
636.082	0.0147624
636.160	0.0148152
636.238	0.0150004
636.317	0.0149988
636.395	0.0149342
636.473	0.0149006
636.551	0.0147694
636.629	0.0147877
636.707	0.0149575
636.785	0.0149807
636.863	0.0149451
636.942	0.0148599
637.020	0.0148226
637.098	0.0150021
637.176	0.0149472
637.254	0.0147678
637.332	0.0148882
637.410	0.0148637
637.488	0.0148682
637.567	0.0148065
637.645	0.0149613
637.723	0.0149102
637.801	0.0147651
637.879	0.0148497
637.957	0.0147144
638.035	0.0149150
638.113	0.0149507
638.192	0.0149622
638.270	0.0148380
638.348	0.0148968
638.426	0.0148255
638.504	0.0149179
638.582	0.0150502
638.660	0.0148038
638.738	0.0148058
638.817	0.0150117
638.895	0.0148606
638.973	0.0149173
639.051	0.0150763
639.129	0.0148244
639.207	0.0148810
639.285	0.0149203
639.363	0.0149207
639.442	0.0148927
639.520	0.0148172
639.598	0.0150539
639.676	0.0148833
639.754	0.0148595
639.832	0.0147997
639.910	0.0149223
639.988	0.0149137
640.067	0.0148383
640.145	0.0149017
640.223	0.0149081
640.301	0.0148935
640.379	0.0150066
640.457	0.0149607
640.535	0.0149193
640.613	0.0149020
640.692	0.0150418
640.770	0.0147547
640.848	0.0149277
640.926	0.0149731
641.004	0.0148629
641.082	0.0149464
641.160	0.0148450
641.238	0.0147919
641.317	0.0149068
641.395	0.0148837
641.473	0.0149426
641.551	0.0148087
641.629	0.0148060
641.707	0.0148902
641.785	0.0147652
641.863	0.0149648
641.942	0.0149097
642.020	0.0148329
642.098	0.0146941
642.176	0.0148563
642.254	0.0148910
642.332	0.0147631
642.410	0.0149851
642.488	0.0148176
642.567	0.0148579
642.645	0.0149120
642.723	0.0148725
642.801	0.0149761
642.879	0.0149250
642.957	0.0148137
643.035	0.0148975
643.113	0.0148999
643.192	0.0150385
643.270	0.0150094
643.348	0.0148767
643.426	0.0149523
643.504	0.0148863
643.582	0.0148126
643.660	0.0147775
643.738	0.0148293
643.817	0.0148476
643.895	0.0148724
643.973	0.0149546
644.051	0.0149379
644.129	0.0149473
644.207	0.0149356
644.285	0.0149064
644.363	0.0148723
644.442	0.0148079
644.520	0.0148564
644.598	0.0149210
644.676	0.0149484
644.754	0.0148876
644.832	0.0149038
644.910	0.0148392
644.988	0.0148780
645.067	0.0148495
645.145	0.0148853
645.223	0.0149851
645.301	0.0148686
645.379	0.0148952
645.457	0.0147034
645.535	0.0150067
645.613	0.0148739
645.692	0.0148479
645.770	0.0148145
645.848	0.0149136
645.926	0.0148766
646.004	0.0149676
646.082	0.0148617
646.160	0.0147851
646.238	0.0149178
646.317	0.0148230
646.395	0.0148405
646.473	0.0150015
646.551	0.0149779
646.629	0.0149519
646.707	0.0148293
646.785	0.0148963
646.863	0.0149287
646.942	0.0148812
647.020	0.0147799
647.098	0.0148213
647.176	0.0148017
647.254	0.0148637
647.332	0.0150494
647.410	0.0148850
647.488	0.0149055
647.567	0.0147658
647.645	0.0148387
647.723	0.0148951
647.801	0.0150076
647.879	0.0148981
647.957	0.0148319
648.035	0.0150143
648.113	0.0148842
648.192	0.0149488
648.270	0.0148639
648.348	0.0150413
648.426	0.0148798
648.504	0.0150020
648.582	0.0149165
648.660	0.0149250
648.738	0.0149883
648.817	0.0148904
648.895	0.0148372
648.973	0.0149247
649.051	0.0149447
649.129	0.0147968
649.207	0.0149902
649.285	0.0149677
649.363	0.0148997
649.442	0.0149719
649.520	0.0148030
649.598	0.0149648
649.676	0.0149854
649.754	0.0148755
649.832	0.0148643
649.910	0.0147817
649.988	0.0148580
650.067	0.0151052
650.145	0.0149552
650.223	0.0149458
650.301	0.0148347
650.379	0.0149969
650.457	0.0150224
650.535	0.0148372
650.613	0.0149561
650.692	0.0150990
650.770	0.0148341
650.848	0.0148818
650.926	0.0149983
651.004	0.0149252
651.082	0.0149003
651.160	0.0149377
651.238	0.0148165
651.317	0.0148487
651.395	0.0149934
651.473	0.0149171
651.551	0.0148618
651.629	0.0150037
651.707	0.0148430
651.785	0.0148036
651.863	0.0148421
651.942	0.0149474
652.020	0.0150224
652.098	0.0148506
652.176	0.0149438
652.254	0.0148419
652.332	0.0147720
652.410	0.0149541
652.488	0.0147520
652.567	0.0149673
652.645	0.0149469
652.723	0.0149275
652.801	0.0148897
652.879	0.0147929
652.957	0.0149152
653.035	0.0148820
653.113	0.0148623
653.192	0.0149162
653.270	0.0149929
653.348	0.0149192
653.426	0.0149485
653.504	0.0150291
653.582	0.0148726
653.660	0.0150145
653.738	0.0148766
653.817	0.0147296
653.895	0.0148049
653.973	0.0149035
654.051	0.0150224
654.129	0.0149501
654.207	0.0149279
654.285	0.0148984
654.363	0.0148068
654.442	0.0148594
654.520	0.0148763
654.598	0.0149416
654.676	0.0147571
654.754	0.0147604
654.832	0.0149389
654.910	0.0147980
654.988	0.0146946
655.067	0.0147511
655.145	0.0148691
655.223	0.0149772
655.301	0.0150076
655.379	0.0149281
655.457	0.0149462
655.535	0.0148145
655.613	0.0147332
655.692	0.0150101
655.770	0.0148281
655.848	0.0148846
655.926	0.0148709
656.004	0.0149283
656.082	0.0149313
656.160	0.0148988
656.238	0.0148611
656.317	0.0150329
656.395	0.0149725
656.473	0.0148562
656.551	0.0148546
656.629	0.0149609
656.707	0.0148030
656.785	0.0147829
656.863	0.0148618
656.942	0.0148673
657.020	0.0149448
657.098	0.0149245
657.176	0.0148682
657.254	0.0148782
657.332	0.0149244
657.410	0.0149005
657.488	0.0148447
657.567	0.0149214
657.645	0.0149695
657.723	0.0149557
657.801	0.0148581
657.879	0.0149089
657.957	0.0149327
658.035	0.0149873
658.113	0.0147951
658.192	0.0149480
658.270	0.0148318
658.348	0.0150227
658.426	0.0149221
658.504	0.0148914
658.582	0.0149249
658.660	0.0149722
658.738	0.0148971
658.817	0.0150843
658.895	0.0149529
658.973	0.0148617
659.051	0.0148120
659.129	0.0149781
659.207	0.0148824
659.285	0.0149030
659.363	0.0149148
659.442	0.0149080
659.520	0.0149281
659.598	0.0148153
659.676	0.0150307
659.754	0.0149568
659.832	0.0147466
659.910	0.0149238
659.988	0.0148263
660.067	0.0149776
660.145	0.0148521
660.223	0.0149921
660.301	0.0150465
660.379	0.0149205
660.457	0.0147202
660.535	0.0148158
660.613	0.0149225
660.692	0.0148483
660.770	0.0150151
660.848	0.0148521
660.926	0.0149618
661.004	0.0149039
661.082	0.0147971
661.160	0.0148925
661.238	0.0148215
661.317	0.0148318
661.395	0.0149478
661.473	0.0149697
661.551	0.0148821
661.629	0.0148757
661.707	0.0148273
661.785	0.0148659
661.863	0.0149514
661.942	0.0148761
662.020	0.0149239
662.098	0.0148556
662.176	0.0148982
662.254	0.0148256
662.332	0.0148149
662.410	0.0148084
662.488	0.0147878
662.567	0.0148922
662.645	0.0151433
662.723	0.0149017
662.801	0.0148569
662.879	0.0148720
662.957	0.0148656
663.035	0.0148379
663.113	0.0148315
663.192	0.0148503
663.270	0.0149104
663.348	0.0148423
663.426	0.0148408
663.504	0.0149844
663.582	0.0148041
663.660	0.0148322
663.738	0.0147964
663.817	0.0147490
663.895	0.0148456
663.973	0.0147701
664.051	0.0147877
664.129	0.0148969
664.207	0.0147229
664.285	0.0148626
664.363	0.0148813
664.442	0.0149263
664.520	0.0149155
664.598	0.0147952
664.676	0.0148048
664.754	0.0147556
664.832	0.0147213
664.910	0.0147363
664.988	0.0150298
665.067	0.0149363
665.145	0.0149345
665.223	0.0148145
665.301	0.0148569
665.379	0.0150007
665.457	0.0148662
665.535	0.0147521
665.613	0.0148914
665.692	0.0148927
665.770	0.0149058
665.848	0.0148946
665.926	0.0148065
666.004	0.0148848
666.082	0.0148316
666.160	0.0148875
666.238	0.0146906
666.317	0.0148122
666.395	0.0148723
666.473	0.0147233
666.551	0.0148350
666.629	0.0147633
666.707	0.0147867
666.785	0.0149055
666.863	0.0148676
666.942	0.0147044
667.020	0.0147660
667.098	0.0149093
667.176	0.0147992
667.254	0.0148174
667.332	0.0147131
667.410	0.0147977
667.488	0.0147935
667.567	0.0148623
667.645	0.0148251
667.723	0.0148652
667.801	0.0147890
667.879	0.0148759
667.957	0.0148925
668.035	0.0149473
668.113	0.0148381
668.192	0.0148725
668.270	0.0148581
668.348	0.0148307
668.426	0.0149671
668.504	0.0148489
668.582	0.0149265
668.660	0.0148223
668.738	0.0149072
668.817	0.0148203
668.895	0.0146706
668.973	0.0149297
669.051	0.0148592
669.129	0.0148735
669.207	0.0147689
669.285	0.0148049
669.363	0.0148394
669.442	0.0149210
669.520	0.0148650
669.598	0.0148543
669.676	0.0148446
669.754	0.0148442
669.832	0.0149125
669.910	0.0147382
669.988	0.0148761
670.067	0.0148053
670.145	0.0147900
670.223	0.0148409
670.301	0.0149078
670.379	0.0148505
670.457	0.0150032
670.535	0.0148924
670.613	0.0148067
670.692	0.0148365
670.770	0.0147758
670.848	0.0147947
670.926	0.0148685
671.004	0.0149537
671.082	0.0148081
671.160	0.0150368
671.238	0.0148914
671.317	0.0148735
671.395	0.0148555
671.473	0.0148714
671.551	0.0148451
671.629	0.0149226
671.707	0.0148225
671.785	0.0149660
671.863	0.0148235
671.942	0.0150644
672.020	0.0150361
672.098	0.0149918
672.176	0.0149139
672.254	0.0149037
672.332	0.0148175
672.410	0.0149005
672.488	0.0149330
672.567	0.0148256
672.645	0.0148774
672.723	0.0148660
672.801	0.0148397
672.879	0.0148441
672.957	0.0149340
673.035	0.0148086
673.113	0.0148673
673.192	0.0149393
673.270	0.0149007
673.348	0.0149620
673.426	0.0150333
673.504	0.0148949
673.582	0.0149068
673.660	0.0149416
673.738	0.0148000
673.817	0.0150015
673.895	0.0148706
673.973	0.0149532
674.051	0.0149216
674.129	0.0149654
674.207	0.0148343
674.285	0.0148410
674.363	0.0150208
674.442	0.0149002
674.520	0.0148470
674.598	0.0150051
674.676	0.0149654
674.754	0.0148978
674.832	0.0148421
674.910	0.0148407
674.988	0.0148746
675.067	0.0148428
675.145	0.0148790
675.223	0.0148589
675.301	0.0149691
675.379	0.0149831
675.457	0.0146748
675.535	0.0148257
675.613	0.0149027
675.692	0.0148194
675.770	0.0148128
675.848	0.0148190
675.926	0.0148591
676.004	0.0148684
676.082	0.0147596
676.160	0.0148553
676.238	0.0148194
676.317	0.0148853
676.395	0.0148419
676.473	0.0149511
676.551	0.0147842
676.629	0.0146656
676.707	0.0148131
676.785	0.0147728
676.863	0.0148520
676.942	0.0148666
677.020	0.0147211
677.098	0.0148067
677.176	0.0147913
677.254	0.0148916
677.332	0.0147977
677.410	0.0147003
677.488	0.0147480
677.567	0.0147067
677.645	0.0147974
677.723	0.0148219
677.801	0.0148524
677.879	0.0147404
677.957	0.0147307
678.035	0.0148853
678.113	0.0148463
678.192	0.0148810
678.270	0.0147399
678.348	0.0148223
678.426	0.0148589
678.504	0.0149049
678.582	0.0148223
678.660	0.0147737
678.738	0.0148141
678.817	0.0147012
678.895	0.0147955
678.973	0.0148074
679.051	0.0147536
679.129	0.0149280
679.207	0.0147295
679.285	0.0148372
679.363	0.0148949
679.442	0.0148912
679.520	0.0149315
679.598	0.0148190
679.676	0.0147773
679.754	0.0147090
679.832	0.0147063
679.910	0.0148364
679.988	0.0147666
680.067	0.0148313
680.145	0.0147034
680.223	0.0147160
680.301	0.0148918
680.379	0.0148222
680.457	0.0148642
680.535	0.0148434
680.613	0.0147974
680.692	0.0148178
680.770	0.0149063
680.848	0.0148619
680.926	0.0148299
681.004	0.0148042
681.082	0.0146973
681.160	0.0148057
681.238	0.0146734
681.317	0.0148965
681.395	0.0148851
681.473	0.0149554
681.551	0.0147495
681.629	0.0148046
681.707	0.0149026
681.785	0.0148801
681.863	0.0147920
681.942	0.0148561
682.020	0.0148065
682.098	0.0149308
682.176	0.0148441
682.254	0.0149043
682.332	0.0147601
682.410	0.0147108
682.488	0.0148113
682.567	0.0149113
682.645	0.0149619
682.723	0.0148296
682.801	0.0147971
682.879	0.0148791
682.957	0.0148647
683.035	0.0148343
683.113	0.0147391
683.192	0.0148329
683.270	0.0149219
683.348	0.0149866
683.426	0.0149292
683.504	0.0148402
683.582	0.0149619
683.660	0.0149100
683.738	0.0148861
683.817	0.0149354
683.895	0.0149383
683.973	0.0149287
684.051	0.0148502
684.129	0.0147292
684.207	0.0149345
684.285	0.0147882
684.363	0.0148035
684.442	0.0148537
684.520	0.0148026
684.598	0.0148942
684.676	0.0149316
684.754	0.0148901
684.832	0.0148735
684.910	0.0149009
684.988	0.0148885
685.067	0.0148552
685.145	0.0148775
685.223	0.0147501
685.301	0.0149829
685.379	0.0148767
685.457	0.0149936
685.535	0.0148257
685.613	0.0148125
685.692	0.0148990
