05/28/2022	14:01:25	Ver.	4.1	UNKNOWN
Optical Delay	599.988409	Delta X		0.078125	Sweeps	1	Scan Rate	0/0
Coordinates	Axis 1	NaN	Axis 2	NaN	Axis 3	NaN	Axis 4	NaN	Axis 5	NaN	Axis 6	0.000000
TX Power	0.000000	RX Power	0.000000

599.988	0.0146673
600.067	0.0146905
600.145	0.0148934
600.223	0.0147057
600.301	0.0145451
600.379	0.0146431
600.457	0.0146784
600.535	0.0147260
600.613	0.0146793
600.692	0.0146451
600.770	0.0145322
600.848	0.0145134
600.926	0.0145898
601.004	0.0147286
601.082	0.0146574
601.160	0.0147386
601.238	0.0147086
601.317	0.0146954
601.395	0.0147697
601.473	0.0146172
601.551	0.0145914
601.629	0.0146516
601.707	0.0146797
601.785	0.0147240
601.863	0.0146323
601.942	0.0146172
602.020	0.0146619
602.098	0.0146673
602.176	0.0147181
602.254	0.0147228
602.332	0.0146743
602.410	0.0145441
602.488	0.0146329
602.567	0.0145651
602.645	0.0144543
602.723	0.0146040
602.801	0.0147014
602.879	0.0146688
602.957	0.0145951
603.035	0.0146366
603.113	0.0146776
603.192	0.0146722
603.270	0.0147184
603.348	0.0146864
603.426	0.0145758
603.504	0.0147665
603.582	0.0145376
603.660	0.0146674
603.738	0.0147302
603.817	0.0148077
603.895	0.0146544
603.973	0.0145538
604.051	0.0146270
604.129	0.0148679
604.207	0.0147605
604.285	0.0145928
604.363	0.0146206
604.442	0.0146262
604.520	0.0147227
604.598	0.0147293
604.676	0.0147492
604.754	0.0147710
604.832	0.0146388
604.910	0.0145863
604.988	0.0147927
605.067	0.0148399
605.145	0.0146497
605.223	0.0145373
605.301	0.0146780
605.379	0.0146233
605.457	0.0147385
605.535	0.0147466
605.613	0.0147778
605.692	0.0147133
605.770	0.0146316
605.848	0.0146445
605.926	0.0146767
606.004	0.0145291
606.082	0.0147681
606.160	0.0146943
606.238	0.0146851
606.317	0.0146664
606.395	0.0146957
606.473	0.0145501
606.551	0.0146426
606.629	0.0146870
606.707	0.0146014
606.785	0.0145634
606.863	0.0147980
606.942	0.0147533
607.020	0.0146944
607.098	0.0147719
607.176	0.0146952
607.254	0.0147051
607.332	0.0146570
607.410	0.0147581
607.488	0.0146416
607.567	0.0147985
607.645	0.0147404
607.723	0.0146340
607.801	0.0146994
607.879	0.0147131
607.957	0.0147045
608.035	0.0147292
608.113	0.0146439
608.192	0.0147016
608.270	0.0147166
608.348	0.0145702
608.426	0.0145457
608.504	0.0146469
608.582	0.0147987
608.660	0.0146480
608.738	0.0146368
608.817	0.0146914
608.895	0.0146117
608.973	0.0147268
609.051	0.0146555
609.129	0.0146223
609.207	0.0146709
609.285	0.0147115
609.363	0.0146333
609.442	0.0146983
609.520	0.0146692
609.598	0.0146238
609.676	0.0147603
609.754	0.0145898
609.832	0.0145261
609.910	0.0147662
609.988	0.0146893
610.067	0.0146593
610.145	0.0146986
610.223	0.0145969
610.301	0.0146469
610.379	0.0146677
610.457	0.0146549
610.535	0.0145463
610.613	0.0146011
610.692	0.0146175
610.770	0.0146820
610.848	0.0145973
610.926	0.0148055
611.004	0.0145273
611.082	0.0146967
611.160	0.0146659
611.238	0.0146140
611.317	0.0146452
611.395	0.0146029
611.473	0.0146336
611.551	0.0146749
611.629	0.0146564
611.707	0.0147895
611.785	0.0145686
611.863	0.0146466
611.942	0.0146288
612.020	0.0146773
612.098	0.0145623
612.176	0.0146795
612.254	0.0147346
612.332	0.0146579
612.410	0.0146312
612.488	0.0145999
612.567	0.0148227
612.645	0.0146098
612.723	0.0146003
612.801	0.0147076
612.879	0.0146272
612.957	0.0147125
613.035	0.0146663
613.113	0.0146458
613.192	0.0145834
613.270	0.0146936
613.348	0.0146609
613.426	0.0146054
613.504	0.0146694
613.582	0.0146695
613.660	0.0146877
613.738	0.0147118
613.817	0.0147471
613.895	0.0146767
613.973	0.0145828
614.051	0.0146902
614.129	0.0147575
614.207	0.0146488
614.285	0.0146452
614.363	0.0144936
614.442	0.0146458
614.520	0.0146674
614.598	0.0146446
614.676	0.0146574
614.754	0.0145927
614.832	0.0144339
614.910	0.0146738
614.988	0.0146397
615.067	0.0144672
615.145	0.0146320
615.223	0.0144986
615.301	0.0145942
615.379	0.0146437
615.457	0.0147413
615.535	0.0147078
615.613	0.0147118
615.692	0.0147969
615.770	0.0146764
615.848	0.0146858
615.926	0.0146899
616.004	0.0146718
616.082	0.0146958
616.160	0.0146359
616.238	0.0146373
616.317	0.0146029
616.395	0.0147437
616.473	0.0146514
616.551	0.0147704
616.629	0.0144403
616.707	0.0146084
616.785	0.0145281
616.863	0.0147236
616.942	0.0147863
617.020	0.0146971
617.098	0.0148244
617.176	0.0146624
617.254	0.0146032
617.332	0.0146187
617.410	0.0146469
617.488	0.0146962
617.567	0.0146033
617.645	0.0146655
617.723	0.0147049
617.801	0.0145345
617.879	0.0145783
617.957	0.0146333
618.035	0.0145994
618.113	0.0144530
618.192	0.0146228
618.270	0.0146153
618.348	0.0145843
618.426	0.0146749
618.504	0.0146288
618.582	0.0146781
618.660	0.0145566
618.738	0.0145896
618.817	0.0146247
618.895	0.0147071
618.973	0.0146769
619.051	0.0144831
619.129	0.0147102
619.207	0.0147426
619.285	0.0145460
619.363	0.0147604
619.442	0.0146416
619.520	0.0146144
619.598	0.0146582
619.676	0.0146631
619.754	0.0147556
619.832	0.0147674
619.910	0.0146960
619.988	0.0145782
620.067	0.0147282
620.145	0.0146714
620.223	0.0146403
620.301	0.0146917
620.379	0.0146013
620.457	0.0145874
620.535	0.0146316
620.613	0.0145364
620.692	0.0146934
620.770	0.0146084
620.848	0.0146707
620.926	0.0147023
621.004	0.0146219
621.082	0.0146594
621.160	0.0146210
621.238	0.0146449
621.317	0.0147520
621.395	0.0147694
621.473	0.0145677
621.551	0.0146450
621.629	0.0148096
621.707	0.0146722
621.785	0.0146648
621.863	0.0146633
621.942	0.0146567
622.020	0.0146098
622.098	0.0147495
622.176	0.0146155
622.254	0.0146591
622.332	0.0147544
622.410	0.0147620
622.488	0.0146316
622.567	0.0146562
622.645	0.0146651
622.723	0.0146032
622.801	0.0146526
622.879	0.0147036
622.957	0.0146367
623.035	0.0147459
623.113	0.0145963
623.192	0.0146722
623.270	0.0147312
623.348	0.0146684
623.426	0.0145566
623.504	0.0147182
623.582	0.0146394
623.660	0.0145708
623.738	0.0147854
623.817	0.0146577
623.895	0.0146190
623.973	0.0146514
624.051	0.0145507
624.129	0.0146375
624.207	0.0147574
624.285	0.0147295
624.363	0.0146199
624.442	0.0146330
624.520	0.0145616
624.598	0.0147340
624.676	0.0147001
624.754	0.0146227
624.832	0.0146568
624.910	0.0145962
624.988	0.0144677
625.067	0.0147237
625.145	0.0147411
625.223	0.0146878
625.301	0.0146503
625.379	0.0146537
625.457	0.0146748
625.535	0.0145977
625.613	0.0147372
625.692	0.0146512
625.770	0.0148035
625.848	0.0147208
625.926	0.0146884
626.004	0.0146559
626.082	0.0147021
626.160	0.0147801
626.238	0.0147395
626.317	0.0146783
626.395	0.0146601
626.473	0.0148623
626.551	0.0148518
626.629	0.0147392
626.707	0.0146335
626.785	0.0147400
626.863	0.0146301
626.942	0.0145116
627.020	0.0144949
627.098	0.0145841
627.176	0.0146970
627.254	0.0146336
627.332	0.0144845
627.410	0.0146415
627.488	0.0148070
627.567	0.0146078
627.645	0.0145463
627.723	0.0147189
627.801	0.0145958
627.879	0.0146534
627.957	0.0147038
628.035	0.0145816
628.113	0.0146382
628.192	0.0148172
628.270	0.0146455
628.348	0.0147041
628.426	0.0145773
628.504	0.0147314
628.582	0.0147117
628.660	0.0147177
628.738	0.0145409
628.817	0.0146838
628.895	0.0146302
628.973	0.0145975
629.051	0.0146799
629.129	0.0145853
629.207	0.0147583
629.285	0.0147242
629.363	0.0147257
629.442	0.0146881
629.520	0.0147460
629.598	0.0145819
629.676	0.0145998
629.754	0.0146905
629.832	0.0147200
629.910	0.0147285
629.988	0.0146944
630.067	0.0147292
630.145	0.0146481
630.223	0.0145715
630.301	0.0147571
630.379	0.0147495
630.457	0.0148536
630.535	0.0146146
630.613	0.0145641
630.692	0.0147649
630.770	0.0146786
630.848	0.0146164
630.926	0.0147586
631.004	0.0147110
631.082	0.0146123
631.160	0.0146965
631.238	0.0146187
631.317	0.0145756
631.395	0.0145715
631.473	0.0146976
631.551	0.0148010
631.629	0.0145215
631.707	0.0145695
631.785	0.0146728
631.863	0.0147964
631.942	0.0147104
632.020	0.0146377
632.098	0.0147637
632.176	0.0146479
632.254	0.0145824
632.332	0.0146263
632.410	0.0146102
632.488	0.0147392
632.567	0.0146773
632.645	0.0146072
632.723	0.0146838
632.801	0.0146907
632.879	0.0144444
632.957	0.0146338
633.035	0.0147425
633.113	0.0147684
633.192	0.0146336
633.270	0.0147741
633.348	0.0145801
633.426	0.0146803
633.504	0.0146611
633.582	0.0145947
633.660	0.0146854
633.738	0.0146613
633.817	0.0146753
633.895	0.0148191
633.973	0.0146394
634.051	0.0146561
634.129	0.0147381
634.207	0.0146002
634.285	0.0146626
634.363	0.0146650
634.442	0.0145992
634.520	0.0147634
634.598	0.0147987
634.676	0.0146568
634.754	0.0145648
634.832	0.0146751
634.910	0.0147232
634.988	0.0146644
635.067	0.0146513
635.145	0.0147240
635.223	0.0145184
635.301	0.0145485
635.379	0.0147024
635.457	0.0147296
635.535	0.0147156
635.613	0.0145490
635.692	0.0147173
635.770	0.0147789
635.848	0.0146076
635.926	0.0145873
636.004	0.0145530
636.082	0.0146583
636.160	0.0146741
636.238	0.0147063
636.317	0.0146968
636.395	0.0146349
636.473	0.0146671
636.551	0.0145349
636.629	0.0145467
636.707	0.0146942
636.785	0.0146812
636.863	0.0146317
636.942	0.0148219
637.020	0.0148223
637.098	0.0146886
637.176	0.0146449
637.254	0.0145827
637.332	0.0146954
637.410	0.0145183
637.488	0.0146311
637.567	0.0148325
637.645	0.0147082
637.723	0.0146879
637.801	0.0146323
637.879	0.0146719
637.957	0.0146165
638.035	0.0147771
638.113	0.0146548
638.192	0.0145134
638.270	0.0146951
638.348	0.0148325
638.426	0.0147052
638.504	0.0147903
638.582	0.0147015
638.660	0.0145882
638.738	0.0146489
638.817	0.0147334
638.895	0.0146608
638.973	0.0146726
639.051	0.0146369
639.129	0.0147439
639.207	0.0146037
639.285	0.0145377
639.363	0.0145869
639.442	0.0146332
639.520	0.0146090
639.598	0.0147149
639.676	0.0146286
639.754	0.0145128
639.832	0.0146343
639.910	0.0146729
639.988	0.0147242
640.067	0.0146997
640.145	0.0146181
640.223	0.0146741
640.301	0.0146039
640.379	0.0144309
640.457	0.0147218
640.535	0.0146635
640.613	0.0145654
640.692	0.0147017
640.770	0.0146703
640.848	0.0147451
640.926	0.0147163
641.004	0.0145306
641.082	0.0145625
641.160	0.0146970
641.238	0.0147480
641.317	0.0145652
641.395	0.0144868
641.473	0.0145526
641.551	0.0147147
641.629	0.0146302
641.707	0.0145501
641.785	0.0146980
641.863	0.0146808
641.942	0.0145828
642.020	0.0146630
642.098	0.0147456
642.176	0.0146567
642.254	0.0145455
642.332	0.0145844
642.410	0.0147774
642.488	0.0147467
642.567	0.0147667
642.645	0.0146874
642.723	0.0145699
642.801	0.0147717
642.879	0.0147150
642.957	0.0147422
643.035	0.0147407
643.113	0.0145389
643.192	0.0146719
643.270	0.0144866
643.348	0.0146479
643.426	0.0147119
643.504	0.0145972
643.582	0.0146394
643.660	0.0146470
643.738	0.0145919
643.817	0.0146197
643.895	0.0145484
643.973	0.0146237
644.051	0.0146384
644.129	0.0145598
644.207	0.0145551
644.285	0.0146640
644.363	0.0146727
644.442	0.0146569
644.520	0.0145073
644.598	0.0145560
644.676	0.0147104
644.754	0.0144933
644.832	0.0145683
644.910	0.0146817
644.988	0.0145877
645.067	0.0145642
645.145	0.0145795
645.223	0.0147373
645.301	0.0145840
645.379	0.0145522
645.457	0.0146461
645.535	0.0145826
645.613	0.0145466
645.692	0.0145560
645.770	0.0145602
645.848	0.0146680
645.926	0.0146697
646.004	0.0147040
646.082	0.0147163
646.160	0.0146881
646.238	0.0145935
646.317	0.0146262
646.395	0.0146324
646.473	0.0147303
646.551	0.0146199
646.629	0.0145644
646.707	0.0147191
646.785	0.0147870
646.863	0.0146056
646.942	0.0145274
647.020	0.0147726
647.098	0.0147034
647.176	0.0147124
647.254	0.0146215
647.332	0.0146170
647.410	0.0146046
647.488	0.0146939
647.567	0.0147234
647.645	0.0145156
647.723	0.0146265
647.801	0.0146571
647.879	0.0145612
647.957	0.0146535
648.035	0.0146330
648.113	0.0146221
648.192	0.0146395
648.270	0.0146255
648.348	0.0145325
648.426	0.0147189
648.504	0.0146355
648.582	0.0146100
648.660	0.0146053
648.738	0.0148248
648.817	0.0146623
648.895	0.0146006
648.973	0.0146737
649.051	0.0147579
649.129	0.0146931
649.207	0.0146304
649.285	0.0145981
649.363	0.0147130
649.442	0.0146986
649.520	0.0146169
649.598	0.0147014
649.676	0.0145932
649.754	0.0145805
649.832	0.0147407
649.910	0.0147226
649.988	0.0146098
650.067	0.0145889
650.145	0.0145792
650.223	0.0145596
650.301	0.0146568
650.379	0.0147249
650.457	0.0146349
650.535	0.0146861
650.613	0.0146508
650.692	0.0146535
650.770	0.0145557
650.848	0.0147714
650.926	0.0146744
651.004	0.0146401
651.082	0.0146320
651.160	0.0145956
651.238	0.0146632
651.317	0.0146011
651.395	0.0146581
651.473	0.0147308
651.551	0.0146172
651.629	0.0148074
651.707	0.0148502
651.785	0.0146243
651.863	0.0147108
651.942	0.0147255
652.020	0.0145914
652.098	0.0145790
652.176	0.0146363
652.254	0.0147517
652.332	0.0146398
652.410	0.0145308
652.488	0.0146972
652.567	0.0145734
652.645	0.0147118
652.723	0.0147453
652.801	0.0146620
652.879	0.0146291
652.957	0.0146533
653.035	0.0147187
653.113	0.0146124
653.192	0.0146969
653.270	0.0149452
653.348	0.0146411
653.426	0.0145588
653.504	0.0147587
653.582	0.0147638
653.660	0.0146943
653.738	0.0148873
653.817	0.0146951
653.895	0.0145139
653.973	0.0147286
654.051	0.0147523
654.129	0.0146964
654.207	0.0147219
654.285	0.0145910
654.363	0.0147660
654.442	0.0146402
654.520	0.0146278
654.598	0.0145914
654.676	0.0147166
654.754	0.0146236
654.832	0.0146540
654.910	0.0147277
654.988	0.0146502
655.067	0.0145906
655.145	0.0146886
655.223	0.0143731
655.301	0.0146132
655.379	0.0146517
655.457	0.0146109
655.535	0.0147141
655.613	0.0146507
655.692	0.0147463
655.770	0.0147058
655.848	0.0145498
655.926	0.0147437
656.004	0.0145319
656.082	0.0145434
656.160	0.0145202
656.238	0.0146912
656.317	0.0146657
656.395	0.0145721
656.473	0.0146490
656.551	0.0146545
656.629	0.0145962
656.707	0.0147157
656.785	0.0146888
656.863	0.0146549
656.942	0.0147727
657.020	0.0145664
657.098	0.0147205
657.176	0.0146957
657.254	0.0146701
657.332	0.0148615
657.410	0.0146513
657.488	0.0144772
657.567	0.0146545
657.645	0.0147553
657.723	0.0147305
657.801	0.0146059
657.879	0.0145937
657.957	0.0146516
658.035	0.0145693
658.113	0.0147022
658.192	0.0146442
658.270	0.0146309
658.348	0.0146375
658.426	0.0147569
658.504	0.0145830
658.582	0.0146001
658.660	0.0145674
658.738	0.0146552
658.817	0.0146404
658.895	0.0146416
658.973	0.0146207
659.051	0.0146325
659.129	0.0145227
659.207	0.0145002
659.285	0.0146233
659.363	0.0146926
659.442	0.0146500
659.520	0.0145842
659.598	0.0147297
659.676	0.0146874
659.754	0.0145598
659.832	0.0147006
659.910	0.0148506
659.988	0.0147569
660.067	0.0145655
660.145	0.0145750
660.223	0.0145980
660.301	0.0147292
660.379	0.0147253
660.457	0.0146001
660.535	0.0145082
660.613	0.0145815
660.692	0.0146461
660.770	0.0147005
660.848	0.0147129
660.926	0.0145695
661.004	0.0145992
661.082	0.0145459
661.160	0.0146814
661.238	0.0146951
661.317	0.0146907
661.395	0.0145695
661.473	0.0145012
661.551	0.0145828
661.629	0.0145966
661.707	0.0146194
661.785	0.0146159
661.863	0.0147508
661.942	0.0146597
662.020	0.0145053
662.098	0.0146281
662.176	0.0146239
662.254	0.0146733
662.332	0.0145844
662.410	0.0146099
662.488	0.0146339
662.567	0.0146760
662.645	0.0146663
662.723	0.0146889
662.801	0.0146214
662.879	0.0146196
662.957	0.0145637
663.035	0.0146288
663.113	0.0147179
663.192	0.0146454
663.270	0.0146240
663.348	0.0145906
663.426	0.0145574
663.504	0.0145819
663.582	0.0146249
663.660	0.0147257
663.738	0.0146265
663.817	0.0147330
663.895	0.0145757
663.973	0.0144772
664.051	0.0147353
664.129	0.0146340
664.207	0.0146317
664.285	0.0146012
664.363	0.0146199
664.442	0.0146879
664.520	0.0146612
664.598	0.0146346
664.676	0.0146564
664.754	0.0146385
664.832	0.0146238
664.910	0.0146220
664.988	0.0147289
665.067	0.0145972
665.145	0.0147172
665.223	0.0147485
665.301	0.0146324
665.379	0.0146384
665.457	0.0145216
665.535	0.0146436
665.613	0.0146525
665.692	0.0144938
665.770	0.0145522
665.848	0.0145187
665.926	0.0146124
666.004	0.0146564
666.082	0.0146838
666.160	0.0145949
666.238	0.0145580
666.317	0.0146677
666.395	0.0146372
666.473	0.0146907
666.551	0.0146293
666.629	0.0145576
666.707	0.0146837
666.785	0.0146413
666.863	0.0146011
666.942	0.0146296
667.020	0.0146492
667.098	0.0145245
667.176	0.0146523
667.254	0.0144926
667.332	0.0145634
667.410	0.0145337
667.488	0.0145993
667.567	0.0146294
667.645	0.0145741
667.723	0.0146885
667.801	0.0145598
667.879	0.0145455
667.957	0.0146794
668.035	0.0146805
668.113	0.0146171
668.192	0.0144891
668.270	0.0144568
668.348	0.0145859
668.426	0.0145826
668.504	0.0146844
668.582	0.0148504
668.660	0.0146243
668.738	0.0145531
668.817	0.0146396
668.895	0.0145878
668.973	0.0146247
669.051	0.0147463
669.129	0.0145853
669.207	0.0145901
669.285	0.0145484
669.363	0.0144263
669.442	0.0145906
669.520	0.0146550
669.598	0.0144439
669.676	0.0144949
669.754	0.0146474
669.832	0.0145739
669.910	0.0145924
669.988	0.0146590
670.067	0.0145638
670.145	0.0146235
670.223	0.0145850
670.301	0.0145697
670.379	0.0146575
670.457	0.0146273
670.535	0.0144955
670.613	0.0144617
670.692	0.0144897
670.770	0.0146745
670.848	0.0146355
670.926	0.0145486
671.004	0.0145255
671.082	0.0145432
671.160	0.0145997
671.238	0.0146027
671.317	0.0146844
671.395	0.0145914
671.473	0.0146411
671.551	0.0144964
671.629	0.0146459
671.707	0.0144775
671.785	0.0146452
671.863	0.0146170
671.942	0.0144579
672.020	0.0145776
672.098	0.0145923
672.176	0.0144925
672.254	0.0146337
672.332	0.0145209
672.410	0.0146116
672.488	0.0146101
672.567	0.0146162
672.645	0.0145916
672.723	0.0146415
672.801	0.0145123
672.879	0.0146369
672.957	0.0145332
673.035	0.0145859
673.113	0.0144672
673.192	0.0146927
673.270	0.0146668
673.348	0.0146320
673.426	0.0145292
673.504	0.0146356
673.582	0.0145428
673.660	0.0145876
673.738	0.0146217
673.817	0.0144878
673.895	0.0146500
673.973	0.0147086
674.051	0.0145132
674.129	0.0146230
674.207	0.0147043
674.285	0.0146204
674.363	0.0145448
674.442	0.0147124
674.520	0.0146521
674.598	0.0145695
674.676	0.0146604
674.754	0.0144910
674.832	0.0146536
674.910	0.0146457
674.988	0.0146252
675.067	0.0147058
675.145	0.0147065
675.223	0.0145731
675.301	0.0145972
675.379	0.0146750
675.457	0.0145757
675.535	0.0147253
675.613	0.0145171
675.692	0.0145657
675.770	0.0146490
675.848	0.0147980
675.926	0.0146722
676.004	0.0145186
676.082	0.0146168
676.160	0.0146381
676.238	0.0145658
676.317	0.0147401
676.395	0.0145704
676.473	0.0146343
676.551	0.0147086
676.629	0.0146954
676.707	0.0147178
676.785	0.0147479
676.863	0.0145361
676.942	0.0146466
677.020	0.0146104
677.098	0.0146186
677.176	0.0146236
677.254	0.0146833
677.332	0.0146801
677.410	0.0144556
677.488	0.0145273
677.567	0.0145961
677.645	0.0146661
677.723	0.0145606
677.801	0.0144740
677.879	0.0144346
677.957	0.0145160
678.035	0.0144716
678.113	0.0145586
678.192	0.0145502
678.270	0.0146381
678.348	0.0146185
678.426	0.0146394
678.504	0.0146502
678.582	0.0147530
678.660	0.0148020
678.738	0.0149184
678.817	0.0147181
678.895	0.0148148
678.973	0.0147648
679.051	0.0147522
679.129	0.0147455
679.207	0.0149052
679.285	0.0147527
679.363	0.0147104
679.442	0.0147069
679.520	0.0147959
679.598	0.0146761
679.676	0.0145481
679.754	0.0145313
679.832	0.0142868
679.910	0.0143169
679.988	0.0143438
680.067	0.0143884
680.145	0.0142413
680.223	0.0141497
680.301	0.0141494
680.379	0.0141693
680.457	0.0143057
680.535	0.0142160
680.613	0.0142551
680.692	0.0142423
680.770	0.0143623
680.848	0.0146056
680.926	0.0147816
681.004	0.0149472
681.082	0.0150914
681.160	0.0154503
681.238	0.0157082
681.317	0.0158192
681.395	0.0160451
681.473	0.0160256
681.551	0.0161327
681.629	0.0159830
681.707	0.0158914
681.785	0.0157444
681.863	0.0155455
681.942	0.0153837
682.020	0.0151147
682.098	0.0146606
682.176	0.0143268
682.254	0.0137980
682.332	0.0132984
682.410	0.0130833
682.488	0.0127732
682.567	0.0124859
682.645	0.0123779
682.723	0.0123313
682.801	0.0124546
682.879	0.0124880
682.957	0.0127805
683.035	0.0131915
683.113	0.0133035
683.192	0.0138774
683.270	0.0142275
683.348	0.0145787
683.426	0.0150053
683.504	0.0150773
683.582	0.0155337
683.660	0.0158287
683.738	0.0159230
683.817	0.0159326
683.895	0.0160418
683.973	0.0160424
684.051	0.0161122
684.129	0.0161684
684.207	0.0161399
684.285	0.0161231
684.363	0.0162138
684.442	0.0161013
684.520	0.0160308
684.598	0.0158612
684.676	0.0157677
684.754	0.0156680
684.832	0.0154710
684.910	0.0154827
684.988	0.0152190
685.067	0.0150072
685.145	0.0148470
685.223	0.0147735
685.301	0.0144724
685.379	0.0141121
685.457	0.0139748
685.535	0.0134611
685.613	0.0133418
685.692	0.0131701
