05/28/2022	14:01:45	Ver.	4.1	UNKNOWN
Optical Delay	599.988409	Delta X		0.078125	Sweeps	1	Scan Rate	0/0
Coordinates	Axis 1	NaN	Axis 2	NaN	Axis 3	NaN	Axis 4	NaN	Axis 5	NaN	Axis 6	0.000000
TX Power	0.000000	RX Power	0.000000

599.988	0.0148811
600.067	0.0149221
600.145	0.0149212
600.223	0.0148788
600.301	0.0148553
600.379	0.0148605
600.457	0.0149659
600.535	0.0148585
600.613	0.0149001
600.692	0.0148306
600.770	0.0148854
600.848	0.0149094
600.926	0.0149483
601.004	0.0149480
601.082	0.0148732
601.160	0.0149514
601.238	0.0149500
601.317	0.0148895
601.395	0.0149133
601.473	0.0149739
601.551	0.0149168
601.629	0.0148516
601.707	0.0149116
601.785	0.0148839
601.863	0.0149228
601.942	0.0149453
602.020	0.0149137
602.098	0.0148833
602.176	0.0148415
602.254	0.0149181
602.332	0.0149310
602.410	0.0148499
602.488	0.0149442
602.567	0.0148269
602.645	0.0146903
602.723	0.0147726
602.801	0.0148300
602.879	0.0149783
602.957	0.0150329
603.035	0.0147932
603.113	0.0148454
603.192	0.0150985
603.270	0.0149137
603.348	0.0149033
603.426	0.0148750
603.504	0.0149123
603.582	0.0148473
603.660	0.0147691
603.738	0.0148289
603.817	0.0149164
603.895	0.0148512
603.973	0.0148244
604.051	0.0148959
604.129	0.0149271
604.207	0.0148885
604.285	0.0149992
604.363	0.0148732
604.442	0.0149208
604.520	0.0148310
604.598	0.0148096
604.676	0.0150379
604.754	0.0149319
604.832	0.0149129
604.910	0.0148459
604.988	0.0149165
605.067	0.0148785
605.145	0.0147633
605.223	0.0149668
605.301	0.0147934
605.379	0.0149757
605.457	0.0148734
605.535	0.0148629
605.613	0.0148719
605.692	0.0149782
605.770	0.0148964
605.848	0.0149553
605.926	0.0148730
606.004	0.0149647
606.082	0.0149949
606.160	0.0147829
606.238	0.0148220
606.317	0.0148037
606.395	0.0148232
606.473	0.0148865
606.551	0.0149461
606.629	0.0148968
606.707	0.0147646
606.785	0.0149013
606.863	0.0149813
606.942	0.0148637
607.020	0.0150174
607.098	0.0149581
607.176	0.0148202
607.254	0.0149404
607.332	0.0149667
607.410	0.0148271
607.488	0.0148185
607.567	0.0148858
607.645	0.0150082
607.723	0.0148152
607.801	0.0149098
607.879	0.0147894
607.957	0.0148003
608.035	0.0149660
608.113	0.0148446
608.192	0.0147935
608.270	0.0148708
608.348	0.0149358
608.426	0.0149108
608.504	0.0148404
608.582	0.0148873
608.660	0.0148893
608.738	0.0150110
608.817	0.0150368
608.895	0.0148606
608.973	0.0148440
609.051	0.0149673
609.129	0.0148783
609.207	0.0148130
609.285	0.0148625
609.363	0.0150694
609.442	0.0150393
609.520	0.0149032
609.598	0.0150137
609.676	0.0149977
609.754	0.0148699
609.832	0.0149202
609.910	0.0149482
609.988	0.0148492
610.067	0.0149159
610.145	0.0149669
610.223	0.0148612
610.301	0.0148563
610.379	0.0148874
610.457	0.0149125
610.535	0.0148824
610.613	0.0148399
610.692	0.0149815
610.770	0.0148312
610.848	0.0150223
610.926	0.0149514
611.004	0.0148308
611.082	0.0150378
611.160	0.0149094
611.238	0.0149501
611.317	0.0148359
611.395	0.0148814
611.473	0.0149167
611.551	0.0148827
611.629	0.0148858
611.707	0.0149892
611.785	0.0149467
611.863	0.0149439
611.942	0.0150028
612.020	0.0149372
612.098	0.0148722
612.176	0.0148895
612.254	0.0148502
612.332	0.0149336
612.410	0.0149094
612.488	0.0149088
612.567	0.0149278
612.645	0.0148958
612.723	0.0148786
612.801	0.0148565
612.879	0.0150023
612.957	0.0149364
613.035	0.0149344
613.113	0.0148753
613.192	0.0147643
613.270	0.0148508
613.348	0.0149612
613.426	0.0149975
613.504	0.0148858
613.582	0.0148568
613.660	0.0149249
613.738	0.0147985
613.817	0.0147321
613.895	0.0149458
613.973	0.0148707
614.051	0.0148860
614.129	0.0148013
614.207	0.0148816
614.285	0.0147111
614.363	0.0148967
614.442	0.0149205
614.520	0.0147070
614.598	0.0148785
614.676	0.0147730
614.754	0.0148729
614.832	0.0148785
614.910	0.0149416
614.988	0.0148838
615.067	0.0148823
615.145	0.0148606
615.223	0.0149073
615.301	0.0148646
615.379	0.0148157
615.457	0.0149267
615.535	0.0147941
615.613	0.0149319
615.692	0.0149081
615.770	0.0147610
615.848	0.0148817
615.926	0.0149809
616.004	0.0148052
616.082	0.0148889
616.160	0.0149028
616.238	0.0148860
616.317	0.0147959
616.395	0.0149371
616.473	0.0149391
616.551	0.0150179
616.629	0.0148418
616.707	0.0149045
616.785	0.0149950
616.863	0.0149025
616.942	0.0149882
617.020	0.0148110
617.098	0.0148684
617.176	0.0150034
617.254	0.0148870
617.332	0.0148796
617.410	0.0147945
617.488	0.0149458
617.567	0.0149862
617.645	0.0148564
617.723	0.0149399
617.801	0.0148914
617.879	0.0148964
617.957	0.0148769
618.035	0.0148556
618.113	0.0148937
618.192	0.0149219
618.270	0.0148928
618.348	0.0148275
618.426	0.0150716
618.504	0.0148252
618.582	0.0149955
618.660	0.0147540
618.738	0.0148614
618.817	0.0148857
618.895	0.0150031
618.973	0.0149567
619.051	0.0148859
619.129	0.0150112
619.207	0.0149702
619.285	0.0148589
619.363	0.0148457
619.442	0.0150285
619.520	0.0149844
619.598	0.0150558
619.676	0.0149022
619.754	0.0148899
619.832	0.0148380
619.910	0.0149149
619.988	0.0148603
620.067	0.0150929
620.145	0.0150374
620.223	0.0149033
620.301	0.0149029
620.379	0.0148879
620.457	0.0149240
620.535	0.0149021
620.613	0.0149252
620.692	0.0148936
620.770	0.0149740
620.848	0.0149921
620.926	0.0149415
621.004	0.0147385
621.082	0.0148321
621.160	0.0149706
621.238	0.0150064
621.317	0.0149331
621.395	0.0148287
621.473	0.0148434
621.551	0.0149625
621.629	0.0148847
621.707	0.0148254
621.785	0.0149265
621.863	0.0149352
621.942	0.0148583
622.020	0.0148158
622.098	0.0148009
622.176	0.0148598
622.254	0.0148843
622.332	0.0150592
622.410	0.0149440
622.488	0.0147902
622.567	0.0149518
622.645	0.0149969
622.723	0.0150009
622.801	0.0150375
622.879	0.0149313
622.957	0.0148749
623.035	0.0149300
623.113	0.0147902
623.192	0.0148474
623.270	0.0149644
623.348	0.0148752
623.426	0.0149585
623.504	0.0149793
623.582	0.0149413
623.660	0.0148647
623.738	0.0149274
623.817	0.0149866
623.895	0.0149448
623.973	0.0149707
624.051	0.0149918
624.129	0.0148189
624.207	0.0149062
624.285	0.0148593
624.363	0.0147509
624.442	0.0148397
624.520	0.0148815
624.598	0.0150444
624.676	0.0147433
624.754	0.0149383
624.832	0.0147646
624.910	0.0148884
624.988	0.0148650
625.067	0.0150505
625.145	0.0147208
625.223	0.0147014
625.301	0.0148397
625.379	0.0148132
625.457	0.0149274
625.535	0.0148808
625.613	0.0149487
625.692	0.0149235
625.770	0.0148687
625.848	0.0148806
625.926	0.0148263
626.004	0.0147711
626.082	0.0149430
626.160	0.0148641
626.238	0.0149788
626.317	0.0148702
626.395	0.0148321
626.473	0.0148524
626.551	0.0148617
626.629	0.0149695
626.707	0.0149039
626.785	0.0149210
626.863	0.0149201
626.942	0.0148051
627.020	0.0148300
627.098	0.0148380
627.176	0.0149189
627.254	0.0148450
627.332	0.0148243
627.410	0.0148190
627.488	0.0148540
627.567	0.0148243
627.645	0.0148479
627.723	0.0148906
627.801	0.0149613
627.879	0.0149429
627.957	0.0149970
628.035	0.0150172
628.113	0.0149333
628.192	0.0147796
628.270	0.0148359
628.348	0.0148613
628.426	0.0150014
628.504	0.0149551
628.582	0.0149126
628.660	0.0148881
628.738	0.0149852
628.817	0.0148447
628.895	0.0147949
628.973	0.0149570
629.051	0.0149908
629.129	0.0149153
629.207	0.0148302
629.285	0.0148962
629.363	0.0150227
629.442	0.0148757
629.520	0.0148312
629.598	0.0149326
629.676	0.0149931
629.754	0.0149085
629.832	0.0148689
629.910	0.0148553
629.988	0.0149679
630.067	0.0148041
630.145	0.0147899
630.223	0.0148181
630.301	0.0148862
630.379	0.0148502
630.457	0.0148804
630.535	0.0148123
630.613	0.0148825
630.692	0.0149731
630.770	0.0149334
630.848	0.0148836
630.926	0.0147904
631.004	0.0149021
631.082	0.0148549
631.160	0.0149768
631.238	0.0148708
631.317	0.0149069
631.395	0.0149948
631.473	0.0147524
631.551	0.0149527
631.629	0.0147307
631.707	0.0148698
631.785	0.0148476
631.863	0.0148690
631.942	0.0148847
632.020	0.0149261
632.098	0.0148519
632.176	0.0149863
632.254	0.0147277
632.332	0.0148474
632.410	0.0147864
632.488	0.0149328
632.567	0.0149328
632.645	0.0148272
632.723	0.0149358
632.801	0.0148876
632.879	0.0149026
632.957	0.0149001
633.035	0.0149665
633.113	0.0150356
633.192	0.0149683
633.270	0.0149850
633.348	0.0149130
633.426	0.0149009
633.504	0.0149338
633.582	0.0148689
633.660	0.0148995
633.738	0.0148360
633.817	0.0149254
633.895	0.0149831
633.973	0.0149242
634.051	0.0149706
634.129	0.0149072
634.207	0.0149044
634.285	0.0148801
634.363	0.0149210
634.442	0.0149617
634.520	0.0149319
634.598	0.0149137
634.676	0.0149036
634.754	0.0150546
634.832	0.0148906
634.910	0.0148687
634.988	0.0148290
635.067	0.0149284
635.145	0.0148392
635.223	0.0149411
635.301	0.0148851
635.379	0.0148556
635.457	0.0149323
635.535	0.0149516
635.613	0.0150800
635.692	0.0148979
635.770	0.0149871
635.848	0.0149229
635.926	0.0149046
636.004	0.0148579
636.082	0.0149544
636.160	0.0148243
636.238	0.0149146
636.317	0.0149657
636.395	0.0148984
636.473	0.0149321
636.551	0.0148316
636.629	0.0148463
636.707	0.0150159
636.785	0.0149399
636.863	0.0149694
636.942	0.0149213
637.020	0.0148532
637.098	0.0148734
637.176	0.0149660
637.254	0.0149124
637.332	0.0149484
637.410	0.0149300
637.488	0.0149564
637.567	0.0150523
637.645	0.0149544
637.723	0.0148888
637.801	0.0150382
637.879	0.0149612
637.957	0.0148416
638.035	0.0148806
638.113	0.0149324
638.192	0.0149574
638.270	0.0150288
638.348	0.0150188
638.426	0.0148261
638.504	0.0148645
638.582	0.0148827
638.660	0.0148914
638.738	0.0148209
638.817	0.0147932
638.895	0.0147864
638.973	0.0149361
639.051	0.0148759
639.129	0.0148989
639.207	0.0148061
639.285	0.0149029
639.363	0.0149771
639.442	0.0149597
639.520	0.0149831
639.598	0.0149970
639.676	0.0148387
639.754	0.0148291
639.832	0.0148617
639.910	0.0148517
639.988	0.0148559
640.067	0.0149271
640.145	0.0148578
640.223	0.0150072
640.301	0.0149709
640.379	0.0148613
640.457	0.0148418
640.535	0.0149187
640.613	0.0149207
640.692	0.0148179
640.770	0.0149560
640.848	0.0148244
640.926	0.0149252
641.004	0.0149875
641.082	0.0150208
641.160	0.0148012
641.238	0.0149223
641.317	0.0149500
641.395	0.0148563
641.473	0.0148795
641.551	0.0147984
641.629	0.0149271
641.707	0.0148499
641.785	0.0148519
641.863	0.0149720
641.942	0.0148851
642.020	0.0148224
642.098	0.0149612
642.176	0.0150385
642.254	0.0147507
642.332	0.0147401
642.410	0.0149578
642.488	0.0149475
642.567	0.0148756
642.645	0.0148725
642.723	0.0150153
642.801	0.0149065
642.879	0.0149387
642.957	0.0150156
643.035	0.0148861
643.113	0.0148327
643.192	0.0148703
643.270	0.0149196
643.348	0.0148726
643.426	0.0148071
643.504	0.0148560
643.582	0.0148512
643.660	0.0147569
643.738	0.0148650
643.817	0.0148702
643.895	0.0149303
643.973	0.0149990
644.051	0.0149744
644.129	0.0148230
644.207	0.0148631
644.285	0.0147996
644.363	0.0149228
644.442	0.0148976
644.520	0.0148260
644.598	0.0148378
644.676	0.0149731
644.754	0.0149081
644.832	0.0148430
644.910	0.0148088
644.988	0.0149474
645.067	0.0147829
645.145	0.0148431
645.223	0.0148884
645.301	0.0149614
645.379	0.0147885
645.457	0.0148866
645.535	0.0149294
645.613	0.0147959
645.692	0.0148343
645.770	0.0148741
645.848	0.0148888
645.926	0.0149590
646.004	0.0149647
646.082	0.0149081
646.160	0.0148479
646.238	0.0147721
646.317	0.0146929
646.395	0.0148293
646.473	0.0149131
646.551	0.0148552
646.629	0.0149601
646.707	0.0150534
646.785	0.0149983
646.863	0.0149375
646.942	0.0149086
647.020	0.0149249
647.098	0.0149764
647.176	0.0150031
647.254	0.0149219
647.332	0.0147980
647.410	0.0148693
647.488	0.0149698
647.567	0.0146816
647.645	0.0148600
647.723	0.0148788
647.801	0.0150339
647.879	0.0148053
647.957	0.0149798
648.035	0.0148426
648.113	0.0149301
648.192	0.0148526
648.270	0.0148841
648.348	0.0148702
648.426	0.0149550
648.504	0.0148988
648.582	0.0149028
648.660	0.0149280
648.738	0.0148364
648.817	0.0148775
648.895	0.0149179
648.973	0.0148413
649.051	0.0147910
649.129	0.0148405
649.207	0.0149442
649.285	0.0148344
649.363	0.0149123
649.442	0.0149783
649.520	0.0147826
649.598	0.0148547
649.676	0.0148780
649.754	0.0149171
649.832	0.0148326
649.910	0.0149803
649.988	0.0149085
650.067	0.0148512
650.145	0.0150169
650.223	0.0147717
650.301	0.0149310
650.379	0.0148475
650.457	0.0148367
650.535	0.0149601
650.613	0.0149113
650.692	0.0149386
650.770	0.0149186
650.848	0.0147475
650.926	0.0148967
651.004	0.0148431
651.082	0.0149957
651.160	0.0149062
651.238	0.0148136
651.317	0.0146971
651.395	0.0149647
651.473	0.0149230
651.551	0.0148423
651.629	0.0148443
651.707	0.0149367
651.785	0.0151436
651.863	0.0149564
651.942	0.0148937
652.020	0.0148294
652.098	0.0149142
652.176	0.0148834
652.254	0.0148368
652.332	0.0150312
652.410	0.0149173
652.488	0.0148807
652.567	0.0148701
652.645	0.0149087
652.723	0.0148673
652.801	0.0148950
652.879	0.0147383
652.957	0.0148843
653.035	0.0149114
653.113	0.0148726
653.192	0.0148770
653.270	0.0149118
653.348	0.0149576
653.426	0.0147678
653.504	0.0148950
653.582	0.0149510
653.660	0.0148924
653.738	0.0149266
653.817	0.0148512
653.895	0.0146956
653.973	0.0148627
654.051	0.0149239
654.129	0.0150857
654.207	0.0148324
654.285	0.0147813
654.363	0.0148868
654.442	0.0149608
654.520	0.0149104
654.598	0.0147466
654.676	0.0148991
654.754	0.0147343
654.832	0.0148331
654.910	0.0150395
654.988	0.0148622
655.067	0.0149034
655.145	0.0148149
655.223	0.0149001
655.301	0.0149776
655.379	0.0149283
655.457	0.0149212
655.535	0.0150687
655.613	0.0149847
655.692	0.0149097
655.770	0.0148817
655.848	0.0149931
655.926	0.0150210
656.004	0.0148513
656.082	0.0150293
656.160	0.0148685
656.238	0.0149154
656.317	0.0149892
656.395	0.0149294
656.473	0.0148768
656.551	0.0149270
656.629	0.0149248
656.707	0.0148301
656.785	0.0147796
656.863	0.0149430
656.942	0.0148501
657.020	0.0149261
657.098	0.0149742
657.176	0.0151182
657.254	0.0149909
657.332	0.0149181
657.410	0.0149297
657.488	0.0148489
657.567	0.0150401
657.645	0.0149186
657.723	0.0149335
657.801	0.0149301
657.879	0.0149833
657.957	0.0148438
658.035	0.0148958
658.113	0.0147807
658.192	0.0148480
658.270	0.0149274
658.348	0.0150827
658.426	0.0149294
658.504	0.0148244
658.582	0.0148021
658.660	0.0148067
658.738	0.0148199
658.817	0.0148461
658.895	0.0149043
658.973	0.0147783
659.051	0.0147964
659.129	0.0146220
659.207	0.0149091
659.285	0.0150073
659.363	0.0148010
659.442	0.0147791
659.520	0.0148224
659.598	0.0149390
659.676	0.0147755
659.754	0.0149052
659.832	0.0147880
659.910	0.0147705
659.988	0.0149292
660.067	0.0148253
660.145	0.0149559
660.223	0.0148759
660.301	0.0149649
660.379	0.0149333
660.457	0.0148762
660.535	0.0149383
660.613	0.0149332
660.692	0.0148402
660.770	0.0148291
660.848	0.0149805
660.926	0.0149388
661.004	0.0149367
661.082	0.0149274
661.160	0.0149832
661.238	0.0149742
661.317	0.0148255
661.395	0.0148927
661.473	0.0148212
661.551	0.0148421
661.629	0.0149485
661.707	0.0148069
661.785	0.0148665
661.863	0.0147115
661.942	0.0147132
662.020	0.0148905
662.098	0.0147110
662.176	0.0149305
662.254	0.0149288
662.332	0.0148311
662.410	0.0149052
662.488	0.0149818
662.567	0.0149932
662.645	0.0148364
662.723	0.0148035
662.801	0.0149450
662.879	0.0148376
662.957	0.0148524
663.035	0.0149283
663.113	0.0147805
663.192	0.0149046
663.270	0.0148154
663.348	0.0148643
663.426	0.0149002
663.504	0.0148940
663.582	0.0149310
663.660	0.0147728
663.738	0.0149679
663.817	0.0147350
663.895	0.0149110
663.973	0.0149891
664.051	0.0147355
664.129	0.0148842
664.207	0.0149011
664.285	0.0148950
664.363	0.0148547
664.442	0.0148538
664.520	0.0149232
664.598	0.0148404
664.676	0.0149302
664.754	0.0148579
664.832	0.0147756
664.910	0.0148422
664.988	0.0148222
665.067	0.0148125
665.145	0.0147899
665.223	0.0149128
665.301	0.0149422
665.379	0.0148250
665.457	0.0148563
665.535	0.0148570
665.613	0.0149306
665.692	0.0149650
665.770	0.0148286
665.848	0.0148515
665.926	0.0148695
666.004	0.0148390
666.082	0.0148228
666.160	0.0147916
666.238	0.0147874
666.317	0.0148147
666.395	0.0148848
666.473	0.0147962
666.551	0.0148628
666.629	0.0149028
666.707	0.0149329
666.785	0.0147086
666.863	0.0147509
666.942	0.0147869
667.020	0.0148755
667.098	0.0149063
667.176	0.0147639
667.254	0.0148486
667.332	0.0149554
667.410	0.0147977
667.488	0.0148962
667.567	0.0148418
667.645	0.0148783
667.723	0.0149471
667.801	0.0147868
667.879	0.0147987
667.957	0.0148020
668.035	0.0149319
668.113	0.0148026
668.192	0.0146123
668.270	0.0148640
668.348	0.0148660
668.426	0.0148148
668.504	0.0147791
668.582	0.0148814
668.660	0.0149753
668.738	0.0149361
668.817	0.0148307
668.895	0.0148910
668.973	0.0148969
669.051	0.0148674
669.129	0.0149396
669.207	0.0147948
669.285	0.0149006
669.363	0.0147932
669.442	0.0149417
669.520	0.0149218
669.598	0.0148490
669.676	0.0149358
669.754	0.0148825
669.832	0.0148970
669.910	0.0149174
669.988	0.0147520
670.067	0.0149046
670.145	0.0147565
670.223	0.0147863
670.301	0.0149220
670.379	0.0149318
670.457	0.0148629
670.535	0.0149258
670.613	0.0147689
670.692	0.0148386
670.770	0.0149078
670.848	0.0148750
670.926	0.0148695
671.004	0.0149564
671.082	0.0146966
671.160	0.0147572
671.238	0.0148447
671.317	0.0148823
671.395	0.0147994
671.473	0.0149532
671.551	0.0148640
671.629	0.0147117
671.707	0.0147990
671.785	0.0147974
671.863	0.0148846
671.942	0.0148878
672.020	0.0147737
672.098	0.0148810
672.176	0.0150095
672.254	0.0147991
672.332	0.0149274
672.410	0.0147885
672.488	0.0149394
672.567	0.0148840
672.645	0.0147961
672.723	0.0146984
672.801	0.0148551
672.879	0.0149660
672.957	0.0148209
673.035	0.0148251
673.113	0.0148168
673.192	0.0149671
673.270	0.0148473
673.348	0.0149075
673.426	0.0149340
673.504	0.0149983
673.582	0.0148276
673.660	0.0148412
673.738	0.0149126
673.817	0.0147853
673.895	0.0147961
673.973	0.0149171
674.051	0.0148547
674.129	0.0148879
674.207	0.0148986
674.285	0.0149756
674.363	0.0148737
674.442	0.0149172
674.520	0.0148758
674.598	0.0149245
674.676	0.0149162
674.754	0.0148585
674.832	0.0148174
674.910	0.0149130
674.988	0.0149365
675.067	0.0149740
675.145	0.0148267
675.223	0.0149752
675.301	0.0149550
675.379	0.0148970
675.457	0.0148860
675.535	0.0148644
675.613	0.0149691
675.692	0.0148959
675.770	0.0148547
675.848	0.0148690
675.926	0.0148596
676.004	0.0147794
676.082	0.0148008
676.160	0.0149277
676.238	0.0150126
676.317	0.0148699
676.395	0.0148108
676.473	0.0148591
676.551	0.0149789
676.629	0.0147244
676.707	0.0149015
676.785	0.0148477
676.863	0.0147637
676.942	0.0148135
677.020	0.0148108
677.098	0.0146529
677.176	0.0149684
677.254	0.0147798
677.332	0.0149055
677.410	0.0147269
677.488	0.0147787
677.567	0.0148482
677.645	0.0149425
677.723	0.0148612
677.801	0.0149641
677.879	0.0150597
677.957	0.0150021
678.035	0.0149916
678.113	0.0150500
678.192	0.0150095
678.270	0.0151317
678.348	0.0150214
678.426	0.0148663
678.504	0.0149071
678.582	0.0149567
678.660	0.0150659
678.738	0.0148168
678.817	0.0148631
678.895	0.0146562
678.973	0.0146285
679.051	0.0147298
679.129	0.0146005
679.207	0.0146235
679.285	0.0144504
679.363	0.0144795
679.442	0.0145811
679.520	0.0144779
679.598	0.0145007
679.676	0.0144396
679.754	0.0145573
679.832	0.0147115
679.910	0.0148480
679.988	0.0147929
680.067	0.0149179
680.145	0.0151944
680.223	0.0154147
680.301	0.0156800
680.379	0.0158592
680.457	0.0160592
680.535	0.0161450
680.613	0.0161100
680.692	0.0161703
680.770	0.0162093
680.848	0.0161686
680.926	0.0159989
681.004	0.0158569
681.082	0.0156472
681.160	0.0151261
681.238	0.0148196
681.317	0.0144867
681.395	0.0141021
681.473	0.0136894
681.551	0.0132087
681.629	0.0130518
681.707	0.0128313
681.785	0.0126086
681.863	0.0127873
681.942	0.0128178
682.020	0.0128903
682.098	0.0132214
682.176	0.0134956
682.254	0.0138957
682.332	0.0142149
682.410	0.0145007
682.488	0.0148727
682.567	0.0152222
682.645	0.0155766
682.723	0.0156389
682.801	0.0158963
682.879	0.0159877
682.957	0.0161349
683.035	0.0162096
683.113	0.0161768
683.192	0.0162423
683.270	0.0161748
683.348	0.0161509
683.426	0.0162119
683.504	0.0161288
683.582	0.0160770
683.660	0.0160414
683.738	0.0159177
683.817	0.0159496
683.895	0.0157152
683.973	0.0156300
684.051	0.0156593
684.129	0.0155891
684.207	0.0155713
684.285	0.0153215
684.363	0.0150095
684.442	0.0150570
684.520	0.0146744
684.598	0.0144396
684.676	0.0141887
684.754	0.0138326
684.832	0.0134927
684.910	0.0134060
684.988	0.0131623
685.067	0.0130259
685.145	0.0128907
685.223	0.0128750
685.301	0.0127611
685.379	0.0127061
685.457	0.0127604
685.535	0.0127407
685.613	0.0128521
685.692	0.0131980
