05/28/2022	13:50:50	Ver.	4.1	UNKNOWN
Optical Delay	599.995081	Delta X		0.078125	Sweeps	1	Scan Rate	0/0
Coordinates	Axis 1	NaN	Axis 2	NaN	Axis 3	NaN	Axis 4	NaN	Axis 5	NaN	Axis 6	0.000000
TX Power	0.000000	RX Power	0.000000

599.995	0.0144350
600.073	0.0143697
600.151	0.0143760
600.229	0.0143272
600.308	0.0143700
600.386	0.0143708
600.464	0.0145753
600.542	0.0144209
600.620	0.0143763
600.698	0.0144804
600.776	0.0145201
600.854	0.0143186
600.933	0.0143999
601.011	0.0143671
601.089	0.0144814
601.167	0.0143746
601.245	0.0144478
601.323	0.0144695
601.401	0.0143912
601.479	0.0143901
601.558	0.0145110
601.636	0.0145696
601.714	0.0143980
601.792	0.0144470
601.870	0.0143724
601.948	0.0143994
602.026	0.0143792
602.104	0.0144742
602.183	0.0145117
602.261	0.0143609
602.339	0.0144843
602.417	0.0144516
602.495	0.0144054
602.573	0.0144285
602.651	0.0145480
602.729	0.0143481
602.808	0.0143513
602.886	0.0143739
602.964	0.0144320
603.042	0.0143928
603.120	0.0144160
603.198	0.0144305
603.276	0.0141493
603.354	0.0142920
603.433	0.0144175
603.511	0.0145158
603.589	0.0144205
603.667	0.0142462
603.745	0.0143974
603.823	0.0145026
603.901	0.0146192
603.979	0.0144549
604.058	0.0144061
604.136	0.0144827
604.214	0.0143687
604.292	0.0144095
604.370	0.0144658
604.448	0.0144418
604.526	0.0144128
604.604	0.0144035
604.683	0.0144173
604.761	0.0144470
604.839	0.0144821
604.917	0.0143503
604.995	0.0144278
605.073	0.0143660
605.151	0.0144148
605.229	0.0144006
605.308	0.0144587
605.386	0.0144170
605.464	0.0142253
605.542	0.0144196
605.620	0.0145393
605.698	0.0144372
605.776	0.0143382
605.854	0.0144304
605.933	0.0144940
606.011	0.0143459
606.089	0.0143843
606.167	0.0144436
606.245	0.0144710
606.323	0.0144524
606.401	0.0143169
606.479	0.0144510
606.558	0.0145979
606.636	0.0144282
606.714	0.0145551
606.792	0.0144179
606.870	0.0143774
606.948	0.0145990
607.026	0.0144968
607.104	0.0143076
607.183	0.0145423
607.261	0.0145447
607.339	0.0144210
607.417	0.0144863
607.495	0.0144109
607.573	0.0141937
607.651	0.0144252
607.729	0.0143528
607.808	0.0146347
607.886	0.0144257
607.964	0.0144173
608.042	0.0144572
608.120	0.0143406
608.198	0.0144054
608.276	0.0143277
608.354	0.0143810
608.433	0.0145325
608.511	0.0144007
608.589	0.0143944
608.667	0.0145414
608.745	0.0143978
608.823	0.0144363
608.901	0.0142927
608.979	0.0143197
609.058	0.0144609
609.136	0.0144392
609.214	0.0144492
609.292	0.0144238
609.370	0.0144342
609.448	0.0143964
609.526	0.0143832
609.604	0.0145033
609.683	0.0144938
609.761	0.0144016
609.839	0.0144017
609.917	0.0142407
609.995	0.0144215
610.073	0.0145772
610.151	0.0144380
610.229	0.0144510
610.308	0.0144320
610.386	0.0143820
610.464	0.0143548
610.542	0.0143496
610.620	0.0143839
610.698	0.0143029
610.776	0.0144024
610.854	0.0144572
610.933	0.0144675
611.011	0.0144233
611.089	0.0143912
611.167	0.0145731
611.245	0.0143835
611.323	0.0143652
611.401	0.0144923
611.479	0.0144119
611.558	0.0144418
611.636	0.0143668
611.714	0.0144935
611.792	0.0144535
611.870	0.0144601
611.948	0.0145913
612.026	0.0144257
612.104	0.0145114
612.183	0.0145039
612.261	0.0144443
612.339	0.0145698
612.417	0.0145705
612.495	0.0144411
612.573	0.0145153
612.651	0.0144722
612.729	0.0143073
612.808	0.0144500
612.886	0.0145165
612.964	0.0144067
613.042	0.0143752
613.120	0.0145258
613.198	0.0144603
613.276	0.0144257
613.354	0.0144539
613.433	0.0143764
613.511	0.0143739
613.589	0.0144161
613.667	0.0143910
613.745	0.0143839
613.823	0.0143890
613.901	0.0145386
613.979	0.0144872
614.058	0.0144250
614.136	0.0144114
614.214	0.0143232
614.292	0.0144909
614.370	0.0145123
614.448	0.0143720
614.526	0.0144728
614.604	0.0143359
614.683	0.0144584
614.761	0.0144303
614.839	0.0143823
614.917	0.0143755
614.995	0.0144030
615.073	0.0143927
615.151	0.0144635
615.229	0.0144411
615.308	0.0145619
615.386	0.0144970
615.464	0.0142597
615.542	0.0144511
615.620	0.0145055
615.698	0.0144763
615.776	0.0144362
615.854	0.0144769
615.933	0.0143468
616.011	0.0144664
616.089	0.0144958
616.167	0.0143844
616.245	0.0143379
616.323	0.0144931
616.401	0.0145396
616.479	0.0143357
616.558	0.0144645
616.636	0.0146008
616.714	0.0142529
616.792	0.0143270
616.870	0.0143790
616.948	0.0142815
617.026	0.0143694
617.104	0.0147128
617.183	0.0143771
617.261	0.0143634
617.339	0.0144498
617.417	0.0144700
617.495	0.0145306
617.573	0.0143900
617.651	0.0144530
617.729	0.0144721
617.808	0.0144196
617.886	0.0144685
617.964	0.0145499
618.042	0.0144908
618.120	0.0144483
618.198	0.0144440
618.276	0.0143764
618.354	0.0144071
618.433	0.0144368
618.511	0.0145630
618.589	0.0143854
618.667	0.0144315
618.745	0.0144509
618.823	0.0144068
618.901	0.0145214
618.979	0.0144227
619.058	0.0144164
619.136	0.0144346
619.214	0.0143679
619.292	0.0144430
619.370	0.0144666
619.448	0.0144550
619.526	0.0144469
619.604	0.0144794
619.683	0.0144529
619.761	0.0144101
619.839	0.0146404
619.917	0.0143436
619.995	0.0144312
620.073	0.0143439
620.151	0.0145284
620.229	0.0145277
620.308	0.0143997
620.386	0.0143216
620.464	0.0144287
620.542	0.0146762
620.620	0.0143732
620.698	0.0142514
620.776	0.0144200
620.854	0.0144794
620.933	0.0144985
621.011	0.0143973
621.089	0.0144365
621.167	0.0143708
621.245	0.0144065
621.323	0.0144558
621.401	0.0143568
621.479	0.0143713
621.558	0.0144149
621.636	0.0144879
621.714	0.0144143
621.792	0.0144252
621.870	0.0143470
621.948	0.0147028
622.026	0.0144494
622.104	0.0144956
622.183	0.0143422
622.261	0.0144359
622.339	0.0144472
622.417	0.0143842
622.495	0.0143298
622.573	0.0144958
622.651	0.0143868
622.729	0.0144090
622.808	0.0145148
622.886	0.0145895
622.964	0.0143913
623.042	0.0144486
623.120	0.0144826
623.198	0.0144493
623.276	0.0144595
623.354	0.0144447
623.433	0.0144989
623.511	0.0144645
623.589	0.0144656
623.667	0.0144580
623.745	0.0144205
623.823	0.0144728
623.901	0.0144714
623.979	0.0144398
624.058	0.0143620
624.136	0.0145026
624.214	0.0144999
624.292	0.0144850
624.370	0.0145099
624.448	0.0145210
624.526	0.0143726
624.604	0.0144299
624.683	0.0145211
624.761	0.0144290
624.839	0.0143850
624.917	0.0144258
624.995	0.0144010
625.073	0.0144249
625.151	0.0143932
625.229	0.0144710
625.308	0.0144831
625.386	0.0142841
625.464	0.0144380
625.542	0.0145073
625.620	0.0144282
625.698	0.0144012
625.776	0.0143679
625.854	0.0144173
625.933	0.0144069
626.011	0.0144848
626.089	0.0144096
626.167	0.0145895
626.245	0.0145325
626.323	0.0145469
626.401	0.0145415
626.479	0.0144112
626.558	0.0144556
626.636	0.0143407
626.714	0.0143208
626.792	0.0144717
626.870	0.0142666
626.948	0.0145078
627.026	0.0144953
627.104	0.0144325
627.183	0.0144158
627.261	0.0144505
627.339	0.0143990
627.417	0.0144056
627.495	0.0143712
627.573	0.0144160
627.651	0.0144456
627.729	0.0144865
627.808	0.0143503
627.886	0.0144326
627.964	0.0145815
628.042	0.0144313
628.120	0.0144741
628.198	0.0144604
628.276	0.0145499
628.354	0.0145000
628.433	0.0143604
628.511	0.0143704
628.589	0.0144780
628.667	0.0145026
628.745	0.0144223
628.823	0.0143017
628.901	0.0143921
628.979	0.0144746
629.058	0.0144523
629.136	0.0145119
629.214	0.0145997
629.292	0.0144156
629.370	0.0144016
629.448	0.0143985
629.526	0.0144914
629.604	0.0143531
629.683	0.0143729
629.761	0.0143040
629.839	0.0144286
629.917	0.0144575
629.995	0.0144669
630.073	0.0144325
630.151	0.0142971
630.229	0.0144054
630.308	0.0144987
630.386	0.0145037
630.464	0.0144631
630.542	0.0145408
630.620	0.0144330
630.698	0.0142339
630.776	0.0143900
630.854	0.0145113
630.933	0.0145065
631.011	0.0144769
631.089	0.0143110
631.167	0.0145213
631.245	0.0144592
631.323	0.0144572
631.401	0.0144488
631.479	0.0143394
631.558	0.0144185
631.636	0.0145486
631.714	0.0144682
631.792	0.0144231
631.870	0.0145666
631.948	0.0145368
632.026	0.0143929
632.104	0.0144054
632.183	0.0144508
632.261	0.0145209
632.339	0.0144782
632.417	0.0144178
632.495	0.0145113
632.573	0.0144003
632.651	0.0143554
632.729	0.0144355
632.808	0.0145417
632.886	0.0143801
632.964	0.0144343
633.042	0.0145058
633.120	0.0144525
633.198	0.0144179
633.276	0.0144031
633.354	0.0144775
633.433	0.0145243
633.511	0.0145111
633.589	0.0144002
633.667	0.0143887
633.745	0.0144555
633.823	0.0143954
633.901	0.0143729
633.979	0.0143640
634.058	0.0143704
634.136	0.0143655
634.214	0.0146426
634.292	0.0145255
634.370	0.0145392
634.448	0.0143546
634.526	0.0142858
634.604	0.0143878
634.683	0.0143431
634.761	0.0143460
634.839	0.0143809
634.917	0.0144788
634.995	0.0145732
635.073	0.0146595
635.151	0.0144865
635.229	0.0144884
635.308	0.0144225
635.386	0.0144077
635.464	0.0145278
635.542	0.0144233
635.620	0.0145094
635.698	0.0144310
635.776	0.0144704
635.854	0.0144575
635.933	0.0144231
636.011	0.0144614
636.089	0.0143793
636.167	0.0143365
636.245	0.0145422
636.323	0.0145770
636.401	0.0145655
636.479	0.0144792
636.558	0.0142847
636.636	0.0145402
636.714	0.0144358
636.792	0.0143328
636.870	0.0143745
636.948	0.0143800
637.026	0.0143362
637.104	0.0144179
637.183	0.0145403
637.261	0.0144699
637.339	0.0143739
637.417	0.0144458
637.495	0.0143509
637.573	0.0144848
637.651	0.0145834
637.729	0.0144703
637.808	0.0144353
637.886	0.0143621
637.964	0.0143874
638.042	0.0143153
638.120	0.0143199
638.198	0.0144534
638.276	0.0143218
638.354	0.0144416
638.433	0.0144115
638.511	0.0143983
638.589	0.0144627
638.667	0.0143904
638.745	0.0143685
638.823	0.0144110
638.901	0.0143740
638.979	0.0143842
639.058	0.0143288
639.136	0.0145844
639.214	0.0144332
639.292	0.0143372
639.370	0.0144602
639.448	0.0145364
639.526	0.0143399
639.604	0.0143606
639.683	0.0144038
639.761	0.0143789
639.839	0.0145150
639.917	0.0143632
639.995	0.0143005
640.073	0.0144315
640.151	0.0143681
640.229	0.0144359
640.308	0.0143720
640.386	0.0144243
640.464	0.0145376
640.542	0.0144337
640.620	0.0142768
640.698	0.0144109
640.776	0.0144422
640.854	0.0145417
640.933	0.0145617
641.011	0.0144160
641.089	0.0142767
641.167	0.0145589
641.245	0.0144146
641.323	0.0144209
641.401	0.0144783
641.479	0.0144299
641.558	0.0143790
641.636	0.0143352
641.714	0.0144028
641.792	0.0145401
641.870	0.0144198
641.948	0.0145079
642.026	0.0143368
642.104	0.0144502
642.183	0.0144121
642.261	0.0144581
642.339	0.0144786
642.417	0.0143926
642.495	0.0144477
642.573	0.0144324
642.651	0.0144122
642.729	0.0143320
642.808	0.0144599
642.886	0.0144991
642.964	0.0143224
643.042	0.0143475
643.120	0.0144283
643.198	0.0143760
643.276	0.0144733
643.354	0.0144433
643.433	0.0143205
643.511	0.0143922
643.589	0.0144514
643.667	0.0143510
643.745	0.0143284
643.823	0.0144229
643.901	0.0145071
643.979	0.0145054
644.058	0.0144831
644.136	0.0143739
644.214	0.0144857
644.292	0.0144951
644.370	0.0144711
644.448	0.0142616
644.526	0.0143073
644.604	0.0144205
644.683	0.0145277
644.761	0.0144314
644.839	0.0144772
644.917	0.0143960
644.995	0.0144266
645.073	0.0145321
645.151	0.0144749
645.229	0.0144649
645.308	0.0143655
645.386	0.0143931
645.464	0.0144978
645.542	0.0145141
645.620	0.0144256
645.698	0.0143865
645.776	0.0144466
645.854	0.0143663
645.933	0.0144852
646.011	0.0145236
646.089	0.0143946
646.167	0.0144398
646.245	0.0145167
646.323	0.0145408
646.401	0.0143680
646.479	0.0144042
646.558	0.0145344
646.636	0.0144743
646.714	0.0142412
646.792	0.0143055
646.870	0.0142984
646.948	0.0144041
647.026	0.0143601
647.104	0.0144546
647.183	0.0145010
647.261	0.0144559
647.339	0.0144625
647.417	0.0144393
647.495	0.0143687
647.573	0.0144134
647.651	0.0143635
647.729	0.0144172
647.808	0.0143945
647.886	0.0145345
647.964	0.0143954
648.042	0.0144072
648.120	0.0143439
648.198	0.0142240
648.276	0.0143353
648.354	0.0144783
648.433	0.0145053
648.511	0.0143267
648.589	0.0145925
648.667	0.0144216
648.745	0.0144042
648.823	0.0144955
648.901	0.0144498
648.979	0.0144321
649.058	0.0145544
649.136	0.0143870
649.214	0.0144802
649.292	0.0144881
649.370	0.0146001
649.448	0.0144581
649.526	0.0143944
649.604	0.0144350
649.683	0.0145330
649.761	0.0142892
649.839	0.0143558
649.917	0.0144276
649.995	0.0143941
650.073	0.0144028
650.151	0.0145352
650.229	0.0143944
650.308	0.0144670
650.386	0.0143716
650.464	0.0144707
650.542	0.0144582
650.620	0.0144109
650.698	0.0142784
650.776	0.0144101
650.854	0.0144479
650.933	0.0145058
651.011	0.0143134
651.089	0.0144001
651.167	0.0144053
651.245	0.0143415
651.323	0.0143287
651.401	0.0144005
651.479	0.0143895
651.558	0.0145409
651.636	0.0145262
651.714	0.0144362
651.792	0.0144072
651.870	0.0144407
651.948	0.0145094
652.026	0.0144852
652.104	0.0145083
652.183	0.0144127
652.261	0.0144879
652.339	0.0144532
652.417	0.0144112
652.495	0.0144375
652.573	0.0144837
652.651	0.0146291
652.729	0.0143704
652.808	0.0144920
652.886	0.0144247
652.964	0.0144528
653.042	0.0144167
653.120	0.0143521
653.198	0.0144945
653.276	0.0144989
653.354	0.0143448
653.433	0.0145000
653.511	0.0145455
653.589	0.0145308
653.667	0.0146307
653.745	0.0144319
653.823	0.0143703
653.901	0.0145101
653.979	0.0144363
654.058	0.0145339
654.136	0.0144697
654.214	0.0144116
654.292	0.0143867
654.370	0.0143258
654.448	0.0143781
654.526	0.0145017
654.604	0.0144534
654.683	0.0144866
654.761	0.0144920
654.839	0.0144740
654.917	0.0144708
654.995	0.0144623
655.073	0.0144231
655.151	0.0145412
655.229	0.0144264
655.308	0.0142922
655.386	0.0144565
655.464	0.0144756
655.542	0.0145573
655.620	0.0144077
655.698	0.0144184
655.776	0.0144804
655.854	0.0145267
655.933	0.0143639
656.011	0.0143784
656.089	0.0145440
656.167	0.0144351
656.245	0.0146091
656.323	0.0142487
656.401	0.0143691
656.479	0.0145290
656.558	0.0144433
656.636	0.0144323
656.714	0.0145325
656.792	0.0144527
656.870	0.0145152
656.948	0.0145367
657.026	0.0145141
657.104	0.0144335
657.183	0.0145184
657.261	0.0144733
657.339	0.0144749
657.417	0.0144465
657.495	0.0144303
657.573	0.0144103
657.651	0.0143929
657.729	0.0143900
657.808	0.0143767
657.886	0.0144109
657.964	0.0144276
658.042	0.0145896
658.120	0.0144603
658.198	0.0144135
658.276	0.0144479
658.354	0.0144258
658.433	0.0144395
658.511	0.0144125
658.589	0.0144311
658.667	0.0142983
658.745	0.0144637
658.823	0.0144845
658.901	0.0144064
658.979	0.0143386
659.058	0.0143246
659.136	0.0144235
659.214	0.0144410
659.292	0.0143839
659.370	0.0145954
659.448	0.0145512
659.526	0.0143250
659.604	0.0143536
659.683	0.0144244
659.761	0.0145237
659.839	0.0143728
659.917	0.0144124
659.995	0.0143413
660.073	0.0144431
660.151	0.0145495
660.229	0.0144852
660.308	0.0144083
660.386	0.0143710
660.464	0.0144389
660.542	0.0145829
660.620	0.0143321
660.698	0.0144860
660.776	0.0145267
660.854	0.0144864
660.933	0.0144511
661.011	0.0144650
661.089	0.0145003
661.167	0.0145654
661.245	0.0143833
661.323	0.0145193
661.401	0.0144292
661.479	0.0146066
661.558	0.0144310
661.636	0.0144273
661.714	0.0144162
661.792	0.0143544
661.870	0.0143188
661.948	0.0143572
662.026	0.0144186
662.104	0.0145685
662.183	0.0143906
662.261	0.0144452
662.339	0.0144312
662.417	0.0144552
662.495	0.0145744
662.573	0.0142895
662.651	0.0144089
662.729	0.0143980
662.808	0.0144028
662.886	0.0145753
662.964	0.0144901
663.042	0.0144923
663.120	0.0144862
663.198	0.0143960
663.276	0.0144988
663.354	0.0143743
663.433	0.0144435
663.511	0.0145600
663.589	0.0144369
663.667	0.0144456
663.745	0.0145645
663.823	0.0144787
663.901	0.0144267
663.979	0.0143805
664.058	0.0144057
664.136	0.0146095
664.214	0.0143314
664.292	0.0144150
664.370	0.0144174
664.448	0.0143711
664.526	0.0144618
664.604	0.0144881
664.683	0.0143813
664.761	0.0144682
664.839	0.0143578
664.917	0.0144445
664.995	0.0144702
665.073	0.0144338
665.151	0.0145255
665.229	0.0144347
665.308	0.0144159
665.386	0.0144060
665.464	0.0145256
665.542	0.0146200
665.620	0.0144814
665.698	0.0144414
665.776	0.0143571
665.854	0.0144832
665.933	0.0143377
666.011	0.0144865
666.089	0.0145708
666.167	0.0144328
666.245	0.0145052
666.323	0.0144559
666.401	0.0145052
666.479	0.0145156
666.558	0.0146207
666.636	0.0145011
666.714	0.0144247
666.792	0.0143747
666.870	0.0144777
666.948	0.0144706
667.026	0.0145218
667.104	0.0145852
667.183	0.0144651
667.261	0.0144711
667.339	0.0144488
667.417	0.0144386
667.495	0.0143803
667.573	0.0144257
667.651	0.0145068
667.729	0.0144173
667.808	0.0143626
667.886	0.0145281
667.964	0.0144006
668.042	0.0144640
668.120	0.0144727
668.198	0.0144405
668.276	0.0144067
668.354	0.0145291
668.433	0.0143979
668.511	0.0143848
668.589	0.0144691
668.667	0.0144765
668.745	0.0144231
668.823	0.0143681
668.901	0.0145332
668.979	0.0143392
669.058	0.0144698
669.136	0.0144392
669.214	0.0144714
669.292	0.0144468
669.370	0.0143994
669.448	0.0144744
669.526	0.0145196
669.604	0.0145353
669.683	0.0144472
669.761	0.0145117
669.839	0.0144220
669.917	0.0145986
669.995	0.0145970
670.073	0.0144418
670.151	0.0145056
670.229	0.0144252
670.308	0.0143733
670.386	0.0144949
670.464	0.0144904
670.542	0.0143948
670.620	0.0144579
670.698	0.0143384
670.776	0.0143872
670.854	0.0144736
670.933	0.0144993
671.011	0.0144055
671.089	0.0144391
671.167	0.0145605
671.245	0.0145364
671.323	0.0145189
671.401	0.0144981
671.479	0.0144614
671.558	0.0143516
671.636	0.0145008
671.714	0.0143936
671.792	0.0145341
671.870	0.0145052
671.948	0.0143884
672.026	0.0143238
672.104	0.0143222
672.183	0.0144328
672.261	0.0144782
672.339	0.0142713
672.417	0.0145922
672.495	0.0145658
672.573	0.0142626
672.651	0.0144887
672.729	0.0145319
672.808	0.0144157
672.886	0.0144971
672.964	0.0144163
673.042	0.0144324
673.120	0.0146136
673.198	0.0144529
673.276	0.0144042
673.354	0.0144345
673.433	0.0144258
673.511	0.0144377
673.589	0.0144513
673.667	0.0145099
673.745	0.0147030
673.823	0.0143732
673.901	0.0145187
673.979	0.0145365
674.058	0.0145794
674.136	0.0143083
674.214	0.0144668
674.292	0.0145025
674.370	0.0144144
674.448	0.0144593
674.526	0.0144794
674.604	0.0145045
674.683	0.0145506
674.761	0.0144507
674.839	0.0143250
674.917	0.0143985
674.995	0.0145196
675.073	0.0145477
675.151	0.0143947
675.229	0.0145210
675.308	0.0143919
675.386	0.0143993
675.464	0.0144886
675.542	0.0144271
675.620	0.0143595
675.698	0.0145590
675.776	0.0145300
675.854	0.0145010
675.933	0.0144054
676.011	0.0146047
676.089	0.0144820
676.167	0.0143609
676.245	0.0144422
676.323	0.0144860
676.401	0.0144058
676.479	0.0144071
676.558	0.0144646
676.636	0.0145228
676.714	0.0144500
676.792	0.0144966
676.870	0.0144593
676.948	0.0145631
677.026	0.0144727
677.104	0.0144196
677.183	0.0145011
677.261	0.0145488
677.339	0.0144325
677.417	0.0144820
677.495	0.0143391
677.573	0.0144935
677.651	0.0144125
677.729	0.0143317
677.808	0.0144793
677.886	0.0144389
677.964	0.0145549
678.042	0.0144098
678.120	0.0143936
678.198	0.0143458
678.276	0.0144420
678.354	0.0143924
678.433	0.0143596
678.511	0.0143461
678.589	0.0144579
678.667	0.0144106
678.745	0.0143105
678.823	0.0143753
678.901	0.0141748
678.979	0.0143041
679.058	0.0144927
679.136	0.0142757
679.214	0.0142610
679.292	0.0143576
679.370	0.0144149
679.448	0.0143588
679.526	0.0143007
679.604	0.0143063
679.683	0.0142587
679.761	0.0141797
679.839	0.0142598
679.917	0.0143307
679.995	0.0144427
680.073	0.0145469
680.151	0.0143597
680.229	0.0142693
680.308	0.0144487
680.386	0.0143590
680.464	0.0144253
680.542	0.0143800
680.620	0.0143102
680.698	0.0143215
680.776	0.0143153
680.854	0.0143908
680.933	0.0143867
681.011	0.0144433
681.089	0.0143884
681.167	0.0143222
681.245	0.0142996
681.323	0.0144788
681.401	0.0145114
681.479	0.0143827
681.558	0.0144781
681.636	0.0143878
681.714	0.0144208
681.792	0.0144450
681.870	0.0144798
681.948	0.0144657
682.026	0.0143363
682.104	0.0143333
682.183	0.0143382
682.261	0.0144638
682.339	0.0142927
682.417	0.0144200
682.495	0.0144678
682.573	0.0144344
682.651	0.0144910
682.729	0.0144128
682.808	0.0142763
682.886	0.0143453
682.964	0.0142786
683.042	0.0143452
683.120	0.0144042
683.198	0.0143652
683.276	0.0145557
683.354	0.0144685
683.433	0.0143224
683.511	0.0142604
683.589	0.0145729
683.667	0.0144298
683.745	0.0143690
683.823	0.0144330
683.901	0.0143121
683.979	0.0145317
684.058	0.0144736
684.136	0.0145388
684.214	0.0145685
684.292	0.0145139
684.370	0.0144003
684.448	0.0144819
684.526	0.0145906
684.604	0.0144508
684.683	0.0145154
684.761	0.0145039
684.839	0.0146141
684.917	0.0144473
684.995	0.0144292
685.073	0.0144543
685.151	0.0146711
685.229	0.0144671
685.308	0.0144529
685.386	0.0145583
685.464	0.0146261
685.542	0.0145244
685.620	0.0146570
685.698	0.0145055
