05/28/2022	14:06:21	Ver.	4.1	UNKNOWN
Optical Delay	599.988409	Delta X		0.078125	Sweeps	1	Scan Rate	0/0
Coordinates	Axis 1	NaN	Axis 2	NaN	Axis 3	NaN	Axis 4	NaN	Axis 5	NaN	Axis 6	0.000000
TX Power	0.000000	RX Power	0.000000

599.988	0.0143075
600.067	0.0143471
600.145	0.0143855
600.223	0.0144170
600.301	0.0142980
600.379	0.0142568
600.457	0.0142812
600.535	0.0143303
600.613	0.0143309
600.692	0.0141850
600.770	0.0143234
600.848	0.0143506
600.926	0.0142591
601.004	0.0144141
601.082	0.0143684
601.160	0.0143403
601.238	0.0143202
601.317	0.0143092
601.395	0.0143215
601.473	0.0143735
601.551	0.0143351
601.629	0.0142870
601.707	0.0143478
601.785	0.0143183
601.863	0.0142689
601.942	0.0141997
602.020	0.0141965
602.098	0.0143685
602.176	0.0142905
602.254	0.0142084
602.332	0.0142749
602.410	0.0142688
602.488	0.0141248
602.567	0.0142917
602.645	0.0143123
602.723	0.0142865
602.801	0.0143140
602.879	0.0142770
602.957	0.0141930
603.035	0.0142566
603.113	0.0143101
603.192	0.0143664
603.270	0.0142506
603.348	0.0142229
603.426	0.0142159
603.504	0.0142567
603.582	0.0143199
603.660	0.0142841
603.738	0.0142533
603.817	0.0141637
603.895	0.0143628
603.973	0.0142393
604.051	0.0143895
604.129	0.0143048
604.207	0.0142394
604.285	0.0143452
604.363	0.0142491
604.442	0.0143905
604.520	0.0142455
604.598	0.0142784
604.676	0.0142339
604.754	0.0143738
604.832	0.0142514
604.910	0.0142487
604.988	0.0141425
605.067	0.0141935
605.145	0.0143296
605.223	0.0143190
605.301	0.0143806
605.379	0.0142137
605.457	0.0142041
605.535	0.0144065
605.613	0.0142664
605.692	0.0142355
605.770	0.0143193
605.848	0.0142190
605.926	0.0142648
606.004	0.0142497
606.082	0.0142796
606.160	0.0143970
606.238	0.0142808
606.317	0.0142883
606.395	0.0142989
606.473	0.0143182
606.551	0.0143097
606.629	0.0142139
606.707	0.0142304
606.785	0.0142249
606.863	0.0143123
606.942	0.0143408
607.020	0.0142130
607.098	0.0142235
607.176	0.0142734
607.254	0.0142121
607.332	0.0142784
607.410	0.0142475
607.488	0.0143362
607.567	0.0141553
607.645	0.0142596
607.723	0.0142267
607.801	0.0142216
607.879	0.0142749
607.957	0.0143565
608.035	0.0143735
608.113	0.0142659
608.192	0.0144105
608.270	0.0144763
608.348	0.0143371
608.426	0.0142791
608.504	0.0141901
608.582	0.0141525
608.660	0.0142924
608.738	0.0143326
608.817	0.0142033
608.895	0.0142381
608.973	0.0143983
609.051	0.0143184
609.129	0.0143881
609.207	0.0142797
609.285	0.0140604
609.363	0.0142774
609.442	0.0144023
609.520	0.0142118
609.598	0.0142909
609.676	0.0143613
609.754	0.0142529
609.832	0.0143155
609.910	0.0143861
609.988	0.0143390
610.067	0.0142453
610.145	0.0142579
610.223	0.0143533
610.301	0.0143845
610.379	0.0142900
610.457	0.0143103
610.535	0.0144160
610.613	0.0143335
610.692	0.0142147
610.770	0.0142906
610.848	0.0141609
610.926	0.0143170
611.004	0.0143147
611.082	0.0143297
611.160	0.0142471
611.238	0.0144312
611.317	0.0142653
611.395	0.0142349
611.473	0.0142381
611.551	0.0142378
611.629	0.0143385
611.707	0.0141536
611.785	0.0141816
611.863	0.0142646
611.942	0.0143658
612.020	0.0143510
612.098	0.0143321
612.176	0.0142529
612.254	0.0143061
612.332	0.0142853
612.410	0.0141245
612.488	0.0143865
612.567	0.0142758
612.645	0.0143935
612.723	0.0142519
612.801	0.0142901
612.879	0.0142114
612.957	0.0144041
613.035	0.0142518
613.113	0.0141760
613.192	0.0142641
613.270	0.0144311
613.348	0.0142260
613.426	0.0142477
613.504	0.0143419
613.582	0.0142507
613.660	0.0142149
613.738	0.0142318
613.817	0.0143469
613.895	0.0142952
613.973	0.0141866
614.051	0.0143324
614.129	0.0141850
614.207	0.0141907
614.285	0.0143421
614.363	0.0143256
614.442	0.0143230
614.520	0.0144145
614.598	0.0143066
614.676	0.0143496
614.754	0.0141879
614.832	0.0143203
614.910	0.0142344
614.988	0.0144392
615.067	0.0141885
615.145	0.0143071
615.223	0.0141779
615.301	0.0143225
615.379	0.0143481
615.457	0.0142912
615.535	0.0142782
615.613	0.0143498
615.692	0.0143111
615.770	0.0144247
615.848	0.0143915
615.926	0.0144480
616.004	0.0143367
616.082	0.0143089
616.160	0.0143903
616.238	0.0142593
616.317	0.0143251
616.395	0.0144083
616.473	0.0143919
616.551	0.0144489
616.629	0.0143592
616.707	0.0142822
616.785	0.0143851
616.863	0.0142446
616.942	0.0143231
617.020	0.0142809
617.098	0.0142963
617.176	0.0143693
617.254	0.0141922
617.332	0.0142306
617.410	0.0142329
617.488	0.0143126
617.567	0.0143883
617.645	0.0143118
617.723	0.0144156
617.801	0.0144167
617.879	0.0142638
617.957	0.0142847
618.035	0.0142249
618.113	0.0143270
618.192	0.0144157
618.270	0.0143359
618.348	0.0142744
618.426	0.0141975
618.504	0.0142426
618.582	0.0142042
618.660	0.0141615
618.738	0.0142726
618.817	0.0142852
618.895	0.0142872
618.973	0.0142461
619.051	0.0143272
619.129	0.0143295
619.207	0.0143163
619.285	0.0142001
619.363	0.0143356
619.442	0.0143155
619.520	0.0142889
619.598	0.0142657
619.676	0.0143564
619.754	0.0143604
619.832	0.0143821
619.910	0.0143828
619.988	0.0143448
620.067	0.0141634
620.145	0.0143722
620.223	0.0141879
620.301	0.0141959
620.379	0.0143790
620.457	0.0143807
620.535	0.0143914
620.613	0.0143209
620.692	0.0142850
620.770	0.0142926
620.848	0.0144219
620.926	0.0143133
621.004	0.0143611
621.082	0.0143842
621.160	0.0141759
621.238	0.0142680
621.317	0.0142710
621.395	0.0142686
621.473	0.0141894
621.551	0.0142992
621.629	0.0141854
621.707	0.0143524
621.785	0.0144268
621.863	0.0142781
621.942	0.0141608
622.020	0.0143172
622.098	0.0142859
622.176	0.0142765
622.254	0.0142558
622.332	0.0142950
622.410	0.0142320
622.488	0.0143604
622.567	0.0143600
622.645	0.0143018
622.723	0.0141549
622.801	0.0143132
622.879	0.0142352
622.957	0.0142075
623.035	0.0142561
623.113	0.0141815
623.192	0.0141370
623.270	0.0144159
623.348	0.0143773
623.426	0.0144601
623.504	0.0142472
623.582	0.0141768
623.660	0.0142650
623.738	0.0142982
623.817	0.0141921
623.895	0.0142517
623.973	0.0141879
624.051	0.0143414
624.129	0.0143292
624.207	0.0143843
624.285	0.0142342
624.363	0.0142390
624.442	0.0143228
624.520	0.0144016
624.598	0.0142489
624.676	0.0144798
624.754	0.0142281
624.832	0.0142994
624.910	0.0142802
624.988	0.0143756
625.067	0.0142152
625.145	0.0143225
625.223	0.0141977
625.301	0.0143430
625.379	0.0143709
625.457	0.0143748
625.535	0.0141867
625.613	0.0144028
625.692	0.0142803
625.770	0.0142188
625.848	0.0143242
625.926	0.0142686
626.004	0.0143146
626.082	0.0142786
626.160	0.0143309
626.238	0.0143848
626.317	0.0143484
626.395	0.0142526
626.473	0.0143249
626.551	0.0142940
626.629	0.0141788
626.707	0.0143192
626.785	0.0142155
626.863	0.0142035
626.942	0.0143474
627.020	0.0142687
627.098	0.0142850
627.176	0.0144289
627.254	0.0143200
627.332	0.0143509
627.410	0.0143642
627.488	0.0142292
627.567	0.0143270
627.645	0.0143196
627.723	0.0142467
627.801	0.0142895
627.879	0.0143291
627.957	0.0141515
628.035	0.0142462
628.113	0.0142982
628.192	0.0142992
628.270	0.0142863
628.348	0.0144534
628.426	0.0144665
628.504	0.0144170
628.582	0.0142250
628.660	0.0142851
628.738	0.0143481
628.817	0.0143205
628.895	0.0143847
628.973	0.0142456
629.051	0.0143285
629.129	0.0142788
629.207	0.0143324
629.285	0.0142078
629.363	0.0142940
629.442	0.0143209
629.520	0.0144131
629.598	0.0143317
629.676	0.0142507
629.754	0.0143443
629.832	0.0143473
629.910	0.0143517
629.988	0.0141042
630.067	0.0143191
630.145	0.0142404
630.223	0.0142897
630.301	0.0144070
630.379	0.0141929
630.457	0.0143165
630.535	0.0141913
630.613	0.0142299
630.692	0.0143793
630.770	0.0143531
630.848	0.0144054
630.926	0.0143021
631.004	0.0142054
631.082	0.0142799
631.160	0.0142358
631.238	0.0142260
631.317	0.0142632
631.395	0.0143243
631.473	0.0142928
631.551	0.0142661
631.629	0.0142964
631.707	0.0140731
631.785	0.0142812
631.863	0.0143701
631.942	0.0143758
632.020	0.0142195
632.098	0.0141442
632.176	0.0144652
632.254	0.0143934
632.332	0.0142341
632.410	0.0142580
632.488	0.0142302
632.567	0.0142637
632.645	0.0143181
632.723	0.0143970
632.801	0.0143244
632.879	0.0142248
632.957	0.0142535
633.035	0.0143420
633.113	0.0143382
633.192	0.0142506
633.270	0.0143604
633.348	0.0142564
633.426	0.0141490
633.504	0.0143135
633.582	0.0142970
633.660	0.0141349
633.738	0.0141778
633.817	0.0142529
633.895	0.0143431
633.973	0.0143827
634.051	0.0143121
634.129	0.0142759
634.207	0.0142292
634.285	0.0141214
634.363	0.0142392
634.442	0.0143251
634.520	0.0141969
634.598	0.0143308
634.676	0.0144748
634.754	0.0142944
634.832	0.0142682
634.910	0.0143865
634.988	0.0142864
635.067	0.0142722
635.145	0.0144269
635.223	0.0144995
635.301	0.0141985
635.379	0.0144152
635.457	0.0143522
635.535	0.0142222
635.613	0.0142704
635.692	0.0143545
635.770	0.0142591
635.848	0.0142315
635.926	0.0142735
636.004	0.0142294
636.082	0.0142184
636.160	0.0142461
636.238	0.0143109
636.317	0.0142637
636.395	0.0143504
636.473	0.0143481
636.551	0.0144778
636.629	0.0142613
636.707	0.0141889
636.785	0.0141755
636.863	0.0143876
636.942	0.0144264
637.020	0.0142773
637.098	0.0143617
637.176	0.0144249
637.254	0.0142538
637.332	0.0141895
637.410	0.0142702
637.488	0.0144061
637.567	0.0142297
637.645	0.0142255
637.723	0.0142508
637.801	0.0143725
637.879	0.0143679
637.957	0.0141669
638.035	0.0142345
638.113	0.0144143
638.192	0.0142070
638.270	0.0143458
638.348	0.0143491
638.426	0.0143573
638.504	0.0141743
638.582	0.0143423
638.660	0.0142606
638.738	0.0141801
638.817	0.0142622
638.895	0.0143672
638.973	0.0143742
639.051	0.0143107
639.129	0.0142686
639.207	0.0143047
639.285	0.0142397
639.363	0.0143008
639.442	0.0144022
639.520	0.0144021
639.598	0.0143241
639.676	0.0143690
639.754	0.0143079
639.832	0.0141617
639.910	0.0142965
639.988	0.0143591
640.067	0.0143758
640.145	0.0142027
640.223	0.0141983
640.301	0.0144095
640.379	0.0142524
640.457	0.0143367
640.535	0.0144258
640.613	0.0142336
640.692	0.0143154
640.770	0.0142592
640.848	0.0142504
640.926	0.0143130
641.004	0.0142639
641.082	0.0143713
641.160	0.0143616
641.238	0.0143375
641.317	0.0142620
641.395	0.0143536
641.473	0.0142519
641.551	0.0143235
641.629	0.0141811
641.707	0.0141895
641.785	0.0141807
641.863	0.0142744
641.942	0.0142271
642.020	0.0142501
642.098	0.0143694
642.176	0.0142870
642.254	0.0142020
642.332	0.0141942
642.410	0.0142535
642.488	0.0142592
642.567	0.0143517
642.645	0.0143551
642.723	0.0143531
642.801	0.0143060
642.879	0.0143421
642.957	0.0143166
643.035	0.0142413
643.113	0.0143005
643.192	0.0142977
643.270	0.0142358
643.348	0.0143629
643.426	0.0141886
643.504	0.0142945
643.582	0.0143461
643.660	0.0143262
643.738	0.0142661
643.817	0.0141198
643.895	0.0142990
643.973	0.0142820
644.051	0.0143288
644.129	0.0143445
644.207	0.0143292
644.285	0.0142382
644.363	0.0144908
644.442	0.0143562
644.520	0.0141927
644.598	0.0143507
644.676	0.0142521
644.754	0.0143307
644.832	0.0143100
644.910	0.0141399
644.988	0.0143514
645.067	0.0143549
645.145	0.0142648
645.223	0.0142788
645.301	0.0141878
645.379	0.0142744
645.457	0.0142961
645.535	0.0143604
645.613	0.0143277
645.692	0.0142334
645.770	0.0142418
645.848	0.0142128
645.926	0.0142472
646.004	0.0143137
646.082	0.0142693
646.160	0.0142286
646.238	0.0142248
646.317	0.0143751
646.395	0.0143050
646.473	0.0142515
646.551	0.0144209
646.629	0.0142900
646.707	0.0143179
646.785	0.0143734
646.863	0.0143574
646.942	0.0143597
647.020	0.0142279
647.098	0.0143604
647.176	0.0141726
647.254	0.0141682
647.332	0.0141851
647.410	0.0143867
647.488	0.0141845
647.567	0.0142757
647.645	0.0143166
647.723	0.0142272
647.801	0.0142746
647.879	0.0143497
647.957	0.0141818
648.035	0.0142693
648.113	0.0143173
648.192	0.0143546
648.270	0.0143118
648.348	0.0142423
648.426	0.0142828
648.504	0.0142804
648.582	0.0142535
648.660	0.0143525
648.738	0.0142501
648.817	0.0142780
648.895	0.0142712
648.973	0.0142278
649.051	0.0143808
649.129	0.0142894
649.207	0.0143547
649.285	0.0142904
649.363	0.0143478
649.442	0.0143530
649.520	0.0143092
649.598	0.0142326
649.676	0.0143808
649.754	0.0142784
649.832	0.0142996
649.910	0.0143242
649.988	0.0143497
650.067	0.0143665
650.145	0.0143357
650.223	0.0142654
650.301	0.0143597
650.379	0.0142184
650.457	0.0143274
650.535	0.0143924
650.613	0.0142579
650.692	0.0142938
650.770	0.0142580
650.848	0.0144035
650.926	0.0144749
651.004	0.0143104
651.082	0.0143273
651.160	0.0143162
651.238	0.0144131
651.317	0.0143017
651.395	0.0143063
651.473	0.0143307
651.551	0.0144238
651.629	0.0143821
651.707	0.0143567
651.785	0.0142582
651.863	0.0142809
651.942	0.0142863
652.020	0.0143318
652.098	0.0144002
652.176	0.0143553
652.254	0.0142401
652.332	0.0143009
652.410	0.0142356
652.488	0.0142695
652.567	0.0143370
652.645	0.0143354
652.723	0.0143428
652.801	0.0143008
652.879	0.0142690
652.957	0.0144151
653.035	0.0143385
653.113	0.0141623
653.192	0.0142003
653.270	0.0144003
653.348	0.0143715
653.426	0.0143365
653.504	0.0144130
653.582	0.0143091
653.660	0.0141203
653.738	0.0142963
653.817	0.0143388
653.895	0.0142489
653.973	0.0142887
654.051	0.0142149
654.129	0.0142645
654.207	0.0143756
654.285	0.0144135
654.363	0.0142297
654.442	0.0143338
654.520	0.0142026
654.598	0.0142342
654.676	0.0142175
654.754	0.0143091
654.832	0.0143140
654.910	0.0142341
654.988	0.0143426
655.067	0.0142536
655.145	0.0143124
655.223	0.0143881
655.301	0.0143018
655.379	0.0144328
655.457	0.0144247
655.535	0.0142133
655.613	0.0142868
655.692	0.0142931
655.770	0.0143159
655.848	0.0141914
655.926	0.0141701
656.004	0.0142298
656.082	0.0142215
656.160	0.0142188
656.238	0.0143872
656.317	0.0143314
656.395	0.0142719
656.473	0.0142903
656.551	0.0143043
656.629	0.0143057
656.707	0.0141813
656.785	0.0142975
656.863	0.0142609
656.942	0.0143077
657.020	0.0142588
657.098	0.0143793
657.176	0.0143359
657.254	0.0144064
657.332	0.0143887
657.410	0.0143376
657.488	0.0142527
657.567	0.0142481
657.645	0.0142679
657.723	0.0144242
657.801	0.0142626
657.879	0.0142297
657.957	0.0142152
658.035	0.0142087
658.113	0.0143352
658.192	0.0143226
658.270	0.0142215
658.348	0.0141596
658.426	0.0142274
658.504	0.0142752
658.582	0.0142817
658.660	0.0142534
658.738	0.0142703
658.817	0.0142379
658.895	0.0143671
658.973	0.0141969
659.051	0.0143543
659.129	0.0142618
659.207	0.0141365
659.285	0.0142574
659.363	0.0141907
659.442	0.0141978
659.520	0.0143354
659.598	0.0142921
659.676	0.0143095
659.754	0.0141575
659.832	0.0142382
659.910	0.0141479
659.988	0.0142221
660.067	0.0143195
660.145	0.0141484
660.223	0.0142374
660.301	0.0143240
660.379	0.0141982
660.457	0.0142657
660.535	0.0142272
660.613	0.0142434
660.692	0.0141833
660.770	0.0141215
660.848	0.0140882
660.926	0.0142218
661.004	0.0142801
661.082	0.0142220
661.160	0.0142562
661.238	0.0142906
661.317	0.0142372
661.395	0.0143036
661.473	0.0142535
661.551	0.0142744
661.629	0.0141589
661.707	0.0142751
661.785	0.0143318
661.863	0.0141214
661.942	0.0142094
662.020	0.0143227
662.098	0.0143174
662.176	0.0142643
662.254	0.0141939
662.332	0.0141927
662.410	0.0142165
662.488	0.0143922
662.567	0.0143249
662.645	0.0143900
662.723	0.0143040
662.801	0.0143723
662.879	0.0143330
662.957	0.0143018
663.035	0.0143309
663.113	0.0143072
663.192	0.0143228
663.270	0.0143042
663.348	0.0142159
663.426	0.0142501
663.504	0.0142385
663.582	0.0141631
663.660	0.0142587
663.738	0.0143262
663.817	0.0143886
663.895	0.0142219
663.973	0.0141883
664.051	0.0142952
664.129	0.0142361
664.207	0.0142786
664.285	0.0142167
664.363	0.0142489
664.442	0.0143060
664.520	0.0141891
664.598	0.0143595
664.676	0.0143128
664.754	0.0142093
664.832	0.0142911
664.910	0.0142559
664.988	0.0142876
665.067	0.0143059
665.145	0.0141883
665.223	0.0141772
665.301	0.0141757
665.379	0.0142748
665.457	0.0142654
665.535	0.0143611
665.613	0.0143449
665.692	0.0143099
665.770	0.0143225
665.848	0.0143859
665.926	0.0144704
666.004	0.0143925
666.082	0.0143604
666.160	0.0144198
666.238	0.0144153
666.317	0.0144575
666.395	0.0144176
666.473	0.0144933
666.551	0.0144606
666.629	0.0143348
666.707	0.0143449
666.785	0.0143472
666.863	0.0144000
666.942	0.0143904
667.020	0.0141424
667.098	0.0143388
667.176	0.0143891
667.254	0.0143048
667.332	0.0141291
667.410	0.0142278
667.488	0.0142165
667.567	0.0141869
667.645	0.0141351
667.723	0.0142622
667.801	0.0140835
667.879	0.0141214
667.957	0.0141327
668.035	0.0142970
668.113	0.0142494
668.192	0.0143970
668.270	0.0143478
668.348	0.0144090
668.426	0.0144430
668.504	0.0147124
668.582	0.0145853
668.660	0.0147208
668.738	0.0149332
668.817	0.0149423
668.895	0.0148425
668.973	0.0147438
669.051	0.0148244
669.129	0.0147066
669.207	0.0147565
669.285	0.0146024
669.363	0.0146545
669.442	0.0144745
669.520	0.0142435
669.598	0.0140441
669.676	0.0139722
669.754	0.0138093
669.832	0.0135267
669.910	0.0135062
669.988	0.0132819
670.067	0.0134548
670.145	0.0132610
670.223	0.0134319
670.301	0.0135334
670.379	0.0135880
670.457	0.0137726
670.535	0.0139128
670.613	0.0140649
670.692	0.0142412
670.770	0.0141061
670.848	0.0142841
670.926	0.0143327
671.004	0.0145390
671.082	0.0146028
671.160	0.0146046
671.238	0.0146656
671.317	0.0147334
671.395	0.0148135
671.473	0.0148251
671.551	0.0147994
671.629	0.0148217
671.707	0.0147360
671.785	0.0147003
671.863	0.0146536
671.942	0.0145281
672.020	0.0145639
672.098	0.0145506
672.176	0.0145386
672.254	0.0146392
672.332	0.0147080
672.410	0.0147636
672.488	0.0148718
672.567	0.0148148
672.645	0.0148783
672.723	0.0149783
672.801	0.0149464
672.879	0.0149442
672.957	0.0148783
673.035	0.0148128
673.113	0.0147233
673.192	0.0147948
673.270	0.0145442
673.348	0.0142700
673.426	0.0140984
673.504	0.0139238
673.582	0.0137553
673.660	0.0136681
673.738	0.0133034
673.817	0.0131400
673.895	0.0129348
673.973	0.0129996
674.051	0.0131471
674.129	0.0130373
674.207	0.0129776
674.285	0.0130949
674.363	0.0131873
674.442	0.0131342
674.520	0.0134010
674.598	0.0135590
674.676	0.0135856
674.754	0.0137666
674.832	0.0137541
674.910	0.0140085
674.988	0.0141927
675.067	0.0143530
675.145	0.0145943
675.223	0.0149020
675.301	0.0150436
675.379	0.0153260
675.457	0.0154263
675.535	0.0155299
675.613	0.0156471
675.692	0.0156489
675.770	0.0156075
675.848	0.0156150
675.926	0.0152927
676.004	0.0153146
676.082	0.0151271
676.160	0.0149342
676.238	0.0147329
676.317	0.0147012
676.395	0.0148544
676.473	0.0149249
676.551	0.0147982
676.629	0.0148643
676.707	0.0148774
676.785	0.0149527
676.863	0.0150204
676.942	0.0149743
677.020	0.0148688
677.098	0.0148685
677.176	0.0147099
677.254	0.0146602
677.332	0.0146181
677.410	0.0146219
677.488	0.0142629
677.567	0.0141477
677.645	0.0141782
677.723	0.0139236
677.801	0.0137172
677.879	0.0134928
677.957	0.0133873
678.035	0.0133300
678.113	0.0131461
678.192	0.0129598
678.270	0.0128179
678.348	0.0127864
678.426	0.0124581
678.504	0.0124284
678.582	0.0121657
678.660	0.0121252
678.738	0.0120398
678.817	0.0120060
678.895	0.0121054
678.973	0.0121247
679.051	0.0123006
679.129	0.0125446
679.207	0.0127183
679.285	0.0130098
679.363	0.0134527
679.442	0.0139220
679.520	0.0143549
679.598	0.0147299
679.676	0.0152534
679.754	0.0157642
679.832	0.0161559
679.910	0.0166537
679.988	0.0168562
680.067	0.0170213
680.145	0.0172067
680.223	0.0171394
680.301	0.0171289
680.379	0.0171064
680.457	0.0167818
680.535	0.0167117
680.613	0.0164536
680.692	0.0160557
680.770	0.0158989
680.848	0.0157046
680.926	0.0154964
681.004	0.0151323
681.082	0.0148815
681.160	0.0147908
681.238	0.0146877
681.317	0.0144163
681.395	0.0141689
681.473	0.0139165
681.551	0.0138383
681.629	0.0136449
681.707	0.0136235
681.785	0.0135928
681.863	0.0135229
681.942	0.0135152
682.020	0.0136873
682.098	0.0137910
682.176	0.0139350
682.254	0.0139536
682.332	0.0137503
682.410	0.0137859
682.488	0.0138020
682.567	0.0136337
682.645	0.0134499
682.723	0.0133786
682.801	0.0133026
682.879	0.0131151
682.957	0.0131452
683.035	0.0131622
683.113	0.0128732
683.192	0.0129362
683.270	0.0127272
683.348	0.0126144
683.426	0.0125154
683.504	0.0123628
683.582	0.0124258
683.660	0.0124493
683.738	0.0124847
683.817	0.0127216
683.895	0.0128464
683.973	0.0129653
684.051	0.0130534
684.129	0.0132912
684.207	0.0136280
684.285	0.0140871
684.363	0.0143544
684.442	0.0146619
684.520	0.0148722
684.598	0.0151206
684.676	0.0154898
684.754	0.0156022
684.832	0.0156899
684.910	0.0158084
684.988	0.0160471
685.067	0.0162265
685.145	0.0162666
685.223	0.0166140
685.301	0.0166010
685.379	0.0166989
685.457	0.0166725
685.535	0.0167240
685.613	0.0168337
685.692	0.0167305
