05/28/2022	14:07:16	Ver.	4.1	UNKNOWN
Optical Delay	599.988409	Delta X		0.078125	Sweeps	1	Scan Rate	0/0
Coordinates	Axis 1	NaN	Axis 2	NaN	Axis 3	NaN	Axis 4	NaN	Axis 5	NaN	Axis 6	0.000000
TX Power	0.000000	RX Power	0.000000

599.988	0.0141866
600.067	0.0140058
600.145	0.0141964
600.223	0.0141348
600.301	0.0141147
600.379	0.0141970
600.457	0.0143842
600.535	0.0141948
600.613	0.0140745
600.692	0.0142023
600.770	0.0141793
600.848	0.0141636
600.926	0.0141985
601.004	0.0141528
601.082	0.0143117
601.160	0.0141455
601.238	0.0141784
601.317	0.0141702
601.395	0.0140760
601.473	0.0142325
601.551	0.0141326
601.629	0.0141962
601.707	0.0142878
601.785	0.0141941
601.863	0.0140853
601.942	0.0143051
602.020	0.0143028
602.098	0.0142781
602.176	0.0142159
602.254	0.0141929
602.332	0.0142704
602.410	0.0142153
602.488	0.0142156
602.567	0.0143256
602.645	0.0142568
602.723	0.0141936
602.801	0.0141647
602.879	0.0141515
602.957	0.0142393
603.035	0.0141943
603.113	0.0142766
603.192	0.0140804
603.270	0.0142622
603.348	0.0142463
603.426	0.0142196
603.504	0.0142180
603.582	0.0142377
603.660	0.0141882
603.738	0.0141988
603.817	0.0142634
603.895	0.0141016
603.973	0.0141643
604.051	0.0142739
604.129	0.0142226
604.207	0.0141615
604.285	0.0142271
604.363	0.0140656
604.442	0.0141407
604.520	0.0142517
604.598	0.0140926
604.676	0.0141637
604.754	0.0142485
604.832	0.0141875
604.910	0.0141928
604.988	0.0141326
605.067	0.0140926
605.145	0.0143126
605.223	0.0141183
605.301	0.0140802
605.379	0.0143093
605.457	0.0142013
605.535	0.0141991
605.613	0.0143225
605.692	0.0142574
605.770	0.0141822
605.848	0.0141314
605.926	0.0142355
606.004	0.0141037
606.082	0.0141618
606.160	0.0140852
606.238	0.0141765
606.317	0.0142648
606.395	0.0142879
606.473	0.0142216
606.551	0.0142575
606.629	0.0141074
606.707	0.0142058
606.785	0.0141342
606.863	0.0141123
606.942	0.0142556
607.020	0.0142278
607.098	0.0142419
607.176	0.0141427
607.254	0.0141182
607.332	0.0141543
607.410	0.0141750
607.488	0.0142494
607.567	0.0141483
607.645	0.0142017
607.723	0.0142935
607.801	0.0143140
607.879	0.0141557
607.957	0.0141158
608.035	0.0141799
608.113	0.0142796
608.192	0.0142892
608.270	0.0141614
608.348	0.0142589
608.426	0.0142807
608.504	0.0142255
608.582	0.0140564
608.660	0.0143486
608.738	0.0142946
608.817	0.0141533
608.895	0.0141109
608.973	0.0142405
609.051	0.0142365
609.129	0.0142050
609.207	0.0143394
609.285	0.0143224
609.363	0.0142174
609.442	0.0141529
609.520	0.0142773
609.598	0.0140878
609.676	0.0141846
609.754	0.0142427
609.832	0.0141244
609.910	0.0141774
609.988	0.0140789
610.067	0.0141237
610.145	0.0141612
610.223	0.0142271
610.301	0.0142102
610.379	0.0141692
610.457	0.0142582
610.535	0.0143513
610.613	0.0141722
610.692	0.0142446
610.770	0.0142274
610.848	0.0141402
610.926	0.0142451
611.004	0.0141001
611.082	0.0142276
611.160	0.0140821
611.238	0.0142704
611.317	0.0142481
611.395	0.0140901
611.473	0.0141946
611.551	0.0142010
611.629	0.0142972
611.707	0.0141793
611.785	0.0142092
611.863	0.0142455
611.942	0.0141532
612.020	0.0142334
612.098	0.0141032
612.176	0.0141925
612.254	0.0142473
612.332	0.0142655
612.410	0.0142108
612.488	0.0141300
612.567	0.0141662
612.645	0.0141026
612.723	0.0141927
612.801	0.0141946
612.879	0.0142099
612.957	0.0142536
613.035	0.0142356
613.113	0.0142331
613.192	0.0141831
613.270	0.0141466
613.348	0.0141517
613.426	0.0142004
613.504	0.0142178
613.582	0.0141895
613.660	0.0142297
613.738	0.0141117
613.817	0.0140628
613.895	0.0142844
613.973	0.0142351
614.051	0.0142353
614.129	0.0141988
614.207	0.0141922
614.285	0.0140253
614.363	0.0142393
614.442	0.0142036
614.520	0.0142323
614.598	0.0142538
614.676	0.0140691
614.754	0.0141032
614.832	0.0140594
614.910	0.0140938
614.988	0.0142885
615.067	0.0142168
615.145	0.0141115
615.223	0.0142515
615.301	0.0142567
615.379	0.0142053
615.457	0.0142512
615.535	0.0141829
615.613	0.0141854
615.692	0.0141477
615.770	0.0143811
615.848	0.0141127
615.926	0.0142914
616.004	0.0142397
616.082	0.0141788
616.160	0.0143232
616.238	0.0141270
616.317	0.0141128
616.395	0.0142220
616.473	0.0140909
616.551	0.0142168
616.629	0.0141438
616.707	0.0141837
616.785	0.0142295
616.863	0.0141666
616.942	0.0142175
617.020	0.0143376
617.098	0.0142716
617.176	0.0141399
617.254	0.0142706
617.332	0.0142314
617.410	0.0141368
617.488	0.0141118
617.567	0.0141818
617.645	0.0142641
617.723	0.0142272
617.801	0.0142500
617.879	0.0142593
617.957	0.0140992
618.035	0.0142934
618.113	0.0141930
618.192	0.0140486
618.270	0.0142773
618.348	0.0142969
618.426	0.0141026
618.504	0.0141088
618.582	0.0142157
618.660	0.0141721
618.738	0.0142256
618.817	0.0142453
618.895	0.0142052
618.973	0.0141663
619.051	0.0142729
619.129	0.0141454
619.207	0.0141772
619.285	0.0142408
619.363	0.0140240
619.442	0.0143183
619.520	0.0141355
619.598	0.0141173
619.676	0.0142544
619.754	0.0141808
619.832	0.0141410
619.910	0.0142892
619.988	0.0142147
620.067	0.0141989
620.145	0.0141386
620.223	0.0141773
620.301	0.0143047
620.379	0.0141662
620.457	0.0141321
620.535	0.0141850
620.613	0.0141669
620.692	0.0141745
620.770	0.0142091
620.848	0.0142216
620.926	0.0143748
621.004	0.0143047
621.082	0.0142440
621.160	0.0142972
621.238	0.0142068
621.317	0.0140926
621.395	0.0141899
621.473	0.0140501
621.551	0.0142022
621.629	0.0141412
621.707	0.0142210
621.785	0.0141380
621.863	0.0140180
621.942	0.0141072
622.020	0.0141781
622.098	0.0142875
622.176	0.0140623
622.254	0.0141127
622.332	0.0142316
622.410	0.0141116
622.488	0.0140963
622.567	0.0142334
622.645	0.0141064
622.723	0.0141434
622.801	0.0140275
622.879	0.0141934
622.957	0.0141306
623.035	0.0142142
623.113	0.0142324
623.192	0.0142108
623.270	0.0140895
623.348	0.0141251
623.426	0.0141862
623.504	0.0142664
623.582	0.0141222
623.660	0.0140205
623.738	0.0140874
623.817	0.0143661
623.895	0.0142175
623.973	0.0141813
624.051	0.0143420
624.129	0.0143314
624.207	0.0142867
624.285	0.0141308
624.363	0.0141524
624.442	0.0142342
624.520	0.0140639
624.598	0.0141343
624.676	0.0142157
624.754	0.0141901
624.832	0.0144087
624.910	0.0142890
624.988	0.0141840
625.067	0.0141305
625.145	0.0142262
625.223	0.0141664
625.301	0.0141875
625.379	0.0141570
625.457	0.0142076
625.535	0.0141341
625.613	0.0143079
625.692	0.0142159
625.770	0.0142914
625.848	0.0141528
625.926	0.0141090
626.004	0.0142409
626.082	0.0142253
626.160	0.0142602
626.238	0.0141372
626.317	0.0142172
626.395	0.0141261
626.473	0.0140448
626.551	0.0141260
626.629	0.0141915
626.707	0.0141625
626.785	0.0141590
626.863	0.0142307
626.942	0.0141637
627.020	0.0140901
627.098	0.0140228
627.176	0.0141151
627.254	0.0143542
627.332	0.0141163
627.410	0.0142190
627.488	0.0140462
627.567	0.0140624
627.645	0.0141959
627.723	0.0142361
627.801	0.0141154
627.879	0.0142003
627.957	0.0143484
628.035	0.0141912
628.113	0.0142284
628.192	0.0140894
628.270	0.0143025
628.348	0.0141787
628.426	0.0142557
628.504	0.0141647
628.582	0.0140535
628.660	0.0141360
628.738	0.0142912
628.817	0.0141870
628.895	0.0142101
628.973	0.0140925
629.051	0.0140876
629.129	0.0141941
629.207	0.0141873
629.285	0.0142421
629.363	0.0141248
629.442	0.0140759
629.520	0.0142428
629.598	0.0142804
629.676	0.0141714
629.754	0.0141438
629.832	0.0141234
629.910	0.0140977
629.988	0.0141093
630.067	0.0141226
630.145	0.0141525
630.223	0.0142455
630.301	0.0141116
630.379	0.0141469
630.457	0.0142896
630.535	0.0141689
630.613	0.0140935
630.692	0.0142248
630.770	0.0141692
630.848	0.0141760
630.926	0.0143037
631.004	0.0143714
631.082	0.0141978
631.160	0.0141243
631.238	0.0141801
631.317	0.0140770
631.395	0.0142709
631.473	0.0143830
631.551	0.0141647
631.629	0.0142173
631.707	0.0140398
631.785	0.0141777
631.863	0.0142287
631.942	0.0142271
632.020	0.0141848
632.098	0.0142697
632.176	0.0143056
632.254	0.0142046
632.332	0.0142766
632.410	0.0142128
632.488	0.0141373
632.567	0.0141901
632.645	0.0142500
632.723	0.0141093
632.801	0.0142741
632.879	0.0141876
632.957	0.0142512
633.035	0.0141070
633.113	0.0142279
633.192	0.0142513
633.270	0.0141492
633.348	0.0143245
633.426	0.0141484
633.504	0.0141196
633.582	0.0142867
633.660	0.0142363
633.738	0.0142799
633.817	0.0141125
633.895	0.0141572
633.973	0.0141267
634.051	0.0141431
634.129	0.0142617
634.207	0.0141637
634.285	0.0141355
634.363	0.0141361
634.442	0.0142142
634.520	0.0141648
634.598	0.0141619
634.676	0.0141309
634.754	0.0142141
634.832	0.0141199
634.910	0.0141918
634.988	0.0142642
635.067	0.0141216
635.145	0.0140557
635.223	0.0141621
635.301	0.0141888
635.379	0.0141448
635.457	0.0141251
635.535	0.0140892
635.613	0.0143391
635.692	0.0141665
635.770	0.0141727
635.848	0.0141179
635.926	0.0140270
636.004	0.0142444
636.082	0.0140784
636.160	0.0141493
636.238	0.0141817
636.317	0.0140804
636.395	0.0141537
636.473	0.0141394
636.551	0.0141795
636.629	0.0141871
636.707	0.0142561
636.785	0.0142868
636.863	0.0141757
636.942	0.0141473
637.020	0.0143094
637.098	0.0142853
637.176	0.0141844
637.254	0.0142553
637.332	0.0141717
637.410	0.0141238
637.488	0.0141075
637.567	0.0143684
637.645	0.0142562
637.723	0.0140851
637.801	0.0141847
637.879	0.0142666
637.957	0.0142429
638.035	0.0142445
638.113	0.0143040
638.192	0.0142196
638.270	0.0142224
638.348	0.0142706
638.426	0.0141789
638.504	0.0140908
638.582	0.0142262
638.660	0.0141696
638.738	0.0142387
638.817	0.0141787
638.895	0.0142340
638.973	0.0141289
639.051	0.0140926
639.129	0.0141743
639.207	0.0141566
639.285	0.0140940
639.363	0.0142424
639.442	0.0143547
639.520	0.0141985
639.598	0.0141415
639.676	0.0141091
639.754	0.0141213
639.832	0.0141640
639.910	0.0140743
639.988	0.0140369
640.067	0.0141862
640.145	0.0143073
640.223	0.0142365
640.301	0.0140985
640.379	0.0141968
640.457	0.0141116
640.535	0.0141615
640.613	0.0142362
640.692	0.0140863
640.770	0.0142044
640.848	0.0140484
640.926	0.0139857
641.004	0.0142082
641.082	0.0142293
641.160	0.0141277
641.238	0.0141343
641.317	0.0141259
641.395	0.0141348
641.473	0.0141466
641.551	0.0141347
641.629	0.0140959
641.707	0.0141673
641.785	0.0141089
641.863	0.0141609
641.942	0.0140892
642.020	0.0141383
642.098	0.0141694
642.176	0.0139658
642.254	0.0140867
642.332	0.0143270
642.410	0.0140476
642.488	0.0142366
642.567	0.0140664
642.645	0.0141238
642.723	0.0141112
642.801	0.0140088
642.879	0.0141269
642.957	0.0141981
643.035	0.0141945
643.113	0.0141000
643.192	0.0141708
643.270	0.0141997
643.348	0.0140949
643.426	0.0141228
643.504	0.0141782
643.582	0.0141239
643.660	0.0141303
643.738	0.0141786
643.817	0.0140208
643.895	0.0139858
643.973	0.0140967
644.051	0.0142214
644.129	0.0142104
644.207	0.0139677
644.285	0.0142078
644.363	0.0142640
644.442	0.0141226
644.520	0.0141462
644.598	0.0142024
644.676	0.0141859
644.754	0.0141100
644.832	0.0142390
644.910	0.0142428
644.988	0.0142125
645.067	0.0141651
645.145	0.0140997
645.223	0.0141551
645.301	0.0141173
645.379	0.0140961
645.457	0.0144167
645.535	0.0140836
645.613	0.0139281
645.692	0.0141121
645.770	0.0142307
645.848	0.0142799
645.926	0.0141444
646.004	0.0140509
646.082	0.0140417
646.160	0.0141547
646.238	0.0140938
646.317	0.0141716
646.395	0.0142002
646.473	0.0141448
646.551	0.0141787
646.629	0.0142289
646.707	0.0140816
646.785	0.0142677
646.863	0.0140722
646.942	0.0141440
647.020	0.0141035
647.098	0.0141690
647.176	0.0140822
647.254	0.0140054
647.332	0.0141319
647.410	0.0141898
647.488	0.0140567
647.567	0.0140871
647.645	0.0142448
647.723	0.0141810
647.801	0.0141403
647.879	0.0140555
647.957	0.0142266
648.035	0.0141020
648.113	0.0141364
648.192	0.0141023
648.270	0.0142252
648.348	0.0141869
648.426	0.0142101
648.504	0.0141261
648.582	0.0140955
648.660	0.0141119
648.738	0.0141315
648.817	0.0140529
648.895	0.0140737
648.973	0.0141319
649.051	0.0141771
649.129	0.0141647
649.207	0.0141386
649.285	0.0141409
649.363	0.0141328
649.442	0.0143108
649.520	0.0140911
649.598	0.0141332
649.676	0.0142390
649.754	0.0140837
649.832	0.0141300
649.910	0.0141705
649.988	0.0140881
650.067	0.0140848
650.145	0.0140399
650.223	0.0140998
650.301	0.0141721
650.379	0.0142635
650.457	0.0141974
650.535	0.0141209
650.613	0.0141686
650.692	0.0141750
650.770	0.0139979
650.848	0.0142126
650.926	0.0142421
651.004	0.0143147
651.082	0.0141265
651.160	0.0141540
651.238	0.0142002
651.317	0.0142060
651.395	0.0140898
651.473	0.0141838
651.551	0.0142036
651.629	0.0141151
651.707	0.0142271
651.785	0.0141361
651.863	0.0142411
651.942	0.0141425
652.020	0.0141846
652.098	0.0142617
652.176	0.0141766
652.254	0.0141367
652.332	0.0140566
652.410	0.0142250
652.488	0.0141895
652.567	0.0142283
652.645	0.0142512
652.723	0.0140221
652.801	0.0142499
652.879	0.0141985
652.957	0.0142155
653.035	0.0142426
653.113	0.0141170
653.192	0.0141733
653.270	0.0141477
653.348	0.0142954
653.426	0.0142246
653.504	0.0141587
653.582	0.0140582
653.660	0.0140932
653.738	0.0143813
653.817	0.0142813
653.895	0.0141689
653.973	0.0142249
654.051	0.0141670
654.129	0.0142128
654.207	0.0143633
654.285	0.0142021
654.363	0.0141307
654.442	0.0142410
654.520	0.0141743
654.598	0.0142081
654.676	0.0142455
654.754	0.0141470
654.832	0.0141415
654.910	0.0142520
654.988	0.0142087
655.067	0.0139930
655.145	0.0142670
655.223	0.0140717
655.301	0.0142188
655.379	0.0142460
655.457	0.0141328
655.535	0.0140214
655.613	0.0140406
655.692	0.0140688
655.770	0.0143692
655.848	0.0141388
655.926	0.0140614
656.004	0.0141817
656.082	0.0141206
656.160	0.0140869
656.238	0.0141209
656.317	0.0141606
656.395	0.0142468
656.473	0.0140491
656.551	0.0140997
656.629	0.0141375
656.707	0.0142269
656.785	0.0141547
656.863	0.0141382
656.942	0.0140931
657.020	0.0141778
657.098	0.0142866
657.176	0.0142426
657.254	0.0142712
657.332	0.0141245
657.410	0.0141895
657.488	0.0142108
657.567	0.0141992
657.645	0.0141165
657.723	0.0141691
657.801	0.0142588
657.879	0.0143085
657.957	0.0142859
658.035	0.0142668
658.113	0.0142149
658.192	0.0142345
658.270	0.0141146
658.348	0.0141853
658.426	0.0142683
658.504	0.0142371
658.582	0.0143375
658.660	0.0142248
658.738	0.0142129
658.817	0.0142271
658.895	0.0141191
658.973	0.0142875
659.051	0.0142103
659.129	0.0141711
659.207	0.0141607
659.285	0.0141290
659.363	0.0141940
659.442	0.0140596
659.520	0.0142789
659.598	0.0141785
659.676	0.0142118
659.754	0.0142450
659.832	0.0140912
659.910	0.0140403
659.988	0.0140451
660.067	0.0142560
660.145	0.0141664
660.223	0.0140026
660.301	0.0141209
660.379	0.0142357
660.457	0.0142866
660.535	0.0141451
660.613	0.0140968
660.692	0.0141871
660.770	0.0141572
660.848	0.0141010
660.926	0.0141157
661.004	0.0141581
661.082	0.0141905
661.160	0.0141401
661.238	0.0141148
661.317	0.0140704
661.395	0.0142058
661.473	0.0141579
661.551	0.0141347
661.629	0.0141106
661.707	0.0143042
661.785	0.0141810
661.863	0.0140681
661.942	0.0142761
662.020	0.0142254
662.098	0.0139234
662.176	0.0141600
662.254	0.0142106
662.332	0.0142503
662.410	0.0141418
662.488	0.0140814
662.567	0.0142915
662.645	0.0141732
662.723	0.0141658
662.801	0.0141221
662.879	0.0143064
662.957	0.0142432
663.035	0.0142656
663.113	0.0142978
663.192	0.0141885
663.270	0.0141821
663.348	0.0143139
663.426	0.0143288
663.504	0.0142483
663.582	0.0142035
663.660	0.0142542
663.738	0.0143108
663.817	0.0142704
663.895	0.0143568
663.973	0.0144411
664.051	0.0141558
664.129	0.0141315
664.207	0.0142680
664.285	0.0141950
664.363	0.0141659
664.442	0.0141066
664.520	0.0142203
664.598	0.0141685
664.676	0.0142482
664.754	0.0141100
664.832	0.0141029
664.910	0.0140766
664.988	0.0139659
665.067	0.0139499
665.145	0.0141772
665.223	0.0142438
665.301	0.0140183
665.379	0.0140765
665.457	0.0140790
665.535	0.0142217
665.613	0.0141539
665.692	0.0142190
665.770	0.0143976
665.848	0.0143643
665.926	0.0145355
666.004	0.0144409
666.082	0.0144190
666.160	0.0145688
666.238	0.0144939
666.317	0.0145112
666.395	0.0145009
666.473	0.0146297
666.551	0.0145997
666.629	0.0142806
666.707	0.0143158
666.785	0.0143296
666.863	0.0141952
666.942	0.0140035
667.020	0.0138843
667.098	0.0135970
667.176	0.0135686
667.254	0.0133749
667.332	0.0134009
667.410	0.0134497
667.488	0.0134020
667.567	0.0134957
667.645	0.0134099
667.723	0.0134842
667.801	0.0137928
667.879	0.0138364
667.957	0.0139254
668.035	0.0139863
668.113	0.0140948
668.192	0.0142966
668.270	0.0142267
668.348	0.0141923
668.426	0.0143748
668.504	0.0143495
668.582	0.0145010
668.660	0.0144205
668.738	0.0146062
668.817	0.0145036
668.895	0.0144291
668.973	0.0144997
669.051	0.0145475
669.129	0.0145470
669.207	0.0143478
669.285	0.0144244
669.363	0.0144176
669.442	0.0142706
669.520	0.0143345
669.598	0.0144246
669.676	0.0141877
669.754	0.0144644
669.832	0.0145154
669.910	0.0145271
669.988	0.0145416
670.067	0.0146319
670.145	0.0147398
670.223	0.0146107
670.301	0.0146336
670.379	0.0146787
670.457	0.0145654
670.535	0.0144782
670.613	0.0144077
670.692	0.0142094
670.770	0.0140601
670.848	0.0139510
670.926	0.0135911
671.004	0.0136322
671.082	0.0134262
671.160	0.0132469
671.238	0.0132211
671.317	0.0131287
671.395	0.0132058
671.473	0.0129149
671.551	0.0128987
671.629	0.0131016
671.707	0.0129628
671.785	0.0132584
671.863	0.0132190
671.942	0.0132944
672.020	0.0134169
672.098	0.0133337
672.176	0.0135458
672.254	0.0136952
672.332	0.0140055
672.410	0.0141479
672.488	0.0142352
672.567	0.0145383
672.645	0.0149590
672.723	0.0150195
672.801	0.0152253
672.879	0.0153212
672.957	0.0153323
673.035	0.0153248
673.113	0.0151971
673.192	0.0152751
673.270	0.0149800
673.348	0.0148149
673.426	0.0148177
673.504	0.0148238
673.582	0.0146561
673.660	0.0146938
673.738	0.0146628
673.817	0.0145824
673.895	0.0147143
673.973	0.0146833
674.051	0.0146095
674.129	0.0146438
674.207	0.0144781
674.285	0.0144191
674.363	0.0144746
674.442	0.0143923
674.520	0.0143424
674.598	0.0143687
674.676	0.0142994
674.754	0.0143037
674.832	0.0141534
674.910	0.0141892
674.988	0.0141002
675.067	0.0141185
675.145	0.0140532
675.223	0.0138779
675.301	0.0136393
675.379	0.0136479
675.457	0.0133968
675.535	0.0131503
675.613	0.0130071
675.692	0.0128181
675.770	0.0127813
675.848	0.0123941
675.926	0.0124432
676.004	0.0124680
676.082	0.0123042
676.160	0.0123599
676.238	0.0123776
676.317	0.0124483
676.395	0.0124135
676.473	0.0127134
676.551	0.0129233
676.629	0.0131319
676.707	0.0133650
676.785	0.0138001
676.863	0.0141646
676.942	0.0144637
677.020	0.0147843
677.098	0.0149493
677.176	0.0152046
677.254	0.0154303
677.332	0.0156182
677.410	0.0156500
677.488	0.0158362
677.567	0.0157738
677.645	0.0157790
677.723	0.0157520
677.801	0.0155484
677.879	0.0156470
677.957	0.0155881
678.035	0.0156454
678.113	0.0156746
678.192	0.0155199
678.270	0.0155663
678.348	0.0156973
678.426	0.0154671
678.504	0.0154614
678.582	0.0153522
678.660	0.0152233
678.738	0.0150264
678.817	0.0149310
678.895	0.0146407
678.973	0.0145126
679.051	0.0144733
679.129	0.0142676
679.207	0.0141959
679.285	0.0140912
679.363	0.0138010
679.442	0.0137584
679.520	0.0137119
679.598	0.0134818
679.676	0.0133021
679.754	0.0129188
679.832	0.0127798
679.910	0.0126312
679.988	0.0124214
680.067	0.0122915
680.145	0.0124475
680.223	0.0122329
680.301	0.0122697
680.379	0.0124310
680.457	0.0122009
680.535	0.0123879
680.613	0.0126743
680.692	0.0127878
680.770	0.0127109
680.848	0.0128557
680.926	0.0132240
681.004	0.0133139
681.082	0.0132505
681.160	0.0135285
681.238	0.0139392
681.317	0.0140574
681.395	0.0143381
681.473	0.0146387
681.551	0.0147547
681.629	0.0149007
681.707	0.0150691
681.785	0.0150938
681.863	0.0149641
681.942	0.0148573
682.020	0.0147244
682.098	0.0147768
682.176	0.0147514
682.254	0.0144273
682.332	0.0144344
682.410	0.0143701
682.488	0.0142633
682.567	0.0143792
682.645	0.0143661
682.723	0.0145245
682.801	0.0147749
682.879	0.0150241
682.957	0.0152405
683.035	0.0154608
683.113	0.0157271
683.192	0.0160920
683.270	0.0162722
683.348	0.0164678
683.426	0.0166517
683.504	0.0167217
683.582	0.0167123
683.660	0.0166072
683.738	0.0164553
683.817	0.0162565
683.895	0.0158170
683.973	0.0155716
684.051	0.0151627
684.129	0.0147351
684.207	0.0144112
684.285	0.0141170
684.363	0.0137240
684.442	0.0133441
684.520	0.0129920
684.598	0.0126558
684.676	0.0124272
684.754	0.0122722
684.832	0.0121071
684.910	0.0119331
684.988	0.0119164
685.067	0.0120414
685.145	0.0119061
685.223	0.0120334
685.301	0.0120822
685.379	0.0122793
685.457	0.0123212
685.535	0.0124876
685.613	0.0125121
685.692	0.0124361
