05/28/2022	14:07:56	Ver.	4.1	UNKNOWN
Optical Delay	599.988409	Delta X		0.078125	Sweeps	1	Scan Rate	0/0
Coordinates	Axis 1	NaN	Axis 2	NaN	Axis 3	NaN	Axis 4	NaN	Axis 5	NaN	Axis 6	0.000000
TX Power	0.000000	RX Power	0.000000

599.988	0.0141929
600.067	0.0142892
600.145	0.0141909
600.223	0.0143390
600.301	0.0141544
600.379	0.0140879
600.457	0.0142278
600.535	0.0142579
600.613	0.0141619
600.692	0.0142269
600.770	0.0141879
600.848	0.0142789
600.926	0.0142535
601.004	0.0142463
601.082	0.0141199
601.160	0.0142081
601.238	0.0141545
601.317	0.0141006
601.395	0.0142518
601.473	0.0142007
601.551	0.0141844
601.629	0.0140757
601.707	0.0140574
601.785	0.0143742
601.863	0.0141691
601.942	0.0141477
602.020	0.0141658
602.098	0.0140994
602.176	0.0140641
602.254	0.0141669
602.332	0.0142498
602.410	0.0141903
602.488	0.0141398
602.567	0.0140334
602.645	0.0140696
602.723	0.0142085
602.801	0.0142902
602.879	0.0141615
602.957	0.0142122
603.035	0.0142059
603.113	0.0142413
603.192	0.0140608
603.270	0.0142525
603.348	0.0140999
603.426	0.0141747
603.504	0.0142931
603.582	0.0141827
603.660	0.0141415
603.738	0.0141510
603.817	0.0141788
603.895	0.0140974
603.973	0.0142120
604.051	0.0142554
604.129	0.0141534
604.207	0.0141908
604.285	0.0143317
604.363	0.0143020
604.442	0.0141822
604.520	0.0140485
604.598	0.0141644
604.676	0.0139485
604.754	0.0141478
604.832	0.0140278
604.910	0.0142128
604.988	0.0141788
605.067	0.0142371
605.145	0.0142550
605.223	0.0141580
605.301	0.0141965
605.379	0.0141981
605.457	0.0141180
605.535	0.0142332
605.613	0.0143256
605.692	0.0142101
605.770	0.0140855
605.848	0.0141428
605.926	0.0142445
606.004	0.0140855
606.082	0.0142002
606.160	0.0141495
606.238	0.0142459
606.317	0.0142305
606.395	0.0141829
606.473	0.0142756
606.551	0.0141180
606.629	0.0141077
606.707	0.0140972
606.785	0.0142728
606.863	0.0141734
606.942	0.0141292
607.020	0.0142049
607.098	0.0142375
607.176	0.0143369
607.254	0.0142052
607.332	0.0141094
607.410	0.0141776
607.488	0.0142702
607.567	0.0142093
607.645	0.0141679
607.723	0.0142214
607.801	0.0142142
607.879	0.0142108
607.957	0.0142267
608.035	0.0141940
608.113	0.0141598
608.192	0.0141792
608.270	0.0141454
608.348	0.0142882
608.426	0.0141150
608.504	0.0141248
608.582	0.0142453
608.660	0.0142776
608.738	0.0142719
608.817	0.0140912
608.895	0.0141537
608.973	0.0142124
609.051	0.0141730
609.129	0.0141428
609.207	0.0141183
609.285	0.0140800
609.363	0.0141996
609.442	0.0141649
609.520	0.0142654
609.598	0.0140898
609.676	0.0141148
609.754	0.0141685
609.832	0.0140924
609.910	0.0143066
609.988	0.0141328
610.067	0.0141216
610.145	0.0141969
610.223	0.0142077
610.301	0.0141276
610.379	0.0142203
610.457	0.0140810
610.535	0.0142371
610.613	0.0143109
610.692	0.0142243
610.770	0.0140821
610.848	0.0142307
610.926	0.0142169
611.004	0.0141374
611.082	0.0140733
611.160	0.0142056
611.238	0.0142382
611.317	0.0141743
611.395	0.0141741
611.473	0.0141315
611.551	0.0140890
611.629	0.0141766
611.707	0.0142159
611.785	0.0141721
611.863	0.0142924
611.942	0.0142704
612.020	0.0142257
612.098	0.0142324
612.176	0.0142715
612.254	0.0142347
612.332	0.0141838
612.410	0.0141354
612.488	0.0141290
612.567	0.0141842
612.645	0.0142312
612.723	0.0140923
612.801	0.0142960
612.879	0.0141082
612.957	0.0141785
613.035	0.0141483
613.113	0.0142633
613.192	0.0141164
613.270	0.0141226
613.348	0.0142507
613.426	0.0142297
613.504	0.0141576
613.582	0.0142277
613.660	0.0141459
613.738	0.0142442
613.817	0.0143921
613.895	0.0141454
613.973	0.0141426
614.051	0.0141550
614.129	0.0142986
614.207	0.0139828
614.285	0.0141505
614.363	0.0142155
614.442	0.0140345
614.520	0.0141135
614.598	0.0141982
614.676	0.0142265
614.754	0.0142513
614.832	0.0141975
614.910	0.0141103
614.988	0.0141893
615.067	0.0142835
615.145	0.0141829
615.223	0.0142344
615.301	0.0141097
615.379	0.0142342
615.457	0.0140864
615.535	0.0142277
615.613	0.0140803
615.692	0.0142632
615.770	0.0141547
615.848	0.0142760
615.926	0.0142422
616.004	0.0142204
616.082	0.0140349
616.160	0.0141602
616.238	0.0141993
616.317	0.0142289
616.395	0.0142522
616.473	0.0142724
616.551	0.0141445
616.629	0.0140902
616.707	0.0141496
616.785	0.0141553
616.863	0.0142178
616.942	0.0142669
617.020	0.0141210
617.098	0.0141578
617.176	0.0142756
617.254	0.0142136
617.332	0.0141775
617.410	0.0141489
617.488	0.0142981
617.567	0.0143211
617.645	0.0141998
617.723	0.0142153
617.801	0.0142333
617.879	0.0142014
617.957	0.0142699
618.035	0.0141206
618.113	0.0141937
618.192	0.0143179
618.270	0.0142899
618.348	0.0141792
618.426	0.0142186
618.504	0.0141680
618.582	0.0142178
618.660	0.0141449
618.738	0.0142717
618.817	0.0142055
618.895	0.0142176
618.973	0.0142104
619.051	0.0141537
619.129	0.0141929
619.207	0.0143413
619.285	0.0143136
619.363	0.0142017
619.442	0.0140474
619.520	0.0142474
619.598	0.0142852
619.676	0.0141616
619.754	0.0142113
619.832	0.0141566
619.910	0.0142242
619.988	0.0141927
620.067	0.0141711
620.145	0.0143176
620.223	0.0142090
620.301	0.0142648
620.379	0.0141967
620.457	0.0140028
620.535	0.0141343
620.613	0.0142162
620.692	0.0141232
620.770	0.0142326
620.848	0.0142288
620.926	0.0141275
621.004	0.0142557
621.082	0.0142289
621.160	0.0142869
621.238	0.0142892
621.317	0.0141479
621.395	0.0141821
621.473	0.0142215
621.551	0.0142337
621.629	0.0140510
621.707	0.0142406
621.785	0.0143166
621.863	0.0141901
621.942	0.0140903
622.020	0.0143094
622.098	0.0142838
622.176	0.0141226
622.254	0.0141993
622.332	0.0142375
622.410	0.0142793
622.488	0.0141714
622.567	0.0142411
622.645	0.0143006
622.723	0.0141873
622.801	0.0142229
622.879	0.0143417
622.957	0.0142558
623.035	0.0141883
623.113	0.0142234
623.192	0.0141335
623.270	0.0143244
623.348	0.0142519
623.426	0.0141735
623.504	0.0141867
623.582	0.0140753
623.660	0.0142559
623.738	0.0142973
623.817	0.0143684
623.895	0.0143465
623.973	0.0141721
624.051	0.0141818
624.129	0.0141859
624.207	0.0141635
624.285	0.0143180
624.363	0.0142162
624.442	0.0141172
624.520	0.0141890
624.598	0.0143102
624.676	0.0141667
624.754	0.0141628
624.832	0.0141141
624.910	0.0142017
624.988	0.0141752
625.067	0.0143044
625.145	0.0142764
625.223	0.0142826
625.301	0.0141196
625.379	0.0141586
625.457	0.0142424
625.535	0.0142258
625.613	0.0142819
625.692	0.0142556
625.770	0.0142963
625.848	0.0142583
625.926	0.0143326
626.004	0.0141596
626.082	0.0143361
626.160	0.0142034
626.238	0.0143098
626.317	0.0143416
626.395	0.0144051
626.473	0.0142887
626.551	0.0142114
626.629	0.0142461
626.707	0.0141824
626.785	0.0141768
626.863	0.0142091
626.942	0.0142429
627.020	0.0143195
627.098	0.0142429
627.176	0.0142337
627.254	0.0143042
627.332	0.0143778
627.410	0.0141085
627.488	0.0142609
627.567	0.0143835
627.645	0.0141899
627.723	0.0141711
627.801	0.0142194
627.879	0.0142145
627.957	0.0141837
628.035	0.0143607
628.113	0.0143118
628.192	0.0143193
628.270	0.0143037
628.348	0.0143271
628.426	0.0143074
628.504	0.0142812
628.582	0.0141737
628.660	0.0143572
628.738	0.0142642
628.817	0.0142123
628.895	0.0142613
628.973	0.0143282
629.051	0.0142569
629.129	0.0142155
629.207	0.0141795
629.285	0.0143738
629.363	0.0141617
629.442	0.0141139
629.520	0.0142766
629.598	0.0142503
629.676	0.0141698
629.754	0.0142783
629.832	0.0142999
629.910	0.0141679
629.988	0.0142313
630.067	0.0142839
630.145	0.0142412
630.223	0.0142699
630.301	0.0142729
630.379	0.0142140
630.457	0.0140862
630.535	0.0140518
630.613	0.0142323
630.692	0.0142784
630.770	0.0143102
630.848	0.0142625
630.926	0.0140961
631.004	0.0141814
631.082	0.0141786
631.160	0.0143044
631.238	0.0140202
631.317	0.0142325
631.395	0.0141788
631.473	0.0142223
631.551	0.0141189
631.629	0.0141936
631.707	0.0141182
631.785	0.0140948
631.863	0.0141302
631.942	0.0142422
632.020	0.0142336
632.098	0.0141477
632.176	0.0141414
632.254	0.0141179
632.332	0.0141286
632.410	0.0142520
632.488	0.0142532
632.567	0.0141116
632.645	0.0141958
632.723	0.0142371
632.801	0.0142112
632.879	0.0142047
632.957	0.0140649
633.035	0.0142195
633.113	0.0141038
633.192	0.0141524
633.270	0.0141650
633.348	0.0140861
633.426	0.0139825
633.504	0.0141880
633.582	0.0141187
633.660	0.0141330
633.738	0.0141510
633.817	0.0141647
633.895	0.0143567
633.973	0.0142783
634.051	0.0140926
634.129	0.0142269
634.207	0.0140260
634.285	0.0140821
634.363	0.0143008
634.442	0.0143482
634.520	0.0141367
634.598	0.0141953
634.676	0.0141593
634.754	0.0142130
634.832	0.0140945
634.910	0.0142411
634.988	0.0143746
635.067	0.0140695
635.145	0.0141305
635.223	0.0141826
635.301	0.0142153
635.379	0.0141663
635.457	0.0142685
635.535	0.0142539
635.613	0.0142277
635.692	0.0141846
635.770	0.0140791
635.848	0.0142187
635.926	0.0143288
636.004	0.0141454
636.082	0.0141916
636.160	0.0141395
636.238	0.0141817
636.317	0.0140512
636.395	0.0142983
636.473	0.0142927
636.551	0.0141952
636.629	0.0141180
636.707	0.0141499
636.785	0.0141590
636.863	0.0142484
636.942	0.0142031
637.020	0.0142099
637.098	0.0142574
637.176	0.0140590
637.254	0.0142749
637.332	0.0142612
637.410	0.0141879
637.488	0.0141196
637.567	0.0142004
637.645	0.0142630
637.723	0.0141573
637.801	0.0141885
637.879	0.0141980
637.957	0.0141346
638.035	0.0141017
638.113	0.0141512
638.192	0.0142589
638.270	0.0142428
638.348	0.0141418
638.426	0.0141837
638.504	0.0142555
638.582	0.0141276
638.660	0.0142672
638.738	0.0142943
638.817	0.0140197
638.895	0.0141442
638.973	0.0142764
639.051	0.0141957
639.129	0.0141468
639.207	0.0141728
639.285	0.0142210
639.363	0.0142043
639.442	0.0142475
639.520	0.0141850
639.598	0.0142150
639.676	0.0143212
639.754	0.0142919
639.832	0.0142715
639.910	0.0142362
639.988	0.0141000
640.067	0.0142088
640.145	0.0141576
640.223	0.0142999
640.301	0.0141548
640.379	0.0141677
640.457	0.0141527
640.535	0.0141259
640.613	0.0141338
640.692	0.0141173
640.770	0.0142738
640.848	0.0141788
640.926	0.0140371
641.004	0.0142109
641.082	0.0142397
641.160	0.0142983
641.238	0.0142451
641.317	0.0141586
641.395	0.0141895
641.473	0.0141407
641.551	0.0142606
641.629	0.0140827
641.707	0.0142400
641.785	0.0144039
641.863	0.0140789
641.942	0.0142754
642.020	0.0140286
642.098	0.0142457
642.176	0.0141844
642.254	0.0141877
642.332	0.0142099
642.410	0.0141698
642.488	0.0141794
642.567	0.0141960
642.645	0.0141937
642.723	0.0142418
642.801	0.0141171
642.879	0.0141198
642.957	0.0143384
643.035	0.0141455
643.113	0.0141989
643.192	0.0141541
643.270	0.0143434
643.348	0.0141901
643.426	0.0142761
643.504	0.0142393
643.582	0.0143011
643.660	0.0142461
643.738	0.0142454
643.817	0.0142166
643.895	0.0142875
643.973	0.0141961
644.051	0.0143127
644.129	0.0141370
644.207	0.0141673
644.285	0.0142331
644.363	0.0142436
644.442	0.0142542
644.520	0.0142771
644.598	0.0142252
644.676	0.0141807
644.754	0.0143092
644.832	0.0141527
644.910	0.0143019
644.988	0.0141582
645.067	0.0142277
645.145	0.0141130
645.223	0.0141743
645.301	0.0141512
645.379	0.0142300
645.457	0.0142502
645.535	0.0143640
645.613	0.0142709
645.692	0.0141676
645.770	0.0142477
645.848	0.0142457
645.926	0.0141813
646.004	0.0141045
646.082	0.0142542
646.160	0.0141134
646.238	0.0141418
646.317	0.0141423
646.395	0.0141262
646.473	0.0143925
646.551	0.0141106
646.629	0.0140950
646.707	0.0141247
646.785	0.0142857
646.863	0.0142056
646.942	0.0141839
647.020	0.0141247
647.098	0.0141135
647.176	0.0143968
647.254	0.0142982
647.332	0.0142425
647.410	0.0143628
647.488	0.0142747
647.567	0.0142466
647.645	0.0142078
647.723	0.0143680
647.801	0.0141936
647.879	0.0142303
647.957	0.0143035
648.035	0.0142727
648.113	0.0142365
648.192	0.0142188
648.270	0.0142437
648.348	0.0140291
648.426	0.0141032
648.504	0.0142502
648.582	0.0141730
648.660	0.0141337
648.738	0.0141151
648.817	0.0141157
648.895	0.0142108
648.973	0.0142403
649.051	0.0142693
649.129	0.0141378
649.207	0.0141376
649.285	0.0142162
649.363	0.0142603
649.442	0.0142146
649.520	0.0141734
649.598	0.0143093
649.676	0.0142171
649.754	0.0141276
649.832	0.0142053
649.910	0.0142220
649.988	0.0141908
650.067	0.0143477
650.145	0.0142553
650.223	0.0141328
650.301	0.0141499
650.379	0.0141171
650.457	0.0143003
650.535	0.0141838
650.613	0.0142995
650.692	0.0142698
650.770	0.0141872
650.848	0.0141994
650.926	0.0141626
651.004	0.0141392
651.082	0.0142417
651.160	0.0143400
651.238	0.0141604
651.317	0.0141222
651.395	0.0141360
651.473	0.0141924
651.551	0.0142336
651.629	0.0142511
651.707	0.0141679
651.785	0.0141233
651.863	0.0141216
651.942	0.0142017
652.020	0.0142696
652.098	0.0142065
652.176	0.0140874
652.254	0.0141598
652.332	0.0142055
652.410	0.0142740
652.488	0.0142801
652.567	0.0141464
652.645	0.0141679
652.723	0.0141830
652.801	0.0141767
652.879	0.0142500
652.957	0.0141876
653.035	0.0140623
653.113	0.0141910
653.192	0.0139939
653.270	0.0141858
653.348	0.0140347
653.426	0.0141526
653.504	0.0141879
653.582	0.0141357
653.660	0.0142719
653.738	0.0141357
653.817	0.0141277
653.895	0.0142303
653.973	0.0141116
654.051	0.0139921
654.129	0.0140578
654.207	0.0141001
654.285	0.0140663
654.363	0.0140742
654.442	0.0142002
654.520	0.0141511
654.598	0.0142155
654.676	0.0140665
654.754	0.0141082
654.832	0.0141400
654.910	0.0140242
654.988	0.0141717
655.067	0.0141862
655.145	0.0139961
655.223	0.0140752
655.301	0.0141136
655.379	0.0141227
655.457	0.0141714
655.535	0.0140869
655.613	0.0143073
655.692	0.0141010
655.770	0.0141455
655.848	0.0142868
655.926	0.0141248
656.004	0.0141564
656.082	0.0143147
656.160	0.0141445
656.238	0.0141305
656.317	0.0141312
656.395	0.0141884
656.473	0.0141137
656.551	0.0141135
656.629	0.0140751
656.707	0.0140903
656.785	0.0140549
656.863	0.0141632
656.942	0.0141629
657.020	0.0140335
657.098	0.0140704
657.176	0.0142626
657.254	0.0142185
657.332	0.0141025
657.410	0.0141815
657.488	0.0141776
657.567	0.0141277
657.645	0.0140508
657.723	0.0141135
657.801	0.0140008
657.879	0.0141237
657.957	0.0141356
658.035	0.0140631
658.113	0.0141271
658.192	0.0140391
658.270	0.0140802
658.348	0.0139569
658.426	0.0140698
658.504	0.0140556
658.582	0.0140459
658.660	0.0142415
658.738	0.0141249
658.817	0.0139491
658.895	0.0141110
658.973	0.0142334
659.051	0.0142092
659.129	0.0140898
659.207	0.0140825
659.285	0.0140099
659.363	0.0142082
659.442	0.0141171
659.520	0.0141732
659.598	0.0141278
659.676	0.0139997
659.754	0.0141389
659.832	0.0139529
659.910	0.0140479
659.988	0.0142639
660.067	0.0140639
660.145	0.0142196
660.223	0.0141862
660.301	0.0141982
660.379	0.0142433
660.457	0.0142385
660.535	0.0141780
660.613	0.0143584
660.692	0.0143600
660.770	0.0142655
660.848	0.0141783
660.926	0.0142793
661.004	0.0141714
661.082	0.0140437
661.160	0.0141814
661.238	0.0141306
661.317	0.0140382
661.395	0.0142538
661.473	0.0140952
661.551	0.0139996
661.629	0.0141714
661.707	0.0141360
661.785	0.0143726
661.863	0.0143501
661.942	0.0141751
662.020	0.0142309
662.098	0.0143115
662.176	0.0141476
662.254	0.0140730
662.332	0.0142047
662.410	0.0142316
662.488	0.0141455
662.567	0.0141927
662.645	0.0141655
662.723	0.0141723
662.801	0.0140754
662.879	0.0142223
662.957	0.0140909
663.035	0.0139697
663.113	0.0140498
663.192	0.0139665
663.270	0.0142319
663.348	0.0141998
663.426	0.0141566
663.504	0.0141615
663.582	0.0139746
663.660	0.0140233
663.738	0.0140497
663.817	0.0141998
663.895	0.0143079
663.973	0.0142242
664.051	0.0141209
664.129	0.0143574
664.207	0.0144278
664.285	0.0144937
664.363	0.0144774
664.442	0.0144026
664.520	0.0146604
664.598	0.0145316
664.676	0.0144415
664.754	0.0145442
664.832	0.0145945
664.910	0.0145203
664.988	0.0144434
665.067	0.0143502
665.145	0.0143579
665.223	0.0141935
665.301	0.0140357
665.379	0.0138975
665.457	0.0138190
665.535	0.0137344
665.613	0.0137254
665.692	0.0135846
665.770	0.0135901
665.848	0.0135493
665.926	0.0134254
666.004	0.0137045
666.082	0.0137592
666.160	0.0137861
666.238	0.0136947
666.317	0.0140010
666.395	0.0141067
666.473	0.0141107
666.551	0.0142831
666.629	0.0142365
666.707	0.0143351
666.785	0.0142825
666.863	0.0144115
666.942	0.0144055
667.020	0.0143264
667.098	0.0146193
667.176	0.0144951
667.254	0.0143875
667.332	0.0145986
667.410	0.0145163
667.488	0.0143622
667.567	0.0142587
667.645	0.0142556
667.723	0.0142706
667.801	0.0141415
667.879	0.0143448
667.957	0.0142900
668.035	0.0143138
668.113	0.0144612
668.192	0.0145226
668.270	0.0144416
668.348	0.0146892
668.426	0.0146623
668.504	0.0146268
668.582	0.0146727
668.660	0.0145731
668.738	0.0146610
668.817	0.0145805
668.895	0.0144232
668.973	0.0143708
669.051	0.0143906
669.129	0.0143291
669.207	0.0141740
669.285	0.0140130
669.363	0.0138894
669.442	0.0137202
669.520	0.0135754
669.598	0.0135737
669.676	0.0132863
669.754	0.0133426
669.832	0.0132584
669.910	0.0133857
669.988	0.0131531
670.067	0.0130946
670.145	0.0131374
670.223	0.0130480
670.301	0.0134760
670.379	0.0133321
670.457	0.0134420
670.535	0.0135635
670.613	0.0135658
670.692	0.0138340
670.770	0.0138328
670.848	0.0142478
670.926	0.0143417
671.004	0.0145927
671.082	0.0147943
671.160	0.0149256
671.238	0.0149935
671.317	0.0152623
671.395	0.0152962
671.473	0.0152896
671.551	0.0150732
671.629	0.0150029
671.707	0.0150105
671.785	0.0148725
671.863	0.0147611
671.942	0.0147624
672.020	0.0147182
672.098	0.0147133
672.176	0.0146747
672.254	0.0147865
672.332	0.0146888
672.410	0.0147181
672.488	0.0146263
672.567	0.0146008
672.645	0.0145367
672.723	0.0145135
672.801	0.0144506
672.879	0.0144500
672.957	0.0143259
673.035	0.0143683
673.113	0.0142533
673.192	0.0142049
673.270	0.0143716
673.348	0.0142873
673.426	0.0141769
673.504	0.0141447
673.582	0.0139589
673.660	0.0137914
673.738	0.0137064
673.817	0.0135249
673.895	0.0135704
673.973	0.0133170
674.051	0.0130867
674.129	0.0129995
674.207	0.0130239
674.285	0.0129140
674.363	0.0128580
674.442	0.0127415
674.520	0.0127153
674.598	0.0126807
674.676	0.0127729
674.754	0.0127966
674.832	0.0130981
674.910	0.0130073
674.988	0.0131690
675.067	0.0133990
675.145	0.0136133
675.223	0.0138420
675.301	0.0141888
675.379	0.0141779
675.457	0.0146680
675.535	0.0147214
675.613	0.0147771
675.692	0.0150158
675.770	0.0152601
675.848	0.0153463
675.926	0.0152563
676.004	0.0154897
676.082	0.0154654
676.160	0.0154104
676.238	0.0155379
676.317	0.0154958
676.395	0.0154990
676.473	0.0154276
676.551	0.0154357
676.629	0.0154285
676.707	0.0154341
676.785	0.0153942
676.863	0.0151190
676.942	0.0151244
677.020	0.0150449
677.098	0.0149307
677.176	0.0148312
677.254	0.0148983
677.332	0.0146904
677.410	0.0146548
677.488	0.0144823
677.567	0.0146191
677.645	0.0146848
677.723	0.0145110
677.801	0.0144046
677.879	0.0143397
677.957	0.0143262
678.035	0.0141757
678.113	0.0139956
678.192	0.0138271
678.270	0.0138482
678.348	0.0134310
678.426	0.0131169
678.504	0.0129196
678.582	0.0129038
678.660	0.0128086
678.738	0.0127551
678.817	0.0126498
678.895	0.0125076
678.973	0.0124377
679.051	0.0125434
679.129	0.0123856
679.207	0.0123917
679.285	0.0123647
679.363	0.0123723
679.442	0.0125912
679.520	0.0125729
679.598	0.0127087
679.676	0.0129350
679.754	0.0132504
679.832	0.0133406
679.910	0.0136794
679.988	0.0138074
680.067	0.0140700
680.145	0.0144007
680.223	0.0145827
680.301	0.0148782
680.379	0.0151730
680.457	0.0152704
680.535	0.0154491
680.613	0.0156013
680.692	0.0159007
680.770	0.0158624
680.848	0.0160951
680.926	0.0160694
681.004	0.0161348
681.082	0.0160149
681.160	0.0160203
681.238	0.0158356
681.317	0.0157347
681.395	0.0155639
681.473	0.0154797
681.551	0.0152690
681.629	0.0151153
681.707	0.0150284
681.785	0.0148944
681.863	0.0147326
681.942	0.0147820
682.020	0.0147195
682.098	0.0145403
682.176	0.0146839
682.254	0.0146208
682.332	0.0145074
682.410	0.0144251
682.488	0.0144989
682.567	0.0145521
682.645	0.0145015
682.723	0.0145056
682.801	0.0143781
682.879	0.0143830
682.957	0.0143390
683.035	0.0142437
683.113	0.0142510
683.192	0.0139989
683.270	0.0136977
683.348	0.0135067
683.426	0.0134297
683.504	0.0132290
683.582	0.0130808
683.660	0.0128945
683.738	0.0125875
683.817	0.0123936
683.895	0.0124110
683.973	0.0123997
684.051	0.0122829
684.129	0.0122219
684.207	0.0121078
684.285	0.0122919
684.363	0.0122839
684.442	0.0122586
684.520	0.0123809
684.598	0.0125815
684.676	0.0125625
684.754	0.0125840
684.832	0.0128058
684.910	0.0130180
684.988	0.0132763
685.067	0.0133421
685.145	0.0135941
685.223	0.0138303
685.301	0.0141589
685.379	0.0143733
685.457	0.0146030
685.535	0.0148437
685.613	0.0151923
685.692	0.0153417
