05/28/2022	13:51:05	Ver.	4.1	UNKNOWN
Optical Delay	599.995081	Delta X		0.078125	Sweeps	1	Scan Rate	0/0
Coordinates	Axis 1	NaN	Axis 2	NaN	Axis 3	NaN	Axis 4	NaN	Axis 5	NaN	Axis 6	0.000000
TX Power	0.000000	RX Power	0.000000

599.995	0.0144932
600.073	0.0144530
600.151	0.0145031
600.229	0.0146083
600.308	0.0144300
600.386	0.0145470
600.464	0.0145495
600.542	0.0145578
600.620	0.0144234
600.698	0.0145988
600.776	0.0147453
600.854	0.0145495
600.933	0.0145288
601.011	0.0145526
601.089	0.0144999
601.167	0.0144968
601.245	0.0145715
601.323	0.0144975
601.401	0.0145998
601.479	0.0145053
601.558	0.0145583
601.636	0.0145750
601.714	0.0145248
601.792	0.0144777
601.870	0.0144466
601.948	0.0146373
602.026	0.0145219
602.104	0.0145388
602.183	0.0145475
602.261	0.0144699
602.339	0.0144536
602.417	0.0144819
602.495	0.0144046
602.573	0.0144618
602.651	0.0144508
602.729	0.0144993
602.808	0.0146416
602.886	0.0145540
602.964	0.0145033
603.042	0.0145621
603.120	0.0144875
603.198	0.0145506
603.276	0.0145677
603.354	0.0144754
603.433	0.0144863
603.511	0.0145776
603.589	0.0146476
603.667	0.0145330
603.745	0.0145902
603.823	0.0144142
603.901	0.0144923
603.979	0.0145391
604.058	0.0145113
604.136	0.0143977
604.214	0.0144422
604.292	0.0144218
604.370	0.0146040
604.448	0.0144649
604.526	0.0143816
604.604	0.0146272
604.683	0.0145150
604.761	0.0145602
604.839	0.0146702
604.917	0.0145926
604.995	0.0145227
605.073	0.0144098
605.151	0.0144667
605.229	0.0146612
605.308	0.0144827
605.386	0.0145140
605.464	0.0144901
605.542	0.0144340
605.620	0.0144884
605.698	0.0144682
605.776	0.0145866
605.854	0.0144539
605.933	0.0145902
606.011	0.0145631
606.089	0.0144332
606.167	0.0145106
606.245	0.0145197
606.323	0.0145414
606.401	0.0143748
606.479	0.0144373
606.558	0.0146068
606.636	0.0144261
606.714	0.0144980
606.792	0.0146015
606.870	0.0145008
606.948	0.0145259
607.026	0.0145573
607.104	0.0146544
607.183	0.0145570
607.261	0.0145847
607.339	0.0145056
607.417	0.0145184
607.495	0.0144236
607.573	0.0145480
607.651	0.0145536
607.729	0.0145237
607.808	0.0145499
607.886	0.0143740
607.964	0.0145098
608.042	0.0144145
608.120	0.0144582
608.198	0.0145089
608.276	0.0145670
608.354	0.0146564
608.433	0.0145607
608.511	0.0145650
608.589	0.0145502
608.667	0.0144917
608.745	0.0144307
608.823	0.0145483
608.901	0.0146362
608.979	0.0144467
609.058	0.0145699
609.136	0.0145634
609.214	0.0145172
609.292	0.0145531
609.370	0.0145663
609.448	0.0144756
609.526	0.0145407
609.604	0.0146280
609.683	0.0145399
609.761	0.0146020
609.839	0.0145245
609.917	0.0144538
609.995	0.0145487
610.073	0.0144682
610.151	0.0144263
610.229	0.0145035
610.308	0.0145616
610.386	0.0146112
610.464	0.0144729
610.542	0.0145801
610.620	0.0143955
610.698	0.0145460
610.776	0.0145644
610.854	0.0145609
610.933	0.0144023
611.011	0.0145265
611.089	0.0145612
611.167	0.0146011
611.245	0.0144330
611.323	0.0144030
611.401	0.0145806
611.479	0.0146297
611.558	0.0145760
611.636	0.0144410
611.714	0.0144379
611.792	0.0144994
611.870	0.0145815
611.948	0.0144949
612.026	0.0143534
612.104	0.0145094
612.183	0.0145406
612.261	0.0144315
612.339	0.0145896
612.417	0.0146722
612.495	0.0146709
612.573	0.0144024
612.651	0.0144575
612.729	0.0145978
612.808	0.0145433
612.886	0.0143864
612.964	0.0146320
613.042	0.0145259
613.120	0.0144559
613.198	0.0145149
613.276	0.0146612
613.354	0.0146806
613.433	0.0144989
613.511	0.0145112
613.589	0.0144634
613.667	0.0145663
613.745	0.0145896
613.823	0.0144852
613.901	0.0146063
613.979	0.0144582
614.058	0.0146224
614.136	0.0146089
614.214	0.0144453
614.292	0.0146159
614.370	0.0144025
614.448	0.0144427
614.526	0.0144630
614.604	0.0146810
614.683	0.0145171
614.761	0.0144576
614.839	0.0144099
614.917	0.0145730
614.995	0.0145335
615.073	0.0144472
615.151	0.0145419
615.229	0.0146237
615.308	0.0145295
615.386	0.0145892
615.464	0.0145943
615.542	0.0144466
615.620	0.0143175
615.698	0.0146012
615.776	0.0146111
615.854	0.0145905
615.933	0.0144627
616.011	0.0145438
616.089	0.0145998
616.167	0.0146215
616.245	0.0145905
616.323	0.0145509
616.401	0.0145379
616.479	0.0145826
616.558	0.0145003
616.636	0.0145979
616.714	0.0145074
616.792	0.0145126
616.870	0.0145029
616.948	0.0144813
617.026	0.0145733
617.104	0.0146854
617.183	0.0144995
617.261	0.0144727
617.339	0.0144625
617.417	0.0144717
617.495	0.0145115
617.573	0.0144182
617.651	0.0145531
617.729	0.0145721
617.808	0.0144482
617.886	0.0145379
617.964	0.0144419
618.042	0.0145578
618.120	0.0145031
618.198	0.0144986
618.276	0.0144628
618.354	0.0145216
618.433	0.0145589
618.511	0.0144637
618.589	0.0145507
618.667	0.0144147
618.745	0.0144122
618.823	0.0145513
618.901	0.0143857
618.979	0.0144663
619.058	0.0144963
619.136	0.0144811
619.214	0.0144418
619.292	0.0144169
619.370	0.0145001
619.448	0.0145717
619.526	0.0144714
619.604	0.0144819
619.683	0.0145545
619.761	0.0146304
619.839	0.0146303
619.917	0.0145148
619.995	0.0145891
620.073	0.0144715
620.151	0.0145175
620.229	0.0145535
620.308	0.0145246
620.386	0.0145577
620.464	0.0145923
620.542	0.0144872
620.620	0.0144236
620.698	0.0144875
620.776	0.0145972
620.854	0.0146038
620.933	0.0146587
621.011	0.0145509
621.089	0.0144808
621.167	0.0144705
621.245	0.0146516
621.323	0.0146477
621.401	0.0145515
621.479	0.0146082
621.558	0.0145338
621.636	0.0145806
621.714	0.0145358
621.792	0.0144517
621.870	0.0145865
621.948	0.0145446
622.026	0.0145337
622.104	0.0145790
622.183	0.0144461
622.261	0.0146347
622.339	0.0144732
622.417	0.0146257
622.495	0.0145966
622.573	0.0144357
622.651	0.0144142
622.729	0.0144781
622.808	0.0144538
622.886	0.0145566
622.964	0.0146891
623.042	0.0146763
623.120	0.0144289
623.198	0.0145197
623.276	0.0145563
623.354	0.0145724
623.433	0.0144350
623.511	0.0144088
623.589	0.0145480
623.667	0.0144808
623.745	0.0144384
623.823	0.0145892
623.901	0.0145895
623.979	0.0144771
624.058	0.0146385
624.136	0.0145507
624.214	0.0144479
624.292	0.0144817
624.370	0.0146928
624.448	0.0146163
624.526	0.0145044
624.604	0.0144621
624.683	0.0146069
624.761	0.0145111
624.839	0.0146088
624.917	0.0144203
624.995	0.0144173
625.073	0.0145343
625.151	0.0144763
625.229	0.0145544
625.308	0.0144718
625.386	0.0145522
625.464	0.0145502
625.542	0.0146309
625.620	0.0146326
625.698	0.0145767
625.776	0.0146381
625.854	0.0145345
625.933	0.0145874
626.011	0.0146696
626.089	0.0145452
626.167	0.0145405
626.245	0.0146017
626.323	0.0144501
626.401	0.0145335
626.479	0.0146693
626.558	0.0144926
626.636	0.0145466
626.714	0.0145434
626.792	0.0147408
626.870	0.0146072
626.948	0.0143594
627.026	0.0143702
627.104	0.0145494
627.183	0.0147224
627.261	0.0145834
627.339	0.0145787
627.417	0.0145882
627.495	0.0144788
627.573	0.0144617
627.651	0.0145278
627.729	0.0146027
627.808	0.0145542
627.886	0.0145091
627.964	0.0144429
628.042	0.0145139
628.120	0.0145929
628.198	0.0145177
628.276	0.0145522
628.354	0.0145010
628.433	0.0145944
628.511	0.0145795
628.589	0.0145570
628.667	0.0145679
628.745	0.0145638
628.823	0.0146981
628.901	0.0146121
628.979	0.0143976
629.058	0.0144812
629.136	0.0144544
629.214	0.0144926
629.292	0.0146955
629.370	0.0144374
629.448	0.0143842
629.526	0.0145253
629.604	0.0145108
629.683	0.0145972
629.761	0.0146179
629.839	0.0144350
629.917	0.0144962
629.995	0.0145425
630.073	0.0146106
630.151	0.0144863
630.229	0.0145555
630.308	0.0144532
630.386	0.0145447
630.464	0.0144546
630.542	0.0145628
630.620	0.0145130
630.698	0.0144911
630.776	0.0145880
630.854	0.0145827
630.933	0.0145796
631.011	0.0144489
631.089	0.0145423
631.167	0.0145876
631.245	0.0147033
631.323	0.0147418
631.401	0.0146000
631.479	0.0145915
631.558	0.0146708
631.636	0.0145383
631.714	0.0145290
631.792	0.0146719
631.870	0.0146070
631.948	0.0144605
632.026	0.0146256
632.104	0.0146090
632.183	0.0146336
632.261	0.0145129
632.339	0.0146509
632.417	0.0144260
632.495	0.0144826
632.573	0.0146176
632.651	0.0145363
632.729	0.0145612
632.808	0.0144675
632.886	0.0145129
632.964	0.0144966
633.042	0.0144508
633.120	0.0145277
633.198	0.0145168
633.276	0.0145007
633.354	0.0145300
633.433	0.0147092
633.511	0.0145303
633.589	0.0144956
633.667	0.0145628
633.745	0.0144080
633.823	0.0146063
633.901	0.0145330
633.979	0.0145016
634.058	0.0144126
634.136	0.0145134
634.214	0.0146084
634.292	0.0146918
634.370	0.0145985
634.448	0.0145567
634.526	0.0145447
634.604	0.0144963
634.683	0.0144865
634.761	0.0144985
634.839	0.0144933
634.917	0.0145316
634.995	0.0145933
635.073	0.0145370
635.151	0.0145000
635.229	0.0145375
635.308	0.0145529
635.386	0.0146150
635.464	0.0146546
635.542	0.0145534
635.620	0.0145765
635.698	0.0144961
635.776	0.0145724
635.854	0.0145904
635.933	0.0145584
636.011	0.0146243
636.089	0.0145966
636.167	0.0146273
636.245	0.0146262
636.323	0.0144247
636.401	0.0146504
636.479	0.0144833
636.558	0.0144257
636.636	0.0145486
636.714	0.0144746
636.792	0.0145760
636.870	0.0145562
636.948	0.0145344
637.026	0.0146031
637.104	0.0144930
637.183	0.0146818
637.261	0.0147075
637.339	0.0145402
637.417	0.0144634
637.495	0.0146796
637.573	0.0145658
637.651	0.0144857
637.729	0.0145992
637.808	0.0144120
637.886	0.0146122
637.964	0.0146252
638.042	0.0144170
638.120	0.0146252
638.198	0.0144967
638.276	0.0145746
638.354	0.0145177
638.433	0.0145709
638.511	0.0146261
638.589	0.0146394
638.667	0.0145256
638.745	0.0145174
638.823	0.0144269
638.901	0.0145532
638.979	0.0145844
639.058	0.0145608
639.136	0.0145277
639.214	0.0146542
639.292	0.0145514
639.370	0.0144164
639.448	0.0144691
639.526	0.0145562
639.604	0.0145497
639.683	0.0144863
639.761	0.0145985
639.839	0.0145148
639.917	0.0144859
639.995	0.0144872
640.073	0.0145367
640.151	0.0146665
640.229	0.0144628
640.308	0.0144711
640.386	0.0145110
640.464	0.0145847
640.542	0.0144543
640.620	0.0144812
640.698	0.0145317
640.776	0.0145391
640.854	0.0146217
640.933	0.0145702
641.011	0.0144889
641.089	0.0145213
641.167	0.0146301
641.245	0.0146674
641.323	0.0144981
641.401	0.0145295
641.479	0.0144872
641.558	0.0144376
641.636	0.0144627
641.714	0.0145870
641.792	0.0145760
641.870	0.0147303
641.948	0.0144158
642.026	0.0143983
642.104	0.0145468
642.183	0.0145067
642.261	0.0143599
642.339	0.0145876
642.417	0.0145875
642.495	0.0144843
642.573	0.0144923
642.651	0.0145232
642.729	0.0145680
642.808	0.0146202
642.886	0.0146255
642.964	0.0145876
643.042	0.0145579
643.120	0.0144772
643.198	0.0144213
643.276	0.0145352
643.354	0.0146028
643.433	0.0145074
643.511	0.0145822
643.589	0.0145398
643.667	0.0143642
643.745	0.0144983
643.823	0.0146003
643.901	0.0145107
643.979	0.0145364
644.058	0.0144434
644.136	0.0145678
644.214	0.0145621
644.292	0.0145129
644.370	0.0143935
644.448	0.0145428
644.526	0.0144881
644.604	0.0145248
644.683	0.0145588
644.761	0.0145028
644.839	0.0144531
644.917	0.0144827
644.995	0.0146123
645.073	0.0145325
645.151	0.0144653
645.229	0.0144677
645.308	0.0144625
645.386	0.0144117
645.464	0.0146397
645.542	0.0144766
645.620	0.0143413
645.698	0.0144923
645.776	0.0145785
645.854	0.0146262
645.933	0.0145652
646.011	0.0144446
646.089	0.0146262
646.167	0.0144494
646.245	0.0145271
646.323	0.0145175
646.401	0.0145470
646.479	0.0145878
646.558	0.0145255
646.636	0.0145367
646.714	0.0146062
646.792	0.0146028
646.870	0.0145467
646.948	0.0146082
647.026	0.0145339
647.104	0.0145776
647.183	0.0144729
647.261	0.0145889
647.339	0.0144595
647.417	0.0144996
647.495	0.0145198
647.573	0.0144785
647.651	0.0145772
647.729	0.0144723
647.808	0.0144057
647.886	0.0144131
647.964	0.0145793
648.042	0.0146653
648.120	0.0144926
648.198	0.0144651
648.276	0.0143722
648.354	0.0144540
648.433	0.0144736
648.511	0.0145010
648.589	0.0144721
648.667	0.0145707
648.745	0.0145966
648.823	0.0144778
648.901	0.0144817
648.979	0.0144981
649.058	0.0146236
649.136	0.0146751
649.214	0.0146006
649.292	0.0145242
649.370	0.0144328
649.448	0.0146404
649.526	0.0145164
649.604	0.0144910
649.683	0.0146198
649.761	0.0146702
649.839	0.0144620
649.917	0.0146075
649.995	0.0145921
650.073	0.0145264
650.151	0.0145141
650.229	0.0145094
650.308	0.0145053
650.386	0.0145937
650.464	0.0146528
650.542	0.0145732
650.620	0.0144741
650.698	0.0145661
650.776	0.0145625
650.854	0.0144418
650.933	0.0145834
651.011	0.0146169
651.089	0.0146185
651.167	0.0146206
651.245	0.0144318
651.323	0.0145521
651.401	0.0144888
651.479	0.0144560
651.558	0.0145830
651.636	0.0146148
651.714	0.0146768
651.792	0.0146183
651.870	0.0146014
651.948	0.0145529
652.026	0.0145290
652.104	0.0145809
652.183	0.0144920
652.261	0.0145061
652.339	0.0144150
652.417	0.0144876
652.495	0.0145042
652.573	0.0146027
652.651	0.0146389
652.729	0.0145220
652.808	0.0145918
652.886	0.0144539
652.964	0.0144321
653.042	0.0146311
653.120	0.0146188
653.198	0.0145818
653.276	0.0144598
653.354	0.0145472
653.433	0.0144014
653.511	0.0143467
653.589	0.0146078
653.667	0.0146101
653.745	0.0144336
653.823	0.0144852
653.901	0.0144667
653.979	0.0146043
654.058	0.0145585
654.136	0.0145961
654.214	0.0144223
654.292	0.0145277
654.370	0.0145904
654.448	0.0145271
654.526	0.0145320
654.604	0.0145269
654.683	0.0144929
654.761	0.0145554
654.839	0.0145950
654.917	0.0145048
654.995	0.0145269
655.073	0.0145247
655.151	0.0144563
655.229	0.0144559
655.308	0.0145792
655.386	0.0144930
655.464	0.0145817
655.542	0.0145654
655.620	0.0145155
655.698	0.0144856
655.776	0.0146330
655.854	0.0145016
655.933	0.0145757
656.011	0.0144907
656.089	0.0144855
656.167	0.0146222
656.245	0.0144174
656.323	0.0145201
656.401	0.0144572
656.479	0.0145956
656.558	0.0146155
656.636	0.0143592
656.714	0.0144631
656.792	0.0144784
656.870	0.0145995
656.948	0.0144146
657.026	0.0144524
657.104	0.0145198
657.183	0.0145882
657.261	0.0144911
657.339	0.0145448
657.417	0.0144873
657.495	0.0146092
657.573	0.0144519
657.651	0.0145684
657.729	0.0145242
657.808	0.0144464
657.886	0.0146239
657.964	0.0144385
658.042	0.0144727
658.120	0.0144958
658.198	0.0145677
658.276	0.0145592
658.354	0.0145075
658.433	0.0144737
658.511	0.0145151
658.589	0.0145158
658.667	0.0145505
658.745	0.0144624
658.823	0.0143819
658.901	0.0144606
658.979	0.0145497
659.058	0.0145091
659.136	0.0144035
659.214	0.0144843
659.292	0.0145592
659.370	0.0143967
659.448	0.0146430
659.526	0.0145750
659.604	0.0144432
659.683	0.0143890
659.761	0.0145335
659.839	0.0145412
659.917	0.0144892
659.995	0.0146046
660.073	0.0145752
660.151	0.0144180
660.229	0.0143427
660.308	0.0145722
660.386	0.0145985
660.464	0.0144176
660.542	0.0145853
660.620	0.0144763
660.698	0.0144991
660.776	0.0145898
660.854	0.0144583
660.933	0.0145632
661.011	0.0145858
661.089	0.0144054
661.167	0.0145203
661.245	0.0145588
661.323	0.0143616
661.401	0.0144688
661.479	0.0145890
661.558	0.0145683
661.636	0.0146043
661.714	0.0146181
661.792	0.0144495
661.870	0.0144267
661.948	0.0145426
662.026	0.0144609
662.104	0.0145481
662.183	0.0144901
662.261	0.0145582
662.339	0.0146988
662.417	0.0145098
662.495	0.0145754
662.573	0.0145316
662.651	0.0145245
662.729	0.0145304
662.808	0.0145116
662.886	0.0145425
662.964	0.0144928
663.042	0.0145856
663.120	0.0143797
663.198	0.0144394
663.276	0.0145705
663.354	0.0144451
663.433	0.0145437
663.511	0.0146146
663.589	0.0145119
663.667	0.0145554
663.745	0.0145148
663.823	0.0144619
663.901	0.0144933
663.979	0.0145142
664.058	0.0144965
664.136	0.0145390
664.214	0.0145059
664.292	0.0145687
664.370	0.0145281
664.448	0.0144734
664.526	0.0144746
664.604	0.0145745
664.683	0.0145351
664.761	0.0145722
664.839	0.0144559
664.917	0.0145108
664.995	0.0144862
665.073	0.0144528
665.151	0.0145666
665.229	0.0145101
665.308	0.0145383
665.386	0.0145519
665.464	0.0144913
665.542	0.0143884
665.620	0.0144893
665.698	0.0145718
665.776	0.0145135
665.854	0.0145878
665.933	0.0144777
666.011	0.0144374
666.089	0.0145066
666.167	0.0145371
666.245	0.0144075
666.323	0.0145316
666.401	0.0145153
666.479	0.0145457
666.558	0.0145166
666.636	0.0145927
666.714	0.0145350
666.792	0.0145714
666.870	0.0146458
666.948	0.0144746
667.026	0.0145148
667.104	0.0145097
667.183	0.0143600
667.261	0.0144364
667.339	0.0144481
667.417	0.0145110
667.495	0.0145299
667.573	0.0144557
667.651	0.0144761
667.729	0.0144502
667.808	0.0145453
667.886	0.0144620
667.964	0.0144794
668.042	0.0146307
668.120	0.0145802
668.198	0.0145476
668.276	0.0145423
668.354	0.0145409
668.433	0.0145789
668.511	0.0145858
668.589	0.0144848
668.667	0.0146870
668.745	0.0145696
668.823	0.0144742
668.901	0.0145336
668.979	0.0144561
669.058	0.0145741
669.136	0.0145631
669.214	0.0145180
669.292	0.0145537
669.370	0.0145355
669.448	0.0145220
669.526	0.0144598
669.604	0.0145747
669.683	0.0146014
669.761	0.0145174
669.839	0.0144815
669.917	0.0145525
669.995	0.0144856
670.073	0.0144884
670.151	0.0145596
670.229	0.0146358
670.308	0.0147540
670.386	0.0145465
670.464	0.0145670
670.542	0.0144888
670.620	0.0144784
670.698	0.0146824
670.776	0.0145298
670.854	0.0145692
670.933	0.0145147
671.011	0.0145903
671.089	0.0145740
671.167	0.0144845
671.245	0.0144444
671.323	0.0145702
671.401	0.0145489
671.479	0.0144640
671.558	0.0145718
671.636	0.0144992
671.714	0.0144822
671.792	0.0145381
671.870	0.0145617
671.948	0.0147260
672.026	0.0146645
672.104	0.0146741
672.183	0.0145851
672.261	0.0143818
672.339	0.0144618
672.417	0.0147013
672.495	0.0145173
672.573	0.0146239
672.651	0.0144859
672.729	0.0145795
672.808	0.0144691
672.886	0.0144813
672.964	0.0145808
673.042	0.0144951
673.120	0.0145520
673.198	0.0144670
673.276	0.0144577
673.354	0.0146177
673.433	0.0145473
673.511	0.0146452
673.589	0.0145010
673.667	0.0144411
673.745	0.0146328
673.823	0.0144362
673.901	0.0144540
673.979	0.0146265
674.058	0.0146409
674.136	0.0144761
674.214	0.0145661
674.292	0.0145859
674.370	0.0146349
674.448	0.0145292
674.526	0.0144303
674.604	0.0145059
674.683	0.0144689
674.761	0.0145479
674.839	0.0146371
674.917	0.0146005
674.995	0.0145634
675.073	0.0144218
675.151	0.0145614
675.229	0.0145286
675.308	0.0145415
675.386	0.0144906
675.464	0.0145195
675.542	0.0145863
675.620	0.0145500
675.698	0.0144593
675.776	0.0146051
675.854	0.0145554
675.933	0.0144829
676.011	0.0145236
676.089	0.0144912
676.167	0.0145439
676.245	0.0145002
676.323	0.0145857
676.401	0.0145895
676.479	0.0144934
676.558	0.0144656
676.636	0.0145280
676.714	0.0145164
676.792	0.0145638
676.870	0.0146149
676.948	0.0144114
677.026	0.0144153
677.104	0.0144839
677.183	0.0145944
677.261	0.0145728
677.339	0.0143981
677.417	0.0143880
677.495	0.0144644
677.573	0.0144475
677.651	0.0144310
677.729	0.0144369
677.808	0.0144353
677.886	0.0145695
677.964	0.0145661
678.042	0.0145010
678.120	0.0145441
678.198	0.0143953
678.276	0.0143617
678.354	0.0144909
678.433	0.0144594
678.511	0.0144682
678.589	0.0143303
678.667	0.0143137
678.745	0.0145515
678.823	0.0144018
678.901	0.0143770
678.979	0.0143427
679.058	0.0144455
679.136	0.0143804
679.214	0.0144008
679.292	0.0143655
679.370	0.0144743
679.448	0.0145766
679.526	0.0143800
679.604	0.0145009
679.683	0.0143902
679.761	0.0145090
679.839	0.0145020
679.917	0.0144504
679.995	0.0144735
680.073	0.0144144
680.151	0.0145685
680.229	0.0145714
680.308	0.0144844
680.386	0.0144124
680.464	0.0143555
680.542	0.0144438
680.620	0.0143950
680.698	0.0144553
680.776	0.0145570
680.854	0.0144517
680.933	0.0144975
681.011	0.0144556
681.089	0.0144137
681.167	0.0145200
681.245	0.0144188
681.323	0.0144411
681.401	0.0144971
681.479	0.0143716
681.558	0.0143886
681.636	0.0143954
681.714	0.0144926
681.792	0.0144973
681.870	0.0143134
681.948	0.0144289
682.026	0.0144493
682.104	0.0145064
682.183	0.0143706
682.261	0.0145197
682.339	0.0144478
682.417	0.0145825
682.495	0.0145572
682.573	0.0144268
682.651	0.0144484
682.729	0.0145406
682.808	0.0146141
682.886	0.0145209
682.964	0.0144403
683.042	0.0144640
683.120	0.0144331
683.198	0.0145524
683.276	0.0145697
683.354	0.0145657
683.433	0.0145644
683.511	0.0144228
683.589	0.0144098
683.667	0.0144763
683.745	0.0145240
683.823	0.0145066
683.901	0.0145789
683.979	0.0146294
684.058	0.0143887
684.136	0.0144211
684.214	0.0146786
684.292	0.0146830
684.370	0.0145272
684.448	0.0146166
684.526	0.0147797
684.604	0.0147105
684.683	0.0146393
684.761	0.0147686
684.839	0.0146102
684.917	0.0146424
684.995	0.0146635
685.073	0.0146043
685.151	0.0147134
685.229	0.0146136
685.308	0.0146210
685.386	0.0146595
685.464	0.0145683
685.542	0.0145952
685.620	0.0146237
685.698	0.0146871
