05/28/2022	14:10:01	Ver.	4.1	UNKNOWN
Optical Delay	599.988409	Delta X		0.078125	Sweeps	1	Scan Rate	0/0
Coordinates	Axis 1	NaN	Axis 2	NaN	Axis 3	NaN	Axis 4	NaN	Axis 5	NaN	Axis 6	0.000000
TX Power	0.000000	RX Power	0.000000

599.988	0.0142616
600.067	0.0142106
600.145	0.0141932
600.223	0.0142688
600.301	0.0142404
600.379	0.0141769
600.457	0.0142531
600.535	0.0141021
600.613	0.0143133
600.692	0.0142173
600.770	0.0142450
600.848	0.0143185
600.926	0.0143256
601.004	0.0142222
601.082	0.0142575
601.160	0.0142340
601.238	0.0142582
601.317	0.0142815
601.395	0.0142201
601.473	0.0142486
601.551	0.0140314
601.629	0.0142950
601.707	0.0143493
601.785	0.0143171
601.863	0.0142719
601.942	0.0142371
602.020	0.0142482
602.098	0.0141587
602.176	0.0142763
602.254	0.0141804
602.332	0.0141187
602.410	0.0142853
602.488	0.0141849
602.567	0.0142909
602.645	0.0141827
602.723	0.0141698
602.801	0.0141216
602.879	0.0142583
602.957	0.0142408
603.035	0.0141285
603.113	0.0141557
603.192	0.0142045
603.270	0.0141237
603.348	0.0142406
603.426	0.0141479
603.504	0.0141035
603.582	0.0142590
603.660	0.0141387
603.738	0.0141383
603.817	0.0141874
603.895	0.0141734
603.973	0.0142272
604.051	0.0142912
604.129	0.0142336
604.207	0.0141943
604.285	0.0140956
604.363	0.0141464
604.442	0.0142229
604.520	0.0143374
604.598	0.0143251
604.676	0.0140952
604.754	0.0142647
604.832	0.0143108
604.910	0.0141903
604.988	0.0142779
605.067	0.0141590
605.145	0.0142314
605.223	0.0142201
605.301	0.0142606
605.379	0.0140592
605.457	0.0141826
605.535	0.0141144
605.613	0.0142210
605.692	0.0142184
605.770	0.0140446
605.848	0.0141579
605.926	0.0142451
606.004	0.0141423
606.082	0.0142578
606.160	0.0141969
606.238	0.0141166
606.317	0.0142455
606.395	0.0141917
606.473	0.0141335
606.551	0.0142886
606.629	0.0141633
606.707	0.0141650
606.785	0.0141920
606.863	0.0140920
606.942	0.0141513
607.020	0.0141011
607.098	0.0141533
607.176	0.0142068
607.254	0.0141602
607.332	0.0142309
607.410	0.0142295
607.488	0.0142605
607.567	0.0142793
607.645	0.0142493
607.723	0.0142218
607.801	0.0141190
607.879	0.0141807
607.957	0.0141100
608.035	0.0141736
608.113	0.0141084
608.192	0.0142834
608.270	0.0142453
608.348	0.0142116
608.426	0.0141722
608.504	0.0142534
608.582	0.0142254
608.660	0.0141953
608.738	0.0140694
608.817	0.0141824
608.895	0.0143781
608.973	0.0142310
609.051	0.0142299
609.129	0.0140974
609.207	0.0141610
609.285	0.0141499
609.363	0.0141518
609.442	0.0142858
609.520	0.0141953
609.598	0.0142796
609.676	0.0140942
609.754	0.0141869
609.832	0.0141078
609.910	0.0141963
609.988	0.0142081
610.067	0.0142243
610.145	0.0141280
610.223	0.0141919
610.301	0.0140511
610.379	0.0141753
610.457	0.0141958
610.535	0.0142033
610.613	0.0143255
610.692	0.0141669
610.770	0.0140659
610.848	0.0142750
610.926	0.0141856
611.004	0.0141190
611.082	0.0142164
611.160	0.0142365
611.238	0.0142685
611.317	0.0143604
611.395	0.0140558
611.473	0.0141155
611.551	0.0142360
611.629	0.0141706
611.707	0.0142207
611.785	0.0142068
611.863	0.0141593
611.942	0.0141653
612.020	0.0142843
612.098	0.0141908
612.176	0.0142739
612.254	0.0142161
612.332	0.0141090
612.410	0.0142403
612.488	0.0142752
612.567	0.0142398
612.645	0.0141180
612.723	0.0141801
612.801	0.0142478
612.879	0.0143619
612.957	0.0141941
613.035	0.0142551
613.113	0.0141634
613.192	0.0141599
613.270	0.0141617
613.348	0.0141989
613.426	0.0142519
613.504	0.0142765
613.582	0.0142686
613.660	0.0141754
613.738	0.0141666
613.817	0.0143997
613.895	0.0141995
613.973	0.0142593
614.051	0.0143145
614.129	0.0142153
614.207	0.0142673
614.285	0.0142323
614.363	0.0141563
614.442	0.0142773
614.520	0.0142290
614.598	0.0142451
614.676	0.0142574
614.754	0.0143109
614.832	0.0142693
614.910	0.0143152
614.988	0.0142829
615.067	0.0141253
615.145	0.0143026
615.223	0.0142137
615.301	0.0142692
615.379	0.0141871
615.457	0.0142995
615.535	0.0142071
615.613	0.0141230
615.692	0.0142634
615.770	0.0143512
615.848	0.0143106
615.926	0.0141752
616.004	0.0141862
616.082	0.0142282
616.160	0.0142471
616.238	0.0143726
616.317	0.0143179
616.395	0.0142349
616.473	0.0142871
616.551	0.0143124
616.629	0.0142255
616.707	0.0142932
616.785	0.0142596
616.863	0.0142238
616.942	0.0142744
617.020	0.0143011
617.098	0.0144032
617.176	0.0142525
617.254	0.0143472
617.332	0.0142815
617.410	0.0143217
617.488	0.0143078
617.567	0.0143952
617.645	0.0143083
617.723	0.0143237
617.801	0.0142566
617.879	0.0143066
617.957	0.0142221
618.035	0.0141955
618.113	0.0140807
618.192	0.0141774
618.270	0.0143162
618.348	0.0143021
618.426	0.0143031
618.504	0.0143465
618.582	0.0142027
618.660	0.0142230
618.738	0.0142454
618.817	0.0142100
618.895	0.0143505
618.973	0.0143027
619.051	0.0142851
619.129	0.0142189
619.207	0.0142427
619.285	0.0142271
619.363	0.0142302
619.442	0.0141084
619.520	0.0141669
619.598	0.0141652
619.676	0.0143214
619.754	0.0142090
619.832	0.0142968
619.910	0.0142216
619.988	0.0143272
620.067	0.0142614
620.145	0.0142066
620.223	0.0142633
620.301	0.0142783
620.379	0.0142195
620.457	0.0142419
620.535	0.0141960
620.613	0.0141959
620.692	0.0141837
620.770	0.0141795
620.848	0.0142850
620.926	0.0140731
621.004	0.0142534
621.082	0.0142888
621.160	0.0141659
621.238	0.0142532
621.317	0.0141773
621.395	0.0141703
621.473	0.0141362
621.551	0.0141472
621.629	0.0143301
621.707	0.0142332
621.785	0.0142143
621.863	0.0142866
621.942	0.0141270
622.020	0.0142080
622.098	0.0141854
622.176	0.0143142
622.254	0.0142442
622.332	0.0141370
622.410	0.0142189
622.488	0.0141996
622.567	0.0143913
622.645	0.0142130
622.723	0.0141911
622.801	0.0142986
622.879	0.0140722
622.957	0.0141615
623.035	0.0141001
623.113	0.0140245
623.192	0.0140943
623.270	0.0141134
623.348	0.0143177
623.426	0.0141263
623.504	0.0140854
623.582	0.0140656
623.660	0.0140907
623.738	0.0141566
623.817	0.0142624
623.895	0.0141729
623.973	0.0141647
624.051	0.0140865
624.129	0.0141870
624.207	0.0141106
624.285	0.0140884
624.363	0.0141087
624.442	0.0142245
624.520	0.0142390
624.598	0.0141694
624.676	0.0140834
624.754	0.0142206
624.832	0.0140478
624.910	0.0142844
624.988	0.0141627
625.067	0.0141396
625.145	0.0142223
625.223	0.0143011
625.301	0.0141621
625.379	0.0142160
625.457	0.0141600
625.535	0.0141879
625.613	0.0142220
625.692	0.0142355
625.770	0.0142999
625.848	0.0142712
625.926	0.0141370
626.004	0.0142345
626.082	0.0140309
626.160	0.0141500
626.238	0.0142464
626.317	0.0140689
626.395	0.0141774
626.473	0.0142207
626.551	0.0140400
626.629	0.0140166
626.707	0.0141936
626.785	0.0141617
626.863	0.0140541
626.942	0.0141212
627.020	0.0142313
627.098	0.0142148
627.176	0.0142229
627.254	0.0140891
627.332	0.0141457
627.410	0.0141631
627.488	0.0140076
627.567	0.0141745
627.645	0.0141151
627.723	0.0142108
627.801	0.0141340
627.879	0.0142401
627.957	0.0141295
628.035	0.0141997
628.113	0.0141319
628.192	0.0141320
628.270	0.0142677
628.348	0.0141918
628.426	0.0141196
628.504	0.0141266
628.582	0.0142285
628.660	0.0141152
628.738	0.0140651
628.817	0.0142905
628.895	0.0140987
628.973	0.0141324
629.051	0.0140700
629.129	0.0141701
629.207	0.0141487
629.285	0.0140900
629.363	0.0141949
629.442	0.0141465
629.520	0.0140546
629.598	0.0142200
629.676	0.0142707
629.754	0.0142333
629.832	0.0141856
629.910	0.0141737
629.988	0.0141162
630.067	0.0142552
630.145	0.0142858
630.223	0.0141941
630.301	0.0141558
630.379	0.0141611
630.457	0.0140903
630.535	0.0142315
630.613	0.0141885
630.692	0.0142596
630.770	0.0141936
630.848	0.0141881
630.926	0.0141132
631.004	0.0140905
631.082	0.0141754
631.160	0.0142011
631.238	0.0142042
631.317	0.0141532
631.395	0.0143280
631.473	0.0141420
631.551	0.0140101
631.629	0.0142966
631.707	0.0141766
631.785	0.0142535
631.863	0.0141668
631.942	0.0141814
632.020	0.0142944
632.098	0.0140295
632.176	0.0140760
632.254	0.0141103
632.332	0.0142279
632.410	0.0141837
632.488	0.0142379
632.567	0.0139789
632.645	0.0141850
632.723	0.0141793
632.801	0.0142264
632.879	0.0141597
632.957	0.0141584
633.035	0.0141116
633.113	0.0141317
633.192	0.0143132
633.270	0.0142945
633.348	0.0142648
633.426	0.0141999
633.504	0.0140960
633.582	0.0142166
633.660	0.0141705
633.738	0.0142663
633.817	0.0142338
633.895	0.0142167
633.973	0.0142634
634.051	0.0142012
634.129	0.0142033
634.207	0.0141769
634.285	0.0141930
634.363	0.0141184
634.442	0.0141987
634.520	0.0141949
634.598	0.0141736
634.676	0.0143192
634.754	0.0143050
634.832	0.0142816
634.910	0.0142068
634.988	0.0141043
635.067	0.0143489
635.145	0.0142600
635.223	0.0143038
635.301	0.0143342
635.379	0.0142030
635.457	0.0141615
635.535	0.0143284
635.613	0.0142168
635.692	0.0141429
635.770	0.0141066
635.848	0.0142619
635.926	0.0143321
636.004	0.0141998
636.082	0.0143195
636.160	0.0142457
636.238	0.0141438
636.317	0.0140443
636.395	0.0141855
636.473	0.0142085
636.551	0.0141615
636.629	0.0143063
636.707	0.0142527
636.785	0.0142746
636.863	0.0141788
636.942	0.0143041
637.020	0.0142639
637.098	0.0142511
637.176	0.0141618
637.254	0.0142923
637.332	0.0142439
637.410	0.0142451
637.488	0.0142509
637.567	0.0141837
637.645	0.0142606
637.723	0.0142369
637.801	0.0141360
637.879	0.0144043
637.957	0.0143069
638.035	0.0141459
638.113	0.0142063
638.192	0.0144498
638.270	0.0142475
638.348	0.0142667
638.426	0.0141685
638.504	0.0142436
638.582	0.0142085
638.660	0.0142755
638.738	0.0141926
638.817	0.0141654
638.895	0.0143521
638.973	0.0143039
639.051	0.0141396
639.129	0.0141563
639.207	0.0141564
639.285	0.0142280
639.363	0.0142661
639.442	0.0142050
639.520	0.0142170
639.598	0.0142179
639.676	0.0143243
639.754	0.0143102
639.832	0.0142857
639.910	0.0142004
639.988	0.0142786
640.067	0.0142178
640.145	0.0142205
640.223	0.0141219
640.301	0.0140981
640.379	0.0142834
640.457	0.0142648
640.535	0.0142413
640.613	0.0142334
640.692	0.0141644
640.770	0.0143076
640.848	0.0140851
640.926	0.0142607
641.004	0.0141912
641.082	0.0141901
641.160	0.0142335
641.238	0.0141132
641.317	0.0141274
641.395	0.0143102
641.473	0.0142291
641.551	0.0142878
641.629	0.0142574
641.707	0.0142789
641.785	0.0141786
641.863	0.0141871
641.942	0.0141823
642.020	0.0142838
642.098	0.0142599
642.176	0.0142502
642.254	0.0142523
642.332	0.0143703
642.410	0.0142101
642.488	0.0142600
642.567	0.0143287
642.645	0.0141666
642.723	0.0142599
642.801	0.0141711
642.879	0.0142525
642.957	0.0142461
643.035	0.0142078
643.113	0.0142188
643.192	0.0141190
643.270	0.0142796
643.348	0.0142865
643.426	0.0141642
643.504	0.0143123
643.582	0.0141651
643.660	0.0143174
643.738	0.0142906
643.817	0.0141383
643.895	0.0141882
643.973	0.0141491
644.051	0.0142813
644.129	0.0142881
644.207	0.0142222
644.285	0.0141771
644.363	0.0141409
644.442	0.0141575
644.520	0.0143724
644.598	0.0142771
644.676	0.0141378
644.754	0.0141135
644.832	0.0142695
644.910	0.0143040
644.988	0.0142354
645.067	0.0142647
645.145	0.0141867
645.223	0.0141348
645.301	0.0142429
645.379	0.0142135
645.457	0.0141953
645.535	0.0142874
645.613	0.0142722
645.692	0.0142553
645.770	0.0140698
645.848	0.0140694
645.926	0.0141454
646.004	0.0141559
646.082	0.0142849
646.160	0.0143339
646.238	0.0143108
646.317	0.0142384
646.395	0.0142832
646.473	0.0142662
646.551	0.0141945
646.629	0.0143586
646.707	0.0142817
646.785	0.0142957
646.863	0.0141954
646.942	0.0141489
647.020	0.0142651
647.098	0.0142001
647.176	0.0142183
647.254	0.0141831
647.332	0.0142483
647.410	0.0142130
647.488	0.0142487
647.567	0.0141905
647.645	0.0142632
647.723	0.0143467
647.801	0.0142805
647.879	0.0143105
647.957	0.0143605
648.035	0.0143136
648.113	0.0142025
648.192	0.0142521
648.270	0.0143854
648.348	0.0143169
648.426	0.0142017
648.504	0.0141875
648.582	0.0143625
648.660	0.0142889
648.738	0.0142780
648.817	0.0142237
648.895	0.0142837
648.973	0.0144300
649.051	0.0142722
649.129	0.0143014
649.207	0.0143039
649.285	0.0142403
649.363	0.0141698
649.442	0.0141189
649.520	0.0141353
649.598	0.0140652
649.676	0.0142703
649.754	0.0142471
649.832	0.0141798
649.910	0.0142512
649.988	0.0141004
650.067	0.0142322
650.145	0.0142974
650.223	0.0141901
650.301	0.0142224
650.379	0.0143317
650.457	0.0142425
650.535	0.0143854
650.613	0.0143120
650.692	0.0141261
650.770	0.0142628
650.848	0.0142691
650.926	0.0143449
651.004	0.0143568
651.082	0.0142382
651.160	0.0141472
651.238	0.0142187
651.317	0.0140969
651.395	0.0142164
651.473	0.0142890
651.551	0.0143247
651.629	0.0143493
651.707	0.0143667
651.785	0.0144858
651.863	0.0142283
651.942	0.0142014
652.020	0.0141871
652.098	0.0142071
652.176	0.0142587
652.254	0.0142185
652.332	0.0142719
652.410	0.0142287
652.488	0.0143004
652.567	0.0142671
652.645	0.0142820
652.723	0.0142649
652.801	0.0142390
652.879	0.0142331
652.957	0.0142316
653.035	0.0141100
653.113	0.0143340
653.192	0.0142537
653.270	0.0141932
653.348	0.0141940
653.426	0.0141199
653.504	0.0141827
653.582	0.0142017
653.660	0.0141962
653.738	0.0143114
653.817	0.0142545
653.895	0.0140891
653.973	0.0140800
654.051	0.0141890
654.129	0.0143026
654.207	0.0141731
654.285	0.0142848
654.363	0.0143272
654.442	0.0141839
654.520	0.0141384
654.598	0.0142263
654.676	0.0141456
654.754	0.0141511
654.832	0.0141542
654.910	0.0142245
654.988	0.0140144
655.067	0.0140907
655.145	0.0142542
655.223	0.0141024
655.301	0.0142725
655.379	0.0141538
655.457	0.0141698
655.535	0.0141746
655.613	0.0141503
655.692	0.0141072
655.770	0.0141376
655.848	0.0140441
655.926	0.0141530
656.004	0.0141930
656.082	0.0141459
656.160	0.0142270
656.238	0.0142351
656.317	0.0141939
656.395	0.0142715
656.473	0.0142441
656.551	0.0141444
656.629	0.0141299
656.707	0.0143049
656.785	0.0142452
656.863	0.0142779
656.942	0.0142596
657.020	0.0142397
657.098	0.0142506
657.176	0.0140625
657.254	0.0141895
657.332	0.0142198
657.410	0.0142557
657.488	0.0141279
657.567	0.0142238
657.645	0.0142356
657.723	0.0142369
657.801	0.0141512
657.879	0.0141183
657.957	0.0140524
658.035	0.0141602
658.113	0.0141640
658.192	0.0140166
658.270	0.0142596
658.348	0.0142514
658.426	0.0139421
658.504	0.0140352
658.582	0.0141442
658.660	0.0142144
658.738	0.0142039
658.817	0.0143787
658.895	0.0142775
658.973	0.0143761
659.051	0.0144054
659.129	0.0144778
659.207	0.0144479
659.285	0.0144216
659.363	0.0145362
659.442	0.0143095
659.520	0.0144453
659.598	0.0146008
659.676	0.0145080
659.754	0.0144954
659.832	0.0143995
659.910	0.0142134
659.988	0.0141077
660.067	0.0140613
660.145	0.0138210
660.223	0.0139034
660.301	0.0137300
660.379	0.0136393
660.457	0.0137910
660.535	0.0136657
660.613	0.0137377
660.692	0.0137737
660.770	0.0138898
660.848	0.0139729
660.926	0.0140186
661.004	0.0140257
661.082	0.0141194
661.160	0.0141618
661.238	0.0141519
661.317	0.0140970
661.395	0.0140514
661.473	0.0142457
661.551	0.0143325
661.629	0.0143722
661.707	0.0143853
661.785	0.0144532
661.863	0.0144017
661.942	0.0143623
662.020	0.0144593
662.098	0.0145536
662.176	0.0145357
662.254	0.0143418
662.332	0.0142826
662.410	0.0142012
662.488	0.0142072
662.567	0.0141281
662.645	0.0142156
662.723	0.0142471
662.801	0.0143600
662.879	0.0143144
662.957	0.0144199
663.035	0.0145663
663.113	0.0145715
663.192	0.0146760
663.270	0.0146692
663.348	0.0146778
663.426	0.0146413
663.504	0.0143965
663.582	0.0144798
663.660	0.0144424
663.738	0.0144232
663.817	0.0143404
663.895	0.0142255
663.973	0.0141781
664.051	0.0140866
664.129	0.0140013
664.207	0.0141135
664.285	0.0140952
664.363	0.0139055
664.442	0.0139445
664.520	0.0138082
664.598	0.0137643
664.676	0.0136145
664.754	0.0135706
664.832	0.0136118
664.910	0.0135518
664.988	0.0134520
665.067	0.0133316
665.145	0.0132275
665.223	0.0134434
665.301	0.0135074
665.379	0.0134947
665.457	0.0136936
665.535	0.0139126
665.613	0.0139612
665.692	0.0143314
665.770	0.0145267
665.848	0.0145975
665.926	0.0148891
666.004	0.0149267
666.082	0.0149909
666.160	0.0151591
666.238	0.0152834
666.317	0.0150667
666.395	0.0148865
666.473	0.0149416
666.551	0.0147676
666.629	0.0148162
666.707	0.0147723
666.785	0.0146359
666.863	0.0147308
666.942	0.0145730
667.020	0.0145569
667.098	0.0146530
667.176	0.0146666
667.254	0.0146239
667.332	0.0144296
667.410	0.0144238
667.488	0.0142416
667.567	0.0142474
667.645	0.0142854
667.723	0.0141535
667.801	0.0141906
667.879	0.0142371
667.957	0.0143256
668.035	0.0141435
668.113	0.0141402
668.192	0.0140908
668.270	0.0141013
668.348	0.0141928
668.426	0.0140000
668.504	0.0139319
668.582	0.0137511
668.660	0.0136603
668.738	0.0134668
668.817	0.0133770
668.895	0.0131322
668.973	0.0130984
669.051	0.0129269
669.129	0.0129221
669.207	0.0128083
669.285	0.0127870
669.363	0.0127637
669.442	0.0127750
669.520	0.0129082
669.598	0.0129712
669.676	0.0131060
669.754	0.0135588
669.832	0.0138243
669.910	0.0141368
669.988	0.0142403
670.067	0.0144071
670.145	0.0148097
670.223	0.0149621
670.301	0.0150303
670.379	0.0154816
670.457	0.0154056
670.535	0.0153516
670.613	0.0153593
670.692	0.0152225
670.770	0.0151970
670.848	0.0151095
670.926	0.0150948
671.004	0.0149264
671.082	0.0148315
671.160	0.0148473
671.238	0.0147221
671.317	0.0146716
671.395	0.0147502
671.473	0.0146973
671.551	0.0146666
671.629	0.0146516
671.707	0.0146394
671.785	0.0145280
671.863	0.0145860
671.942	0.0145531
672.020	0.0146400
672.098	0.0144364
672.176	0.0145361
672.254	0.0145335
672.332	0.0143871
672.410	0.0145153
672.488	0.0144556
672.567	0.0144975
672.645	0.0144737
672.723	0.0144245
672.801	0.0143108
672.879	0.0141228
672.957	0.0140774
673.035	0.0140068
673.113	0.0138245
673.192	0.0138152
673.270	0.0137333
673.348	0.0135608
673.426	0.0133512
673.504	0.0134889
673.582	0.0135091
673.660	0.0135465
673.738	0.0134017
673.817	0.0134226
673.895	0.0134068
673.973	0.0134902
674.051	0.0135485
674.129	0.0134167
674.207	0.0134781
674.285	0.0135612
674.363	0.0134449
674.442	0.0135927
674.520	0.0135513
674.598	0.0135233
674.676	0.0135419
674.754	0.0135323
674.832	0.0133521
674.910	0.0134282
674.988	0.0133917
675.067	0.0135582
675.145	0.0136221
675.223	0.0137033
675.301	0.0138181
675.379	0.0141621
675.457	0.0143807
675.535	0.0145138
675.613	0.0147272
675.692	0.0150112
675.770	0.0150546
675.848	0.0152472
675.926	0.0155217
676.004	0.0156197
676.082	0.0157360
676.160	0.0157546
676.238	0.0158347
676.317	0.0159608
676.395	0.0158736
676.473	0.0159490
676.551	0.0158212
676.629	0.0156699
676.707	0.0157549
676.785	0.0156297
676.863	0.0154922
676.942	0.0151292
677.020	0.0150435
677.098	0.0148739
677.176	0.0146773
677.254	0.0146690
677.332	0.0144940
677.410	0.0144042
677.488	0.0142458
677.567	0.0142661
677.645	0.0141003
677.723	0.0139759
677.801	0.0138897
677.879	0.0138284
677.957	0.0136739
678.035	0.0137198
678.113	0.0135500
678.192	0.0135863
678.270	0.0136107
678.348	0.0135534
678.426	0.0135061
678.504	0.0135796
678.582	0.0137123
678.660	0.0137521
678.738	0.0135843
678.817	0.0136576
678.895	0.0136619
678.973	0.0134617
679.051	0.0133138
679.129	0.0130865
679.207	0.0130096
679.285	0.0129533
679.363	0.0128342
679.442	0.0126382
679.520	0.0125581
679.598	0.0124574
679.676	0.0122518
679.754	0.0123408
679.832	0.0124070
679.910	0.0123959
679.988	0.0125703
680.067	0.0127351
680.145	0.0130309
680.223	0.0133363
680.301	0.0136325
680.379	0.0139268
680.457	0.0141735
680.535	0.0146029
680.613	0.0150901
680.692	0.0154884
680.770	0.0157720
680.848	0.0158656
680.926	0.0160212
681.004	0.0164378
681.082	0.0164397
681.160	0.0165059
681.238	0.0167472
681.317	0.0166806
681.395	0.0165641
681.473	0.0168227
681.551	0.0166426
681.629	0.0165695
681.707	0.0165157
681.785	0.0163570
681.863	0.0162057
681.942	0.0159322
682.020	0.0156737
682.098	0.0153957
682.176	0.0150877
682.254	0.0147900
682.332	0.0144884
682.410	0.0141978
682.488	0.0140139
682.567	0.0136834
682.645	0.0135030
682.723	0.0132036
682.801	0.0131203
682.879	0.0129297
682.957	0.0128008
683.035	0.0128258
683.113	0.0126979
683.192	0.0127550
683.270	0.0127153
683.348	0.0128001
683.426	0.0128157
683.504	0.0129677
683.582	0.0129704
683.660	0.0130036
683.738	0.0129971
683.817	0.0130654
683.895	0.0133044
683.973	0.0134644
684.051	0.0133883
684.129	0.0135080
684.207	0.0136339
684.285	0.0136739
684.363	0.0138337
684.442	0.0138420
684.520	0.0139134
684.598	0.0139466
684.676	0.0139732
684.754	0.0139587
684.832	0.0140669
684.910	0.0141109
684.988	0.0139963
685.067	0.0140102
685.145	0.0140205
685.223	0.0140412
685.301	0.0140536
685.379	0.0139169
685.457	0.0140757
685.535	0.0140024
685.613	0.0141126
685.692	0.0141552
