05/28/2022	14:10:41	Ver.	4.1	UNKNOWN
Optical Delay	599.988409	Delta X		0.078125	Sweeps	1	Scan Rate	0/0
Coordinates	Axis 1	NaN	Axis 2	NaN	Axis 3	NaN	Axis 4	NaN	Axis 5	NaN	Axis 6	0.000000
TX Power	0.000000	RX Power	0.000000

599.988	0.0144344
600.067	0.0144167
600.145	0.0145969
600.223	0.0143768
600.301	0.0144370
600.379	0.0145051
600.457	0.0145478
600.535	0.0144251
600.613	0.0144975
600.692	0.0145000
600.770	0.0145160
600.848	0.0144446
600.926	0.0145857
601.004	0.0144881
601.082	0.0144287
601.160	0.0143353
601.238	0.0146028
601.317	0.0143085
601.395	0.0144125
601.473	0.0144992
601.551	0.0144429
601.629	0.0144845
601.707	0.0143970
601.785	0.0142759
601.863	0.0144284
601.942	0.0145570
602.020	0.0144747
602.098	0.0145142
602.176	0.0145915
602.254	0.0143990
602.332	0.0144179
602.410	0.0143732
602.488	0.0144910
602.567	0.0145630
602.645	0.0143893
602.723	0.0145316
602.801	0.0145632
602.879	0.0144477
602.957	0.0144204
603.035	0.0145984
603.113	0.0144761
603.192	0.0144659
603.270	0.0144679
603.348	0.0145000
603.426	0.0144754
603.504	0.0144578
603.582	0.0144883
603.660	0.0144502
603.738	0.0144353
603.817	0.0142783
603.895	0.0145024
603.973	0.0145104
604.051	0.0143664
604.129	0.0146213
604.207	0.0145714
604.285	0.0145837
604.363	0.0145937
604.442	0.0145292
604.520	0.0143594
604.598	0.0144954
604.676	0.0145258
604.754	0.0144806
604.832	0.0145049
604.910	0.0144254
604.988	0.0145940
605.067	0.0145516
605.145	0.0144440
605.223	0.0144454
605.301	0.0144655
605.379	0.0145386
605.457	0.0144829
605.535	0.0144425
605.613	0.0145238
605.692	0.0145395
605.770	0.0145138
605.848	0.0144874
605.926	0.0143557
606.004	0.0145003
606.082	0.0146445
606.160	0.0145062
606.238	0.0144880
606.317	0.0145467
606.395	0.0145227
606.473	0.0144149
606.551	0.0143961
606.629	0.0144731
606.707	0.0146063
606.785	0.0146484
606.863	0.0146153
606.942	0.0144460
607.020	0.0143266
607.098	0.0144801
607.176	0.0146111
607.254	0.0144873
607.332	0.0145017
607.410	0.0145546
607.488	0.0145148
607.567	0.0144431
607.645	0.0144886
607.723	0.0145270
607.801	0.0145261
607.879	0.0145110
607.957	0.0144626
608.035	0.0145522
608.113	0.0144627
608.192	0.0145385
608.270	0.0146053
608.348	0.0143812
608.426	0.0145823
608.504	0.0145612
608.582	0.0144950
608.660	0.0145927
608.738	0.0146052
608.817	0.0143874
608.895	0.0144720
608.973	0.0145882
609.051	0.0144395
609.129	0.0145509
609.207	0.0144891
609.285	0.0146489
609.363	0.0144710
609.442	0.0145599
609.520	0.0144761
609.598	0.0144823
609.676	0.0145329
609.754	0.0145052
609.832	0.0144349
609.910	0.0144431
609.988	0.0146115
610.067	0.0145596
610.145	0.0146344
610.223	0.0144658
610.301	0.0145054
610.379	0.0145269
610.457	0.0145978
610.535	0.0145323
610.613	0.0145218
610.692	0.0145255
610.770	0.0144475
610.848	0.0145686
610.926	0.0143391
611.004	0.0144122
611.082	0.0146825
611.160	0.0145615
611.238	0.0144108
611.317	0.0144460
611.395	0.0145166
611.473	0.0144556
611.551	0.0145419
611.629	0.0145491
611.707	0.0145417
611.785	0.0144202
611.863	0.0144692
611.942	0.0144876
612.020	0.0145650
612.098	0.0144836
612.176	0.0142960
612.254	0.0144127
612.332	0.0145293
612.410	0.0143735
612.488	0.0145339
612.567	0.0144901
612.645	0.0144053
612.723	0.0143887
612.801	0.0144570
612.879	0.0144881
612.957	0.0144347
613.035	0.0144175
613.113	0.0144790
613.192	0.0143592
613.270	0.0144923
613.348	0.0145120
613.426	0.0144689
613.504	0.0143864
613.582	0.0144142
613.660	0.0145537
613.738	0.0144315
613.817	0.0144847
613.895	0.0145096
613.973	0.0143628
614.051	0.0146169
614.129	0.0144183
614.207	0.0145255
614.285	0.0143636
614.363	0.0145291
614.442	0.0144917
614.520	0.0143709
614.598	0.0145058
614.676	0.0145328
614.754	0.0145467
614.832	0.0145084
614.910	0.0144743
614.988	0.0144673
615.067	0.0145329
615.145	0.0145370
615.223	0.0146046
615.301	0.0145405
615.379	0.0143045
615.457	0.0143332
615.535	0.0143794
615.613	0.0144807
615.692	0.0144018
615.770	0.0144335
615.848	0.0144782
615.926	0.0144559
616.004	0.0144330
616.082	0.0143421
616.160	0.0145252
616.238	0.0144089
616.317	0.0143514
616.395	0.0144983
616.473	0.0144439
616.551	0.0144928
616.629	0.0145396
616.707	0.0144418
616.785	0.0145006
616.863	0.0145029
616.942	0.0145201
617.020	0.0143427
617.098	0.0143493
617.176	0.0144540
617.254	0.0144929
617.332	0.0143518
617.410	0.0144511
617.488	0.0143689
617.567	0.0143426
617.645	0.0144201
617.723	0.0144460
617.801	0.0144733
617.879	0.0143820
617.957	0.0144020
618.035	0.0144399
618.113	0.0144822
618.192	0.0144086
618.270	0.0144289
618.348	0.0144897
618.426	0.0145148
618.504	0.0144241
618.582	0.0144144
618.660	0.0143726
618.738	0.0144183
618.817	0.0143929
618.895	0.0143846
618.973	0.0145925
619.051	0.0144724
619.129	0.0144114
619.207	0.0143430
619.285	0.0144433
619.363	0.0144470
619.442	0.0144408
619.520	0.0143941
619.598	0.0143790
619.676	0.0142854
619.754	0.0144716
619.832	0.0144850
619.910	0.0145110
619.988	0.0144405
620.067	0.0145242
620.145	0.0144064
620.223	0.0144423
620.301	0.0144833
620.379	0.0144942
620.457	0.0146324
620.535	0.0144850
620.613	0.0143193
620.692	0.0144108
620.770	0.0145780
620.848	0.0143824
620.926	0.0143900
621.004	0.0144443
621.082	0.0144743
621.160	0.0144651
621.238	0.0144650
621.317	0.0144944
621.395	0.0142794
621.473	0.0144821
621.551	0.0143748
621.629	0.0144684
621.707	0.0144421
621.785	0.0143918
621.863	0.0142188
621.942	0.0144003
622.020	0.0144828
622.098	0.0144176
622.176	0.0144484
622.254	0.0144945
622.332	0.0144652
622.410	0.0144439
622.488	0.0143542
622.567	0.0145380
622.645	0.0144663
622.723	0.0144356
622.801	0.0145543
622.879	0.0144111
622.957	0.0144373
623.035	0.0144433
623.113	0.0144990
623.192	0.0144312
623.270	0.0143524
623.348	0.0143631
623.426	0.0143909
623.504	0.0144299
623.582	0.0145341
623.660	0.0145116
623.738	0.0144160
623.817	0.0145249
623.895	0.0144774
623.973	0.0145044
624.051	0.0145399
624.129	0.0145510
624.207	0.0145058
624.285	0.0144651
624.363	0.0145274
624.442	0.0144561
624.520	0.0145652
624.598	0.0144479
624.676	0.0144911
624.754	0.0144852
624.832	0.0145718
624.910	0.0143456
624.988	0.0143465
625.067	0.0143902
625.145	0.0144668
625.223	0.0144735
625.301	0.0145490
625.379	0.0145014
625.457	0.0145081
625.535	0.0143254
625.613	0.0145314
625.692	0.0144890
625.770	0.0144190
625.848	0.0144841
625.926	0.0142537
626.004	0.0143813
626.082	0.0144511
626.160	0.0145247
626.238	0.0144358
626.317	0.0144884
626.395	0.0144209
626.473	0.0144635
626.551	0.0145095
626.629	0.0144740
626.707	0.0145084
626.785	0.0144914
626.863	0.0144131
626.942	0.0144068
627.020	0.0143336
627.098	0.0145124
627.176	0.0144198
627.254	0.0144427
627.332	0.0144137
627.410	0.0145256
627.488	0.0144360
627.567	0.0145233
627.645	0.0144566
627.723	0.0144858
627.801	0.0143697
627.879	0.0144601
627.957	0.0144933
628.035	0.0144711
628.113	0.0144917
628.192	0.0143334
628.270	0.0145050
628.348	0.0144620
628.426	0.0144985
628.504	0.0145021
628.582	0.0144849
628.660	0.0145802
628.738	0.0144643
628.817	0.0145301
628.895	0.0145096
628.973	0.0144302
629.051	0.0143813
629.129	0.0144260
629.207	0.0146192
629.285	0.0144507
629.363	0.0145840
629.442	0.0146344
629.520	0.0145902
629.598	0.0144089
629.676	0.0144658
629.754	0.0146065
629.832	0.0146137
629.910	0.0145634
629.988	0.0145033
630.067	0.0145008
630.145	0.0143480
630.223	0.0145538
630.301	0.0144553
630.379	0.0144173
630.457	0.0145092
630.535	0.0143625
630.613	0.0145417
630.692	0.0144177
630.770	0.0144984
630.848	0.0144604
630.926	0.0144979
631.004	0.0144122
631.082	0.0143711
631.160	0.0144120
631.238	0.0144592
631.317	0.0144877
631.395	0.0144680
631.473	0.0143717
631.551	0.0144960
631.629	0.0144223
631.707	0.0144048
631.785	0.0144508
631.863	0.0144522
631.942	0.0145515
632.020	0.0143292
632.098	0.0145127
632.176	0.0144373
632.254	0.0145697
632.332	0.0144237
632.410	0.0144093
632.488	0.0145479
632.567	0.0145388
632.645	0.0144562
632.723	0.0145309
632.801	0.0144283
632.879	0.0143269
632.957	0.0143538
633.035	0.0144716
633.113	0.0144677
633.192	0.0145438
633.270	0.0143895
633.348	0.0144592
633.426	0.0145141
633.504	0.0144159
633.582	0.0145075
633.660	0.0144965
633.738	0.0144437
633.817	0.0144401
633.895	0.0143635
633.973	0.0142943
634.051	0.0145533
634.129	0.0145394
634.207	0.0144058
634.285	0.0141544
634.363	0.0143480
634.442	0.0144830
634.520	0.0144920
634.598	0.0144956
634.676	0.0144923
634.754	0.0144833
634.832	0.0144758
634.910	0.0144692
634.988	0.0144701
635.067	0.0145053
635.145	0.0144329
635.223	0.0145479
635.301	0.0145016
635.379	0.0144332
635.457	0.0144114
635.535	0.0145310
635.613	0.0144875
635.692	0.0144583
635.770	0.0143886
635.848	0.0144331
635.926	0.0144481
636.004	0.0145576
636.082	0.0144963
636.160	0.0144437
636.238	0.0144340
636.317	0.0146367
636.395	0.0144376
636.473	0.0144647
636.551	0.0144462
636.629	0.0143925
636.707	0.0144254
636.785	0.0144189
636.863	0.0144919
636.942	0.0145642
637.020	0.0144182
637.098	0.0144687
637.176	0.0144400
637.254	0.0143695
637.332	0.0145936
637.410	0.0144260
637.488	0.0144862
637.567	0.0145580
637.645	0.0143904
637.723	0.0142728
637.801	0.0145257
637.879	0.0145365
637.957	0.0144046
638.035	0.0144656
638.113	0.0144640
638.192	0.0144408
638.270	0.0142362
638.348	0.0143926
638.426	0.0145203
638.504	0.0144881
638.582	0.0144142
638.660	0.0144038
638.738	0.0142862
638.817	0.0143619
638.895	0.0143958
638.973	0.0143900
639.051	0.0145050
639.129	0.0143676
639.207	0.0144981
639.285	0.0144954
639.363	0.0144979
639.442	0.0142196
639.520	0.0145956
639.598	0.0145528
639.676	0.0144343
639.754	0.0144625
639.832	0.0143537
639.910	0.0143372
639.988	0.0144430
640.067	0.0145039
640.145	0.0144436
640.223	0.0142416
640.301	0.0143187
640.379	0.0144530
640.457	0.0144260
640.535	0.0143813
640.613	0.0144083
640.692	0.0145352
640.770	0.0143137
640.848	0.0144173
640.926	0.0144722
641.004	0.0143169
641.082	0.0142887
641.160	0.0143164
641.238	0.0144397
641.317	0.0144044
641.395	0.0143241
641.473	0.0144640
641.551	0.0144545
641.629	0.0143408
641.707	0.0143513
641.785	0.0144513
641.863	0.0144689
641.942	0.0143005
642.020	0.0143868
642.098	0.0144910
642.176	0.0144065
642.254	0.0144688
642.332	0.0143314
642.410	0.0143689
642.488	0.0143827
642.567	0.0143004
642.645	0.0143355
642.723	0.0143909
642.801	0.0143721
642.879	0.0143596
642.957	0.0144272
643.035	0.0143652
643.113	0.0144451
643.192	0.0144865
643.270	0.0142867
643.348	0.0142946
643.426	0.0142305
643.504	0.0143371
643.582	0.0144068
643.660	0.0143207
643.738	0.0142429
643.817	0.0144371
643.895	0.0144804
643.973	0.0144436
644.051	0.0144120
644.129	0.0143201
644.207	0.0142982
644.285	0.0142942
644.363	0.0142928
644.442	0.0143588
644.520	0.0144984
644.598	0.0144242
644.676	0.0142793
644.754	0.0143991
644.832	0.0143479
644.910	0.0142905
644.988	0.0143817
645.067	0.0144078
645.145	0.0143417
645.223	0.0144088
645.301	0.0144144
645.379	0.0144057
645.457	0.0143820
645.535	0.0143774
645.613	0.0144460
645.692	0.0144926
645.770	0.0145018
645.848	0.0143159
645.926	0.0143995
646.004	0.0145257
646.082	0.0145197
646.160	0.0144652
646.238	0.0144242
646.317	0.0143227
646.395	0.0145162
646.473	0.0143727
646.551	0.0143273
646.629	0.0145651
646.707	0.0143986
646.785	0.0143963
646.863	0.0143375
646.942	0.0142854
647.020	0.0144703
647.098	0.0144869
647.176	0.0142690
647.254	0.0144146
647.332	0.0143882
647.410	0.0145686
647.488	0.0144048
647.567	0.0144982
647.645	0.0142520
647.723	0.0144038
647.801	0.0144453
647.879	0.0144366
647.957	0.0143593
648.035	0.0143835
648.113	0.0143759
648.192	0.0143148
648.270	0.0143050
648.348	0.0144319
648.426	0.0145116
648.504	0.0145033
648.582	0.0142879
648.660	0.0143928
648.738	0.0144587
648.817	0.0143997
648.895	0.0145177
648.973	0.0144370
649.051	0.0143389
649.129	0.0144178
649.207	0.0143568
649.285	0.0143737
649.363	0.0143997
649.442	0.0144846
649.520	0.0143743
649.598	0.0145593
649.676	0.0144421
649.754	0.0144868
649.832	0.0143705
649.910	0.0145390
649.988	0.0144843
650.067	0.0144745
650.145	0.0144700
650.223	0.0144261
650.301	0.0144371
650.379	0.0143948
650.457	0.0144142
650.535	0.0144994
650.613	0.0144339
650.692	0.0144367
650.770	0.0143693
650.848	0.0144170
650.926	0.0144627
651.004	0.0143996
651.082	0.0145078
651.160	0.0144624
651.238	0.0143957
651.317	0.0144081
651.395	0.0142456
651.473	0.0144896
651.551	0.0144576
651.629	0.0144951
651.707	0.0144428
651.785	0.0143525
651.863	0.0143525
651.942	0.0144022
652.020	0.0144724
652.098	0.0143969
652.176	0.0145284
652.254	0.0144159
652.332	0.0143797
652.410	0.0144845
652.488	0.0143352
652.567	0.0143202
652.645	0.0144086
652.723	0.0144529
652.801	0.0143723
652.879	0.0144168
652.957	0.0144292
653.035	0.0144165
653.113	0.0144286
653.192	0.0144013
653.270	0.0143629
653.348	0.0144146
653.426	0.0144616
653.504	0.0143783
653.582	0.0143713
653.660	0.0144296
653.738	0.0144123
653.817	0.0143808
653.895	0.0144227
653.973	0.0143266
654.051	0.0144072
654.129	0.0144052
654.207	0.0144768
654.285	0.0144759
654.363	0.0146285
654.442	0.0144537
654.520	0.0143959
654.598	0.0144330
654.676	0.0145023
654.754	0.0143795
654.832	0.0144391
654.910	0.0145135
654.988	0.0144038
655.067	0.0144579
655.145	0.0144349
655.223	0.0144244
655.301	0.0144581
655.379	0.0144628
655.457	0.0145447
655.535	0.0144265
655.613	0.0145334
655.692	0.0145530
655.770	0.0145058
655.848	0.0144847
655.926	0.0144902
656.004	0.0144572
656.082	0.0145651
656.160	0.0144192
656.238	0.0142664
656.317	0.0143695
656.395	0.0143723
656.473	0.0144176
656.551	0.0144201
656.629	0.0144734
656.707	0.0144852
656.785	0.0144760
656.863	0.0145485
656.942	0.0144942
657.020	0.0146001
657.098	0.0145761
657.176	0.0146461
657.254	0.0145676
657.332	0.0145615
657.410	0.0147434
657.488	0.0147623
657.567	0.0145439
657.645	0.0145284
657.723	0.0147752
657.801	0.0146001
657.879	0.0145522
657.957	0.0145186
658.035	0.0144742
658.113	0.0144225
658.192	0.0142244
658.270	0.0140720
658.348	0.0141103
658.426	0.0141431
658.504	0.0140458
658.582	0.0139140
658.660	0.0139214
658.738	0.0139513
658.817	0.0140273
658.895	0.0140752
658.973	0.0142220
659.051	0.0143578
659.129	0.0142661
659.207	0.0142805
659.285	0.0144167
659.363	0.0145259
659.442	0.0144414
659.520	0.0142731
659.598	0.0143970
659.676	0.0144736
659.754	0.0144247
659.832	0.0146060
659.910	0.0147293
659.988	0.0146136
660.067	0.0146264
660.145	0.0146780
660.223	0.0148050
660.301	0.0146731
660.379	0.0145238
660.457	0.0146093
660.535	0.0145949
660.613	0.0146021
660.692	0.0143947
660.770	0.0145236
660.848	0.0145524
660.926	0.0145353
661.004	0.0146192
661.082	0.0147190
661.160	0.0146667
661.238	0.0147864
661.317	0.0148360
661.395	0.0147459
661.473	0.0147766
661.551	0.0145998
661.629	0.0146491
661.707	0.0146822
661.785	0.0145680
661.863	0.0146673
661.942	0.0145105
662.020	0.0144084
662.098	0.0144865
662.176	0.0145211
662.254	0.0143250
662.332	0.0141074
662.410	0.0142831
662.488	0.0142165
662.567	0.0141171
662.645	0.0139785
662.723	0.0139827
662.801	0.0139862
662.879	0.0140254
662.957	0.0138436
663.035	0.0138100
663.113	0.0135792
663.192	0.0136676
663.270	0.0136016
663.348	0.0136596
663.426	0.0136722
663.504	0.0134975
663.582	0.0138199
663.660	0.0141711
663.738	0.0142925
663.817	0.0142655
663.895	0.0145807
663.973	0.0148902
664.051	0.0149596
664.129	0.0150101
664.207	0.0151906
664.285	0.0151914
664.363	0.0151884
664.442	0.0151809
664.520	0.0150875
664.598	0.0150797
664.676	0.0149347
664.754	0.0150222
664.832	0.0149938
664.910	0.0148355
664.988	0.0150150
665.067	0.0148750
665.145	0.0149989
665.223	0.0147966
665.301	0.0148387
665.379	0.0148767
665.457	0.0148369
665.535	0.0146449
665.613	0.0146706
665.692	0.0145091
665.770	0.0145940
665.848	0.0144552
665.926	0.0142442
666.004	0.0143588
666.082	0.0145057
666.160	0.0144970
666.238	0.0143852
666.317	0.0143747
666.395	0.0144064
666.473	0.0143711
666.551	0.0144057
666.629	0.0142658
666.707	0.0141154
666.785	0.0139695
666.863	0.0138039
666.942	0.0135303
667.020	0.0136356
667.098	0.0134492
667.176	0.0131618
667.254	0.0131862
667.332	0.0130343
667.410	0.0130096
667.488	0.0131113
667.567	0.0131913
667.645	0.0134727
667.723	0.0134344
667.801	0.0136090
667.879	0.0138195
667.957	0.0141006
668.035	0.0142919
668.113	0.0145432
668.192	0.0145651
668.270	0.0149886
668.348	0.0152148
668.426	0.0153635
668.504	0.0154169
668.582	0.0154591
668.660	0.0154850
668.738	0.0154889
668.817	0.0154249
668.895	0.0152306
668.973	0.0152004
669.051	0.0152187
669.129	0.0152135
669.207	0.0149742
669.285	0.0150006
669.363	0.0149998
669.442	0.0148415
669.520	0.0149052
669.598	0.0149242
669.676	0.0150446
669.754	0.0147386
669.832	0.0148605
669.910	0.0147626
669.988	0.0146625
670.067	0.0147358
670.145	0.0146183
670.223	0.0147403
670.301	0.0145797
670.379	0.0148173
670.457	0.0148267
670.535	0.0146723
670.613	0.0147028
670.692	0.0146004
670.770	0.0147643
670.848	0.0146683
670.926	0.0144307
671.004	0.0142009
671.082	0.0142337
671.160	0.0140008
671.238	0.0139777
671.317	0.0137234
671.395	0.0137634
671.473	0.0137566
671.551	0.0137903
671.629	0.0137707
671.707	0.0137206
671.785	0.0137466
671.863	0.0138181
671.942	0.0138404
672.020	0.0137694
672.098	0.0138840
672.176	0.0137337
672.254	0.0137448
672.332	0.0138570
672.410	0.0138353
672.488	0.0137373
672.567	0.0138741
672.645	0.0139674
672.723	0.0139424
672.801	0.0139060
672.879	0.0139927
672.957	0.0140519
673.035	0.0142056
673.113	0.0141522
673.192	0.0142568
673.270	0.0142546
673.348	0.0142870
673.426	0.0144095
673.504	0.0146342
673.582	0.0147061
673.660	0.0147014
673.738	0.0148671
673.817	0.0148431
673.895	0.0149117
673.973	0.0151546
674.051	0.0150431
674.129	0.0151526
674.207	0.0149957
674.285	0.0150795
674.363	0.0154475
674.442	0.0153131
674.520	0.0153770
674.598	0.0154374
674.676	0.0155101
674.754	0.0154522
674.832	0.0155210
674.910	0.0154021
674.988	0.0154908
675.067	0.0155175
675.145	0.0153795
675.223	0.0151971
675.301	0.0153806
675.379	0.0152074
675.457	0.0150692
675.535	0.0150851
675.613	0.0149467
675.692	0.0149986
675.770	0.0149902
675.848	0.0148673
675.926	0.0146711
676.004	0.0144446
676.082	0.0145001
676.160	0.0142171
676.238	0.0138505
676.317	0.0137045
676.395	0.0134724
676.473	0.0135312
676.551	0.0132977
676.629	0.0131776
676.707	0.0131042
676.785	0.0131146
676.863	0.0130033
676.942	0.0129846
677.020	0.0130276
677.098	0.0130975
677.176	0.0131532
677.254	0.0131744
677.332	0.0133283
677.410	0.0134126
677.488	0.0136475
677.567	0.0137345
677.645	0.0138974
677.723	0.0139466
677.801	0.0140938
677.879	0.0143917
677.957	0.0143976
678.035	0.0145119
678.113	0.0144531
678.192	0.0144295
678.270	0.0145647
678.348	0.0144861
678.426	0.0145625
678.504	0.0145943
678.582	0.0144551
678.660	0.0143220
678.738	0.0141258
678.817	0.0140876
678.895	0.0140606
678.973	0.0141803
679.051	0.0141739
679.129	0.0142893
679.207	0.0142089
679.285	0.0142441
679.363	0.0145915
679.442	0.0148701
679.520	0.0149094
679.598	0.0152917
679.676	0.0157249
679.754	0.0158558
679.832	0.0163116
679.910	0.0163985
679.988	0.0165865
680.067	0.0168005
680.145	0.0170066
680.223	0.0170905
680.301	0.0168665
680.379	0.0166669
680.457	0.0166634
680.535	0.0164052
680.613	0.0160976
680.692	0.0157744
680.770	0.0154084
680.848	0.0151964
680.926	0.0147778
681.004	0.0144042
681.082	0.0141040
681.160	0.0136835
681.238	0.0135207
681.317	0.0132333
681.395	0.0130649
681.473	0.0128651
681.551	0.0126978
681.629	0.0126219
681.707	0.0124136
681.785	0.0124657
681.863	0.0124123
681.942	0.0124306
682.020	0.0125115
682.098	0.0125023
682.176	0.0126262
682.254	0.0128020
682.332	0.0127633
682.410	0.0131435
682.488	0.0132213
682.567	0.0134426
682.645	0.0136540
682.723	0.0138284
682.801	0.0139419
682.879	0.0142123
682.957	0.0142754
683.035	0.0145531
683.113	0.0146630
683.192	0.0145652
683.270	0.0147597
683.348	0.0148399
683.426	0.0148185
683.504	0.0148496
683.582	0.0149220
683.660	0.0148210
683.738	0.0149416
683.817	0.0149565
683.895	0.0148195
683.973	0.0148095
684.051	0.0149037
684.129	0.0148005
684.207	0.0148086
684.285	0.0148118
684.363	0.0147872
684.442	0.0147631
684.520	0.0147825
684.598	0.0148734
684.676	0.0147791
684.754	0.0147694
684.832	0.0147776
684.910	0.0148904
684.988	0.0149079
685.067	0.0149584
685.145	0.0153047
685.223	0.0153390
685.301	0.0155927
685.379	0.0155791
685.457	0.0158073
685.535	0.0158059
685.613	0.0157865
685.692	0.0156921
