05/28/2022	14:11:21	Ver.	4.1	UNKNOWN
Optical Delay	599.988409	Delta X		0.078125	Sweeps	1	Scan Rate	0/0
Coordinates	Axis 1	NaN	Axis 2	NaN	Axis 3	NaN	Axis 4	NaN	Axis 5	NaN	Axis 6	0.000000
TX Power	0.000000	RX Power	0.000000

599.988	0.0144968
600.067	0.0144828
600.145	0.0144711
600.223	0.0144306
600.301	0.0145370
600.379	0.0144551
600.457	0.0145200
600.535	0.0146429
600.613	0.0144666
600.692	0.0144439
600.770	0.0145285
600.848	0.0145223
600.926	0.0145486
601.004	0.0146090
601.082	0.0145892
601.160	0.0145434
601.238	0.0144143
601.317	0.0145858
601.395	0.0145655
601.473	0.0145681
601.551	0.0145277
601.629	0.0144901
601.707	0.0145275
601.785	0.0146125
601.863	0.0146287
601.942	0.0144398
602.020	0.0144714
602.098	0.0144396
602.176	0.0143719
602.254	0.0145147
602.332	0.0145484
602.410	0.0144643
602.488	0.0145019
602.567	0.0146291
602.645	0.0144106
602.723	0.0142973
602.801	0.0145535
602.879	0.0143539
602.957	0.0145325
603.035	0.0144777
603.113	0.0143703
603.192	0.0144565
603.270	0.0144210
603.348	0.0144704
603.426	0.0144753
603.504	0.0144648
603.582	0.0145498
603.660	0.0143969
603.738	0.0145467
603.817	0.0145476
603.895	0.0144028
603.973	0.0145373
604.051	0.0143764
604.129	0.0145381
604.207	0.0144828
604.285	0.0144772
604.363	0.0145211
604.442	0.0144587
604.520	0.0144279
604.598	0.0145441
604.676	0.0144943
604.754	0.0144540
604.832	0.0145918
604.910	0.0145699
604.988	0.0145701
605.067	0.0145559
605.145	0.0144636
605.223	0.0143881
605.301	0.0145193
605.379	0.0143741
605.457	0.0143990
605.535	0.0144836
605.613	0.0144122
605.692	0.0144978
605.770	0.0145426
605.848	0.0144637
605.926	0.0144411
606.004	0.0144977
606.082	0.0145630
606.160	0.0145499
606.238	0.0143722
606.317	0.0144231
606.395	0.0143643
606.473	0.0145525
606.551	0.0144512
606.629	0.0144884
606.707	0.0145680
606.785	0.0144083
606.863	0.0144186
606.942	0.0143461
607.020	0.0144107
607.098	0.0143951
607.176	0.0144689
607.254	0.0144576
607.332	0.0145572
607.410	0.0144526
607.488	0.0144563
607.567	0.0144547
607.645	0.0144439
607.723	0.0145145
607.801	0.0143800
607.879	0.0145154
607.957	0.0145968
608.035	0.0144062
608.113	0.0145757
608.192	0.0144692
608.270	0.0144617
608.348	0.0145002
608.426	0.0145332
608.504	0.0145586
608.582	0.0144597
608.660	0.0144527
608.738	0.0146168
608.817	0.0144321
608.895	0.0145253
608.973	0.0145531
609.051	0.0144274
609.129	0.0144319
609.207	0.0146685
609.285	0.0146375
609.363	0.0144221
609.442	0.0144060
609.520	0.0144096
609.598	0.0144212
609.676	0.0143794
609.754	0.0144235
609.832	0.0143791
609.910	0.0144453
609.988	0.0145258
610.067	0.0144968
610.145	0.0144414
610.223	0.0145103
610.301	0.0145122
610.379	0.0143688
610.457	0.0144319
610.535	0.0145127
610.613	0.0143680
610.692	0.0143764
610.770	0.0144496
610.848	0.0144782
610.926	0.0144421
611.004	0.0145818
611.082	0.0145341
611.160	0.0145271
611.238	0.0145080
611.317	0.0145518
611.395	0.0143932
611.473	0.0143759
611.551	0.0144024
611.629	0.0146120
611.707	0.0144359
611.785	0.0142142
611.863	0.0144957
611.942	0.0144988
612.020	0.0144673
612.098	0.0144299
612.176	0.0144751
612.254	0.0143710
612.332	0.0143661
612.410	0.0145229
612.488	0.0144884
612.567	0.0145150
612.645	0.0144542
612.723	0.0144971
612.801	0.0145075
612.879	0.0143665
612.957	0.0143797
613.035	0.0143239
613.113	0.0144228
613.192	0.0145097
613.270	0.0144051
613.348	0.0144839
613.426	0.0146294
613.504	0.0144707
613.582	0.0144794
613.660	0.0145410
613.738	0.0144952
613.817	0.0144899
613.895	0.0145146
613.973	0.0145271
614.051	0.0143845
614.129	0.0144925
614.207	0.0145339
614.285	0.0144241
614.363	0.0145276
614.442	0.0145345
614.520	0.0143747
614.598	0.0144227
614.676	0.0144360
614.754	0.0144013
614.832	0.0145316
614.910	0.0144759
614.988	0.0144843
615.067	0.0144426
615.145	0.0145406
615.223	0.0144675
615.301	0.0144173
615.379	0.0143931
615.457	0.0144562
615.535	0.0145238
615.613	0.0145612
615.692	0.0143239
615.770	0.0144339
615.848	0.0144667
615.926	0.0144852
616.004	0.0144305
616.082	0.0144865
616.160	0.0144625
616.238	0.0145528
616.317	0.0144601
616.395	0.0144734
616.473	0.0145493
616.551	0.0145947
616.629	0.0144282
616.707	0.0143538
616.785	0.0145333
616.863	0.0145032
616.942	0.0145557
617.020	0.0145267
617.098	0.0144411
617.176	0.0145676
617.254	0.0145782
617.332	0.0144471
617.410	0.0144360
617.488	0.0144831
617.567	0.0144457
617.645	0.0144936
617.723	0.0144769
617.801	0.0144193
617.879	0.0145448
617.957	0.0145502
618.035	0.0144352
618.113	0.0144642
618.192	0.0145377
618.270	0.0143269
618.348	0.0144117
618.426	0.0145988
618.504	0.0144470
618.582	0.0143157
618.660	0.0143942
618.738	0.0145241
618.817	0.0145049
618.895	0.0145194
618.973	0.0144655
619.051	0.0143578
619.129	0.0145930
619.207	0.0144361
619.285	0.0144392
619.363	0.0144962
619.442	0.0144696
619.520	0.0144515
619.598	0.0144752
619.676	0.0145257
619.754	0.0145309
619.832	0.0144905
619.910	0.0145069
619.988	0.0145760
620.067	0.0145452
620.145	0.0145712
620.223	0.0144897
620.301	0.0144590
620.379	0.0144488
620.457	0.0144669
620.535	0.0145567
620.613	0.0145968
620.692	0.0144694
620.770	0.0145029
620.848	0.0145541
620.926	0.0145940
621.004	0.0145811
621.082	0.0145033
621.160	0.0143652
621.238	0.0145628
621.317	0.0146068
621.395	0.0145291
621.473	0.0143539
621.551	0.0144360
621.629	0.0144231
621.707	0.0146136
621.785	0.0145736
621.863	0.0145057
621.942	0.0144950
622.020	0.0145335
622.098	0.0144404
622.176	0.0145647
622.254	0.0146166
622.332	0.0146481
622.410	0.0146539
622.488	0.0146247
622.567	0.0145588
622.645	0.0144753
622.723	0.0145746
622.801	0.0145465
622.879	0.0144218
622.957	0.0145360
623.035	0.0144028
623.113	0.0145335
623.192	0.0144955
623.270	0.0143216
623.348	0.0144855
623.426	0.0145321
623.504	0.0144702
623.582	0.0143862
623.660	0.0146071
623.738	0.0145412
623.817	0.0143653
623.895	0.0146673
623.973	0.0146095
624.051	0.0145877
624.129	0.0144414
624.207	0.0144869
624.285	0.0145689
624.363	0.0144534
624.442	0.0145312
624.520	0.0144675
624.598	0.0144762
624.676	0.0144906
624.754	0.0145731
624.832	0.0145049
624.910	0.0145379
624.988	0.0144060
625.067	0.0145829
625.145	0.0143489
625.223	0.0145234
625.301	0.0145881
625.379	0.0145072
625.457	0.0144943
625.535	0.0144064
625.613	0.0144664
625.692	0.0144757
625.770	0.0146436
625.848	0.0145181
625.926	0.0144902
626.004	0.0144168
626.082	0.0144495
626.160	0.0146160
626.238	0.0144872
626.317	0.0144983
626.395	0.0144838
626.473	0.0145113
626.551	0.0144532
626.629	0.0144054
626.707	0.0145599
626.785	0.0145413
626.863	0.0143958
626.942	0.0145671
627.020	0.0144785
627.098	0.0143748
627.176	0.0144363
627.254	0.0145980
627.332	0.0144202
627.410	0.0145040
627.488	0.0145298
627.567	0.0144035
627.645	0.0144135
627.723	0.0144546
627.801	0.0144127
627.879	0.0145628
627.957	0.0145116
628.035	0.0143915
628.113	0.0145162
628.192	0.0144866
628.270	0.0144418
628.348	0.0145305
628.426	0.0144675
628.504	0.0144412
628.582	0.0144565
628.660	0.0144108
628.738	0.0145013
628.817	0.0144286
628.895	0.0144867
628.973	0.0145219
629.051	0.0145376
629.129	0.0144297
629.207	0.0143835
629.285	0.0144958
629.363	0.0144817
629.442	0.0143800
629.520	0.0143691
629.598	0.0144605
629.676	0.0144898
629.754	0.0144810
629.832	0.0143752
629.910	0.0145376
629.988	0.0142715
630.067	0.0144977
630.145	0.0145364
630.223	0.0144682
630.301	0.0145181
630.379	0.0144259
630.457	0.0145012
630.535	0.0145210
630.613	0.0144293
630.692	0.0145565
630.770	0.0145805
630.848	0.0144723
630.926	0.0145049
631.004	0.0145945
631.082	0.0145300
631.160	0.0144043
631.238	0.0143190
631.317	0.0145313
631.395	0.0144646
631.473	0.0144920
631.551	0.0145133
631.629	0.0146110
631.707	0.0145384
631.785	0.0144867
631.863	0.0144077
631.942	0.0143547
632.020	0.0146487
632.098	0.0146763
632.176	0.0144302
632.254	0.0145594
632.332	0.0145518
632.410	0.0145789
632.488	0.0144836
632.567	0.0143656
632.645	0.0146047
632.723	0.0144312
632.801	0.0144469
632.879	0.0144608
632.957	0.0144905
633.035	0.0144398
633.113	0.0145214
633.192	0.0145647
633.270	0.0144619
633.348	0.0144636
633.426	0.0144692
633.504	0.0144366
633.582	0.0144110
633.660	0.0146262
633.738	0.0144206
633.817	0.0144342
633.895	0.0144394
633.973	0.0144899
634.051	0.0144330
634.129	0.0145367
634.207	0.0145203
634.285	0.0144730
634.363	0.0144628
634.442	0.0145454
634.520	0.0145780
634.598	0.0144714
634.676	0.0144219
634.754	0.0144768
634.832	0.0144604
634.910	0.0145038
634.988	0.0145998
635.067	0.0144726
635.145	0.0143394
635.223	0.0144748
635.301	0.0145576
635.379	0.0145033
635.457	0.0144598
635.535	0.0145191
635.613	0.0144941
635.692	0.0144702
635.770	0.0145312
635.848	0.0144053
635.926	0.0144982
636.004	0.0144736
636.082	0.0144099
636.160	0.0143884
636.238	0.0145165
636.317	0.0146139
636.395	0.0143913
636.473	0.0145270
636.551	0.0144835
636.629	0.0144868
636.707	0.0145749
636.785	0.0144088
636.863	0.0145415
636.942	0.0145444
637.020	0.0145284
637.098	0.0144828
637.176	0.0144971
637.254	0.0144320
637.332	0.0146011
637.410	0.0144868
637.488	0.0145376
637.567	0.0144714
637.645	0.0145277
637.723	0.0144549
637.801	0.0145264
637.879	0.0143815
637.957	0.0145662
638.035	0.0145156
638.113	0.0145882
638.192	0.0144995
638.270	0.0145275
638.348	0.0144806
638.426	0.0145146
638.504	0.0144885
638.582	0.0145217
638.660	0.0145406
638.738	0.0144826
638.817	0.0144759
638.895	0.0144819
638.973	0.0144006
639.051	0.0145480
639.129	0.0144852
639.207	0.0143609
639.285	0.0145791
639.363	0.0145023
639.442	0.0142458
639.520	0.0144787
639.598	0.0145947
639.676	0.0144321
639.754	0.0144067
639.832	0.0144247
639.910	0.0144361
639.988	0.0143905
640.067	0.0144250
640.145	0.0145580
640.223	0.0144667
640.301	0.0144994
640.379	0.0145278
640.457	0.0144279
640.535	0.0144347
640.613	0.0145990
640.692	0.0144770
640.770	0.0144524
640.848	0.0144314
640.926	0.0143776
641.004	0.0143598
641.082	0.0143487
641.160	0.0145062
641.238	0.0145629
641.317	0.0143750
641.395	0.0143410
641.473	0.0144099
641.551	0.0143916
641.629	0.0144861
641.707	0.0144647
641.785	0.0145120
641.863	0.0146877
641.942	0.0143609
642.020	0.0146788
642.098	0.0145770
642.176	0.0145840
642.254	0.0146238
642.332	0.0144591
642.410	0.0143913
642.488	0.0145275
642.567	0.0145281
642.645	0.0145789
642.723	0.0146667
642.801	0.0145300
642.879	0.0145387
642.957	0.0145097
643.035	0.0144923
643.113	0.0146522
643.192	0.0146171
643.270	0.0145074
643.348	0.0145496
643.426	0.0145253
643.504	0.0144342
643.582	0.0145175
643.660	0.0145751
643.738	0.0144971
643.817	0.0145882
643.895	0.0146222
643.973	0.0145514
644.051	0.0145011
644.129	0.0144563
644.207	0.0144656
644.285	0.0144475
644.363	0.0144355
644.442	0.0146971
644.520	0.0146073
644.598	0.0144435
644.676	0.0145313
644.754	0.0144706
644.832	0.0146055
644.910	0.0145502
644.988	0.0145667
645.067	0.0145492
645.145	0.0145094
645.223	0.0144808
645.301	0.0144530
645.379	0.0145298
645.457	0.0145746
645.535	0.0144572
645.613	0.0144939
645.692	0.0145845
645.770	0.0144917
645.848	0.0144563
645.926	0.0145778
646.004	0.0145763
646.082	0.0144283
646.160	0.0145503
646.238	0.0144277
646.317	0.0145875
646.395	0.0144527
646.473	0.0145341
646.551	0.0145393
646.629	0.0145762
646.707	0.0146022
646.785	0.0145244
646.863	0.0146047
646.942	0.0145356
647.020	0.0145255
647.098	0.0145626
647.176	0.0145003
647.254	0.0145292
647.332	0.0145413
647.410	0.0145958
647.488	0.0145646
647.567	0.0145670
647.645	0.0145560
647.723	0.0143697
647.801	0.0144141
647.879	0.0145239
647.957	0.0145092
648.035	0.0145209
648.113	0.0145941
648.192	0.0144736
648.270	0.0144525
648.348	0.0145797
648.426	0.0145552
648.504	0.0144977
648.582	0.0146591
648.660	0.0145196
648.738	0.0144939
648.817	0.0145691
648.895	0.0145011
648.973	0.0144752
649.051	0.0144941
649.129	0.0145015
649.207	0.0145011
649.285	0.0145580
649.363	0.0145160
649.442	0.0143555
649.520	0.0144350
649.598	0.0144844
649.676	0.0145537
649.754	0.0146375
649.832	0.0145580
649.910	0.0143504
649.988	0.0143698
650.067	0.0144060
650.145	0.0144778
650.223	0.0144107
650.301	0.0144342
650.379	0.0145519
650.457	0.0144001
650.535	0.0143824
650.613	0.0144500
650.692	0.0145252
650.770	0.0143565
650.848	0.0144692
650.926	0.0145652
651.004	0.0145556
651.082	0.0144714
651.160	0.0144444
651.238	0.0143819
651.317	0.0143868
651.395	0.0144549
651.473	0.0147134
651.551	0.0144223
651.629	0.0143450
651.707	0.0145833
651.785	0.0144539
651.863	0.0144753
651.942	0.0145081
652.020	0.0145316
652.098	0.0146407
652.176	0.0145920
652.254	0.0143777
652.332	0.0144379
652.410	0.0145530
652.488	0.0145501
652.567	0.0144968
652.645	0.0145905
652.723	0.0146029
652.801	0.0145644
652.879	0.0144569
652.957	0.0146054
653.035	0.0145664
653.113	0.0144484
653.192	0.0146519
653.270	0.0145858
653.348	0.0145991
653.426	0.0144193
653.504	0.0146195
653.582	0.0145829
653.660	0.0146326
653.738	0.0146424
653.817	0.0145171
653.895	0.0145067
653.973	0.0145409
654.051	0.0144535
654.129	0.0144813
654.207	0.0145682
654.285	0.0144552
654.363	0.0145379
654.442	0.0144454
654.520	0.0143614
654.598	0.0144049
654.676	0.0145242
654.754	0.0144216
654.832	0.0144330
654.910	0.0144355
654.988	0.0145654
655.067	0.0145331
655.145	0.0145692
655.223	0.0145929
655.301	0.0146525
655.379	0.0146354
655.457	0.0146666
655.535	0.0146813
655.613	0.0146488
655.692	0.0146025
655.770	0.0146397
655.848	0.0146146
655.926	0.0148117
656.004	0.0146278
656.082	0.0147363
656.160	0.0147708
656.238	0.0146606
656.317	0.0146298
656.395	0.0145898
656.473	0.0144386
656.551	0.0143840
656.629	0.0142780
656.707	0.0141428
656.785	0.0140092
656.863	0.0139775
656.942	0.0140330
657.020	0.0141570
657.098	0.0142932
657.176	0.0142014
657.254	0.0142043
657.332	0.0143347
657.410	0.0143420
657.488	0.0144365
657.567	0.0144728
657.645	0.0146107
657.723	0.0145197
657.801	0.0144746
657.879	0.0146924
657.957	0.0145856
658.035	0.0144759
658.113	0.0146178
658.192	0.0147833
658.270	0.0147727
658.348	0.0147684
658.426	0.0146117
658.504	0.0146381
658.582	0.0148233
658.660	0.0146973
658.738	0.0145872
658.817	0.0146825
658.895	0.0147926
658.973	0.0146420
659.051	0.0147173
659.129	0.0147491
659.207	0.0146271
659.285	0.0146947
659.363	0.0147953
659.442	0.0147658
659.520	0.0148571
659.598	0.0147224
659.676	0.0147900
659.754	0.0147869
659.832	0.0147191
659.910	0.0147088
659.988	0.0146698
660.067	0.0146762
660.145	0.0146085
660.223	0.0144511
660.301	0.0144951
660.379	0.0145229
660.457	0.0143523
660.535	0.0145245
660.613	0.0143516
660.692	0.0144397
660.770	0.0143204
660.848	0.0144109
660.926	0.0143417
661.004	0.0141676
661.082	0.0141711
661.160	0.0141434
661.238	0.0139983
661.317	0.0138874
661.395	0.0138490
661.473	0.0136961
661.551	0.0138073
661.629	0.0136916
661.707	0.0137159
661.785	0.0136834
661.863	0.0137150
661.942	0.0138712
662.020	0.0140839
662.098	0.0143209
662.176	0.0143842
662.254	0.0147243
662.332	0.0148250
662.410	0.0149095
662.488	0.0150901
662.567	0.0152403
662.645	0.0151211
662.723	0.0150949
662.801	0.0152399
662.879	0.0151058
662.957	0.0150050
663.035	0.0150869
663.113	0.0150298
663.192	0.0151167
663.270	0.0149115
663.348	0.0148929
663.426	0.0150337
663.504	0.0150737
663.582	0.0149963
663.660	0.0148617
663.738	0.0148350
663.817	0.0149037
663.895	0.0147955
663.973	0.0146594
664.051	0.0147249
664.129	0.0145954
664.207	0.0145375
664.285	0.0146201
664.363	0.0145421
664.442	0.0145277
664.520	0.0144914
664.598	0.0145487
664.676	0.0144975
664.754	0.0144832
664.832	0.0143570
664.910	0.0143119
664.988	0.0142581
665.067	0.0142800
665.145	0.0140267
665.223	0.0139990
665.301	0.0138155
665.379	0.0137584
665.457	0.0134679
665.535	0.0135350
665.613	0.0133956
665.692	0.0133371
665.770	0.0132915
665.848	0.0133408
665.926	0.0133259
666.004	0.0133684
666.082	0.0137707
666.160	0.0138661
666.238	0.0141420
666.317	0.0142699
666.395	0.0145229
666.473	0.0146984
666.551	0.0149304
666.629	0.0149773
666.707	0.0152936
666.785	0.0154218
666.863	0.0154199
666.942	0.0154527
667.020	0.0154029
667.098	0.0153652
667.176	0.0153099
667.254	0.0153249
667.332	0.0153421
667.410	0.0151752
667.488	0.0151127
667.567	0.0151413
667.645	0.0149872
667.723	0.0150112
667.801	0.0150035
667.879	0.0149845
667.957	0.0150723
668.035	0.0149801
668.113	0.0149631
668.192	0.0149182
668.270	0.0147992
668.348	0.0148494
668.426	0.0149091
668.504	0.0147221
668.582	0.0146886
668.660	0.0147528
668.738	0.0147699
668.817	0.0148108
668.895	0.0147474
668.973	0.0147836
669.051	0.0145780
669.129	0.0147258
669.207	0.0145366
669.285	0.0143369
669.363	0.0142771
669.442	0.0138922
669.520	0.0141364
669.598	0.0140311
669.676	0.0138541
669.754	0.0136083
669.832	0.0136712
669.910	0.0137718
669.988	0.0138871
670.067	0.0138837
670.145	0.0138066
670.223	0.0136876
670.301	0.0136958
670.379	0.0139455
670.457	0.0136642
670.535	0.0137906
670.613	0.0138300
670.692	0.0139632
670.770	0.0140182
670.848	0.0141245
670.926	0.0141817
671.004	0.0141540
671.082	0.0140974
671.160	0.0140551
671.238	0.0141068
671.317	0.0141831
671.395	0.0141368
671.473	0.0142534
671.551	0.0143349
671.629	0.0144101
671.707	0.0144780
671.785	0.0144765
671.863	0.0146651
671.942	0.0146667
672.020	0.0146939
672.098	0.0149778
672.176	0.0149769
672.254	0.0151160
672.332	0.0151792
672.410	0.0152370
672.488	0.0154286
672.567	0.0154573
672.645	0.0153851
672.723	0.0155328
672.801	0.0154401
672.879	0.0154473
672.957	0.0153791
673.035	0.0152950
673.113	0.0151788
673.192	0.0152003
673.270	0.0150440
673.348	0.0150470
673.426	0.0148697
673.504	0.0148131
673.582	0.0147775
673.660	0.0147237
673.738	0.0146326
673.817	0.0147302
673.895	0.0147923
673.973	0.0146458
674.051	0.0147783
674.129	0.0146789
674.207	0.0147292
674.285	0.0146783
674.363	0.0147696
674.442	0.0146902
674.520	0.0145144
674.598	0.0143443
674.676	0.0145050
674.754	0.0142920
674.832	0.0140238
674.910	0.0140751
674.988	0.0139165
675.067	0.0140498
675.145	0.0139686
675.223	0.0138221
675.301	0.0137184
675.379	0.0135019
675.457	0.0135290
675.535	0.0135865
675.613	0.0134026
675.692	0.0134585
675.770	0.0135429
675.848	0.0133994
675.926	0.0132457
676.004	0.0134776
676.082	0.0135793
676.160	0.0133663
676.238	0.0136202
676.317	0.0137435
676.395	0.0138297
676.473	0.0137669
676.551	0.0138583
676.629	0.0139297
676.707	0.0140550
676.785	0.0143333
676.863	0.0145213
676.942	0.0144514
677.020	0.0147775
677.098	0.0149886
677.176	0.0150674
677.254	0.0152504
677.332	0.0154358
677.410	0.0155761
677.488	0.0154329
677.567	0.0155477
677.645	0.0157312
677.723	0.0155760
677.801	0.0157377
677.879	0.0156804
677.957	0.0156568
678.035	0.0156874
678.113	0.0155538
678.192	0.0155103
678.270	0.0154044
678.348	0.0153609
678.426	0.0153842
678.504	0.0152098
678.582	0.0151153
678.660	0.0151475
678.738	0.0150256
678.817	0.0148994
678.895	0.0147794
678.973	0.0147452
679.051	0.0148074
679.129	0.0146661
679.207	0.0146769
679.285	0.0145879
679.363	0.0144283
679.442	0.0145664
679.520	0.0144776
679.598	0.0145160
679.676	0.0145187
679.754	0.0147536
679.832	0.0146675
679.910	0.0146883
679.988	0.0146127
680.067	0.0146642
680.145	0.0146068
680.223	0.0145039
680.301	0.0142207
680.379	0.0142215
680.457	0.0140896
680.535	0.0138651
680.613	0.0137543
680.692	0.0136286
680.770	0.0135162
680.848	0.0133736
680.926	0.0132221
681.004	0.0130413
681.082	0.0128263
681.160	0.0129752
681.238	0.0129514
681.317	0.0128962
681.395	0.0128837
681.473	0.0131033
681.551	0.0131389
681.629	0.0132010
681.707	0.0133184
681.785	0.0136371
681.863	0.0137687
681.942	0.0138330
682.020	0.0140135
682.098	0.0143620
682.176	0.0145477
682.254	0.0147733
682.332	0.0147824
682.410	0.0151701
682.488	0.0152181
682.567	0.0153400
682.645	0.0154666
682.723	0.0156439
682.801	0.0155945
682.879	0.0158429
682.957	0.0157735
683.035	0.0157370
683.113	0.0157203
683.192	0.0156652
683.270	0.0156216
683.348	0.0157475
683.426	0.0155209
683.504	0.0154729
683.582	0.0153983
683.660	0.0154269
683.738	0.0154021
683.817	0.0152481
683.895	0.0152808
683.973	0.0152581
684.051	0.0150964
684.129	0.0150684
684.207	0.0149172
684.285	0.0148859
684.363	0.0149073
684.442	0.0148792
684.520	0.0148557
684.598	0.0146377
684.676	0.0146072
684.754	0.0146350
684.832	0.0145503
684.910	0.0146497
684.988	0.0146095
685.067	0.0145502
685.145	0.0144722
685.223	0.0143663
685.301	0.0142384
685.379	0.0142155
685.457	0.0142793
685.535	0.0140324
685.613	0.0139162
685.692	0.0139360
