05/28/2022	14:11:36	Ver.	4.1	UNKNOWN
Optical Delay	599.988409	Delta X		0.078125	Sweeps	1	Scan Rate	0/0
Coordinates	Axis 1	NaN	Axis 2	NaN	Axis 3	NaN	Axis 4	NaN	Axis 5	NaN	Axis 6	0.000000
TX Power	0.000000	RX Power	0.000000

599.988	0.0144924
600.067	0.0144478
600.145	0.0144581
600.223	0.0145210
600.301	0.0144501
600.379	0.0145303
600.457	0.0144780
600.535	0.0144637
600.613	0.0144250
600.692	0.0146007
600.770	0.0145306
600.848	0.0145320
600.926	0.0144683
601.004	0.0144604
601.082	0.0143990
601.160	0.0145220
601.238	0.0144037
601.317	0.0144236
601.395	0.0146098
601.473	0.0145927
601.551	0.0143987
601.629	0.0144966
601.707	0.0143993
601.785	0.0144627
601.863	0.0144584
601.942	0.0143929
602.020	0.0144856
602.098	0.0143735
602.176	0.0145227
602.254	0.0144707
602.332	0.0143970
602.410	0.0144997
602.488	0.0144574
602.567	0.0142684
602.645	0.0143808
602.723	0.0144543
602.801	0.0143981
602.879	0.0144559
602.957	0.0145030
603.035	0.0143490
603.113	0.0143608
603.192	0.0145892
603.270	0.0144766
603.348	0.0144280
603.426	0.0145136
603.504	0.0145325
603.582	0.0142677
603.660	0.0144849
603.738	0.0144562
603.817	0.0144327
603.895	0.0144278
603.973	0.0143274
604.051	0.0144662
604.129	0.0144313
604.207	0.0143837
604.285	0.0145037
604.363	0.0144970
604.442	0.0143021
604.520	0.0145562
604.598	0.0146167
604.676	0.0144253
604.754	0.0145167
604.832	0.0144061
604.910	0.0144547
604.988	0.0144252
605.067	0.0144132
605.145	0.0143263
605.223	0.0143771
605.301	0.0145649
605.379	0.0144106
605.457	0.0143984
605.535	0.0145551
605.613	0.0144272
605.692	0.0145529
605.770	0.0145915
605.848	0.0144091
605.926	0.0144109
606.004	0.0144991
606.082	0.0146203
606.160	0.0143959
606.238	0.0142747
606.317	0.0145292
606.395	0.0146661
606.473	0.0144390
606.551	0.0144357
606.629	0.0145219
606.707	0.0144570
606.785	0.0144482
606.863	0.0144503
606.942	0.0144744
607.020	0.0144893
607.098	0.0144096
607.176	0.0143526
607.254	0.0145461
607.332	0.0145040
607.410	0.0144295
607.488	0.0144643
607.567	0.0144547
607.645	0.0144908
607.723	0.0145086
607.801	0.0144267
607.879	0.0144989
607.957	0.0145397
608.035	0.0145316
608.113	0.0144819
608.192	0.0144604
608.270	0.0145412
608.348	0.0145229
608.426	0.0145518
608.504	0.0144711
608.582	0.0144001
608.660	0.0145492
608.738	0.0146214
608.817	0.0144563
608.895	0.0144549
608.973	0.0144093
609.051	0.0145494
609.129	0.0144439
609.207	0.0144707
609.285	0.0144786
609.363	0.0145024
609.442	0.0144572
609.520	0.0145055
609.598	0.0144037
609.676	0.0145668
609.754	0.0145804
609.832	0.0145469
609.910	0.0145481
609.988	0.0145261
610.067	0.0143436
610.145	0.0144893
610.223	0.0145284
610.301	0.0144476
610.379	0.0144791
610.457	0.0144147
610.535	0.0144038
610.613	0.0145534
610.692	0.0145558
610.770	0.0146395
610.848	0.0144587
610.926	0.0145438
611.004	0.0144850
611.082	0.0144240
611.160	0.0146141
611.238	0.0145547
611.317	0.0145525
611.395	0.0144578
611.473	0.0145110
611.551	0.0144890
611.629	0.0144597
611.707	0.0145087
611.785	0.0145189
611.863	0.0146093
611.942	0.0144935
612.020	0.0144098
612.098	0.0143790
612.176	0.0145667
612.254	0.0144717
612.332	0.0144382
612.410	0.0145309
612.488	0.0146874
612.567	0.0145647
612.645	0.0146368
612.723	0.0146726
612.801	0.0144386
612.879	0.0143753
612.957	0.0145667
613.035	0.0146386
613.113	0.0145712
613.192	0.0145974
613.270	0.0144762
613.348	0.0144783
613.426	0.0144394
613.504	0.0145090
613.582	0.0144993
613.660	0.0144833
613.738	0.0145193
613.817	0.0145868
613.895	0.0144447
613.973	0.0144872
614.051	0.0145278
614.129	0.0144572
614.207	0.0144850
614.285	0.0144968
614.363	0.0146658
614.442	0.0146105
614.520	0.0145148
614.598	0.0145501
614.676	0.0146749
614.754	0.0146197
614.832	0.0145394
614.910	0.0145731
614.988	0.0144860
615.067	0.0144292
615.145	0.0145918
615.223	0.0145685
615.301	0.0145174
615.379	0.0145875
615.457	0.0145889
615.535	0.0145509
615.613	0.0145773
615.692	0.0145835
615.770	0.0146179
615.848	0.0145398
615.926	0.0144576
616.004	0.0145496
616.082	0.0144151
616.160	0.0144303
616.238	0.0146049
616.317	0.0145331
616.395	0.0145547
616.473	0.0145712
616.551	0.0144492
616.629	0.0145153
616.707	0.0144341
616.785	0.0145803
616.863	0.0144877
616.942	0.0145788
617.020	0.0144587
617.098	0.0144408
617.176	0.0144941
617.254	0.0145582
617.332	0.0143842
617.410	0.0143571
617.488	0.0144736
617.567	0.0145439
617.645	0.0145152
617.723	0.0144330
617.801	0.0144805
617.879	0.0144666
617.957	0.0145072
618.035	0.0145531
618.113	0.0144381
618.192	0.0144637
618.270	0.0144962
618.348	0.0145921
618.426	0.0145046
618.504	0.0145284
618.582	0.0145326
618.660	0.0144341
618.738	0.0145672
618.817	0.0145811
618.895	0.0144469
618.973	0.0145422
619.051	0.0145428
619.129	0.0144662
619.207	0.0144811
619.285	0.0145058
619.363	0.0144551
619.442	0.0144971
619.520	0.0145591
619.598	0.0145550
619.676	0.0144501
619.754	0.0145912
619.832	0.0144630
619.910	0.0145077
619.988	0.0145246
620.067	0.0145398
620.145	0.0144843
620.223	0.0145801
620.301	0.0146034
620.379	0.0145013
620.457	0.0146737
620.535	0.0145296
620.613	0.0145768
620.692	0.0144993
620.770	0.0144634
620.848	0.0146223
620.926	0.0145800
621.004	0.0144827
621.082	0.0145019
621.160	0.0146355
621.238	0.0144723
621.317	0.0145685
621.395	0.0144794
621.473	0.0144578
621.551	0.0143858
621.629	0.0144684
621.707	0.0145845
621.785	0.0145399
621.863	0.0145596
621.942	0.0145156
622.020	0.0145160
622.098	0.0144335
622.176	0.0145029
622.254	0.0145721
622.332	0.0145126
622.410	0.0144531
622.488	0.0144419
622.567	0.0143670
622.645	0.0143390
622.723	0.0145329
622.801	0.0144542
622.879	0.0144527
622.957	0.0145012
623.035	0.0144904
623.113	0.0145075
623.192	0.0144241
623.270	0.0144817
623.348	0.0144132
623.426	0.0145211
623.504	0.0144764
623.582	0.0145364
623.660	0.0145859
623.738	0.0144595
623.817	0.0144375
623.895	0.0145417
623.973	0.0145499
624.051	0.0144623
624.129	0.0145679
624.207	0.0144831
624.285	0.0143032
624.363	0.0144241
624.442	0.0145164
624.520	0.0144697
624.598	0.0145058
624.676	0.0144871
624.754	0.0144634
624.832	0.0146595
624.910	0.0144818
624.988	0.0145759
625.067	0.0145761
625.145	0.0146228
625.223	0.0144917
625.301	0.0143748
625.379	0.0145373
625.457	0.0144542
625.535	0.0144910
625.613	0.0145717
625.692	0.0145184
625.770	0.0146196
625.848	0.0144850
625.926	0.0145097
626.004	0.0145324
626.082	0.0145055
626.160	0.0145158
626.238	0.0145599
626.317	0.0145045
626.395	0.0143945
626.473	0.0145017
626.551	0.0147028
626.629	0.0145049
626.707	0.0144686
626.785	0.0144993
626.863	0.0144772
626.942	0.0145047
627.020	0.0146066
627.098	0.0145359
627.176	0.0144950
627.254	0.0145091
627.332	0.0143826
627.410	0.0145078
627.488	0.0146212
627.567	0.0143903
627.645	0.0145969
627.723	0.0145844
627.801	0.0144702
627.879	0.0145285
627.957	0.0145310
628.035	0.0144499
628.113	0.0145441
628.192	0.0145102
628.270	0.0144634
628.348	0.0144187
628.426	0.0144461
628.504	0.0144290
628.582	0.0145472
628.660	0.0146627
628.738	0.0146133
628.817	0.0143623
628.895	0.0144393
628.973	0.0144726
629.051	0.0145640
629.129	0.0145572
629.207	0.0146761
629.285	0.0145336
629.363	0.0145503
629.442	0.0145253
629.520	0.0145102
629.598	0.0144125
629.676	0.0145838
629.754	0.0145572
629.832	0.0144196
629.910	0.0144501
629.988	0.0145754
630.067	0.0143549
630.145	0.0145892
630.223	0.0144517
630.301	0.0144688
630.379	0.0145968
630.457	0.0143861
630.535	0.0143938
630.613	0.0145284
630.692	0.0146732
630.770	0.0144697
630.848	0.0144444
630.926	0.0145297
631.004	0.0145369
631.082	0.0145417
631.160	0.0146617
631.238	0.0145800
631.317	0.0145951
631.395	0.0145502
631.473	0.0144587
631.551	0.0144566
631.629	0.0146149
631.707	0.0145473
631.785	0.0144184
631.863	0.0144746
631.942	0.0144527
632.020	0.0144991
632.098	0.0145924
632.176	0.0144814
632.254	0.0146153
632.332	0.0145292
632.410	0.0144146
632.488	0.0145367
632.567	0.0144898
632.645	0.0145990
632.723	0.0144183
632.801	0.0144637
632.879	0.0146124
632.957	0.0144933
633.035	0.0144518
633.113	0.0145741
633.192	0.0143848
633.270	0.0144795
633.348	0.0145500
633.426	0.0144231
633.504	0.0145723
633.582	0.0145157
633.660	0.0145882
633.738	0.0145857
633.817	0.0144219
633.895	0.0144832
633.973	0.0144800
634.051	0.0145019
634.129	0.0145912
634.207	0.0146423
634.285	0.0144744
634.363	0.0145684
634.442	0.0145522
634.520	0.0145634
634.598	0.0145748
634.676	0.0144069
634.754	0.0145647
634.832	0.0146181
634.910	0.0145277
634.988	0.0145245
635.067	0.0145701
635.145	0.0145092
635.223	0.0144736
635.301	0.0146243
635.379	0.0145660
635.457	0.0145411
635.535	0.0143725
635.613	0.0145145
635.692	0.0146503
635.770	0.0146707
635.848	0.0145989
635.926	0.0146095
636.004	0.0144687
636.082	0.0145405
636.160	0.0145158
636.238	0.0145386
636.317	0.0144160
636.395	0.0146457
636.473	0.0144538
636.551	0.0144958
636.629	0.0146300
636.707	0.0144480
636.785	0.0145318
636.863	0.0144481
636.942	0.0144891
637.020	0.0145101
637.098	0.0143916
637.176	0.0145129
637.254	0.0145225
637.332	0.0146730
637.410	0.0144754
637.488	0.0144920
637.567	0.0145509
637.645	0.0144606
637.723	0.0144935
637.801	0.0145123
637.879	0.0145715
637.957	0.0145414
638.035	0.0145722
638.113	0.0146203
638.192	0.0145212
638.270	0.0144578
638.348	0.0145139
638.426	0.0145228
638.504	0.0145811
638.582	0.0145887
638.660	0.0144775
638.738	0.0144025
638.817	0.0144762
638.895	0.0145294
638.973	0.0144572
639.051	0.0145715
639.129	0.0145336
639.207	0.0144378
639.285	0.0145856
639.363	0.0145374
639.442	0.0144398
639.520	0.0145820
639.598	0.0145540
639.676	0.0145823
639.754	0.0144823
639.832	0.0145643
639.910	0.0145177
639.988	0.0146704
640.067	0.0145083
640.145	0.0144632
640.223	0.0143945
640.301	0.0145380
640.379	0.0145888
640.457	0.0145158
640.535	0.0146326
640.613	0.0144610
640.692	0.0144959
640.770	0.0145454
640.848	0.0145371
640.926	0.0145231
641.004	0.0144224
641.082	0.0145097
641.160	0.0145939
641.238	0.0144061
641.317	0.0144923
641.395	0.0144393
641.473	0.0144768
641.551	0.0145562
641.629	0.0145895
641.707	0.0145152
641.785	0.0144825
641.863	0.0143934
641.942	0.0145138
642.020	0.0144255
642.098	0.0145036
642.176	0.0145143
642.254	0.0145810
642.332	0.0145141
642.410	0.0144695
642.488	0.0144513
642.567	0.0144936
642.645	0.0145046
642.723	0.0145302
642.801	0.0145145
642.879	0.0144347
642.957	0.0145847
643.035	0.0145323
643.113	0.0144198
643.192	0.0144562
643.270	0.0145597
643.348	0.0145349
643.426	0.0144241
643.504	0.0144296
643.582	0.0144293
643.660	0.0145387
643.738	0.0145058
643.817	0.0146288
643.895	0.0145715
643.973	0.0145284
644.051	0.0145586
644.129	0.0146326
644.207	0.0145017
644.285	0.0146456
644.363	0.0145955
644.442	0.0145628
644.520	0.0145924
644.598	0.0144700
644.676	0.0144672
644.754	0.0145209
644.832	0.0143913
644.910	0.0145797
644.988	0.0145255
645.067	0.0145887
645.145	0.0146095
645.223	0.0146199
645.301	0.0145329
645.379	0.0146347
645.457	0.0144975
645.535	0.0144833
645.613	0.0145953
645.692	0.0144968
645.770	0.0144384
645.848	0.0145985
645.926	0.0145530
646.004	0.0145634
646.082	0.0145574
646.160	0.0145827
646.238	0.0146248
646.317	0.0145207
646.395	0.0144648
646.473	0.0145916
646.551	0.0146870
646.629	0.0145962
646.707	0.0145551
646.785	0.0144644
646.863	0.0144988
646.942	0.0144728
647.020	0.0145502
647.098	0.0144648
647.176	0.0144801
647.254	0.0145635
647.332	0.0144854
647.410	0.0144926
647.488	0.0146832
647.567	0.0144328
647.645	0.0143858
647.723	0.0145287
647.801	0.0143871
647.879	0.0143882
647.957	0.0144781
648.035	0.0145911
648.113	0.0145460
648.192	0.0145431
648.270	0.0144611
648.348	0.0144069
648.426	0.0144968
648.504	0.0146467
648.582	0.0144833
648.660	0.0145313
648.738	0.0145911
648.817	0.0145529
648.895	0.0144198
648.973	0.0145661
649.051	0.0144932
649.129	0.0145512
649.207	0.0144667
649.285	0.0144761
649.363	0.0144846
649.442	0.0146523
649.520	0.0144269
649.598	0.0144581
649.676	0.0146143
649.754	0.0143992
649.832	0.0146196
649.910	0.0146304
649.988	0.0144600
650.067	0.0143955
650.145	0.0146450
650.223	0.0144891
650.301	0.0144691
650.379	0.0145296
650.457	0.0145614
650.535	0.0144164
650.613	0.0145293
650.692	0.0144491
650.770	0.0145749
650.848	0.0144354
650.926	0.0145490
651.004	0.0144643
651.082	0.0146481
651.160	0.0145086
651.238	0.0145506
651.317	0.0144656
651.395	0.0145475
651.473	0.0144865
651.551	0.0145524
651.629	0.0145402
651.707	0.0145998
651.785	0.0145918
651.863	0.0145004
651.942	0.0145046
652.020	0.0145903
652.098	0.0145313
652.176	0.0146773
652.254	0.0146255
652.332	0.0147363
652.410	0.0146439
652.488	0.0145325
652.567	0.0146386
652.645	0.0146272
652.723	0.0145026
652.801	0.0145414
652.879	0.0145494
652.957	0.0145242
653.035	0.0144546
653.113	0.0145607
653.192	0.0144370
653.270	0.0144264
653.348	0.0145010
653.426	0.0144558
653.504	0.0145170
653.582	0.0146002
653.660	0.0145457
653.738	0.0144690
653.817	0.0145374
653.895	0.0145879
653.973	0.0144493
654.051	0.0144843
654.129	0.0145036
654.207	0.0145073
654.285	0.0145255
654.363	0.0145040
654.442	0.0146945
654.520	0.0146613
654.598	0.0144993
654.676	0.0146385
654.754	0.0146678
654.832	0.0147037
654.910	0.0148005
654.988	0.0149104
655.067	0.0147963
655.145	0.0149085
655.223	0.0146586
655.301	0.0147771
655.379	0.0146880
655.457	0.0147205
655.535	0.0144308
655.613	0.0142728
655.692	0.0141589
655.770	0.0143597
655.848	0.0141988
655.926	0.0141672
656.004	0.0140906
656.082	0.0142408
656.160	0.0143008
656.238	0.0143657
656.317	0.0143297
656.395	0.0143714
656.473	0.0143320
656.551	0.0144525
656.629	0.0144321
656.707	0.0144499
656.785	0.0145330
656.863	0.0146433
656.942	0.0144878
657.020	0.0144888
657.098	0.0146180
657.176	0.0146972
657.254	0.0147280
657.332	0.0145658
657.410	0.0148840
657.488	0.0147498
657.567	0.0147006
657.645	0.0147413
657.723	0.0148157
657.801	0.0148616
657.879	0.0145701
657.957	0.0146037
658.035	0.0146292
658.113	0.0144440
658.192	0.0147671
658.270	0.0144923
658.348	0.0146020
658.426	0.0147343
658.504	0.0148179
658.582	0.0148184
658.660	0.0148522
658.738	0.0147481
658.817	0.0147063
658.895	0.0145764
658.973	0.0147782
659.051	0.0147102
659.129	0.0145486
659.207	0.0146780
659.285	0.0147169
659.363	0.0144547
659.442	0.0143800
659.520	0.0144119
659.598	0.0144100
659.676	0.0144473
659.754	0.0144186
659.832	0.0143754
659.910	0.0144024
659.988	0.0143152
660.067	0.0143707
660.145	0.0142722
660.223	0.0143681
660.301	0.0142817
660.379	0.0139480
660.457	0.0140874
660.535	0.0139092
660.613	0.0137882
660.692	0.0138372
660.770	0.0137576
660.848	0.0138126
660.926	0.0138317
661.004	0.0139191
661.082	0.0141379
661.160	0.0140250
661.238	0.0141870
661.317	0.0145818
661.395	0.0147611
661.473	0.0148159
661.551	0.0148335
661.629	0.0149046
661.707	0.0149889
661.785	0.0151316
661.863	0.0150259
661.942	0.0150023
662.020	0.0149761
662.098	0.0150676
662.176	0.0150382
662.254	0.0150552
662.332	0.0151740
662.410	0.0150679
662.488	0.0150909
662.567	0.0150450
662.645	0.0151456
662.723	0.0151162
662.801	0.0149438
662.879	0.0148611
662.957	0.0149377
663.035	0.0149348
663.113	0.0146847
663.192	0.0147443
663.270	0.0145084
663.348	0.0145832
663.426	0.0145129
663.504	0.0146500
663.582	0.0145306
663.660	0.0146816
663.738	0.0145364
663.817	0.0145821
663.895	0.0145737
663.973	0.0144157
664.051	0.0143473
664.129	0.0143032
664.207	0.0142396
664.285	0.0140829
664.363	0.0138168
664.442	0.0138816
664.520	0.0136662
664.598	0.0136724
664.676	0.0134897
664.754	0.0133732
664.832	0.0133152
664.910	0.0134492
664.988	0.0135214
665.067	0.0134948
665.145	0.0135585
665.223	0.0137593
665.301	0.0138066
665.379	0.0140499
665.457	0.0141394
665.535	0.0144273
665.613	0.0146154
665.692	0.0148328
665.770	0.0150227
665.848	0.0151269
665.926	0.0152773
666.004	0.0152757
666.082	0.0152729
666.160	0.0151903
666.238	0.0153138
666.317	0.0151929
666.395	0.0153480
666.473	0.0151524
666.551	0.0151450
666.629	0.0151324
666.707	0.0150283
666.785	0.0150388
666.863	0.0149206
666.942	0.0149409
667.020	0.0148881
667.098	0.0149387
667.176	0.0150317
667.254	0.0150040
667.332	0.0147948
667.410	0.0148991
667.488	0.0148856
667.567	0.0149203
667.645	0.0149576
667.723	0.0148248
667.801	0.0148750
667.879	0.0147639
667.957	0.0148500
668.035	0.0148592
668.113	0.0146552
668.192	0.0147925
668.270	0.0148189
668.348	0.0146389
668.426	0.0144839
668.504	0.0143880
668.582	0.0141983
668.660	0.0142344
668.738	0.0139658
668.817	0.0139712
668.895	0.0138647
668.973	0.0138428
669.051	0.0138580
669.129	0.0138586
669.207	0.0139136
669.285	0.0138129
669.363	0.0138254
669.442	0.0137475
669.520	0.0138240
669.598	0.0139487
669.676	0.0138181
669.754	0.0137585
669.832	0.0141099
669.910	0.0139569
669.988	0.0140665
670.067	0.0141238
670.145	0.0140029
670.223	0.0140600
670.301	0.0142240
670.379	0.0142017
670.457	0.0142692
670.535	0.0144882
670.613	0.0144114
670.692	0.0145036
670.770	0.0144721
670.848	0.0146107
670.926	0.0145222
671.004	0.0146510
671.082	0.0148693
671.160	0.0148589
671.238	0.0151314
671.317	0.0152216
671.395	0.0152203
671.473	0.0153172
671.551	0.0153819
671.629	0.0153429
671.707	0.0153477
671.785	0.0154958
671.863	0.0154338
671.942	0.0153353
672.020	0.0152309
672.098	0.0152545
672.176	0.0153310
672.254	0.0152839
672.332	0.0152632
672.410	0.0151968
672.488	0.0151109
672.567	0.0150828
672.645	0.0151454
672.723	0.0148929
672.801	0.0148458
672.879	0.0148376
672.957	0.0147267
673.035	0.0146419
673.113	0.0145460
673.192	0.0146446
673.270	0.0146677
673.348	0.0146124
673.426	0.0144226
673.504	0.0142164
673.582	0.0142299
673.660	0.0142650
673.738	0.0142181
673.817	0.0141606
673.895	0.0141745
673.973	0.0141343
674.051	0.0140953
674.129	0.0140298
674.207	0.0140800
674.285	0.0139170
674.363	0.0140265
674.442	0.0138412
674.520	0.0138916
674.598	0.0138154
674.676	0.0139882
674.754	0.0138808
674.832	0.0138680
674.910	0.0138424
674.988	0.0139381
675.067	0.0138535
675.145	0.0138278
675.223	0.0139821
675.301	0.0139202
675.379	0.0138885
675.457	0.0137883
675.535	0.0139547
675.613	0.0137880
675.692	0.0139503
675.770	0.0139529
675.848	0.0140292
675.926	0.0138559
676.004	0.0139379
676.082	0.0140916
676.160	0.0141046
676.238	0.0142270
676.317	0.0143636
676.395	0.0143466
676.473	0.0145990
676.551	0.0146159
676.629	0.0148779
676.707	0.0149268
676.785	0.0151727
676.863	0.0154055
676.942	0.0156576
677.020	0.0158383
677.098	0.0160857
677.176	0.0162057
677.254	0.0163480
677.332	0.0165153
677.410	0.0164151
677.488	0.0164391
677.567	0.0164571
677.645	0.0162411
677.723	0.0160309
677.801	0.0159006
677.879	0.0155409
677.957	0.0152715
678.035	0.0149720
678.113	0.0145978
678.192	0.0142101
678.270	0.0140183
678.348	0.0139083
678.426	0.0137709
678.504	0.0135424
678.582	0.0134856
678.660	0.0135122
678.738	0.0135663
678.817	0.0137382
678.895	0.0138246
678.973	0.0139443
679.051	0.0140384
679.129	0.0141101
679.207	0.0143223
679.285	0.0145419
679.363	0.0145252
679.442	0.0147102
679.520	0.0147838
679.598	0.0146787
679.676	0.0147001
679.754	0.0146471
679.832	0.0147234
679.910	0.0145422
679.988	0.0144571
680.067	0.0144761
680.145	0.0143709
680.223	0.0142328
680.301	0.0141300
680.379	0.0139756
680.457	0.0137664
680.535	0.0136861
680.613	0.0134882
680.692	0.0133379
680.770	0.0133881
680.848	0.0132005
680.926	0.0132451
681.004	0.0131867
681.082	0.0131813
681.160	0.0132702
681.238	0.0131992
681.317	0.0134450
681.395	0.0134686
681.473	0.0136955
681.551	0.0138308
681.629	0.0138469
681.707	0.0140351
681.785	0.0144349
681.863	0.0146677
681.942	0.0150101
682.020	0.0150891
682.098	0.0154525
682.176	0.0153911
682.254	0.0156720
682.332	0.0158236
682.410	0.0160743
682.488	0.0161227
682.567	0.0161649
682.645	0.0160184
682.723	0.0162723
682.801	0.0163784
682.879	0.0161953
682.957	0.0161463
683.035	0.0161955
683.113	0.0159510
683.192	0.0159722
683.270	0.0157117
683.348	0.0155424
683.426	0.0155261
683.504	0.0152135
683.582	0.0149310
683.660	0.0147728
683.738	0.0145750
683.817	0.0145090
683.895	0.0143211
683.973	0.0142043
684.051	0.0142128
684.129	0.0141217
684.207	0.0141848
684.285	0.0141234
684.363	0.0143356
684.442	0.0142699
684.520	0.0142335
684.598	0.0143398
684.676	0.0144029
684.754	0.0143904
684.832	0.0143967
684.910	0.0143039
684.988	0.0142294
685.067	0.0140576
685.145	0.0140532
685.223	0.0139327
685.301	0.0138890
685.379	0.0135287
685.457	0.0133664
685.535	0.0134689
685.613	0.0132554
685.692	0.0132635
