05/28/2022	14:11:51	Ver.	4.1	UNKNOWN
Optical Delay	599.988409	Delta X		0.078125	Sweeps	1	Scan Rate	0/0
Coordinates	Axis 1	NaN	Axis 2	NaN	Axis 3	NaN	Axis 4	NaN	Axis 5	NaN	Axis 6	0.000000
TX Power	0.000000	RX Power	0.000000

599.988	0.0140216
600.067	0.0140681
600.145	0.0139830
600.223	0.0140044
600.301	0.0141872
600.379	0.0140734
600.457	0.0140239
600.535	0.0140605
600.613	0.0140642
600.692	0.0141353
600.770	0.0140857
600.848	0.0141026
600.926	0.0141235
601.004	0.0141229
601.082	0.0140939
601.160	0.0140897
601.238	0.0140270
601.317	0.0140757
601.395	0.0140322
601.473	0.0141040
601.551	0.0140722
601.629	0.0140207
601.707	0.0141013
601.785	0.0139687
601.863	0.0140232
601.942	0.0140781
602.020	0.0141249
602.098	0.0140665
602.176	0.0140823
602.254	0.0139740
602.332	0.0141312
602.410	0.0140741
602.488	0.0140160
602.567	0.0140899
602.645	0.0140324
602.723	0.0140745
602.801	0.0141879
602.879	0.0141579
602.957	0.0141827
603.035	0.0140733
603.113	0.0140036
603.192	0.0140334
603.270	0.0141123
603.348	0.0139692
603.426	0.0141787
603.504	0.0141966
603.582	0.0141489
603.660	0.0140583
603.738	0.0140587
603.817	0.0140242
603.895	0.0139592
603.973	0.0140214
604.051	0.0140979
604.129	0.0141924
604.207	0.0140588
604.285	0.0141241
604.363	0.0140564
604.442	0.0140906
604.520	0.0141125
604.598	0.0141284
604.676	0.0140981
604.754	0.0138950
604.832	0.0140380
604.910	0.0140960
604.988	0.0140058
605.067	0.0141766
605.145	0.0142162
605.223	0.0139930
605.301	0.0139787
605.379	0.0141718
605.457	0.0141329
605.535	0.0140625
605.613	0.0138680
605.692	0.0141085
605.770	0.0141537
605.848	0.0138825
605.926	0.0140627
606.004	0.0142175
606.082	0.0142188
606.160	0.0140477
606.238	0.0140205
606.317	0.0141353
606.395	0.0140142
606.473	0.0139693
606.551	0.0142068
606.629	0.0140858
606.707	0.0139382
606.785	0.0141216
606.863	0.0141022
606.942	0.0141048
607.020	0.0141337
607.098	0.0139905
607.176	0.0140790
607.254	0.0141763
607.332	0.0140514
607.410	0.0141239
607.488	0.0143040
607.567	0.0142111
607.645	0.0140643
607.723	0.0140608
607.801	0.0140770
607.879	0.0140746
607.957	0.0141002
608.035	0.0140739
608.113	0.0139511
608.192	0.0140931
608.270	0.0141155
608.348	0.0141833
608.426	0.0141493
608.504	0.0141135
608.582	0.0141208
608.660	0.0140430
608.738	0.0140941
608.817	0.0141526
608.895	0.0141236
608.973	0.0140792
609.051	0.0141730
609.129	0.0140546
609.207	0.0141666
609.285	0.0141522
609.363	0.0141296
609.442	0.0141447
609.520	0.0141255
609.598	0.0140063
609.676	0.0141369
609.754	0.0140546
609.832	0.0141237
609.910	0.0141869
609.988	0.0141396
610.067	0.0141819
610.145	0.0141244
610.223	0.0140845
610.301	0.0142739
610.379	0.0140996
610.457	0.0141348
610.535	0.0140962
610.613	0.0141051
610.692	0.0142105
610.770	0.0141376
610.848	0.0142469
610.926	0.0140900
611.004	0.0140272
611.082	0.0141094
611.160	0.0141921
611.238	0.0139885
611.317	0.0140959
611.395	0.0141138
611.473	0.0141621
611.551	0.0141738
611.629	0.0140250
611.707	0.0141171
611.785	0.0140825
611.863	0.0140865
611.942	0.0140787
612.020	0.0142005
612.098	0.0141000
612.176	0.0141075
612.254	0.0141682
612.332	0.0141415
612.410	0.0140105
612.488	0.0142055
612.567	0.0140845
612.645	0.0140572
612.723	0.0140482
612.801	0.0141625
612.879	0.0142738
612.957	0.0141151
613.035	0.0141362
613.113	0.0140931
613.192	0.0141464
613.270	0.0140740
613.348	0.0140416
613.426	0.0141851
613.504	0.0141142
613.582	0.0141203
613.660	0.0139874
613.738	0.0141165
613.817	0.0141354
613.895	0.0141049
613.973	0.0140977
614.051	0.0140963
614.129	0.0141867
614.207	0.0140572
614.285	0.0141419
614.363	0.0143118
614.442	0.0140771
614.520	0.0140514
614.598	0.0140381
614.676	0.0139791
614.754	0.0140788
614.832	0.0140977
614.910	0.0140651
614.988	0.0141010
615.067	0.0141991
615.145	0.0141155
615.223	0.0140004
615.301	0.0142132
615.379	0.0141053
615.457	0.0141426
615.535	0.0141146
615.613	0.0141750
615.692	0.0142377
615.770	0.0141719
615.848	0.0141544
615.926	0.0140809
616.004	0.0140657
616.082	0.0141687
616.160	0.0140840
616.238	0.0141122
616.317	0.0141644
616.395	0.0141068
616.473	0.0141241
616.551	0.0140446
616.629	0.0140420
616.707	0.0141857
616.785	0.0140380
616.863	0.0141489
616.942	0.0141256
617.020	0.0141051
617.098	0.0141025
617.176	0.0141775
617.254	0.0142538
617.332	0.0140916
617.410	0.0140581
617.488	0.0140936
617.567	0.0142395
617.645	0.0140795
617.723	0.0140883
617.801	0.0142107
617.879	0.0140318
617.957	0.0140995
618.035	0.0140685
618.113	0.0140757
618.192	0.0141086
618.270	0.0141486
618.348	0.0141165
618.426	0.0141367
618.504	0.0140775
618.582	0.0139809
618.660	0.0141296
618.738	0.0140331
618.817	0.0140461
618.895	0.0141476
618.973	0.0141132
619.051	0.0141790
619.129	0.0140424
619.207	0.0138699
619.285	0.0140583
619.363	0.0141042
619.442	0.0140695
619.520	0.0139841
619.598	0.0140752
619.676	0.0139905
619.754	0.0141181
619.832	0.0140370
619.910	0.0141504
619.988	0.0140715
620.067	0.0139760
620.145	0.0141404
620.223	0.0141341
620.301	0.0140572
620.379	0.0139460
620.457	0.0140662
620.535	0.0140635
620.613	0.0140045
620.692	0.0139080
620.770	0.0140464
620.848	0.0140605
620.926	0.0140732
621.004	0.0140062
621.082	0.0140409
621.160	0.0139204
621.238	0.0140443
621.317	0.0142430
621.395	0.0141111
621.473	0.0141069
621.551	0.0139024
621.629	0.0140028
621.707	0.0140577
621.785	0.0141233
621.863	0.0141233
621.942	0.0140395
622.020	0.0140248
622.098	0.0140382
622.176	0.0139871
622.254	0.0141252
622.332	0.0141456
622.410	0.0141558
622.488	0.0141220
622.567	0.0140095
622.645	0.0140971
622.723	0.0140199
622.801	0.0140131
622.879	0.0140157
622.957	0.0140550
623.035	0.0140018
623.113	0.0141261
623.192	0.0141119
623.270	0.0140394
623.348	0.0140772
623.426	0.0140527
623.504	0.0140934
623.582	0.0140584
623.660	0.0140490
623.738	0.0140671
623.817	0.0141418
623.895	0.0140072
623.973	0.0139923
624.051	0.0140844
624.129	0.0140584
624.207	0.0140945
624.285	0.0140402
624.363	0.0141166
624.442	0.0142107
624.520	0.0140533
624.598	0.0139916
624.676	0.0139819
624.754	0.0141110
624.832	0.0141027
624.910	0.0141181
624.988	0.0141137
625.067	0.0140503
625.145	0.0140895
625.223	0.0141267
625.301	0.0141622
625.379	0.0141290
625.457	0.0140999
625.535	0.0139688
625.613	0.0141535
625.692	0.0139911
625.770	0.0141206
625.848	0.0141371
625.926	0.0139826
626.004	0.0140707
626.082	0.0139673
626.160	0.0140221
626.238	0.0140735
626.317	0.0140592
626.395	0.0141368
626.473	0.0141283
626.551	0.0140639
626.629	0.0140475
626.707	0.0141348
626.785	0.0139223
626.863	0.0140205
626.942	0.0140650
627.020	0.0140565
627.098	0.0140281
627.176	0.0140151
627.254	0.0140881
627.332	0.0140599
627.410	0.0140192
627.488	0.0140129
627.567	0.0140863
627.645	0.0142382
627.723	0.0141730
627.801	0.0140410
627.879	0.0141259
627.957	0.0141611
628.035	0.0139555
628.113	0.0141319
628.192	0.0140626
628.270	0.0141298
628.348	0.0140764
628.426	0.0139098
628.504	0.0140587
628.582	0.0141149
628.660	0.0141009
628.738	0.0140892
628.817	0.0140312
628.895	0.0140742
628.973	0.0139468
629.051	0.0141146
629.129	0.0140632
629.207	0.0140726
629.285	0.0140625
629.363	0.0140934
629.442	0.0140849
629.520	0.0141077
629.598	0.0140372
629.676	0.0138981
629.754	0.0140814
629.832	0.0141330
629.910	0.0140150
629.988	0.0141430
630.067	0.0141162
630.145	0.0140048
630.223	0.0141195
630.301	0.0140671
630.379	0.0140890
630.457	0.0141367
630.535	0.0140787
630.613	0.0139729
630.692	0.0140984
630.770	0.0141857
630.848	0.0140607
630.926	0.0142050
631.004	0.0140363
631.082	0.0140063
631.160	0.0142331
631.238	0.0141319
631.317	0.0141061
631.395	0.0140659
631.473	0.0139955
631.551	0.0140915
631.629	0.0142447
631.707	0.0142702
631.785	0.0139901
631.863	0.0140342
631.942	0.0142131
632.020	0.0141195
632.098	0.0141917
632.176	0.0141332
632.254	0.0139633
632.332	0.0139767
632.410	0.0139906
632.488	0.0140728
632.567	0.0140041
632.645	0.0139137
632.723	0.0141970
632.801	0.0140325
632.879	0.0140139
632.957	0.0140665
633.035	0.0140858
633.113	0.0140732
633.192	0.0141355
633.270	0.0140115
633.348	0.0140625
633.426	0.0141208
633.504	0.0140847
633.582	0.0141218
633.660	0.0140643
633.738	0.0141295
633.817	0.0140772
633.895	0.0140255
633.973	0.0140181
634.051	0.0140960
634.129	0.0141852
634.207	0.0141902
634.285	0.0142242
634.363	0.0140982
634.442	0.0140939
634.520	0.0140847
634.598	0.0142021
634.676	0.0141055
634.754	0.0141081
634.832	0.0141210
634.910	0.0140201
634.988	0.0140594
635.067	0.0140578
635.145	0.0140434
635.223	0.0141043
635.301	0.0139748
635.379	0.0140508
635.457	0.0140253
635.535	0.0140137
635.613	0.0140978
635.692	0.0140347
635.770	0.0140956
635.848	0.0141669
635.926	0.0141697
636.004	0.0140071
636.082	0.0140334
636.160	0.0140763
636.238	0.0140543
636.317	0.0141123
636.395	0.0140066
636.473	0.0139635
636.551	0.0141730
636.629	0.0140034
636.707	0.0140441
636.785	0.0140303
636.863	0.0140757
636.942	0.0142134
637.020	0.0140907
637.098	0.0139110
637.176	0.0140374
637.254	0.0140667
637.332	0.0141824
637.410	0.0141367
637.488	0.0140336
637.567	0.0141153
637.645	0.0140800
637.723	0.0140140
637.801	0.0140728
637.879	0.0140853
637.957	0.0141144
638.035	0.0141407
638.113	0.0140376
638.192	0.0140021
638.270	0.0140661
638.348	0.0141770
638.426	0.0140036
638.504	0.0141379
638.582	0.0141357
638.660	0.0141184
638.738	0.0141010
638.817	0.0140377
638.895	0.0140472
638.973	0.0140673
639.051	0.0140383
639.129	0.0141409
639.207	0.0140781
639.285	0.0140216
639.363	0.0140394
639.442	0.0140414
639.520	0.0140453
639.598	0.0141084
639.676	0.0141192
639.754	0.0139526
639.832	0.0140740
639.910	0.0140604
639.988	0.0140089
640.067	0.0140800
640.145	0.0140905
640.223	0.0142038
640.301	0.0141367
640.379	0.0141036
640.457	0.0140893
640.535	0.0141264
640.613	0.0140273
640.692	0.0141203
640.770	0.0141885
640.848	0.0141348
640.926	0.0141107
641.004	0.0140640
641.082	0.0140305
641.160	0.0141102
641.238	0.0140589
641.317	0.0141929
641.395	0.0141626
641.473	0.0141140
641.551	0.0141702
641.629	0.0141037
641.707	0.0141076
641.785	0.0141358
641.863	0.0141570
641.942	0.0140812
642.020	0.0141134
642.098	0.0141266
642.176	0.0140987
642.254	0.0141209
642.332	0.0141777
642.410	0.0141370
642.488	0.0142684
642.567	0.0139391
642.645	0.0140146
642.723	0.0140546
642.801	0.0140749
642.879	0.0139960
642.957	0.0140592
643.035	0.0141422
643.113	0.0140425
643.192	0.0140192
643.270	0.0141900
643.348	0.0141326
643.426	0.0142002
643.504	0.0141260
643.582	0.0140631
643.660	0.0141246
643.738	0.0140086
643.817	0.0141351
643.895	0.0141952
643.973	0.0141964
644.051	0.0141028
644.129	0.0140299
644.207	0.0142610
644.285	0.0141652
644.363	0.0141518
644.442	0.0140697
644.520	0.0141257
644.598	0.0140810
644.676	0.0141138
644.754	0.0142365
644.832	0.0140618
644.910	0.0140304
644.988	0.0140835
645.067	0.0140935
645.145	0.0141331
645.223	0.0141720
645.301	0.0140892
645.379	0.0140411
645.457	0.0141862
645.535	0.0141821
645.613	0.0141252
645.692	0.0141893
645.770	0.0139687
645.848	0.0140565
645.926	0.0140693
646.004	0.0141135
646.082	0.0139979
646.160	0.0141103
646.238	0.0141273
646.317	0.0139742
646.395	0.0140010
646.473	0.0140195
646.551	0.0142088
646.629	0.0141730
646.707	0.0141153
646.785	0.0140795
646.863	0.0140303
646.942	0.0140443
647.020	0.0141201
647.098	0.0140459
647.176	0.0141350
647.254	0.0139987
647.332	0.0140370
647.410	0.0140034
647.488	0.0140071
647.567	0.0139844
647.645	0.0140853
647.723	0.0138850
647.801	0.0140222
647.879	0.0139938
647.957	0.0141080
648.035	0.0139286
648.113	0.0140281
648.192	0.0140958
648.270	0.0139792
648.348	0.0140199
648.426	0.0140732
648.504	0.0140508
648.582	0.0141242
648.660	0.0141145
648.738	0.0141765
648.817	0.0141183
648.895	0.0139924
648.973	0.0141003
649.051	0.0142212
649.129	0.0141219
649.207	0.0139869
649.285	0.0141882
649.363	0.0140140
649.442	0.0140206
649.520	0.0141010
649.598	0.0140936
649.676	0.0141608
649.754	0.0141239
649.832	0.0139465
649.910	0.0140170
649.988	0.0141178
650.067	0.0141925
650.145	0.0141032
650.223	0.0141544
650.301	0.0142352
650.379	0.0141540
650.457	0.0140347
650.535	0.0141827
650.613	0.0141345
650.692	0.0140982
650.770	0.0140639
650.848	0.0142739
650.926	0.0142023
651.004	0.0141112
651.082	0.0140989
651.160	0.0141998
651.238	0.0142854
651.317	0.0142598
651.395	0.0142247
651.473	0.0140752
651.551	0.0140761
651.629	0.0140807
651.707	0.0141232
651.785	0.0141276
651.863	0.0140911
651.942	0.0141052
652.020	0.0141748
652.098	0.0140385
652.176	0.0141748
652.254	0.0141665
652.332	0.0142382
652.410	0.0140652
652.488	0.0140617
652.567	0.0139150
652.645	0.0140089
652.723	0.0141713
652.801	0.0140009
652.879	0.0140298
652.957	0.0140147
653.035	0.0141529
653.113	0.0141055
653.192	0.0140807
653.270	0.0140054
653.348	0.0141161
653.426	0.0141225
653.504	0.0141590
653.582	0.0141425
653.660	0.0142867
653.738	0.0142966
653.817	0.0142452
653.895	0.0141122
653.973	0.0141796
654.051	0.0142097
654.129	0.0142664
654.207	0.0142354
654.285	0.0141233
654.363	0.0142843
654.442	0.0141804
654.520	0.0142350
654.598	0.0140845
654.676	0.0140756
654.754	0.0139646
654.832	0.0139470
654.910	0.0138880
654.988	0.0138268
655.067	0.0137989
655.145	0.0137049
655.223	0.0138243
655.301	0.0136647
655.379	0.0137733
655.457	0.0138485
655.535	0.0139053
655.613	0.0139189
655.692	0.0141641
655.770	0.0141116
655.848	0.0139775
655.926	0.0140573
656.004	0.0142523
656.082	0.0141125
656.160	0.0142989
656.238	0.0142616
656.317	0.0140237
656.395	0.0141739
656.473	0.0142417
656.551	0.0143031
656.629	0.0143507
656.707	0.0143000
656.785	0.0143546
656.863	0.0142758
656.942	0.0143086
657.020	0.0142680
657.098	0.0142688
657.176	0.0140647
657.254	0.0142003
657.332	0.0142564
657.410	0.0143873
657.488	0.0141708
657.567	0.0141595
657.645	0.0142674
657.723	0.0144440
657.801	0.0144876
657.879	0.0144060
657.957	0.0143503
658.035	0.0144598
658.113	0.0142442
658.192	0.0143013
658.270	0.0143290
658.348	0.0141735
658.426	0.0140936
658.504	0.0140433
658.582	0.0141123
658.660	0.0140790
658.738	0.0139664
658.817	0.0139744
658.895	0.0139694
658.973	0.0139417
659.051	0.0140027
659.129	0.0139314
659.207	0.0139553
659.285	0.0138981
659.363	0.0138541
659.442	0.0139381
659.520	0.0137492
659.598	0.0136051
659.676	0.0134491
659.754	0.0135191
659.832	0.0135452
659.910	0.0134314
659.988	0.0134440
660.067	0.0133860
660.145	0.0134868
660.223	0.0134479
660.301	0.0137083
660.379	0.0139067
660.457	0.0140877
660.535	0.0141389
660.613	0.0143330
660.692	0.0143931
660.770	0.0144201
660.848	0.0146667
660.926	0.0147451
661.004	0.0146546
661.082	0.0146211
661.160	0.0145213
661.238	0.0145418
661.317	0.0145088
661.395	0.0145935
661.473	0.0145647
661.551	0.0145255
661.629	0.0145623
661.707	0.0146517
661.785	0.0145246
661.863	0.0145770
661.942	0.0145760
662.020	0.0144027
662.098	0.0144661
662.176	0.0144728
662.254	0.0143230
662.332	0.0142648
662.410	0.0141750
662.488	0.0142644
662.567	0.0141440
662.645	0.0141938
662.723	0.0141732
662.801	0.0141683
662.879	0.0142441
662.957	0.0140647
663.035	0.0139944
663.113	0.0139883
663.192	0.0139539
663.270	0.0137810
663.348	0.0136358
663.426	0.0136193
663.504	0.0135409
663.582	0.0135052
663.660	0.0132928
663.738	0.0132242
663.817	0.0132050
663.895	0.0130320
663.973	0.0129384
664.051	0.0129507
664.129	0.0129747
664.207	0.0130119
664.285	0.0131777
664.363	0.0134779
664.442	0.0134168
664.520	0.0137462
664.598	0.0137517
664.676	0.0140170
664.754	0.0143462
664.832	0.0144783
664.910	0.0145218
664.988	0.0147742
665.067	0.0147652
665.145	0.0149403
665.223	0.0148452
665.301	0.0148067
665.379	0.0148949
665.457	0.0147950
665.535	0.0146698
665.613	0.0147157
665.692	0.0146500
665.770	0.0146451
665.848	0.0146284
665.926	0.0145882
666.004	0.0146262
666.082	0.0146041
666.160	0.0145350
666.238	0.0146478
666.317	0.0144125
666.395	0.0143775
666.473	0.0143936
666.551	0.0144296
666.629	0.0143786
666.707	0.0143819
666.785	0.0143938
666.863	0.0144531
666.942	0.0144486
667.020	0.0145258
667.098	0.0144431
667.176	0.0144720
667.254	0.0143418
667.332	0.0144838
667.410	0.0141360
667.488	0.0142689
667.567	0.0141883
667.645	0.0138696
667.723	0.0138678
667.801	0.0136971
667.879	0.0137788
667.957	0.0134846
668.035	0.0134572
668.113	0.0134298
668.192	0.0132811
668.270	0.0133569
668.348	0.0134499
668.426	0.0133511
668.504	0.0132304
668.582	0.0134409
668.660	0.0135577
668.738	0.0135571
668.817	0.0135302
668.895	0.0134814
668.973	0.0135315
669.051	0.0136315
669.129	0.0135814
669.207	0.0136914
669.285	0.0138049
669.363	0.0137517
669.442	0.0138074
669.520	0.0138248
669.598	0.0138125
669.676	0.0138200
669.754	0.0138090
669.832	0.0140138
669.910	0.0141201
669.988	0.0140556
670.067	0.0141937
670.145	0.0143299
670.223	0.0144404
670.301	0.0146268
670.379	0.0147309
670.457	0.0147570
670.535	0.0149829
670.613	0.0149214
670.692	0.0149150
670.770	0.0149669
670.848	0.0149707
670.926	0.0150163
671.004	0.0148768
671.082	0.0149161
671.160	0.0149316
671.238	0.0148443
671.317	0.0148177
671.395	0.0148237
671.473	0.0146744
671.551	0.0145910
671.629	0.0144389
671.707	0.0145307
671.785	0.0145656
671.863	0.0144894
671.942	0.0143862
672.020	0.0144517
672.098	0.0145495
672.176	0.0143821
672.254	0.0143118
672.332	0.0142377
672.410	0.0143043
672.488	0.0141972
672.567	0.0142356
672.645	0.0140733
672.723	0.0138593
672.801	0.0138756
672.879	0.0137724
672.957	0.0135604
673.035	0.0134440
673.113	0.0135279
673.192	0.0134124
673.270	0.0134143
673.348	0.0134368
673.426	0.0134853
673.504	0.0133422
673.582	0.0133394
673.660	0.0134335
673.738	0.0134498
673.817	0.0133782
673.895	0.0133863
673.973	0.0134650
674.051	0.0135897
674.129	0.0137009
674.207	0.0136405
674.285	0.0137524
674.363	0.0138454
674.442	0.0138998
674.520	0.0139496
674.598	0.0139883
674.676	0.0139648
674.754	0.0139726
674.832	0.0141252
674.910	0.0140096
674.988	0.0138717
675.067	0.0137873
675.145	0.0138873
675.223	0.0137253
675.301	0.0137881
675.379	0.0138026
675.457	0.0136053
675.535	0.0137849
675.613	0.0138204
675.692	0.0136912
675.770	0.0136560
675.848	0.0139627
675.926	0.0140656
676.004	0.0141767
676.082	0.0143137
676.160	0.0145819
676.238	0.0146974
676.317	0.0148251
676.395	0.0150920
676.473	0.0154252
676.551	0.0155972
676.629	0.0157837
676.707	0.0158627
676.785	0.0159953
676.863	0.0160764
676.942	0.0160287
677.020	0.0158942
677.098	0.0158060
677.176	0.0156020
677.254	0.0153913
677.332	0.0149689
677.410	0.0147645
677.488	0.0143854
677.567	0.0140962
677.645	0.0136931
677.723	0.0134301
677.801	0.0130885
677.879	0.0129517
677.957	0.0128413
678.035	0.0127728
678.113	0.0126746
678.192	0.0126952
678.270	0.0128693
678.348	0.0129960
678.426	0.0130682
678.504	0.0131981
678.582	0.0133135
678.660	0.0135085
678.738	0.0135868
678.817	0.0136790
678.895	0.0138991
678.973	0.0141005
679.051	0.0140195
679.129	0.0140646
679.207	0.0141696
679.285	0.0142451
679.363	0.0140715
679.442	0.0142260
679.520	0.0143056
679.598	0.0143253
679.676	0.0141973
679.754	0.0141025
679.832	0.0140303
679.910	0.0140197
679.988	0.0139865
680.067	0.0138332
680.145	0.0138317
680.223	0.0136926
680.301	0.0134498
680.379	0.0134507
680.457	0.0132240
680.535	0.0132685
680.613	0.0131799
680.692	0.0132911
680.770	0.0129699
680.848	0.0131387
680.926	0.0132988
681.004	0.0132441
681.082	0.0133617
681.160	0.0133947
681.238	0.0135017
681.317	0.0136425
681.395	0.0139753
681.473	0.0142598
681.551	0.0143542
681.629	0.0144852
681.707	0.0148328
681.785	0.0150967
681.863	0.0152529
681.942	0.0155330
682.020	0.0157263
682.098	0.0157260
682.176	0.0158895
682.254	0.0159627
682.332	0.0159987
682.410	0.0159660
682.488	0.0159612
682.567	0.0158496
682.645	0.0155594
682.723	0.0154649
682.801	0.0153692
682.879	0.0151862
682.957	0.0150860
683.035	0.0148765
683.113	0.0145931
683.192	0.0143366
683.270	0.0141858
683.348	0.0140186
683.426	0.0137987
683.504	0.0136988
683.582	0.0134679
683.660	0.0133997
683.738	0.0133207
683.817	0.0134429
683.895	0.0133202
683.973	0.0133214
684.051	0.0131534
684.129	0.0133872
684.207	0.0134738
684.285	0.0133939
684.363	0.0133457
684.442	0.0134412
684.520	0.0134267
684.598	0.0133942
684.676	0.0133290
684.754	0.0132438
684.832	0.0130434
684.910	0.0130383
684.988	0.0130693
685.067	0.0129685
685.145	0.0128535
685.223	0.0128994
685.301	0.0129303
685.379	0.0129823
685.457	0.0130787
685.535	0.0131902
685.613	0.0132410
685.692	0.0132676
