05/28/2022	14:13:31	Ver.	4.1	UNKNOWN
Optical Delay	599.988409	Delta X		0.078125	Sweeps	1	Scan Rate	0/0
Coordinates	Axis 1	NaN	Axis 2	NaN	Axis 3	NaN	Axis 4	NaN	Axis 5	NaN	Axis 6	0.000000
TX Power	0.000000	RX Power	0.000000

599.988	0.0141180
600.067	0.0141710
600.145	0.0140542
600.223	0.0142672
600.301	0.0141750
600.379	0.0141068
600.457	0.0141469
600.535	0.0141650
600.613	0.0140569
600.692	0.0142116
600.770	0.0140447
600.848	0.0141989
600.926	0.0140952
601.004	0.0142554
601.082	0.0141090
601.160	0.0140858
601.238	0.0141733
601.317	0.0140080
601.395	0.0141578
601.473	0.0140962
601.551	0.0139869
601.629	0.0141605
601.707	0.0142755
601.785	0.0142156
601.863	0.0140360
601.942	0.0141043
602.020	0.0140566
602.098	0.0141918
602.176	0.0141431
602.254	0.0142839
602.332	0.0140446
602.410	0.0141156
602.488	0.0141319
602.567	0.0141446
602.645	0.0142315
602.723	0.0143028
602.801	0.0141720
602.879	0.0138885
602.957	0.0139796
603.035	0.0140987
603.113	0.0140818
603.192	0.0142124
603.270	0.0141667
603.348	0.0141329
603.426	0.0140500
603.504	0.0140578
603.582	0.0140275
603.660	0.0139424
603.738	0.0141431
603.817	0.0141058
603.895	0.0140372
603.973	0.0141866
604.051	0.0140259
604.129	0.0140202
604.207	0.0141089
604.285	0.0141435
604.363	0.0141618
604.442	0.0141885
604.520	0.0140326
604.598	0.0140844
604.676	0.0141599
604.754	0.0139288
604.832	0.0143115
604.910	0.0140038
604.988	0.0141096
605.067	0.0140049
605.145	0.0141149
605.223	0.0141475
605.301	0.0141721
605.379	0.0141071
605.457	0.0141659
605.535	0.0140298
605.613	0.0140703
605.692	0.0141128
605.770	0.0140479
605.848	0.0141451
605.926	0.0141634
606.004	0.0141940
606.082	0.0141510
606.160	0.0141605
606.238	0.0140697
606.317	0.0142399
606.395	0.0140807
606.473	0.0142022
606.551	0.0142400
606.629	0.0140686
606.707	0.0139546
606.785	0.0140965
606.863	0.0140574
606.942	0.0141190
607.020	0.0140891
607.098	0.0140623
607.176	0.0139448
607.254	0.0141685
607.332	0.0140297
607.410	0.0139638
607.488	0.0140782
607.567	0.0141982
607.645	0.0140995
607.723	0.0140615
607.801	0.0140919
607.879	0.0140877
607.957	0.0142162
608.035	0.0140862
608.113	0.0141366
608.192	0.0140511
608.270	0.0140801
608.348	0.0140927
608.426	0.0140521
608.504	0.0141064
608.582	0.0141557
608.660	0.0140907
608.738	0.0141680
608.817	0.0141149
608.895	0.0140704
608.973	0.0140815
609.051	0.0142006
609.129	0.0142669
609.207	0.0142292
609.285	0.0141479
609.363	0.0141377
609.442	0.0141118
609.520	0.0139562
609.598	0.0141618
609.676	0.0140116
609.754	0.0141549
609.832	0.0141472
609.910	0.0141139
609.988	0.0141589
610.067	0.0142013
610.145	0.0140646
610.223	0.0140286
610.301	0.0140939
610.379	0.0141459
610.457	0.0141038
610.535	0.0141632
610.613	0.0141204
610.692	0.0141074
610.770	0.0140430
610.848	0.0141425
610.926	0.0141628
611.004	0.0141466
611.082	0.0141131
611.160	0.0141209
611.238	0.0141881
611.317	0.0141468
611.395	0.0140977
611.473	0.0142516
611.551	0.0141291
611.629	0.0142141
611.707	0.0141389
611.785	0.0141351
611.863	0.0141651
611.942	0.0143320
612.020	0.0140707
612.098	0.0140814
612.176	0.0142751
612.254	0.0142921
612.332	0.0141808
612.410	0.0141363
612.488	0.0140543
612.567	0.0141026
612.645	0.0142095
612.723	0.0140374
612.801	0.0142257
612.879	0.0142799
612.957	0.0141636
613.035	0.0141028
613.113	0.0141512
613.192	0.0141428
613.270	0.0141230
613.348	0.0142497
613.426	0.0142085
613.504	0.0140767
613.582	0.0142374
613.660	0.0141618
613.738	0.0140533
613.817	0.0141750
613.895	0.0141436
613.973	0.0141321
614.051	0.0142446
614.129	0.0141197
614.207	0.0142120
614.285	0.0142220
614.363	0.0141116
614.442	0.0141129
614.520	0.0142126
614.598	0.0140271
614.676	0.0139355
614.754	0.0140571
614.832	0.0142155
614.910	0.0140826
614.988	0.0142079
615.067	0.0141286
615.145	0.0140482
615.223	0.0140395
615.301	0.0140575
615.379	0.0140866
615.457	0.0141009
615.535	0.0140318
615.613	0.0140546
615.692	0.0141146
615.770	0.0141879
615.848	0.0142444
615.926	0.0142414
616.004	0.0141383
616.082	0.0140768
616.160	0.0140547
616.238	0.0141242
616.317	0.0141110
616.395	0.0140420
616.473	0.0142425
616.551	0.0141786
616.629	0.0140549
616.707	0.0140287
616.785	0.0140826
616.863	0.0141821
616.942	0.0140726
617.020	0.0142100
617.098	0.0140172
617.176	0.0140549
617.254	0.0141984
617.332	0.0140556
617.410	0.0141025
617.488	0.0141139
617.567	0.0140866
617.645	0.0141067
617.723	0.0141129
617.801	0.0142314
617.879	0.0141430
617.957	0.0139615
618.035	0.0141212
618.113	0.0140712
618.192	0.0142585
618.270	0.0141438
618.348	0.0141106
618.426	0.0142053
618.504	0.0141219
618.582	0.0140295
618.660	0.0140974
618.738	0.0140115
618.817	0.0141991
618.895	0.0141293
618.973	0.0143044
619.051	0.0141441
619.129	0.0141995
619.207	0.0140538
619.285	0.0141011
619.363	0.0142120
619.442	0.0140918
619.520	0.0139600
619.598	0.0140800
619.676	0.0141196
619.754	0.0140850
619.832	0.0141261
619.910	0.0141212
619.988	0.0140863
620.067	0.0140932
620.145	0.0142097
620.223	0.0141240
620.301	0.0140740
620.379	0.0141193
620.457	0.0141830
620.535	0.0141247
620.613	0.0141528
620.692	0.0141099
620.770	0.0141363
620.848	0.0141259
620.926	0.0140794
621.004	0.0140023
621.082	0.0139690
621.160	0.0141856
621.238	0.0141535
621.317	0.0140994
621.395	0.0142330
621.473	0.0141808
621.551	0.0139816
621.629	0.0140211
621.707	0.0141270
621.785	0.0140767
621.863	0.0139680
621.942	0.0140844
622.020	0.0140826
622.098	0.0140898
622.176	0.0142049
622.254	0.0141364
622.332	0.0141938
622.410	0.0141663
622.488	0.0141077
622.567	0.0140202
622.645	0.0141668
622.723	0.0141525
622.801	0.0141618
622.879	0.0140045
622.957	0.0140377
623.035	0.0140965
623.113	0.0141740
623.192	0.0143121
623.270	0.0141513
623.348	0.0141289
623.426	0.0140379
623.504	0.0141637
623.582	0.0141448
623.660	0.0140491
623.738	0.0140199
623.817	0.0141618
623.895	0.0142023
623.973	0.0142288
624.051	0.0141266
624.129	0.0141055
624.207	0.0142213
624.285	0.0141191
624.363	0.0142352
624.442	0.0141055
624.520	0.0141920
624.598	0.0141154
624.676	0.0140714
624.754	0.0141447
624.832	0.0140312
624.910	0.0140672
624.988	0.0141135
625.067	0.0141608
625.145	0.0140578
625.223	0.0140117
625.301	0.0140105
625.379	0.0140907
625.457	0.0140675
625.535	0.0142076
625.613	0.0141466
625.692	0.0141296
625.770	0.0140984
625.848	0.0140993
625.926	0.0141404
626.004	0.0142728
626.082	0.0140001
626.160	0.0140500
626.238	0.0140392
626.317	0.0141635
626.395	0.0142179
626.473	0.0140501
626.551	0.0142408
626.629	0.0140214
626.707	0.0140907
626.785	0.0140786
626.863	0.0139674
626.942	0.0140688
627.020	0.0141775
627.098	0.0141346
627.176	0.0140854
627.254	0.0140418
627.332	0.0140307
627.410	0.0140241
627.488	0.0141370
627.567	0.0141948
627.645	0.0140910
627.723	0.0140076
627.801	0.0141132
627.879	0.0140947
627.957	0.0140666
628.035	0.0141076
628.113	0.0141219
628.192	0.0141149
628.270	0.0140328
628.348	0.0140513
628.426	0.0141161
628.504	0.0139487
628.582	0.0140675
628.660	0.0141973
628.738	0.0138840
628.817	0.0140257
628.895	0.0139345
628.973	0.0141800
629.051	0.0142163
629.129	0.0140658
629.207	0.0139284
629.285	0.0140450
629.363	0.0140923
629.442	0.0140664
629.520	0.0140546
629.598	0.0141061
629.676	0.0140917
629.754	0.0141827
629.832	0.0140957
629.910	0.0139838
629.988	0.0141774
630.067	0.0142011
630.145	0.0140085
630.223	0.0140586
630.301	0.0141930
630.379	0.0140666
630.457	0.0139619
630.535	0.0141332
630.613	0.0141953
630.692	0.0141610
630.770	0.0141548
630.848	0.0141475
630.926	0.0141859
631.004	0.0140772
631.082	0.0141995
631.160	0.0142106
631.238	0.0142040
631.317	0.0141667
631.395	0.0140997
631.473	0.0140231
631.551	0.0141438
631.629	0.0142463
631.707	0.0140540
631.785	0.0140657
631.863	0.0140302
631.942	0.0140359
632.020	0.0141422
632.098	0.0140976
632.176	0.0140442
632.254	0.0141126
632.332	0.0140690
632.410	0.0141001
632.488	0.0139119
632.567	0.0140614
632.645	0.0141203
632.723	0.0140395
632.801	0.0141824
632.879	0.0142086
632.957	0.0140878
633.035	0.0141566
633.113	0.0140602
633.192	0.0141486
633.270	0.0141442
633.348	0.0140075
633.426	0.0141830
633.504	0.0140699
633.582	0.0140483
633.660	0.0142100
633.738	0.0141341
633.817	0.0142081
633.895	0.0140396
633.973	0.0141084
634.051	0.0141145
634.129	0.0141349
634.207	0.0141980
634.285	0.0141569
634.363	0.0142374
634.442	0.0143177
634.520	0.0141819
634.598	0.0141467
634.676	0.0141061
634.754	0.0141505
634.832	0.0142696
634.910	0.0141866
634.988	0.0143100
635.067	0.0141666
635.145	0.0140621
635.223	0.0141802
635.301	0.0141399
635.379	0.0142920
635.457	0.0142696
635.535	0.0141847
635.613	0.0142097
635.692	0.0141651
635.770	0.0141759
635.848	0.0140900
635.926	0.0139732
636.004	0.0142046
636.082	0.0141898
636.160	0.0142082
636.238	0.0141116
636.317	0.0140774
636.395	0.0142457
636.473	0.0140624
636.551	0.0143116
636.629	0.0140745
636.707	0.0140079
636.785	0.0140548
636.863	0.0141244
636.942	0.0142320
637.020	0.0141670
637.098	0.0140720
637.176	0.0141765
637.254	0.0141331
637.332	0.0140167
637.410	0.0140842
637.488	0.0141867
637.567	0.0139690
637.645	0.0141508
637.723	0.0141682
637.801	0.0141869
637.879	0.0140434
637.957	0.0140612
638.035	0.0141465
638.113	0.0140661
638.192	0.0141608
638.270	0.0141252
638.348	0.0140746
638.426	0.0141922
638.504	0.0142178
638.582	0.0139722
638.660	0.0139599
638.738	0.0140726
638.817	0.0141076
638.895	0.0141099
638.973	0.0142099
639.051	0.0141811
639.129	0.0142824
639.207	0.0141706
639.285	0.0140412
639.363	0.0141284
639.442	0.0140573
639.520	0.0140376
639.598	0.0140338
639.676	0.0139273
639.754	0.0139945
639.832	0.0141643
639.910	0.0142669
639.988	0.0143011
640.067	0.0141739
640.145	0.0141035
640.223	0.0141344
640.301	0.0141061
640.379	0.0141513
640.457	0.0140445
640.535	0.0141188
640.613	0.0140981
640.692	0.0139965
640.770	0.0140338
640.848	0.0140958
640.926	0.0142294
641.004	0.0140461
641.082	0.0140715
641.160	0.0140871
641.238	0.0141028
641.317	0.0139683
641.395	0.0142487
641.473	0.0142208
641.551	0.0141469
641.629	0.0141922
641.707	0.0140791
641.785	0.0140447
641.863	0.0140107
641.942	0.0140584
642.020	0.0140920
642.098	0.0141361
642.176	0.0140513
642.254	0.0141221
642.332	0.0141055
642.410	0.0140733
642.488	0.0141255
642.567	0.0141796
642.645	0.0142439
642.723	0.0141991
642.801	0.0140797
642.879	0.0140453
642.957	0.0141418
643.035	0.0142271
643.113	0.0141330
643.192	0.0140785
643.270	0.0139792
643.348	0.0141728
643.426	0.0139644
643.504	0.0140803
643.582	0.0141110
643.660	0.0142265
643.738	0.0141536
643.817	0.0141709
643.895	0.0140916
643.973	0.0142098
644.051	0.0142877
644.129	0.0141534
644.207	0.0141340
644.285	0.0141937
644.363	0.0140292
644.442	0.0140933
644.520	0.0140519
644.598	0.0140154
644.676	0.0140794
644.754	0.0140423
644.832	0.0141692
644.910	0.0140576
644.988	0.0141377
645.067	0.0142969
645.145	0.0141882
645.223	0.0140504
645.301	0.0141633
645.379	0.0141710
645.457	0.0142367
645.535	0.0140915
645.613	0.0141206
645.692	0.0140543
645.770	0.0140633
645.848	0.0140224
645.926	0.0141631
646.004	0.0142480
646.082	0.0140850
646.160	0.0140820
646.238	0.0140527
646.317	0.0140901
646.395	0.0139950
646.473	0.0139095
646.551	0.0140784
646.629	0.0139812
646.707	0.0140932
646.785	0.0141401
646.863	0.0140406
646.942	0.0140508
647.020	0.0140353
647.098	0.0141380
647.176	0.0141682
647.254	0.0140772
647.332	0.0140284
647.410	0.0142611
647.488	0.0141468
647.567	0.0142493
647.645	0.0141966
647.723	0.0140563
647.801	0.0142778
647.879	0.0142053
647.957	0.0141960
648.035	0.0142108
648.113	0.0142622
648.192	0.0142246
648.270	0.0143188
648.348	0.0142786
648.426	0.0143217
648.504	0.0141723
648.582	0.0140030
648.660	0.0140694
648.738	0.0140096
648.817	0.0139619
648.895	0.0139417
648.973	0.0140086
649.051	0.0138751
649.129	0.0137672
649.207	0.0137905
649.285	0.0138364
649.363	0.0137890
649.442	0.0138953
649.520	0.0138621
649.598	0.0138968
649.676	0.0138759
649.754	0.0140666
649.832	0.0140876
649.910	0.0141448
649.988	0.0141280
650.067	0.0140672
650.145	0.0139958
650.223	0.0141903
650.301	0.0143112
650.379	0.0142867
650.457	0.0143009
650.535	0.0142454
650.613	0.0142806
650.692	0.0142719
650.770	0.0142718
650.848	0.0142762
650.926	0.0141699
651.004	0.0141454
651.082	0.0142363
651.160	0.0141125
651.238	0.0141943
651.317	0.0143658
651.395	0.0143966
651.473	0.0143095
651.551	0.0144787
651.629	0.0145350
651.707	0.0143748
651.785	0.0143539
651.863	0.0143694
651.942	0.0143858
652.020	0.0143155
652.098	0.0142515
652.176	0.0142572
652.254	0.0139999
652.332	0.0139706
652.410	0.0139380
652.488	0.0138601
652.567	0.0138164
652.645	0.0139391
652.723	0.0140185
652.801	0.0140033
652.879	0.0139632
652.957	0.0139512
653.035	0.0139687
653.113	0.0140402
653.192	0.0138912
653.270	0.0139243
653.348	0.0139056
653.426	0.0138658
653.504	0.0137985
653.582	0.0137480
653.660	0.0137341
653.738	0.0137230
653.817	0.0136418
653.895	0.0137625
653.973	0.0137885
654.051	0.0136193
654.129	0.0139068
654.207	0.0138258
654.285	0.0139259
654.363	0.0141360
654.442	0.0142796
654.520	0.0142844
654.598	0.0142788
654.676	0.0144345
654.754	0.0144221
654.832	0.0143729
654.910	0.0143597
654.988	0.0144150
655.067	0.0145867
655.145	0.0146173
655.223	0.0144835
655.301	0.0146504
655.379	0.0146088
655.457	0.0145707
655.535	0.0144927
655.613	0.0144574
655.692	0.0144392
655.770	0.0143604
655.848	0.0142280
655.926	0.0142692
656.004	0.0143668
656.082	0.0141241
656.160	0.0140996
656.238	0.0142385
656.317	0.0142848
656.395	0.0142902
656.473	0.0142059
656.551	0.0144202
656.629	0.0143189
656.707	0.0142915
656.785	0.0143004
656.863	0.0142634
656.942	0.0142859
657.020	0.0141244
657.098	0.0140966
657.176	0.0140326
657.254	0.0138401
657.332	0.0137695
657.410	0.0136631
657.488	0.0137405
657.567	0.0135458
657.645	0.0132664
657.723	0.0132063
657.801	0.0133092
657.879	0.0131012
657.957	0.0130757
658.035	0.0131208
658.113	0.0131019
658.192	0.0131075
658.270	0.0133204
658.348	0.0133475
658.426	0.0135437
658.504	0.0137084
658.582	0.0138879
658.660	0.0140112
658.738	0.0141225
658.817	0.0143645
658.895	0.0144347
658.973	0.0145852
659.051	0.0145762
659.129	0.0146348
659.207	0.0146553
659.285	0.0147457
659.363	0.0148190
659.442	0.0148041
659.520	0.0146670
659.598	0.0146135
659.676	0.0146702
659.754	0.0145622
659.832	0.0145796
659.910	0.0145592
659.988	0.0145768
660.067	0.0145405
660.145	0.0146384
660.223	0.0145625
660.301	0.0143946
660.379	0.0145060
660.457	0.0143525
660.535	0.0145029
660.613	0.0144767
660.692	0.0144599
660.770	0.0144276
660.848	0.0143464
660.926	0.0143028
661.004	0.0143987
661.082	0.0144055
661.160	0.0142032
661.238	0.0141872
661.317	0.0140477
661.395	0.0139837
661.473	0.0140136
661.551	0.0140336
661.629	0.0136813
661.707	0.0136378
661.785	0.0136670
661.863	0.0136498
661.942	0.0136765
662.020	0.0136041
662.098	0.0136533
662.176	0.0135762
662.254	0.0135821
662.332	0.0135358
662.410	0.0137435
662.488	0.0137018
662.567	0.0135886
662.645	0.0135685
662.723	0.0137827
662.801	0.0135984
662.879	0.0137901
662.957	0.0137212
663.035	0.0137801
663.113	0.0135673
663.192	0.0136505
663.270	0.0136253
663.348	0.0136014
663.426	0.0137785
663.504	0.0138462
663.582	0.0136340
663.660	0.0136861
663.738	0.0137279
663.817	0.0136996
663.895	0.0138508
663.973	0.0139156
664.051	0.0140410
664.129	0.0142942
664.207	0.0142662
664.285	0.0144817
664.363	0.0145644
664.442	0.0146096
664.520	0.0148102
664.598	0.0149133
664.676	0.0148441
664.754	0.0148362
664.832	0.0148656
664.910	0.0149193
664.988	0.0149664
665.067	0.0148409
665.145	0.0147046
665.223	0.0146686
665.301	0.0147411
665.379	0.0145299
665.457	0.0144798
665.535	0.0144848
665.613	0.0144620
665.692	0.0142302
665.770	0.0142966
665.848	0.0141377
665.926	0.0141686
666.004	0.0141354
666.082	0.0140244
666.160	0.0143291
666.238	0.0140102
666.317	0.0139929
666.395	0.0140392
666.473	0.0141067
666.551	0.0140369
666.629	0.0139444
666.707	0.0139503
666.785	0.0138041
666.863	0.0137002
666.942	0.0136694
667.020	0.0135868
667.098	0.0135622
667.176	0.0137296
667.254	0.0135116
667.332	0.0135795
667.410	0.0136193
667.488	0.0135368
667.567	0.0135165
667.645	0.0135915
667.723	0.0135984
667.801	0.0137152
667.879	0.0135737
667.957	0.0136408
668.035	0.0136713
668.113	0.0137460
668.192	0.0137991
668.270	0.0137125
668.348	0.0137121
668.426	0.0138536
668.504	0.0138817
668.582	0.0138894
668.660	0.0139838
668.738	0.0141024
668.817	0.0139075
668.895	0.0138731
668.973	0.0138928
669.051	0.0139390
669.129	0.0140554
669.207	0.0140049
669.285	0.0143108
669.363	0.0142175
669.442	0.0141945
669.520	0.0142336
669.598	0.0142638
669.676	0.0143357
669.754	0.0143206
669.832	0.0144953
669.910	0.0143513
669.988	0.0143856
670.067	0.0145876
670.145	0.0145189
670.223	0.0145860
670.301	0.0146632
670.379	0.0147446
670.457	0.0145405
670.535	0.0148438
670.613	0.0148228
670.692	0.0147332
670.770	0.0146109
670.848	0.0146118
670.926	0.0145341
671.004	0.0146716
671.082	0.0146011
671.160	0.0143384
671.238	0.0142026
671.317	0.0140474
671.395	0.0141116
671.473	0.0139938
671.551	0.0139970
671.629	0.0136604
671.707	0.0136758
671.785	0.0137276
671.863	0.0137637
671.942	0.0137572
672.020	0.0135947
672.098	0.0137561
672.176	0.0136610
672.254	0.0136710
672.332	0.0136655
672.410	0.0138373
672.488	0.0136626
672.567	0.0136597
672.645	0.0135715
672.723	0.0136463
672.801	0.0135170
672.879	0.0136149
672.957	0.0135655
673.035	0.0135592
673.113	0.0136777
673.192	0.0136764
673.270	0.0135007
673.348	0.0137477
673.426	0.0138599
673.504	0.0138197
673.582	0.0139871
673.660	0.0140774
673.738	0.0140922
673.817	0.0141761
673.895	0.0144151
673.973	0.0144221
674.051	0.0145311
674.129	0.0146040
674.207	0.0146542
674.285	0.0146263
674.363	0.0146437
674.442	0.0146883
674.520	0.0148129
674.598	0.0147680
674.676	0.0147036
674.754	0.0145599
674.832	0.0144807
674.910	0.0142946
674.988	0.0141227
675.067	0.0139624
675.145	0.0138920
675.223	0.0137620
675.301	0.0136095
675.379	0.0135004
675.457	0.0134602
675.535	0.0133468
675.613	0.0133574
675.692	0.0132649
675.770	0.0133681
675.848	0.0135560
675.926	0.0136855
676.004	0.0137728
676.082	0.0139253
676.160	0.0139222
676.238	0.0140725
676.317	0.0144042
676.395	0.0144432
676.473	0.0145373
676.551	0.0145942
676.629	0.0145918
676.707	0.0147684
676.785	0.0148137
676.863	0.0149054
676.942	0.0147212
677.020	0.0149487
677.098	0.0150247
677.176	0.0149433
677.254	0.0149217
677.332	0.0149023
677.410	0.0149187
677.488	0.0150123
677.567	0.0150076
677.645	0.0150684
677.723	0.0148789
677.801	0.0147379
677.879	0.0146290
677.957	0.0145567
678.035	0.0143311
678.113	0.0141635
678.192	0.0141348
678.270	0.0140069
678.348	0.0138216
678.426	0.0134930
678.504	0.0135108
678.582	0.0132515
678.660	0.0130363
678.738	0.0129608
678.817	0.0128197
678.895	0.0127639
678.973	0.0127541
679.051	0.0128435
679.129	0.0128704
679.207	0.0130553
679.285	0.0131293
679.363	0.0133329
679.442	0.0133943
679.520	0.0137302
679.598	0.0137639
679.676	0.0139001
679.754	0.0141323
679.832	0.0143668
679.910	0.0143705
679.988	0.0146902
680.067	0.0147731
680.145	0.0147838
680.223	0.0147891
680.301	0.0148492
680.379	0.0147798
680.457	0.0148420
680.535	0.0149011
680.613	0.0146511
680.692	0.0146315
680.770	0.0145496
680.848	0.0144612
680.926	0.0143935
681.004	0.0139827
681.082	0.0138451
681.160	0.0137064
681.238	0.0137680
681.317	0.0136340
681.395	0.0137022
681.473	0.0136147
681.551	0.0137006
681.629	0.0137243
681.707	0.0135685
681.785	0.0136377
681.863	0.0138367
681.942	0.0138454
682.020	0.0139693
682.098	0.0139953
682.176	0.0141917
682.254	0.0141838
682.332	0.0143289
682.410	0.0142687
682.488	0.0144734
682.567	0.0147639
682.645	0.0147095
682.723	0.0145648
682.801	0.0147321
682.879	0.0148448
682.957	0.0149438
683.035	0.0148320
683.113	0.0150049
683.192	0.0148006
683.270	0.0145248
683.348	0.0147398
683.426	0.0146200
683.504	0.0144882
683.582	0.0143965
683.660	0.0144014
683.738	0.0142152
683.817	0.0140845
683.895	0.0141158
683.973	0.0139424
684.051	0.0139021
684.129	0.0138454
684.207	0.0138841
684.285	0.0140041
684.363	0.0140025
684.442	0.0140306
684.520	0.0138947
684.598	0.0139156
684.676	0.0139009
684.754	0.0137769
684.832	0.0138269
684.910	0.0136585
684.988	0.0138266
685.067	0.0138906
685.145	0.0138864
685.223	0.0139013
685.301	0.0138087
685.379	0.0138086
685.457	0.0139586
685.535	0.0138998
685.613	0.0139822
685.692	0.0138740
