05/28/2022	14:14:11	Ver.	4.1	UNKNOWN
Optical Delay	599.988409	Delta X		0.078125	Sweeps	1	Scan Rate	0/0
Coordinates	Axis 1	NaN	Axis 2	NaN	Axis 3	NaN	Axis 4	NaN	Axis 5	NaN	Axis 6	0.000000
TX Power	0.000000	RX Power	0.000000

599.988	0.0145350
600.067	0.0145624
600.145	0.0144504
600.223	0.0145831
600.301	0.0145007
600.379	0.0146224
600.457	0.0145655
600.535	0.0146189
600.613	0.0146348
600.692	0.0146072
600.770	0.0144793
600.848	0.0144707
600.926	0.0145698
601.004	0.0145692
601.082	0.0146802
601.160	0.0146056
601.238	0.0144044
601.317	0.0143765
601.395	0.0145899
601.473	0.0146832
601.551	0.0145277
601.629	0.0145292
601.707	0.0146252
601.785	0.0145744
601.863	0.0145933
601.942	0.0145573
602.020	0.0145828
602.098	0.0145427
602.176	0.0145665
602.254	0.0145478
602.332	0.0145238
602.410	0.0144430
602.488	0.0144144
602.567	0.0145468
602.645	0.0145683
602.723	0.0146823
602.801	0.0146516
602.879	0.0144210
602.957	0.0146572
603.035	0.0144660
603.113	0.0145517
603.192	0.0144968
603.270	0.0146011
603.348	0.0147665
603.426	0.0145634
603.504	0.0145467
603.582	0.0145355
603.660	0.0145980
603.738	0.0144476
603.817	0.0145670
603.895	0.0145399
603.973	0.0146706
604.051	0.0144729
604.129	0.0144970
604.207	0.0146087
604.285	0.0145531
604.363	0.0145389
604.442	0.0146501
604.520	0.0144952
604.598	0.0144872
604.676	0.0146060
604.754	0.0145737
604.832	0.0144949
604.910	0.0145063
604.988	0.0146060
605.067	0.0146325
605.145	0.0144726
605.223	0.0146217
605.301	0.0146088
605.379	0.0144859
605.457	0.0144597
605.535	0.0145910
605.613	0.0145240
605.692	0.0145454
605.770	0.0146854
605.848	0.0147063
605.926	0.0144817
606.004	0.0144794
606.082	0.0144565
606.160	0.0144626
606.238	0.0145499
606.317	0.0146814
606.395	0.0144859
606.473	0.0145319
606.551	0.0146866
606.629	0.0146139
606.707	0.0145695
606.785	0.0145506
606.863	0.0145998
606.942	0.0146191
607.020	0.0144643
607.098	0.0146187
607.176	0.0145477
607.254	0.0145762
607.332	0.0146329
607.410	0.0144683
607.488	0.0146002
607.567	0.0145556
607.645	0.0144384
607.723	0.0145065
607.801	0.0145260
607.879	0.0146338
607.957	0.0145396
608.035	0.0146297
608.113	0.0146527
608.192	0.0145934
608.270	0.0145217
608.348	0.0145262
608.426	0.0146258
608.504	0.0144460
608.582	0.0145057
608.660	0.0144649
608.738	0.0145907
608.817	0.0145244
608.895	0.0145988
608.973	0.0145937
609.051	0.0145729
609.129	0.0145532
609.207	0.0146204
609.285	0.0145522
609.363	0.0144451
609.442	0.0144868
609.520	0.0146078
609.598	0.0146223
609.676	0.0145663
609.754	0.0146106
609.832	0.0145232
609.910	0.0146227
609.988	0.0145331
610.067	0.0146484
610.145	0.0145211
610.223	0.0145410
610.301	0.0146895
610.379	0.0146281
610.457	0.0145038
610.535	0.0145483
610.613	0.0145587
610.692	0.0145586
610.770	0.0144823
610.848	0.0145064
610.926	0.0144671
611.004	0.0145142
611.082	0.0144295
611.160	0.0145470
611.238	0.0145074
611.317	0.0145855
611.395	0.0144273
611.473	0.0145219
611.551	0.0145033
611.629	0.0145890
611.707	0.0144991
611.785	0.0145498
611.863	0.0144900
611.942	0.0146002
612.020	0.0145779
612.098	0.0146267
612.176	0.0145195
612.254	0.0144980
612.332	0.0145468
612.410	0.0145016
612.488	0.0145119
612.567	0.0145258
612.645	0.0146313
612.723	0.0145413
612.801	0.0145743
612.879	0.0145438
612.957	0.0145710
613.035	0.0145538
613.113	0.0145187
613.192	0.0145149
613.270	0.0147473
613.348	0.0145531
613.426	0.0147081
613.504	0.0145393
613.582	0.0145261
613.660	0.0146329
613.738	0.0146616
613.817	0.0146694
613.895	0.0146809
613.973	0.0145662
614.051	0.0145028
614.129	0.0145505
614.207	0.0145292
614.285	0.0145754
614.363	0.0146042
614.442	0.0146111
614.520	0.0145836
614.598	0.0146017
614.676	0.0147098
614.754	0.0144896
614.832	0.0145345
614.910	0.0145039
614.988	0.0145852
615.067	0.0146102
615.145	0.0146605
615.223	0.0146464
615.301	0.0145906
615.379	0.0146321
615.457	0.0145483
615.535	0.0145669
615.613	0.0144531
615.692	0.0144254
615.770	0.0144211
615.848	0.0145394
615.926	0.0145833
616.004	0.0145953
616.082	0.0144606
616.160	0.0146479
616.238	0.0145502
616.317	0.0145507
616.395	0.0145580
616.473	0.0145460
616.551	0.0144789
616.629	0.0144890
616.707	0.0145649
616.785	0.0144867
616.863	0.0145583
616.942	0.0145302
617.020	0.0144479
617.098	0.0145983
617.176	0.0145930
617.254	0.0145525
617.332	0.0146469
617.410	0.0145124
617.488	0.0145100
617.567	0.0145200
617.645	0.0144451
617.723	0.0145689
617.801	0.0146385
617.879	0.0146279
617.957	0.0145573
618.035	0.0146235
618.113	0.0145912
618.192	0.0145863
618.270	0.0145968
618.348	0.0144748
618.426	0.0145480
618.504	0.0144858
618.582	0.0144851
618.660	0.0146423
618.738	0.0144617
618.817	0.0144913
618.895	0.0143999
618.973	0.0147350
619.051	0.0146251
619.129	0.0146021
619.207	0.0145880
619.285	0.0146073
619.363	0.0145541
619.442	0.0146094
619.520	0.0145243
619.598	0.0147707
619.676	0.0145373
619.754	0.0145629
619.832	0.0146594
619.910	0.0145140
619.988	0.0145370
620.067	0.0145665
620.145	0.0144744
620.223	0.0144915
620.301	0.0144699
620.379	0.0144748
620.457	0.0146334
620.535	0.0145759
620.613	0.0144802
620.692	0.0145693
620.770	0.0145636
620.848	0.0145199
620.926	0.0146895
621.004	0.0146122
621.082	0.0144876
621.160	0.0144175
621.238	0.0145194
621.317	0.0145023
621.395	0.0144278
621.473	0.0144546
621.551	0.0146121
621.629	0.0145779
621.707	0.0145844
621.785	0.0146030
621.863	0.0146312
621.942	0.0146008
622.020	0.0145853
622.098	0.0146101
622.176	0.0146342
622.254	0.0145554
622.332	0.0145942
622.410	0.0145185
622.488	0.0144158
622.567	0.0144302
622.645	0.0145435
622.723	0.0144522
622.801	0.0145100
622.879	0.0145564
622.957	0.0145541
623.035	0.0145903
623.113	0.0145824
623.192	0.0144456
623.270	0.0145480
623.348	0.0146324
623.426	0.0145966
623.504	0.0144982
623.582	0.0145361
623.660	0.0145013
623.738	0.0147082
623.817	0.0144650
623.895	0.0146715
623.973	0.0146286
624.051	0.0146368
624.129	0.0146809
624.207	0.0145649
624.285	0.0145282
624.363	0.0146606
624.442	0.0146156
624.520	0.0145477
624.598	0.0146828
624.676	0.0145897
624.754	0.0145469
624.832	0.0145187
624.910	0.0146283
624.988	0.0144865
625.067	0.0146428
625.145	0.0145592
625.223	0.0145734
625.301	0.0145837
625.379	0.0146816
625.457	0.0145261
625.535	0.0145134
625.613	0.0145648
625.692	0.0146542
625.770	0.0147442
625.848	0.0146407
625.926	0.0145387
626.004	0.0145261
626.082	0.0145533
626.160	0.0145547
626.238	0.0145152
626.317	0.0145295
626.395	0.0147085
626.473	0.0145332
626.551	0.0146712
626.629	0.0145189
626.707	0.0146922
626.785	0.0147053
626.863	0.0145546
626.942	0.0146069
627.020	0.0146113
627.098	0.0146635
627.176	0.0146572
627.254	0.0147556
627.332	0.0146508
627.410	0.0146220
627.488	0.0144376
627.567	0.0146824
627.645	0.0146702
627.723	0.0146048
627.801	0.0146021
627.879	0.0146335
627.957	0.0147160
628.035	0.0145296
628.113	0.0146696
628.192	0.0145952
628.270	0.0146503
628.348	0.0146809
628.426	0.0144933
628.504	0.0145023
628.582	0.0146341
628.660	0.0147680
628.738	0.0147160
628.817	0.0145442
628.895	0.0146262
628.973	0.0146107
629.051	0.0146410
629.129	0.0145675
629.207	0.0144614
629.285	0.0147077
629.363	0.0145580
629.442	0.0145972
629.520	0.0144985
629.598	0.0145370
629.676	0.0144433
629.754	0.0146531
629.832	0.0145782
629.910	0.0146230
629.988	0.0143639
630.067	0.0145509
630.145	0.0145793
630.223	0.0146572
630.301	0.0146566
630.379	0.0145382
630.457	0.0147180
630.535	0.0145830
630.613	0.0145797
630.692	0.0144951
630.770	0.0145536
630.848	0.0144953
630.926	0.0145282
631.004	0.0145678
631.082	0.0144800
631.160	0.0147025
631.238	0.0145320
631.317	0.0146085
631.395	0.0143876
631.473	0.0145492
631.551	0.0145232
631.629	0.0145239
631.707	0.0146224
631.785	0.0145175
631.863	0.0145389
631.942	0.0146230
632.020	0.0145588
632.098	0.0145078
632.176	0.0146445
632.254	0.0145905
632.332	0.0145298
632.410	0.0146597
632.488	0.0145770
632.567	0.0144843
632.645	0.0146515
632.723	0.0145503
632.801	0.0145935
632.879	0.0146535
632.957	0.0145713
633.035	0.0144233
633.113	0.0145102
633.192	0.0145252
633.270	0.0146990
633.348	0.0146743
633.426	0.0144419
633.504	0.0145921
633.582	0.0144885
633.660	0.0145190
633.738	0.0145061
633.817	0.0145631
633.895	0.0146116
633.973	0.0144899
634.051	0.0146104
634.129	0.0145266
634.207	0.0146314
634.285	0.0145183
634.363	0.0145998
634.442	0.0145924
634.520	0.0145522
634.598	0.0146490
634.676	0.0144680
634.754	0.0145423
634.832	0.0142596
634.910	0.0146057
634.988	0.0145317
635.067	0.0146858
635.145	0.0145941
635.223	0.0144314
635.301	0.0145058
635.379	0.0146220
635.457	0.0146648
635.535	0.0144866
635.613	0.0144723
635.692	0.0145036
635.770	0.0146487
635.848	0.0145229
635.926	0.0146317
636.004	0.0145873
636.082	0.0144601
636.160	0.0144152
636.238	0.0145282
636.317	0.0146066
636.395	0.0145585
636.473	0.0144988
636.551	0.0145515
636.629	0.0145229
636.707	0.0144245
636.785	0.0145788
636.863	0.0144313
636.942	0.0144904
637.020	0.0146346
637.098	0.0145584
637.176	0.0145071
637.254	0.0146044
637.332	0.0144196
637.410	0.0144764
637.488	0.0146014
637.567	0.0144814
637.645	0.0145968
637.723	0.0144389
637.801	0.0144616
637.879	0.0144834
637.957	0.0145999
638.035	0.0144683
638.113	0.0144314
638.192	0.0144238
638.270	0.0144521
638.348	0.0144482
638.426	0.0147674
638.504	0.0147215
638.582	0.0145480
638.660	0.0145259
638.738	0.0146210
638.817	0.0145926
638.895	0.0145444
638.973	0.0145655
639.051	0.0146281
639.129	0.0147079
639.207	0.0143939
639.285	0.0144437
639.363	0.0145634
639.442	0.0145498
639.520	0.0145412
639.598	0.0146381
639.676	0.0146569
639.754	0.0146471
639.832	0.0145898
639.910	0.0145821
639.988	0.0146667
640.067	0.0146104
640.145	0.0146239
640.223	0.0145437
640.301	0.0146155
640.379	0.0144984
640.457	0.0145805
640.535	0.0145156
640.613	0.0146832
640.692	0.0144782
640.770	0.0143687
640.848	0.0145242
640.926	0.0145320
641.004	0.0145095
641.082	0.0146547
641.160	0.0145437
641.238	0.0145632
641.317	0.0146406
641.395	0.0146092
641.473	0.0146719
641.551	0.0145856
641.629	0.0145663
641.707	0.0144588
641.785	0.0144942
641.863	0.0146009
641.942	0.0144946
642.020	0.0144475
642.098	0.0145162
642.176	0.0144860
642.254	0.0145445
642.332	0.0145601
642.410	0.0144695
642.488	0.0146234
642.567	0.0145589
642.645	0.0145171
642.723	0.0144630
642.801	0.0143775
642.879	0.0146342
642.957	0.0145561
643.035	0.0144716
643.113	0.0144440
643.192	0.0144862
643.270	0.0144031
643.348	0.0144353
643.426	0.0144957
643.504	0.0145548
643.582	0.0145615
643.660	0.0145084
643.738	0.0146096
643.817	0.0145726
643.895	0.0144603
643.973	0.0146223
644.051	0.0146642
644.129	0.0146013
644.207	0.0146255
644.285	0.0145967
644.363	0.0144695
644.442	0.0145176
644.520	0.0145946
644.598	0.0145538
644.676	0.0144427
644.754	0.0143645
644.832	0.0143952
644.910	0.0145241
644.988	0.0144071
645.067	0.0144460
645.145	0.0145133
645.223	0.0145185
645.301	0.0143443
645.379	0.0144371
645.457	0.0146325
645.535	0.0145420
645.613	0.0145314
645.692	0.0145184
645.770	0.0146206
645.848	0.0147819
645.926	0.0145697
646.004	0.0147014
646.082	0.0147150
646.160	0.0146118
646.238	0.0148622
646.317	0.0146215
646.395	0.0146712
646.473	0.0146597
646.551	0.0146359
646.629	0.0145975
646.707	0.0146703
646.785	0.0146609
646.863	0.0145596
646.942	0.0145599
647.020	0.0145330
647.098	0.0144775
647.176	0.0145315
647.254	0.0142713
647.332	0.0144357
647.410	0.0143122
647.488	0.0143312
647.567	0.0143015
647.645	0.0143443
647.723	0.0142697
647.801	0.0142805
647.879	0.0143695
647.957	0.0143092
648.035	0.0143295
648.113	0.0143564
648.192	0.0144523
648.270	0.0144294
648.348	0.0143389
648.426	0.0144296
648.504	0.0144725
648.582	0.0144954
648.660	0.0145628
648.738	0.0146274
648.817	0.0146838
648.895	0.0146397
648.973	0.0147540
649.051	0.0146854
649.129	0.0145976
649.207	0.0146146
649.285	0.0146672
649.363	0.0146121
649.442	0.0145193
649.520	0.0145687
649.598	0.0145191
649.676	0.0147157
649.754	0.0146482
649.832	0.0147279
649.910	0.0146754
649.988	0.0147372
650.067	0.0148103
650.145	0.0147116
650.223	0.0149297
650.301	0.0147454
650.379	0.0147251
650.457	0.0145955
650.535	0.0147907
650.613	0.0145600
650.692	0.0144348
650.770	0.0145222
650.848	0.0146449
650.926	0.0145080
651.004	0.0143095
651.082	0.0142858
651.160	0.0142159
651.238	0.0143549
651.317	0.0142394
651.395	0.0144528
651.473	0.0144928
651.551	0.0143340
651.629	0.0144638
651.707	0.0142978
651.785	0.0143895
651.863	0.0143198
651.942	0.0142091
652.020	0.0141853
652.098	0.0140297
652.176	0.0140272
652.254	0.0141160
652.332	0.0139508
652.410	0.0141680
652.488	0.0141945
652.567	0.0140865
652.645	0.0143102
652.723	0.0143922
652.801	0.0144662
652.879	0.0145650
652.957	0.0147110
653.035	0.0147865
653.113	0.0146726
653.192	0.0147761
653.270	0.0148157
653.348	0.0147143
653.426	0.0148730
653.504	0.0146955
653.582	0.0147315
653.660	0.0149566
653.738	0.0149837
653.817	0.0149851
653.895	0.0149595
653.973	0.0149701
654.051	0.0149155
654.129	0.0149510
654.207	0.0149022
654.285	0.0147633
654.363	0.0146912
654.442	0.0147417
654.520	0.0147074
654.598	0.0146600
654.676	0.0144437
654.754	0.0144714
654.832	0.0144763
654.910	0.0145538
654.988	0.0145010
655.067	0.0145223
655.145	0.0146793
655.223	0.0147295
655.301	0.0145792
655.379	0.0145469
655.457	0.0145502
655.535	0.0145609
655.613	0.0146239
655.692	0.0145759
655.770	0.0144891
655.848	0.0143861
655.926	0.0144189
656.004	0.0142070
656.082	0.0140594
656.160	0.0138232
656.238	0.0138971
656.317	0.0139584
656.395	0.0136625
656.473	0.0136074
656.551	0.0135643
656.629	0.0136872
656.707	0.0136987
656.785	0.0138976
656.863	0.0140748
656.942	0.0139597
657.020	0.0141474
657.098	0.0144045
657.176	0.0144165
657.254	0.0145881
657.332	0.0147382
657.410	0.0148123
657.488	0.0148139
657.567	0.0148904
657.645	0.0149951
657.723	0.0149847
657.801	0.0149950
657.879	0.0150044
657.957	0.0149828
658.035	0.0150774
658.113	0.0150251
658.192	0.0150201
658.270	0.0150161
658.348	0.0149783
658.426	0.0150568
658.504	0.0150544
658.582	0.0149773
658.660	0.0148882
658.738	0.0148708
658.817	0.0148251
658.895	0.0147618
658.973	0.0148877
659.051	0.0149590
659.129	0.0149078
659.207	0.0147971
659.285	0.0148094
659.363	0.0147636
659.442	0.0147708
659.520	0.0147953
659.598	0.0148517
659.676	0.0146509
659.754	0.0143888
659.832	0.0145085
659.910	0.0144001
659.988	0.0143296
660.067	0.0142952
660.145	0.0144016
660.223	0.0143414
660.301	0.0140473
660.379	0.0140283
660.457	0.0140551
660.535	0.0140939
660.613	0.0141819
660.692	0.0139960
660.770	0.0139552
660.848	0.0140503
660.926	0.0141037
661.004	0.0140731
661.082	0.0139695
661.160	0.0140616
661.238	0.0139976
661.317	0.0139870
661.395	0.0142242
661.473	0.0140393
661.551	0.0141030
661.629	0.0142060
661.707	0.0142456
661.785	0.0142196
661.863	0.0141931
661.942	0.0142963
662.020	0.0142963
662.098	0.0142570
662.176	0.0142076
662.254	0.0142355
662.332	0.0144143
662.410	0.0143817
662.488	0.0145089
662.567	0.0145360
662.645	0.0146926
662.723	0.0148787
662.801	0.0148869
662.879	0.0149818
662.957	0.0149941
663.035	0.0152586
663.113	0.0150667
663.192	0.0153815
663.270	0.0153040
663.348	0.0153349
663.426	0.0151633
663.504	0.0152320
663.582	0.0152292
663.660	0.0152497
663.738	0.0152310
663.817	0.0149989
663.895	0.0151270
663.973	0.0151096
664.051	0.0151585
664.129	0.0150229
664.207	0.0149321
664.285	0.0148610
664.363	0.0148664
664.442	0.0146692
664.520	0.0147491
664.598	0.0147192
664.676	0.0147402
664.754	0.0146442
664.832	0.0145693
664.910	0.0146521
664.988	0.0144018
665.067	0.0142981
665.145	0.0142924
665.223	0.0141399
665.301	0.0140742
665.379	0.0140331
665.457	0.0139290
665.535	0.0138643
665.613	0.0137368
665.692	0.0137869
665.770	0.0138564
665.848	0.0139294
665.926	0.0139039
666.004	0.0139999
666.082	0.0139111
666.160	0.0140955
666.238	0.0140311
666.317	0.0140113
666.395	0.0142343
666.473	0.0143015
666.551	0.0143055
666.629	0.0143595
666.707	0.0143766
666.785	0.0142611
666.863	0.0144374
666.942	0.0145508
667.020	0.0144656
667.098	0.0145821
667.176	0.0146316
667.254	0.0145278
667.332	0.0146587
667.410	0.0145573
667.488	0.0145368
667.567	0.0146284
667.645	0.0145393
667.723	0.0145289
667.801	0.0145010
667.879	0.0145576
667.957	0.0144615
668.035	0.0145341
668.113	0.0145466
668.192	0.0145630
668.270	0.0146359
668.348	0.0144405
668.426	0.0147532
668.504	0.0145853
668.582	0.0148409
668.660	0.0148754
668.738	0.0151167
668.817	0.0150221
668.895	0.0151017
668.973	0.0152346
669.051	0.0152480
669.129	0.0153711
669.207	0.0152892
669.285	0.0151984
669.363	0.0153241
669.442	0.0152576
669.520	0.0152861
669.598	0.0149991
669.676	0.0150432
669.754	0.0147846
669.832	0.0146415
669.910	0.0145384
669.988	0.0143864
670.067	0.0139892
670.145	0.0140984
670.223	0.0140099
670.301	0.0138785
670.379	0.0138116
670.457	0.0138399
670.535	0.0138878
670.613	0.0138493
670.692	0.0139211
670.770	0.0140160
670.848	0.0140306
670.926	0.0139867
671.004	0.0142831
671.082	0.0141055
671.160	0.0141541
671.238	0.0143385
671.317	0.0143552
671.395	0.0144441
671.473	0.0144312
671.551	0.0143679
671.629	0.0143958
671.707	0.0144215
671.785	0.0145493
671.863	0.0144569
671.942	0.0144865
672.020	0.0143693
672.098	0.0143648
672.176	0.0144134
672.254	0.0143673
672.332	0.0142897
672.410	0.0143054
672.488	0.0142274
672.567	0.0143019
672.645	0.0142032
672.723	0.0141762
672.801	0.0143105
672.879	0.0143034
672.957	0.0142560
673.035	0.0143475
673.113	0.0143345
673.192	0.0142704
673.270	0.0143938
673.348	0.0145704
673.426	0.0146868
673.504	0.0147025
673.582	0.0147618
673.660	0.0147993
673.738	0.0149441
673.817	0.0151417
673.895	0.0149162
673.973	0.0150300
674.051	0.0151866
674.129	0.0152188
674.207	0.0151147
674.285	0.0151113
674.363	0.0150376
674.442	0.0150092
674.520	0.0149256
674.598	0.0147215
674.676	0.0146783
674.754	0.0145037
674.832	0.0144843
674.910	0.0142651
674.988	0.0143785
675.067	0.0140910
675.145	0.0140380
675.223	0.0138978
675.301	0.0137973
675.379	0.0138738
675.457	0.0138490
675.535	0.0139256
675.613	0.0141335
675.692	0.0140175
675.770	0.0142793
675.848	0.0145450
675.926	0.0145151
676.004	0.0145510
676.082	0.0146475
676.160	0.0147491
676.238	0.0148143
676.317	0.0148653
676.395	0.0150732
676.473	0.0150982
676.551	0.0151683
676.629	0.0151491
676.707	0.0151622
676.785	0.0152670
676.863	0.0153448
676.942	0.0151448
677.020	0.0150893
677.098	0.0151003
677.176	0.0152737
677.254	0.0147775
677.332	0.0149628
677.410	0.0146851
677.488	0.0146095
677.567	0.0146540
677.645	0.0144268
677.723	0.0143060
677.801	0.0141757
677.879	0.0139570
677.957	0.0138747
678.035	0.0138144
678.113	0.0137333
678.192	0.0136826
678.270	0.0136881
678.348	0.0138016
678.426	0.0135888
678.504	0.0136926
678.582	0.0135954
678.660	0.0137048
678.738	0.0138235
678.817	0.0138215
678.895	0.0138750
678.973	0.0140644
679.051	0.0142130
679.129	0.0141312
679.207	0.0143314
679.285	0.0144214
679.363	0.0144468
679.442	0.0146777
679.520	0.0148352
679.598	0.0147823
679.676	0.0149329
679.754	0.0149380
679.832	0.0150929
679.910	0.0153190
679.988	0.0153489
680.067	0.0154234
680.145	0.0155679
680.223	0.0154787
680.301	0.0155038
680.379	0.0154321
680.457	0.0153601
680.535	0.0152284
680.613	0.0153104
680.692	0.0152997
680.770	0.0149462
680.848	0.0149664
680.926	0.0148690
681.004	0.0149235
681.082	0.0147327
681.160	0.0146381
681.238	0.0145202
681.317	0.0146447
681.395	0.0144047
681.473	0.0142957
681.551	0.0143880
681.629	0.0143684
681.707	0.0141998
681.785	0.0140845
681.863	0.0139835
681.942	0.0141241
682.020	0.0140511
682.098	0.0140614
682.176	0.0140939
682.254	0.0142152
682.332	0.0143903
682.410	0.0144919
682.488	0.0144214
682.567	0.0146859
682.645	0.0148205
682.723	0.0149239
682.801	0.0150059
682.879	0.0149157
682.957	0.0149773
683.035	0.0148731
683.113	0.0148595
683.192	0.0148663
683.270	0.0147336
683.348	0.0145531
683.426	0.0145686
683.504	0.0143787
683.582	0.0143849
683.660	0.0143238
683.738	0.0142670
683.817	0.0142469
683.895	0.0143772
683.973	0.0143133
684.051	0.0142218
684.129	0.0143509
684.207	0.0145206
684.285	0.0146458
684.363	0.0145691
684.442	0.0145621
684.520	0.0145441
684.598	0.0145282
684.676	0.0146230
684.754	0.0146535
684.832	0.0146848
684.910	0.0145213
684.988	0.0145796
685.067	0.0144405
685.145	0.0145322
685.223	0.0145131
685.301	0.0144959
685.379	0.0144335
685.457	0.0142366
685.535	0.0144343
685.613	0.0144006
685.692	0.0141393
