05/28/2022	14:16:41	Ver.	4.1	UNKNOWN
Optical Delay	599.988409	Delta X		0.078125	Sweeps	1	Scan Rate	0/0
Coordinates	Axis 1	NaN	Axis 2	NaN	Axis 3	NaN	Axis 4	NaN	Axis 5	NaN	Axis 6	0.000000
TX Power	0.000000	RX Power	0.000000

599.988	0.0143803
600.067	0.0143599
600.145	0.0144505
600.223	0.0145702
600.301	0.0142747
600.379	0.0143705
600.457	0.0143967
600.535	0.0143538
600.613	0.0142037
600.692	0.0143733
600.770	0.0143736
600.848	0.0144395
600.926	0.0144634
601.004	0.0143938
601.082	0.0142986
601.160	0.0143645
601.238	0.0143334
601.317	0.0143806
601.395	0.0144414
601.473	0.0142578
601.551	0.0142300
601.629	0.0143890
601.707	0.0143820
601.785	0.0144289
601.863	0.0143687
601.942	0.0143541
602.020	0.0143527
602.098	0.0144036
602.176	0.0143320
602.254	0.0143298
602.332	0.0144186
602.410	0.0142652
602.488	0.0144031
602.567	0.0143603
602.645	0.0144805
602.723	0.0144562
602.801	0.0143404
602.879	0.0143957
602.957	0.0142403
603.035	0.0143910
603.113	0.0143927
603.192	0.0143389
603.270	0.0144533
603.348	0.0143582
603.426	0.0144321
603.504	0.0143179
603.582	0.0144816
603.660	0.0144319
603.738	0.0143992
603.817	0.0144382
603.895	0.0144394
603.973	0.0144452
604.051	0.0144335
604.129	0.0143392
604.207	0.0144298
604.285	0.0143159
604.363	0.0142896
604.442	0.0143943
604.520	0.0143113
604.598	0.0144818
604.676	0.0144682
604.754	0.0143089
604.832	0.0144430
604.910	0.0145331
604.988	0.0144109
605.067	0.0143871
605.145	0.0143065
605.223	0.0144539
605.301	0.0144453
605.379	0.0143032
605.457	0.0144358
605.535	0.0144367
605.613	0.0144466
605.692	0.0145065
605.770	0.0143366
605.848	0.0143896
605.926	0.0143896
606.004	0.0143758
606.082	0.0143343
606.160	0.0142188
606.238	0.0143797
606.317	0.0143469
606.395	0.0143824
606.473	0.0143441
606.551	0.0143503
606.629	0.0144125
606.707	0.0143264
606.785	0.0142184
606.863	0.0143847
606.942	0.0143683
607.020	0.0143797
607.098	0.0144517
607.176	0.0144061
607.254	0.0144962
607.332	0.0143558
607.410	0.0143876
607.488	0.0143557
607.567	0.0142441
607.645	0.0144160
607.723	0.0143748
607.801	0.0143017
607.879	0.0143986
607.957	0.0143988
608.035	0.0144263
608.113	0.0144149
608.192	0.0143445
608.270	0.0143925
608.348	0.0144178
608.426	0.0143481
608.504	0.0145392
608.582	0.0144593
608.660	0.0144099
608.738	0.0144368
608.817	0.0144019
608.895	0.0143320
608.973	0.0143960
609.051	0.0144215
609.129	0.0144129
609.207	0.0144202
609.285	0.0144012
609.363	0.0144009
609.442	0.0142918
609.520	0.0143358
609.598	0.0143497
609.676	0.0144260
609.754	0.0144421
609.832	0.0143164
609.910	0.0142947
609.988	0.0145045
610.067	0.0144059
610.145	0.0142011
610.223	0.0143748
610.301	0.0144762
610.379	0.0144084
610.457	0.0142295
610.535	0.0143426
610.613	0.0144559
610.692	0.0143554
610.770	0.0143211
610.848	0.0143414
610.926	0.0143124
611.004	0.0144028
611.082	0.0143486
611.160	0.0142762
611.238	0.0143086
611.317	0.0144427
611.395	0.0143742
611.473	0.0143316
611.551	0.0144041
611.629	0.0144246
611.707	0.0145407
611.785	0.0145052
611.863	0.0145258
611.942	0.0144047
612.020	0.0143223
612.098	0.0144121
612.176	0.0143474
612.254	0.0144012
612.332	0.0143865
612.410	0.0144087
612.488	0.0143870
612.567	0.0142717
612.645	0.0144128
612.723	0.0143427
612.801	0.0143388
612.879	0.0144293
612.957	0.0144087
613.035	0.0143196
613.113	0.0143678
613.192	0.0144565
613.270	0.0142342
613.348	0.0143526
613.426	0.0144270
613.504	0.0143706
613.582	0.0144848
613.660	0.0144382
613.738	0.0143964
613.817	0.0142577
613.895	0.0143529
613.973	0.0143311
614.051	0.0143346
614.129	0.0143162
614.207	0.0142893
614.285	0.0143065
614.363	0.0142089
614.442	0.0142949
614.520	0.0143019
614.598	0.0142078
614.676	0.0142826
614.754	0.0142738
614.832	0.0142399
614.910	0.0141550
614.988	0.0143761
615.067	0.0141776
615.145	0.0142388
615.223	0.0141611
615.301	0.0142056
615.379	0.0144328
615.457	0.0142621
615.535	0.0141901
615.613	0.0140974
615.692	0.0141116
615.770	0.0143165
615.848	0.0143585
615.926	0.0143834
616.004	0.0143812
616.082	0.0143066
616.160	0.0142281
616.238	0.0142419
616.317	0.0143593
616.395	0.0142950
616.473	0.0143210
616.551	0.0143720
616.629	0.0143333
616.707	0.0143636
616.785	0.0144982
616.863	0.0144025
616.942	0.0143230
617.020	0.0142515
617.098	0.0143652
617.176	0.0144797
617.254	0.0144086
617.332	0.0143440
617.410	0.0144186
617.488	0.0143173
617.567	0.0144931
617.645	0.0143974
617.723	0.0142384
617.801	0.0144105
617.879	0.0145074
617.957	0.0144608
618.035	0.0143115
618.113	0.0142985
618.192	0.0143523
618.270	0.0144282
618.348	0.0142362
618.426	0.0143634
618.504	0.0144219
618.582	0.0142728
618.660	0.0144495
618.738	0.0143362
618.817	0.0143437
618.895	0.0143661
618.973	0.0142959
619.051	0.0144547
619.129	0.0142805
619.207	0.0144958
619.285	0.0144379
619.363	0.0143970
619.442	0.0143440
619.520	0.0143948
619.598	0.0143374
619.676	0.0144561
619.754	0.0143982
619.832	0.0142632
619.910	0.0144557
619.988	0.0145103
620.067	0.0143404
620.145	0.0144041
620.223	0.0143478
620.301	0.0144048
620.379	0.0143512
620.457	0.0143382
620.535	0.0143778
620.613	0.0143301
620.692	0.0144797
620.770	0.0146351
620.848	0.0144445
620.926	0.0143387
621.004	0.0143048
621.082	0.0144160
621.160	0.0144222
621.238	0.0143458
621.317	0.0143023
621.395	0.0143961
621.473	0.0144281
621.551	0.0144437
621.629	0.0143907
621.707	0.0143898
621.785	0.0142535
621.863	0.0143368
621.942	0.0143993
622.020	0.0142948
622.098	0.0145161
622.176	0.0143520
622.254	0.0143066
622.332	0.0142892
622.410	0.0143547
622.488	0.0142178
622.567	0.0143528
622.645	0.0142638
622.723	0.0143508
622.801	0.0143478
622.879	0.0143244
622.957	0.0143497
623.035	0.0143485
623.113	0.0143610
623.192	0.0142597
623.270	0.0143774
623.348	0.0143565
623.426	0.0144311
623.504	0.0143065
623.582	0.0143570
623.660	0.0142857
623.738	0.0143035
623.817	0.0142892
623.895	0.0144778
623.973	0.0145600
624.051	0.0144463
624.129	0.0144378
624.207	0.0144073
624.285	0.0143699
624.363	0.0144847
624.442	0.0143835
624.520	0.0143835
624.598	0.0143829
624.676	0.0143791
624.754	0.0144143
624.832	0.0144476
624.910	0.0144610
624.988	0.0143333
625.067	0.0143201
625.145	0.0143565
625.223	0.0142935
625.301	0.0142278
625.379	0.0143933
625.457	0.0143238
625.535	0.0143098
625.613	0.0142527
625.692	0.0143494
625.770	0.0143096
625.848	0.0142722
625.926	0.0142494
626.004	0.0143041
626.082	0.0144408
626.160	0.0144296
626.238	0.0144069
626.317	0.0144402
626.395	0.0143579
626.473	0.0143028
626.551	0.0143237
626.629	0.0144138
626.707	0.0144180
626.785	0.0143885
626.863	0.0144129
626.942	0.0143956
627.020	0.0143350
627.098	0.0145294
627.176	0.0144097
627.254	0.0143076
627.332	0.0145250
627.410	0.0144555
627.488	0.0142662
627.567	0.0143855
627.645	0.0144525
627.723	0.0144958
627.801	0.0146355
627.879	0.0143808
627.957	0.0144020
628.035	0.0144843
628.113	0.0143299
628.192	0.0144562
628.270	0.0143940
628.348	0.0145567
628.426	0.0142760
628.504	0.0144530
628.582	0.0145220
628.660	0.0145367
628.738	0.0144270
628.817	0.0143963
628.895	0.0142996
628.973	0.0143732
629.051	0.0143804
629.129	0.0143196
629.207	0.0144704
629.285	0.0143752
629.363	0.0144514
629.442	0.0143262
629.520	0.0143965
629.598	0.0145974
629.676	0.0144118
629.754	0.0144085
629.832	0.0143787
629.910	0.0143785
629.988	0.0144691
630.067	0.0144315
630.145	0.0144022
630.223	0.0142805
630.301	0.0143839
630.379	0.0143843
630.457	0.0143315
630.535	0.0144373
630.613	0.0144115
630.692	0.0144492
630.770	0.0144446
630.848	0.0144560
630.926	0.0144592
631.004	0.0143950
631.082	0.0144939
631.160	0.0143774
631.238	0.0144829
631.317	0.0142593
631.395	0.0143820
631.473	0.0143848
631.551	0.0142834
631.629	0.0143346
631.707	0.0143740
631.785	0.0143980
631.863	0.0143745
631.942	0.0143352
632.020	0.0144186
632.098	0.0143219
632.176	0.0143487
632.254	0.0144032
632.332	0.0144126
632.410	0.0142694
632.488	0.0143812
632.567	0.0143085
632.645	0.0142445
632.723	0.0142161
632.801	0.0142310
632.879	0.0142423
632.957	0.0142732
633.035	0.0143705
633.113	0.0142812
633.192	0.0141280
633.270	0.0143707
633.348	0.0143800
633.426	0.0142963
633.504	0.0140614
633.582	0.0143066
633.660	0.0143855
633.738	0.0142386
633.817	0.0142845
633.895	0.0143427
633.973	0.0143896
634.051	0.0144229
634.129	0.0142924
634.207	0.0141857
634.285	0.0143042
634.363	0.0142349
634.442	0.0143391
634.520	0.0142170
634.598	0.0142608
634.676	0.0142028
634.754	0.0143076
634.832	0.0142513
634.910	0.0144080
634.988	0.0142864
635.067	0.0144105
635.145	0.0144279
635.223	0.0143041
635.301	0.0141608
635.379	0.0142854
635.457	0.0142851
635.535	0.0142999
635.613	0.0143354
635.692	0.0142203
635.770	0.0142895
635.848	0.0143163
635.926	0.0142385
636.004	0.0143397
636.082	0.0141862
636.160	0.0143320
636.238	0.0143829
636.317	0.0143223
636.395	0.0143455
636.473	0.0142070
636.551	0.0144550
636.629	0.0141947
636.707	0.0142970
636.785	0.0143017
636.863	0.0143485
636.942	0.0143793
637.020	0.0143848
637.098	0.0142943
637.176	0.0141893
637.254	0.0144691
637.332	0.0144217
637.410	0.0144698
637.488	0.0142606
637.567	0.0143398
637.645	0.0144077
637.723	0.0143755
637.801	0.0144341
637.879	0.0142059
637.957	0.0143112
638.035	0.0142873
638.113	0.0142532
638.192	0.0143081
638.270	0.0142997
638.348	0.0143516
638.426	0.0143855
638.504	0.0142889
638.582	0.0143607
638.660	0.0143852
638.738	0.0144508
638.817	0.0142186
638.895	0.0143999
638.973	0.0143257
639.051	0.0143866
639.129	0.0141927
639.207	0.0142128
639.285	0.0142703
639.363	0.0143556
639.442	0.0143439
639.520	0.0144627
639.598	0.0143369
639.676	0.0143633
639.754	0.0145246
639.832	0.0144382
639.910	0.0144618
639.988	0.0144866
640.067	0.0144324
640.145	0.0145064
640.223	0.0145033
640.301	0.0145236
640.379	0.0144747
640.457	0.0143787
640.535	0.0145937
640.613	0.0143561
640.692	0.0144151
640.770	0.0142599
640.848	0.0143362
640.926	0.0144637
641.004	0.0144566
641.082	0.0142805
641.160	0.0142224
641.238	0.0142783
641.317	0.0142641
641.395	0.0141507
641.473	0.0141732
641.551	0.0142254
641.629	0.0142052
641.707	0.0142625
641.785	0.0142383
641.863	0.0142571
641.942	0.0142030
642.020	0.0143349
642.098	0.0143010
642.176	0.0143852
642.254	0.0143462
642.332	0.0143816
642.410	0.0145091
642.488	0.0145547
642.567	0.0144741
642.645	0.0144742
642.723	0.0142574
642.801	0.0145483
642.879	0.0145348
642.957	0.0143627
643.035	0.0144740
643.113	0.0143323
643.192	0.0143269
643.270	0.0145139
643.348	0.0143110
643.426	0.0144363
643.504	0.0146448
643.582	0.0145231
643.660	0.0145701
643.738	0.0145583
643.817	0.0147442
643.895	0.0146648
643.973	0.0146800
644.051	0.0144675
644.129	0.0145416
644.207	0.0145123
644.285	0.0144734
644.363	0.0145785
644.442	0.0145456
644.520	0.0143781
644.598	0.0143957
644.676	0.0142899
644.754	0.0143208
644.832	0.0143503
644.910	0.0142788
644.988	0.0142424
645.067	0.0144088
645.145	0.0143931
645.223	0.0143928
645.301	0.0143894
645.379	0.0143642
645.457	0.0143279
645.535	0.0144080
645.613	0.0144344
645.692	0.0142841
645.770	0.0143183
645.848	0.0144073
645.926	0.0140965
646.004	0.0141602
646.082	0.0140926
646.160	0.0141144
646.238	0.0141843
646.317	0.0139340
646.395	0.0140541
646.473	0.0141103
646.551	0.0142178
646.629	0.0142509
646.707	0.0141851
646.785	0.0144443
646.863	0.0144733
646.942	0.0143927
647.020	0.0144760
647.098	0.0144917
647.176	0.0145957
647.254	0.0145594
647.332	0.0147600
647.410	0.0147511
647.488	0.0147598
647.567	0.0146693
647.645	0.0146783
647.723	0.0147408
647.801	0.0148034
647.879	0.0148248
647.957	0.0148713
648.035	0.0147398
648.113	0.0147003
648.192	0.0145895
648.270	0.0145743
648.348	0.0145068
648.426	0.0144363
648.504	0.0144657
648.582	0.0145452
648.660	0.0144228
648.738	0.0144118
648.817	0.0145033
648.895	0.0146201
648.973	0.0144970
649.051	0.0143950
649.129	0.0143790
649.207	0.0144023
649.285	0.0142877
649.363	0.0142905
649.442	0.0143161
649.520	0.0142682
649.598	0.0141810
649.676	0.0143020
649.754	0.0142140
649.832	0.0139828
649.910	0.0141102
649.988	0.0139781
650.067	0.0140066
650.145	0.0139829
650.223	0.0140004
650.301	0.0139759
650.379	0.0139622
650.457	0.0137940
650.535	0.0139188
650.613	0.0139849
650.692	0.0139520
650.770	0.0139367
650.848	0.0140184
650.926	0.0138406
651.004	0.0141687
651.082	0.0142793
651.160	0.0141270
651.238	0.0141901
651.317	0.0142847
651.395	0.0143513
651.473	0.0144034
651.551	0.0143154
651.629	0.0145083
651.707	0.0144330
651.785	0.0144647
651.863	0.0144275
651.942	0.0144025
652.020	0.0145409
652.098	0.0145818
652.176	0.0145773
652.254	0.0145392
652.332	0.0147663
652.410	0.0145423
652.488	0.0144718
652.567	0.0146134
652.645	0.0145486
652.723	0.0144653
652.801	0.0146044
652.879	0.0144897
652.957	0.0144182
653.035	0.0146944
653.113	0.0145049
653.192	0.0145466
653.270	0.0145747
653.348	0.0146066
653.426	0.0145308
653.504	0.0145480
653.582	0.0142814
653.660	0.0145135
653.738	0.0144637
653.817	0.0145243
653.895	0.0143299
653.973	0.0142701
654.051	0.0143381
654.129	0.0142523
654.207	0.0141269
654.285	0.0139906
654.363	0.0142216
654.442	0.0141039
654.520	0.0138622
654.598	0.0142190
654.676	0.0141908
654.754	0.0140759
654.832	0.0140353
654.910	0.0139249
654.988	0.0138923
655.067	0.0140469
655.145	0.0139109
655.223	0.0139691
655.301	0.0139772
655.379	0.0139808
655.457	0.0139767
655.535	0.0140752
655.613	0.0141264
655.692	0.0139039
655.770	0.0138971
655.848	0.0139325
655.926	0.0139329
656.004	0.0139252
656.082	0.0141055
656.160	0.0139740
656.238	0.0141282
656.317	0.0142406
656.395	0.0142692
656.473	0.0142316
656.551	0.0143185
656.629	0.0144588
656.707	0.0143958
656.785	0.0144225
656.863	0.0146709
656.942	0.0146927
657.020	0.0148824
657.098	0.0148766
657.176	0.0148304
657.254	0.0149068
657.332	0.0149551
657.410	0.0148978
657.488	0.0149983
657.567	0.0149039
657.645	0.0151176
657.723	0.0150882
657.801	0.0148925
657.879	0.0147469
657.957	0.0148053
658.035	0.0147373
658.113	0.0146938
658.192	0.0145585
658.270	0.0146622
658.348	0.0146387
658.426	0.0145984
658.504	0.0144297
658.582	0.0143635
658.660	0.0144127
658.738	0.0144643
658.817	0.0144911
658.895	0.0144196
658.973	0.0142681
659.051	0.0142885
659.129	0.0141965
659.207	0.0142190
659.285	0.0139830
659.363	0.0139331
659.442	0.0139131
659.520	0.0140008
659.598	0.0138910
659.676	0.0139156
659.754	0.0139416
659.832	0.0137535
659.910	0.0137698
659.988	0.0139188
660.067	0.0137968
660.145	0.0139016
660.223	0.0139263
660.301	0.0138379
660.379	0.0138823
660.457	0.0139482
660.535	0.0140436
660.613	0.0141827
660.692	0.0142285
660.770	0.0143468
660.848	0.0143823
660.926	0.0144695
661.004	0.0146460
661.082	0.0146185
661.160	0.0146233
661.238	0.0146846
661.317	0.0146280
661.395	0.0146354
661.473	0.0145935
661.551	0.0146574
661.629	0.0147322
661.707	0.0147086
661.785	0.0145830
661.863	0.0145667
661.942	0.0147158
662.020	0.0147542
662.098	0.0147456
662.176	0.0145071
662.254	0.0146987
662.332	0.0148390
662.410	0.0148403
662.488	0.0148424
662.567	0.0147918
662.645	0.0149556
662.723	0.0150958
662.801	0.0148878
662.879	0.0149741
662.957	0.0150298
663.035	0.0150922
663.113	0.0151781
663.192	0.0150687
663.270	0.0149699
663.348	0.0147476
663.426	0.0147836
663.504	0.0147648
663.582	0.0146774
663.660	0.0145760
663.738	0.0146828
663.817	0.0143613
663.895	0.0144280
663.973	0.0144250
664.051	0.0142394
664.129	0.0142545
664.207	0.0140119
664.285	0.0139301
664.363	0.0138301
664.442	0.0138623
664.520	0.0140252
664.598	0.0139214
664.676	0.0137758
664.754	0.0138500
664.832	0.0138205
664.910	0.0138876
664.988	0.0139020
665.067	0.0138857
665.145	0.0138725
665.223	0.0140452
665.301	0.0139529
665.379	0.0140257
665.457	0.0140543
665.535	0.0140821
665.613	0.0142632
665.692	0.0142664
665.770	0.0142677
665.848	0.0143347
665.926	0.0145258
666.004	0.0145142
666.082	0.0145847
666.160	0.0146374
666.238	0.0145796
666.317	0.0146325
666.395	0.0147124
666.473	0.0146912
666.551	0.0147949
666.629	0.0148290
666.707	0.0145414
666.785	0.0145014
666.863	0.0146350
666.942	0.0144685
667.020	0.0145277
667.098	0.0144799
667.176	0.0144659
667.254	0.0144482
667.332	0.0142059
667.410	0.0143775
667.488	0.0142175
667.567	0.0143107
667.645	0.0142924
667.723	0.0141730
667.801	0.0141139
667.879	0.0140896
667.957	0.0139742
668.035	0.0141476
668.113	0.0141871
668.192	0.0140192
668.270	0.0141505
668.348	0.0142484
668.426	0.0143060
668.504	0.0143446
668.582	0.0144633
668.660	0.0145874
668.738	0.0144968
668.817	0.0145378
668.895	0.0146847
668.973	0.0146755
669.051	0.0146365
669.129	0.0145754
669.207	0.0146629
669.285	0.0147809
669.363	0.0147989
669.442	0.0147159
669.520	0.0147689
669.598	0.0147812
669.676	0.0148785
669.754	0.0149021
669.832	0.0146872
669.910	0.0145569
669.988	0.0146161
670.067	0.0145451
670.145	0.0143724
670.223	0.0144839
670.301	0.0143382
670.379	0.0143358
670.457	0.0142886
670.535	0.0140874
670.613	0.0141977
670.692	0.0140849
670.770	0.0141210
670.848	0.0139010
670.926	0.0138105
671.004	0.0137449
671.082	0.0138403
671.160	0.0138053
671.238	0.0138718
671.317	0.0139386
671.395	0.0140275
671.473	0.0139087
671.551	0.0140327
671.629	0.0140906
671.707	0.0142741
671.785	0.0142676
671.863	0.0142861
671.942	0.0144841
672.020	0.0145015
672.098	0.0146334
672.176	0.0147260
672.254	0.0148156
672.332	0.0146413
672.410	0.0147812
672.488	0.0147757
672.567	0.0147073
672.645	0.0146698
672.723	0.0145233
672.801	0.0143227
672.879	0.0142358
672.957	0.0140379
673.035	0.0140374
673.113	0.0138266
673.192	0.0137896
673.270	0.0135070
673.348	0.0135616
673.426	0.0134367
673.504	0.0134913
673.582	0.0135846
673.660	0.0136494
673.738	0.0136485
673.817	0.0138304
673.895	0.0137767
673.973	0.0139684
674.051	0.0140856
674.129	0.0142554
674.207	0.0146188
674.285	0.0147364
674.363	0.0149062
674.442	0.0149667
674.520	0.0149547
674.598	0.0152008
674.676	0.0151920
674.754	0.0150455
674.832	0.0153578
674.910	0.0152422
674.988	0.0150368
675.067	0.0151671
675.145	0.0150323
675.223	0.0150685
675.301	0.0148869
675.379	0.0147245
675.457	0.0146875
675.535	0.0144777
675.613	0.0144952
675.692	0.0143733
675.770	0.0141283
675.848	0.0141853
675.926	0.0140284
676.004	0.0138213
676.082	0.0137477
676.160	0.0137344
676.238	0.0136864
676.317	0.0136597
676.395	0.0135064
676.473	0.0136660
676.551	0.0136605
676.629	0.0137054
676.707	0.0135908
676.785	0.0137818
676.863	0.0136454
676.942	0.0138126
677.020	0.0137778
677.098	0.0138575
677.176	0.0139399
677.254	0.0139562
677.332	0.0140536
677.410	0.0141753
677.488	0.0141838
677.567	0.0143546
677.645	0.0143859
677.723	0.0145206
677.801	0.0145494
677.879	0.0145634
677.957	0.0147640
678.035	0.0147052
678.113	0.0148032
678.192	0.0149295
678.270	0.0148090
678.348	0.0149205
678.426	0.0150013
678.504	0.0150536
678.582	0.0149667
678.660	0.0149798
678.738	0.0148826
678.817	0.0150932
678.895	0.0148942
678.973	0.0148456
679.051	0.0149048
679.129	0.0147056
679.207	0.0147178
679.285	0.0145869
679.363	0.0145455
679.442	0.0144610
679.520	0.0143649
679.598	0.0143463
679.676	0.0142722
679.754	0.0142036
679.832	0.0140385
679.910	0.0139911
679.988	0.0139227
680.067	0.0137981
680.145	0.0137672
680.223	0.0137277
680.301	0.0135930
680.379	0.0135401
680.457	0.0135764
680.535	0.0135197
680.613	0.0136641
680.692	0.0137706
680.770	0.0136682
680.848	0.0138261
680.926	0.0139644
681.004	0.0140638
681.082	0.0142918
681.160	0.0143814
681.238	0.0145603
681.317	0.0146124
681.395	0.0148048
681.473	0.0149003
681.551	0.0150467
681.629	0.0150285
681.707	0.0149906
681.785	0.0151620
681.863	0.0152234
681.942	0.0150420
682.020	0.0150261
682.098	0.0148602
682.176	0.0149487
682.254	0.0148363
682.332	0.0147552
682.410	0.0146724
682.488	0.0146700
682.567	0.0145293
682.645	0.0146096
682.723	0.0146735
682.801	0.0144839
682.879	0.0145293
682.957	0.0144061
683.035	0.0145210
683.113	0.0142917
683.192	0.0144765
683.270	0.0142930
683.348	0.0144182
683.426	0.0141668
683.504	0.0141782
683.582	0.0141058
683.660	0.0140470
683.738	0.0140619
683.817	0.0140223
683.895	0.0140234
683.973	0.0139738
684.051	0.0138803
684.129	0.0140291
684.207	0.0139561
684.285	0.0140067
684.363	0.0139363
684.442	0.0139591
684.520	0.0139832
684.598	0.0140244
684.676	0.0139428
684.754	0.0140612
684.832	0.0140714
684.910	0.0140182
684.988	0.0140834
685.067	0.0139663
685.145	0.0139272
685.223	0.0141166
685.301	0.0139784
685.379	0.0140967
685.457	0.0141647
685.535	0.0143207
685.613	0.0142781
685.692	0.0142017
