05/28/2022	14:17:01	Ver.	4.1	UNKNOWN
Optical Delay	599.988409	Delta X		0.078125	Sweeps	1	Scan Rate	0/0
Coordinates	Axis 1	NaN	Axis 2	NaN	Axis 3	NaN	Axis 4	NaN	Axis 5	NaN	Axis 6	0.000000
TX Power	0.000000	RX Power	0.000000

599.988	0.0145522
600.067	0.0146366
600.145	0.0146372
600.223	0.0144252
600.301	0.0144762
600.379	0.0147155
600.457	0.0146477
600.535	0.0145942
600.613	0.0145454
600.692	0.0145403
600.770	0.0145243
600.848	0.0145581
600.926	0.0145054
601.004	0.0145380
601.082	0.0146635
601.160	0.0145532
601.238	0.0145637
601.317	0.0145082
601.395	0.0143641
601.473	0.0147446
601.551	0.0146469
601.629	0.0144819
601.707	0.0146668
601.785	0.0145898
601.863	0.0144364
601.942	0.0145457
602.020	0.0144935
602.098	0.0145726
602.176	0.0143673
602.254	0.0144630
602.332	0.0145605
602.410	0.0145936
602.488	0.0146425
602.567	0.0144751
602.645	0.0145637
602.723	0.0145330
602.801	0.0145406
602.879	0.0144542
602.957	0.0143646
603.035	0.0145687
603.113	0.0146135
603.192	0.0145496
603.270	0.0144734
603.348	0.0144800
603.426	0.0145349
603.504	0.0145133
603.582	0.0144474
603.660	0.0145910
603.738	0.0146698
603.817	0.0146187
603.895	0.0145687
603.973	0.0145104
604.051	0.0147128
604.129	0.0146340
604.207	0.0145125
604.285	0.0146341
604.363	0.0146191
604.442	0.0146516
604.520	0.0145764
604.598	0.0145366
604.676	0.0145463
604.754	0.0146191
604.832	0.0145238
604.910	0.0145149
604.988	0.0145387
605.067	0.0146377
605.145	0.0145772
605.223	0.0145402
605.301	0.0144843
605.379	0.0145455
605.457	0.0145884
605.535	0.0145559
605.613	0.0145906
605.692	0.0145071
605.770	0.0145501
605.848	0.0145729
605.926	0.0146341
606.004	0.0146265
606.082	0.0143974
606.160	0.0146031
606.238	0.0146184
606.317	0.0144799
606.395	0.0144867
606.473	0.0145731
606.551	0.0145442
606.629	0.0143539
606.707	0.0145242
606.785	0.0145418
606.863	0.0145393
606.942	0.0144581
607.020	0.0145075
607.098	0.0147349
607.176	0.0145446
607.254	0.0146045
607.332	0.0145184
607.410	0.0145634
607.488	0.0144668
607.567	0.0145314
607.645	0.0144368
607.723	0.0145534
607.801	0.0145264
607.879	0.0144503
607.957	0.0145442
608.035	0.0145348
608.113	0.0146871
608.192	0.0146527
608.270	0.0145494
608.348	0.0145279
608.426	0.0144751
608.504	0.0144009
608.582	0.0145847
608.660	0.0144240
608.738	0.0145462
608.817	0.0145304
608.895	0.0145667
608.973	0.0144761
609.051	0.0143226
609.129	0.0146834
609.207	0.0145162
609.285	0.0146614
609.363	0.0145580
609.442	0.0145142
609.520	0.0144879
609.598	0.0145047
609.676	0.0145460
609.754	0.0145014
609.832	0.0146050
609.910	0.0145512
609.988	0.0144511
610.067	0.0144386
610.145	0.0146550
610.223	0.0146233
610.301	0.0146113
610.379	0.0146056
610.457	0.0144148
610.535	0.0145596
610.613	0.0145669
610.692	0.0144978
610.770	0.0144781
610.848	0.0146411
610.926	0.0144894
611.004	0.0145495
611.082	0.0146387
611.160	0.0145930
611.238	0.0145078
611.317	0.0145602
611.395	0.0144986
611.473	0.0144986
611.551	0.0145142
611.629	0.0144582
611.707	0.0145013
611.785	0.0143822
611.863	0.0144990
611.942	0.0144400
612.020	0.0145895
612.098	0.0145493
612.176	0.0146176
612.254	0.0145686
612.332	0.0144942
612.410	0.0144340
612.488	0.0146015
612.567	0.0146678
612.645	0.0145940
612.723	0.0145423
612.801	0.0145206
612.879	0.0145042
612.957	0.0145500
613.035	0.0145040
613.113	0.0144415
613.192	0.0147204
613.270	0.0145533
613.348	0.0145092
613.426	0.0146078
613.504	0.0144416
613.582	0.0145863
613.660	0.0145741
613.738	0.0146629
613.817	0.0145366
613.895	0.0144749
613.973	0.0146542
614.051	0.0146248
614.129	0.0144962
614.207	0.0145384
614.285	0.0145532
614.363	0.0144575
614.442	0.0145202
614.520	0.0144999
614.598	0.0146029
614.676	0.0145443
614.754	0.0145425
614.832	0.0144726
614.910	0.0145649
614.988	0.0146709
615.067	0.0144818
615.145	0.0144807
615.223	0.0145034
615.301	0.0146176
615.379	0.0145660
615.457	0.0145895
615.535	0.0145241
615.613	0.0144975
615.692	0.0145599
615.770	0.0145109
615.848	0.0145481
615.926	0.0145557
616.004	0.0145510
616.082	0.0144373
616.160	0.0145541
616.238	0.0145190
616.317	0.0145216
616.395	0.0144447
616.473	0.0145586
616.551	0.0145728
616.629	0.0145476
616.707	0.0145296
616.785	0.0145526
616.863	0.0146459
616.942	0.0145760
617.020	0.0144624
617.098	0.0143951
617.176	0.0145009
617.254	0.0146463
617.332	0.0144915
617.410	0.0145624
617.488	0.0145384
617.567	0.0144803
617.645	0.0146116
617.723	0.0146090
617.801	0.0144019
617.879	0.0145287
617.957	0.0145895
618.035	0.0144404
618.113	0.0144943
618.192	0.0144586
618.270	0.0143921
618.348	0.0142798
618.426	0.0144984
618.504	0.0144849
618.582	0.0144292
618.660	0.0145410
618.738	0.0146156
618.817	0.0145663
618.895	0.0145782
618.973	0.0145186
619.051	0.0145576
619.129	0.0145639
619.207	0.0145651
619.285	0.0146069
619.363	0.0145312
619.442	0.0144372
619.520	0.0145690
619.598	0.0146902
619.676	0.0144858
619.754	0.0145609
619.832	0.0145057
619.910	0.0146811
619.988	0.0146129
620.067	0.0145087
620.145	0.0147076
620.223	0.0145327
620.301	0.0146214
620.379	0.0147334
620.457	0.0147623
620.535	0.0146316
620.613	0.0145978
620.692	0.0145523
620.770	0.0146274
620.848	0.0146465
620.926	0.0145742
621.004	0.0147189
621.082	0.0145369
621.160	0.0146149
621.238	0.0146136
621.317	0.0146021
621.395	0.0145603
621.473	0.0145245
621.551	0.0146504
621.629	0.0145876
621.707	0.0146067
621.785	0.0146082
621.863	0.0144132
621.942	0.0144615
622.020	0.0146187
622.098	0.0145899
622.176	0.0145560
622.254	0.0144807
622.332	0.0145638
622.410	0.0146941
622.488	0.0144393
622.567	0.0145144
622.645	0.0145864
622.723	0.0145564
622.801	0.0145823
622.879	0.0145330
622.957	0.0145786
623.035	0.0144576
623.113	0.0144562
623.192	0.0143559
623.270	0.0145814
623.348	0.0145331
623.426	0.0144934
623.504	0.0145033
623.582	0.0145388
623.660	0.0145303
623.738	0.0146338
623.817	0.0145618
623.895	0.0145206
623.973	0.0144555
624.051	0.0143335
624.129	0.0146541
624.207	0.0145354
624.285	0.0144413
624.363	0.0146118
624.442	0.0145146
624.520	0.0144605
624.598	0.0144794
624.676	0.0144153
624.754	0.0145747
624.832	0.0144786
624.910	0.0143788
624.988	0.0145856
625.067	0.0145668
625.145	0.0145616
625.223	0.0146557
625.301	0.0145635
625.379	0.0144559
625.457	0.0144589
625.535	0.0144096
625.613	0.0144827
625.692	0.0144925
625.770	0.0144418
625.848	0.0145135
625.926	0.0144460
626.004	0.0146652
626.082	0.0145486
626.160	0.0145197
626.238	0.0145593
626.317	0.0145714
626.395	0.0143953
626.473	0.0144252
626.551	0.0144885
626.629	0.0146320
626.707	0.0145854
626.785	0.0145586
626.863	0.0144977
626.942	0.0144815
627.020	0.0144620
627.098	0.0145417
627.176	0.0145569
627.254	0.0146135
627.332	0.0144846
627.410	0.0145041
627.488	0.0146182
627.567	0.0144521
627.645	0.0144720
627.723	0.0145921
627.801	0.0145218
627.879	0.0144432
627.957	0.0145605
628.035	0.0145088
628.113	0.0144784
628.192	0.0146369
628.270	0.0146321
628.348	0.0145148
628.426	0.0145759
628.504	0.0145175
628.582	0.0146136
628.660	0.0145303
628.738	0.0144247
628.817	0.0144542
628.895	0.0145586
628.973	0.0144981
629.051	0.0145203
629.129	0.0146472
629.207	0.0145422
629.285	0.0144977
629.363	0.0146614
629.442	0.0145903
629.520	0.0145155
629.598	0.0146086
629.676	0.0146152
629.754	0.0145936
629.832	0.0145316
629.910	0.0144831
629.988	0.0146526
630.067	0.0145184
630.145	0.0146066
630.223	0.0145504
630.301	0.0146557
630.379	0.0143802
630.457	0.0144591
630.535	0.0145622
630.613	0.0146430
630.692	0.0145700
630.770	0.0145432
630.848	0.0144276
630.926	0.0146839
631.004	0.0145126
631.082	0.0144859
631.160	0.0145834
631.238	0.0145412
631.317	0.0146332
631.395	0.0145270
631.473	0.0147117
631.551	0.0146667
631.629	0.0144425
631.707	0.0146800
631.785	0.0145631
631.863	0.0146307
631.942	0.0146106
632.020	0.0146226
632.098	0.0144997
632.176	0.0144804
632.254	0.0146177
632.332	0.0146997
632.410	0.0146879
632.488	0.0145519
632.567	0.0145656
632.645	0.0146050
632.723	0.0146372
632.801	0.0145403
632.879	0.0144370
632.957	0.0144773
633.035	0.0145984
633.113	0.0146323
633.192	0.0145125
633.270	0.0145822
633.348	0.0146667
633.426	0.0146687
633.504	0.0145867
633.582	0.0146004
633.660	0.0145654
633.738	0.0145317
633.817	0.0146069
633.895	0.0146803
633.973	0.0147421
634.051	0.0145061
634.129	0.0145862
634.207	0.0144087
634.285	0.0146088
634.363	0.0145689
634.442	0.0146980
634.520	0.0145693
634.598	0.0147235
634.676	0.0145707
634.754	0.0146304
634.832	0.0147381
634.910	0.0145999
634.988	0.0144948
635.067	0.0147534
635.145	0.0146969
635.223	0.0146150
635.301	0.0145956
635.379	0.0145665
635.457	0.0146079
635.535	0.0145836
635.613	0.0146127
635.692	0.0147367
635.770	0.0144765
635.848	0.0145357
635.926	0.0146143
636.004	0.0146464
636.082	0.0146996
636.160	0.0145181
636.238	0.0146088
636.317	0.0147578
636.395	0.0146527
636.473	0.0147532
636.551	0.0145921
636.629	0.0146138
636.707	0.0147988
636.785	0.0146127
636.863	0.0145824
636.942	0.0146970
637.020	0.0147501
637.098	0.0145618
637.176	0.0146550
637.254	0.0147679
637.332	0.0147514
637.410	0.0146748
637.488	0.0146680
637.567	0.0145513
637.645	0.0146294
637.723	0.0146741
637.801	0.0147332
637.879	0.0144877
637.957	0.0145155
638.035	0.0145325
638.113	0.0146610
638.192	0.0145472
638.270	0.0146022
638.348	0.0145950
638.426	0.0147290
638.504	0.0146343
638.582	0.0145973
638.660	0.0145860
638.738	0.0145944
638.817	0.0146053
638.895	0.0144768
638.973	0.0145496
639.051	0.0146397
639.129	0.0147425
639.207	0.0145470
639.285	0.0146517
639.363	0.0147382
639.442	0.0148147
639.520	0.0147937
639.598	0.0148079
639.676	0.0146848
639.754	0.0146957
639.832	0.0146914
639.910	0.0147312
639.988	0.0145975
640.067	0.0147311
640.145	0.0146442
640.223	0.0144093
640.301	0.0145301
640.379	0.0145795
640.457	0.0145807
640.535	0.0143449
640.613	0.0145151
640.692	0.0145559
640.770	0.0145596
640.848	0.0144740
640.926	0.0144638
641.004	0.0144172
641.082	0.0145081
641.160	0.0146677
641.238	0.0146284
641.317	0.0145136
641.395	0.0144336
641.473	0.0145216
641.551	0.0145689
641.629	0.0146531
641.707	0.0145930
641.785	0.0146698
641.863	0.0146793
641.942	0.0146364
642.020	0.0146470
642.098	0.0146511
642.176	0.0146656
642.254	0.0148447
642.332	0.0148566
642.410	0.0146235
642.488	0.0146572
642.567	0.0146904
642.645	0.0144631
642.723	0.0144841
642.801	0.0145240
642.879	0.0147277
642.957	0.0147863
643.035	0.0146235
643.113	0.0148120
643.192	0.0147977
643.270	0.0146851
643.348	0.0147779
643.426	0.0147393
643.504	0.0148980
643.582	0.0147112
643.660	0.0146841
643.738	0.0147083
643.817	0.0146474
643.895	0.0145320
643.973	0.0145892
644.051	0.0144577
644.129	0.0144242
644.207	0.0144554
644.285	0.0144733
644.363	0.0144103
644.442	0.0143407
644.520	0.0143329
644.598	0.0143884
644.676	0.0144437
644.754	0.0143393
644.832	0.0145244
644.910	0.0144301
644.988	0.0144878
645.067	0.0143921
645.145	0.0144051
645.223	0.0141642
645.301	0.0143020
645.379	0.0141460
645.457	0.0142612
645.535	0.0141624
645.613	0.0140505
645.692	0.0141299
645.770	0.0142359
645.848	0.0141583
645.926	0.0141227
646.004	0.0143892
646.082	0.0143727
646.160	0.0144392
646.238	0.0144930
646.317	0.0146559
646.395	0.0146559
646.473	0.0147009
646.551	0.0148233
646.629	0.0148572
646.707	0.0149120
646.785	0.0149249
646.863	0.0149483
646.942	0.0148764
647.020	0.0149840
647.098	0.0150605
647.176	0.0149689
647.254	0.0149743
647.332	0.0150008
647.410	0.0148339
647.488	0.0147640
647.567	0.0147733
647.645	0.0148221
647.723	0.0147679
647.801	0.0147149
647.879	0.0146000
647.957	0.0146618
648.035	0.0147528
648.113	0.0146842
648.192	0.0145952
648.270	0.0146535
648.348	0.0146616
648.426	0.0145162
648.504	0.0146244
648.582	0.0146745
648.660	0.0144960
648.738	0.0144628
648.817	0.0144695
648.895	0.0144730
648.973	0.0142119
649.051	0.0142133
649.129	0.0142572
649.207	0.0142350
649.285	0.0140956
649.363	0.0142165
649.442	0.0142902
649.520	0.0141328
649.598	0.0140221
649.676	0.0140166
649.754	0.0141255
649.832	0.0141558
649.910	0.0142861
649.988	0.0142958
650.067	0.0143053
650.145	0.0143816
650.223	0.0144112
650.301	0.0144400
650.379	0.0142271
650.457	0.0144300
650.535	0.0145969
650.613	0.0145464
650.692	0.0147182
650.770	0.0146752
650.848	0.0147150
650.926	0.0148013
651.004	0.0147561
651.082	0.0147896
651.160	0.0148370
651.238	0.0147473
651.317	0.0149078
651.395	0.0149115
651.473	0.0147875
651.551	0.0149747
651.629	0.0147689
651.707	0.0150601
651.785	0.0149752
651.863	0.0150998
651.942	0.0149973
652.020	0.0149279
652.098	0.0148412
652.176	0.0149404
652.254	0.0149876
652.332	0.0149707
652.410	0.0149949
652.488	0.0147923
652.567	0.0148259
652.645	0.0149111
652.723	0.0148804
652.801	0.0147600
652.879	0.0148438
652.957	0.0149179
653.035	0.0147543
653.113	0.0147994
653.192	0.0147312
653.270	0.0147063
653.348	0.0146005
653.426	0.0145142
653.504	0.0146358
653.582	0.0145625
653.660	0.0144191
653.738	0.0143652
653.817	0.0144063
653.895	0.0143177
653.973	0.0142197
654.051	0.0143656
654.129	0.0144583
654.207	0.0142158
654.285	0.0142584
654.363	0.0142867
654.442	0.0143048
654.520	0.0143584
654.598	0.0142995
654.676	0.0143813
654.754	0.0144296
654.832	0.0142677
654.910	0.0142999
654.988	0.0142662
655.067	0.0143707
655.145	0.0144643
655.223	0.0142898
655.301	0.0143346
655.379	0.0143162
655.457	0.0143757
655.535	0.0144756
655.613	0.0144873
655.692	0.0144962
655.770	0.0145510
655.848	0.0146616
655.926	0.0148486
656.004	0.0147805
656.082	0.0150317
656.160	0.0149673
656.238	0.0150670
656.317	0.0150107
656.395	0.0150695
656.473	0.0151094
656.551	0.0151172
656.629	0.0150677
656.707	0.0149326
656.785	0.0153687
656.863	0.0151058
656.942	0.0152837
657.020	0.0150465
657.098	0.0150739
657.176	0.0150826
657.254	0.0151382
657.332	0.0149364
657.410	0.0149236
657.488	0.0148396
657.567	0.0150243
657.645	0.0148953
657.723	0.0147654
657.801	0.0147754
657.879	0.0147794
657.957	0.0148074
658.035	0.0147341
658.113	0.0145933
658.192	0.0145129
658.270	0.0144681
658.348	0.0144258
658.426	0.0144216
658.504	0.0143656
658.582	0.0142336
658.660	0.0142009
658.738	0.0142953
658.817	0.0141859
658.895	0.0140641
658.973	0.0140858
659.051	0.0140974
659.129	0.0140467
659.207	0.0139272
659.285	0.0139543
659.363	0.0138842
659.442	0.0139071
659.520	0.0139008
659.598	0.0139771
659.676	0.0139064
659.754	0.0140671
659.832	0.0139815
659.910	0.0140015
659.988	0.0141826
660.067	0.0143194
660.145	0.0143932
660.223	0.0145380
660.301	0.0145847
660.379	0.0145166
660.457	0.0146144
660.535	0.0147405
660.613	0.0147818
660.692	0.0147601
660.770	0.0148452
660.848	0.0148624
660.926	0.0149539
661.004	0.0149343
661.082	0.0148271
661.160	0.0147818
661.238	0.0148249
661.317	0.0148488
661.395	0.0148396
661.473	0.0147061
661.551	0.0150584
661.629	0.0149617
661.707	0.0147311
661.785	0.0150181
661.863	0.0148592
661.942	0.0149639
662.020	0.0149906
662.098	0.0149390
662.176	0.0149933
662.254	0.0151196
662.332	0.0151012
662.410	0.0149986
662.488	0.0149720
662.567	0.0149236
662.645	0.0148216
662.723	0.0147790
662.801	0.0147010
662.879	0.0146799
662.957	0.0146524
663.035	0.0145419
663.113	0.0146218
663.192	0.0145972
663.270	0.0144407
663.348	0.0144012
663.426	0.0145549
663.504	0.0142902
663.582	0.0141541
663.660	0.0142506
663.738	0.0143934
663.817	0.0142065
663.895	0.0141324
663.973	0.0141949
664.051	0.0141785
664.129	0.0141048
664.207	0.0139951
664.285	0.0141866
664.363	0.0141177
664.442	0.0141954
664.520	0.0140909
664.598	0.0141906
664.676	0.0140517
664.754	0.0140458
664.832	0.0140842
664.910	0.0141418
664.988	0.0142040
665.067	0.0142425
665.145	0.0143069
665.223	0.0142147
665.301	0.0142185
665.379	0.0144332
665.457	0.0145675
665.535	0.0145100
665.613	0.0146529
665.692	0.0146141
665.770	0.0144986
665.848	0.0146970
665.926	0.0147896
666.004	0.0147220
666.082	0.0146844
666.160	0.0148261
666.238	0.0149906
666.317	0.0148314
666.395	0.0148714
666.473	0.0149241
666.551	0.0149162
666.629	0.0147797
666.707	0.0147595
666.785	0.0148460
666.863	0.0146419
666.942	0.0146577
667.020	0.0144681
667.098	0.0145361
667.176	0.0144760
667.254	0.0145450
667.332	0.0144366
667.410	0.0143076
667.488	0.0142744
667.567	0.0142635
667.645	0.0141933
667.723	0.0142503
667.801	0.0143276
667.879	0.0142738
667.957	0.0142487
668.035	0.0142762
668.113	0.0142561
668.192	0.0144484
668.270	0.0145155
668.348	0.0144820
668.426	0.0144617
668.504	0.0145956
668.582	0.0147015
668.660	0.0146454
668.738	0.0147401
668.817	0.0146126
668.895	0.0147066
668.973	0.0147114
669.051	0.0146562
669.129	0.0148136
669.207	0.0148206
669.285	0.0148194
669.363	0.0149763
669.442	0.0147916
669.520	0.0148006
669.598	0.0147618
669.676	0.0146066
669.754	0.0145615
669.832	0.0145957
669.910	0.0147375
669.988	0.0145594
670.067	0.0144988
670.145	0.0144562
670.223	0.0142381
670.301	0.0142789
670.379	0.0142010
670.457	0.0142433
670.535	0.0142032
670.613	0.0142200
670.692	0.0142442
670.770	0.0140736
670.848	0.0141855
670.926	0.0141180
671.004	0.0141714
671.082	0.0142355
671.160	0.0142628
671.238	0.0144775
671.317	0.0143755
671.395	0.0145463
671.473	0.0145376
671.551	0.0145552
671.629	0.0146264
671.707	0.0146082
671.785	0.0148043
671.863	0.0148110
671.942	0.0148376
672.020	0.0149076
672.098	0.0150629
672.176	0.0149657
672.254	0.0150352
672.332	0.0150088
672.410	0.0149255
672.488	0.0150420
672.567	0.0149913
672.645	0.0148411
672.723	0.0147665
672.801	0.0147460
672.879	0.0147358
672.957	0.0145873
673.035	0.0143553
673.113	0.0144423
673.192	0.0143144
673.270	0.0143005
673.348	0.0142027
673.426	0.0140784
673.504	0.0140675
673.582	0.0141745
673.660	0.0141655
673.738	0.0141848
673.817	0.0142016
673.895	0.0144341
673.973	0.0145462
674.051	0.0146037
674.129	0.0148439
674.207	0.0148526
674.285	0.0149807
674.363	0.0151463
674.442	0.0153868
674.520	0.0152937
674.598	0.0154597
674.676	0.0155025
674.754	0.0153797
674.832	0.0153532
674.910	0.0153736
674.988	0.0152483
675.067	0.0152922
675.145	0.0152922
675.223	0.0150304
675.301	0.0149815
675.379	0.0147402
675.457	0.0147779
675.535	0.0146391
675.613	0.0144499
675.692	0.0144388
675.770	0.0142278
675.848	0.0140562
675.926	0.0142294
676.004	0.0140635
676.082	0.0140586
676.160	0.0138655
676.238	0.0138622
676.317	0.0137652
676.395	0.0137081
676.473	0.0137457
676.551	0.0137355
676.629	0.0136847
676.707	0.0137489
676.785	0.0137498
676.863	0.0139809
676.942	0.0139835
677.020	0.0140681
677.098	0.0141367
677.176	0.0144117
677.254	0.0143723
677.332	0.0144837
677.410	0.0144784
677.488	0.0146147
677.567	0.0146925
677.645	0.0147581
677.723	0.0148369
677.801	0.0149805
677.879	0.0148663
677.957	0.0149265
678.035	0.0151357
678.113	0.0150769
678.192	0.0149561
678.270	0.0152931
678.348	0.0152405
678.426	0.0151945
678.504	0.0152531
678.582	0.0152814
678.660	0.0152763
678.738	0.0151131
678.817	0.0150951
678.895	0.0151633
678.973	0.0149646
679.051	0.0150453
679.129	0.0148303
679.207	0.0149181
679.285	0.0147526
679.363	0.0147717
679.442	0.0147508
679.520	0.0147315
679.598	0.0144350
679.676	0.0144695
679.754	0.0144279
679.832	0.0142390
679.910	0.0142921
679.988	0.0141415
680.067	0.0139303
680.145	0.0139376
680.223	0.0138583
680.301	0.0137286
680.379	0.0137988
680.457	0.0138572
680.535	0.0137230
680.613	0.0138065
680.692	0.0138639
680.770	0.0139895
680.848	0.0139103
680.926	0.0139757
681.004	0.0143114
681.082	0.0144101
681.160	0.0144361
681.238	0.0144741
681.317	0.0145151
681.395	0.0148325
681.473	0.0149306
681.551	0.0148846
681.629	0.0149065
681.707	0.0150511
681.785	0.0149608
681.863	0.0149259
681.942	0.0149173
682.020	0.0149549
682.098	0.0149451
682.176	0.0148813
682.254	0.0149006
682.332	0.0148824
682.410	0.0147912
682.488	0.0146858
682.567	0.0148398
682.645	0.0147572
682.723	0.0147462
682.801	0.0149023
682.879	0.0148161
682.957	0.0147726
683.035	0.0149284
683.113	0.0148822
683.192	0.0150315
683.270	0.0150600
683.348	0.0148706
683.426	0.0149969
683.504	0.0147137
683.582	0.0147852
683.660	0.0147847
683.738	0.0145328
683.817	0.0144614
683.895	0.0142554
683.973	0.0144764
684.051	0.0142471
684.129	0.0140907
684.207	0.0141290
684.285	0.0141412
684.363	0.0140387
684.442	0.0140883
684.520	0.0140307
684.598	0.0141085
684.676	0.0142105
684.754	0.0142535
684.832	0.0141437
684.910	0.0142171
684.988	0.0142540
685.067	0.0142698
685.145	0.0141851
685.223	0.0142583
685.301	0.0141624
685.379	0.0142171
685.457	0.0141444
685.535	0.0142976
685.613	0.0141895
685.692	0.0142349
