05/28/2022	14:17:56	Ver.	4.1	UNKNOWN
Optical Delay	599.988409	Delta X		0.078125	Sweeps	1	Scan Rate	0/0
Coordinates	Axis 1	NaN	Axis 2	NaN	Axis 3	NaN	Axis 4	NaN	Axis 5	NaN	Axis 6	0.000000
TX Power	0.000000	RX Power	0.000000

599.988	0.0143945
600.067	0.0144314
600.145	0.0143214
600.223	0.0143256
600.301	0.0142812
600.379	0.0144859
600.457	0.0143387
600.535	0.0144215
600.613	0.0144640
600.692	0.0143684
600.770	0.0143700
600.848	0.0144044
600.926	0.0143240
601.004	0.0143865
601.082	0.0143875
601.160	0.0143863
601.238	0.0145573
601.317	0.0144683
601.395	0.0142710
601.473	0.0144910
601.551	0.0145068
601.629	0.0143692
601.707	0.0143946
601.785	0.0143984
601.863	0.0143577
601.942	0.0143964
602.020	0.0144501
602.098	0.0142742
602.176	0.0144463
602.254	0.0143865
602.332	0.0145087
602.410	0.0143432
602.488	0.0143084
602.567	0.0144485
602.645	0.0145296
602.723	0.0144752
602.801	0.0144128
602.879	0.0143147
602.957	0.0144252
603.035	0.0144761
603.113	0.0144591
603.192	0.0144671
603.270	0.0143960
603.348	0.0143790
603.426	0.0144603
603.504	0.0144553
603.582	0.0145905
603.660	0.0144638
603.738	0.0145129
603.817	0.0143685
603.895	0.0144479
603.973	0.0143002
604.051	0.0144118
604.129	0.0146040
604.207	0.0146117
604.285	0.0144602
604.363	0.0144028
604.442	0.0145085
604.520	0.0145276
604.598	0.0144418
604.676	0.0143983
604.754	0.0144637
604.832	0.0143947
604.910	0.0145592
604.988	0.0143802
605.067	0.0144115
605.145	0.0145013
605.223	0.0144428
605.301	0.0143426
605.379	0.0144185
605.457	0.0143716
605.535	0.0144286
605.613	0.0144099
605.692	0.0144488
605.770	0.0143394
605.848	0.0144090
605.926	0.0144516
606.004	0.0142760
606.082	0.0143285
606.160	0.0143472
606.238	0.0145669
606.317	0.0144225
606.395	0.0144218
606.473	0.0143230
606.551	0.0143451
606.629	0.0144628
606.707	0.0144422
606.785	0.0142761
606.863	0.0143781
606.942	0.0143686
607.020	0.0144703
607.098	0.0143619
607.176	0.0143288
607.254	0.0143867
607.332	0.0143425
607.410	0.0143307
607.488	0.0143775
607.567	0.0144738
607.645	0.0142984
607.723	0.0143224
607.801	0.0141724
607.879	0.0143577
607.957	0.0143282
608.035	0.0144544
608.113	0.0143274
608.192	0.0142526
608.270	0.0145243
608.348	0.0142152
608.426	0.0141904
608.504	0.0143093
608.582	0.0143755
608.660	0.0143010
608.738	0.0143037
608.817	0.0144429
608.895	0.0142416
608.973	0.0142564
609.051	0.0142812
609.129	0.0144499
609.207	0.0144149
609.285	0.0143066
609.363	0.0143065
609.442	0.0143156
609.520	0.0144212
609.598	0.0143665
609.676	0.0143164
609.754	0.0143803
609.832	0.0142583
609.910	0.0143053
609.988	0.0142735
610.067	0.0142861
610.145	0.0142944
610.223	0.0142861
610.301	0.0143002
610.379	0.0144270
610.457	0.0144171
610.535	0.0143288
610.613	0.0142598
610.692	0.0142957
610.770	0.0143330
610.848	0.0146044
610.926	0.0143856
611.004	0.0143583
611.082	0.0143327
611.160	0.0143403
611.238	0.0144276
611.317	0.0143458
611.395	0.0143401
611.473	0.0142583
611.551	0.0142635
611.629	0.0144136
611.707	0.0143900
611.785	0.0143549
611.863	0.0144193
611.942	0.0143957
612.020	0.0144505
612.098	0.0143148
612.176	0.0143686
612.254	0.0143785
612.332	0.0143809
612.410	0.0143807
612.488	0.0144112
612.567	0.0143772
612.645	0.0142818
612.723	0.0142953
612.801	0.0144337
612.879	0.0144223
612.957	0.0143234
613.035	0.0144588
613.113	0.0143615
613.192	0.0142754
613.270	0.0142956
613.348	0.0142981
613.426	0.0142356
613.504	0.0144643
613.582	0.0144865
613.660	0.0142387
613.738	0.0143718
613.817	0.0144272
613.895	0.0144289
613.973	0.0144798
614.051	0.0143727
614.129	0.0143908
614.207	0.0144392
614.285	0.0143705
614.363	0.0144492
614.442	0.0142616
614.520	0.0144073
614.598	0.0145399
614.676	0.0143880
614.754	0.0143548
614.832	0.0144151
614.910	0.0144353
614.988	0.0142807
615.067	0.0143530
615.145	0.0143761
615.223	0.0144148
615.301	0.0144204
615.379	0.0145046
615.457	0.0143587
615.535	0.0144274
615.613	0.0144485
615.692	0.0143365
615.770	0.0145016
615.848	0.0145782
615.926	0.0144804
616.004	0.0144206
616.082	0.0144408
616.160	0.0144310
616.238	0.0145022
616.317	0.0143412
616.395	0.0143044
616.473	0.0144959
616.551	0.0144314
616.629	0.0144617
616.707	0.0143896
616.785	0.0144828
616.863	0.0144658
616.942	0.0142999
617.020	0.0143818
617.098	0.0144240
617.176	0.0144808
617.254	0.0144819
617.332	0.0144938
617.410	0.0143935
617.488	0.0144672
617.567	0.0143992
617.645	0.0144785
617.723	0.0144669
617.801	0.0145016
617.879	0.0145503
617.957	0.0143565
618.035	0.0144813
618.113	0.0144745
618.192	0.0146592
618.270	0.0145734
618.348	0.0144446
618.426	0.0143507
618.504	0.0144418
618.582	0.0144176
618.660	0.0144292
618.738	0.0144003
618.817	0.0144777
618.895	0.0144714
618.973	0.0145885
619.051	0.0145531
619.129	0.0145467
619.207	0.0145372
619.285	0.0146602
619.363	0.0144337
619.442	0.0144206
619.520	0.0144610
619.598	0.0144364
619.676	0.0145224
619.754	0.0146155
619.832	0.0144879
619.910	0.0145656
619.988	0.0146475
620.067	0.0143871
620.145	0.0145420
620.223	0.0145133
620.301	0.0145152
620.379	0.0145116
620.457	0.0144112
620.535	0.0144456
620.613	0.0145551
620.692	0.0145338
620.770	0.0145250
620.848	0.0144174
620.926	0.0144372
621.004	0.0144366
621.082	0.0143089
621.160	0.0144461
621.238	0.0144119
621.317	0.0144292
621.395	0.0144451
621.473	0.0145337
621.551	0.0146222
621.629	0.0142691
621.707	0.0144985
621.785	0.0145679
621.863	0.0144813
621.942	0.0143549
622.020	0.0142790
622.098	0.0145837
622.176	0.0144534
622.254	0.0143915
622.332	0.0144969
622.410	0.0143974
622.488	0.0143628
622.567	0.0144483
622.645	0.0143609
622.723	0.0145552
622.801	0.0144286
622.879	0.0143967
622.957	0.0143610
623.035	0.0144699
623.113	0.0144935
623.192	0.0144459
623.270	0.0144315
623.348	0.0143854
623.426	0.0143611
623.504	0.0143791
623.582	0.0144587
623.660	0.0144150
623.738	0.0143407
623.817	0.0144933
623.895	0.0146175
623.973	0.0145352
624.051	0.0145009
624.129	0.0144604
624.207	0.0144041
624.285	0.0144738
624.363	0.0145020
624.442	0.0145907
624.520	0.0143225
624.598	0.0144437
624.676	0.0145145
624.754	0.0144839
624.832	0.0143645
624.910	0.0144880
624.988	0.0143911
625.067	0.0143474
625.145	0.0145387
625.223	0.0144573
625.301	0.0144932
625.379	0.0143823
625.457	0.0143971
625.535	0.0144851
625.613	0.0144466
625.692	0.0144227
625.770	0.0143552
625.848	0.0144424
625.926	0.0144624
626.004	0.0145231
626.082	0.0144022
626.160	0.0141999
626.238	0.0142944
626.317	0.0144153
626.395	0.0142645
626.473	0.0142780
626.551	0.0144036
626.629	0.0143826
626.707	0.0143898
626.785	0.0142097
626.863	0.0143742
626.942	0.0142749
627.020	0.0143981
627.098	0.0143163
627.176	0.0142554
627.254	0.0143398
627.332	0.0143994
627.410	0.0144200
627.488	0.0143316
627.567	0.0143073
627.645	0.0143049
627.723	0.0142632
627.801	0.0143153
627.879	0.0144072
627.957	0.0142811
628.035	0.0141195
628.113	0.0142495
628.192	0.0143211
628.270	0.0143377
628.348	0.0142417
628.426	0.0142773
628.504	0.0141730
628.582	0.0143022
628.660	0.0143114
628.738	0.0143518
628.817	0.0143565
628.895	0.0143591
628.973	0.0142792
629.051	0.0143763
629.129	0.0142677
629.207	0.0142263
629.285	0.0142607
629.363	0.0144174
629.442	0.0143341
629.520	0.0143039
629.598	0.0143494
629.676	0.0143388
629.754	0.0142690
629.832	0.0141635
629.910	0.0142750
629.988	0.0143523
630.067	0.0143812
630.145	0.0145029
630.223	0.0144034
630.301	0.0143037
630.379	0.0144465
630.457	0.0143612
630.535	0.0144001
630.613	0.0143585
630.692	0.0143140
630.770	0.0144136
630.848	0.0143454
630.926	0.0141765
631.004	0.0143508
631.082	0.0145892
631.160	0.0144287
631.238	0.0144056
631.317	0.0143668
631.395	0.0143742
631.473	0.0143352
631.551	0.0143274
631.629	0.0143359
631.707	0.0142258
631.785	0.0142503
631.863	0.0144907
631.942	0.0144138
632.020	0.0143581
632.098	0.0142731
632.176	0.0142027
632.254	0.0142092
632.332	0.0144217
632.410	0.0144187
632.488	0.0144376
632.567	0.0143318
632.645	0.0144013
632.723	0.0145020
632.801	0.0143530
632.879	0.0143992
632.957	0.0142975
633.035	0.0144057
633.113	0.0143887
633.192	0.0141947
633.270	0.0143553
633.348	0.0143543
633.426	0.0143937
633.504	0.0142979
633.582	0.0145107
633.660	0.0144460
633.738	0.0143450
633.817	0.0143424
633.895	0.0144154
633.973	0.0144179
634.051	0.0143648
634.129	0.0144192
634.207	0.0145370
634.285	0.0143797
634.363	0.0144778
634.442	0.0142778
634.520	0.0143737
634.598	0.0145030
634.676	0.0144852
634.754	0.0145045
634.832	0.0144858
634.910	0.0145371
634.988	0.0144501
635.067	0.0143981
635.145	0.0146269
635.223	0.0146198
635.301	0.0146254
635.379	0.0145031
635.457	0.0144687
635.535	0.0145084
635.613	0.0146162
635.692	0.0146247
635.770	0.0145211
635.848	0.0146973
635.926	0.0144744
636.004	0.0144202
636.082	0.0145037
636.160	0.0144348
636.238	0.0144821
636.317	0.0145210
636.395	0.0144303
636.473	0.0145432
636.551	0.0143594
636.629	0.0144106
636.707	0.0145817
636.785	0.0145535
636.863	0.0145608
636.942	0.0145280
637.020	0.0145647
637.098	0.0145629
637.176	0.0143866
637.254	0.0145971
637.332	0.0146826
637.410	0.0145128
637.488	0.0147007
637.567	0.0146524
637.645	0.0144871
637.723	0.0144133
637.801	0.0145681
637.879	0.0145541
637.957	0.0143989
638.035	0.0144707
638.113	0.0142815
638.192	0.0144232
638.270	0.0144503
638.348	0.0144089
638.426	0.0142772
638.504	0.0142865
638.582	0.0142218
638.660	0.0143350
638.738	0.0143189
638.817	0.0143259
638.895	0.0144416
638.973	0.0143855
639.051	0.0143259
639.129	0.0144390
639.207	0.0145345
639.285	0.0144764
639.363	0.0144624
639.442	0.0146360
639.520	0.0144508
639.598	0.0145081
639.676	0.0145839
639.754	0.0146418
639.832	0.0145438
639.910	0.0144009
639.988	0.0144220
640.067	0.0144794
640.145	0.0145019
640.223	0.0145330
640.301	0.0145556
640.379	0.0144889
640.457	0.0145828
640.535	0.0146427
640.613	0.0144909
640.692	0.0144445
640.770	0.0145639
640.848	0.0145850
640.926	0.0144651
641.004	0.0146143
641.082	0.0145625
641.160	0.0146556
641.238	0.0145522
641.317	0.0144902
641.395	0.0144969
641.473	0.0145472
641.551	0.0143723
641.629	0.0143587
641.707	0.0144387
641.785	0.0144972
641.863	0.0144305
641.942	0.0142856
642.020	0.0145004
642.098	0.0142737
642.176	0.0143737
642.254	0.0143266
642.332	0.0142984
642.410	0.0142319
642.488	0.0141700
642.567	0.0142205
642.645	0.0142513
642.723	0.0140948
642.801	0.0141811
642.879	0.0141393
642.957	0.0140656
643.035	0.0141479
643.113	0.0141850
643.192	0.0141878
643.270	0.0141518
643.348	0.0142270
643.426	0.0141782
643.504	0.0143275
643.582	0.0143364
643.660	0.0143015
643.738	0.0144628
643.817	0.0143896
643.895	0.0145566
643.973	0.0144817
644.051	0.0145164
644.129	0.0145771
644.207	0.0146022
644.285	0.0145786
644.363	0.0147858
644.442	0.0147621
644.520	0.0148394
644.598	0.0148536
644.676	0.0148418
644.754	0.0148279
644.832	0.0148559
644.910	0.0147739
644.988	0.0147047
645.067	0.0144975
645.145	0.0145016
645.223	0.0145467
645.301	0.0145206
645.379	0.0144147
645.457	0.0143758
645.535	0.0143671
645.613	0.0143893
645.692	0.0144561
645.770	0.0144711
645.848	0.0145223
645.926	0.0142883
646.004	0.0144641
646.082	0.0144885
646.160	0.0143534
646.238	0.0143965
646.317	0.0143096
646.395	0.0144447
646.473	0.0142294
646.551	0.0143063
646.629	0.0140871
646.707	0.0141301
646.785	0.0139107
646.863	0.0139299
646.942	0.0139897
647.020	0.0138957
647.098	0.0138766
647.176	0.0138583
647.254	0.0139249
647.332	0.0137643
647.410	0.0138799
647.488	0.0139792
647.567	0.0141074
647.645	0.0143029
647.723	0.0141570
647.801	0.0143151
647.879	0.0145010
647.957	0.0144170
648.035	0.0144856
648.113	0.0145236
648.192	0.0146555
648.270	0.0145068
648.348	0.0145993
648.426	0.0144196
648.504	0.0146489
648.582	0.0145202
648.660	0.0143961
648.738	0.0143998
648.817	0.0143301
648.895	0.0145759
648.973	0.0145640
649.051	0.0146735
649.129	0.0147126
649.207	0.0146176
649.285	0.0146242
649.363	0.0146321
649.442	0.0145751
649.520	0.0145649
649.598	0.0145819
649.676	0.0146448
649.754	0.0145856
649.832	0.0145907
649.910	0.0146684
649.988	0.0145638
650.067	0.0144871
650.145	0.0144436
650.223	0.0145390
650.301	0.0144128
650.379	0.0143714
650.457	0.0143617
650.535	0.0143974
650.613	0.0143165
650.692	0.0141817
650.770	0.0141695
650.848	0.0141296
650.926	0.0140952
651.004	0.0142149
651.082	0.0142444
651.160	0.0142233
651.238	0.0141500
651.317	0.0140929
651.395	0.0142197
651.473	0.0140756
651.551	0.0140388
651.629	0.0141020
651.707	0.0141992
651.785	0.0140969
651.863	0.0139806
651.942	0.0139767
652.020	0.0140075
652.098	0.0140199
652.176	0.0140453
652.254	0.0140182
652.332	0.0138938
652.410	0.0140386
652.488	0.0142804
652.567	0.0140698
652.645	0.0140964
652.723	0.0141038
652.801	0.0139852
652.879	0.0141010
652.957	0.0142026
653.035	0.0142306
653.113	0.0142043
653.192	0.0142341
653.270	0.0140820
653.348	0.0142588
653.426	0.0144436
653.504	0.0145884
653.582	0.0143995
653.660	0.0144974
653.738	0.0146789
653.817	0.0147426
653.895	0.0149039
653.973	0.0149426
654.051	0.0149287
654.129	0.0150875
654.207	0.0148308
654.285	0.0149457
654.363	0.0149743
654.442	0.0150399
654.520	0.0150159
654.598	0.0149982
654.676	0.0149712
654.754	0.0149267
654.832	0.0150247
654.910	0.0149458
654.988	0.0147372
655.067	0.0147388
655.145	0.0148399
655.223	0.0147817
655.301	0.0146038
655.379	0.0145046
655.457	0.0144707
655.535	0.0144210
655.613	0.0143929
655.692	0.0142625
655.770	0.0143861
655.848	0.0143333
655.926	0.0142196
656.004	0.0142582
656.082	0.0141175
656.160	0.0141283
656.238	0.0140382
656.317	0.0143235
656.395	0.0140683
656.473	0.0140765
656.551	0.0141092
656.629	0.0140620
656.707	0.0141399
656.785	0.0140951
656.863	0.0142241
656.942	0.0140595
657.020	0.0140100
657.098	0.0140910
657.176	0.0141261
657.254	0.0141872
657.332	0.0140808
657.410	0.0139935
657.488	0.0140443
657.567	0.0139833
657.645	0.0139394
657.723	0.0140858
657.801	0.0142471
657.879	0.0141157
657.957	0.0143234
658.035	0.0142908
658.113	0.0142637
658.192	0.0144895
658.270	0.0144656
658.348	0.0143237
658.426	0.0143631
658.504	0.0144852
658.582	0.0146734
658.660	0.0146165
658.738	0.0146702
658.817	0.0146373
658.895	0.0146689
658.973	0.0149223
659.051	0.0148701
659.129	0.0148360
659.207	0.0148717
659.285	0.0147797
659.363	0.0149979
659.442	0.0151303
659.520	0.0150865
659.598	0.0150028
659.676	0.0151140
659.754	0.0151323
659.832	0.0150715
659.910	0.0150870
659.988	0.0150888
660.067	0.0148640
660.145	0.0149022
660.223	0.0148302
660.301	0.0146985
660.379	0.0144656
660.457	0.0143899
660.535	0.0143641
660.613	0.0142946
660.692	0.0141206
660.770	0.0140150
660.848	0.0140250
660.926	0.0139585
661.004	0.0138647
661.082	0.0139183
661.160	0.0138120
661.238	0.0141207
661.317	0.0139130
661.395	0.0139933
661.473	0.0140276
661.551	0.0141030
661.629	0.0141312
661.707	0.0140388
661.785	0.0142124
661.863	0.0144512
661.942	0.0144750
662.020	0.0144340
662.098	0.0143575
662.176	0.0144254
662.254	0.0143697
662.332	0.0144507
662.410	0.0144186
662.488	0.0144395
662.567	0.0143323
662.645	0.0144175
662.723	0.0143929
662.801	0.0142812
662.879	0.0143404
662.957	0.0142812
663.035	0.0142032
663.113	0.0141572
663.192	0.0141464
663.270	0.0142377
663.348	0.0141479
663.426	0.0141293
663.504	0.0143174
663.582	0.0142127
663.660	0.0142485
663.738	0.0143423
663.817	0.0142637
663.895	0.0143113
663.973	0.0143649
664.051	0.0144157
664.129	0.0144803
664.207	0.0145396
664.285	0.0145140
664.363	0.0147860
664.442	0.0146370
664.520	0.0145839
664.598	0.0145906
664.676	0.0147919
664.754	0.0144847
664.832	0.0147166
664.910	0.0147475
664.988	0.0147971
665.067	0.0147121
665.145	0.0147589
665.223	0.0146815
665.301	0.0146596
665.379	0.0147253
665.457	0.0149039
665.535	0.0148161
665.613	0.0147313
665.692	0.0146272
665.770	0.0145604
665.848	0.0146283
665.926	0.0146251
666.004	0.0144692
666.082	0.0143647
666.160	0.0143043
666.238	0.0142329
666.317	0.0141531
666.395	0.0141233
666.473	0.0140592
666.551	0.0140237
666.629	0.0140828
666.707	0.0142405
666.785	0.0141833
666.863	0.0141194
666.942	0.0143306
667.020	0.0143005
667.098	0.0143065
667.176	0.0141815
667.254	0.0142612
667.332	0.0143934
667.410	0.0144669
667.488	0.0144563
667.567	0.0143834
667.645	0.0144339
667.723	0.0143545
667.801	0.0143691
667.879	0.0143967
667.957	0.0144782
668.035	0.0144879
668.113	0.0145127
668.192	0.0143790
668.270	0.0144076
668.348	0.0145769
668.426	0.0144160
668.504	0.0144864
668.582	0.0145341
668.660	0.0146458
668.738	0.0145732
668.817	0.0145685
668.895	0.0147044
668.973	0.0146770
669.051	0.0146510
669.129	0.0147265
669.207	0.0147141
669.285	0.0147258
669.363	0.0147293
669.442	0.0146505
669.520	0.0146393
669.598	0.0143892
669.676	0.0144122
669.754	0.0145510
669.832	0.0142412
669.910	0.0141470
669.988	0.0142686
670.067	0.0141047
670.145	0.0139302
670.223	0.0140385
670.301	0.0139921
670.379	0.0139504
670.457	0.0139861
670.535	0.0139774
670.613	0.0141030
670.692	0.0140595
670.770	0.0140942
670.848	0.0141537
670.926	0.0142828
671.004	0.0142462
671.082	0.0142238
671.160	0.0144046
671.238	0.0144479
671.317	0.0144765
671.395	0.0145709
671.473	0.0146593
671.551	0.0147522
671.629	0.0148711
671.707	0.0146551
671.785	0.0147479
671.863	0.0149149
671.942	0.0149054
672.020	0.0147415
672.098	0.0148275
672.176	0.0147774
672.254	0.0147099
672.332	0.0145911
672.410	0.0145724
672.488	0.0143646
672.567	0.0143568
672.645	0.0142757
672.723	0.0141561
672.801	0.0141206
672.879	0.0140032
672.957	0.0140134
673.035	0.0140161
673.113	0.0140200
673.192	0.0139539
673.270	0.0141080
673.348	0.0141044
673.426	0.0142132
673.504	0.0143546
673.582	0.0144756
673.660	0.0144791
673.738	0.0145605
673.817	0.0145962
673.895	0.0147617
673.973	0.0148033
674.051	0.0147809
674.129	0.0147988
674.207	0.0148039
674.285	0.0146136
674.363	0.0145699
674.442	0.0145036
674.520	0.0142905
674.598	0.0144022
674.676	0.0142966
674.754	0.0142966
674.832	0.0139550
674.910	0.0139552
674.988	0.0139600
675.067	0.0139861
675.145	0.0140697
675.223	0.0139467
675.301	0.0140912
675.379	0.0141429
675.457	0.0141013
675.535	0.0142732
675.613	0.0141946
675.692	0.0143789
675.770	0.0143501
675.848	0.0143609
675.926	0.0143306
676.004	0.0143777
676.082	0.0146568
676.160	0.0144626
676.238	0.0145325
676.317	0.0144427
676.395	0.0146744
676.473	0.0145224
676.551	0.0144517
676.629	0.0144777
676.707	0.0146951
676.785	0.0144982
676.863	0.0147488
676.942	0.0144749
677.020	0.0145953
677.098	0.0145538
677.176	0.0145132
677.254	0.0145895
677.332	0.0146890
677.410	0.0144971
677.488	0.0145827
677.567	0.0145731
677.645	0.0147256
677.723	0.0145358
677.801	0.0145515
677.879	0.0147058
677.957	0.0146667
678.035	0.0147755
678.113	0.0147723
678.192	0.0148656
678.270	0.0148694
678.348	0.0149304
678.426	0.0149364
678.504	0.0150510
678.582	0.0149246
678.660	0.0148417
678.738	0.0147189
678.817	0.0147046
678.895	0.0149247
678.973	0.0146420
679.051	0.0144637
679.129	0.0144754
679.207	0.0143234
679.285	0.0142416
679.363	0.0140521
679.442	0.0138857
679.520	0.0139026
679.598	0.0137296
679.676	0.0137673
679.754	0.0134672
679.832	0.0134698
679.910	0.0135017
679.988	0.0133608
680.067	0.0133207
680.145	0.0132606
680.223	0.0134168
680.301	0.0136838
680.379	0.0136670
680.457	0.0137343
680.535	0.0139792
680.613	0.0140282
680.692	0.0140308
680.770	0.0141811
680.848	0.0145318
680.926	0.0146436
681.004	0.0146108
681.082	0.0146903
681.160	0.0148700
681.238	0.0148637
681.317	0.0150114
681.395	0.0151018
681.473	0.0150142
681.551	0.0150081
681.629	0.0151988
681.707	0.0150813
681.785	0.0150527
681.863	0.0149794
681.942	0.0150710
682.020	0.0150298
682.098	0.0149333
682.176	0.0149491
682.254	0.0150288
682.332	0.0149686
682.410	0.0149745
682.488	0.0148238
682.567	0.0148154
682.645	0.0145810
682.723	0.0146449
682.801	0.0146342
682.879	0.0145445
682.957	0.0144432
683.035	0.0144324
683.113	0.0143211
683.192	0.0141832
683.270	0.0140673
683.348	0.0140597
683.426	0.0138338
683.504	0.0137817
683.582	0.0136111
683.660	0.0135858
683.738	0.0135349
683.817	0.0136182
683.895	0.0135220
683.973	0.0133578
684.051	0.0135313
684.129	0.0135213
684.207	0.0135944
684.285	0.0135634
684.363	0.0136495
684.442	0.0139317
684.520	0.0138571
684.598	0.0137373
684.676	0.0138823
684.754	0.0139104
684.832	0.0140215
684.910	0.0140226
684.988	0.0140893
685.067	0.0141813
685.145	0.0142149
685.223	0.0144306
685.301	0.0146783
685.379	0.0147665
685.457	0.0149531
685.535	0.0150883
685.613	0.0152906
685.692	0.0153445
