05/28/2022	14:18:46	Ver.	4.1	UNKNOWN
Optical Delay	599.988409	Delta X		0.078125	Sweeps	1	Scan Rate	0/0
Coordinates	Axis 1	NaN	Axis 2	NaN	Axis 3	NaN	Axis 4	NaN	Axis 5	NaN	Axis 6	0.000000
TX Power	0.000000	RX Power	0.000000

599.988	0.0147643
600.067	0.0147624
600.145	0.0148701
600.223	0.0146840
600.301	0.0147149
600.379	0.0148435
600.457	0.0147797
600.535	0.0147530
600.613	0.0148303
600.692	0.0146978
600.770	0.0148247
600.848	0.0148093
600.926	0.0148751
601.004	0.0148376
601.082	0.0148105
601.160	0.0147163
601.238	0.0148474
601.317	0.0148862
601.395	0.0147816
601.473	0.0148027
601.551	0.0148897
601.629	0.0148252
601.707	0.0147852
601.785	0.0147752
601.863	0.0147717
601.942	0.0148912
602.020	0.0148953
602.098	0.0148472
602.176	0.0146980
602.254	0.0148769
602.332	0.0147709
602.410	0.0148645
602.488	0.0149614
602.567	0.0146815
602.645	0.0148827
602.723	0.0149264
602.801	0.0148543
602.879	0.0147020
602.957	0.0147395
603.035	0.0148224
603.113	0.0149181
603.192	0.0148455
603.270	0.0148934
603.348	0.0149095
603.426	0.0146917
603.504	0.0146611
603.582	0.0148596
603.660	0.0149619
603.738	0.0150021
603.817	0.0149377
603.895	0.0148018
603.973	0.0148421
604.051	0.0149062
604.129	0.0148454
604.207	0.0149049
604.285	0.0148921
604.363	0.0148694
604.442	0.0148956
604.520	0.0148272
604.598	0.0149151
604.676	0.0148476
604.754	0.0147839
604.832	0.0149494
604.910	0.0148523
604.988	0.0148904
605.067	0.0148545
605.145	0.0147630
605.223	0.0148428
605.301	0.0147565
605.379	0.0148748
605.457	0.0150033
605.535	0.0150336
605.613	0.0147887
605.692	0.0147097
605.770	0.0148659
605.848	0.0148473
605.926	0.0148740
606.004	0.0150090
606.082	0.0147598
606.160	0.0148241
606.238	0.0149450
606.317	0.0147846
606.395	0.0148761
606.473	0.0148460
606.551	0.0148336
606.629	0.0149188
606.707	0.0148582
606.785	0.0148093
606.863	0.0147970
606.942	0.0148625
607.020	0.0148283
607.098	0.0149097
607.176	0.0148897
607.254	0.0148435
607.332	0.0149245
607.410	0.0148150
607.488	0.0148679
607.567	0.0148470
607.645	0.0149098
607.723	0.0147207
607.801	0.0148694
607.879	0.0149173
607.957	0.0148479
608.035	0.0149028
608.113	0.0150562
608.192	0.0147924
608.270	0.0148962
608.348	0.0149487
608.426	0.0148714
608.504	0.0149890
608.582	0.0149445
608.660	0.0149558
608.738	0.0148573
608.817	0.0149642
608.895	0.0149639
608.973	0.0149892
609.051	0.0149959
609.129	0.0149383
609.207	0.0149959
609.285	0.0149538
609.363	0.0148209
609.442	0.0149054
609.520	0.0149500
609.598	0.0148989
609.676	0.0147260
609.754	0.0149282
609.832	0.0148881
609.910	0.0149205
609.988	0.0147575
610.067	0.0148206
610.145	0.0149901
610.223	0.0149167
610.301	0.0148286
610.379	0.0148719
610.457	0.0148248
610.535	0.0148663
610.613	0.0149731
610.692	0.0147813
610.770	0.0149820
610.848	0.0149403
610.926	0.0147541
611.004	0.0147878
611.082	0.0150288
611.160	0.0149294
611.238	0.0148559
611.317	0.0148067
611.395	0.0147173
611.473	0.0147475
611.551	0.0148069
611.629	0.0149842
611.707	0.0148530
611.785	0.0148331
611.863	0.0148837
611.942	0.0149171
612.020	0.0148590
612.098	0.0148631
612.176	0.0149405
612.254	0.0148959
612.332	0.0149051
612.410	0.0150517
612.488	0.0148722
612.567	0.0148365
612.645	0.0148203
612.723	0.0150103
612.801	0.0149052
612.879	0.0148827
612.957	0.0148312
613.035	0.0148337
613.113	0.0149581
613.192	0.0149723
613.270	0.0150613
613.348	0.0149042
613.426	0.0149595
613.504	0.0147736
613.582	0.0147003
613.660	0.0149087
613.738	0.0148745
613.817	0.0148347
613.895	0.0147841
613.973	0.0149815
614.051	0.0149220
614.129	0.0148201
614.207	0.0148127
614.285	0.0149036
614.363	0.0148897
614.442	0.0149792
614.520	0.0148257
614.598	0.0148428
614.676	0.0148108
614.754	0.0149023
614.832	0.0148830
614.910	0.0146560
614.988	0.0148413
615.067	0.0147395
615.145	0.0148207
615.223	0.0147567
615.301	0.0147451
615.379	0.0148760
615.457	0.0148651
615.535	0.0147484
615.613	0.0147831
615.692	0.0148107
615.770	0.0148075
615.848	0.0148650
615.926	0.0147815
616.004	0.0147581
616.082	0.0147923
616.160	0.0147398
616.238	0.0147876
616.317	0.0146526
616.395	0.0147394
616.473	0.0149926
616.551	0.0148769
616.629	0.0148980
616.707	0.0148393
616.785	0.0149487
616.863	0.0147112
616.942	0.0146179
617.020	0.0147641
617.098	0.0147456
617.176	0.0146050
617.254	0.0147557
617.332	0.0147532
617.410	0.0148218
617.488	0.0147443
617.567	0.0146687
617.645	0.0146094
617.723	0.0146510
617.801	0.0149316
617.879	0.0146951
617.957	0.0147546
618.035	0.0146606
618.113	0.0147693
618.192	0.0147319
618.270	0.0147791
618.348	0.0147377
618.426	0.0147566
618.504	0.0147588
618.582	0.0147839
618.660	0.0146039
618.738	0.0147881
618.817	0.0146054
618.895	0.0147591
618.973	0.0149048
619.051	0.0147972
619.129	0.0147360
619.207	0.0148878
619.285	0.0149047
619.363	0.0147230
619.442	0.0148469
619.520	0.0148446
619.598	0.0148734
619.676	0.0147090
619.754	0.0147978
619.832	0.0149506
619.910	0.0148405
619.988	0.0148666
620.067	0.0148927
620.145	0.0149277
620.223	0.0148801
620.301	0.0147283
620.379	0.0148432
620.457	0.0149168
620.535	0.0148216
620.613	0.0147869
620.692	0.0148878
620.770	0.0149320
620.848	0.0149270
620.926	0.0148389
621.004	0.0147729
621.082	0.0150135
621.160	0.0149305
621.238	0.0149104
621.317	0.0147846
621.395	0.0149074
621.473	0.0150101
621.551	0.0148954
621.629	0.0149135
621.707	0.0149841
621.785	0.0147275
621.863	0.0148524
621.942	0.0148339
622.020	0.0147190
622.098	0.0149277
622.176	0.0147634
622.254	0.0147951
622.332	0.0148555
622.410	0.0149195
622.488	0.0149017
622.567	0.0148150
622.645	0.0148584
622.723	0.0149142
622.801	0.0149136
622.879	0.0147906
622.957	0.0148404
623.035	0.0149413
623.113	0.0149046
623.192	0.0149238
623.270	0.0149051
623.348	0.0148650
623.426	0.0149145
623.504	0.0147586
623.582	0.0147431
623.660	0.0148888
623.738	0.0149775
623.817	0.0149043
623.895	0.0148981
623.973	0.0150537
624.051	0.0149931
624.129	0.0148437
624.207	0.0150060
624.285	0.0148935
624.363	0.0147545
624.442	0.0147940
624.520	0.0151238
624.598	0.0149400
624.676	0.0148711
624.754	0.0148611
624.832	0.0149122
624.910	0.0149287
624.988	0.0148840
625.067	0.0148518
625.145	0.0148725
625.223	0.0148734
625.301	0.0149409
625.379	0.0149927
625.457	0.0150356
625.535	0.0148943
625.613	0.0150332
625.692	0.0148705
625.770	0.0147679
625.848	0.0150153
625.926	0.0148978
626.004	0.0148933
626.082	0.0148940
626.160	0.0147989
626.238	0.0150513
626.317	0.0148787
626.395	0.0149574
626.473	0.0149935
626.551	0.0150510
626.629	0.0150039
626.707	0.0149316
626.785	0.0150330
626.863	0.0149703
626.942	0.0151160
627.020	0.0151442
627.098	0.0149363
627.176	0.0148365
627.254	0.0149488
627.332	0.0150352
627.410	0.0149712
627.488	0.0148469
627.567	0.0150600
627.645	0.0150716
627.723	0.0148948
627.801	0.0148849
627.879	0.0147858
627.957	0.0149889
628.035	0.0148910
628.113	0.0149671
628.192	0.0149445
628.270	0.0148324
628.348	0.0149310
628.426	0.0148454
628.504	0.0148476
628.582	0.0148373
628.660	0.0149339
628.738	0.0150006
628.817	0.0149035
628.895	0.0148698
628.973	0.0148346
629.051	0.0149058
629.129	0.0148446
629.207	0.0147893
629.285	0.0148533
629.363	0.0147144
629.442	0.0147015
629.520	0.0148038
629.598	0.0148512
629.676	0.0148724
629.754	0.0146837
629.832	0.0148069
629.910	0.0148054
629.988	0.0148756
630.067	0.0147266
630.145	0.0148792
630.223	0.0148041
630.301	0.0146793
630.379	0.0148757
630.457	0.0148201
630.535	0.0148077
630.613	0.0148760
630.692	0.0148555
630.770	0.0148795
630.848	0.0149834
630.926	0.0147749
631.004	0.0147377
631.082	0.0148074
631.160	0.0148665
631.238	0.0149187
631.317	0.0148208
631.395	0.0148244
631.473	0.0150256
631.551	0.0148923
631.629	0.0148758
631.707	0.0149100
631.785	0.0148498
631.863	0.0149070
631.942	0.0149223
632.020	0.0149694
632.098	0.0149684
632.176	0.0148760
632.254	0.0149851
632.332	0.0149366
632.410	0.0149422
632.488	0.0150276
632.567	0.0149831
632.645	0.0149462
632.723	0.0149849
632.801	0.0149699
632.879	0.0148473
632.957	0.0149767
633.035	0.0148457
633.113	0.0148719
633.192	0.0149602
633.270	0.0148411
633.348	0.0148391
633.426	0.0149462
633.504	0.0148541
633.582	0.0148368
633.660	0.0149228
633.738	0.0149037
633.817	0.0150147
633.895	0.0149136
633.973	0.0148448
634.051	0.0148607
634.129	0.0148086
634.207	0.0148062
634.285	0.0149152
634.363	0.0150313
634.442	0.0148888
634.520	0.0149096
634.598	0.0149146
634.676	0.0149133
634.754	0.0146709
634.832	0.0150246
634.910	0.0150481
634.988	0.0148345
635.067	0.0148232
635.145	0.0148965
635.223	0.0149220
635.301	0.0148874
635.379	0.0148737
635.457	0.0149006
635.535	0.0148806
635.613	0.0148434
635.692	0.0147426
635.770	0.0149459
635.848	0.0147507
635.926	0.0146117
636.004	0.0148042
636.082	0.0146815
636.160	0.0148175
636.238	0.0146861
636.317	0.0146111
636.395	0.0146362
636.473	0.0146004
636.551	0.0146497
636.629	0.0147291
636.707	0.0146739
636.785	0.0148270
636.863	0.0145880
636.942	0.0146848
637.020	0.0147784
637.098	0.0147118
637.176	0.0146910
637.254	0.0148659
637.332	0.0148437
637.410	0.0149120
637.488	0.0148505
637.567	0.0149170
637.645	0.0149204
637.723	0.0148299
637.801	0.0148805
637.879	0.0148123
637.957	0.0148629
638.035	0.0149619
638.113	0.0147522
638.192	0.0148485
638.270	0.0147981
638.348	0.0148405
638.426	0.0148785
638.504	0.0149037
638.582	0.0148246
638.660	0.0148797
638.738	0.0148679
638.817	0.0148659
638.895	0.0148293
638.973	0.0149192
639.051	0.0149109
639.129	0.0148716
639.207	0.0147916
639.285	0.0149349
639.363	0.0149306
639.442	0.0148833
639.520	0.0148333
639.598	0.0148558
639.676	0.0150272
639.754	0.0147982
639.832	0.0149730
639.910	0.0148602
639.988	0.0148135
640.067	0.0147080
640.145	0.0147916
640.223	0.0146651
640.301	0.0146382
640.379	0.0146018
640.457	0.0146580
640.535	0.0146394
640.613	0.0144840
640.692	0.0145354
640.770	0.0145599
640.848	0.0145290
640.926	0.0145295
641.004	0.0145744
641.082	0.0145746
641.160	0.0146151
641.238	0.0146928
641.317	0.0146904
641.395	0.0146229
641.473	0.0147004
641.551	0.0147518
641.629	0.0149328
641.707	0.0147092
641.785	0.0147952
641.863	0.0147899
641.942	0.0148846
642.020	0.0150019
642.098	0.0148997
642.176	0.0148925
642.254	0.0150346
642.332	0.0150486
642.410	0.0149586
642.488	0.0150750
642.567	0.0152118
642.645	0.0151665
642.723	0.0151608
642.801	0.0150890
642.879	0.0152200
642.957	0.0151888
643.035	0.0150249
643.113	0.0151468
643.192	0.0149548
643.270	0.0149384
643.348	0.0150540
643.426	0.0150137
643.504	0.0148525
643.582	0.0148401
643.660	0.0148961
643.738	0.0148379
643.817	0.0149430
643.895	0.0147757
643.973	0.0147794
644.051	0.0148179
644.129	0.0147983
644.207	0.0147410
644.285	0.0148147
644.363	0.0148335
644.442	0.0147379
644.520	0.0147392
644.598	0.0146082
644.676	0.0145020
644.754	0.0145041
644.832	0.0146511
644.910	0.0145226
644.988	0.0144431
645.067	0.0144526
645.145	0.0144873
645.223	0.0142909
645.301	0.0144710
645.379	0.0144174
645.457	0.0144789
645.535	0.0146703
645.613	0.0146509
645.692	0.0147923
645.770	0.0148734
645.848	0.0147958
645.926	0.0147728
646.004	0.0149248
646.082	0.0150356
646.160	0.0150301
646.238	0.0151993
646.317	0.0151537
646.395	0.0149984
646.473	0.0151212
646.551	0.0150187
646.629	0.0151460
646.707	0.0150191
646.785	0.0148608
646.863	0.0150530
646.942	0.0150525
647.020	0.0150717
647.098	0.0151047
647.176	0.0150858
647.254	0.0150674
647.332	0.0149626
647.410	0.0149934
647.488	0.0151678
647.567	0.0150903
647.645	0.0151092
647.723	0.0151871
647.801	0.0150742
647.879	0.0150290
647.957	0.0151768
648.035	0.0150774
648.113	0.0150253
648.192	0.0149500
648.270	0.0149554
648.348	0.0149700
648.426	0.0149590
648.504	0.0148876
648.582	0.0148561
648.660	0.0146684
648.738	0.0146469
648.817	0.0146799
648.895	0.0146430
648.973	0.0145270
649.051	0.0147159
649.129	0.0146986
649.207	0.0147246
649.285	0.0146113
649.363	0.0145641
649.442	0.0147065
649.520	0.0147005
649.598	0.0145769
649.676	0.0145409
649.754	0.0146177
649.832	0.0146158
649.910	0.0147504
649.988	0.0146511
650.067	0.0147137
650.145	0.0145579
650.223	0.0146597
650.301	0.0146204
650.379	0.0147121
650.457	0.0145272
650.535	0.0146296
650.613	0.0145881
650.692	0.0145059
650.770	0.0146818
650.848	0.0145938
650.926	0.0146090
651.004	0.0146996
651.082	0.0147246
651.160	0.0147086
651.238	0.0147137
651.317	0.0148608
651.395	0.0147546
651.473	0.0148720
651.551	0.0149571
651.629	0.0148692
651.707	0.0148872
651.785	0.0150968
651.863	0.0150714
651.942	0.0150948
652.020	0.0149709
652.098	0.0152147
652.176	0.0152174
652.254	0.0152041
652.332	0.0152229
652.410	0.0150054
652.488	0.0151805
652.567	0.0152071
652.645	0.0152569
652.723	0.0152939
652.801	0.0153247
652.879	0.0152741
652.957	0.0152972
653.035	0.0152299
653.113	0.0152018
653.192	0.0152312
653.270	0.0151714
653.348	0.0151694
653.426	0.0150654
653.504	0.0149061
653.582	0.0147852
653.660	0.0146621
653.738	0.0147791
653.817	0.0146395
653.895	0.0144994
653.973	0.0144469
654.051	0.0145819
654.129	0.0144373
654.207	0.0143353
654.285	0.0143606
654.363	0.0145601
654.442	0.0143821
654.520	0.0144114
654.598	0.0144559
654.676	0.0142895
654.754	0.0144410
654.832	0.0144491
654.910	0.0144921
654.988	0.0144773
655.067	0.0144568
655.145	0.0145730
655.223	0.0145285
655.301	0.0144877
655.379	0.0146626
655.457	0.0146370
655.535	0.0146069
655.613	0.0145991
655.692	0.0147624
655.770	0.0145543
655.848	0.0148395
655.926	0.0147752
656.004	0.0147736
656.082	0.0147404
656.160	0.0146632
656.238	0.0148378
656.317	0.0149470
656.395	0.0148664
656.473	0.0148552
656.551	0.0149343
656.629	0.0150027
656.707	0.0150753
656.785	0.0149844
656.863	0.0150222
656.942	0.0151064
657.020	0.0151260
657.098	0.0150652
657.176	0.0150442
657.254	0.0151447
657.332	0.0151738
657.410	0.0152395
657.488	0.0155029
657.567	0.0153877
657.645	0.0154362
657.723	0.0155646
657.801	0.0154507
657.879	0.0155840
657.957	0.0155586
658.035	0.0155072
658.113	0.0156284
658.192	0.0156639
658.270	0.0155017
658.348	0.0153764
658.426	0.0153550
658.504	0.0152313
658.582	0.0149986
658.660	0.0149590
658.738	0.0147346
658.817	0.0145681
658.895	0.0144527
658.973	0.0146322
659.051	0.0144588
659.129	0.0144030
659.207	0.0141960
659.285	0.0140450
659.363	0.0140912
659.442	0.0141647
659.520	0.0142431
659.598	0.0142397
659.676	0.0143015
659.754	0.0142844
659.832	0.0143166
659.910	0.0144626
659.988	0.0145521
660.067	0.0145818
660.145	0.0147187
660.223	0.0146556
660.301	0.0148096
660.379	0.0149529
660.457	0.0149556
660.535	0.0150359
660.613	0.0150315
660.692	0.0150845
660.770	0.0151197
660.848	0.0152276
660.926	0.0150383
661.004	0.0151516
661.082	0.0149509
661.160	0.0150379
661.238	0.0150491
661.317	0.0149966
661.395	0.0149744
661.473	0.0149412
661.551	0.0149037
661.629	0.0148396
661.707	0.0148781
661.785	0.0148067
661.863	0.0148244
661.942	0.0148798
662.020	0.0147840
662.098	0.0149221
662.176	0.0147846
662.254	0.0148972
662.332	0.0149517
662.410	0.0149476
662.488	0.0149551
662.567	0.0149529
662.645	0.0148415
662.723	0.0148196
662.801	0.0149859
662.879	0.0149152
662.957	0.0148668
663.035	0.0147897
663.113	0.0149387
663.192	0.0150958
663.270	0.0150692
663.348	0.0151146
663.426	0.0151207
663.504	0.0152073
663.582	0.0150681
663.660	0.0150834
663.738	0.0152401
663.817	0.0150754
663.895	0.0152020
663.973	0.0151051
664.051	0.0151627
664.129	0.0151340
664.207	0.0151915
664.285	0.0151008
664.363	0.0149915
664.442	0.0149229
664.520	0.0149947
664.598	0.0148109
664.676	0.0147642
664.754	0.0148367
664.832	0.0148335
664.910	0.0147501
664.988	0.0146141
665.067	0.0145972
665.145	0.0145028
665.223	0.0144660
665.301	0.0144646
665.379	0.0144173
665.457	0.0144480
665.535	0.0144315
665.613	0.0141078
665.692	0.0142359
665.770	0.0143856
665.848	0.0143805
665.926	0.0143970
666.004	0.0145231
666.082	0.0144740
666.160	0.0145497
666.238	0.0146822
666.317	0.0147649
666.395	0.0147536
666.473	0.0148865
666.551	0.0149640
666.629	0.0150710
666.707	0.0150553
666.785	0.0152155
666.863	0.0152312
666.942	0.0153371
667.020	0.0154895
667.098	0.0153120
667.176	0.0153156
667.254	0.0153440
667.332	0.0152965
667.410	0.0152303
667.488	0.0152306
667.567	0.0151717
667.645	0.0150027
667.723	0.0151388
667.801	0.0150868
667.879	0.0150421
667.957	0.0150471
668.035	0.0150174
668.113	0.0149570
668.192	0.0150694
668.270	0.0148707
668.348	0.0149829
668.426	0.0149660
668.504	0.0148543
668.582	0.0148529
668.660	0.0147849
668.738	0.0147576
668.817	0.0146979
668.895	0.0145394
668.973	0.0146465
669.051	0.0144956
669.129	0.0144077
669.207	0.0144777
669.285	0.0144884
669.363	0.0144382
669.442	0.0143478
669.520	0.0144286
669.598	0.0142672
669.676	0.0144119
669.754	0.0144312
669.832	0.0144636
669.910	0.0144828
669.988	0.0145629
670.067	0.0147298
670.145	0.0148298
670.223	0.0147430
670.301	0.0148842
670.379	0.0151344
670.457	0.0149891
670.535	0.0149635
670.613	0.0152055
670.692	0.0152435
670.770	0.0152798
670.848	0.0154251
670.926	0.0152396
671.004	0.0152718
671.082	0.0153413
671.160	0.0152919
671.238	0.0154227
671.317	0.0152779
671.395	0.0153793
671.473	0.0153004
671.551	0.0150922
671.629	0.0149493
671.707	0.0150488
671.785	0.0146210
671.863	0.0145265
671.942	0.0145192
672.020	0.0144355
672.098	0.0140798
672.176	0.0142115
672.254	0.0140955
672.332	0.0140216
672.410	0.0141423
672.488	0.0141055
672.567	0.0141792
672.645	0.0143472
672.723	0.0143911
672.801	0.0145672
672.879	0.0144106
672.957	0.0147059
673.035	0.0147673
673.113	0.0148975
673.192	0.0148660
673.270	0.0149406
673.348	0.0151037
673.426	0.0149261
673.504	0.0149706
673.582	0.0151353
673.660	0.0150296
673.738	0.0150720
673.817	0.0149921
673.895	0.0150539
673.973	0.0148219
674.051	0.0149297
674.129	0.0148208
674.207	0.0148785
674.285	0.0149241
674.363	0.0148651
674.442	0.0149051
674.520	0.0146629
674.598	0.0148187
674.676	0.0147645
674.754	0.0147591
674.832	0.0147463
674.910	0.0146747
674.988	0.0147735
675.067	0.0147078
675.145	0.0146719
675.223	0.0147612
675.301	0.0146845
675.379	0.0146735
675.457	0.0146729
675.535	0.0145893
675.613	0.0145468
675.692	0.0147475
675.770	0.0146777
675.848	0.0146570
675.926	0.0146322
676.004	0.0146127
676.082	0.0147543
676.160	0.0146658
676.238	0.0147854
676.317	0.0148872
676.395	0.0150539
676.473	0.0147350
676.551	0.0148384
676.629	0.0150378
676.707	0.0149910
676.785	0.0149688
676.863	0.0151255
676.942	0.0150686
677.020	0.0150108
677.098	0.0151942
677.176	0.0149669
677.254	0.0150135
677.332	0.0149477
677.410	0.0148994
677.488	0.0151142
677.567	0.0151244
677.645	0.0149796
677.723	0.0147894
677.801	0.0149832
677.879	0.0149311
677.957	0.0149949
678.035	0.0150151
678.113	0.0148690
678.192	0.0147804
678.270	0.0147860
678.348	0.0147262
678.426	0.0146740
678.504	0.0147318
678.582	0.0146936
678.660	0.0144098
678.738	0.0144596
678.817	0.0143195
678.895	0.0141635
678.973	0.0142005
679.051	0.0141264
679.129	0.0141435
679.207	0.0141230
679.285	0.0139989
679.363	0.0141245
679.442	0.0139995
679.520	0.0141290
679.598	0.0142083
679.676	0.0142462
679.754	0.0143837
679.832	0.0144667
679.910	0.0147189
679.988	0.0148009
680.067	0.0148606
680.145	0.0149970
680.223	0.0151237
680.301	0.0153441
680.379	0.0151747
680.457	0.0153084
680.535	0.0153591
680.613	0.0153662
680.692	0.0153843
680.770	0.0154672
680.848	0.0154260
680.926	0.0154018
681.004	0.0154583
681.082	0.0152733
681.160	0.0154101
681.238	0.0152370
681.317	0.0152388
681.395	0.0152562
681.473	0.0152805
681.551	0.0152682
681.629	0.0152302
681.707	0.0151937
681.785	0.0151590
681.863	0.0151853
681.942	0.0152914
682.020	0.0150722
682.098	0.0150958
682.176	0.0151046
682.254	0.0149559
682.332	0.0147676
682.410	0.0148196
682.488	0.0147318
682.567	0.0146918
682.645	0.0145275
682.723	0.0144138
682.801	0.0141844
682.879	0.0141524
682.957	0.0140720
683.035	0.0141267
683.113	0.0137463
683.192	0.0137156
683.270	0.0138854
683.348	0.0137649
683.426	0.0137373
683.504	0.0137757
683.582	0.0139191
683.660	0.0139963
683.738	0.0142428
683.817	0.0141592
683.895	0.0142210
683.973	0.0144431
684.051	0.0146667
684.129	0.0146334
684.207	0.0150127
684.285	0.0150185
684.363	0.0150289
684.442	0.0152554
684.520	0.0153716
684.598	0.0155091
684.676	0.0155947
684.754	0.0157428
684.832	0.0158453
684.910	0.0160831
684.988	0.0159953
685.067	0.0160053
685.145	0.0160319
685.223	0.0161082
685.301	0.0161250
685.379	0.0163628
685.457	0.0159957
685.535	0.0161289
685.613	0.0157352
685.692	0.0157885
