05/28/2022	14:26:42	Ver.	4.1	UNKNOWN
Optical Delay	599.988409	Delta X		0.078125	Sweeps	1	Scan Rate	0/0
Coordinates	Axis 1	NaN	Axis 2	NaN	Axis 3	NaN	Axis 4	NaN	Axis 5	NaN	Axis 6	0.000000
TX Power	0.000000	RX Power	0.000000

599.988	0.0148407
600.067	0.0149600
600.145	0.0148517
600.223	0.0148414
600.301	0.0148706
600.379	0.0149640
600.457	0.0148649
600.535	0.0147278
600.613	0.0148750
600.692	0.0148193
600.770	0.0148228
600.848	0.0148435
600.926	0.0147508
601.004	0.0147065
601.082	0.0148385
601.160	0.0148276
601.238	0.0147760
601.317	0.0149622
601.395	0.0148830
601.473	0.0147771
601.551	0.0147065
601.629	0.0148146
601.707	0.0148234
601.785	0.0148558
601.863	0.0148789
601.942	0.0149594
602.020	0.0149310
602.098	0.0148716
602.176	0.0147858
602.254	0.0148402
602.332	0.0148797
602.410	0.0149390
602.488	0.0148655
602.567	0.0149895
602.645	0.0148891
602.723	0.0149205
602.801	0.0148672
602.879	0.0148537
602.957	0.0149797
603.035	0.0150277
603.113	0.0149302
603.192	0.0150488
603.270	0.0149356
603.348	0.0148869
603.426	0.0148479
603.504	0.0149605
603.582	0.0149255
603.660	0.0148265
603.738	0.0148306
603.817	0.0149933
603.895	0.0149747
603.973	0.0149918
604.051	0.0149219
604.129	0.0149352
604.207	0.0149854
604.285	0.0149374
604.363	0.0149188
604.442	0.0149908
604.520	0.0149972
604.598	0.0148794
604.676	0.0149033
604.754	0.0149883
604.832	0.0149490
604.910	0.0150073
604.988	0.0148473
605.067	0.0149618
605.145	0.0149329
605.223	0.0150131
605.301	0.0151071
605.379	0.0150134
605.457	0.0149860
605.535	0.0149854
605.613	0.0149509
605.692	0.0148571
605.770	0.0149237
605.848	0.0149938
605.926	0.0149135
606.004	0.0146757
606.082	0.0147935
606.160	0.0148826
606.238	0.0150513
606.317	0.0148717
606.395	0.0149431
606.473	0.0149605
606.551	0.0150242
606.629	0.0149223
606.707	0.0149894
606.785	0.0148215
606.863	0.0148994
606.942	0.0148793
607.020	0.0148668
607.098	0.0150066
607.176	0.0149741
607.254	0.0148933
607.332	0.0149026
607.410	0.0149804
607.488	0.0149361
607.567	0.0148925
607.645	0.0149509
607.723	0.0149540
607.801	0.0148235
607.879	0.0148312
607.957	0.0149043
608.035	0.0149455
608.113	0.0148325
608.192	0.0149402
608.270	0.0149555
608.348	0.0149023
608.426	0.0147992
608.504	0.0148524
608.582	0.0147913
608.660	0.0149530
608.738	0.0148469
608.817	0.0147787
608.895	0.0147695
608.973	0.0147249
609.051	0.0146704
609.129	0.0146999
609.207	0.0146586
609.285	0.0146975
609.363	0.0147042
609.442	0.0147679
609.520	0.0146665
609.598	0.0148203
609.676	0.0148338
609.754	0.0146847
609.832	0.0148520
609.910	0.0147659
609.988	0.0149565
610.067	0.0149169
610.145	0.0149073
610.223	0.0150311
610.301	0.0150185
610.379	0.0150953
610.457	0.0149496
610.535	0.0151357
610.613	0.0151726
610.692	0.0149508
610.770	0.0151829
610.848	0.0151406
610.926	0.0151022
611.004	0.0151065
611.082	0.0151378
611.160	0.0150442
611.238	0.0149772
611.317	0.0149570
611.395	0.0149554
611.473	0.0149432
611.551	0.0148264
611.629	0.0147898
611.707	0.0148324
611.785	0.0147913
611.863	0.0148159
611.942	0.0147517
612.020	0.0147010
612.098	0.0147209
612.176	0.0146817
612.254	0.0147444
612.332	0.0148278
612.410	0.0147929
612.488	0.0148959
612.567	0.0147606
612.645	0.0146136
612.723	0.0148283
612.801	0.0149450
612.879	0.0148056
612.957	0.0148447
613.035	0.0147160
613.113	0.0146855
613.192	0.0148609
613.270	0.0147135
613.348	0.0147640
613.426	0.0147298
613.504	0.0148648
613.582	0.0148450
613.660	0.0147054
613.738	0.0147178
613.817	0.0147259
613.895	0.0148010
613.973	0.0149236
614.051	0.0148643
614.129	0.0148723
614.207	0.0147617
614.285	0.0148868
614.363	0.0148466
614.442	0.0148927
614.520	0.0148284
614.598	0.0147771
614.676	0.0148777
614.754	0.0150365
614.832	0.0149097
614.910	0.0148102
614.988	0.0149635
615.067	0.0150187
615.145	0.0149546
615.223	0.0151022
615.301	0.0148660
615.379	0.0149477
615.457	0.0150356
615.535	0.0150689
615.613	0.0150670
615.692	0.0149974
615.770	0.0151471
615.848	0.0151000
615.926	0.0148643
616.004	0.0149944
616.082	0.0149127
616.160	0.0148123
616.238	0.0150026
616.317	0.0149256
616.395	0.0149830
616.473	0.0148707
616.551	0.0149068
616.629	0.0148431
616.707	0.0149960
616.785	0.0150636
616.863	0.0149236
616.942	0.0148224
617.020	0.0149722
617.098	0.0149081
617.176	0.0149956
617.254	0.0149106
617.332	0.0150655
617.410	0.0148578
617.488	0.0149322
617.567	0.0148566
617.645	0.0148687
617.723	0.0149094
617.801	0.0148141
617.879	0.0148846
617.957	0.0149261
618.035	0.0148381
618.113	0.0147346
618.192	0.0148721
618.270	0.0147064
618.348	0.0147891
618.426	0.0148464
618.504	0.0148125
618.582	0.0149641
618.660	0.0149302
618.738	0.0149374
618.817	0.0147122
618.895	0.0148405
618.973	0.0148914
619.051	0.0148212
619.129	0.0147964
619.207	0.0149078
619.285	0.0148614
619.363	0.0147304
619.442	0.0148697
619.520	0.0148205
619.598	0.0149408
619.676	0.0148424
619.754	0.0148563
619.832	0.0149352
619.910	0.0149142
619.988	0.0148177
620.067	0.0148125
620.145	0.0149178
620.223	0.0148109
620.301	0.0148872
620.379	0.0147730
620.457	0.0147389
620.535	0.0148044
620.613	0.0150635
620.692	0.0149061
620.770	0.0150009
620.848	0.0149229
620.926	0.0148145
621.004	0.0149230
621.082	0.0148443
621.160	0.0148621
621.238	0.0150584
621.317	0.0149016
621.395	0.0147922
621.473	0.0147775
621.551	0.0149438
621.629	0.0149600
621.707	0.0148737
621.785	0.0147311
621.863	0.0148981
621.942	0.0149686
622.020	0.0148702
622.098	0.0147992
622.176	0.0150108
622.254	0.0149278
622.332	0.0148395
622.410	0.0148687
622.488	0.0148544
622.567	0.0148515
622.645	0.0148011
622.723	0.0149335
622.801	0.0148680
622.879	0.0147805
622.957	0.0148055
623.035	0.0148798
623.113	0.0148965
623.192	0.0148681
623.270	0.0149071
623.348	0.0148618
623.426	0.0149868
623.504	0.0149671
623.582	0.0148446
623.660	0.0148391
623.738	0.0148653
623.817	0.0149833
623.895	0.0149371
623.973	0.0148644
624.051	0.0147380
624.129	0.0148251
624.207	0.0148795
624.285	0.0149520
624.363	0.0149395
624.442	0.0149443
624.520	0.0149043
624.598	0.0148674
624.676	0.0148999
624.754	0.0148546
624.832	0.0150180
624.910	0.0149921
624.988	0.0147963
625.067	0.0149253
625.145	0.0149621
625.223	0.0149085
625.301	0.0149064
625.379	0.0148783
625.457	0.0149893
625.535	0.0149788
625.613	0.0149301
625.692	0.0149820
625.770	0.0149556
625.848	0.0149612
625.926	0.0149335
626.004	0.0149715
626.082	0.0149428
626.160	0.0149351
626.238	0.0148621
626.317	0.0149368
626.395	0.0149252
626.473	0.0149567
626.551	0.0148474
626.629	0.0150329
626.707	0.0148801
626.785	0.0149583
626.863	0.0149404
626.942	0.0147911
627.020	0.0148901
627.098	0.0149997
627.176	0.0150204
627.254	0.0149472
627.332	0.0148921
627.410	0.0149915
627.488	0.0149690
627.567	0.0150627
627.645	0.0148808
627.723	0.0150465
627.801	0.0148431
627.879	0.0149846
627.957	0.0148676
628.035	0.0149603
628.113	0.0150069
628.192	0.0150428
628.270	0.0149142
628.348	0.0149716
628.426	0.0150327
628.504	0.0151043
628.582	0.0149577
628.660	0.0150505
628.738	0.0149725
628.817	0.0148940
628.895	0.0151038
628.973	0.0150914
629.051	0.0150348
629.129	0.0151051
629.207	0.0149837
629.285	0.0149612
629.363	0.0150615
629.442	0.0150515
629.520	0.0149323
629.598	0.0149853
629.676	0.0150889
629.754	0.0150605
629.832	0.0149667
629.910	0.0150065
629.988	0.0148760
630.067	0.0149345
630.145	0.0149803
630.223	0.0149521
630.301	0.0150616
630.379	0.0148961
630.457	0.0148207
630.535	0.0149779
630.613	0.0150147
630.692	0.0149533
630.770	0.0147997
630.848	0.0149295
630.926	0.0149400
631.004	0.0149093
631.082	0.0149112
631.160	0.0149451
631.238	0.0149734
631.317	0.0149393
631.395	0.0150266
631.473	0.0148827
631.551	0.0150085
631.629	0.0149181
631.707	0.0148956
631.785	0.0147610
631.863	0.0148396
631.942	0.0149079
632.020	0.0148524
632.098	0.0150371
632.176	0.0147807
632.254	0.0148862
632.332	0.0149429
632.410	0.0149158
632.488	0.0148839
632.567	0.0148790
632.645	0.0148434
632.723	0.0149406
632.801	0.0150508
632.879	0.0148448
632.957	0.0149023
633.035	0.0149483
633.113	0.0148996
633.192	0.0149162
633.270	0.0148294
633.348	0.0149278
633.426	0.0148979
633.504	0.0149598
633.582	0.0148693
633.660	0.0148619
633.738	0.0149729
633.817	0.0148069
633.895	0.0147836
633.973	0.0147278
634.051	0.0148654
634.129	0.0148182
634.207	0.0148141
634.285	0.0146632
634.363	0.0148056
634.442	0.0147888
634.520	0.0147444
634.598	0.0148575
634.676	0.0146575
634.754	0.0146714
634.832	0.0147014
634.910	0.0146909
634.988	0.0146752
635.067	0.0148303
635.145	0.0148133
635.223	0.0147388
635.301	0.0148154
635.379	0.0148877
635.457	0.0148119
635.535	0.0148517
635.613	0.0148780
635.692	0.0149384
635.770	0.0148898
635.848	0.0148914
635.926	0.0150259
636.004	0.0148271
636.082	0.0149284
636.160	0.0150049
636.238	0.0149162
636.317	0.0150069
636.395	0.0148268
636.473	0.0148621
636.551	0.0148244
636.629	0.0148016
636.707	0.0148498
636.785	0.0147678
636.863	0.0147587
636.942	0.0147858
637.020	0.0148045
637.098	0.0147675
637.176	0.0147849
637.254	0.0147550
637.332	0.0148133
637.410	0.0148509
637.488	0.0148296
637.567	0.0148024
637.645	0.0147650
637.723	0.0148944
637.801	0.0148586
637.879	0.0149104
637.957	0.0148540
638.035	0.0149451
638.113	0.0149666
638.192	0.0148346
638.270	0.0146080
638.348	0.0146614
638.426	0.0148753
638.504	0.0147537
638.582	0.0147460
638.660	0.0146484
638.738	0.0145093
638.817	0.0145779
638.895	0.0144133
638.973	0.0144661
639.051	0.0145148
639.129	0.0144337
639.207	0.0145155
639.285	0.0144199
639.363	0.0145716
639.442	0.0146099
639.520	0.0148116
639.598	0.0147358
639.676	0.0147238
639.754	0.0147446
639.832	0.0147822
639.910	0.0149748
639.988	0.0148306
640.067	0.0149516
640.145	0.0149699
640.223	0.0148927
640.301	0.0150545
640.379	0.0149398
640.457	0.0151730
640.535	0.0149203
640.613	0.0151951
640.692	0.0151702
640.770	0.0152820
640.848	0.0151699
640.926	0.0150996
641.004	0.0152059
641.082	0.0151149
641.160	0.0151801
641.238	0.0153083
641.317	0.0153131
641.395	0.0151876
641.473	0.0151685
641.551	0.0149265
641.629	0.0150864
641.707	0.0151623
641.785	0.0150456
641.863	0.0151148
641.942	0.0149115
642.020	0.0150444
642.098	0.0149023
642.176	0.0148904
642.254	0.0149610
642.332	0.0148811
642.410	0.0148062
642.488	0.0148007
642.567	0.0149089
642.645	0.0148527
642.723	0.0147066
642.801	0.0147176
642.879	0.0146528
642.957	0.0145763
643.035	0.0146576
643.113	0.0143926
643.192	0.0144926
643.270	0.0144717
643.348	0.0145029
643.426	0.0145869
643.504	0.0144659
643.582	0.0146298
643.660	0.0145190
643.738	0.0146215
643.817	0.0146914
643.895	0.0147421
643.973	0.0146659
644.051	0.0148528
644.129	0.0148955
644.207	0.0147888
644.285	0.0148161
644.363	0.0150079
644.442	0.0149768
644.520	0.0150503
644.598	0.0149700
644.676	0.0151466
644.754	0.0151110
644.832	0.0150917
644.910	0.0151012
644.988	0.0151470
645.067	0.0151019
645.145	0.0151291
645.223	0.0149957
645.301	0.0150237
645.379	0.0150259
645.457	0.0150329
645.535	0.0150107
645.613	0.0151057
645.692	0.0149735
645.770	0.0149951
645.848	0.0150649
645.926	0.0148970
646.004	0.0150105
646.082	0.0150620
646.160	0.0151081
646.238	0.0149303
646.317	0.0150150
646.395	0.0149616
646.473	0.0147765
646.551	0.0149546
646.629	0.0150275
646.707	0.0148590
646.785	0.0147180
646.863	0.0146464
646.942	0.0146204
647.020	0.0147795
647.098	0.0147823
647.176	0.0145403
647.254	0.0144920
647.332	0.0144976
647.410	0.0144736
647.488	0.0145867
647.567	0.0144982
647.645	0.0145974
647.723	0.0144911
647.801	0.0147109
647.879	0.0146844
647.957	0.0147009
648.035	0.0147585
648.113	0.0147855
648.192	0.0147578
648.270	0.0146613
648.348	0.0148904
648.426	0.0149117
648.504	0.0149405
648.582	0.0148277
648.660	0.0148271
648.738	0.0148029
648.817	0.0147608
648.895	0.0148074
648.973	0.0147206
649.051	0.0146923
649.129	0.0147235
649.207	0.0147207
649.285	0.0148857
649.363	0.0148801
649.442	0.0148928
649.520	0.0149102
649.598	0.0151006
649.676	0.0151810
649.754	0.0150588
649.832	0.0152670
649.910	0.0151889
649.988	0.0152853
650.067	0.0152670
650.145	0.0153133
650.223	0.0153852
650.301	0.0152063
650.379	0.0152211
650.457	0.0152399
650.535	0.0153008
650.613	0.0152457
650.692	0.0151845
650.770	0.0152219
650.848	0.0151721
650.926	0.0151212
651.004	0.0149497
651.082	0.0151855
651.160	0.0152156
651.238	0.0150134
651.317	0.0152285
651.395	0.0151108
651.473	0.0151487
651.551	0.0152126
651.629	0.0152057
651.707	0.0151062
651.785	0.0150425
651.863	0.0151779
651.942	0.0151443
652.020	0.0149619
652.098	0.0149588
652.176	0.0149673
652.254	0.0148746
652.332	0.0147353
652.410	0.0148265
652.488	0.0146005
652.567	0.0146697
652.645	0.0145792
652.723	0.0144965
652.801	0.0144125
652.879	0.0144444
652.957	0.0143544
653.035	0.0143456
653.113	0.0142077
653.192	0.0143797
653.270	0.0143477
653.348	0.0143730
653.426	0.0143388
653.504	0.0142926
653.582	0.0143440
653.660	0.0145014
653.738	0.0145033
653.817	0.0144006
653.895	0.0145805
653.973	0.0148573
654.051	0.0146234
654.129	0.0147243
654.207	0.0146663
654.285	0.0146989
654.363	0.0147310
654.442	0.0146718
654.520	0.0148567
654.598	0.0148422
654.676	0.0148620
654.754	0.0148833
654.832	0.0150037
654.910	0.0150082
654.988	0.0149526
655.067	0.0149072
655.145	0.0149813
655.223	0.0151073
655.301	0.0148826
655.379	0.0150195
655.457	0.0149451
655.535	0.0149588
655.613	0.0150666
655.692	0.0150253
655.770	0.0149556
655.848	0.0150453
655.926	0.0149544
656.004	0.0151076
656.082	0.0150171
656.160	0.0150353
656.238	0.0150112
656.317	0.0150211
656.395	0.0149904
656.473	0.0149675
656.551	0.0148548
656.629	0.0148782
656.707	0.0149317
656.785	0.0148112
656.863	0.0147948
656.942	0.0148246
657.020	0.0148720
657.098	0.0147374
657.176	0.0147976
657.254	0.0146744
657.332	0.0147427
657.410	0.0146869
657.488	0.0146766
657.567	0.0147552
657.645	0.0145638
657.723	0.0144429
657.801	0.0144903
657.879	0.0143297
657.957	0.0143040
658.035	0.0142747
658.113	0.0141917
658.192	0.0141969
658.270	0.0142655
658.348	0.0141283
658.426	0.0141404
658.504	0.0143127
658.582	0.0142687
658.660	0.0140714
658.738	0.0142792
658.817	0.0145424
658.895	0.0144109
658.973	0.0145033
659.051	0.0146995
659.129	0.0146102
659.207	0.0147758
659.285	0.0147787
659.363	0.0149129
659.442	0.0150064
659.520	0.0150207
659.598	0.0149296
659.676	0.0150383
659.754	0.0152168
659.832	0.0151404
659.910	0.0150963
659.988	0.0152126
660.067	0.0151892
660.145	0.0150269
660.223	0.0151574
660.301	0.0151665
660.379	0.0149517
660.457	0.0149892
660.535	0.0148990
660.613	0.0148818
660.692	0.0147762
660.770	0.0147447
660.848	0.0145924
660.926	0.0145777
661.004	0.0145168
661.082	0.0145671
661.160	0.0144551
661.238	0.0146327
661.317	0.0144659
661.395	0.0144324
661.473	0.0145994
661.551	0.0144865
661.629	0.0145801
661.707	0.0146947
661.785	0.0147325
661.863	0.0148760
661.942	0.0149173
662.020	0.0148903
662.098	0.0148009
662.176	0.0150341
662.254	0.0150272
662.332	0.0150600
662.410	0.0150144
662.488	0.0149634
662.567	0.0150040
662.645	0.0149832
662.723	0.0149961
662.801	0.0149411
662.879	0.0147807
662.957	0.0148348
663.035	0.0149577
663.113	0.0146398
663.192	0.0146296
663.270	0.0146307
663.348	0.0145590
663.426	0.0146091
663.504	0.0144911
663.582	0.0145721
663.660	0.0144804
663.738	0.0143670
663.817	0.0144711
663.895	0.0144690
663.973	0.0143462
664.051	0.0144711
664.129	0.0143456
664.207	0.0144161
664.285	0.0144364
664.363	0.0143415
664.442	0.0145329
664.520	0.0146202
664.598	0.0145566
664.676	0.0146825
664.754	0.0146459
664.832	0.0146025
664.910	0.0147185
664.988	0.0145142
665.067	0.0145468
665.145	0.0147993
665.223	0.0147814
665.301	0.0147710
665.379	0.0148695
665.457	0.0148301
665.535	0.0149416
665.613	0.0149810
665.692	0.0150754
665.770	0.0150196
665.848	0.0151568
665.926	0.0151489
666.004	0.0151961
666.082	0.0151856
666.160	0.0153489
666.238	0.0152950
666.317	0.0152637
666.395	0.0152830
666.473	0.0154984
666.551	0.0152629
666.629	0.0153927
666.707	0.0153053
666.785	0.0153477
666.863	0.0153517
666.942	0.0153712
667.020	0.0153166
667.098	0.0150912
667.176	0.0150375
667.254	0.0150832
667.332	0.0149659
667.410	0.0150114
667.488	0.0149082
667.567	0.0147062
667.645	0.0145886
667.723	0.0145499
667.801	0.0146116
667.879	0.0147852
667.957	0.0145861
668.035	0.0144211
668.113	0.0145045
668.192	0.0146017
668.270	0.0146408
668.348	0.0145529
668.426	0.0145439
668.504	0.0144319
668.582	0.0145856
668.660	0.0148188
668.738	0.0148331
668.817	0.0147818
668.895	0.0148757
668.973	0.0149379
669.051	0.0148725
669.129	0.0147893
669.207	0.0149719
669.285	0.0150349
669.363	0.0150806
669.442	0.0149947
669.520	0.0149907
669.598	0.0149870
669.676	0.0150203
669.754	0.0150459
669.832	0.0150542
669.910	0.0150095
669.988	0.0150829
670.067	0.0149442
670.145	0.0149991
670.223	0.0150583
670.301	0.0148786
670.379	0.0150941
670.457	0.0151788
670.535	0.0151503
670.613	0.0150512
670.692	0.0151981
670.770	0.0150681
670.848	0.0152185
670.926	0.0150871
671.004	0.0150906
671.082	0.0152647
671.160	0.0151871
671.238	0.0150234
671.317	0.0150252
671.395	0.0151552
671.473	0.0150063
671.551	0.0150874
671.629	0.0149268
671.707	0.0148589
671.785	0.0148217
671.863	0.0146065
671.942	0.0145775
672.020	0.0146490
672.098	0.0144358
672.176	0.0142321
672.254	0.0141841
672.332	0.0142184
672.410	0.0142168
672.488	0.0141060
672.567	0.0142697
672.645	0.0142773
672.723	0.0144068
672.801	0.0144244
672.879	0.0143435
672.957	0.0146404
673.035	0.0148402
673.113	0.0147047
673.192	0.0150037
673.270	0.0151596
673.348	0.0151023
673.426	0.0153063
673.504	0.0153296
673.582	0.0153654
673.660	0.0153377
673.738	0.0156093
673.817	0.0154805
673.895	0.0155946
673.973	0.0153028
674.051	0.0153687
674.129	0.0154103
674.207	0.0151962
674.285	0.0153471
674.363	0.0151877
674.442	0.0152609
674.520	0.0150808
674.598	0.0149555
674.676	0.0149921
674.754	0.0149875
674.832	0.0147873
674.910	0.0148442
674.988	0.0146633
675.067	0.0147333
675.145	0.0146560
675.223	0.0145853
675.301	0.0144450
675.379	0.0144089
675.457	0.0143179
675.535	0.0142891
675.613	0.0143599
675.692	0.0142963
675.770	0.0142352
675.848	0.0142159
675.926	0.0144038
676.004	0.0143838
676.082	0.0142809
676.160	0.0143069
676.238	0.0145471
676.317	0.0147378
676.395	0.0147154
676.473	0.0146844
676.551	0.0147233
676.629	0.0148058
676.707	0.0149637
676.785	0.0151501
676.863	0.0150885
676.942	0.0152196
677.020	0.0151886
677.098	0.0151375
677.176	0.0151446
677.254	0.0151456
677.332	0.0153052
677.410	0.0152698
677.488	0.0152596
677.567	0.0152473
677.645	0.0151217
677.723	0.0150718
677.801	0.0150364
677.879	0.0149772
677.957	0.0150586
678.035	0.0149968
678.113	0.0147827
678.192	0.0148742
678.270	0.0148528
678.348	0.0147536
678.426	0.0146749
678.504	0.0145073
678.582	0.0145560
678.660	0.0144700
678.738	0.0144155
678.817	0.0142611
678.895	0.0142812
678.973	0.0141656
679.051	0.0141512
679.129	0.0141904
679.207	0.0140952
679.285	0.0142142
679.363	0.0140770
679.442	0.0139754
679.520	0.0142527
679.598	0.0142372
679.676	0.0142021
679.754	0.0144444
679.832	0.0145188
679.910	0.0146236
679.988	0.0146019
680.067	0.0146553
680.145	0.0147794
680.223	0.0150609
680.301	0.0151319
680.379	0.0151083
680.457	0.0151926
680.535	0.0151955
680.613	0.0152327
680.692	0.0154652
680.770	0.0152962
680.848	0.0152536
680.926	0.0153959
681.004	0.0153220
681.082	0.0154645
681.160	0.0155116
681.238	0.0156397
681.317	0.0154443
681.395	0.0154317
681.473	0.0155694
681.551	0.0154995
681.629	0.0154713
681.707	0.0154507
681.785	0.0154642
681.863	0.0153950
681.942	0.0153107
682.020	0.0152753
682.098	0.0150626
682.176	0.0150190
682.254	0.0148690
682.332	0.0146659
682.410	0.0146000
682.488	0.0144942
682.567	0.0142670
682.645	0.0142178
682.723	0.0141212
682.801	0.0140344
682.879	0.0139296
682.957	0.0137855
683.035	0.0139037
683.113	0.0138496
683.192	0.0138295
683.270	0.0138803
683.348	0.0139571
683.426	0.0139687
683.504	0.0140054
683.582	0.0140405
683.660	0.0141918
683.738	0.0141388
683.817	0.0142087
683.895	0.0143290
683.973	0.0144234
684.051	0.0144808
684.129	0.0146307
684.207	0.0147253
684.285	0.0147175
684.363	0.0148932
684.442	0.0149445
684.520	0.0151724
684.598	0.0154202
684.676	0.0154030
684.754	0.0154885
684.832	0.0157561
684.910	0.0157970
684.988	0.0159574
685.067	0.0161256
685.145	0.0160617
685.223	0.0160548
685.301	0.0159404
685.379	0.0158524
685.457	0.0159526
685.535	0.0159225
685.613	0.0157298
685.692	0.0156683
