05/28/2022	14:27:42	Ver.	4.1	UNKNOWN
Optical Delay	599.988409	Delta X		0.078125	Sweeps	1	Scan Rate	0/0
Coordinates	Axis 1	NaN	Axis 2	NaN	Axis 3	NaN	Axis 4	NaN	Axis 5	NaN	Axis 6	0.000000
TX Power	0.000000	RX Power	0.000000

599.988	0.0145754
600.067	0.0145625
600.145	0.0144215
600.223	0.0144059
600.301	0.0145882
600.379	0.0146310
600.457	0.0146530
600.535	0.0146830
600.613	0.0147559
600.692	0.0145983
600.770	0.0146088
600.848	0.0146426
600.926	0.0146709
601.004	0.0148270
601.082	0.0147028
601.160	0.0146262
601.238	0.0148267
601.317	0.0148634
601.395	0.0148000
601.473	0.0148475
601.551	0.0146703
601.629	0.0146830
601.707	0.0146960
601.785	0.0146149
601.863	0.0146957
601.942	0.0146259
602.020	0.0148501
602.098	0.0146790
602.176	0.0146791
602.254	0.0147159
602.332	0.0146592
602.410	0.0145773
602.488	0.0146224
602.567	0.0147092
602.645	0.0146697
602.723	0.0147062
602.801	0.0146945
602.879	0.0146609
602.957	0.0144880
603.035	0.0146430
603.113	0.0145989
603.192	0.0147141
603.270	0.0146578
603.348	0.0146069
603.426	0.0147295
603.504	0.0147340
603.582	0.0146420
603.660	0.0146965
603.738	0.0147135
603.817	0.0146165
603.895	0.0147655
603.973	0.0148460
604.051	0.0147415
604.129	0.0146011
604.207	0.0147796
604.285	0.0147153
604.363	0.0148518
604.442	0.0146969
604.520	0.0148320
604.598	0.0148103
604.676	0.0149103
604.754	0.0149889
604.832	0.0147572
604.910	0.0149078
604.988	0.0148303
605.067	0.0148065
605.145	0.0147750
605.223	0.0149288
605.301	0.0148843
605.379	0.0149672
605.457	0.0148591
605.535	0.0148936
605.613	0.0148563
605.692	0.0149068
605.770	0.0148731
605.848	0.0149074
605.926	0.0148243
606.004	0.0148283
606.082	0.0148079
606.160	0.0149406
606.238	0.0149245
606.317	0.0149358
606.395	0.0147132
606.473	0.0147048
606.551	0.0147132
606.629	0.0148015
606.707	0.0148729
606.785	0.0147402
606.863	0.0147095
606.942	0.0148000
607.020	0.0146441
607.098	0.0147491
607.176	0.0147540
607.254	0.0146440
607.332	0.0147554
607.410	0.0146922
607.488	0.0146770
607.567	0.0147412
607.645	0.0147317
607.723	0.0147153
607.801	0.0146782
607.879	0.0145709
607.957	0.0146182
608.035	0.0146716
608.113	0.0146146
608.192	0.0145847
608.270	0.0146909
608.348	0.0146410
608.426	0.0146179
608.504	0.0145361
608.582	0.0146931
608.660	0.0146569
608.738	0.0145634
608.817	0.0146342
608.895	0.0146442
608.973	0.0146754
609.051	0.0146091
609.129	0.0145992
609.207	0.0146779
609.285	0.0146889
609.363	0.0146085
609.442	0.0147417
609.520	0.0147421
609.598	0.0146996
609.676	0.0146918
609.754	0.0146191
609.832	0.0147652
609.910	0.0147884
609.988	0.0148074
610.067	0.0147498
610.145	0.0148302
610.223	0.0147278
610.301	0.0148332
610.379	0.0147582
610.457	0.0148785
610.535	0.0146635
610.613	0.0147243
610.692	0.0147117
610.770	0.0148244
610.848	0.0147874
610.926	0.0147525
611.004	0.0148729
611.082	0.0146497
611.160	0.0147170
611.238	0.0146896
611.317	0.0148502
611.395	0.0145945
611.473	0.0147072
611.551	0.0147422
611.629	0.0147825
611.707	0.0148030
611.785	0.0147480
611.863	0.0147240
611.942	0.0148564
612.020	0.0147988
612.098	0.0148661
612.176	0.0147830
612.254	0.0149510
612.332	0.0148919
612.410	0.0149063
612.488	0.0147636
612.567	0.0148138
612.645	0.0149751
612.723	0.0148512
612.801	0.0147211
612.879	0.0148618
612.957	0.0148637
613.035	0.0147657
613.113	0.0147698
613.192	0.0148567
613.270	0.0148291
613.348	0.0148009
613.426	0.0148168
613.504	0.0149531
613.582	0.0148021
613.660	0.0147646
613.738	0.0148050
613.817	0.0148446
613.895	0.0147276
613.973	0.0147939
614.051	0.0148024
614.129	0.0147504
614.207	0.0147926
614.285	0.0147891
614.363	0.0146927
614.442	0.0147099
614.520	0.0147601
614.598	0.0148174
614.676	0.0147186
614.754	0.0147775
614.832	0.0148645
614.910	0.0148780
614.988	0.0148945
615.067	0.0148517
615.145	0.0147470
615.223	0.0147496
615.301	0.0147762
615.379	0.0148001
615.457	0.0148103
615.535	0.0147836
615.613	0.0147590
615.692	0.0147492
615.770	0.0147882
615.848	0.0146981
615.926	0.0149941
616.004	0.0148959
616.082	0.0147710
616.160	0.0148867
616.238	0.0147929
616.317	0.0147762
616.395	0.0146824
616.473	0.0148036
616.551	0.0147744
616.629	0.0148133
616.707	0.0147622
616.785	0.0148061
616.863	0.0147519
616.942	0.0148989
617.020	0.0148129
617.098	0.0147929
617.176	0.0146149
617.254	0.0147424
617.332	0.0147370
617.410	0.0145538
617.488	0.0147188
617.567	0.0146407
617.645	0.0146476
617.723	0.0146826
617.801	0.0145974
617.879	0.0146281
617.957	0.0145545
618.035	0.0147189
618.113	0.0147339
618.192	0.0147007
618.270	0.0147151
618.348	0.0147176
618.426	0.0148449
618.504	0.0147038
618.582	0.0146928
618.660	0.0148194
618.738	0.0147096
618.817	0.0145636
618.895	0.0147037
618.973	0.0147691
619.051	0.0147725
619.129	0.0149003
619.207	0.0145953
619.285	0.0146781
619.363	0.0147041
619.442	0.0147912
619.520	0.0145702
619.598	0.0146657
619.676	0.0146793
619.754	0.0146152
619.832	0.0146355
619.910	0.0147061
619.988	0.0146673
620.067	0.0146539
620.145	0.0146349
620.223	0.0145180
620.301	0.0145866
620.379	0.0147514
620.457	0.0147572
620.535	0.0144895
620.613	0.0146475
620.692	0.0146912
620.770	0.0144637
620.848	0.0146984
620.926	0.0145594
621.004	0.0145593
621.082	0.0146510
621.160	0.0147135
621.238	0.0146919
621.317	0.0145920
621.395	0.0146694
621.473	0.0146261
621.551	0.0147311
621.629	0.0146670
621.707	0.0144888
621.785	0.0147675
621.863	0.0145157
621.942	0.0144226
622.020	0.0146950
622.098	0.0147151
622.176	0.0145819
622.254	0.0146290
622.332	0.0146748
622.410	0.0146678
622.488	0.0146933
622.567	0.0146300
622.645	0.0148763
622.723	0.0145759
622.801	0.0147074
622.879	0.0145840
622.957	0.0147181
623.035	0.0146578
623.113	0.0146276
623.192	0.0147709
623.270	0.0146733
623.348	0.0146386
623.426	0.0147858
623.504	0.0147571
623.582	0.0147246
623.660	0.0146970
623.738	0.0147182
623.817	0.0148080
623.895	0.0148116
623.973	0.0146996
624.051	0.0147367
624.129	0.0147148
624.207	0.0145289
624.285	0.0147962
624.363	0.0146084
624.442	0.0147187
624.520	0.0146227
624.598	0.0145802
624.676	0.0146984
624.754	0.0147181
624.832	0.0147343
624.910	0.0147429
624.988	0.0147524
625.067	0.0146625
625.145	0.0147926
625.223	0.0146624
625.301	0.0148215
625.379	0.0146761
625.457	0.0147250
625.535	0.0147559
625.613	0.0146906
625.692	0.0146912
625.770	0.0146720
625.848	0.0147164
625.926	0.0148184
626.004	0.0147421
626.082	0.0148072
626.160	0.0147679
626.238	0.0146129
626.317	0.0147082
626.395	0.0147543
626.473	0.0147643
626.551	0.0147390
626.629	0.0146317
626.707	0.0146048
626.785	0.0148576
626.863	0.0147094
626.942	0.0148244
627.020	0.0147153
627.098	0.0146632
627.176	0.0147272
627.254	0.0148553
627.332	0.0147323
627.410	0.0147651
627.488	0.0147910
627.567	0.0147572
627.645	0.0148158
627.723	0.0147414
627.801	0.0146859
627.879	0.0148147
627.957	0.0148269
628.035	0.0148077
628.113	0.0147879
628.192	0.0147522
628.270	0.0146638
628.348	0.0148588
628.426	0.0146496
628.504	0.0146442
628.582	0.0148098
628.660	0.0147364
628.738	0.0146732
628.817	0.0146171
628.895	0.0145992
628.973	0.0146553
629.051	0.0147468
629.129	0.0146433
629.207	0.0146899
629.285	0.0147005
629.363	0.0146804
629.442	0.0146577
629.520	0.0146449
629.598	0.0148017
629.676	0.0146152
629.754	0.0145811
629.832	0.0146709
629.910	0.0148145
629.988	0.0146792
630.067	0.0146146
630.145	0.0146056
630.223	0.0147361
630.301	0.0145702
630.379	0.0145553
630.457	0.0147977
630.535	0.0147178
630.613	0.0147234
630.692	0.0146864
630.770	0.0146046
630.848	0.0148421
630.926	0.0147639
631.004	0.0147026
631.082	0.0147260
631.160	0.0148572
631.238	0.0146606
631.317	0.0147820
631.395	0.0146108
631.473	0.0147459
631.551	0.0147921
631.629	0.0147647
631.707	0.0147040
631.785	0.0147290
631.863	0.0146999
631.942	0.0147935
632.020	0.0147340
632.098	0.0146851
632.176	0.0147241
632.254	0.0146112
632.332	0.0145883
632.410	0.0145556
632.488	0.0145645
632.567	0.0146825
632.645	0.0145985
632.723	0.0146146
632.801	0.0145905
632.879	0.0145246
632.957	0.0147741
633.035	0.0146736
633.113	0.0145650
633.192	0.0148287
633.270	0.0145667
633.348	0.0147702
633.426	0.0147937
633.504	0.0147276
633.582	0.0148402
633.660	0.0148508
633.738	0.0148034
633.817	0.0149186
633.895	0.0148855
633.973	0.0148954
634.051	0.0148492
634.129	0.0147898
634.207	0.0148390
634.285	0.0148798
634.363	0.0149390
634.442	0.0148524
634.520	0.0148846
634.598	0.0149731
634.676	0.0148823
634.754	0.0147379
634.832	0.0147099
634.910	0.0146569
634.988	0.0147298
635.067	0.0147579
635.145	0.0146300
635.223	0.0146941
635.301	0.0146842
635.379	0.0147053
635.457	0.0145924
635.535	0.0146566
635.613	0.0147091
635.692	0.0147137
635.770	0.0148431
635.848	0.0147922
635.926	0.0148297
636.004	0.0148029
636.082	0.0148621
636.160	0.0146931
636.238	0.0147481
636.317	0.0146041
636.395	0.0147443
636.473	0.0145245
636.551	0.0145440
636.629	0.0146149
636.707	0.0144136
636.785	0.0143614
636.863	0.0143205
636.942	0.0142768
637.020	0.0144312
637.098	0.0143194
637.176	0.0143369
637.254	0.0143221
637.332	0.0144868
637.410	0.0144375
637.488	0.0144948
637.567	0.0144373
637.645	0.0145930
637.723	0.0145578
637.801	0.0146884
637.879	0.0147149
637.957	0.0146835
638.035	0.0147351
638.113	0.0148665
638.192	0.0148020
638.270	0.0147485
638.348	0.0148151
638.426	0.0148161
638.504	0.0147681
638.582	0.0148077
638.660	0.0148624
638.738	0.0149419
638.817	0.0148729
638.895	0.0148678
638.973	0.0148824
639.051	0.0146710
639.129	0.0146649
639.207	0.0147657
639.285	0.0147884
639.363	0.0147803
639.442	0.0147887
639.520	0.0147482
639.598	0.0149043
639.676	0.0148714
639.754	0.0147950
639.832	0.0147256
639.910	0.0147018
639.988	0.0147253
640.067	0.0147063
640.145	0.0145044
640.223	0.0143954
640.301	0.0143021
640.379	0.0143488
640.457	0.0143606
640.535	0.0145069
640.613	0.0144460
640.692	0.0144279
640.770	0.0145212
640.848	0.0144487
640.926	0.0144190
641.004	0.0142566
641.082	0.0142577
641.160	0.0144207
641.238	0.0143417
641.317	0.0142973
641.395	0.0142468
641.473	0.0146848
641.551	0.0144166
641.629	0.0143600
641.707	0.0144066
641.785	0.0146349
641.863	0.0148086
641.942	0.0146758
642.020	0.0147123
642.098	0.0145526
642.176	0.0146587
642.254	0.0148182
642.332	0.0147953
642.410	0.0148707
642.488	0.0149654
642.567	0.0150721
642.645	0.0150151
642.723	0.0148879
642.801	0.0149771
642.879	0.0149803
642.957	0.0148705
643.035	0.0150348
643.113	0.0148758
643.192	0.0149810
643.270	0.0148730
643.348	0.0149673
643.426	0.0148980
643.504	0.0148648
643.582	0.0149126
643.660	0.0149943
643.738	0.0149504
643.817	0.0146909
643.895	0.0146951
643.973	0.0146747
644.051	0.0147693
644.129	0.0147086
644.207	0.0148116
644.285	0.0145185
644.363	0.0145534
644.442	0.0147257
644.520	0.0145855
644.598	0.0143464
644.676	0.0144235
644.754	0.0145087
644.832	0.0144275
644.910	0.0143109
644.988	0.0143146
645.067	0.0141767
645.145	0.0142942
645.223	0.0140861
645.301	0.0141193
645.379	0.0141613
645.457	0.0141965
645.535	0.0142348
645.613	0.0142671
645.692	0.0143098
645.770	0.0143208
645.848	0.0143137
645.926	0.0144500
646.004	0.0145712
646.082	0.0144382
646.160	0.0145603
646.238	0.0145467
646.317	0.0145223
646.395	0.0146708
646.473	0.0145818
646.551	0.0144814
646.629	0.0145857
646.707	0.0146800
646.785	0.0145936
646.863	0.0146377
646.942	0.0146998
647.020	0.0147360
647.098	0.0146652
647.176	0.0145909
647.254	0.0146690
647.332	0.0146629
647.410	0.0147314
647.488	0.0147137
647.567	0.0148222
647.645	0.0148770
647.723	0.0147433
647.801	0.0148256
647.879	0.0150163
647.957	0.0148488
648.035	0.0149332
648.113	0.0148315
648.192	0.0149507
648.270	0.0148713
648.348	0.0149844
648.426	0.0148730
648.504	0.0148844
648.582	0.0147320
648.660	0.0147571
648.738	0.0148360
648.817	0.0148209
648.895	0.0148589
648.973	0.0147029
649.051	0.0146324
649.129	0.0147749
649.207	0.0145881
649.285	0.0146384
649.363	0.0146571
649.442	0.0146059
649.520	0.0147416
649.598	0.0147387
649.676	0.0146264
649.754	0.0146923
649.832	0.0146918
649.910	0.0147594
649.988	0.0147826
650.067	0.0147219
650.145	0.0146993
650.223	0.0147860
650.301	0.0149780
650.379	0.0148843
650.457	0.0147825
650.535	0.0147746
650.613	0.0147166
650.692	0.0147920
650.770	0.0147582
650.848	0.0147010
650.926	0.0145852
651.004	0.0146552
651.082	0.0145634
651.160	0.0146308
651.238	0.0146055
651.317	0.0146501
651.395	0.0145840
651.473	0.0145004
651.551	0.0146123
651.629	0.0145042
651.707	0.0144077
651.785	0.0145273
651.863	0.0146260
651.942	0.0144667
652.020	0.0144682
652.098	0.0146167
652.176	0.0147944
652.254	0.0148217
652.332	0.0147256
652.410	0.0147816
652.488	0.0148942
652.567	0.0149285
652.645	0.0149643
652.723	0.0147941
652.801	0.0149231
652.879	0.0149255
652.957	0.0148644
653.035	0.0149514
653.113	0.0151083
653.192	0.0152542
653.270	0.0151106
653.348	0.0152857
653.426	0.0152174
653.504	0.0151743
653.582	0.0154381
653.660	0.0153870
653.738	0.0153334
653.817	0.0152413
653.895	0.0152924
653.973	0.0153792
654.051	0.0152212
654.129	0.0152946
654.207	0.0151656
654.285	0.0150481
654.363	0.0149606
654.442	0.0148544
654.520	0.0148682
654.598	0.0148317
654.676	0.0146896
654.754	0.0145214
654.832	0.0145580
654.910	0.0146334
654.988	0.0145023
655.067	0.0142489
655.145	0.0143084
655.223	0.0144731
655.301	0.0143632
655.379	0.0144646
655.457	0.0145179
655.535	0.0145734
655.613	0.0146690
655.692	0.0145545
655.770	0.0147449
655.848	0.0147337
655.926	0.0147442
656.004	0.0147612
656.082	0.0146657
656.160	0.0148284
656.238	0.0146584
656.317	0.0145967
656.395	0.0146095
656.473	0.0145599
656.551	0.0145706
656.629	0.0145774
656.707	0.0143599
656.785	0.0143097
656.863	0.0143856
656.942	0.0142223
657.020	0.0141616
657.098	0.0142659
657.176	0.0142810
657.254	0.0142167
657.332	0.0141495
657.410	0.0141911
657.488	0.0143176
657.567	0.0144266
657.645	0.0142608
657.723	0.0143834
657.801	0.0144302
657.879	0.0144462
657.957	0.0145868
658.035	0.0145415
658.113	0.0146318
658.192	0.0147809
658.270	0.0146751
658.348	0.0147319
658.426	0.0149162
658.504	0.0148602
658.582	0.0148114
658.660	0.0149915
658.738	0.0149529
658.817	0.0148880
658.895	0.0148500
658.973	0.0148918
659.051	0.0149136
659.129	0.0148853
659.207	0.0148927
659.285	0.0147138
659.363	0.0147261
659.442	0.0145808
659.520	0.0146088
659.598	0.0147427
659.676	0.0145210
659.754	0.0143867
659.832	0.0143877
659.910	0.0144926
659.988	0.0144157
660.067	0.0145403
660.145	0.0144888
660.223	0.0145969
660.301	0.0145360
660.379	0.0146004
660.457	0.0145494
660.535	0.0145914
660.613	0.0146072
660.692	0.0147045
660.770	0.0147939
660.848	0.0147159
660.926	0.0147351
661.004	0.0147496
661.082	0.0147373
661.160	0.0146355
661.238	0.0146507
661.317	0.0145168
661.395	0.0144880
661.473	0.0145561
661.551	0.0143761
661.629	0.0144180
661.707	0.0142512
661.785	0.0142732
661.863	0.0143687
661.942	0.0141603
662.020	0.0141687
662.098	0.0139778
662.176	0.0141067
662.254	0.0141380
662.332	0.0141354
662.410	0.0141655
662.488	0.0141355
662.567	0.0141489
662.645	0.0144137
662.723	0.0145354
662.801	0.0145350
662.879	0.0146297
662.957	0.0146527
663.035	0.0147234
663.113	0.0150016
663.192	0.0148452
663.270	0.0149480
663.348	0.0151416
663.426	0.0150266
663.504	0.0150683
663.582	0.0150880
663.660	0.0151798
663.738	0.0151775
663.817	0.0151033
663.895	0.0150338
663.973	0.0150646
664.051	0.0148824
664.129	0.0148464
664.207	0.0149311
664.285	0.0149773
664.363	0.0148342
664.442	0.0147427
664.520	0.0146751
664.598	0.0146683
664.676	0.0148299
664.754	0.0148707
664.832	0.0146812
664.910	0.0148481
664.988	0.0147102
665.067	0.0146889
665.145	0.0148314
665.223	0.0148611
665.301	0.0148123
665.379	0.0147556
665.457	0.0147882
665.535	0.0146828
665.613	0.0146715
665.692	0.0148006
665.770	0.0148912
665.848	0.0147269
665.926	0.0148442
666.004	0.0148725
666.082	0.0148552
666.160	0.0148367
666.238	0.0147269
666.317	0.0147594
666.395	0.0147782
666.473	0.0148618
666.551	0.0148093
666.629	0.0148294
666.707	0.0147344
666.785	0.0145931
666.863	0.0145930
666.942	0.0146758
667.020	0.0145571
667.098	0.0144389
667.176	0.0143697
667.254	0.0144779
667.332	0.0142992
667.410	0.0143382
667.488	0.0142733
667.567	0.0142508
667.645	0.0143206
667.723	0.0143933
667.801	0.0143257
667.879	0.0143155
667.957	0.0144440
668.035	0.0143395
668.113	0.0145013
668.192	0.0145901
668.270	0.0145504
668.348	0.0148001
668.426	0.0148692
668.504	0.0147533
668.582	0.0149497
668.660	0.0147879
668.738	0.0148322
668.817	0.0149567
668.895	0.0147999
668.973	0.0148481
669.051	0.0147249
669.129	0.0147717
669.207	0.0148426
669.285	0.0148132
669.363	0.0146358
669.442	0.0145594
669.520	0.0145983
669.598	0.0145749
669.676	0.0145852
669.754	0.0144244
669.832	0.0144404
669.910	0.0145027
669.988	0.0145306
670.067	0.0146136
670.145	0.0145935
670.223	0.0146111
670.301	0.0147192
670.379	0.0148438
670.457	0.0147307
670.535	0.0148222
670.613	0.0149194
670.692	0.0150730
670.770	0.0150896
670.848	0.0149490
670.926	0.0150044
671.004	0.0149756
671.082	0.0151093
671.160	0.0149707
671.238	0.0150034
671.317	0.0147803
671.395	0.0147496
671.473	0.0145454
671.551	0.0144460
671.629	0.0144011
671.707	0.0143921
671.785	0.0141704
671.863	0.0141357
671.942	0.0138918
672.020	0.0139700
672.098	0.0139292
672.176	0.0138406
672.254	0.0138977
672.332	0.0139998
672.410	0.0142151
672.488	0.0142319
672.567	0.0144188
672.645	0.0144192
672.723	0.0146236
672.801	0.0148286
672.879	0.0148933
672.957	0.0149420
673.035	0.0151852
673.113	0.0152919
673.192	0.0153188
673.270	0.0154971
673.348	0.0154463
673.426	0.0155716
673.504	0.0155454
673.582	0.0155885
673.660	0.0155478
673.738	0.0154745
673.817	0.0153148
673.895	0.0152426
673.973	0.0151698
674.051	0.0150111
674.129	0.0150717
674.207	0.0149533
674.285	0.0148396
674.363	0.0147773
674.442	0.0147340
674.520	0.0147388
674.598	0.0145901
674.676	0.0145573
674.754	0.0145705
674.832	0.0144526
674.910	0.0144618
674.988	0.0143739
675.067	0.0143667
675.145	0.0144057
675.223	0.0144958
675.301	0.0142953
675.379	0.0142672
675.457	0.0142747
675.535	0.0143106
675.613	0.0144576
675.692	0.0146578
675.770	0.0147006
675.848	0.0147468
675.926	0.0149770
676.004	0.0149692
676.082	0.0150662
676.160	0.0151543
676.238	0.0151011
676.317	0.0151867
676.395	0.0152751
676.473	0.0153823
676.551	0.0152488
676.629	0.0152719
676.707	0.0152858
676.785	0.0153637
676.863	0.0152112
676.942	0.0152140
677.020	0.0153156
677.098	0.0151185
677.176	0.0150883
677.254	0.0150584
677.332	0.0151934
677.410	0.0149569
677.488	0.0149634
677.567	0.0150069
677.645	0.0148503
677.723	0.0147868
677.801	0.0148344
677.879	0.0149052
677.957	0.0147237
678.035	0.0147688
678.113	0.0147395
678.192	0.0146426
678.270	0.0146912
678.348	0.0145809
678.426	0.0144460
678.504	0.0144742
678.582	0.0145367
678.660	0.0143800
678.738	0.0145454
678.817	0.0144934
678.895	0.0143963
678.973	0.0143719
679.051	0.0143365
679.129	0.0144342
679.207	0.0144437
679.285	0.0144554
679.363	0.0144362
679.442	0.0146326
679.520	0.0145344
679.598	0.0147570
679.676	0.0146509
679.754	0.0149093
679.832	0.0148926
679.910	0.0149412
679.988	0.0150208
680.067	0.0150520
680.145	0.0151311
680.223	0.0149973
680.301	0.0151751
680.379	0.0152016
680.457	0.0153707
680.535	0.0153180
680.613	0.0151435
680.692	0.0150439
680.770	0.0151905
680.848	0.0150723
680.926	0.0151305
681.004	0.0149508
681.082	0.0149879
681.160	0.0148883
681.238	0.0149368
681.317	0.0150725
681.395	0.0149854
681.473	0.0149197
681.551	0.0149045
681.629	0.0149529
681.707	0.0148898
681.785	0.0147816
681.863	0.0147276
681.942	0.0146011
682.020	0.0147414
682.098	0.0144028
682.176	0.0143714
682.254	0.0145435
682.332	0.0142873
682.410	0.0143062
682.488	0.0140054
682.567	0.0139955
682.645	0.0139275
682.723	0.0139575
682.801	0.0137637
682.879	0.0138847
682.957	0.0140794
683.035	0.0140591
683.113	0.0140649
683.192	0.0141052
683.270	0.0141971
683.348	0.0143180
683.426	0.0143764
683.504	0.0143032
683.582	0.0143756
683.660	0.0145329
683.738	0.0146823
683.817	0.0145358
683.895	0.0146576
683.973	0.0149059
684.051	0.0148661
684.129	0.0148316
684.207	0.0149620
684.285	0.0150564
684.363	0.0150892
684.442	0.0152668
684.520	0.0154153
684.598	0.0153914
684.676	0.0154935
684.754	0.0155798
684.832	0.0159014
684.910	0.0157381
684.988	0.0157577
685.067	0.0159100
685.145	0.0159151
685.223	0.0157553
685.301	0.0157351
685.379	0.0156679
685.457	0.0155003
685.535	0.0152708
685.613	0.0152676
685.692	0.0150579
