05/28/2022	14:28:02	Ver.	4.1	UNKNOWN
Optical Delay	599.988409	Delta X		0.078125	Sweeps	1	Scan Rate	0/0
Coordinates	Axis 1	NaN	Axis 2	NaN	Axis 3	NaN	Axis 4	NaN	Axis 5	NaN	Axis 6	0.000000
TX Power	0.000000	RX Power	0.000000

599.988	0.0144676
600.067	0.0145840
600.145	0.0145430
600.223	0.0146268
600.301	0.0145538
600.379	0.0145294
600.457	0.0146484
600.535	0.0145467
600.613	0.0144709
600.692	0.0144492
600.770	0.0145379
600.848	0.0145956
600.926	0.0145275
601.004	0.0145724
601.082	0.0146677
601.160	0.0146313
601.238	0.0144429
601.317	0.0145513
601.395	0.0145470
601.473	0.0146468
601.551	0.0145574
601.629	0.0145148
601.707	0.0145338
601.785	0.0146261
601.863	0.0146633
601.942	0.0146420
602.020	0.0145853
602.098	0.0145801
602.176	0.0146362
602.254	0.0146574
602.332	0.0147463
602.410	0.0147176
602.488	0.0147535
602.567	0.0147323
602.645	0.0146923
602.723	0.0147379
602.801	0.0148041
602.879	0.0146467
602.957	0.0147223
603.035	0.0146357
603.113	0.0146745
603.192	0.0146028
603.270	0.0146605
603.348	0.0147290
603.426	0.0147112
603.504	0.0146587
603.582	0.0146259
603.660	0.0145869
603.738	0.0146703
603.817	0.0146883
603.895	0.0145626
603.973	0.0145277
604.051	0.0147055
604.129	0.0147512
604.207	0.0146751
604.285	0.0145095
604.363	0.0145646
604.442	0.0146494
604.520	0.0145678
604.598	0.0147070
604.676	0.0146392
604.754	0.0145007
604.832	0.0146367
604.910	0.0145668
604.988	0.0144636
605.067	0.0145588
605.145	0.0145373
605.223	0.0145116
605.301	0.0144403
605.379	0.0146022
605.457	0.0145658
605.535	0.0146134
605.613	0.0145050
605.692	0.0144698
605.770	0.0145127
605.848	0.0145308
605.926	0.0145316
606.004	0.0144998
606.082	0.0143612
606.160	0.0144084
606.238	0.0146142
606.317	0.0144807
606.395	0.0145728
606.473	0.0145338
606.551	0.0145759
606.629	0.0144997
606.707	0.0145246
606.785	0.0145029
606.863	0.0145957
606.942	0.0145788
607.020	0.0144777
607.098	0.0144144
607.176	0.0145969
607.254	0.0145819
607.332	0.0145746
607.410	0.0145458
607.488	0.0145632
607.567	0.0144232
607.645	0.0145263
607.723	0.0146468
607.801	0.0146007
607.879	0.0145291
607.957	0.0146132
608.035	0.0145608
608.113	0.0146872
608.192	0.0145844
608.270	0.0144924
608.348	0.0144639
608.426	0.0144694
608.504	0.0145103
608.582	0.0145912
608.660	0.0145462
608.738	0.0145848
608.817	0.0144849
608.895	0.0145697
608.973	0.0144450
609.051	0.0146785
609.129	0.0145801
609.207	0.0144880
609.285	0.0145384
609.363	0.0146603
609.442	0.0144830
609.520	0.0145875
609.598	0.0146194
609.676	0.0146333
609.754	0.0145864
609.832	0.0146389
609.910	0.0146416
609.988	0.0146802
610.067	0.0145406
610.145	0.0146938
610.223	0.0146889
610.301	0.0145474
610.379	0.0146108
610.457	0.0145939
610.535	0.0145688
610.613	0.0147242
610.692	0.0146761
610.770	0.0146534
610.848	0.0146214
610.926	0.0146264
611.004	0.0147024
611.082	0.0146995
611.160	0.0146355
611.238	0.0145473
611.317	0.0147038
611.395	0.0145615
611.473	0.0146500
611.551	0.0147501
611.629	0.0146629
611.707	0.0145963
611.785	0.0146075
611.863	0.0145580
611.942	0.0146255
612.020	0.0145660
612.098	0.0146429
612.176	0.0146116
612.254	0.0145947
612.332	0.0146766
612.410	0.0145921
612.488	0.0146547
612.567	0.0147156
612.645	0.0147981
612.723	0.0145358
612.801	0.0145062
612.879	0.0145388
612.957	0.0146394
613.035	0.0146378
613.113	0.0145728
613.192	0.0145959
613.270	0.0143951
613.348	0.0145310
613.426	0.0145082
613.504	0.0145553
613.582	0.0145097
613.660	0.0144233
613.738	0.0146545
613.817	0.0145786
613.895	0.0145972
613.973	0.0146162
614.051	0.0146020
614.129	0.0145464
614.207	0.0144724
614.285	0.0144643
614.363	0.0144090
614.442	0.0144651
614.520	0.0144353
614.598	0.0146873
614.676	0.0146550
614.754	0.0145661
614.832	0.0144625
614.910	0.0144917
614.988	0.0144235
615.067	0.0144974
615.145	0.0144510
615.223	0.0144357
615.301	0.0145278
615.379	0.0146785
615.457	0.0144288
615.535	0.0145659
615.613	0.0145168
615.692	0.0144151
615.770	0.0144386
615.848	0.0145231
615.926	0.0145367
616.004	0.0145788
616.082	0.0145600
616.160	0.0143853
616.238	0.0144788
616.317	0.0145328
616.395	0.0145916
616.473	0.0144348
616.551	0.0144492
616.629	0.0146587
616.707	0.0144973
616.785	0.0144463
616.863	0.0144715
616.942	0.0144727
617.020	0.0144703
617.098	0.0144469
617.176	0.0145463
617.254	0.0144856
617.332	0.0147100
617.410	0.0145029
617.488	0.0145048
617.567	0.0144091
617.645	0.0145437
617.723	0.0145922
617.801	0.0144684
617.879	0.0145939
617.957	0.0146138
618.035	0.0144787
618.113	0.0146184
618.192	0.0145692
618.270	0.0144759
618.348	0.0145877
618.426	0.0145450
618.504	0.0143848
618.582	0.0146184
618.660	0.0144988
618.738	0.0146344
618.817	0.0145267
618.895	0.0145322
618.973	0.0146040
619.051	0.0145239
619.129	0.0145908
619.207	0.0146152
619.285	0.0145753
619.363	0.0144987
619.442	0.0145953
619.520	0.0146412
619.598	0.0145539
619.676	0.0145740
619.754	0.0145436
619.832	0.0145995
619.910	0.0143796
619.988	0.0144804
620.067	0.0147861
620.145	0.0146239
620.223	0.0145786
620.301	0.0144674
620.379	0.0145764
620.457	0.0145732
620.535	0.0145801
620.613	0.0144910
620.692	0.0143910
620.770	0.0145462
620.848	0.0144985
620.926	0.0144315
621.004	0.0144462
621.082	0.0144573
621.160	0.0144901
621.238	0.0145248
621.317	0.0144485
621.395	0.0144823
621.473	0.0146348
621.551	0.0145653
621.629	0.0145268
621.707	0.0145678
621.785	0.0143893
621.863	0.0143271
621.942	0.0146217
622.020	0.0146214
622.098	0.0145054
622.176	0.0144864
622.254	0.0144205
622.332	0.0144958
622.410	0.0146158
622.488	0.0145767
622.567	0.0145128
622.645	0.0145978
622.723	0.0145232
622.801	0.0144727
622.879	0.0144570
622.957	0.0145927
623.035	0.0144278
623.113	0.0145210
623.192	0.0146138
623.270	0.0144773
623.348	0.0145464
623.426	0.0144778
623.504	0.0145327
623.582	0.0145475
623.660	0.0147478
623.738	0.0146822
623.817	0.0144088
623.895	0.0145558
623.973	0.0145338
624.051	0.0144225
624.129	0.0146505
624.207	0.0145480
624.285	0.0146261
624.363	0.0146024
624.442	0.0145136
624.520	0.0146003
624.598	0.0145347
624.676	0.0146258
624.754	0.0146351
624.832	0.0146230
624.910	0.0144816
624.988	0.0144320
625.067	0.0144637
625.145	0.0144324
625.223	0.0144793
625.301	0.0144653
625.379	0.0145811
625.457	0.0145502
625.535	0.0144518
625.613	0.0144490
625.692	0.0146204
625.770	0.0145815
625.848	0.0143180
625.926	0.0144214
626.004	0.0144986
626.082	0.0144495
626.160	0.0145870
626.238	0.0144544
626.317	0.0143358
626.395	0.0143774
626.473	0.0145119
626.551	0.0144590
626.629	0.0145303
626.707	0.0144982
626.785	0.0144151
626.863	0.0143813
626.942	0.0144228
627.020	0.0143668
627.098	0.0143617
627.176	0.0145554
627.254	0.0145615
627.332	0.0145499
627.410	0.0144189
627.488	0.0144190
627.567	0.0144457
627.645	0.0145265
627.723	0.0144573
627.801	0.0144147
627.879	0.0144329
627.957	0.0144740
628.035	0.0143580
628.113	0.0145472
628.192	0.0144031
628.270	0.0144205
628.348	0.0145398
628.426	0.0146074
628.504	0.0144890
628.582	0.0144238
628.660	0.0145262
628.738	0.0145100
628.817	0.0144940
628.895	0.0145200
628.973	0.0144091
629.051	0.0144841
629.129	0.0145477
629.207	0.0145531
629.285	0.0144405
629.363	0.0144375
629.442	0.0145639
629.520	0.0145464
629.598	0.0144250
629.676	0.0146725
629.754	0.0145965
629.832	0.0145052
629.910	0.0146051
629.988	0.0148040
630.067	0.0145966
630.145	0.0143962
630.223	0.0145421
630.301	0.0146513
630.379	0.0146969
630.457	0.0146600
630.535	0.0143628
630.613	0.0146012
630.692	0.0145865
630.770	0.0146854
630.848	0.0145074
630.926	0.0145123
631.004	0.0144539
631.082	0.0144090
631.160	0.0144643
631.238	0.0144815
631.317	0.0144209
631.395	0.0144473
631.473	0.0145129
631.551	0.0144219
631.629	0.0144472
631.707	0.0144625
631.785	0.0144586
631.863	0.0143518
631.942	0.0144210
632.020	0.0144031
632.098	0.0143938
632.176	0.0144475
632.254	0.0144333
632.332	0.0144811
632.410	0.0145596
632.488	0.0144028
632.567	0.0145251
632.645	0.0144378
632.723	0.0145102
632.801	0.0145346
632.879	0.0144850
632.957	0.0145144
633.035	0.0146049
633.113	0.0145596
633.192	0.0145216
633.270	0.0146778
633.348	0.0146173
633.426	0.0145662
633.504	0.0147248
633.582	0.0146113
633.660	0.0144080
633.738	0.0145879
633.817	0.0146393
633.895	0.0144885
633.973	0.0145223
634.051	0.0146060
634.129	0.0145797
634.207	0.0144089
634.285	0.0144390
634.363	0.0145075
634.442	0.0142511
634.520	0.0144334
634.598	0.0143516
634.676	0.0142583
634.754	0.0143712
634.832	0.0144874
634.910	0.0143684
634.988	0.0144538
635.067	0.0142746
635.145	0.0144647
635.223	0.0146149
635.301	0.0145845
635.379	0.0145387
635.457	0.0146581
635.535	0.0146091
635.613	0.0144769
635.692	0.0146578
635.770	0.0146529
635.848	0.0145182
635.926	0.0145523
636.004	0.0144918
636.082	0.0142771
636.160	0.0142958
636.238	0.0142217
636.317	0.0141666
636.395	0.0141981
636.473	0.0142255
636.551	0.0141841
636.629	0.0142800
636.707	0.0142290
636.785	0.0141605
636.863	0.0142396
636.942	0.0141045
637.020	0.0143728
637.098	0.0144061
637.176	0.0145506
637.254	0.0144453
637.332	0.0145252
637.410	0.0146467
637.488	0.0145771
637.567	0.0146712
637.645	0.0147678
637.723	0.0146720
637.801	0.0147790
637.879	0.0146087
637.957	0.0146118
638.035	0.0146017
638.113	0.0146162
638.192	0.0146070
638.270	0.0146161
638.348	0.0145959
638.426	0.0146851
638.504	0.0146568
638.582	0.0146963
638.660	0.0144448
638.738	0.0147796
638.817	0.0145871
638.895	0.0147912
638.973	0.0145977
639.051	0.0144746
639.129	0.0147209
639.207	0.0145350
639.285	0.0145309
639.363	0.0145313
639.442	0.0144836
639.520	0.0144451
639.598	0.0143496
639.676	0.0144137
639.754	0.0143532
639.832	0.0141312
639.910	0.0142580
639.988	0.0141058
640.067	0.0141376
640.145	0.0142071
640.223	0.0140811
640.301	0.0140234
640.379	0.0141164
640.457	0.0140590
640.535	0.0139470
640.613	0.0142236
640.692	0.0142725
640.770	0.0140696
640.848	0.0141729
640.926	0.0142693
641.004	0.0141942
641.082	0.0142152
641.160	0.0142683
641.238	0.0142684
641.317	0.0143484
641.395	0.0144080
641.473	0.0144071
641.551	0.0144008
641.629	0.0143025
641.707	0.0145531
641.785	0.0146203
641.863	0.0145378
641.942	0.0145111
642.020	0.0147063
642.098	0.0146572
642.176	0.0146818
642.254	0.0147526
642.332	0.0146950
642.410	0.0146710
642.488	0.0147446
642.567	0.0146771
642.645	0.0147474
642.723	0.0148161
642.801	0.0146819
642.879	0.0146873
642.957	0.0147326
643.035	0.0145831
643.113	0.0147051
643.192	0.0146074
643.270	0.0146432
643.348	0.0147038
643.426	0.0144422
643.504	0.0145028
643.582	0.0146016
643.660	0.0145554
643.738	0.0145180
643.817	0.0143864
643.895	0.0145026
643.973	0.0145230
644.051	0.0144643
644.129	0.0143994
644.207	0.0143971
644.285	0.0142521
644.363	0.0141897
644.442	0.0141795
644.520	0.0142636
644.598	0.0141273
644.676	0.0140184
644.754	0.0140359
644.832	0.0141644
644.910	0.0141065
644.988	0.0140741
645.067	0.0141908
645.145	0.0140533
645.223	0.0141613
645.301	0.0141708
645.379	0.0142528
645.457	0.0142860
645.535	0.0143250
645.613	0.0144823
645.692	0.0142840
645.770	0.0145418
645.848	0.0146257
645.926	0.0146072
646.004	0.0145295
646.082	0.0146124
646.160	0.0145409
646.238	0.0145761
646.317	0.0146481
646.395	0.0146069
646.473	0.0144745
646.551	0.0145486
646.629	0.0147327
646.707	0.0146637
646.785	0.0146735
646.863	0.0146345
646.942	0.0147165
647.020	0.0146738
647.098	0.0148066
647.176	0.0147763
647.254	0.0148636
647.332	0.0149825
647.410	0.0150082
647.488	0.0149075
647.567	0.0149667
647.645	0.0148619
647.723	0.0148495
647.801	0.0149240
647.879	0.0150520
647.957	0.0149097
648.035	0.0149341
648.113	0.0148500
648.192	0.0148631
648.270	0.0147624
648.348	0.0146095
648.426	0.0147623
648.504	0.0148141
648.582	0.0147849
648.660	0.0147062
648.738	0.0145988
648.817	0.0145970
648.895	0.0145635
648.973	0.0146082
649.051	0.0145073
649.129	0.0147103
649.207	0.0146813
649.285	0.0145978
649.363	0.0146438
649.442	0.0144941
649.520	0.0145847
649.598	0.0147720
649.676	0.0145921
649.754	0.0146411
649.832	0.0146651
649.910	0.0147176
649.988	0.0146410
650.067	0.0147647
650.145	0.0146065
650.223	0.0146983
650.301	0.0146031
650.379	0.0145236
650.457	0.0146951
650.535	0.0145454
650.613	0.0146105
650.692	0.0145895
650.770	0.0145071
650.848	0.0144161
650.926	0.0144699
651.004	0.0144258
651.082	0.0143915
651.160	0.0144184
651.238	0.0143298
651.317	0.0143478
651.395	0.0142759
651.473	0.0145231
651.551	0.0144060
651.629	0.0143799
651.707	0.0143806
651.785	0.0145055
651.863	0.0145174
651.942	0.0145393
652.020	0.0145043
652.098	0.0144542
652.176	0.0144550
652.254	0.0146222
652.332	0.0145496
652.410	0.0146487
652.488	0.0147426
652.567	0.0145361
652.645	0.0146256
652.723	0.0146226
652.801	0.0148318
652.879	0.0148053
652.957	0.0147922
653.035	0.0148554
653.113	0.0148817
653.192	0.0148350
653.270	0.0148090
653.348	0.0148878
653.426	0.0148876
653.504	0.0148174
653.582	0.0149516
653.660	0.0147546
653.738	0.0146017
653.817	0.0147594
653.895	0.0145719
653.973	0.0146004
654.051	0.0145227
654.129	0.0146083
654.207	0.0143416
654.285	0.0143117
654.363	0.0142993
654.442	0.0141819
654.520	0.0140238
654.598	0.0140466
654.676	0.0139880
654.754	0.0141648
654.832	0.0139273
654.910	0.0141540
654.988	0.0140530
655.067	0.0140053
655.145	0.0140799
655.223	0.0141184
655.301	0.0142203
655.379	0.0144272
655.457	0.0142670
655.535	0.0141617
655.613	0.0142083
655.692	0.0144343
655.770	0.0144205
655.848	0.0144236
655.926	0.0143106
656.004	0.0143658
656.082	0.0144871
656.160	0.0144157
656.238	0.0141472
656.317	0.0143062
656.395	0.0141901
656.473	0.0141685
656.551	0.0140789
656.629	0.0140597
656.707	0.0140655
656.785	0.0139243
656.863	0.0139787
656.942	0.0141140
657.020	0.0139450
657.098	0.0140105
657.176	0.0139568
657.254	0.0140060
657.332	0.0139810
657.410	0.0141564
657.488	0.0141016
657.567	0.0141803
657.645	0.0142245
657.723	0.0143489
657.801	0.0143668
657.879	0.0144427
657.957	0.0144916
658.035	0.0146777
658.113	0.0146895
658.192	0.0146474
658.270	0.0147129
658.348	0.0148228
658.426	0.0148882
658.504	0.0148100
658.582	0.0148746
658.660	0.0148237
658.738	0.0147315
658.817	0.0147517
658.895	0.0148051
658.973	0.0148453
659.051	0.0147324
659.129	0.0146460
659.207	0.0146188
659.285	0.0146539
659.363	0.0147424
659.442	0.0145893
659.520	0.0146657
659.598	0.0145233
659.676	0.0146812
659.754	0.0145352
659.832	0.0143793
659.910	0.0145924
659.988	0.0145861
660.067	0.0146949
660.145	0.0145958
660.223	0.0145977
660.301	0.0146533
660.379	0.0147157
660.457	0.0145304
660.535	0.0146075
660.613	0.0146484
660.692	0.0146104
660.770	0.0146484
660.848	0.0146156
660.926	0.0147024
661.004	0.0144541
661.082	0.0145975
661.160	0.0146110
661.238	0.0143022
661.317	0.0144072
661.395	0.0142600
661.473	0.0143365
661.551	0.0143717
661.629	0.0143878
661.707	0.0142075
661.785	0.0141465
661.863	0.0141582
661.942	0.0141645
662.020	0.0141171
662.098	0.0141575
662.176	0.0141737
662.254	0.0142149
662.332	0.0142448
662.410	0.0141709
662.488	0.0144524
662.567	0.0144592
662.645	0.0145826
662.723	0.0146794
662.801	0.0146244
662.879	0.0146352
662.957	0.0148972
663.035	0.0148656
663.113	0.0150181
663.192	0.0149454
663.270	0.0149112
663.348	0.0149554
663.426	0.0149339
663.504	0.0149793
663.582	0.0148303
663.660	0.0148621
663.738	0.0148705
663.817	0.0145750
663.895	0.0146394
663.973	0.0146980
664.051	0.0147948
664.129	0.0145383
664.207	0.0145323
664.285	0.0145523
664.363	0.0144460
664.442	0.0145303
664.520	0.0142696
664.598	0.0144667
664.676	0.0144036
664.754	0.0143528
664.832	0.0143977
664.910	0.0143775
664.988	0.0143230
665.067	0.0142149
665.145	0.0143539
665.223	0.0141714
665.301	0.0143134
665.379	0.0144060
665.457	0.0142961
665.535	0.0143446
665.613	0.0143411
665.692	0.0143045
665.770	0.0144380
665.848	0.0145991
665.926	0.0145234
666.004	0.0144929
666.082	0.0145359
666.160	0.0146571
666.238	0.0146159
666.317	0.0145663
666.395	0.0146405
666.473	0.0146286
666.551	0.0145026
666.629	0.0145039
666.707	0.0144178
666.785	0.0143928
666.863	0.0144336
666.942	0.0142380
667.020	0.0141757
667.098	0.0141202
667.176	0.0140758
667.254	0.0140359
667.332	0.0140671
667.410	0.0139022
667.488	0.0138832
667.567	0.0139758
667.645	0.0140998
667.723	0.0139941
667.801	0.0140783
667.879	0.0141406
667.957	0.0142622
668.035	0.0143303
668.113	0.0145216
668.192	0.0144865
668.270	0.0146510
668.348	0.0146967
668.426	0.0147662
668.504	0.0148235
668.582	0.0147527
668.660	0.0148933
668.738	0.0148746
668.817	0.0148156
668.895	0.0147411
668.973	0.0146677
669.051	0.0146299
669.129	0.0147516
669.207	0.0145462
669.285	0.0146374
669.363	0.0145640
669.442	0.0145647
669.520	0.0145170
669.598	0.0144855
669.676	0.0144121
669.754	0.0144293
669.832	0.0144685
669.910	0.0145422
669.988	0.0143375
670.067	0.0146300
670.145	0.0146310
670.223	0.0146465
670.301	0.0146968
670.379	0.0148029
670.457	0.0148623
670.535	0.0149495
670.613	0.0149892
670.692	0.0148763
670.770	0.0149448
670.848	0.0150052
670.926	0.0151086
671.004	0.0148914
671.082	0.0148112
671.160	0.0148450
671.238	0.0148943
671.317	0.0146778
671.395	0.0145142
671.473	0.0144936
671.551	0.0143758
671.629	0.0143359
671.707	0.0143117
671.785	0.0139955
671.863	0.0141543
671.942	0.0140926
672.020	0.0137939
672.098	0.0139712
672.176	0.0139322
672.254	0.0138949
672.332	0.0139017
672.410	0.0139950
672.488	0.0140709
672.567	0.0144681
672.645	0.0144231
672.723	0.0144646
672.801	0.0147136
672.879	0.0149433
672.957	0.0150593
673.035	0.0151578
673.113	0.0151196
673.192	0.0153261
673.270	0.0153590
673.348	0.0153465
673.426	0.0155161
673.504	0.0154429
673.582	0.0154407
673.660	0.0153307
673.738	0.0152208
673.817	0.0152238
673.895	0.0151371
673.973	0.0150848
674.051	0.0150002
674.129	0.0149056
674.207	0.0149192
674.285	0.0147722
674.363	0.0145467
674.442	0.0144544
674.520	0.0144371
674.598	0.0145580
674.676	0.0142658
674.754	0.0141143
674.832	0.0141290
674.910	0.0141293
674.988	0.0141547
675.067	0.0140769
675.145	0.0140922
675.223	0.0141247
675.301	0.0141231
675.379	0.0141051
675.457	0.0143312
675.535	0.0142716
675.613	0.0143390
675.692	0.0144147
675.770	0.0144132
675.848	0.0145959
675.926	0.0145110
676.004	0.0147096
676.082	0.0147946
676.160	0.0146854
676.238	0.0148971
676.317	0.0148090
676.395	0.0146973
676.473	0.0148889
676.551	0.0149072
676.629	0.0149589
676.707	0.0147466
676.785	0.0148557
676.863	0.0149009
676.942	0.0149080
677.020	0.0148577
677.098	0.0146828
677.176	0.0146767
677.254	0.0148181
677.332	0.0147712
677.410	0.0146227
677.488	0.0146243
677.567	0.0146136
677.645	0.0145518
677.723	0.0144395
677.801	0.0144463
677.879	0.0146320
677.957	0.0145263
678.035	0.0143049
678.113	0.0142867
678.192	0.0143155
678.270	0.0144231
678.348	0.0141577
678.426	0.0142075
678.504	0.0142782
678.582	0.0141051
678.660	0.0140035
678.738	0.0141105
678.817	0.0141971
678.895	0.0142091
678.973	0.0142258
679.051	0.0140497
679.129	0.0141722
679.207	0.0143016
679.285	0.0143176
679.363	0.0143346
679.442	0.0144351
679.520	0.0143866
679.598	0.0144688
679.676	0.0145265
679.754	0.0146838
679.832	0.0147265
679.910	0.0147903
679.988	0.0149453
680.067	0.0149950
680.145	0.0149693
680.223	0.0149736
680.301	0.0149607
680.379	0.0150870
680.457	0.0149657
680.535	0.0149650
680.613	0.0150226
680.692	0.0150368
680.770	0.0150095
680.848	0.0149367
680.926	0.0148576
681.004	0.0147276
681.082	0.0149299
681.160	0.0147444
681.238	0.0148376
681.317	0.0147697
681.395	0.0147977
681.473	0.0146536
681.551	0.0145859
681.629	0.0146806
681.707	0.0146970
681.785	0.0146011
681.863	0.0145788
681.942	0.0145950
682.020	0.0144811
682.098	0.0144225
682.176	0.0142588
682.254	0.0142213
682.332	0.0141718
682.410	0.0141236
682.488	0.0140696
682.567	0.0139804
682.645	0.0140189
682.723	0.0139828
682.801	0.0140195
682.879	0.0140837
682.957	0.0140214
683.035	0.0139740
683.113	0.0141348
683.192	0.0141586
683.270	0.0140698
683.348	0.0142761
683.426	0.0144100
683.504	0.0144136
683.582	0.0143771
683.660	0.0144119
683.738	0.0145388
683.817	0.0144953
683.895	0.0144739
683.973	0.0146100
684.051	0.0146659
684.129	0.0146655
684.207	0.0147142
684.285	0.0145994
684.363	0.0150130
684.442	0.0150480
684.520	0.0149279
684.598	0.0152075
684.676	0.0154169
684.754	0.0152190
684.832	0.0153661
684.910	0.0153604
684.988	0.0155488
685.067	0.0155436
685.145	0.0154134
685.223	0.0154576
685.301	0.0154108
685.379	0.0153072
685.457	0.0151958
685.535	0.0151370
685.613	0.0149261
685.692	0.0147865
