06/29/2022	21:12:58	Ver.	4.1	UNKNOWN
Optical Delay	629.995835	Delta X		0.078125	Sweeps	1	Scan Rate	0/0
Coordinates	Axis 1	NaN	Axis 2	NaN	Axis 3	NaN	Axis 4	NaN	Axis 5	NaN	Axis 6	0.000000
TX Power	0.000000	RX Power	0.000000

629.996	0.0157815
630.074	0.0158280
630.152	0.0158356
630.230	0.0158275
630.308	0.0157596
630.386	0.0158757
630.465	0.0157758
630.543	0.0158536
630.621	0.0156828
630.699	0.0158167
630.777	0.0159028
630.855	0.0158470
630.933	0.0157420
631.011	0.0157308
631.090	0.0157502
631.168	0.0157873
631.246	0.0158736
631.324	0.0158683
631.402	0.0157639
631.480	0.0158575
631.558	0.0157253
631.636	0.0158315
631.715	0.0158135
631.793	0.0158055
631.871	0.0159219
631.949	0.0156992
632.027	0.0157009
632.105	0.0157991
632.183	0.0157639
632.261	0.0157738
632.340	0.0157524
632.418	0.0158472
632.496	0.0157626
632.574	0.0157636
632.652	0.0156567
632.730	0.0158665
632.808	0.0157373
632.886	0.0158473
632.965	0.0158698
633.043	0.0157956
633.121	0.0157628
633.199	0.0158983
633.277	0.0157108
633.355	0.0157195
633.433	0.0157697
633.511	0.0157858
633.590	0.0158538
633.668	0.0158575
633.746	0.0157583
633.824	0.0157607
633.902	0.0158661
633.980	0.0158079
634.058	0.0157561
634.136	0.0157173
634.215	0.0158753
634.293	0.0157860
634.371	0.0158866
634.449	0.0157717
634.527	0.0158120
634.605	0.0156607
634.683	0.0158864
634.761	0.0158378
634.840	0.0158694
634.918	0.0158370
634.996	0.0158537
635.074	0.0158858
635.152	0.0157026
635.230	0.0156786
635.308	0.0158030
635.386	0.0157350
635.465	0.0157779
635.543	0.0156624
635.621	0.0159073
635.699	0.0159118
635.777	0.0158499
635.855	0.0157761
635.933	0.0157072
636.011	0.0157664
636.090	0.0157607
636.168	0.0157168
636.246	0.0157491
636.324	0.0157787
636.402	0.0157738
636.480	0.0158048
636.558	0.0159307
636.636	0.0158807
636.715	0.0158252
636.793	0.0157124
636.871	0.0159772
636.949	0.0158394
637.027	0.0157552
637.105	0.0157587
637.183	0.0157189
637.261	0.0159544
637.340	0.0157728
637.418	0.0156354
637.496	0.0157600
637.574	0.0157866
637.652	0.0158731
637.730	0.0158022
637.808	0.0158118
637.886	0.0158553
637.965	0.0157607
638.043	0.0158630
638.121	0.0157656
638.199	0.0158477
638.277	0.0159158
638.355	0.0158321
638.433	0.0158237
638.511	0.0157702
638.590	0.0158047
638.668	0.0158443
638.746	0.0157463
638.824	0.0158273
638.902	0.0157896
638.980	0.0158569
639.058	0.0159978
639.136	0.0157895
639.215	0.0158302
639.293	0.0156998
639.371	0.0158079
639.449	0.0158243
639.527	0.0157726
639.605	0.0157431
639.683	0.0158839
639.761	0.0156719
639.840	0.0157659
639.918	0.0157600
639.996	0.0157626
640.074	0.0158521
640.152	0.0158359
640.230	0.0158778
640.308	0.0156445
640.386	0.0157944
640.465	0.0156888
640.543	0.0158536
640.621	0.0158590
640.699	0.0157255
640.777	0.0157092
640.855	0.0158587
640.933	0.0158764
641.011	0.0158382
641.090	0.0156556
641.168	0.0157530
641.246	0.0158314
641.324	0.0158428
641.402	0.0158524
641.480	0.0158733
641.558	0.0157307
641.636	0.0157304
641.715	0.0158765
641.793	0.0157976
641.871	0.0157077
641.949	0.0158559
642.027	0.0158918
642.105	0.0158590
642.183	0.0158753
642.261	0.0157748
642.340	0.0156557
642.418	0.0158520
642.496	0.0157862
642.574	0.0157816
642.652	0.0158733
642.730	0.0157125
642.808	0.0159030
642.886	0.0156882
642.965	0.0157355
643.043	0.0158346
643.121	0.0158215
643.199	0.0157894
643.277	0.0157806
643.355	0.0158896
643.433	0.0157392
643.511	0.0157724
643.590	0.0159603
643.668	0.0157560
643.746	0.0157095
643.824	0.0158360
643.902	0.0157868
643.980	0.0157469
644.058	0.0157848
644.136	0.0156819
644.215	0.0157973
644.293	0.0158911
644.371	0.0158179
644.449	0.0157000
644.527	0.0157907
644.605	0.0157470
644.683	0.0158309
644.761	0.0157557
644.840	0.0158045
644.918	0.0159046
644.996	0.0158642
645.074	0.0159413
645.152	0.0157845
645.230	0.0158714
645.308	0.0157864
645.386	0.0158456
645.465	0.0158236
645.543	0.0157626
645.621	0.0158277
645.699	0.0159799
645.777	0.0157893
645.855	0.0158813
645.933	0.0158988
646.011	0.0158410
646.090	0.0157315
646.168	0.0158068
646.246	0.0157951
646.324	0.0159515
646.402	0.0158698
646.480	0.0157021
646.558	0.0158248
646.636	0.0158181
646.715	0.0158310
646.793	0.0157274
646.871	0.0157900
646.949	0.0158760
647.027	0.0158018
647.105	0.0157837
647.183	0.0159483
647.261	0.0159305
647.340	0.0159026
647.418	0.0157716
647.496	0.0158649
647.574	0.0158578
647.652	0.0157310
647.730	0.0158277
647.808	0.0157799
647.886	0.0159547
647.965	0.0158503
648.043	0.0158410
648.121	0.0157617
648.199	0.0156496
648.277	0.0159293
648.355	0.0158198
648.433	0.0158129
648.511	0.0158054
648.590	0.0157648
648.668	0.0156880
648.746	0.0158274
648.824	0.0157071
648.902	0.0158233
648.980	0.0157643
649.058	0.0157169
649.136	0.0157650
649.215	0.0157391
649.293	0.0157896
649.371	0.0157112
649.449	0.0157892
649.527	0.0158072
649.605	0.0157191
649.683	0.0157638
649.761	0.0157954
649.840	0.0158362
649.918	0.0158730
649.996	0.0158659
650.074	0.0158368
650.152	0.0158108
650.230	0.0157204
650.308	0.0158728
650.386	0.0158496
650.465	0.0158800
650.543	0.0158984
650.621	0.0157556
650.699	0.0158118
650.777	0.0158237
650.855	0.0158906
650.933	0.0158243
651.011	0.0157275
651.090	0.0158025
651.168	0.0157998
651.246	0.0157373
651.324	0.0157280
651.402	0.0158820
651.480	0.0158514
651.558	0.0158462
651.636	0.0157912
651.715	0.0158064
651.793	0.0159018
651.871	0.0157758
651.949	0.0158279
652.027	0.0158046
652.105	0.0159312
652.183	0.0158468
652.261	0.0157720
652.340	0.0158475
652.418	0.0158402
652.496	0.0158139
652.574	0.0157707
652.652	0.0158034
652.730	0.0159124
652.808	0.0157846
652.886	0.0157358
652.965	0.0158346
653.043	0.0158897
653.121	0.0158308
653.199	0.0158730
653.277	0.0158936
653.355	0.0157372
653.433	0.0157315
653.511	0.0158081
653.590	0.0158349
653.668	0.0158073
653.746	0.0158490
653.824	0.0158379
653.902	0.0157777
653.980	0.0158672
654.058	0.0158296
654.136	0.0159263
654.215	0.0158392
654.293	0.0158260
654.371	0.0158083
654.449	0.0156979
654.527	0.0159256
654.605	0.0159093
654.683	0.0157613
654.761	0.0158169
654.840	0.0159299
654.918	0.0158556
654.996	0.0158640
655.074	0.0157465
655.152	0.0159149
655.230	0.0158016
655.308	0.0158260
655.386	0.0158246
655.465	0.0159061
655.543	0.0157862
655.621	0.0158270
655.699	0.0158634
655.777	0.0158570
655.855	0.0158325
655.933	0.0158579
656.011	0.0158063
656.090	0.0159145
656.168	0.0158163
656.246	0.0155866
656.324	0.0156750
656.402	0.0159999
656.480	0.0159529
656.558	0.0157580
656.636	0.0156772
656.715	0.0158569
656.793	0.0158029
656.871	0.0158018
656.949	0.0158537
657.027	0.0158805
657.105	0.0158014
657.183	0.0158205
657.261	0.0158747
657.340	0.0159056
657.418	0.0156777
657.496	0.0159111
657.574	0.0158447
657.652	0.0158671
657.730	0.0158049
657.808	0.0158952
657.886	0.0157292
657.965	0.0159237
658.043	0.0159084
658.121	0.0157286
658.199	0.0157814
658.277	0.0158648
658.355	0.0159921
658.433	0.0159535
658.511	0.0158551
658.590	0.0158687
658.668	0.0159108
658.746	0.0158244
658.824	0.0158495
658.902	0.0157944
658.980	0.0159045
659.058	0.0157529
659.136	0.0158442
659.215	0.0157253
659.293	0.0158351
659.371	0.0158089
659.449	0.0158134
659.527	0.0159755
659.605	0.0156947
659.683	0.0159130
659.761	0.0159387
659.840	0.0158141
659.918	0.0158089
659.996	0.0158148
660.074	0.0157571
660.152	0.0158430
660.230	0.0159123
660.308	0.0158732
660.386	0.0158167
660.465	0.0157105
660.543	0.0158399
660.621	0.0158040
660.699	0.0157339
660.777	0.0158141
660.855	0.0156857
660.933	0.0157747
661.011	0.0157896
661.090	0.0158195
661.168	0.0157262
661.246	0.0157809
661.324	0.0159179
661.402	0.0158598
661.480	0.0157570
661.558	0.0158423
661.636	0.0157680
661.715	0.0158289
661.793	0.0158413
661.871	0.0158954
661.949	0.0158487
662.027	0.0157284
662.105	0.0157465
662.183	0.0158886
662.261	0.0158576
662.340	0.0157034
662.418	0.0158501
662.496	0.0157976
662.574	0.0157920
662.652	0.0159312
662.730	0.0158089
662.808	0.0157764
662.886	0.0157825
662.965	0.0157153
663.043	0.0157456
663.121	0.0157136
663.199	0.0158058
663.277	0.0156913
663.355	0.0157855
663.433	0.0159066
663.511	0.0157990
663.590	0.0155997
663.668	0.0158335
663.746	0.0158539
663.824	0.0158476
663.902	0.0158170
663.980	0.0158646
664.058	0.0158527
664.136	0.0157822
664.215	0.0159251
664.293	0.0157680
664.371	0.0156659
664.449	0.0157664
664.527	0.0157572
664.605	0.0158260
664.683	0.0158624
664.761	0.0158604
664.840	0.0157436
664.918	0.0158291
664.996	0.0157121
665.074	0.0156931
665.152	0.0158662
665.230	0.0156734
665.308	0.0157980
665.386	0.0157571
665.465	0.0158809
665.543	0.0157493
665.621	0.0159278
665.699	0.0157252
665.777	0.0157468
665.855	0.0158372
665.933	0.0158250
666.011	0.0157848
666.090	0.0156207
666.168	0.0158182
666.246	0.0157224
666.324	0.0157866
666.402	0.0157905
666.480	0.0158057
666.558	0.0159420
666.636	0.0157995
666.715	0.0158508
666.793	0.0157288
666.871	0.0158167
666.949	0.0156821
667.027	0.0158276
667.105	0.0157760
667.183	0.0158896
667.261	0.0158559
667.340	0.0157314
667.418	0.0157767
667.496	0.0158393
667.574	0.0159059
667.652	0.0157439
667.730	0.0157286
667.808	0.0158128
667.886	0.0157635
667.965	0.0159063
668.043	0.0158604
668.121	0.0157922
668.199	0.0157957
668.277	0.0157469
668.355	0.0156562
668.433	0.0158830
668.511	0.0158720
668.590	0.0158374
668.668	0.0158399
668.746	0.0158787
668.824	0.0158421
668.902	0.0157938
668.980	0.0157531
669.058	0.0158958
669.136	0.0159135
669.215	0.0157684
669.293	0.0157623
669.371	0.0159071
669.449	0.0158454
669.527	0.0159274
669.605	0.0158128
669.683	0.0157758
669.761	0.0157815
669.840	0.0158273
669.918	0.0159500
669.996	0.0157510
670.074	0.0158595
670.152	0.0157322
670.230	0.0157632
670.308	0.0158693
670.386	0.0157770
670.465	0.0157070
670.543	0.0158405
670.621	0.0159103
670.699	0.0156557
670.777	0.0157575
670.855	0.0157580
670.933	0.0157901
671.011	0.0158859
671.090	0.0156582
671.168	0.0158758
671.246	0.0158283
671.324	0.0159103
671.402	0.0157332
671.480	0.0156680
671.558	0.0159209
671.636	0.0159135
671.715	0.0157773
671.793	0.0158300
671.871	0.0157686
671.949	0.0157537
672.027	0.0156555
672.105	0.0157383
672.183	0.0159069
672.261	0.0159169
672.340	0.0158192
672.418	0.0158774
672.496	0.0157755
672.574	0.0158881
672.652	0.0157196
672.730	0.0158237
672.808	0.0158068
672.886	0.0158533
672.965	0.0158157
673.043	0.0157948
673.121	0.0158182
673.199	0.0159247
673.277	0.0157147
673.355	0.0157304
673.433	0.0158810
673.511	0.0158464
673.590	0.0158715
673.668	0.0158514
673.746	0.0158350
673.824	0.0158765
673.902	0.0157665
673.980	0.0157804
674.058	0.0158438
674.136	0.0158714
674.215	0.0157550
674.293	0.0158996
674.371	0.0156879
674.449	0.0157301
674.527	0.0159055
674.605	0.0157669
674.683	0.0157091
674.761	0.0157384
674.840	0.0157890
674.918	0.0158073
674.996	0.0156546
675.074	0.0157906
675.152	0.0157975
675.230	0.0157494
675.308	0.0158233
675.386	0.0157658
675.465	0.0158350
675.543	0.0156833
675.621	0.0158208
675.699	0.0159007
675.777	0.0156670
675.855	0.0158994
675.933	0.0158186
676.011	0.0157065
676.090	0.0157087
676.168	0.0158825
676.246	0.0159036
676.324	0.0157215
676.402	0.0157262
676.480	0.0157634
676.558	0.0156796
676.636	0.0158089
676.715	0.0157285
676.793	0.0157504
676.871	0.0157289
676.949	0.0158591
677.027	0.0158295
677.105	0.0159180
677.183	0.0158546
677.261	0.0158762
677.340	0.0159012
677.418	0.0158474
677.496	0.0158637
677.574	0.0158624
677.652	0.0157132
677.730	0.0157229
677.808	0.0157355
677.886	0.0157430
677.965	0.0157876
678.043	0.0157616
678.121	0.0158418
678.199	0.0158343
678.277	0.0158328
678.355	0.0158508
678.433	0.0156790
678.511	0.0157572
678.590	0.0158491
678.668	0.0156894
678.746	0.0158855
678.824	0.0158060
678.902	0.0158195
678.980	0.0157701
679.058	0.0158445
679.136	0.0158453
679.215	0.0157034
679.293	0.0157883
679.371	0.0157738
679.449	0.0157352
679.527	0.0157852
679.605	0.0157104
679.683	0.0157316
679.761	0.0159483
679.840	0.0158366
679.918	0.0157773
679.996	0.0157735
680.074	0.0157778
680.152	0.0158983
680.230	0.0158898
680.308	0.0158463
680.386	0.0157037
680.465	0.0158520
680.543	0.0157645
680.621	0.0158708
680.699	0.0157536
680.777	0.0156528
680.855	0.0157890
680.933	0.0157878
681.011	0.0156577
681.090	0.0156599
681.168	0.0157067
681.246	0.0157954
681.324	0.0158504
681.402	0.0157320
681.480	0.0158057
681.558	0.0157835
681.636	0.0158966
681.715	0.0157916
681.793	0.0158494
681.871	0.0158582
681.949	0.0157994
682.027	0.0158265
682.105	0.0157914
682.183	0.0158851
682.261	0.0158979
682.340	0.0156025
682.418	0.0159454
682.496	0.0157710
682.574	0.0157150
682.652	0.0159039
682.730	0.0157772
682.808	0.0158228
682.886	0.0157340
682.965	0.0157253
683.043	0.0157880
683.121	0.0157544
683.199	0.0158347
683.277	0.0157291
683.355	0.0156937
683.433	0.0157555
683.511	0.0157061
683.590	0.0157949
683.668	0.0158208
683.746	0.0158205
683.824	0.0158291
683.902	0.0157357
683.980	0.0157259
684.058	0.0157748
684.136	0.0157413
684.215	0.0158026
684.293	0.0157197
684.371	0.0158713
684.449	0.0157768
684.527	0.0156873
684.605	0.0157771
684.683	0.0156660
684.761	0.0158053
684.840	0.0157652
684.918	0.0158596
684.996	0.0156887
685.074	0.0157677
685.152	0.0157416
685.230	0.0157911
685.308	0.0157894
685.386	0.0157897
685.465	0.0159290
685.543	0.0158090
685.621	0.0156338
685.699	0.0157847
685.777	0.0158620
685.855	0.0158134
685.933	0.0158139
686.011	0.0158400
686.090	0.0157207
686.168	0.0157830
686.246	0.0157582
686.324	0.0158195
686.402	0.0157008
686.480	0.0155998
686.558	0.0158086
686.636	0.0157500
686.715	0.0158044
686.793	0.0158833
686.871	0.0157468
686.949	0.0158061
687.027	0.0157874
687.105	0.0158238
687.183	0.0158955
687.261	0.0158241
687.340	0.0157300
687.418	0.0158220
687.496	0.0158513
687.574	0.0157819
687.652	0.0157823
687.730	0.0158733
687.808	0.0158533
687.886	0.0157365
687.965	0.0157902
688.043	0.0157833
688.121	0.0157563
688.199	0.0156638
688.277	0.0156870
688.355	0.0158157
688.433	0.0158617
688.511	0.0157748
688.590	0.0158202
688.668	0.0158908
688.746	0.0159228
688.824	0.0158301
688.902	0.0158666
688.980	0.0158101
689.058	0.0157632
689.136	0.0159003
689.215	0.0157384
689.293	0.0157755
689.371	0.0158661
689.449	0.0158959
689.527	0.0159182
689.605	0.0158199
689.683	0.0158639
689.761	0.0158060
689.840	0.0158839
689.918	0.0158479
689.996	0.0157291
690.074	0.0159055
690.152	0.0159375
690.230	0.0159047
690.308	0.0157777
690.386	0.0158881
690.465	0.0158649
690.543	0.0158810
690.621	0.0158594
690.699	0.0158276
690.777	0.0158294
690.855	0.0158736
690.933	0.0157109
691.011	0.0157226
691.090	0.0158588
691.168	0.0158096
691.246	0.0158421
691.324	0.0158150
691.402	0.0158176
691.480	0.0158395
691.558	0.0159155
691.636	0.0158231
691.715	0.0158040
691.793	0.0158821
691.871	0.0159162
691.949	0.0158060
692.027	0.0157716
692.105	0.0158559
692.183	0.0157783
692.261	0.0157481
692.340	0.0158868
692.418	0.0157720
692.496	0.0158127
692.574	0.0157906
692.652	0.0156532
692.730	0.0158379
692.808	0.0157549
692.886	0.0158198
692.965	0.0158115
693.043	0.0157862
693.121	0.0157940
693.199	0.0159391
693.277	0.0158549
693.355	0.0158868
693.433	0.0157662
693.511	0.0158336
693.590	0.0157636
693.668	0.0157127
693.746	0.0158462
693.824	0.0159161
693.902	0.0159260
693.980	0.0158132
694.058	0.0157834
694.136	0.0158217
694.215	0.0158392
694.293	0.0158523
694.371	0.0157532
694.449	0.0158292
694.527	0.0158766
694.605	0.0158138
694.683	0.0158233
694.761	0.0158701
694.840	0.0158932
694.918	0.0158705
694.996	0.0157604
695.074	0.0158430
695.152	0.0158574
695.230	0.0157359
695.308	0.0157548
695.386	0.0156706
695.465	0.0157381
695.543	0.0157847
695.621	0.0159081
695.699	0.0158389
695.777	0.0158331
695.855	0.0158077
695.933	0.0157993
696.011	0.0158740
696.090	0.0158656
696.168	0.0159456
696.246	0.0157666
696.324	0.0158372
696.402	0.0157903
696.480	0.0158155
696.558	0.0158247
696.636	0.0157409
696.715	0.0157280
696.793	0.0159241
696.871	0.0158965
696.949	0.0158009
697.027	0.0158157
697.105	0.0158096
697.183	0.0158245
697.261	0.0157412
697.340	0.0158109
697.418	0.0158310
697.496	0.0158096
697.574	0.0157805
697.652	0.0158231
697.730	0.0157307
697.808	0.0157851
697.886	0.0158917
697.965	0.0158642
698.043	0.0158493
698.121	0.0159597
698.199	0.0157426
698.277	0.0158775
698.355	0.0157860
698.433	0.0158125
698.511	0.0157540
698.590	0.0157320
698.668	0.0156506
698.746	0.0158208
698.824	0.0159334
698.902	0.0158218
698.980	0.0159130
699.058	0.0159389
699.136	0.0157479
699.215	0.0157440
699.293	0.0158701
699.371	0.0158277
699.449	0.0158012
699.527	0.0157492
699.605	0.0158665
699.683	0.0158005
699.761	0.0157747
699.840	0.0159290
699.918	0.0157058
699.996	0.0158794
700.074	0.0158548
700.152	0.0157392
700.230	0.0159014
700.308	0.0156911
700.386	0.0157315
700.465	0.0157091
700.543	0.0158138
700.621	0.0157793
700.699	0.0157022
700.777	0.0157716
700.855	0.0157634
700.933	0.0157955
701.011	0.0159062
701.090	0.0158533
701.168	0.0159010
701.246	0.0156665
701.324	0.0157028
701.402	0.0158837
701.480	0.0158558
701.558	0.0159097
701.636	0.0157773
701.715	0.0157290
701.793	0.0157668
701.871	0.0158240
701.949	0.0157772
702.027	0.0158203
702.105	0.0157015
702.183	0.0157500
702.261	0.0157748
702.340	0.0157146
702.418	0.0158789
702.496	0.0157439
702.574	0.0157355
702.652	0.0157374
702.730	0.0157626
702.808	0.0159425
702.886	0.0158453
702.965	0.0157870
703.043	0.0157112
703.121	0.0157549
703.199	0.0156974
703.277	0.0156044
703.355	0.0158399
703.433	0.0157706
703.511	0.0157078
703.590	0.0156303
703.668	0.0158188
703.746	0.0156769
703.824	0.0158017
703.902	0.0156627
703.980	0.0157699
704.058	0.0158311
704.136	0.0157306
704.215	0.0156715
704.293	0.0157997
704.371	0.0158782
704.449	0.0156450
704.527	0.0156463
704.605	0.0158127
704.683	0.0158181
704.761	0.0158315
704.840	0.0158318
704.918	0.0158213
704.996	0.0159016
705.074	0.0159383
705.152	0.0157918
705.230	0.0157604
705.308	0.0156705
705.386	0.0157679
705.465	0.0157531
705.543	0.0157668
705.621	0.0156905
705.699	0.0158657
705.777	0.0157778
705.855	0.0157751
705.933	0.0160040
706.011	0.0158522
706.090	0.0158717
706.168	0.0158810
706.246	0.0158360
706.324	0.0158858
706.402	0.0158418
706.480	0.0158037
706.558	0.0157565
706.636	0.0157433
706.715	0.0158282
706.793	0.0158202
706.871	0.0155765
706.949	0.0156695
707.027	0.0157025
707.105	0.0157729
707.183	0.0158543
707.261	0.0157961
707.340	0.0157514
707.418	0.0157433
707.496	0.0158011
707.574	0.0158952
707.652	0.0157858
707.730	0.0158223
707.808	0.0157768
707.886	0.0158960
707.965	0.0157964
708.043	0.0157662
708.121	0.0158288
708.199	0.0158577
708.277	0.0157928
708.355	0.0157265
708.433	0.0158223
708.511	0.0156468
708.590	0.0156760
708.668	0.0157561
708.746	0.0158167
708.824	0.0157664
708.902	0.0158790
708.980	0.0158728
709.058	0.0157236
709.136	0.0158389
709.215	0.0158315
709.293	0.0157743
709.371	0.0158235
709.449	0.0157281
709.527	0.0157509
709.605	0.0156625
709.683	0.0157719
709.761	0.0156819
709.840	0.0157673
709.918	0.0158968
709.996	0.0159470
710.074	0.0158447
710.152	0.0158745
710.230	0.0159090
710.308	0.0158887
710.386	0.0158249
710.465	0.0157419
710.543	0.0157495
710.621	0.0157229
710.699	0.0157958
710.777	0.0156638
710.855	0.0155044
710.933	0.0155593
711.011	0.0156868
711.090	0.0156147
711.168	0.0156401
711.246	0.0156478
711.324	0.0156812
711.402	0.0156706
711.480	0.0158152
711.558	0.0157706
711.636	0.0156589
711.715	0.0157918
711.793	0.0157906
711.871	0.0158041
711.949	0.0158119
712.027	0.0159277
712.105	0.0157851
712.183	0.0159824
712.261	0.0160604
712.340	0.0158740
712.418	0.0158854
712.496	0.0160541
712.574	0.0159900
712.652	0.0161575
712.730	0.0160599
712.808	0.0162265
712.886	0.0162951
712.965	0.0163332
713.043	0.0163841
713.121	0.0165371
713.199	0.0164213
713.277	0.0165862
713.355	0.0164153
713.433	0.0162788
713.511	0.0161651
713.590	0.0160642
713.668	0.0158922
713.746	0.0157453
713.824	0.0158185
713.902	0.0156712
713.980	0.0154970
714.058	0.0154151
714.136	0.0154044
714.215	0.0152414
714.293	0.0151145
714.371	0.0150719
714.449	0.0149020
714.527	0.0147617
714.605	0.0147392
714.683	0.0145367
714.761	0.0145103
714.840	0.0145654
714.918	0.0145172
714.996	0.0146584
715.074	0.0147488
715.152	0.0149897
715.230	0.0150640
715.308	0.0152962
715.386	0.0155148
715.465	0.0156738
715.543	0.0159068
715.621	0.0161418
715.699	0.0163999
