06/29/2022	21:19:03	Ver.	4.1	UNKNOWN
Optical Delay	629.995835	Delta X		0.078125	Sweeps	1	Scan Rate	0/0
Coordinates	Axis 1	NaN	Axis 2	NaN	Axis 3	NaN	Axis 4	NaN	Axis 5	NaN	Axis 6	0.000000
TX Power	0.000000	RX Power	0.000000

629.996	0.0150432
630.074	0.0150455
630.152	0.0150214
630.230	0.0150420
630.308	0.0149503
630.386	0.0150535
630.465	0.0149550
630.543	0.0149425
630.621	0.0150374
630.699	0.0150561
630.777	0.0150509
630.855	0.0150269
630.933	0.0149594
631.011	0.0150087
631.090	0.0149168
631.168	0.0149432
631.246	0.0151460
631.324	0.0150370
631.402	0.0150399
631.480	0.0150404
631.558	0.0150198
631.636	0.0149395
631.715	0.0149908
631.793	0.0151693
631.871	0.0150179
631.949	0.0152175
632.027	0.0151629
632.105	0.0150856
632.183	0.0150623
632.261	0.0150339
632.340	0.0150233
632.418	0.0151475
632.496	0.0149311
632.574	0.0150140
632.652	0.0150782
632.730	0.0150203
632.808	0.0150901
632.886	0.0150347
632.965	0.0150090
633.043	0.0150813
633.121	0.0150832
633.199	0.0150384
633.277	0.0150610
633.355	0.0150690
633.433	0.0149610
633.511	0.0151070
633.590	0.0150150
633.668	0.0150282
633.746	0.0150226
633.824	0.0152251
633.902	0.0149386
633.980	0.0150546
634.058	0.0150719
634.136	0.0150883
634.215	0.0150317
634.293	0.0150475
634.371	0.0149796
634.449	0.0150946
634.527	0.0149684
634.605	0.0150570
634.683	0.0150932
634.761	0.0150309
634.840	0.0150604
634.918	0.0149940
634.996	0.0151046
635.074	0.0149826
635.152	0.0150504
635.230	0.0151052
635.308	0.0150101
635.386	0.0149277
635.465	0.0150397
635.543	0.0151176
635.621	0.0149879
635.699	0.0151190
635.777	0.0150628
635.855	0.0151716
635.933	0.0149053
636.011	0.0149364
636.090	0.0151235
636.168	0.0150875
636.246	0.0149745
636.324	0.0150568
636.402	0.0150884
636.480	0.0151015
636.558	0.0149508
636.636	0.0150580
636.715	0.0150230
636.793	0.0150150
636.871	0.0149264
636.949	0.0149225
637.027	0.0151053
637.105	0.0150210
637.183	0.0150303
637.261	0.0150504
637.340	0.0149312
637.418	0.0150665
637.496	0.0151082
637.574	0.0150289
637.652	0.0149373
637.730	0.0150258
637.808	0.0151128
637.886	0.0150481
637.965	0.0150860
638.043	0.0150871
638.121	0.0150163
638.199	0.0150287
638.277	0.0150533
638.355	0.0150919
638.433	0.0149943
638.511	0.0149822
638.590	0.0150048
638.668	0.0150886
638.746	0.0149720
638.824	0.0149393
638.902	0.0149707
638.980	0.0150425
639.058	0.0150681
639.136	0.0152290
639.215	0.0150510
639.293	0.0149741
639.371	0.0150816
639.449	0.0150430
639.527	0.0151404
639.605	0.0151329
639.683	0.0149165
639.761	0.0149616
639.840	0.0149908
639.918	0.0150356
639.996	0.0151256
640.074	0.0149395
640.152	0.0151215
640.230	0.0149688
640.308	0.0150790
640.386	0.0150725
640.465	0.0151217
640.543	0.0152058
640.621	0.0150315
640.699	0.0150085
640.777	0.0150533
640.855	0.0150275
640.933	0.0150060
641.011	0.0149637
641.090	0.0151209
641.168	0.0150405
641.246	0.0151183
641.324	0.0151611
641.402	0.0150048
641.480	0.0150458
641.558	0.0151250
641.636	0.0149841
641.715	0.0150350
641.793	0.0149494
641.871	0.0150298
641.949	0.0150276
642.027	0.0150305
642.105	0.0149969
642.183	0.0149707
642.261	0.0150823
642.340	0.0149606
642.418	0.0150874
642.496	0.0150138
642.574	0.0149949
642.652	0.0149149
642.730	0.0148052
642.808	0.0151318
642.886	0.0151816
642.965	0.0149579
643.043	0.0150318
643.121	0.0149735
643.199	0.0150079
643.277	0.0149493
643.355	0.0150610
643.433	0.0150282
643.511	0.0150554
643.590	0.0151128
643.668	0.0148959
643.746	0.0150333
643.824	0.0149058
643.902	0.0150566
643.980	0.0151642
644.058	0.0150209
644.136	0.0150233
644.215	0.0150134
644.293	0.0150490
644.371	0.0150174
644.449	0.0150317
644.527	0.0150336
644.605	0.0151993
644.683	0.0151530
644.761	0.0151444
644.840	0.0149328
644.918	0.0149789
644.996	0.0149883
645.074	0.0151306
645.152	0.0151009
645.230	0.0150375
645.308	0.0150300
645.386	0.0150195
645.465	0.0150653
645.543	0.0149891
645.621	0.0151376
645.699	0.0149368
645.777	0.0151250
645.855	0.0149025
645.933	0.0150849
646.011	0.0149811
646.090	0.0149500
646.168	0.0151409
646.246	0.0150086
646.324	0.0149981
646.402	0.0150719
646.480	0.0150643
646.558	0.0150434
646.636	0.0150321
646.715	0.0149952
646.793	0.0149850
646.871	0.0151063
646.949	0.0149826
647.027	0.0149137
647.105	0.0150105
647.183	0.0150892
647.261	0.0150710
647.340	0.0150499
647.418	0.0150488
647.496	0.0149397
647.574	0.0150372
647.652	0.0150911
647.730	0.0151613
647.808	0.0148956
647.886	0.0150384
647.965	0.0149682
648.043	0.0150031
648.121	0.0150132
648.199	0.0149554
648.277	0.0150507
648.355	0.0150070
648.433	0.0150809
648.511	0.0150227
648.590	0.0151930
648.668	0.0150517
648.746	0.0149353
648.824	0.0151931
648.902	0.0150921
648.980	0.0151711
649.058	0.0149969
649.136	0.0149525
649.215	0.0149970
649.293	0.0151239
649.371	0.0149989
649.449	0.0150415
649.527	0.0149570
649.605	0.0149831
649.683	0.0149202
649.761	0.0149982
649.840	0.0149897
649.918	0.0151711
649.996	0.0151517
650.074	0.0150900
650.152	0.0149639
650.230	0.0149387
650.308	0.0150236
650.386	0.0150159
650.465	0.0151235
650.543	0.0150729
650.621	0.0150390
650.699	0.0151072
650.777	0.0151366
650.855	0.0150434
650.933	0.0149837
651.011	0.0151199
651.090	0.0150967
651.168	0.0150528
651.246	0.0150704
651.324	0.0150100
651.402	0.0150853
651.480	0.0150797
651.558	0.0151410
651.636	0.0149606
651.715	0.0149299
651.793	0.0149944
651.871	0.0149242
651.949	0.0149493
652.027	0.0150603
652.105	0.0148984
652.183	0.0150765
652.261	0.0151599
652.340	0.0150089
652.418	0.0149984
652.496	0.0149083
652.574	0.0150811
652.652	0.0151355
652.730	0.0148969
652.808	0.0150534
652.886	0.0150072
652.965	0.0152091
653.043	0.0150386
653.121	0.0149852
653.199	0.0151061
653.277	0.0151197
653.355	0.0150871
653.433	0.0151402
653.511	0.0150169
653.590	0.0150628
653.668	0.0149122
653.746	0.0151738
653.824	0.0150095
653.902	0.0151411
653.980	0.0150092
654.058	0.0149880
654.136	0.0150502
654.215	0.0150777
654.293	0.0150919
654.371	0.0150594
654.449	0.0150215
654.527	0.0150610
654.605	0.0150871
654.683	0.0150260
654.761	0.0149564
654.840	0.0150161
654.918	0.0151112
654.996	0.0150188
655.074	0.0149821
655.152	0.0151116
655.230	0.0150637
655.308	0.0150031
655.386	0.0150737
655.465	0.0149777
655.543	0.0149017
655.621	0.0149875
655.699	0.0151116
655.777	0.0150559
655.855	0.0150226
655.933	0.0150823
656.011	0.0151680
656.090	0.0151275
656.168	0.0149421
656.246	0.0149431
656.324	0.0149326
656.402	0.0151551
656.480	0.0151060
656.558	0.0149036
656.636	0.0150702
656.715	0.0149841
656.793	0.0150535
656.871	0.0150202
656.949	0.0149045
657.027	0.0149445
657.105	0.0150249
657.183	0.0150877
657.261	0.0149641
657.340	0.0150734
657.418	0.0150488
657.496	0.0150383
657.574	0.0150480
657.652	0.0150407
657.730	0.0150803
657.808	0.0151549
657.886	0.0150227
657.965	0.0150837
658.043	0.0151883
658.121	0.0150916
658.199	0.0151385
658.277	0.0149902
658.355	0.0149966
658.433	0.0149764
658.511	0.0151616
658.590	0.0151422
658.668	0.0150488
658.746	0.0150125
658.824	0.0150616
658.902	0.0150733
658.980	0.0150729
659.058	0.0150417
659.136	0.0149313
659.215	0.0152038
659.293	0.0151754
659.371	0.0151038
659.449	0.0151537
659.527	0.0151548
659.605	0.0149820
659.683	0.0150799
659.761	0.0150388
659.840	0.0150275
659.918	0.0149662
659.996	0.0150553
660.074	0.0151231
660.152	0.0150533
660.230	0.0150458
660.308	0.0149810
660.386	0.0150264
660.465	0.0149580
660.543	0.0150843
660.621	0.0150207
660.699	0.0150849
660.777	0.0150182
660.855	0.0150086
660.933	0.0150267
661.011	0.0150714
661.090	0.0151393
661.168	0.0150676
661.246	0.0150065
661.324	0.0150053
661.402	0.0150044
661.480	0.0150578
661.558	0.0150503
661.636	0.0150656
661.715	0.0150254
661.793	0.0150761
661.871	0.0150113
661.949	0.0150002
662.027	0.0151009
662.105	0.0149961
662.183	0.0149734
662.261	0.0150224
662.340	0.0149968
662.418	0.0150860
662.496	0.0150889
662.574	0.0151192
662.652	0.0150427
662.730	0.0149899
662.808	0.0151540
662.886	0.0150315
662.965	0.0149931
663.043	0.0149411
663.121	0.0150584
663.199	0.0150908
663.277	0.0150169
663.355	0.0150859
663.433	0.0150645
663.511	0.0151431
663.590	0.0152131
663.668	0.0149139
663.746	0.0149667
663.824	0.0150336
663.902	0.0149041
663.980	0.0150755
664.058	0.0149670
664.136	0.0150372
664.215	0.0149461
664.293	0.0150837
664.371	0.0150220
664.449	0.0150490
664.527	0.0151273
664.605	0.0150356
664.683	0.0151851
664.761	0.0150467
664.840	0.0151801
664.918	0.0150742
664.996	0.0150308
665.074	0.0150127
665.152	0.0151043
665.230	0.0149892
665.308	0.0150140
665.386	0.0150909
665.465	0.0151218
665.543	0.0149314
665.621	0.0149000
665.699	0.0151118
665.777	0.0151444
665.855	0.0150500
665.933	0.0150037
666.011	0.0150356
666.090	0.0149113
666.168	0.0150859
666.246	0.0150297
666.324	0.0150445
666.402	0.0151283
666.480	0.0149987
666.558	0.0149702
666.636	0.0150504
666.715	0.0150422
666.793	0.0150086
666.871	0.0150290
666.949	0.0150082
667.027	0.0150018
667.105	0.0150108
667.183	0.0150932
667.261	0.0150671
667.340	0.0149310
667.418	0.0149886
667.496	0.0149407
667.574	0.0150920
667.652	0.0151048
667.730	0.0149531
667.808	0.0149939
667.886	0.0149397
667.965	0.0150598
668.043	0.0150569
668.121	0.0150347
668.199	0.0149976
668.277	0.0151591
668.355	0.0151663
668.433	0.0150022
668.511	0.0150919
668.590	0.0151123
668.668	0.0150241
668.746	0.0150042
668.824	0.0151260
668.902	0.0149409
668.980	0.0149404
669.058	0.0150329
669.136	0.0151047
669.215	0.0150906
669.293	0.0151372
669.371	0.0151354
669.449	0.0149982
669.527	0.0150173
669.605	0.0151133
669.683	0.0149896
669.761	0.0151537
669.840	0.0150287
669.918	0.0149564
669.996	0.0150050
670.074	0.0149669
670.152	0.0150561
670.230	0.0151962
670.308	0.0150373
670.386	0.0151379
670.465	0.0150425
670.543	0.0149673
670.621	0.0150843
670.699	0.0151453
670.777	0.0150249
670.855	0.0149737
670.933	0.0150311
671.011	0.0151088
671.090	0.0151443
671.168	0.0151090
671.246	0.0150633
671.324	0.0149793
671.402	0.0151007
671.480	0.0151085
671.558	0.0151412
671.636	0.0149155
671.715	0.0150588
671.793	0.0150423
671.871	0.0150827
671.949	0.0150893
672.027	0.0150685
672.105	0.0151360
672.183	0.0150108
672.261	0.0149628
672.340	0.0150742
672.418	0.0149615
672.496	0.0149768
672.574	0.0151740
672.652	0.0150789
672.730	0.0150945
672.808	0.0150675
672.886	0.0152125
672.965	0.0150197
673.043	0.0150883
673.121	0.0151512
673.199	0.0150665
673.277	0.0149727
673.355	0.0151372
673.433	0.0150320
673.511	0.0150369
673.590	0.0150758
673.668	0.0151001
673.746	0.0150492
673.824	0.0151356
673.902	0.0150201
673.980	0.0150448
674.058	0.0151069
674.136	0.0150687
674.215	0.0150565
674.293	0.0151550
674.371	0.0151566
674.449	0.0151325
674.527	0.0150896
674.605	0.0150253
674.683	0.0149554
674.761	0.0150384
674.840	0.0151117
674.918	0.0150868
674.996	0.0149280
675.074	0.0150821
675.152	0.0151983
675.230	0.0150935
675.308	0.0149816
675.386	0.0150751
675.465	0.0149849
675.543	0.0151278
675.621	0.0150343
675.699	0.0150111
675.777	0.0150069
675.855	0.0150910
675.933	0.0150576
676.011	0.0150517
676.090	0.0149586
676.168	0.0150430
676.246	0.0150578
676.324	0.0150576
676.402	0.0151847
676.480	0.0150866
676.558	0.0149947
676.636	0.0151035
676.715	0.0150822
676.793	0.0149361
676.871	0.0150719
676.949	0.0150517
677.027	0.0149123
677.105	0.0150727
677.183	0.0150494
677.261	0.0150288
677.340	0.0151437
677.418	0.0150533
677.496	0.0149969
677.574	0.0149802
677.652	0.0150414
677.730	0.0151317
677.808	0.0150488
677.886	0.0150328
677.965	0.0150309
678.043	0.0149953
678.121	0.0150407
678.199	0.0152081
678.277	0.0152428
678.355	0.0151193
678.433	0.0151031
678.511	0.0151681
678.590	0.0149081
678.668	0.0151093
678.746	0.0151044
678.824	0.0150394
678.902	0.0151346
678.980	0.0150903
679.058	0.0151464
679.136	0.0150388
679.215	0.0150242
679.293	0.0151967
679.371	0.0150600
679.449	0.0151534
679.527	0.0151382
679.605	0.0149959
679.683	0.0149501
679.761	0.0150883
679.840	0.0151063
679.918	0.0151640
679.996	0.0150719
680.074	0.0149701
680.152	0.0150345
680.230	0.0150374
680.308	0.0149378
680.386	0.0150163
680.465	0.0150214
680.543	0.0150654
680.621	0.0150082
680.699	0.0150410
680.777	0.0150934
680.855	0.0151035
680.933	0.0149972
681.011	0.0148489
681.090	0.0149754
681.168	0.0150837
681.246	0.0151767
681.324	0.0151250
681.402	0.0150214
681.480	0.0152234
681.558	0.0150768
681.636	0.0149369
681.715	0.0150496
681.793	0.0150948
681.871	0.0151138
681.949	0.0150735
682.027	0.0150353
682.105	0.0150587
682.183	0.0149959
682.261	0.0149887
682.340	0.0151247
682.418	0.0149686
682.496	0.0150921
682.574	0.0150377
682.652	0.0150439
682.730	0.0150095
682.808	0.0150903
682.886	0.0148042
682.965	0.0151529
683.043	0.0150801
683.121	0.0149947
683.199	0.0151237
683.277	0.0150587
683.355	0.0149190
683.433	0.0150909
683.511	0.0150655
683.590	0.0150658
683.668	0.0151045
683.746	0.0149868
683.824	0.0149277
683.902	0.0151914
683.980	0.0150555
684.058	0.0151422
684.136	0.0150741
684.215	0.0149718
684.293	0.0149124
684.371	0.0149248
684.449	0.0149245
684.527	0.0149248
684.605	0.0149464
684.683	0.0149959
684.761	0.0150199
684.840	0.0151200
684.918	0.0150574
684.996	0.0150981
685.074	0.0151446
685.152	0.0150501
685.230	0.0149220
685.308	0.0151276
685.386	0.0150626
685.465	0.0150424
685.543	0.0151261
685.621	0.0152151
685.699	0.0150618
685.777	0.0149417
685.855	0.0150303
685.933	0.0150007
686.011	0.0150623
686.090	0.0148752
686.168	0.0150238
686.246	0.0150956
686.324	0.0150526
686.402	0.0150277
686.480	0.0150732
686.558	0.0151575
686.636	0.0150335
686.715	0.0150781
686.793	0.0152037
686.871	0.0151380
686.949	0.0152397
687.027	0.0150682
687.105	0.0151385
687.183	0.0151891
687.261	0.0149664
687.340	0.0149647
687.418	0.0150789
687.496	0.0149884
687.574	0.0150489
687.652	0.0151398
687.730	0.0149598
687.808	0.0150755
687.886	0.0151232
687.965	0.0151057
688.043	0.0149051
688.121	0.0149877
688.199	0.0150321
688.277	0.0150259
688.355	0.0150581
688.433	0.0150092
688.511	0.0150052
688.590	0.0149658
688.668	0.0151669
688.746	0.0150967
688.824	0.0149458
688.902	0.0149738
688.980	0.0150739
689.058	0.0149842
689.136	0.0148674
689.215	0.0148706
689.293	0.0149647
689.371	0.0149608
689.449	0.0150189
689.527	0.0149485
689.605	0.0150381
689.683	0.0150986
689.761	0.0148701
689.840	0.0149059
689.918	0.0149067
689.996	0.0147684
690.074	0.0149655
690.152	0.0148820
690.230	0.0148717
690.308	0.0149850
690.386	0.0150233
690.465	0.0149863
690.543	0.0150537
690.621	0.0152083
690.699	0.0152411
690.777	0.0151536
690.855	0.0151260
690.933	0.0151321
691.011	0.0150212
691.090	0.0150566
691.168	0.0150098
691.246	0.0149893
691.324	0.0148029
691.402	0.0148051
691.480	0.0149601
691.558	0.0151203
691.636	0.0150100
691.715	0.0149850
691.793	0.0150349
691.871	0.0151305
691.949	0.0150860
692.027	0.0149960
692.105	0.0149494
692.183	0.0150294
692.261	0.0150160
692.340	0.0150268
692.418	0.0151326
692.496	0.0151978
692.574	0.0150591
692.652	0.0149686
692.730	0.0149834
692.808	0.0150993
692.886	0.0151205
692.965	0.0150220
693.043	0.0150216
693.121	0.0150361
693.199	0.0149535
693.277	0.0148691
693.355	0.0150014
693.433	0.0150909
693.511	0.0150270
693.590	0.0151201
693.668	0.0150562
693.746	0.0150643
693.824	0.0152172
693.902	0.0150204
693.980	0.0148975
694.058	0.0149631
694.136	0.0150405
694.215	0.0149469
694.293	0.0148421
694.371	0.0150043
694.449	0.0148988
694.527	0.0150563
694.605	0.0152011
694.683	0.0150322
694.761	0.0151325
694.840	0.0153118
694.918	0.0152079
694.996	0.0151244
695.074	0.0152846
695.152	0.0152360
695.230	0.0151231
695.308	0.0150553
695.386	0.0149884
695.465	0.0150585
695.543	0.0151132
695.621	0.0150233
695.699	0.0149790
695.777	0.0149036
695.855	0.0150240
695.933	0.0149342
696.011	0.0149361
696.090	0.0150282
696.168	0.0150103
696.246	0.0150548
696.324	0.0152355
696.402	0.0151517
696.480	0.0150698
696.558	0.0151353
696.636	0.0151522
696.715	0.0151832
696.793	0.0150173
696.871	0.0152179
696.949	0.0149963
697.027	0.0150555
697.105	0.0150297
697.183	0.0149470
697.261	0.0150679
697.340	0.0148991
697.418	0.0149823
697.496	0.0151461
697.574	0.0149866
697.652	0.0150629
697.730	0.0152191
697.808	0.0150771
697.886	0.0149847
697.965	0.0150145
698.043	0.0150442
698.121	0.0149568
698.199	0.0149171
698.277	0.0149023
698.355	0.0147847
698.433	0.0147747
698.511	0.0148094
698.590	0.0147868
698.668	0.0148625
698.746	0.0148260
698.824	0.0150837
698.902	0.0150465
698.980	0.0151936
699.058	0.0151012
699.136	0.0152640
699.215	0.0152036
699.293	0.0152724
699.371	0.0153822
699.449	0.0150976
699.527	0.0152460
699.605	0.0149895
699.683	0.0150831
699.761	0.0148986
699.840	0.0148526
699.918	0.0149281
699.996	0.0148449
700.074	0.0149298
700.152	0.0148888
700.230	0.0148392
700.308	0.0148502
700.386	0.0148731
700.465	0.0151263
700.543	0.0151597
700.621	0.0150181
700.699	0.0152671
700.777	0.0152197
700.855	0.0152072
700.933	0.0153725
701.011	0.0152999
701.090	0.0151479
701.168	0.0153445
701.246	0.0150918
701.324	0.0150957
701.402	0.0150839
701.480	0.0150063
701.558	0.0148734
701.636	0.0149598
701.715	0.0148661
701.793	0.0149022
701.871	0.0147705
701.949	0.0149249
702.027	0.0149011
702.105	0.0149535
702.183	0.0149108
702.261	0.0150348
702.340	0.0149373
702.418	0.0150564
702.496	0.0150642
702.574	0.0151449
702.652	0.0151404
702.730	0.0151644
702.808	0.0151829
702.886	0.0150896
702.965	0.0151994
703.043	0.0151192
703.121	0.0151317
703.199	0.0151331
703.277	0.0150795
703.355	0.0150278
703.433	0.0150201
703.511	0.0150716
703.590	0.0151760
703.668	0.0150655
703.746	0.0151310
703.824	0.0150826
703.902	0.0151261
703.980	0.0152200
704.058	0.0151841
704.136	0.0153022
704.215	0.0152145
704.293	0.0152914
704.371	0.0152540
704.449	0.0152406
704.527	0.0154109
704.605	0.0152718
704.683	0.0149968
704.761	0.0149397
704.840	0.0148977
704.918	0.0149178
704.996	0.0148603
705.074	0.0148483
705.152	0.0147684
705.230	0.0148095
705.308	0.0147837
705.386	0.0150460
705.465	0.0150080
705.543	0.0151134
705.621	0.0151447
705.699	0.0151285
705.777	0.0151927
705.855	0.0150404
705.933	0.0151577
706.011	0.0149426
706.090	0.0149039
706.168	0.0147701
706.246	0.0146207
706.324	0.0146593
706.402	0.0147596
706.480	0.0145656
706.558	0.0147353
706.636	0.0148239
706.715	0.0149403
706.793	0.0149630
706.871	0.0152771
706.949	0.0151086
707.027	0.0153239
707.105	0.0155318
707.183	0.0156371
707.261	0.0155296
707.340	0.0156850
707.418	0.0156606
707.496	0.0154832
707.574	0.0153810
707.652	0.0152879
707.730	0.0152915
707.808	0.0152356
707.886	0.0151951
707.965	0.0152193
708.043	0.0150505
708.121	0.0149704
708.199	0.0148380
708.277	0.0147775
708.355	0.0148521
708.433	0.0148157
708.511	0.0148148
708.590	0.0147800
708.668	0.0148637
708.746	0.0148952
708.824	0.0149374
708.902	0.0148769
708.980	0.0149047
709.058	0.0148516
709.136	0.0148783
709.215	0.0148398
709.293	0.0148625
709.371	0.0149204
709.449	0.0148830
709.527	0.0149754
709.605	0.0150423
709.683	0.0151588
709.761	0.0149722
709.840	0.0148415
709.918	0.0150623
709.996	0.0150998
710.074	0.0149837
710.152	0.0151327
710.230	0.0149934
710.308	0.0151355
710.386	0.0152436
710.465	0.0153157
710.543	0.0150542
710.621	0.0152261
710.699	0.0152412
710.777	0.0151049
710.855	0.0152518
710.933	0.0151472
711.011	0.0151109
711.090	0.0149828
711.168	0.0151844
711.246	0.0151418
711.324	0.0150283
711.402	0.0148616
711.480	0.0148949
711.558	0.0149497
711.636	0.0148421
711.715	0.0148364
711.793	0.0147925
711.871	0.0147038
711.949	0.0148629
712.027	0.0148725
712.105	0.0148201
712.183	0.0147642
712.261	0.0148408
712.340	0.0148991
712.418	0.0151218
712.496	0.0151315
712.574	0.0151034
712.652	0.0150703
712.730	0.0152545
712.808	0.0153073
712.886	0.0153472
712.965	0.0151169
713.043	0.0151524
713.121	0.0152607
713.199	0.0152524
713.277	0.0152213
713.355	0.0150558
713.433	0.0153040
713.511	0.0152133
713.590	0.0152929
713.668	0.0152927
713.746	0.0151548
713.824	0.0152718
713.902	0.0154543
713.980	0.0152347
714.058	0.0153851
714.136	0.0154317
714.215	0.0153145
714.293	0.0153061
714.371	0.0151173
714.449	0.0150687
714.527	0.0150793
714.605	0.0150138
714.683	0.0150379
714.761	0.0150105
714.840	0.0148392
714.918	0.0147108
714.996	0.0147470
715.074	0.0147972
715.152	0.0148631
715.230	0.0149235
715.308	0.0147482
715.386	0.0149531
715.465	0.0148347
715.543	0.0149757
715.621	0.0149542
715.699	0.0149881
