05/26/2022	00:43:49	Ver.	4.1	UNKNOWN
Optical Delay	599.988409	Delta X		0.078125	Sweeps	1	Scan Rate	0/0
Coordinates	Axis 1	NaN	Axis 2	NaN	Axis 3	NaN	Axis 4	NaN	Axis 5	NaN	Axis 6	0.000000
TX Power	0.000000	RX Power	0.000000

599.988	0.0164795
600.067	0.0164569
600.145	0.0164348
600.223	0.0165034
600.301	0.0165188
600.379	0.0164115
600.457	0.0164531
600.535	0.0164475
600.613	0.0164515
600.692	0.0164480
600.770	0.0165318
600.848	0.0165244
600.926	0.0165459
601.004	0.0163654
601.082	0.0164223
601.160	0.0164365
601.238	0.0166270
601.317	0.0165144
601.395	0.0164088
601.473	0.0165103
601.551	0.0164102
601.629	0.0165622
601.707	0.0165168
601.785	0.0165875
601.863	0.0164883
601.942	0.0165285
602.020	0.0165047
602.098	0.0164716
602.176	0.0163972
602.254	0.0164107
602.332	0.0164035
602.410	0.0165003
602.488	0.0163805
602.567	0.0165228
602.645	0.0164474
602.723	0.0164445
602.801	0.0165112
602.879	0.0165237
602.957	0.0164818
603.035	0.0164377
603.113	0.0164172
603.192	0.0163953
603.270	0.0164659
603.348	0.0165289
603.426	0.0162652
603.504	0.0164480
603.582	0.0165569
603.660	0.0165864
603.738	0.0165019
603.817	0.0164248
603.895	0.0164788
603.973	0.0165127
604.051	0.0164172
604.129	0.0164117
604.207	0.0163924
604.285	0.0165368
604.363	0.0163955
604.442	0.0165688
604.520	0.0165158
604.598	0.0164810
604.676	0.0164340
604.754	0.0164485
604.832	0.0166592
604.910	0.0165186
604.988	0.0163809
605.067	0.0164427
605.145	0.0164599
605.223	0.0165773
605.301	0.0163197
605.379	0.0165424
605.457	0.0165039
605.535	0.0166293
605.613	0.0162536
605.692	0.0164043
605.770	0.0164925
605.848	0.0165676
605.926	0.0163430
606.004	0.0164285
606.082	0.0164652
606.160	0.0164694
606.238	0.0164909
606.317	0.0165533
606.395	0.0165389
606.473	0.0164671
606.551	0.0165198
606.629	0.0164204
606.707	0.0165337
606.785	0.0164514
606.863	0.0165605
606.942	0.0166060
607.020	0.0163995
607.098	0.0164399
607.176	0.0166055
607.254	0.0166034
607.332	0.0164260
607.410	0.0164995
607.488	0.0164297
607.567	0.0164625
607.645	0.0164768
607.723	0.0165923
607.801	0.0165003
607.879	0.0164864
607.957	0.0164781
608.035	0.0164247
608.113	0.0164529
608.192	0.0165263
608.270	0.0164406
608.348	0.0165186
608.426	0.0163972
608.504	0.0164112
608.582	0.0164676
608.660	0.0164603
608.738	0.0164473
608.817	0.0164590
608.895	0.0164610
608.973	0.0164564
609.051	0.0166325
609.129	0.0164832
609.207	0.0163564
609.285	0.0166006
609.363	0.0165253
609.442	0.0164306
609.520	0.0164912
609.598	0.0165063
609.676	0.0163728
609.754	0.0164391
609.832	0.0165364
609.910	0.0164657
609.988	0.0165959
610.067	0.0164945
610.145	0.0164600
610.223	0.0165947
610.301	0.0163797
610.379	0.0165182
610.457	0.0164394
610.535	0.0163752
610.613	0.0165032
610.692	0.0164224
610.770	0.0164926
610.848	0.0164393
610.926	0.0164494
611.004	0.0163833
611.082	0.0165067
611.160	0.0164919
611.238	0.0164380
611.317	0.0164339
611.395	0.0164214
611.473	0.0164203
611.551	0.0164470
611.629	0.0164801
611.707	0.0164338
611.785	0.0164361
611.863	0.0164168
611.942	0.0164154
612.020	0.0164582
612.098	0.0165374
612.176	0.0164589
612.254	0.0163404
612.332	0.0165653
612.410	0.0165638
612.488	0.0164985
612.567	0.0164792
612.645	0.0165594
612.723	0.0166312
612.801	0.0165343
612.879	0.0164664
612.957	0.0165076
613.035	0.0165534
613.113	0.0164539
613.192	0.0163779
613.270	0.0165115
613.348	0.0164362
613.426	0.0164097
613.504	0.0164505
613.582	0.0165067
613.660	0.0165496
613.738	0.0164290
613.817	0.0165543
613.895	0.0164820
613.973	0.0164216
614.051	0.0163911
614.129	0.0163966
614.207	0.0164502
614.285	0.0164978
614.363	0.0164632
614.442	0.0164677
614.520	0.0163982
614.598	0.0164639
614.676	0.0164471
614.754	0.0163193
614.832	0.0164729
614.910	0.0165756
614.988	0.0164940
615.067	0.0167064
615.145	0.0164902
615.223	0.0164279
615.301	0.0164146
615.379	0.0164603
615.457	0.0163757
615.535	0.0164578
615.613	0.0165424
615.692	0.0164120
615.770	0.0165260
615.848	0.0164980
615.926	0.0165637
616.004	0.0164070
616.082	0.0164771
616.160	0.0164778
616.238	0.0164875
616.317	0.0165382
616.395	0.0164879
616.473	0.0163872
616.551	0.0164676
616.629	0.0164595
616.707	0.0164420
616.785	0.0164862
616.863	0.0164773
616.942	0.0165022
617.020	0.0163571
617.098	0.0163698
617.176	0.0165326
617.254	0.0165948
617.332	0.0165020
617.410	0.0165366
617.488	0.0165014
617.567	0.0166399
617.645	0.0165733
617.723	0.0164503
617.801	0.0164236
617.879	0.0165149
617.957	0.0164554
618.035	0.0164864
618.113	0.0164378
618.192	0.0163530
618.270	0.0165426
618.348	0.0164635
618.426	0.0163970
618.504	0.0165782
618.582	0.0164160
618.660	0.0164794
618.738	0.0164532
618.817	0.0165736
618.895	0.0164180
618.973	0.0166077
619.051	0.0167226
619.129	0.0164915
619.207	0.0163288
619.285	0.0165207
619.363	0.0165163
619.442	0.0163094
619.520	0.0163960
619.598	0.0164265
619.676	0.0166374
619.754	0.0165705
619.832	0.0164757
619.910	0.0164093
619.988	0.0163198
620.067	0.0165054
620.145	0.0164722
620.223	0.0164663
620.301	0.0165177
620.379	0.0164732
620.457	0.0164252
620.535	0.0165108
620.613	0.0165623
620.692	0.0164743
620.770	0.0164581
620.848	0.0165992
620.926	0.0166172
621.004	0.0165089
621.082	0.0165471
621.160	0.0164329
621.238	0.0164036
621.317	0.0163959
621.395	0.0164848
621.473	0.0163340
621.551	0.0163804
621.629	0.0163992
621.707	0.0165288
621.785	0.0166609
621.863	0.0165078
621.942	0.0165822
622.020	0.0164008
622.098	0.0164409
622.176	0.0165604
622.254	0.0164923
622.332	0.0165508
622.410	0.0165833
622.488	0.0164297
622.567	0.0164441
622.645	0.0165164
622.723	0.0165455
622.801	0.0164569
622.879	0.0163625
622.957	0.0165554
623.035	0.0164424
623.113	0.0165918
623.192	0.0164852
623.270	0.0164490
623.348	0.0164241
623.426	0.0164882
623.504	0.0164718
623.582	0.0165069
623.660	0.0164668
623.738	0.0163994
623.817	0.0164777
623.895	0.0164814
623.973	0.0163297
624.051	0.0163935
624.129	0.0164212
624.207	0.0163846
624.285	0.0165147
624.363	0.0164465
624.442	0.0165529
624.520	0.0164966
624.598	0.0165955
624.676	0.0165434
624.754	0.0164590
624.832	0.0164279
624.910	0.0163141
624.988	0.0164948
625.067	0.0165474
625.145	0.0165281
625.223	0.0165446
625.301	0.0164685
625.379	0.0163715
625.457	0.0164850
625.535	0.0163785
625.613	0.0163232
625.692	0.0164489
625.770	0.0164699
625.848	0.0164404
625.926	0.0164382
626.004	0.0164241
626.082	0.0165749
626.160	0.0164587
626.238	0.0165034
626.317	0.0164877
626.395	0.0165946
626.473	0.0164642
626.551	0.0163657
626.629	0.0165323
626.707	0.0164220
626.785	0.0163348
626.863	0.0164815
626.942	0.0164455
627.020	0.0164221
627.098	0.0165600
627.176	0.0164879
627.254	0.0165224
627.332	0.0165234
627.410	0.0165489
627.488	0.0165343
627.567	0.0165508
627.645	0.0165132
627.723	0.0164522
627.801	0.0165411
627.879	0.0165543
627.957	0.0164146
628.035	0.0165593
628.113	0.0165569
628.192	0.0164854
628.270	0.0166044
628.348	0.0166264
628.426	0.0164719
628.504	0.0163767
628.582	0.0166514
628.660	0.0166168
628.738	0.0164436
628.817	0.0164803
628.895	0.0164772
628.973	0.0164642
629.051	0.0164382
629.129	0.0164138
629.207	0.0164700
629.285	0.0164381
629.363	0.0164825
629.442	0.0166188
629.520	0.0165114
629.598	0.0163530
629.676	0.0164430
629.754	0.0165720
629.832	0.0165880
629.910	0.0164634
629.988	0.0163557
630.067	0.0164783
630.145	0.0164110
630.223	0.0165662
630.301	0.0165186
630.379	0.0164858
630.457	0.0165076
630.535	0.0165907
630.613	0.0165903
630.692	0.0164931
630.770	0.0164715
630.848	0.0165305
630.926	0.0165495
631.004	0.0164368
631.082	0.0164279
631.160	0.0165697
631.238	0.0165557
631.317	0.0165015
631.395	0.0164158
631.473	0.0165502
631.551	0.0166169
631.629	0.0164239
631.707	0.0164056
631.785	0.0165111
631.863	0.0165362
631.942	0.0164857
632.020	0.0165942
632.098	0.0165507
632.176	0.0164887
632.254	0.0165117
632.332	0.0165141
632.410	0.0166084
632.488	0.0164798
632.567	0.0165200
632.645	0.0164326
632.723	0.0163844
632.801	0.0165994
632.879	0.0165264
632.957	0.0166296
633.035	0.0165192
633.113	0.0166220
633.192	0.0165914
633.270	0.0164357
633.348	0.0166718
633.426	0.0164612
633.504	0.0164845
633.582	0.0166413
633.660	0.0165389
633.738	0.0164854
633.817	0.0164513
633.895	0.0165488
633.973	0.0164748
634.051	0.0164510
634.129	0.0165542
634.207	0.0165671
634.285	0.0163962
634.363	0.0163981
634.442	0.0166025
634.520	0.0164618
634.598	0.0165354
634.676	0.0166399
634.754	0.0164476
634.832	0.0165913
634.910	0.0164722
634.988	0.0165328
635.067	0.0164464
635.145	0.0165923
635.223	0.0166225
635.301	0.0165465
635.379	0.0164862
635.457	0.0164908
635.535	0.0166068
635.613	0.0165417
635.692	0.0165774
635.770	0.0164774
635.848	0.0165106
635.926	0.0165328
636.004	0.0164935
636.082	0.0166321
636.160	0.0166070
636.238	0.0164274
636.317	0.0165099
636.395	0.0165553
636.473	0.0164250
636.551	0.0165192
636.629	0.0164391
636.707	0.0165952
636.785	0.0166605
636.863	0.0164999
636.942	0.0164601
637.020	0.0166397
637.098	0.0163405
637.176	0.0163941
637.254	0.0165024
637.332	0.0163012
637.410	0.0165292
637.488	0.0164973
637.567	0.0164118
637.645	0.0165278
637.723	0.0164796
637.801	0.0165537
637.879	0.0164603
637.957	0.0165052
638.035	0.0164777
638.113	0.0164625
638.192	0.0165042
638.270	0.0163801
638.348	0.0164767
638.426	0.0164805
638.504	0.0164590
638.582	0.0166105
638.660	0.0165535
638.738	0.0163791
638.817	0.0164362
638.895	0.0164775
638.973	0.0164254
639.051	0.0164165
639.129	0.0164795
639.207	0.0165901
639.285	0.0165202
639.363	0.0165650
639.442	0.0164474
639.520	0.0162724
639.598	0.0163387
639.676	0.0166104
639.754	0.0165324
639.832	0.0163681
639.910	0.0164415
639.988	0.0165573
640.067	0.0166179
640.145	0.0165138
640.223	0.0163902
640.301	0.0165910
640.379	0.0164483
640.457	0.0163867
640.535	0.0165045
640.613	0.0165739
640.692	0.0164752
640.770	0.0165669
640.848	0.0164819
640.926	0.0165263
641.004	0.0164983
641.082	0.0165205
641.160	0.0164854
641.238	0.0164927
641.317	0.0166289
641.395	0.0164639
641.473	0.0165187
641.551	0.0163673
641.629	0.0163563
641.707	0.0164539
641.785	0.0164974
641.863	0.0163808
641.942	0.0165105
642.020	0.0166389
642.098	0.0164616
642.176	0.0164983
642.254	0.0165112
642.332	0.0164174
642.410	0.0164363
642.488	0.0163908
642.567	0.0164802
642.645	0.0165409
642.723	0.0165281
642.801	0.0165852
642.879	0.0165147
642.957	0.0165257
643.035	0.0164812
643.113	0.0165318
643.192	0.0164794
643.270	0.0164076
643.348	0.0164174
643.426	0.0164203
643.504	0.0163821
643.582	0.0164208
643.660	0.0164314
643.738	0.0163977
643.817	0.0164981
643.895	0.0164680
643.973	0.0164833
644.051	0.0165690
644.129	0.0163795
644.207	0.0164527
644.285	0.0165008
644.363	0.0165084
644.442	0.0163852
644.520	0.0164369
644.598	0.0164625
644.676	0.0164992
644.754	0.0164876
644.832	0.0165643
644.910	0.0165648
644.988	0.0165750
645.067	0.0164256
645.145	0.0164865
645.223	0.0164362
645.301	0.0164619
645.379	0.0164484
645.457	0.0164837
645.535	0.0164814
645.613	0.0164182
645.692	0.0165047
645.770	0.0164150
645.848	0.0165202
645.926	0.0164033
646.004	0.0164252
646.082	0.0165668
646.160	0.0164573
646.238	0.0165364
646.317	0.0165042
646.395	0.0163604
646.473	0.0165630
646.551	0.0165292
646.629	0.0164392
646.707	0.0163304
646.785	0.0164710
646.863	0.0165218
646.942	0.0165772
647.020	0.0165584
647.098	0.0165468
647.176	0.0164843
647.254	0.0162910
647.332	0.0165340
647.410	0.0163892
647.488	0.0164912
647.567	0.0165203
647.645	0.0164875
647.723	0.0164932
647.801	0.0164644
647.879	0.0164426
647.957	0.0164741
648.035	0.0166190
648.113	0.0164816
648.192	0.0164546
648.270	0.0164442
648.348	0.0164747
648.426	0.0164858
648.504	0.0164774
648.582	0.0164312
648.660	0.0165143
648.738	0.0165384
648.817	0.0164330
648.895	0.0163424
648.973	0.0164685
649.051	0.0164429
649.129	0.0163692
649.207	0.0165430
649.285	0.0164065
649.363	0.0164924
649.442	0.0165338
649.520	0.0166103
649.598	0.0165666
649.676	0.0164438
649.754	0.0164271
649.832	0.0164916
649.910	0.0164348
649.988	0.0163165
650.067	0.0164907
650.145	0.0164756
650.223	0.0163830
650.301	0.0164152
650.379	0.0165890
650.457	0.0165929
650.535	0.0165080
650.613	0.0164024
650.692	0.0164982
650.770	0.0163568
650.848	0.0165490
650.926	0.0163595
651.004	0.0163994
651.082	0.0165556
651.160	0.0165678
651.238	0.0165160
651.317	0.0165009
651.395	0.0163933
651.473	0.0163783
651.551	0.0165727
651.629	0.0166499
651.707	0.0164886
651.785	0.0164189
651.863	0.0165327
651.942	0.0163760
652.020	0.0164194
652.098	0.0164803
652.176	0.0166514
652.254	0.0164889
652.332	0.0163732
652.410	0.0164876
652.488	0.0164766
652.567	0.0164347
652.645	0.0165226
652.723	0.0164382
652.801	0.0164717
652.879	0.0164973
652.957	0.0163844
653.035	0.0165123
653.113	0.0165288
653.192	0.0164542
653.270	0.0164426
653.348	0.0164143
653.426	0.0163992
653.504	0.0164025
653.582	0.0164325
653.660	0.0164641
653.738	0.0164875
653.817	0.0165660
653.895	0.0164218
653.973	0.0163425
654.051	0.0164117
654.129	0.0163620
654.207	0.0164465
654.285	0.0164211
654.363	0.0164181
654.442	0.0163699
654.520	0.0163148
654.598	0.0164094
654.676	0.0163927
654.754	0.0163579
654.832	0.0163896
654.910	0.0164794
654.988	0.0165222
655.067	0.0166008
655.145	0.0163866
655.223	0.0165016
655.301	0.0163672
655.379	0.0164378
655.457	0.0164764
655.535	0.0163372
655.613	0.0164235
655.692	0.0164763
655.770	0.0165314
655.848	0.0165087
655.926	0.0163371
656.004	0.0166059
656.082	0.0164387
656.160	0.0164288
656.238	0.0164514
656.317	0.0164287
656.395	0.0163888
656.473	0.0164572
656.551	0.0163741
656.629	0.0165199
656.707	0.0163876
656.785	0.0164371
656.863	0.0165764
656.942	0.0164867
657.020	0.0164590
657.098	0.0164958
657.176	0.0164202
657.254	0.0163628
657.332	0.0165028
657.410	0.0164541
657.488	0.0165139
657.567	0.0163510
657.645	0.0164110
657.723	0.0163938
657.801	0.0164569
657.879	0.0164496
657.957	0.0163477
658.035	0.0164561
658.113	0.0166854
658.192	0.0166007
658.270	0.0164545
658.348	0.0163533
658.426	0.0164841
658.504	0.0166380
658.582	0.0165366
658.660	0.0164229
658.738	0.0165292
658.817	0.0164835
658.895	0.0163792
658.973	0.0164429
659.051	0.0165189
659.129	0.0163744
659.207	0.0164802
659.285	0.0164729
659.363	0.0164011
659.442	0.0165150
659.520	0.0163602
659.598	0.0163795
659.676	0.0164380
659.754	0.0165502
659.832	0.0164482
659.910	0.0164386
659.988	0.0164610
660.067	0.0164861
660.145	0.0164326
660.223	0.0165279
660.301	0.0164796
660.379	0.0164805
660.457	0.0164194
660.535	0.0164839
660.613	0.0163947
660.692	0.0164384
660.770	0.0164677
660.848	0.0165147
660.926	0.0163722
661.004	0.0165214
661.082	0.0163109
661.160	0.0164112
661.238	0.0164216
661.317	0.0164848
661.395	0.0165160
661.473	0.0165408
661.551	0.0164059
661.629	0.0164191
661.707	0.0164281
661.785	0.0164328
661.863	0.0164451
661.942	0.0164905
662.020	0.0165299
662.098	0.0164360
662.176	0.0164397
662.254	0.0164986
662.332	0.0165140
662.410	0.0163926
662.488	0.0164369
662.567	0.0165673
662.645	0.0163005
662.723	0.0165204
662.801	0.0163940
662.879	0.0163541
662.957	0.0163668
663.035	0.0164780
663.113	0.0164323
663.192	0.0165600
663.270	0.0164835
663.348	0.0165327
663.426	0.0164555
663.504	0.0163615
663.582	0.0164264
663.660	0.0165462
663.738	0.0164267
663.817	0.0163936
663.895	0.0164836
663.973	0.0164991
664.051	0.0164999
664.129	0.0163378
664.207	0.0164815
664.285	0.0164910
664.363	0.0165099
664.442	0.0163883
664.520	0.0164278
664.598	0.0166312
664.676	0.0164648
664.754	0.0164700
664.832	0.0163963
664.910	0.0163651
664.988	0.0164433
665.067	0.0164704
665.145	0.0164299
665.223	0.0164719
665.301	0.0163876
665.379	0.0164050
665.457	0.0163952
665.535	0.0164397
665.613	0.0164351
665.692	0.0164194
665.770	0.0163919
665.848	0.0164034
665.926	0.0164140
666.004	0.0163766
666.082	0.0163805
666.160	0.0165667
666.238	0.0164391
666.317	0.0165452
666.395	0.0163981
666.473	0.0164658
666.551	0.0164498
666.629	0.0166115
666.707	0.0165736
666.785	0.0164185
666.863	0.0164378
666.942	0.0163947
667.020	0.0165519
667.098	0.0164334
667.176	0.0163161
667.254	0.0165607
667.332	0.0164740
667.410	0.0164120
667.488	0.0164667
667.567	0.0163256
667.645	0.0164973
667.723	0.0163887
667.801	0.0164147
667.879	0.0166036
667.957	0.0163970
668.035	0.0163908
668.113	0.0163078
668.192	0.0164913
668.270	0.0164586
668.348	0.0165731
668.426	0.0164636
668.504	0.0165215
668.582	0.0165462
668.660	0.0164587
668.738	0.0164321
668.817	0.0164182
668.895	0.0164572
668.973	0.0165543
669.051	0.0165114
669.129	0.0163936
669.207	0.0164755
669.285	0.0165659
669.363	0.0166273
669.442	0.0164375
669.520	0.0163197
669.598	0.0165118
669.676	0.0164494
669.754	0.0165530
669.832	0.0164552
669.910	0.0164242
669.988	0.0164703
670.067	0.0162386
670.145	0.0164397
670.223	0.0165663
670.301	0.0164977
670.379	0.0166129
670.457	0.0165478
670.535	0.0162727
670.613	0.0163746
670.692	0.0166139
670.770	0.0166006
670.848	0.0165181
670.926	0.0164419
671.004	0.0165392
671.082	0.0166243
671.160	0.0163439
671.238	0.0164034
671.317	0.0164654
671.395	0.0165917
671.473	0.0164820
671.551	0.0164538
671.629	0.0164520
671.707	0.0164944
671.785	0.0163112
671.863	0.0165192
671.942	0.0164463
672.020	0.0163976
672.098	0.0164289
672.176	0.0165117
672.254	0.0165370
672.332	0.0164490
672.410	0.0164018
672.488	0.0163388
672.567	0.0164041
672.645	0.0165008
672.723	0.0164211
672.801	0.0164263
672.879	0.0164711
672.957	0.0164046
673.035	0.0164732
673.113	0.0165132
673.192	0.0165176
673.270	0.0163476
673.348	0.0162737
673.426	0.0165112
673.504	0.0164593
673.582	0.0165517
673.660	0.0164189
673.738	0.0165034
673.817	0.0164461
673.895	0.0164825
673.973	0.0165144
674.051	0.0164758
674.129	0.0165383
674.207	0.0165845
674.285	0.0163850
674.363	0.0164744
674.442	0.0163842
674.520	0.0164239
674.598	0.0163940
674.676	0.0164400
674.754	0.0163554
674.832	0.0165836
674.910	0.0164329
674.988	0.0165022
675.067	0.0164611
675.145	0.0164676
675.223	0.0164609
675.301	0.0163139
675.379	0.0164137
675.457	0.0165991
675.535	0.0163619
675.613	0.0163905
675.692	0.0164052
675.770	0.0165833
675.848	0.0165768
675.926	0.0165051
676.004	0.0163756
676.082	0.0162981
676.160	0.0164135
676.238	0.0164987
676.317	0.0164610
676.395	0.0163721
676.473	0.0163411
676.551	0.0164998
676.629	0.0165319
676.707	0.0164151
676.785	0.0163655
676.863	0.0164308
676.942	0.0165086
677.020	0.0164092
677.098	0.0163696
677.176	0.0164534
677.254	0.0165697
677.332	0.0165279
677.410	0.0164449
677.488	0.0164188
677.567	0.0164892
677.645	0.0164665
677.723	0.0165472
677.801	0.0165270
677.879	0.0164622
677.957	0.0165643
678.035	0.0165237
678.113	0.0164631
678.192	0.0163870
678.270	0.0164522
678.348	0.0166552
678.426	0.0165052
678.504	0.0164426
678.582	0.0164046
678.660	0.0163584
678.738	0.0164919
678.817	0.0164996
678.895	0.0164353
678.973	0.0165150
679.051	0.0164644
679.129	0.0164444
679.207	0.0164977
679.285	0.0165132
679.363	0.0165993
679.442	0.0164722
679.520	0.0164232
679.598	0.0164624
679.676	0.0165005
679.754	0.0164155
679.832	0.0163463
679.910	0.0165167
679.988	0.0163712
680.067	0.0164233
680.145	0.0166124
680.223	0.0164434
680.301	0.0164078
680.379	0.0163292
680.457	0.0166474
680.535	0.0164682
680.613	0.0163284
680.692	0.0165607
680.770	0.0165208
680.848	0.0166028
680.926	0.0163950
681.004	0.0164420
681.082	0.0164623
681.160	0.0165542
681.238	0.0164675
681.317	0.0164405
681.395	0.0163541
681.473	0.0166100
681.551	0.0165594
681.629	0.0165177
681.707	0.0165401
681.785	0.0165515
681.863	0.0164165
681.942	0.0164772
682.020	0.0164179
682.098	0.0165242
682.176	0.0165084
682.254	0.0165044
682.332	0.0165744
682.410	0.0164323
682.488	0.0163805
682.567	0.0164595
682.645	0.0165801
682.723	0.0164980
682.801	0.0165449
682.879	0.0165283
682.957	0.0165744
683.035	0.0163587
683.113	0.0164358
683.192	0.0165759
683.270	0.0165221
683.348	0.0162141
683.426	0.0165699
683.504	0.0164671
683.582	0.0162961
683.660	0.0165063
683.738	0.0165904
683.817	0.0164953
683.895	0.0165392
683.973	0.0163374
684.051	0.0163561
684.129	0.0163715
684.207	0.0164793
684.285	0.0166379
684.363	0.0165041
684.442	0.0164318
684.520	0.0165785
684.598	0.0164705
684.676	0.0163807
684.754	0.0164571
684.832	0.0165051
684.910	0.0164584
684.988	0.0166537
685.067	0.0163711
685.145	0.0166406
685.223	0.0164819
685.301	0.0165453
685.379	0.0164368
685.457	0.0165125
685.535	0.0164867
685.613	0.0165221
685.692	0.0164258
