05/14/2022	16:34:21	Ver.	4.1	UNKNOWN
Optical Delay	639.989416	Delta X		0.078125	Sweeps	1	Scan Rate	0/0
Coordinates	Axis 1	NaN	Axis 2	NaN	Axis 3	NaN	Axis 4	NaN	Axis 5	NaN	Axis 6	0.000000
TX Power	0.000000	RX Power	0.000000

639.989	0.0131428
640.068	0.0129816
640.146	0.0128672
640.224	0.0130842
640.302	0.0131010
640.380	0.0131046
640.458	0.0130256
640.536	0.0130138
640.614	0.0129131
640.693	0.0130563
640.771	0.0129252
640.849	0.0128305
640.927	0.0129632
641.005	0.0129250
641.083	0.0130194
641.161	0.0128893
641.239	0.0130070
641.318	0.0129398
641.396	0.0129604
641.474	0.0128711
641.552	0.0129079
641.630	0.0130394
641.708	0.0128999
641.786	0.0129671
641.864	0.0129755
641.943	0.0128026
642.021	0.0128909
642.099	0.0129349
642.177	0.0129705
642.255	0.0129313
642.333	0.0127493
642.411	0.0129505
642.489	0.0131184
642.568	0.0128663
642.646	0.0128918
642.724	0.0129797
642.802	0.0129727
642.880	0.0128766
642.958	0.0130100
643.036	0.0130190
643.114	0.0129179
643.193	0.0129413
643.271	0.0128363
643.349	0.0128560
643.427	0.0129069
643.505	0.0129374
643.583	0.0129527
643.661	0.0126968
643.739	0.0128660
643.818	0.0130223
643.896	0.0129171
643.974	0.0128705
644.052	0.0129939
644.130	0.0128204
644.208	0.0127377
644.286	0.0129656
644.364	0.0128720
644.443	0.0127246
644.521	0.0128051
644.599	0.0128745
644.677	0.0128172
644.755	0.0129802
644.833	0.0129263
644.911	0.0128928
644.989	0.0128540
645.068	0.0128530
645.146	0.0129916
645.224	0.0129724
645.302	0.0128154
645.380	0.0129047
645.458	0.0127814
645.536	0.0129578
645.614	0.0129086
645.693	0.0129179
645.771	0.0129749
645.849	0.0130074
645.927	0.0128599
646.005	0.0127963
646.083	0.0131210
646.161	0.0129112
646.239	0.0129774
646.318	0.0129092
646.396	0.0129678
646.474	0.0129059
646.552	0.0129075
646.630	0.0129441
646.708	0.0127888
646.786	0.0130418
646.864	0.0129086
646.943	0.0129208
647.021	0.0129176
647.099	0.0129447
647.177	0.0129552
647.255	0.0130093
647.333	0.0130074
647.411	0.0130070
647.489	0.0128963
647.568	0.0130141
647.646	0.0130054
647.724	0.0129929
647.802	0.0130392
647.880	0.0130661
647.958	0.0130939
648.036	0.0129568
648.114	0.0130527
648.193	0.0131365
648.271	0.0129644
648.349	0.0129138
648.427	0.0130095
648.505	0.0129411
648.583	0.0129811
648.661	0.0130816
648.739	0.0131150
648.818	0.0129665
648.896	0.0130211
648.974	0.0130355
649.052	0.0129286
649.130	0.0132167
649.208	0.0129851
649.286	0.0129058
649.364	0.0131274
649.443	0.0130476
649.521	0.0129845
649.599	0.0131710
649.677	0.0130640
649.755	0.0129866
649.833	0.0130497
649.911	0.0131805
649.989	0.0130866
650.068	0.0130151
650.146	0.0130434
650.224	0.0131185
650.302	0.0130929
650.380	0.0129530
650.458	0.0130071
650.536	0.0129641
650.614	0.0131622
650.693	0.0132365
650.771	0.0131203
650.849	0.0131323
650.927	0.0130785
651.005	0.0129942
651.083	0.0130376
651.161	0.0131060
651.239	0.0131371
651.318	0.0131961
651.396	0.0130740
651.474	0.0129211
651.552	0.0130672
651.630	0.0131443
651.708	0.0130277
651.786	0.0130509
651.864	0.0131396
651.943	0.0131135
652.021	0.0130221
652.099	0.0130878
652.177	0.0129449
652.255	0.0131555
652.333	0.0131877
652.411	0.0130885
652.489	0.0130813
652.568	0.0131151
652.646	0.0130323
652.724	0.0130934
652.802	0.0130801
652.880	0.0130576
652.958	0.0130572
653.036	0.0129286
653.114	0.0131582
653.193	0.0130351
653.271	0.0131112
653.349	0.0131409
653.427	0.0129391
653.505	0.0131389
653.583	0.0130593
653.661	0.0130058
653.739	0.0131767
653.818	0.0132751
653.896	0.0131458
653.974	0.0130631
654.052	0.0132407
654.130	0.0130888
654.208	0.0130624
654.286	0.0130174
654.364	0.0132442
654.443	0.0132076
654.521	0.0131165
654.599	0.0130496
654.677	0.0131588
654.755	0.0130886
654.833	0.0131039
654.911	0.0131428
654.989	0.0130876
655.068	0.0131473
655.146	0.0132373
655.224	0.0129716
655.302	0.0130148
655.380	0.0133038
655.458	0.0131493
655.536	0.0131205
655.614	0.0130481
655.693	0.0131641
655.771	0.0131027
655.849	0.0131239
655.927	0.0131219
656.005	0.0131261
656.083	0.0130440
656.161	0.0130505
656.239	0.0132082
656.318	0.0131580
656.396	0.0130749
656.474	0.0131117
656.552	0.0129929
656.630	0.0131251
656.708	0.0132643
656.786	0.0131997
656.864	0.0130505
656.943	0.0131137
657.021	0.0130804
657.099	0.0132325
657.177	0.0130722
657.255	0.0131332
657.333	0.0132018
657.411	0.0129719
657.489	0.0129967
657.568	0.0130669
657.646	0.0130666
657.724	0.0129353
657.802	0.0131144
657.880	0.0129839
657.958	0.0130938
658.036	0.0131981
658.114	0.0131078
658.193	0.0131256
658.271	0.0131165
658.349	0.0129248
658.427	0.0129776
658.505	0.0131515
658.583	0.0130423
658.661	0.0131135
658.739	0.0130562
658.818	0.0130766
658.896	0.0128837
658.974	0.0131266
659.052	0.0131136
659.130	0.0130368
659.208	0.0131195
659.286	0.0130460
659.364	0.0130957
659.443	0.0131161
659.521	0.0129020
659.599	0.0130793
659.677	0.0131383
659.755	0.0128773
659.833	0.0129531
659.911	0.0131278
659.989	0.0130446
660.068	0.0129052
660.146	0.0130344
660.224	0.0131706
660.302	0.0129720
660.380	0.0130901
660.458	0.0130299
660.536	0.0130853
660.614	0.0129448
660.693	0.0130486
660.771	0.0130182
660.849	0.0129710
660.927	0.0131074
661.005	0.0130215
661.083	0.0130084
661.161	0.0130727
661.239	0.0130140
661.318	0.0130574
661.396	0.0129951
661.474	0.0130364
661.552	0.0129963
661.630	0.0130613
661.708	0.0128643
661.786	0.0130788
661.864	0.0131767
661.943	0.0130804
662.021	0.0129310
662.099	0.0131144
662.177	0.0132079
662.255	0.0130424
662.333	0.0130315
662.411	0.0131049
662.489	0.0131172
662.568	0.0130576
662.646	0.0130481
662.724	0.0130056
662.802	0.0130904
662.880	0.0130558
662.958	0.0130180
663.036	0.0131004
663.114	0.0131386
663.193	0.0130569
663.271	0.0130946
663.349	0.0130983
663.427	0.0130868
663.505	0.0129478
663.583	0.0130933
663.661	0.0128292
663.739	0.0129449
663.818	0.0129089
663.896	0.0129131
663.974	0.0130382
664.052	0.0129559
664.130	0.0130816
664.208	0.0130034
664.286	0.0130667
664.364	0.0130290
664.443	0.0130502
664.521	0.0130090
664.599	0.0129520
664.677	0.0130314
664.755	0.0130795
664.833	0.0129752
664.911	0.0130069
664.989	0.0130785
665.068	0.0130227
665.146	0.0129399
665.224	0.0129064
665.302	0.0131689
665.380	0.0131203
665.458	0.0129151
665.536	0.0129419
665.614	0.0130463
665.693	0.0130845
665.771	0.0129344
665.849	0.0130037
665.927	0.0128429
666.005	0.0129501
666.083	0.0128978
666.161	0.0130941
666.239	0.0130154
666.318	0.0129727
666.396	0.0129585
666.474	0.0130900
666.552	0.0131516
666.630	0.0130867
666.708	0.0130598
666.786	0.0130683
666.864	0.0129599
666.943	0.0128644
667.021	0.0129739
667.099	0.0131143
667.177	0.0131934
667.255	0.0129504
667.333	0.0130584
667.411	0.0129163
667.489	0.0130699
667.568	0.0129739
667.646	0.0130125
667.724	0.0130223
667.802	0.0130853
667.880	0.0129665
667.958	0.0131153
668.036	0.0129640
668.114	0.0130448
668.193	0.0130653
668.271	0.0131741
668.349	0.0129353
668.427	0.0130579
668.505	0.0131156
668.583	0.0130477
668.661	0.0129510
668.739	0.0130572
668.818	0.0130079
668.896	0.0130845
668.974	0.0131053
669.052	0.0131215
669.130	0.0129879
669.208	0.0130097
669.286	0.0129609
669.364	0.0129532
669.443	0.0129761
669.521	0.0130547
669.599	0.0129164
669.677	0.0130108
669.755	0.0129484
669.833	0.0130238
669.911	0.0130089
669.989	0.0130605
670.068	0.0128625
670.146	0.0128355
670.224	0.0130257
670.302	0.0128587
670.380	0.0129848
670.458	0.0129987
670.536	0.0130916
670.614	0.0131430
670.693	0.0130555
670.771	0.0130382
670.849	0.0129487
670.927	0.0129129
671.005	0.0130076
671.083	0.0129587
671.161	0.0129258
671.239	0.0128657
671.318	0.0128806
671.396	0.0128935
671.474	0.0130661
671.552	0.0128398
671.630	0.0129514
671.708	0.0129994
671.786	0.0129874
671.864	0.0130496
671.943	0.0130537
672.021	0.0129017
672.099	0.0129355
672.177	0.0130231
672.255	0.0130458
672.333	0.0129810
672.411	0.0130205
672.489	0.0131321
672.568	0.0131537
672.646	0.0130716
672.724	0.0130021
672.802	0.0131197
672.880	0.0131350
672.958	0.0129652
673.036	0.0129857
673.114	0.0131120
673.193	0.0131357
673.271	0.0129490
673.349	0.0130722
673.427	0.0129948
673.505	0.0128647
673.583	0.0128712
673.661	0.0131003
673.739	0.0129942
673.818	0.0130780
673.896	0.0128926
673.974	0.0130334
674.052	0.0129853
674.130	0.0129718
674.208	0.0128665
674.286	0.0129939
674.364	0.0131242
674.443	0.0131231
674.521	0.0129677
674.599	0.0129646
674.677	0.0131208
674.755	0.0130786
674.833	0.0130712
674.911	0.0130296
674.989	0.0131178
675.068	0.0130856
675.146	0.0129571
675.224	0.0130377
675.302	0.0130583
675.380	0.0130558
675.458	0.0130244
675.536	0.0129804
675.614	0.0127901
675.693	0.0131333
675.771	0.0129147
675.849	0.0129533
675.927	0.0129284
676.005	0.0128605
676.083	0.0128439
676.161	0.0128075
676.239	0.0129954
676.318	0.0129383
676.396	0.0128578
676.474	0.0129311
676.552	0.0129554
676.630	0.0128111
676.708	0.0129501
676.786	0.0128501
676.864	0.0129643
676.943	0.0130053
677.021	0.0129587
677.099	0.0129746
677.177	0.0128426
677.255	0.0129546
677.333	0.0128268
677.411	0.0128779
677.489	0.0129433
677.568	0.0130079
677.646	0.0130299
677.724	0.0130752
677.802	0.0130983
677.880	0.0132062
677.958	0.0132441
678.036	0.0133084
678.114	0.0133447
678.193	0.0132076
678.271	0.0133482
678.349	0.0133552
678.427	0.0132027
678.505	0.0132073
678.583	0.0131593
678.661	0.0130099
678.739	0.0130275
678.818	0.0128748
678.896	0.0127705
678.974	0.0127419
679.052	0.0126561
679.130	0.0125832
679.208	0.0125224
679.286	0.0125234
679.364	0.0126155
679.443	0.0126958
679.521	0.0127089
679.599	0.0125635
679.677	0.0128007
679.755	0.0128376
679.833	0.0130399
679.911	0.0131100
679.989	0.0132338
680.068	0.0133998
680.146	0.0135904
680.224	0.0139180
680.302	0.0139584
680.380	0.0139072
680.458	0.0140762
680.536	0.0141050
680.614	0.0142760
680.693	0.0142091
680.771	0.0141101
680.849	0.0140601
680.927	0.0138404
681.005	0.0136507
681.083	0.0133517
681.161	0.0132029
681.239	0.0129762
681.318	0.0127309
681.396	0.0123904
681.474	0.0121706
681.552	0.0119673
681.630	0.0118008
681.708	0.0117880
681.786	0.0116796
681.864	0.0117146
681.943	0.0116196
682.021	0.0118231
682.099	0.0119784
682.177	0.0121993
682.255	0.0122462
682.333	0.0125441
682.411	0.0127888
682.489	0.0130464
682.568	0.0132681
682.646	0.0135089
682.724	0.0138799
682.802	0.0140099
682.880	0.0143283
682.958	0.0144643
683.036	0.0146901
683.114	0.0146140
683.193	0.0148465
683.271	0.0147546
683.349	0.0146604
683.427	0.0147122
683.505	0.0145646
683.583	0.0142882
683.661	0.0141309
683.739	0.0139019
683.818	0.0137617
683.896	0.0134156
683.974	0.0132715
684.052	0.0127390
684.130	0.0125269
684.208	0.0124047
684.286	0.0120578
684.364	0.0117918
684.443	0.0117311
684.521	0.0114588
684.599	0.0114225
684.677	0.0113103
684.755	0.0112846
684.833	0.0110830
684.911	0.0112709
684.989	0.0113121
685.068	0.0114484
685.146	0.0116481
685.224	0.0117082
685.302	0.0119076
685.380	0.0121581
685.458	0.0124609
685.536	0.0126115
685.614	0.0129527
685.693	0.0131378
685.771	0.0134571
685.849	0.0139720
685.927	0.0141721
686.005	0.0143776
686.083	0.0149103
686.161	0.0150614
686.239	0.0152153
686.318	0.0155488
686.396	0.0154552
686.474	0.0153948
686.552	0.0153204
686.630	0.0153517
686.708	0.0150409
686.786	0.0147057
686.864	0.0143549
686.943	0.0140995
687.021	0.0135991
687.099	0.0130680
687.177	0.0125360
687.255	0.0122513
687.333	0.0118652
687.411	0.0115045
687.489	0.0112424
687.568	0.0109481
687.646	0.0108597
687.724	0.0109390
687.802	0.0108777
687.880	0.0108292
687.958	0.0111076
688.036	0.0113429
688.114	0.0114156
688.193	0.0117941
688.271	0.0119312
688.349	0.0123689
688.427	0.0128202
688.505	0.0131306
688.583	0.0134614
688.661	0.0137375
688.739	0.0140234
688.818	0.0141035
688.896	0.0142464
688.974	0.0143040
689.052	0.0143841
689.130	0.0145107
689.208	0.0145239
689.286	0.0142398
689.364	0.0141453
689.443	0.0140219
689.521	0.0137252
689.599	0.0135703
689.677	0.0131318
689.755	0.0128327
689.833	0.0125588
689.911	0.0122359
689.989	0.0118408
690.068	0.0116510
690.146	0.0115460
690.224	0.0112743
690.302	0.0110544
690.380	0.0109781
690.458	0.0111787
690.536	0.0111656
690.614	0.0111812
690.693	0.0114167
690.771	0.0117307
690.849	0.0120780
690.927	0.0125931
691.005	0.0130174
691.083	0.0133115
691.161	0.0138267
691.239	0.0144463
691.318	0.0148080
691.396	0.0153062
691.474	0.0155073
691.552	0.0158645
691.630	0.0160042
691.708	0.0160945
691.786	0.0160212
691.864	0.0158828
691.943	0.0157563
692.021	0.0155340
692.099	0.0152271
692.177	0.0148708
692.255	0.0144383
692.333	0.0140662
692.411	0.0138450
692.489	0.0134229
692.568	0.0128846
692.646	0.0125246
692.724	0.0119833
692.802	0.0117146
692.880	0.0112717
692.958	0.0109632
693.036	0.0105693
693.114	0.0102083
693.193	0.00991920
693.271	0.00975235
693.349	0.00949081
693.427	0.00947189
693.505	0.00939186
693.583	0.00952820
693.661	0.00964218
693.739	0.00984390
693.818	0.0101434
693.896	0.0104288
693.974	0.0107600
694.052	0.0113522
694.130	0.0117722
694.208	0.0122643
694.286	0.0127173
694.364	0.0131488
694.443	0.0134418
694.521	0.0139245
694.599	0.0144666
694.677	0.0146705
694.755	0.0149564
694.833	0.0153520
694.911	0.0157253
694.989	0.0159120
695.068	0.0161514
695.146	0.0162859
695.224	0.0163735
695.302	0.0164534
695.380	0.0165553
695.458	0.0165465
695.536	0.0164233
695.614	0.0162132
695.693	0.0161253
695.771	0.0157158
695.849	0.0152896
695.927	0.0150996
696.005	0.0146815
696.083	0.0143278
696.161	0.0137926
696.239	0.0133845
696.318	0.0130550
696.396	0.0127158
696.474	0.0123877
696.552	0.0121153
696.630	0.0118810
696.708	0.0116688
696.786	0.0115102
696.864	0.0113759
696.943	0.0112983
697.021	0.0112596
697.099	0.0111479
697.177	0.0111344
697.255	0.0110091
697.333	0.0110027
697.411	0.0110426
697.489	0.0108833
697.568	0.0107890
697.646	0.0105920
697.724	0.0103436
697.802	0.0103720
697.880	0.0103062
697.958	0.0101821
698.036	0.0105006
698.114	0.0106073
698.193	0.0107705
698.271	0.0110583
698.349	0.0113650
698.427	0.0116220
698.505	0.0121050
698.583	0.0123659
698.661	0.0126614
698.739	0.0131377
698.818	0.0135328
698.896	0.0138751
698.974	0.0141653
699.052	0.0146178
699.130	0.0148861
699.208	0.0152474
699.286	0.0154655
699.364	0.0156991
699.443	0.0158511
699.521	0.0160221
699.599	0.0158527
699.677	0.0158540
699.755	0.0159969
699.833	0.0155840
699.911	0.0153886
699.989	0.0153374
700.068	0.0150380
700.146	0.0145136
700.224	0.0143465
700.302	0.0140515
700.380	0.0137576
700.458	0.0137224
700.536	0.0136208
700.614	0.0133725
700.693	0.0132006
700.771	0.0134852
700.849	0.0133205
700.927	0.0132716
701.005	0.0133002
701.083	0.0132281
701.161	0.0132027
701.239	0.0131446
701.318	0.0131743
701.396	0.0129404
701.474	0.0127502
701.552	0.0127735
701.630	0.0125897
701.708	0.0123777
701.786	0.0124207
701.864	0.0123309
701.943	0.0122833
702.021	0.0120699
702.099	0.0120863
702.177	0.0118278
702.255	0.0116795
702.333	0.0113312
702.411	0.0112427
702.489	0.0110134
702.568	0.0106174
702.646	0.0104266
702.724	0.0103691
702.802	0.0102646
702.880	0.0102757
702.958	0.0103491
703.036	0.0104067
703.114	0.0103886
703.193	0.0107330
703.271	0.0111314
703.349	0.0114852
703.427	0.0116344
703.505	0.0119060
703.583	0.0122338
703.661	0.0124989
703.739	0.0130083
703.818	0.0130653
703.896	0.0131780
703.974	0.0134826
704.052	0.0134676
704.130	0.0136764
704.208	0.0136959
704.286	0.0138505
704.364	0.0142151
704.443	0.0142588
704.521	0.0143967
704.599	0.0145078
704.677	0.0148911
704.755	0.0149185
704.833	0.0152522
704.911	0.0153484
704.989	0.0154969
705.068	0.0158142
705.146	0.0159974
705.224	0.0162045
705.302	0.0162870
705.380	0.0165312
705.458	0.0165802
705.536	0.0166282
705.614	0.0165649
705.693	0.0166441
705.771	0.0164395
705.849	0.0162724
705.927	0.0161199
706.005	0.0158123
706.083	0.0153849
706.161	0.0148090
706.239	0.0144294
706.318	0.0141228
706.396	0.0135312
706.474	0.0129288
706.552	0.0123684
706.630	0.0118081
706.708	0.0112176
706.786	0.0107909
706.864	0.0103333
706.943	0.00960564
707.021	0.00907883
707.099	0.00870201
707.177	0.00810539
707.255	0.00797424
707.333	0.00784409
707.411	0.00771584
707.489	0.00758575
707.568	0.00764458
707.646	0.00818260
707.724	0.00834106
707.802	0.00880096
707.880	0.00925667
707.958	0.00992523
708.036	0.0104992
708.114	0.0112271
708.193	0.0119999
708.271	0.0125708
708.349	0.0131073
708.427	0.0136002
708.505	0.0140732
708.583	0.0144884
708.661	0.0147973
708.739	0.0148608
708.818	0.0150914
708.896	0.0153262
708.974	0.0154375
709.052	0.0154594
709.130	0.0153658
709.208	0.0154421
709.286	0.0156537
709.364	0.0156237
709.443	0.0155485
709.521	0.0153674
709.599	0.0154343
709.677	0.0152875
709.755	0.0153422
709.833	0.0153040
709.911	0.0152401
709.989	0.0150146
710.068	0.0148972
710.146	0.0146468
710.224	0.0146021
710.302	0.0144753
710.380	0.0144650
710.458	0.0143769
710.536	0.0142926
710.614	0.0141962
710.693	0.0142995
710.771	0.0142645
710.849	0.0143764
710.927	0.0143318
711.005	0.0141647
711.083	0.0141884
711.161	0.0142479
711.239	0.0141187
711.318	0.0140046
711.396	0.0139310
711.474	0.0137312
711.552	0.0134166
711.630	0.0133633
711.708	0.0132214
711.786	0.0127385
711.864	0.0125514
711.943	0.0122842
712.021	0.0120892
712.099	0.0117033
712.177	0.0115077
712.255	0.0112045
712.333	0.0108903
712.411	0.0107089
712.489	0.0102588
712.568	0.0101535
712.646	0.00989807
712.724	0.00969223
712.802	0.00955292
712.880	0.00949173
712.958	0.00954872
713.036	0.00950516
713.114	0.00964462
713.193	0.00999435
713.271	0.0102728
713.349	0.0106663
713.427	0.0109362
713.505	0.0111975
713.583	0.0117107
713.661	0.0119263
713.739	0.0123764
713.818	0.0127557
713.896	0.0131415
713.974	0.0135086
714.052	0.0138511
714.130	0.0142688
714.208	0.0144115
714.286	0.0148692
714.364	0.0148252
714.443	0.0150047
714.521	0.0153439
714.599	0.0154642
714.677	0.0154851
714.755	0.0153571
714.833	0.0152100
714.911	0.0153429
714.989	0.0154230
715.068	0.0151517
715.146	0.0150391
715.224	0.0148618
715.302	0.0148254
715.380	0.0146537
715.458	0.0145486
715.536	0.0143258
715.614	0.0140760
715.693	0.0139765
715.771	0.0138660
715.849	0.0137702
715.927	0.0138419
716.005	0.0136845
716.083	0.0137852
716.161	0.0137375
716.239	0.0139245
716.318	0.0140132
716.396	0.0142770
716.474	0.0143360
716.552	0.0144075
716.630	0.0145201
716.708	0.0145808
716.786	0.0145335
716.864	0.0143842
716.943	0.0141459
717.021	0.0140088
717.099	0.0137098
717.177	0.0133104
717.255	0.0130468
717.333	0.0128542
717.411	0.0123799
717.489	0.0120125
717.568	0.0117068
717.646	0.0113003
717.724	0.0111861
717.802	0.0108486
717.880	0.0107025
717.958	0.0105183
718.036	0.0102039
718.114	0.0101611
718.193	0.00998619
718.271	0.00978157
718.349	0.00978096
718.427	0.00967003
718.505	0.00971222
718.583	0.00995544
718.661	0.00996834
718.739	0.0102752
718.818	0.0104127
718.896	0.0108871
718.974	0.0113104
719.052	0.0119136
719.130	0.0123587
719.208	0.0126429
719.286	0.0130383
719.364	0.0135581
719.443	0.0139440
719.521	0.0141504
719.599	0.0146469
719.677	0.0148209
719.755	0.0149828
719.833	0.0150533
719.911	0.0151791
719.989	0.0151336
720.068	0.0152737
720.146	0.0152816
720.224	0.0151276
720.302	0.0149625
720.380	0.0145614
720.458	0.0144321
720.536	0.0141446
720.614	0.0138306
720.693	0.0137538
720.771	0.0134505
720.849	0.0131376
720.927	0.0130224
721.005	0.0129366
721.083	0.0132253
721.161	0.0131294
721.239	0.0131901
721.318	0.0133984
721.396	0.0135507
721.474	0.0137953
721.552	0.0139019
721.630	0.0141499
721.708	0.0143124
721.786	0.0143586
721.864	0.0144991
721.943	0.0143253
722.021	0.0146130
722.099	0.0144835
722.177	0.0144096
722.255	0.0143817
722.333	0.0142061
722.411	0.0139625
722.489	0.0139457
722.568	0.0138654
722.646	0.0135303
722.724	0.0134466
722.802	0.0133856
722.880	0.0129500
722.958	0.0126892
723.036	0.0127148
723.114	0.0124084
723.193	0.0121684
723.271	0.0120348
723.349	0.0117876
723.427	0.0116920
723.505	0.0114828
723.583	0.0111948
723.661	0.0111310
723.739	0.0110386
723.818	0.0108727
723.896	0.0107298
723.974	0.0106156
724.052	0.0106190
724.130	0.0105386
724.208	0.0105489
724.286	0.0105198
724.364	0.0106104
724.443	0.0108303
724.521	0.0109971
724.599	0.0113410
724.677	0.0114762
724.755	0.0117642
724.833	0.0120572
724.911	0.0123173
724.989	0.0126673
725.068	0.0129210
725.146	0.0131760
725.224	0.0133900
725.302	0.0134765
725.380	0.0136039
725.458	0.0137334
725.536	0.0137563
