05/14/2022	16:20:26	Ver.	4.1	UNKNOWN
Optical Delay	639.989416	Delta X		0.078125	Sweeps	1	Scan Rate	0/0
Coordinates	Axis 1	NaN	Axis 2	NaN	Axis 3	NaN	Axis 4	NaN	Axis 5	NaN	Axis 6	0.000000
TX Power	0.000000	RX Power	0.000000

639.989	0.0126389
640.068	0.0127109
640.146	0.0125876
640.224	0.0126546
640.302	0.0128339
640.380	0.0127537
640.458	0.0126532
640.536	0.0127946
640.614	0.0126941
640.693	0.0126443
640.771	0.0126773
640.849	0.0127226
640.927	0.0126443
641.005	0.0126993
641.083	0.0127080
641.161	0.0126887
641.239	0.0127255
641.318	0.0127008
641.396	0.0127500
641.474	0.0126378
641.552	0.0125605
641.630	0.0126218
641.708	0.0126806
641.786	0.0127573
641.864	0.0125818
641.943	0.0126215
642.021	0.0127662
642.099	0.0127875
642.177	0.0126842
642.255	0.0127326
642.333	0.0126424
642.411	0.0126145
642.489	0.0126800
642.568	0.0127046
642.646	0.0126492
642.724	0.0127007
642.802	0.0125951
642.880	0.0126791
642.958	0.0127900
643.036	0.0127724
643.114	0.0127866
643.193	0.0124853
643.271	0.0126006
643.349	0.0126243
643.427	0.0126998
643.505	0.0127368
643.583	0.0128266
643.661	0.0124870
643.739	0.0126360
643.818	0.0127256
643.896	0.0125616
643.974	0.0127248
644.052	0.0126563
644.130	0.0127318
644.208	0.0126585
644.286	0.0125809
644.364	0.0125200
644.443	0.0126052
644.521	0.0126361
644.599	0.0126926
644.677	0.0125856
644.755	0.0126952
644.833	0.0127032
644.911	0.0127324
644.989	0.0125568
645.068	0.0127502
645.146	0.0127495
645.224	0.0126631
645.302	0.0126093
645.380	0.0125539
645.458	0.0127485
645.536	0.0126917
645.614	0.0127391
645.693	0.0125081
645.771	0.0126358
645.849	0.0127413
645.927	0.0126915
646.005	0.0128745
646.083	0.0126738
646.161	0.0126735
646.239	0.0125743
646.318	0.0126796
646.396	0.0127359
646.474	0.0126331
646.552	0.0126138
646.630	0.0126533
646.708	0.0127111
646.786	0.0128231
646.864	0.0127059
646.943	0.0127191
647.021	0.0127268
647.099	0.0126392
647.177	0.0127367
647.255	0.0126887
647.333	0.0125924
647.411	0.0126687
647.489	0.0125657
647.568	0.0125911
647.646	0.0126612
647.724	0.0126267
647.802	0.0126928
647.880	0.0126167
647.958	0.0126329
648.036	0.0127775
648.114	0.0126420
648.193	0.0125567
648.271	0.0127744
648.349	0.0126818
648.427	0.0126689
648.505	0.0126251
648.583	0.0127639
648.661	0.0126808
648.739	0.0125242
648.818	0.0127389
648.896	0.0127531
648.974	0.0126466
649.052	0.0126319
649.130	0.0127405
649.208	0.0127097
649.286	0.0126527
649.364	0.0127016
649.443	0.0126169
649.521	0.0126604
649.599	0.0125985
649.677	0.0126235
649.755	0.0127156
649.833	0.0127029
649.911	0.0126463
649.989	0.0125328
650.068	0.0126314
650.146	0.0125022
650.224	0.0127143
650.302	0.0125876
650.380	0.0125322
650.458	0.0125895
650.536	0.0126493
650.614	0.0125682
650.693	0.0126012
650.771	0.0125597
650.849	0.0126822
650.927	0.0126733
651.005	0.0127139
651.083	0.0126513
651.161	0.0126067
651.239	0.0127183
651.318	0.0126025
651.396	0.0126562
651.474	0.0126474
651.552	0.0126053
651.630	0.0126299
651.708	0.0126398
651.786	0.0125671
651.864	0.0126339
651.943	0.0126636
652.021	0.0127460
652.099	0.0125954
652.177	0.0125852
652.255	0.0127151
652.333	0.0127183
652.411	0.0126235
652.489	0.0126382
652.568	0.0126426
652.646	0.0127762
652.724	0.0124714
652.802	0.0125202
652.880	0.0125327
652.958	0.0125650
653.036	0.0125655
653.114	0.0125611
653.193	0.0126663
653.271	0.0128226
653.349	0.0127564
653.427	0.0126789
653.505	0.0126283
653.583	0.0126559
653.661	0.0126649
653.739	0.0126360
653.818	0.0127043
653.896	0.0125297
653.974	0.0126740
654.052	0.0125845
654.130	0.0127654
654.208	0.0127496
654.286	0.0126799
654.364	0.0126638
654.443	0.0125146
654.521	0.0126867
654.599	0.0126574
654.677	0.0127441
654.755	0.0126792
654.833	0.0126247
654.911	0.0126868
654.989	0.0125826
655.068	0.0125808
655.146	0.0128269
655.224	0.0126674
655.302	0.0125414
655.380	0.0127026
655.458	0.0125990
655.536	0.0126315
655.614	0.0126360
655.693	0.0127097
655.771	0.0126559
655.849	0.0126605
655.927	0.0125936
656.005	0.0125890
656.083	0.0126926
656.161	0.0126006
656.239	0.0126754
656.318	0.0127027
656.396	0.0126664
656.474	0.0127599
656.552	0.0125616
656.630	0.0126306
656.708	0.0126637
656.786	0.0126469
656.864	0.0126624
656.943	0.0126786
657.021	0.0126294
657.099	0.0127328
657.177	0.0127567
657.255	0.0127079
657.333	0.0126289
657.411	0.0126421
657.489	0.0127313
657.568	0.0126715
657.646	0.0125524
657.724	0.0128069
657.802	0.0126598
657.880	0.0125926
657.958	0.0127826
658.036	0.0126402
658.114	0.0125998
658.193	0.0127158
658.271	0.0127634
658.349	0.0125767
658.427	0.0127058
658.505	0.0126782
658.583	0.0127873
658.661	0.0127128
658.739	0.0126385
658.818	0.0126864
658.896	0.0127959
658.974	0.0125755
659.052	0.0126327
659.130	0.0127573
659.208	0.0128131
659.286	0.0126276
659.364	0.0126295
659.443	0.0126569
659.521	0.0126474
659.599	0.0127498
659.677	0.0127213
659.755	0.0126587
659.833	0.0126514
659.911	0.0125373
659.989	0.0125481
660.068	0.0126594
660.146	0.0126944
660.224	0.0127416
660.302	0.0126870
660.380	0.0126402
660.458	0.0127209
660.536	0.0126314
660.614	0.0127126
660.693	0.0128263
660.771	0.0126972
660.849	0.0127512
660.927	0.0127234
661.005	0.0125934
661.083	0.0128312
661.161	0.0127036
661.239	0.0127576
661.318	0.0127119
661.396	0.0127338
661.474	0.0125895
661.552	0.0126676
661.630	0.0127621
661.708	0.0127521
661.786	0.0127482
661.864	0.0125780
661.943	0.0125990
662.021	0.0126875
662.099	0.0126553
662.177	0.0127047
662.255	0.0126582
662.333	0.0126192
662.411	0.0126699
662.489	0.0124835
662.568	0.0126348
662.646	0.0126890
662.724	0.0127084
662.802	0.0126279
662.880	0.0127480
662.958	0.0126613
663.036	0.0127324
663.114	0.0127599
663.193	0.0125733
663.271	0.0126744
663.349	0.0128079
663.427	0.0126879
663.505	0.0126082
663.583	0.0127132
663.661	0.0126574
663.739	0.0127245
663.818	0.0125906
663.896	0.0126187
663.974	0.0127189
664.052	0.0127192
664.130	0.0126393
664.208	0.0125986
664.286	0.0126353
664.364	0.0126638
664.443	0.0128490
664.521	0.0126375
664.599	0.0127571
664.677	0.0126186
664.755	0.0126382
664.833	0.0126247
664.911	0.0126212
664.989	0.0128301
665.068	0.0126786
665.146	0.0126975
665.224	0.0128385
665.302	0.0126480
665.380	0.0126152
665.458	0.0125886
665.536	0.0126572
665.614	0.0126409
665.693	0.0126553
665.771	0.0126278
665.849	0.0127072
665.927	0.0125716
666.005	0.0126192
666.083	0.0126325
666.161	0.0126535
666.239	0.0125787
666.318	0.0127041
666.396	0.0127893
666.474	0.0127216
666.552	0.0127126
666.630	0.0126827
666.708	0.0126077
666.786	0.0127470
666.864	0.0127297
666.943	0.0125533
667.021	0.0127374
667.099	0.0126765
667.177	0.0125540
667.255	0.0125535
667.333	0.0126811
667.411	0.0128656
667.489	0.0127048
667.568	0.0126158
667.646	0.0128520
667.724	0.0128190
667.802	0.0125043
667.880	0.0125175
667.958	0.0126302
668.036	0.0126536
668.114	0.0126045
668.193	0.0125983
668.271	0.0127592
668.349	0.0127417
668.427	0.0125462
668.505	0.0125893
668.583	0.0127070
668.661	0.0125612
668.739	0.0126920
668.818	0.0127016
668.896	0.0126802
668.974	0.0126664
669.052	0.0125834
669.130	0.0126012
669.208	0.0126324
669.286	0.0127125
669.364	0.0125796
669.443	0.0125963
669.521	0.0124927
669.599	0.0126785
669.677	0.0127799
669.755	0.0127125
669.833	0.0126327
669.911	0.0125206
669.989	0.0125449
670.068	0.0126899
670.146	0.0127457
670.224	0.0126606
670.302	0.0126075
670.380	0.0125855
670.458	0.0125241
670.536	0.0124829
670.614	0.0127325
670.693	0.0127052
670.771	0.0125889
670.849	0.0126585
670.927	0.0126818
671.005	0.0128217
671.083	0.0125542
671.161	0.0126781
671.239	0.0126672
671.318	0.0126511
671.396	0.0126370
671.474	0.0127670
671.552	0.0126964
671.630	0.0126948
671.708	0.0126995
671.786	0.0126048
671.864	0.0127012
671.943	0.0126353
672.021	0.0126592
672.099	0.0128310
672.177	0.0127487
672.255	0.0126305
672.333	0.0126698
672.411	0.0126579
672.489	0.0128009
672.568	0.0128207
672.646	0.0127705
672.724	0.0127270
672.802	0.0127397
672.880	0.0127774
672.958	0.0127353
673.036	0.0128078
673.114	0.0125894
673.193	0.0127260
673.271	0.0127076
673.349	0.0127517
673.427	0.0128219
673.505	0.0125893
673.583	0.0127855
673.661	0.0127094
673.739	0.0128198
673.818	0.0128281
673.896	0.0126398
673.974	0.0128385
674.052	0.0127134
674.130	0.0126785
674.208	0.0128156
674.286	0.0126951
674.364	0.0128243
674.443	0.0126441
674.521	0.0127948
674.599	0.0126985
674.677	0.0127654
674.755	0.0126701
674.833	0.0127261
674.911	0.0128270
674.989	0.0127880
675.068	0.0127734
675.146	0.0128053
675.224	0.0126994
675.302	0.0127166
675.380	0.0127660
675.458	0.0128117
675.536	0.0127917
675.614	0.0127947
675.693	0.0126104
675.771	0.0127950
675.849	0.0128163
675.927	0.0128133
676.005	0.0128310
676.083	0.0127499
676.161	0.0126499
676.239	0.0127480
676.318	0.0126084
676.396	0.0126917
676.474	0.0127790
676.552	0.0128388
676.630	0.0126918
676.708	0.0127592
676.786	0.0127345
676.864	0.0127230
676.943	0.0127987
677.021	0.0129063
677.099	0.0127446
677.177	0.0127988
677.255	0.0128024
677.333	0.0126775
677.411	0.0126364
677.489	0.0128000
677.568	0.0125365
677.646	0.0126755
677.724	0.0126881
677.802	0.0127367
677.880	0.0128128
677.958	0.0127124
678.036	0.0126254
678.114	0.0125536
678.193	0.0127353
678.271	0.0126833
678.349	0.0126301
678.427	0.0126997
678.505	0.0127083
678.583	0.0126251
678.661	0.0126413
678.739	0.0126576
678.818	0.0126202
678.896	0.0127164
678.974	0.0126645
679.052	0.0125460
679.130	0.0125777
679.208	0.0127481
679.286	0.0126320
679.364	0.0126114
679.443	0.0126299
679.521	0.0125689
679.599	0.0125928
679.677	0.0125468
679.755	0.0126736
679.833	0.0126637
679.911	0.0126748
679.989	0.0126774
680.068	0.0125403
680.146	0.0125255
680.224	0.0125861
680.302	0.0127304
680.380	0.0125430
680.458	0.0127557
680.536	0.0126548
680.614	0.0125503
680.693	0.0126774
680.771	0.0125731
680.849	0.0126853
680.927	0.0127726
681.005	0.0126466
681.083	0.0125773
681.161	0.0127666
681.239	0.0127521
681.318	0.0125117
681.396	0.0125550
681.474	0.0124460
681.552	0.0126752
681.630	0.0126094
681.708	0.0125470
681.786	0.0126681
681.864	0.0127160
681.943	0.0124982
682.021	0.0127296
682.099	0.0125620
682.177	0.0125937
682.255	0.0125497
682.333	0.0125884
682.411	0.0126891
682.489	0.0126093
682.568	0.0125936
682.646	0.0126514
682.724	0.0125667
682.802	0.0125771
682.880	0.0126034
682.958	0.0126673
683.036	0.0126363
683.114	0.0127786
683.193	0.0126546
683.271	0.0125396
683.349	0.0127847
683.427	0.0127764
683.505	0.0124992
683.583	0.0125999
683.661	0.0126048
683.739	0.0125624
683.818	0.0126784
683.896	0.0125877
683.974	0.0126817
684.052	0.0126015
684.130	0.0125797
684.208	0.0127452
684.286	0.0127827
684.364	0.0126090
684.443	0.0125246
684.521	0.0127051
684.599	0.0126104
684.677	0.0127580
684.755	0.0125347
684.833	0.0126157
684.911	0.0126756
684.989	0.0124662
685.068	0.0126567
685.146	0.0125684
685.224	0.0126754
685.302	0.0127810
685.380	0.0127100
685.458	0.0127288
685.536	0.0126138
685.614	0.0126505
685.693	0.0127978
685.771	0.0126591
685.849	0.0126467
685.927	0.0127803
686.005	0.0127447
686.083	0.0127546
686.161	0.0127216
686.239	0.0126160
686.318	0.0126665
686.396	0.0127142
686.474	0.0127547
686.552	0.0127733
686.630	0.0128001
686.708	0.0126782
686.786	0.0126719
686.864	0.0127306
686.943	0.0128322
687.021	0.0127480
687.099	0.0127258
687.177	0.0126276
687.255	0.0126527
687.333	0.0126245
687.411	0.0127251
687.489	0.0128318
687.568	0.0127934
687.646	0.0126634
687.724	0.0125279
687.802	0.0127515
687.880	0.0126582
687.958	0.0126585
688.036	0.0125580
688.114	0.0126137
688.193	0.0126697
688.271	0.0127592
688.349	0.0128337
688.427	0.0126870
688.505	0.0127401
688.583	0.0128139
688.661	0.0128781
688.739	0.0128435
688.818	0.0126436
688.896	0.0127156
688.974	0.0126561
689.052	0.0125665
689.130	0.0123213
689.208	0.0124935
689.286	0.0123707
689.364	0.0123067
689.443	0.0122749
689.521	0.0123638
689.599	0.0124750
689.677	0.0125068
689.755	0.0127003
689.833	0.0130048
689.911	0.0131685
689.989	0.0132345
690.068	0.0133733
690.146	0.0134597
690.224	0.0134850
690.302	0.0136215
690.380	0.0134655
690.458	0.0134541
690.536	0.0134053
690.614	0.0131741
690.693	0.0128957
690.771	0.0126073
690.849	0.0125668
690.927	0.0123100
691.005	0.0121084
691.083	0.0119489
691.161	0.0115565
691.239	0.0114937
691.318	0.0115128
691.396	0.0112861
691.474	0.0111685
691.552	0.0113784
691.630	0.0114316
691.708	0.0115196
691.786	0.0117802
691.864	0.0119658
691.943	0.0123145
692.021	0.0128174
692.099	0.0132419
692.177	0.0137996
692.255	0.0142196
692.333	0.0146275
692.411	0.0150470
692.489	0.0153409
692.568	0.0154565
692.646	0.0154486
692.724	0.0155238
692.802	0.0154145
692.880	0.0149904
692.958	0.0145831
693.036	0.0139172
693.114	0.0134541
693.193	0.0126069
693.271	0.0119734
693.349	0.0113200
693.427	0.0106634
693.505	0.00987717
693.583	0.00952118
693.661	0.00910576
693.739	0.00871323
693.818	0.00849380
693.896	0.00844276
693.974	0.00849182
694.052	0.00868813
694.130	0.00909920
694.208	0.00942604
694.286	0.0100050
694.364	0.0108828
694.443	0.0117318
694.521	0.0126385
694.599	0.0135959
694.677	0.0146821
694.755	0.0156659
694.833	0.0165444
694.911	0.0173026
694.989	0.0181239
695.068	0.0187688
695.146	0.0190649
695.224	0.0192184
695.302	0.0190427
695.380	0.0186435
695.458	0.0181516
695.536	0.0171948
695.614	0.0163194
695.693	0.0150368
695.771	0.0136460
695.849	0.0124683
695.927	0.0112435
696.005	0.00981369
696.083	0.00868233
696.161	0.00759598
696.239	0.00682350
696.318	0.00612740
696.396	0.00563545
696.474	0.00547447
696.552	0.00539528
696.630	0.00555504
696.708	0.00590401
696.786	0.00636162
696.864	0.00717094
696.943	0.00793404
697.021	0.00902527
697.099	0.0101893
697.177	0.0113322
697.255	0.0123734
697.333	0.0135647
697.411	0.0147208
697.489	0.0160422
697.568	0.0170752
697.646	0.0180661
697.724	0.0190009
697.802	0.0196340
697.880	0.0203537
697.958	0.0205711
698.036	0.0206280
698.114	0.0204401
698.193	0.0199951
698.271	0.0195039
698.349	0.0185518
698.427	0.0174521
698.505	0.0163403
698.583	0.0151391
698.661	0.0139477
698.739	0.0128600
698.818	0.0115492
698.896	0.0105169
698.974	0.00958458
699.052	0.00867409
699.130	0.00778442
699.208	0.00718338
699.286	0.00659210
699.364	0.00632835
699.443	0.00604599
699.521	0.00597382
699.599	0.00600922
699.677	0.00632492
699.755	0.00674492
699.833	0.00722107
699.911	0.00787903
699.989	0.00877213
700.068	0.00967026
700.146	0.0104807
700.224	0.0114584
700.302	0.0124993
700.380	0.0134750
700.458	0.0144287
700.536	0.0152829
700.614	0.0160200
700.693	0.0167386
700.771	0.0173238
700.849	0.0176797
700.927	0.0179872
701.005	0.0181493
701.083	0.0181665
701.161	0.0181344
701.239	0.0179596
701.318	0.0176586
701.396	0.0172673
701.474	0.0167532
701.552	0.0160482
701.630	0.0154899
701.708	0.0148615
701.786	0.0142690
701.864	0.0134532
701.943	0.0127429
702.021	0.0120351
702.099	0.0113754
702.177	0.0107936
702.255	0.0102287
702.333	0.00981590
702.411	0.00928047
702.489	0.00896019
702.568	0.00893730
702.646	0.00878448
702.724	0.00873909
702.802	0.00896751
702.880	0.00920258
702.958	0.00930244
703.036	0.00973145
703.114	0.0101517
703.193	0.0104497
703.271	0.0111877
703.349	0.0114744
703.427	0.0119747
703.505	0.0126032
703.583	0.0130875
703.661	0.0134358
703.739	0.0137437
703.818	0.0142044
703.896	0.0145920
703.974	0.0148617
704.052	0.0149229
704.130	0.0148558
704.208	0.0148623
704.286	0.0147665
704.364	0.0145695
704.443	0.0144741
704.521	0.0141910
704.599	0.0139125
704.677	0.0138002
704.755	0.0133046
704.833	0.0132681
704.911	0.0129352
704.989	0.0126119
705.068	0.0122922
705.146	0.0120261
705.224	0.0118517
705.302	0.0116884
705.380	0.0115887
705.458	0.0116604
705.536	0.0115978
705.614	0.0117759
705.693	0.0120692
705.771	0.0119733
705.849	0.0119884
705.927	0.0120229
706.005	0.0123516
706.083	0.0121237
706.161	0.0123227
706.239	0.0124357
706.318	0.0123248
706.396	0.0125418
706.474	0.0126371
706.552	0.0125188
706.630	0.0125546
706.708	0.0127485
706.786	0.0126738
706.864	0.0128300
706.943	0.0130379
707.021	0.0131214
707.099	0.0133855
707.177	0.0134531
707.255	0.0136342
707.333	0.0135445
707.411	0.0138046
707.489	0.0137844
707.568	0.0137623
707.646	0.0136813
707.724	0.0137527
707.802	0.0135892
707.880	0.0133086
707.958	0.0131388
708.036	0.0128378
708.114	0.0127508
708.193	0.0124438
708.271	0.0122672
708.349	0.0121977
708.427	0.0120338
708.505	0.0119717
708.583	0.0119939
708.661	0.0120573
708.739	0.0119444
708.818	0.0119351
708.896	0.0120358
708.974	0.0119918
709.052	0.0120811
709.130	0.0119737
709.208	0.0119115
709.286	0.0117779
709.364	0.0119044
709.443	0.0119047
709.521	0.0117894
709.599	0.0115921
709.677	0.0115881
709.755	0.0113419
709.833	0.0113740
709.911	0.0112891
709.989	0.0112894
710.068	0.0114321
710.146	0.0113927
710.224	0.0116885
710.302	0.0118361
710.380	0.0120399
710.458	0.0124680
710.536	0.0128300
710.614	0.0130116
710.693	0.0132507
710.771	0.0136625
710.849	0.0139473
710.927	0.0141650
711.005	0.0144543
711.083	0.0145561
711.161	0.0147279
711.239	0.0150082
711.318	0.0151296
711.396	0.0153171
711.474	0.0151677
711.552	0.0152203
711.630	0.0152275
711.708	0.0150509
711.786	0.0149383
711.864	0.0148502
711.943	0.0144093
712.021	0.0141984
712.099	0.0139992
712.177	0.0135617
712.255	0.0133730
712.333	0.0128191
712.411	0.0123079
712.489	0.0120316
712.568	0.0116566
712.646	0.0112949
712.724	0.0111174
712.802	0.0107227
712.880	0.0104342
712.958	0.0103239
713.036	0.0102689
713.114	0.0101958
713.193	0.0103856
713.271	0.0101511
713.349	0.0102473
713.427	0.0103671
713.505	0.0105734
713.583	0.0107951
713.661	0.0111705
713.739	0.0112836
713.818	0.0114572
713.896	0.0118343
713.974	0.0120048
714.052	0.0121655
714.130	0.0123911
714.208	0.0127818
714.286	0.0129006
714.364	0.0130353
714.443	0.0131409
714.521	0.0131245
714.599	0.0132183
714.677	0.0130791
714.755	0.0131969
714.833	0.0130875
714.911	0.0131998
714.989	0.0132265
715.068	0.0132151
715.146	0.0131065
715.224	0.0132135
715.302	0.0131306
715.380	0.0131246
715.458	0.0130843
715.536	0.0133242
715.614	0.0134260
715.693	0.0135458
715.771	0.0134954
715.849	0.0137672
715.927	0.0138395
716.005	0.0139695
716.083	0.0140863
716.161	0.0140585
716.239	0.0141374
716.318	0.0142066
716.396	0.0141852
716.474	0.0142168
716.552	0.0143791
716.630	0.0142050
716.708	0.0141964
716.786	0.0140800
716.864	0.0139544
716.943	0.0137408
717.021	0.0134732
717.099	0.0133015
717.177	0.0130389
717.255	0.0128456
717.333	0.0126292
717.411	0.0124677
717.489	0.0123049
717.568	0.0120440
717.646	0.0117469
717.724	0.0116214
717.802	0.0115116
717.880	0.0111991
717.958	0.0108629
718.036	0.0108979
718.114	0.0108308
718.193	0.0107051
718.271	0.0106185
718.349	0.0105879
718.427	0.0104262
718.505	0.0104089
718.583	0.0105164
718.661	0.0104920
718.739	0.0107378
718.818	0.0107890
718.896	0.0110981
718.974	0.0111938
719.052	0.0112042
719.130	0.0114191
719.208	0.0116258
719.286	0.0119444
719.364	0.0121049
719.443	0.0123644
719.521	0.0125291
719.599	0.0127793
719.677	0.0128249
719.755	0.0132112
719.833	0.0133738
719.911	0.0136029
719.989	0.0136724
720.068	0.0136604
720.146	0.0137180
720.224	0.0138125
720.302	0.0138859
720.380	0.0139294
720.458	0.0137791
720.536	0.0140095
720.614	0.0139124
720.693	0.0137596
720.771	0.0139738
720.849	0.0139434
720.927	0.0138995
721.005	0.0138357
721.083	0.0137434
721.161	0.0137157
721.239	0.0136034
721.318	0.0137094
721.396	0.0136164
721.474	0.0134505
721.552	0.0135593
721.630	0.0132804
721.708	0.0132212
721.786	0.0132244
721.864	0.0132385
721.943	0.0130644
722.021	0.0130656
722.099	0.0131283
722.177	0.0131764
722.255	0.0128975
722.333	0.0129317
722.411	0.0129898
722.489	0.0128958
722.568	0.0126186
722.646	0.0125473
722.724	0.0124767
722.802	0.0122694
722.880	0.0120909
722.958	0.0117891
723.036	0.0116032
723.114	0.0112939
723.193	0.0111378
723.271	0.0109142
723.349	0.0108697
723.427	0.0105534
723.505	0.0105364
723.583	0.0104713
723.661	0.0104056
723.739	0.0104414
723.818	0.0105621
723.896	0.0107375
723.974	0.0109020
724.052	0.0112158
724.130	0.0113863
724.208	0.0114742
724.286	0.0117953
724.364	0.0120609
724.443	0.0124199
724.521	0.0127310
724.599	0.0128938
724.677	0.0131997
724.755	0.0132745
724.833	0.0134921
724.911	0.0137315
724.989	0.0137576
725.068	0.0139942
725.146	0.0140353
725.224	0.0140432
725.302	0.0141891
725.380	0.0140808
725.458	0.0141364
725.536	0.0140749
