05/14/2022	16:28:36	Ver.	4.1	UNKNOWN
Optical Delay	639.989416	Delta X		0.078125	Sweeps	1	Scan Rate	0/0
Coordinates	Axis 1	NaN	Axis 2	NaN	Axis 3	NaN	Axis 4	NaN	Axis 5	NaN	Axis 6	0.000000
TX Power	0.000000	RX Power	0.000000

639.989	0.0142818
640.068	0.0142100
640.146	0.0141490
640.224	0.0141907
640.302	0.0142107
640.380	0.0143557
640.458	0.0142828
640.536	0.0142789
640.614	0.0142538
640.693	0.0142569
640.771	0.0141830
640.849	0.0143120
640.927	0.0142457
641.005	0.0142007
641.083	0.0141921
641.161	0.0142739
641.239	0.0142609
641.318	0.0144170
641.396	0.0143605
641.474	0.0141894
641.552	0.0141540
641.630	0.0143088
641.708	0.0141356
641.786	0.0142216
641.864	0.0142467
641.943	0.0141915
642.021	0.0142152
642.099	0.0143328
642.177	0.0142957
642.255	0.0143314
642.333	0.0143375
642.411	0.0142315
642.489	0.0143320
642.568	0.0143127
642.646	0.0143275
642.724	0.0141502
642.802	0.0142800
642.880	0.0143211
642.958	0.0142038
643.036	0.0143904
643.114	0.0142752
643.193	0.0142582
643.271	0.0143997
643.349	0.0143567
643.427	0.0141414
643.505	0.0142152
643.583	0.0142728
643.661	0.0142826
643.739	0.0142183
643.818	0.0141879
643.896	0.0143434
643.974	0.0142840
644.052	0.0141750
644.130	0.0141835
644.208	0.0142307
644.286	0.0140842
644.364	0.0143548
644.443	0.0142783
644.521	0.0142245
644.599	0.0141967
644.677	0.0143277
644.755	0.0141779
644.833	0.0140025
644.911	0.0141979
644.989	0.0142005
645.068	0.0142160
645.146	0.0141882
645.224	0.0141691
645.302	0.0142377
645.380	0.0141511
645.458	0.0141717
645.536	0.0142793
645.614	0.0143284
645.693	0.0142346
645.771	0.0141454
645.849	0.0142389
645.927	0.0143388
646.005	0.0143031
646.083	0.0143260
646.161	0.0141084
646.239	0.0141801
646.318	0.0143977
646.396	0.0142970
646.474	0.0143557
646.552	0.0142259
646.630	0.0142181
646.708	0.0142710
646.786	0.0143711
646.864	0.0142225
646.943	0.0141226
647.021	0.0141016
647.099	0.0143027
647.177	0.0143211
647.255	0.0143688
647.333	0.0142448
647.411	0.0141335
647.489	0.0142017
647.568	0.0143317
647.646	0.0142783
647.724	0.0142945
647.802	0.0141876
647.880	0.0143146
647.958	0.0143751
648.036	0.0143867
648.114	0.0143158
648.193	0.0143282
648.271	0.0142059
648.349	0.0143085
648.427	0.0142480
648.505	0.0143381
648.583	0.0144297
648.661	0.0142960
648.739	0.0142691
648.818	0.0142326
648.896	0.0141864
648.974	0.0142284
649.052	0.0143586
649.130	0.0142314
649.208	0.0141803
649.286	0.0142468
649.364	0.0141624
649.443	0.0142418
649.521	0.0143787
649.599	0.0141642
649.677	0.0141094
649.755	0.0141628
649.833	0.0142764
649.911	0.0141454
649.989	0.0142056
650.068	0.0143103
650.146	0.0142884
650.224	0.0141982
650.302	0.0142579
650.380	0.0142385
650.458	0.0142589
650.536	0.0143614
650.614	0.0142945
650.693	0.0141660
650.771	0.0141537
650.849	0.0142697
650.927	0.0142340
651.005	0.0143437
651.083	0.0141197
651.161	0.0142719
651.239	0.0142905
651.318	0.0141905
651.396	0.0143825
651.474	0.0142933
651.552	0.0141647
651.630	0.0142635
651.708	0.0143217
651.786	0.0143325
651.864	0.0141126
651.943	0.0141635
652.021	0.0141564
652.099	0.0143364
652.177	0.0143498
652.255	0.0142256
652.333	0.0142566
652.411	0.0143231
652.489	0.0142844
652.568	0.0143696
652.646	0.0141683
652.724	0.0143110
652.802	0.0142429
652.880	0.0142851
652.958	0.0141740
653.036	0.0143113
653.114	0.0143328
653.193	0.0141167
653.271	0.0143123
653.349	0.0143097
653.427	0.0143620
653.505	0.0143440
653.583	0.0141667
653.661	0.0143279
653.739	0.0141671
653.818	0.0142381
653.896	0.0143512
653.974	0.0142155
654.052	0.0142715
654.130	0.0143969
654.208	0.0141422
654.286	0.0142038
654.364	0.0142618
654.443	0.0141998
654.521	0.0142636
654.599	0.0142706
654.677	0.0143427
654.755	0.0143195
654.833	0.0143112
654.911	0.0142169
654.989	0.0143499
655.068	0.0142295
655.146	0.0143863
655.224	0.0143583
655.302	0.0142682
655.380	0.0142787
655.458	0.0142888
655.536	0.0142076
655.614	0.0142229
655.693	0.0143002
655.771	0.0142086
655.849	0.0142548
655.927	0.0142356
656.005	0.0142355
656.083	0.0142027
656.161	0.0143431
656.239	0.0141949
656.318	0.0142575
656.396	0.0142775
656.474	0.0143820
656.552	0.0143816
656.630	0.0142460
656.708	0.0142823
656.786	0.0143254
656.864	0.0142541
656.943	0.0142904
657.021	0.0142584
657.099	0.0142089
657.177	0.0142767
657.255	0.0142210
657.333	0.0142487
657.411	0.0143140
657.489	0.0143810
657.568	0.0143578
657.646	0.0142632
657.724	0.0142118
657.802	0.0142683
657.880	0.0142973
657.958	0.0142502
658.036	0.0142928
658.114	0.0142489
658.193	0.0142460
658.271	0.0142507
658.349	0.0143192
658.427	0.0141828
658.505	0.0142764
658.583	0.0142752
658.661	0.0142039
658.739	0.0142416
658.818	0.0143713
658.896	0.0142914
658.974	0.0141708
659.052	0.0143365
659.130	0.0142941
659.208	0.0143590
659.286	0.0143079
659.364	0.0142048
659.443	0.0141892
659.521	0.0142442
659.599	0.0141998
659.677	0.0143114
659.755	0.0143136
659.833	0.0141473
659.911	0.0143133
659.989	0.0141788
660.068	0.0142268
660.146	0.0142773
660.224	0.0142769
660.302	0.0141119
660.380	0.0142068
660.458	0.0144092
660.536	0.0141430
660.614	0.0142429
660.693	0.0141895
660.771	0.0140905
660.849	0.0141847
660.927	0.0142264
661.005	0.0142371
661.083	0.0143607
661.161	0.0142074
661.239	0.0141127
661.318	0.0142087
661.396	0.0142429
661.474	0.0142235
661.552	0.0143606
661.630	0.0141454
661.708	0.0142352
661.786	0.0142029
661.864	0.0143073
661.943	0.0142703
662.021	0.0143015
662.099	0.0143044
662.177	0.0143049
662.255	0.0141434
662.333	0.0140743
662.411	0.0142709
662.489	0.0143623
662.568	0.0141651
662.646	0.0140963
662.724	0.0142139
662.802	0.0142578
662.880	0.0141811
662.958	0.0141084
663.036	0.0141307
663.114	0.0142212
663.193	0.0142302
663.271	0.0141141
663.349	0.0141080
663.427	0.0142767
663.505	0.0142742
663.583	0.0141917
663.661	0.0141557
663.739	0.0141964
663.818	0.0141072
663.896	0.0140704
663.974	0.0142839
664.052	0.0142383
664.130	0.0142436
664.208	0.0143634
664.286	0.0142278
664.364	0.0141515
664.443	0.0143452
664.521	0.0144361
664.599	0.0142369
664.677	0.0141236
664.755	0.0142681
664.833	0.0142719
664.911	0.0142329
664.989	0.0142747
665.068	0.0142957
665.146	0.0142712
665.224	0.0142342
665.302	0.0142685
665.380	0.0143674
665.458	0.0141312
665.536	0.0142301
665.614	0.0143272
665.693	0.0141143
665.771	0.0141571
665.849	0.0143176
665.927	0.0142569
666.005	0.0144003
666.083	0.0142651
666.161	0.0142480
666.239	0.0141798
666.318	0.0142285
666.396	0.0141553
666.474	0.0142509
666.552	0.0141235
666.630	0.0142807
666.708	0.0142048
666.786	0.0141675
666.864	0.0142299
666.943	0.0142139
667.021	0.0141836
667.099	0.0142847
667.177	0.0142065
667.255	0.0142464
667.333	0.0141886
667.411	0.0141946
667.489	0.0142032
667.568	0.0141895
667.646	0.0142336
667.724	0.0141644
667.802	0.0142722
667.880	0.0141596
667.958	0.0141520
668.036	0.0143571
668.114	0.0142068
668.193	0.0142572
668.271	0.0142554
668.349	0.0142435
668.427	0.0142371
668.505	0.0142323
668.583	0.0143392
668.661	0.0141168
668.739	0.0143849
668.818	0.0142686
668.896	0.0142442
668.974	0.0141852
669.052	0.0142057
669.130	0.0140461
669.208	0.0142423
669.286	0.0142982
669.364	0.0141980
669.443	0.0141588
669.521	0.0142747
669.599	0.0142428
669.677	0.0142546
669.755	0.0141534
669.833	0.0142412
669.911	0.0142964
669.989	0.0142184
670.068	0.0141372
670.146	0.0141039
670.224	0.0142908
670.302	0.0142426
670.380	0.0141812
670.458	0.0143040
670.536	0.0143181
670.614	0.0142101
670.693	0.0142273
670.771	0.0140257
670.849	0.0143156
670.927	0.0143440
671.005	0.0143180
671.083	0.0142936
671.161	0.0141998
671.239	0.0142252
671.318	0.0143572
671.396	0.0143440
671.474	0.0141685
671.552	0.0140035
671.630	0.0142072
671.708	0.0141771
671.786	0.0143048
671.864	0.0142597
671.943	0.0141730
672.021	0.0141886
672.099	0.0142952
672.177	0.0140401
672.255	0.0142029
672.333	0.0142859
672.411	0.0142538
672.489	0.0142825
672.568	0.0141840
672.646	0.0141523
672.724	0.0141990
672.802	0.0141565
672.880	0.0142261
672.958	0.0143213
673.036	0.0142403
673.114	0.0140955
673.193	0.0142014
673.271	0.0141003
673.349	0.0142169
673.427	0.0141557
673.505	0.0140810
673.583	0.0142473
673.661	0.0141999
673.739	0.0141351
673.818	0.0141587
673.896	0.0141136
673.974	0.0141680
674.052	0.0141550
674.130	0.0142093
674.208	0.0142129
674.286	0.0142193
674.364	0.0143238
674.443	0.0142069
674.521	0.0141277
674.599	0.0141742
674.677	0.0141111
674.755	0.0141930
674.833	0.0142628
674.911	0.0141973
674.989	0.0140446
675.068	0.0141254
675.146	0.0141615
675.224	0.0141053
675.302	0.0141851
675.380	0.0142906
675.458	0.0142355
675.536	0.0143363
675.614	0.0142088
675.693	0.0143244
675.771	0.0142020
675.849	0.0142790
675.927	0.0142356
676.005	0.0140907
676.083	0.0142955
676.161	0.0143369
676.239	0.0142924
676.318	0.0141846
676.396	0.0141584
676.474	0.0142712
676.552	0.0141127
676.630	0.0140970
676.708	0.0143164
676.786	0.0142180
676.864	0.0141800
676.943	0.0141506
677.021	0.0143121
677.099	0.0142287
677.177	0.0142656
677.255	0.0142245
677.333	0.0143412
677.411	0.0141696
677.489	0.0141837
677.568	0.0142532
677.646	0.0142397
677.724	0.0142487
677.802	0.0142329
677.880	0.0142875
677.958	0.0141289
678.036	0.0141819
678.114	0.0142255
678.193	0.0142285
678.271	0.0141793
678.349	0.0142254
678.427	0.0143366
678.505	0.0142518
678.583	0.0142786
678.661	0.0142047
678.739	0.0141531
678.818	0.0142309
678.896	0.0142426
678.974	0.0141238
679.052	0.0142538
679.130	0.0141519
679.208	0.0142118
679.286	0.0142377
679.364	0.0141915
679.443	0.0142372
679.521	0.0143489
679.599	0.0141919
679.677	0.0141299
679.755	0.0141496
679.833	0.0141072
679.911	0.0143140
679.989	0.0143108
680.068	0.0141307
680.146	0.0141140
680.224	0.0142557
680.302	0.0143456
680.380	0.0142670
680.458	0.0141652
680.536	0.0142167
680.614	0.0141220
680.693	0.0142316
680.771	0.0141752
680.849	0.0141506
680.927	0.0141615
681.005	0.0141319
681.083	0.0141111
681.161	0.0142809
681.239	0.0143082
681.318	0.0141703
681.396	0.0141923
681.474	0.0144158
681.552	0.0142928
681.630	0.0143021
681.708	0.0142986
681.786	0.0144003
681.864	0.0143321
681.943	0.0143403
682.021	0.0142474
682.099	0.0144611
682.177	0.0142970
682.255	0.0142887
682.333	0.0143316
682.411	0.0142554
682.489	0.0142329
682.568	0.0142434
682.646	0.0144365
682.724	0.0142446
682.802	0.0142035
682.880	0.0140997
682.958	0.0142326
683.036	0.0142862
683.114	0.0142956
683.193	0.0143198
683.271	0.0141561
683.349	0.0142391
683.427	0.0141195
683.505	0.0142453
683.583	0.0141405
683.661	0.0141972
683.739	0.0142022
683.818	0.0140016
683.896	0.0140957
683.974	0.0142437
684.052	0.0144299
684.130	0.0144157
684.208	0.0143266
684.286	0.0143119
684.364	0.0144025
684.443	0.0146255
684.521	0.0145186
684.599	0.0144200
684.677	0.0145687
684.755	0.0144666
684.833	0.0145051
684.911	0.0144561
684.989	0.0145378
685.068	0.0144386
685.146	0.0145160
685.224	0.0145183
685.302	0.0145213
685.380	0.0143725
685.458	0.0143164
685.536	0.0141020
685.614	0.0140762
685.693	0.0138840
685.771	0.0136915
685.849	0.0137493
685.927	0.0136726
686.005	0.0135033
686.083	0.0134449
686.161	0.0133791
686.239	0.0133991
686.318	0.0135226
686.396	0.0135757
686.474	0.0135665
686.552	0.0139335
686.630	0.0140529
686.708	0.0140918
686.786	0.0144485
686.864	0.0148656
686.943	0.0151746
687.021	0.0153825
687.099	0.0154176
687.177	0.0156481
687.255	0.0157697
687.333	0.0158393
687.411	0.0157134
687.489	0.0157214
687.568	0.0156551
687.646	0.0153618
687.724	0.0152560
687.802	0.0149962
687.880	0.0148048
687.958	0.0144800
688.036	0.0141344
688.114	0.0138206
688.193	0.0134982
688.271	0.0131770
688.349	0.0127760
688.427	0.0125686
688.505	0.0124765
688.583	0.0123227
688.661	0.0123792
688.739	0.0122930
688.818	0.0121734
688.896	0.0123753
688.974	0.0126287
689.052	0.0127748
689.130	0.0132749
689.208	0.0134332
689.286	0.0138538
689.364	0.0140781
689.443	0.0144493
689.521	0.0147541
689.599	0.0150722
689.677	0.0155325
689.755	0.0158321
689.833	0.0161107
689.911	0.0162923
689.989	0.0164220
690.068	0.0166315
690.146	0.0167300
690.224	0.0166933
690.302	0.0167329
690.380	0.0166248
690.458	0.0166563
690.536	0.0163718
690.614	0.0162764
690.693	0.0159452
690.771	0.0155537
690.849	0.0151526
690.927	0.0147491
691.005	0.0143980
691.083	0.0137903
691.161	0.0131992
691.239	0.0126521
691.318	0.0123121
691.396	0.0118966
691.474	0.0114211
691.552	0.0110867
691.630	0.0108248
691.708	0.0106568
691.786	0.0105207
691.864	0.0104776
691.943	0.0105817
692.021	0.0105930
692.099	0.0107581
692.177	0.0108887
692.255	0.0113784
692.333	0.0118736
692.411	0.0123527
692.489	0.0130156
692.568	0.0138586
692.646	0.0145618
692.724	0.0153447
692.802	0.0160484
692.880	0.0168404
692.958	0.0175543
693.036	0.0182268
693.114	0.0187382
693.193	0.0192194
693.271	0.0193911
693.349	0.0196387
693.427	0.0194946
693.505	0.0193198
693.583	0.0191455
693.661	0.0187547
693.739	0.0183402
693.818	0.0176934
693.896	0.0170811
693.974	0.0162794
694.052	0.0155397
694.130	0.0148125
694.208	0.0139748
694.286	0.0131703
694.364	0.0125016
694.443	0.0118742
694.521	0.0112000
694.599	0.0106317
694.677	0.0101707
694.755	0.00995384
694.833	0.00941116
694.911	0.00922768
694.989	0.00904404
695.068	0.00903770
695.146	0.00923584
695.224	0.00928284
695.302	0.00964569
695.380	0.0100632
695.458	0.0105889
695.536	0.0109622
695.614	0.0115844
695.693	0.0120973
695.771	0.0126592
695.849	0.0134299
695.927	0.0138721
696.005	0.0147104
696.083	0.0152202
696.161	0.0159615
696.239	0.0164545
696.318	0.0168345
696.396	0.0173856
696.474	0.0177292
696.552	0.0181926
696.630	0.0184276
696.708	0.0185880
696.786	0.0183862
696.864	0.0184130
696.943	0.0183871
697.021	0.0181340
697.099	0.0178291
697.177	0.0175716
697.255	0.0173037
697.333	0.0167318
697.411	0.0163487
697.489	0.0159566
697.568	0.0155465
697.646	0.0152084
697.724	0.0147040
697.802	0.0143337
697.880	0.0140270
697.958	0.0134727
698.036	0.0133306
698.114	0.0129884
698.193	0.0127757
698.271	0.0123379
698.349	0.0120908
698.427	0.0119376
698.505	0.0119368
698.583	0.0118687
698.661	0.0117749
698.739	0.0116946
698.818	0.0119453
698.896	0.0121193
698.974	0.0122304
699.052	0.0124179
699.130	0.0125865
699.208	0.0126311
699.286	0.0128510
699.364	0.0129119
699.443	0.0127584
699.521	0.0126771
699.599	0.0127732
699.677	0.0126460
699.755	0.0125145
699.833	0.0124289
699.911	0.0123813
699.989	0.0121983
700.068	0.0120722
700.146	0.0122291
700.224	0.0122298
700.302	0.0125544
700.380	0.0125220
700.458	0.0130453
700.536	0.0134764
700.614	0.0139480
700.693	0.0144550
700.771	0.0148563
700.849	0.0154398
700.927	0.0159910
701.005	0.0164685
701.083	0.0169667
701.161	0.0173788
701.239	0.0178785
701.318	0.0181461
701.396	0.0183337
701.474	0.0183901
701.552	0.0187148
701.630	0.0185355
701.708	0.0185542
701.786	0.0187196
701.864	0.0183987
701.943	0.0182690
702.021	0.0181686
702.099	0.0181200
702.177	0.0175800
702.255	0.0172221
702.333	0.0168721
702.411	0.0164202
702.489	0.0156969
702.568	0.0151490
702.646	0.0144173
702.724	0.0134747
702.802	0.0127730
702.880	0.0119476
702.958	0.0112491
703.036	0.0106440
703.114	0.0100474
703.193	0.00957870
703.271	0.00929649
703.349	0.00917427
703.427	0.00908867
703.505	0.00909195
703.583	0.00935036
703.661	0.00961365
703.739	0.00984344
703.818	0.0101335
703.896	0.0102232
703.974	0.0105840
704.052	0.0109110
704.130	0.0110753
704.208	0.0115781
704.286	0.0118279
704.364	0.0122165
704.443	0.0127533
704.521	0.0131548
704.599	0.0134866
704.677	0.0139476
704.755	0.0144971
704.833	0.0147877
704.911	0.0151283
704.989	0.0153852
705.068	0.0156007
705.146	0.0155892
705.224	0.0156945
705.302	0.0159924
705.380	0.0159957
705.458	0.0160963
705.536	0.0164297
705.614	0.0166510
705.693	0.0170560
705.771	0.0173215
705.849	0.0177182
705.927	0.0180832
706.005	0.0182972
706.083	0.0186973
706.161	0.0187836
706.239	0.0189268
706.318	0.0191171
706.396	0.0190829
706.474	0.0189614
706.552	0.0188168
706.630	0.0184678
706.708	0.0181887
706.786	0.0178857
706.864	0.0173689
706.943	0.0167106
707.021	0.0161019
707.099	0.0152587
707.177	0.0145375
707.255	0.0138628
707.333	0.0131727
707.411	0.0123647
707.489	0.0114449
707.568	0.0106738
707.646	0.00989662
707.724	0.00936615
707.802	0.00878296
707.880	0.00849823
707.958	0.00829529
708.036	0.00830902
708.114	0.00840576
708.193	0.00873283
708.271	0.00878845
708.349	0.00920876
708.427	0.00980133
708.505	0.0103461
708.583	0.0109245
708.661	0.0115104
708.739	0.0122844
708.818	0.0128344
708.896	0.0135339
708.974	0.0140109
709.052	0.0146028
709.130	0.0150677
709.208	0.0156045
709.286	0.0160572
709.364	0.0165712
709.443	0.0169167
709.521	0.0169252
709.599	0.0170895
709.677	0.0172744
709.755	0.0171579
709.833	0.0168651
709.911	0.0167314
709.989	0.0162077
710.068	0.0159437
710.146	0.0153918
710.224	0.0148303
710.302	0.0145213
710.380	0.0141191
710.458	0.0137528
710.536	0.0133874
710.614	0.0132337
710.693	0.0132449
710.771	0.0134637
710.849	0.0135896
710.927	0.0139012
711.005	0.0141224
711.083	0.0145345
711.161	0.0151502
711.239	0.0155587
711.318	0.0158810
711.396	0.0162881
711.474	0.0167675
711.552	0.0170978
711.630	0.0175246
711.708	0.0176311
711.786	0.0178590
711.864	0.0181442
711.943	0.0182381
712.021	0.0183813
712.099	0.0183248
712.177	0.0179664
712.255	0.0176462
712.333	0.0174583
712.411	0.0169640
712.489	0.0162864
712.568	0.0155572
712.646	0.0146687
712.724	0.0139517
712.802	0.0129507
712.880	0.0122078
712.958	0.0115382
713.036	0.0108364
713.114	0.0101120
713.193	0.00955750
713.271	0.00917610
713.349	0.00881226
713.427	0.00886925
713.505	0.00867165
713.583	0.00886406
713.661	0.00914200
713.739	0.00947929
713.818	0.0100559
713.896	0.0105658
713.974	0.0110863
714.052	0.0116106
714.130	0.0121667
714.208	0.0128036
714.286	0.0133057
714.364	0.0136253
714.443	0.0140384
714.521	0.0143660
714.599	0.0145956
714.677	0.0148769
714.755	0.0148709
714.833	0.0148929
714.911	0.0149333
714.989	0.0150111
715.068	0.0148968
715.146	0.0147694
715.224	0.0146548
715.302	0.0146411
715.380	0.0144350
715.458	0.0144045
715.536	0.0143121
715.614	0.0140817
715.693	0.0140825
715.771	0.0141913
715.849	0.0143994
715.927	0.0145012
716.005	0.0148521
716.083	0.0153484
716.161	0.0155978
716.239	0.0161452
716.318	0.0165819
716.396	0.0170151
716.474	0.0174723
716.552	0.0176483
716.630	0.0180660
716.708	0.0183331
716.786	0.0186171
716.864	0.0188457
716.943	0.0188997
717.021	0.0190591
717.099	0.0191460
717.177	0.0192339
717.255	0.0192149
717.333	0.0191465
717.411	0.0190054
717.489	0.0186924
717.568	0.0183897
717.646	0.0181052
717.724	0.0173440
717.802	0.0165621
717.880	0.0159780
717.958	0.0149403
718.036	0.0138087
718.114	0.0127952
718.193	0.0116410
718.271	0.0105127
718.349	0.00952965
718.427	0.00849655
718.505	0.00752708
718.583	0.00680466
718.661	0.00609962
718.739	0.00575012
718.818	0.00550888
718.896	0.00516953
718.974	0.00528641
719.052	0.00571259
719.130	0.00613937
719.208	0.00692863
719.286	0.00763535
719.364	0.00849701
719.443	0.00964188
719.521	0.0107520
719.599	0.0118707
719.677	0.0131178
719.755	0.0141363
719.833	0.0152049
719.911	0.0160486
719.989	0.0166586
720.068	0.0173486
720.146	0.0175920
720.224	0.0177840
720.302	0.0176998
720.380	0.0178255
720.458	0.0177908
720.536	0.0175881
720.614	0.0175478
720.693	0.0173286
720.771	0.0169041
720.849	0.0166454
720.927	0.0164115
721.005	0.0160306
721.083	0.0158865
721.161	0.0156797
721.239	0.0157129
721.318	0.0154588
721.396	0.0154835
721.474	0.0156295
721.552	0.0158590
721.630	0.0160995
721.708	0.0163356
721.786	0.0165660
721.864	0.0169100
721.943	0.0172260
722.021	0.0174996
722.099	0.0177617
722.177	0.0180968
722.255	0.0182909
722.333	0.0185032
722.411	0.0184354
722.489	0.0185777
722.568	0.0183733
722.646	0.0183881
722.724	0.0180076
722.802	0.0176326
722.880	0.0173817
722.958	0.0167641
723.036	0.0160574
723.114	0.0154070
723.193	0.0146393
723.271	0.0137091
723.349	0.0126966
723.427	0.0120650
723.505	0.0110262
723.583	0.00995743
723.661	0.00909142
723.739	0.00843544
723.818	0.00745758
723.896	0.00681595
723.974	0.00648453
724.052	0.00613541
724.130	0.00598991
724.208	0.00605804
724.286	0.00633530
724.364	0.00675018
724.443	0.00737579
724.521	0.00826973
724.599	0.00916893
724.677	0.0101350
724.755	0.0111633
724.833	0.0124465
724.911	0.0134253
724.989	0.0143988
725.068	0.0150967
725.146	0.0161259
725.224	0.0168558
725.302	0.0173576
725.380	0.0177199
725.458	0.0179353
