05/14/2022	16:33:16	Ver.	4.1	UNKNOWN
Optical Delay	639.989416	Delta X		0.078125	Sweeps	1	Scan Rate	0/0
Coordinates	Axis 1	NaN	Axis 2	NaN	Axis 3	NaN	Axis 4	NaN	Axis 5	NaN	Axis 6	0.000000
TX Power	0.000000	RX Power	0.000000

639.989	0.0127525
640.068	0.0126266
640.146	0.0127165
640.224	0.0128191
640.302	0.0128326
640.380	0.0125314
640.458	0.0127607
640.536	0.0128004
640.614	0.0127597
640.693	0.0126859
640.771	0.0125823
640.849	0.0126177
640.927	0.0126514
641.005	0.0126717
641.083	0.0127541
641.161	0.0127502
641.239	0.0128250
641.318	0.0127294
641.396	0.0127437
641.474	0.0128597
641.552	0.0127110
641.630	0.0127769
641.708	0.0127232
641.786	0.0126578
641.864	0.0127898
641.943	0.0128153
642.021	0.0126184
642.099	0.0127882
642.177	0.0128510
642.255	0.0128526
642.333	0.0128455
642.411	0.0127684
642.489	0.0127626
642.568	0.0127467
642.646	0.0128019
642.724	0.0128152
642.802	0.0128325
642.880	0.0127956
642.958	0.0127267
643.036	0.0127682
643.114	0.0128176
643.193	0.0126741
643.271	0.0128215
643.349	0.0127437
643.427	0.0128837
643.505	0.0127849
643.583	0.0128226
643.661	0.0128331
643.739	0.0128738
643.818	0.0127267
643.896	0.0127170
643.974	0.0128629
644.052	0.0128665
644.130	0.0128177
644.208	0.0127312
644.286	0.0128457
644.364	0.0127043
644.443	0.0128257
644.521	0.0128203
644.599	0.0127013
644.677	0.0127712
644.755	0.0128453
644.833	0.0127772
644.911	0.0129118
644.989	0.0128035
645.068	0.0128314
645.146	0.0127786
645.224	0.0127268
645.302	0.0127835
645.380	0.0127763
645.458	0.0127319
645.536	0.0127082
645.614	0.0128234
645.693	0.0128426
645.771	0.0127887
645.849	0.0129250
645.927	0.0129661
646.005	0.0128107
646.083	0.0129101
646.161	0.0128542
646.239	0.0128535
646.318	0.0129501
646.396	0.0127808
646.474	0.0127435
646.552	0.0128492
646.630	0.0129579
646.708	0.0127693
646.786	0.0128888
646.864	0.0128962
646.943	0.0127730
647.021	0.0127829
647.099	0.0129286
647.177	0.0129266
647.255	0.0128649
647.333	0.0128396
647.411	0.0127804
647.489	0.0127485
647.568	0.0127156
647.646	0.0127265
647.724	0.0128571
647.802	0.0129025
647.880	0.0128723
647.958	0.0129405
648.036	0.0128291
648.114	0.0128246
648.193	0.0127596
648.271	0.0129366
648.349	0.0128345
648.427	0.0129173
648.505	0.0128347
648.583	0.0130351
648.661	0.0128104
648.739	0.0127354
648.818	0.0129084
648.896	0.0128676
648.974	0.0127798
649.052	0.0129208
649.130	0.0128880
649.208	0.0128810
649.286	0.0128837
649.364	0.0127785
649.443	0.0129844
649.521	0.0129393
649.599	0.0127776
649.677	0.0129321
649.755	0.0129868
649.833	0.0130556
649.911	0.0129115
649.989	0.0129308
650.068	0.0128364
650.146	0.0128780
650.224	0.0129753
650.302	0.0130619
650.380	0.0127410
650.458	0.0128735
650.536	0.0130505
650.614	0.0128636
650.693	0.0128266
650.771	0.0129482
650.849	0.0129127
650.927	0.0130339
651.005	0.0131094
651.083	0.0128313
651.161	0.0128067
651.239	0.0129675
651.318	0.0130891
651.396	0.0129997
651.474	0.0129035
651.552	0.0128537
651.630	0.0129520
651.708	0.0129805
651.786	0.0130413
651.864	0.0129308
651.943	0.0128847
652.021	0.0128206
652.099	0.0128739
652.177	0.0129756
652.255	0.0129152
652.333	0.0128026
652.411	0.0129028
652.489	0.0129575
652.568	0.0130441
652.646	0.0128495
652.724	0.0128870
652.802	0.0128795
652.880	0.0128703
652.958	0.0128735
653.036	0.0128802
653.114	0.0129283
653.193	0.0130167
653.271	0.0130116
653.349	0.0129832
653.427	0.0129360
653.505	0.0130633
653.583	0.0128714
653.661	0.0129622
653.739	0.0128683
653.818	0.0128510
653.896	0.0128667
653.974	0.0129243
654.052	0.0128991
654.130	0.0128403
654.208	0.0129128
654.286	0.0129325
654.364	0.0129214
654.443	0.0130608
654.521	0.0129194
654.599	0.0128761
654.677	0.0128644
654.755	0.0130025
654.833	0.0129276
654.911	0.0129224
654.989	0.0128949
655.068	0.0129065
655.146	0.0129161
655.224	0.0129735
655.302	0.0128778
655.380	0.0128069
655.458	0.0129887
655.536	0.0128061
655.614	0.0128815
655.693	0.0129171
655.771	0.0127795
655.849	0.0127991
655.927	0.0128379
656.005	0.0128820
656.083	0.0128699
656.161	0.0128378
656.239	0.0128350
656.318	0.0128259
656.396	0.0127341
656.474	0.0128316
656.552	0.0129517
656.630	0.0128585
656.708	0.0129752
656.786	0.0127982
656.864	0.0127200
656.943	0.0127261
657.021	0.0128471
657.099	0.0128751
657.177	0.0129453
657.255	0.0128308
657.333	0.0128717
657.411	0.0128018
657.489	0.0127390
657.568	0.0128598
657.646	0.0129377
657.724	0.0129106
657.802	0.0128236
657.880	0.0128415
657.958	0.0129597
658.036	0.0128424
658.114	0.0127641
658.193	0.0127967
658.271	0.0129275
658.349	0.0126852
658.427	0.0127409
658.505	0.0128792
658.583	0.0128299
658.661	0.0127632
658.739	0.0127715
658.818	0.0127480
658.896	0.0127116
658.974	0.0126413
659.052	0.0128008
659.130	0.0126683
659.208	0.0127695
659.286	0.0126961
659.364	0.0126985
659.443	0.0127600
659.521	0.0126846
659.599	0.0127731
659.677	0.0127212
659.755	0.0126282
659.833	0.0126421
659.911	0.0128043
659.989	0.0126326
660.068	0.0128578
660.146	0.0126604
660.224	0.0127004
660.302	0.0128285
660.380	0.0127547
660.458	0.0127124
660.536	0.0127408
660.614	0.0126994
660.693	0.0127641
660.771	0.0125962
660.849	0.0126587
660.927	0.0127295
661.005	0.0126908
661.083	0.0125526
661.161	0.0126786
661.239	0.0127182
661.318	0.0127639
661.396	0.0127251
661.474	0.0127444
661.552	0.0127693
661.630	0.0126430
661.708	0.0126755
661.786	0.0127084
661.864	0.0127561
661.943	0.0128504
662.021	0.0126985
662.099	0.0127332
662.177	0.0127586
662.255	0.0126852
662.333	0.0128233
662.411	0.0127354
662.489	0.0126630
662.568	0.0127227
662.646	0.0125362
662.724	0.0128259
662.802	0.0127386
662.880	0.0127061
662.958	0.0127718
663.036	0.0126558
663.114	0.0126821
663.193	0.0126456
663.271	0.0125995
663.349	0.0126532
663.427	0.0126354
663.505	0.0128674
663.583	0.0126829
663.661	0.0127544
663.739	0.0127200
663.818	0.0126123
663.896	0.0127833
663.974	0.0126889
664.052	0.0126709
664.130	0.0127422
664.208	0.0128273
664.286	0.0128088
664.364	0.0127696
664.443	0.0127484
664.521	0.0129287
664.599	0.0128793
664.677	0.0127676
664.755	0.0127717
664.833	0.0128074
664.911	0.0128477
664.989	0.0127400
665.068	0.0127165
665.146	0.0127015
665.224	0.0127048
665.302	0.0128856
665.380	0.0127113
665.458	0.0126717
665.536	0.0127255
665.614	0.0127694
665.693	0.0128197
665.771	0.0127969
665.849	0.0128852
665.927	0.0127059
666.005	0.0128812
666.083	0.0127571
666.161	0.0128597
666.239	0.0130210
666.318	0.0128465
666.396	0.0128333
666.474	0.0129477
666.552	0.0128241
666.630	0.0127722
666.708	0.0128354
666.786	0.0128057
666.864	0.0128197
666.943	0.0127386
667.021	0.0127324
667.099	0.0127029
667.177	0.0127131
667.255	0.0128316
667.333	0.0127592
667.411	0.0127062
667.489	0.0127429
667.568	0.0128864
667.646	0.0128599
667.724	0.0129259
667.802	0.0129099
667.880	0.0128584
667.958	0.0127921
668.036	0.0128431
668.114	0.0128394
668.193	0.0128074
668.271	0.0129801
668.349	0.0128358
668.427	0.0127602
668.505	0.0127627
668.583	0.0127595
668.661	0.0127787
668.739	0.0127139
668.818	0.0128423
668.896	0.0127398
668.974	0.0128197
669.052	0.0129369
669.130	0.0129031
669.208	0.0127934
669.286	0.0128873
669.364	0.0127763
669.443	0.0128648
669.521	0.0129087
669.599	0.0128434
669.677	0.0128558
669.755	0.0128968
669.833	0.0129201
669.911	0.0128094
669.989	0.0128458
670.068	0.0128513
670.146	0.0129344
670.224	0.0128629
670.302	0.0128130
670.380	0.0129319
670.458	0.0129336
670.536	0.0127935
670.614	0.0128154
670.693	0.0128303
670.771	0.0128957
670.849	0.0129555
670.927	0.0128313
671.005	0.0129194
671.083	0.0129144
671.161	0.0127793
671.239	0.0127447
671.318	0.0128189
671.396	0.0128449
671.474	0.0127541
671.552	0.0128572
671.630	0.0130358
671.708	0.0129485
671.786	0.0128391
671.864	0.0129730
671.943	0.0130730
672.021	0.0129880
672.099	0.0128336
672.177	0.0128735
672.255	0.0130668
672.333	0.0130259
672.411	0.0128655
672.489	0.0129108
672.568	0.0128440
672.646	0.0128777
672.724	0.0129465
672.802	0.0128752
672.880	0.0128836
672.958	0.0129821
673.036	0.0129261
673.114	0.0128674
673.193	0.0128625
673.271	0.0129668
673.349	0.0128064
673.427	0.0128242
673.505	0.0128893
673.583	0.0129004
673.661	0.0129828
673.739	0.0128231
673.818	0.0127612
673.896	0.0128781
673.974	0.0129296
674.052	0.0128790
674.130	0.0128020
674.208	0.0128123
674.286	0.0128291
674.364	0.0130178
674.443	0.0129660
674.521	0.0129341
674.599	0.0128888
674.677	0.0129855
674.755	0.0128320
674.833	0.0129058
674.911	0.0128965
674.989	0.0129440
675.068	0.0130051
675.146	0.0128983
675.224	0.0127412
675.302	0.0130621
675.380	0.0129453
675.458	0.0128412
675.536	0.0130539
675.614	0.0130042
675.693	0.0129601
675.771	0.0130243
675.849	0.0130070
675.927	0.0129633
676.005	0.0128822
676.083	0.0129736
676.161	0.0128462
676.239	0.0128732
676.318	0.0129145
676.396	0.0129254
676.474	0.0127848
676.552	0.0128250
676.630	0.0128013
676.708	0.0127923
676.786	0.0127502
676.864	0.0127839
676.943	0.0127232
677.021	0.0128631
677.099	0.0128030
677.177	0.0128166
677.255	0.0129088
677.333	0.0129498
677.411	0.0129649
677.489	0.0129616
677.568	0.0128612
677.646	0.0128262
677.724	0.0130168
677.802	0.0129430
677.880	0.0130761
677.958	0.0129531
678.036	0.0129340
678.114	0.0129389
678.193	0.0126942
678.271	0.0128198
678.349	0.0127959
678.427	0.0128191
678.505	0.0128246
678.583	0.0125845
678.661	0.0126192
678.739	0.0125845
678.818	0.0125896
678.896	0.0126891
678.974	0.0124860
679.052	0.0126632
679.130	0.0127476
679.208	0.0127692
679.286	0.0127985
679.364	0.0131389
679.443	0.0130608
679.521	0.0130765
679.599	0.0132846
679.677	0.0131507
679.755	0.0132355
679.833	0.0132589
679.911	0.0131100
679.989	0.0131020
680.068	0.0128451
680.146	0.0128605
680.224	0.0126862
680.302	0.0125604
680.380	0.0124739
680.458	0.0123517
680.536	0.0121964
680.614	0.0122459
680.693	0.0121674
680.771	0.0120615
680.849	0.0121371
680.927	0.0122949
681.005	0.0123426
681.083	0.0123563
681.161	0.0123565
681.239	0.0126412
681.318	0.0128045
681.396	0.0128310
681.474	0.0130215
681.552	0.0130908
681.630	0.0132843
681.708	0.0134869
681.786	0.0136091
681.864	0.0136296
681.943	0.0136853
682.021	0.0137547
682.099	0.0137138
682.177	0.0135725
682.255	0.0137587
682.333	0.0135842
682.411	0.0134149
682.489	0.0132434
682.568	0.0130578
682.646	0.0128345
682.724	0.0126555
682.802	0.0123682
682.880	0.0122353
682.958	0.0118776
683.036	0.0117235
683.114	0.0116743
683.193	0.0114806
683.271	0.0113702
683.349	0.0116610
683.427	0.0117431
683.505	0.0117854
683.583	0.0119137
683.661	0.0119513
683.739	0.0122778
683.818	0.0124432
683.896	0.0125967
683.974	0.0127664
684.052	0.0130430
684.130	0.0131402
684.208	0.0133288
684.286	0.0134626
684.364	0.0136188
684.443	0.0138010
684.521	0.0139709
684.599	0.0139224
684.677	0.0138751
684.755	0.0139771
684.833	0.0142381
684.911	0.0140005
684.989	0.0141181
685.068	0.0139053
685.146	0.0138300
685.224	0.0137267
685.302	0.0134550
685.380	0.0131366
685.458	0.0129113
685.536	0.0126848
685.614	0.0123218
685.693	0.0120956
685.771	0.0118894
685.849	0.0118451
685.927	0.0115904
686.005	0.0113376
686.083	0.0112205
686.161	0.0112283
686.239	0.0112678
686.318	0.0113200
686.396	0.0113088
686.474	0.0116476
686.552	0.0116404
686.630	0.0118010
686.708	0.0121577
686.786	0.0122926
686.864	0.0125597
686.943	0.0126069
687.021	0.0129021
687.099	0.0131799
687.177	0.0133115
687.255	0.0135539
687.333	0.0136369
687.411	0.0136674
687.489	0.0134940
687.568	0.0134835
687.646	0.0135773
687.724	0.0134412
687.802	0.0132384
687.880	0.0132123
687.958	0.0131806
688.036	0.0129087
688.114	0.0128043
688.193	0.0124718
688.271	0.0126271
688.349	0.0125092
688.427	0.0124160
688.505	0.0124795
688.583	0.0126033
688.661	0.0126824
688.739	0.0127737
688.818	0.0130325
688.896	0.0134207
688.974	0.0135803
689.052	0.0137005
689.130	0.0138235
689.208	0.0139452
689.286	0.0138260
689.364	0.0137492
689.443	0.0138960
689.521	0.0137691
689.599	0.0137288
689.677	0.0137162
689.755	0.0134312
689.833	0.0132808
689.911	0.0132315
689.989	0.0130193
690.068	0.0128542
690.146	0.0124394
690.224	0.0121815
690.302	0.0119654
690.380	0.0116135
690.458	0.0112936
690.536	0.0110808
690.614	0.0107718
690.693	0.0105922
690.771	0.0106141
690.849	0.0102854
690.927	0.0102522
691.005	0.0102170
691.083	0.0104273
691.161	0.0107053
691.239	0.0108197
691.318	0.0109852
691.396	0.0115142
691.474	0.0118289
691.552	0.0121602
691.630	0.0125323
691.708	0.0129679
691.786	0.0133266
691.864	0.0135930
691.943	0.0139347
692.021	0.0143852
692.099	0.0145083
692.177	0.0145795
692.255	0.0151047
692.333	0.0152496
692.411	0.0154064
692.489	0.0155461
692.568	0.0156339
692.646	0.0157179
692.724	0.0156617
692.802	0.0156653
692.880	0.0155505
692.958	0.0152552
693.036	0.0149651
693.114	0.0146703
693.193	0.0142299
693.271	0.0139037
693.349	0.0135168
693.427	0.0131718
693.505	0.0128709
693.583	0.0125730
693.661	0.0124837
693.739	0.0121417
693.818	0.0118772
693.896	0.0118489
693.974	0.0116553
694.052	0.0114507
694.130	0.0113895
694.208	0.0112675
694.286	0.0110564
694.364	0.0109197
694.443	0.0107124
694.521	0.0104260
694.599	0.0103506
694.677	0.0102985
694.755	0.00998436
694.833	0.00992241
694.911	0.00993088
694.989	0.0100177
695.068	0.0101998
695.146	0.0103760
695.224	0.0104790
695.302	0.0108023
695.380	0.0109770
695.458	0.0113136
695.536	0.0116398
695.614	0.0119445
695.693	0.0122688
695.771	0.0125716
695.849	0.0129713
695.927	0.0129538
696.005	0.0133597
696.083	0.0136149
696.161	0.0139333
696.239	0.0141656
696.318	0.0142872
696.396	0.0146899
696.474	0.0149271
696.552	0.0152490
696.630	0.0155264
696.708	0.0158659
696.786	0.0161509
696.864	0.0164251
696.943	0.0164697
697.021	0.0167544
697.099	0.0167658
697.177	0.0167435
697.255	0.0165592
697.333	0.0163879
697.411	0.0163427
697.489	0.0158772
697.568	0.0155056
697.646	0.0151288
697.724	0.0147285
697.802	0.0140440
697.880	0.0135460
697.958	0.0129955
698.036	0.0124025
698.114	0.0120602
698.193	0.0115652
698.271	0.0112354
698.349	0.0107439
698.427	0.0104053
698.505	0.0102937
698.583	0.00996544
698.661	0.00968048
698.739	0.00948860
698.818	0.00920486
698.896	0.00910919
698.974	0.00912018
699.052	0.00887672
699.130	0.00875999
699.208	0.00890732
699.286	0.00889336
699.364	0.00903206
699.443	0.00925201
699.521	0.00965225
699.599	0.0100317
699.677	0.0102855
699.755	0.0107159
699.833	0.0110421
699.911	0.0115047
699.989	0.0117641
700.068	0.0122076
700.146	0.0123516
700.224	0.0126747
700.302	0.0130819
700.380	0.0132933
700.458	0.0136441
700.536	0.0139276
700.614	0.0142708
700.693	0.0146346
700.771	0.0150253
700.849	0.0154477
700.927	0.0157530
701.005	0.0162060
701.083	0.0165494
701.161	0.0168336
701.239	0.0169526
701.318	0.0169857
701.396	0.0171152
701.474	0.0172239
701.552	0.0173622
701.630	0.0172196
701.708	0.0171774
701.786	0.0172890
701.864	0.0172162
701.943	0.0169386
702.021	0.0166738
702.099	0.0165256
702.177	0.0161620
702.255	0.0157063
702.333	0.0153765
702.411	0.0147058
702.489	0.0139451
702.568	0.0131925
702.646	0.0125573
702.724	0.0117036
702.802	0.0107986
702.880	0.0100924
702.958	0.00942184
703.036	0.00859474
703.114	0.00797432
703.193	0.00758186
703.271	0.00713638
703.349	0.00679207
703.427	0.00677834
703.505	0.00663841
703.583	0.00668579
703.661	0.00673996
703.739	0.00682480
703.818	0.00721695
703.896	0.00765015
703.974	0.00780418
704.052	0.00832222
704.130	0.00885170
704.208	0.00960236
704.286	0.0101963
704.364	0.0109713
704.443	0.0116469
704.521	0.0124133
704.599	0.0131585
704.677	0.0138743
704.755	0.0143576
704.833	0.0149780
704.911	0.0154361
704.989	0.0158926
705.068	0.0161649
705.146	0.0163535
705.224	0.0163239
705.302	0.0164719
705.380	0.0164753
705.458	0.0163459
705.536	0.0163260
705.614	0.0162852
705.693	0.0163241
705.771	0.0162087
705.849	0.0158710
705.927	0.0156828
706.005	0.0156409
706.083	0.0154103
706.161	0.0152341
706.239	0.0149770
706.318	0.0147471
706.396	0.0146061
706.474	0.0147675
706.552	0.0145627
706.630	0.0144746
706.708	0.0144774
706.786	0.0145105
706.864	0.0144253
706.943	0.0143378
707.021	0.0141882
707.099	0.0141283
707.177	0.0139165
707.255	0.0136745
707.333	0.0134335
707.411	0.0130824
707.489	0.0126691
707.568	0.0121649
707.646	0.0117134
707.724	0.0112466
707.802	0.0107401
707.880	0.0102200
707.958	0.0100249
708.036	0.00960068
708.114	0.00904419
708.193	0.00877876
708.271	0.00847160
708.349	0.00831375
708.427	0.00792572
708.505	0.00784981
708.583	0.00792633
708.661	0.00789803
708.739	0.00816154
708.818	0.00839447
708.896	0.00873993
708.974	0.00905441
709.052	0.00950569
709.130	0.0101807
709.208	0.0107788
709.286	0.0114050
709.364	0.0119752
709.443	0.0126712
709.521	0.0133049
709.599	0.0138395
709.677	0.0143906
709.755	0.0149129
709.833	0.0152578
709.911	0.0156992
709.989	0.0159159
710.068	0.0160361
710.146	0.0160733
710.224	0.0162561
710.302	0.0161088
710.380	0.0160946
710.458	0.0157524
710.536	0.0156413
710.614	0.0150233
710.693	0.0146588
710.771	0.0144234
710.849	0.0141716
710.927	0.0137668
711.005	0.0136356
711.083	0.0135909
711.161	0.0133031
711.239	0.0132504
711.318	0.0133097
711.396	0.0132106
711.474	0.0132413
711.552	0.0132430
711.630	0.0134216
711.708	0.0135072
711.786	0.0133826
711.864	0.0134442
711.943	0.0133463
712.021	0.0133141
712.099	0.0134618
712.177	0.0135183
712.255	0.0133856
712.333	0.0132800
712.411	0.0132187
712.489	0.0132440
712.568	0.0133466
712.646	0.0132394
712.724	0.0130872
712.802	0.0132610
712.880	0.0131548
712.958	0.0131071
713.036	0.0130930
713.114	0.0127585
713.193	0.0126611
713.271	0.0124699
713.349	0.0122395
713.427	0.0117576
713.505	0.0115105
713.583	0.0110297
713.661	0.0107557
713.739	0.0104694
713.818	0.0101830
713.896	0.00982178
713.974	0.00978249
714.052	0.00952965
714.130	0.00941635
714.208	0.00941460
714.286	0.00960007
714.364	0.00971207
714.443	0.00996437
714.521	0.0103507
714.599	0.0107547
714.677	0.0111659
714.755	0.0117184
714.833	0.0119987
714.911	0.0125474
714.989	0.0129365
715.068	0.0134190
715.146	0.0137558
715.224	0.0139760
715.302	0.0143951
715.380	0.0146912
715.458	0.0148507
715.536	0.0149437
715.614	0.0149746
715.693	0.0150370
715.771	0.0150268
715.849	0.0149034
715.927	0.0148925
716.005	0.0147960
716.083	0.0147440
716.161	0.0144685
716.239	0.0145353
716.318	0.0142722
716.396	0.0139567
716.474	0.0139813
716.552	0.0138527
716.630	0.0134850
716.708	0.0133842
716.786	0.0132864
716.864	0.0131509
716.943	0.0130012
717.021	0.0130552
717.099	0.0130468
717.177	0.0129533
717.255	0.0129395
717.333	0.0131309
717.411	0.0131707
717.489	0.0131262
717.568	0.0133949
717.646	0.0134501
717.724	0.0133810
717.802	0.0134178
717.880	0.0135637
717.958	0.0135233
718.036	0.0133804
718.114	0.0132621
718.193	0.0132064
718.271	0.0128707
718.349	0.0128986
718.427	0.0127583
718.505	0.0125909
718.583	0.0124320
718.661	0.0124487
718.739	0.0121804
718.818	0.0123913
718.896	0.0120879
718.974	0.0120407
719.052	0.0119276
719.130	0.0118224
719.208	0.0115324
719.286	0.0113047
719.364	0.0110446
719.443	0.0108827
719.521	0.0108041
719.599	0.0106342
719.677	0.0104836
719.755	0.0105370
719.833	0.0104768
719.911	0.0105865
719.989	0.0107568
720.068	0.0111122
720.146	0.0113556
720.224	0.0116752
720.302	0.0119991
720.380	0.0126223
720.458	0.0129404
720.536	0.0132309
720.614	0.0135406
720.693	0.0138062
720.771	0.0141122
720.849	0.0143698
720.927	0.0145200
721.005	0.0144365
721.083	0.0145219
721.161	0.0145287
721.239	0.0145486
721.318	0.0146027
721.396	0.0144071
721.474	0.0142699
721.552	0.0141906
721.630	0.0140544
721.708	0.0138232
721.786	0.0135214
721.864	0.0130764
721.943	0.0128131
722.021	0.0126045
722.099	0.0124014
722.177	0.0120853
722.255	0.0117714
722.333	0.0117108
722.411	0.0116383
722.489	0.0115270
722.568	0.0118091
722.646	0.0118682
722.724	0.0120567
722.802	0.0124338
722.880	0.0127576
722.958	0.0129326
723.036	0.0131253
723.114	0.0135152
723.193	0.0137626
723.271	0.0139336
723.349	0.0141145
723.427	0.0140716
723.505	0.0141048
723.583	0.0142383
723.661	0.0141740
723.739	0.0139580
723.818	0.0138463
723.896	0.0134740
723.974	0.0134052
724.052	0.0131132
724.130	0.0130992
724.208	0.0129271
724.286	0.0127583
724.364	0.0127253
724.443	0.0127213
724.521	0.0127621
724.599	0.0127451
724.677	0.0128747
724.755	0.0129634
724.833	0.0128403
724.911	0.0129309
724.989	0.0129696
725.068	0.0130394
725.146	0.0129842
725.224	0.0130305
725.302	0.0128555
725.380	0.0127366
725.458	0.0124774
