05/14/2022	16:33:51	Ver.	4.1	UNKNOWN
Optical Delay	639.989416	Delta X		0.078125	Sweeps	1	Scan Rate	0/0
Coordinates	Axis 1	NaN	Axis 2	NaN	Axis 3	NaN	Axis 4	NaN	Axis 5	NaN	Axis 6	0.000000
TX Power	0.000000	RX Power	0.000000

639.989	0.0128817
640.068	0.0129416
640.146	0.0129022
640.224	0.0129580
640.302	0.0131142
640.380	0.0129354
640.458	0.0128771
640.536	0.0129446
640.614	0.0130254
640.693	0.0129511
640.771	0.0128484
640.849	0.0130256
640.927	0.0131292
641.005	0.0130211
641.083	0.0129467
641.161	0.0129324
641.239	0.0129642
641.318	0.0128191
641.396	0.0128988
641.474	0.0130090
641.552	0.0129457
641.630	0.0129018
641.708	0.0130119
641.786	0.0129161
641.864	0.0129065
641.943	0.0129982
642.021	0.0131006
642.099	0.0130732
642.177	0.0128762
642.255	0.0130333
642.333	0.0130042
642.411	0.0131281
642.489	0.0129868
642.568	0.0130436
642.646	0.0130244
642.724	0.0130598
642.802	0.0130449
642.880	0.0130331
642.958	0.0131519
643.036	0.0130961
643.114	0.0130614
643.193	0.0129504
643.271	0.0130025
643.349	0.0130903
643.427	0.0131200
643.505	0.0129903
643.583	0.0127869
643.661	0.0129653
643.739	0.0131512
643.818	0.0129704
643.896	0.0130114
643.974	0.0128697
644.052	0.0129584
644.130	0.0130302
644.208	0.0130511
644.286	0.0130603
644.364	0.0130568
644.443	0.0130169
644.521	0.0129314
644.599	0.0129877
644.677	0.0130653
644.755	0.0130830
644.833	0.0129755
644.911	0.0130148
644.989	0.0130611
645.068	0.0130321
645.146	0.0129887
645.224	0.0129688
645.302	0.0129675
645.380	0.0129916
645.458	0.0129481
645.536	0.0130909
645.614	0.0130894
645.693	0.0130436
645.771	0.0130463
645.849	0.0131453
645.927	0.0130326
646.005	0.0130852
646.083	0.0128744
646.161	0.0128848
646.239	0.0131098
646.318	0.0129653
646.396	0.0129910
646.474	0.0129323
646.552	0.0129401
646.630	0.0129783
646.708	0.0130228
646.786	0.0130104
646.864	0.0129036
646.943	0.0128886
647.021	0.0128660
647.099	0.0130986
647.177	0.0130759
647.255	0.0128040
647.333	0.0129601
647.411	0.0129107
647.489	0.0128845
647.568	0.0129208
647.646	0.0128581
647.724	0.0130266
647.802	0.0131047
647.880	0.0130725
647.958	0.0129214
648.036	0.0128150
648.114	0.0129476
648.193	0.0129078
648.271	0.0128602
648.349	0.0129411
648.427	0.0128479
648.505	0.0128637
648.583	0.0129270
648.661	0.0127392
648.739	0.0128773
648.818	0.0127539
648.896	0.0129358
648.974	0.0128925
649.052	0.0128285
649.130	0.0128908
649.208	0.0127837
649.286	0.0128111
649.364	0.0127407
649.443	0.0127271
649.521	0.0129040
649.599	0.0127778
649.677	0.0128584
649.755	0.0127772
649.833	0.0127205
649.911	0.0126777
649.989	0.0127979
650.068	0.0127764
650.146	0.0128500
650.224	0.0127157
650.302	0.0129536
650.380	0.0127834
650.458	0.0126922
650.536	0.0128680
650.614	0.0128792
650.693	0.0126744
650.771	0.0127753
650.849	0.0127567
650.927	0.0127810
651.005	0.0126377
651.083	0.0128400
651.161	0.0128982
651.239	0.0127691
651.318	0.0127304
651.396	0.0127325
651.474	0.0127643
651.552	0.0128391
651.630	0.0127769
651.708	0.0126661
651.786	0.0128311
651.864	0.0127274
651.943	0.0127760
652.021	0.0128483
652.099	0.0127579
652.177	0.0126469
652.255	0.0127525
652.333	0.0126915
652.411	0.0127936
652.489	0.0127604
652.568	0.0126910
652.646	0.0127406
652.724	0.0128336
652.802	0.0127409
652.880	0.0127144
652.958	0.0126868
653.036	0.0126357
653.114	0.0128107
653.193	0.0127209
653.271	0.0126405
653.349	0.0127227
653.427	0.0128780
653.505	0.0128103
653.583	0.0127024
653.661	0.0126781
653.739	0.0127007
653.818	0.0127286
653.896	0.0126817
653.974	0.0126025
654.052	0.0127729
654.130	0.0127966
654.208	0.0128290
654.286	0.0126212
654.364	0.0127595
654.443	0.0128239
654.521	0.0126169
654.599	0.0126931
654.677	0.0127159
654.755	0.0127541
654.833	0.0128070
654.911	0.0127578
654.989	0.0127139
655.068	0.0128911
655.146	0.0127685
655.224	0.0127477
655.302	0.0127728
655.380	0.0127731
655.458	0.0126129
655.536	0.0128606
655.614	0.0129922
655.693	0.0127859
655.771	0.0126652
655.849	0.0127275
655.927	0.0128368
656.005	0.0128212
656.083	0.0126284
656.161	0.0128981
656.239	0.0127779
656.318	0.0126384
656.396	0.0127953
656.474	0.0128389
656.552	0.0126711
656.630	0.0127803
656.708	0.0127496
656.786	0.0127489
656.864	0.0128236
656.943	0.0127434
657.021	0.0126776
657.099	0.0127852
657.177	0.0128708
657.255	0.0127763
657.333	0.0129374
657.411	0.0129333
657.489	0.0128041
657.568	0.0127076
657.646	0.0128292
657.724	0.0128940
657.802	0.0127969
657.880	0.0129893
657.958	0.0129045
658.036	0.0129050
658.114	0.0128130
658.193	0.0128053
658.271	0.0128429
658.349	0.0128921
658.427	0.0128246
658.505	0.0128202
658.583	0.0127432
658.661	0.0127924
658.739	0.0130039
658.818	0.0128152
658.896	0.0128786
658.974	0.0128486
659.052	0.0127456
659.130	0.0127923
659.208	0.0128736
659.286	0.0129812
659.364	0.0130707
659.443	0.0129160
659.521	0.0128166
659.599	0.0128487
659.677	0.0128532
659.755	0.0128091
659.833	0.0128107
659.911	0.0128769
659.989	0.0129465
660.068	0.0129071
660.146	0.0128210
660.224	0.0128700
660.302	0.0128824
660.380	0.0129468
660.458	0.0129326
660.536	0.0129671
660.614	0.0128486
660.693	0.0127890
660.771	0.0129014
660.849	0.0128028
660.927	0.0129991
661.005	0.0128504
661.083	0.0128203
661.161	0.0128985
661.239	0.0130198
661.318	0.0130123
661.396	0.0129549
661.474	0.0128262
661.552	0.0128764
661.630	0.0130341
661.708	0.0128950
661.786	0.0129406
661.864	0.0129879
661.943	0.0129482
662.021	0.0128030
662.099	0.0129145
662.177	0.0129550
662.255	0.0129693
662.333	0.0129945
662.411	0.0129668
662.489	0.0128682
662.568	0.0128944
662.646	0.0129125
662.724	0.0127203
662.802	0.0129394
662.880	0.0129790
662.958	0.0129674
663.036	0.0130325
663.114	0.0129836
663.193	0.0127779
663.271	0.0128318
663.349	0.0128705
663.427	0.0130389
663.505	0.0130293
663.583	0.0130953
663.661	0.0130674
663.739	0.0130220
663.818	0.0128248
663.896	0.0129935
663.974	0.0129809
664.052	0.0128786
664.130	0.0129758
664.208	0.0128303
664.286	0.0129562
664.364	0.0128807
664.443	0.0129926
664.521	0.0130747
664.599	0.0128777
664.677	0.0129468
664.755	0.0128656
664.833	0.0128935
664.911	0.0129285
664.989	0.0129610
665.068	0.0130238
665.146	0.0129691
665.224	0.0129027
665.302	0.0128835
665.380	0.0129620
665.458	0.0128589
665.536	0.0129190
665.614	0.0129106
665.693	0.0129523
665.771	0.0128665
665.849	0.0128414
665.927	0.0129553
666.005	0.0129043
666.083	0.0129075
666.161	0.0129188
666.239	0.0129839
666.318	0.0127891
666.396	0.0128571
666.474	0.0128951
666.552	0.0128317
666.630	0.0129119
666.708	0.0129879
666.786	0.0128499
666.864	0.0129670
666.943	0.0128374
667.021	0.0127878
667.099	0.0128704
667.177	0.0128101
667.255	0.0129037
667.333	0.0129883
667.411	0.0130002
667.489	0.0128563
667.568	0.0129332
667.646	0.0127676
667.724	0.0128333
667.802	0.0128742
667.880	0.0129214
667.958	0.0128813
668.036	0.0128989
668.114	0.0129173
668.193	0.0128381
668.271	0.0128167
668.349	0.0129437
668.427	0.0128431
668.505	0.0128857
668.583	0.0129216
668.661	0.0129611
668.739	0.0127583
668.818	0.0129283
668.896	0.0129232
668.974	0.0128932
669.052	0.0129012
669.130	0.0129395
669.208	0.0129955
669.286	0.0129142
669.364	0.0129066
669.443	0.0127191
669.521	0.0129069
669.599	0.0128971
669.677	0.0129104
669.755	0.0127866
669.833	0.0128720
669.911	0.0128902
669.989	0.0126671
670.068	0.0128027
670.146	0.0130249
670.224	0.0127953
670.302	0.0129019
670.380	0.0129470
670.458	0.0128507
670.536	0.0128677
670.614	0.0128234
670.693	0.0130142
670.771	0.0130262
670.849	0.0129588
670.927	0.0130360
671.005	0.0129209
671.083	0.0129224
671.161	0.0130249
671.239	0.0130275
671.318	0.0129266
671.396	0.0129323
671.474	0.0130388
671.552	0.0129890
671.630	0.0129012
671.708	0.0128928
671.786	0.0128877
671.864	0.0128619
671.943	0.0129427
672.021	0.0128358
672.099	0.0127835
672.177	0.0129262
672.255	0.0127459
672.333	0.0128252
672.411	0.0127715
672.489	0.0127995
672.568	0.0128495
672.646	0.0126823
672.724	0.0127013
672.802	0.0128938
672.880	0.0128500
672.958	0.0130318
673.036	0.0129062
673.114	0.0129369
673.193	0.0129498
673.271	0.0128628
673.349	0.0129544
673.427	0.0129235
673.505	0.0129202
673.583	0.0128835
673.661	0.0126565
673.739	0.0129345
673.818	0.0126564
673.896	0.0127068
673.974	0.0127213
674.052	0.0128060
674.130	0.0127616
674.208	0.0128163
674.286	0.0128101
674.364	0.0127579
674.443	0.0126275
674.521	0.0127790
674.599	0.0127885
674.677	0.0128584
674.755	0.0128635
674.833	0.0130183
674.911	0.0128047
674.989	0.0128301
675.068	0.0128384
675.146	0.0129453
675.224	0.0128151
675.302	0.0128233
675.380	0.0128788
675.458	0.0127363
675.536	0.0128432
675.614	0.0128857
675.693	0.0128242
675.771	0.0129586
675.849	0.0127679
675.927	0.0128267
676.005	0.0127388
676.083	0.0129165
676.161	0.0126125
676.239	0.0127493
676.318	0.0128657
676.396	0.0128574
676.474	0.0128062
676.552	0.0127235
676.630	0.0128101
676.708	0.0128955
676.786	0.0128699
676.864	0.0128642
676.943	0.0127917
677.021	0.0128259
677.099	0.0129101
677.177	0.0129176
677.255	0.0128885
677.333	0.0128804
677.411	0.0128370
677.489	0.0127324
677.568	0.0129247
677.646	0.0127148
677.724	0.0128035
677.802	0.0127924
677.880	0.0126974
677.958	0.0125425
678.036	0.0126643
678.114	0.0126653
678.193	0.0126890
678.271	0.0126043
678.349	0.0127383
678.427	0.0126392
678.505	0.0127509
678.583	0.0127110
678.661	0.0129436
678.739	0.0130073
678.818	0.0130118
678.896	0.0131284
678.974	0.0131605
679.052	0.0131478
679.130	0.0129893
679.208	0.0130066
679.286	0.0128556
679.364	0.0127560
679.443	0.0126878
679.521	0.0126319
679.599	0.0125907
679.677	0.0123846
679.755	0.0123817
679.833	0.0121896
679.911	0.0123025
679.989	0.0123177
680.068	0.0120669
680.146	0.0121716
680.224	0.0123255
680.302	0.0124069
680.380	0.0124569
680.458	0.0126037
680.536	0.0127449
680.614	0.0127755
680.693	0.0130040
680.771	0.0130919
680.849	0.0132809
680.927	0.0134566
681.005	0.0136999
681.083	0.0136897
681.161	0.0138254
681.239	0.0138041
681.318	0.0138105
681.396	0.0139805
681.474	0.0139065
681.552	0.0137101
681.630	0.0135477
681.708	0.0134773
681.786	0.0132944
681.864	0.0128864
681.943	0.0125759
682.021	0.0125913
682.099	0.0121166
682.177	0.0118665
682.255	0.0117855
682.333	0.0116231
682.411	0.0115300
682.489	0.0114990
682.568	0.0113817
682.646	0.0113259
682.724	0.0115431
682.802	0.0118233
682.880	0.0116758
682.958	0.0120615
683.036	0.0122352
683.114	0.0124597
683.193	0.0126057
683.271	0.0128466
683.349	0.0132547
683.427	0.0134525
683.505	0.0137928
683.583	0.0138818
683.661	0.0141146
683.739	0.0141285
683.818	0.0142632
683.896	0.0142213
683.974	0.0142439
684.052	0.0141848
684.130	0.0141200
684.208	0.0140129
684.286	0.0138499
684.364	0.0137228
684.443	0.0136852
684.521	0.0134857
684.599	0.0131995
684.677	0.0130331
684.755	0.0128194
684.833	0.0125859
684.911	0.0122904
684.989	0.0120133
685.068	0.0119050
685.146	0.0117609
685.224	0.0116298
685.302	0.0114687
685.380	0.0112217
685.458	0.0111740
685.536	0.0110786
685.614	0.0111302
685.693	0.0111994
685.771	0.0112855
685.849	0.0114217
685.927	0.0114983
686.005	0.0118223
686.083	0.0120097
686.161	0.0123121
686.239	0.0127628
686.318	0.0129273
686.396	0.0131500
686.474	0.0136021
686.552	0.0139230
686.630	0.0142161
686.708	0.0143330
686.786	0.0146270
686.864	0.0148103
686.943	0.0148368
687.021	0.0148141
687.099	0.0147577
687.177	0.0145731
687.255	0.0144023
687.333	0.0141319
687.411	0.0138084
687.489	0.0136159
687.568	0.0131757
687.646	0.0128213
687.724	0.0124829
687.802	0.0121510
687.880	0.0119662
687.958	0.0118828
688.036	0.0116582
688.114	0.0117404
688.193	0.0115854
688.271	0.0117126
688.349	0.0118145
688.427	0.0121048
688.505	0.0120713
688.583	0.0123330
688.661	0.0127703
688.739	0.0128252
688.818	0.0129895
688.896	0.0132092
688.974	0.0133401
689.052	0.0136530
689.130	0.0136282
689.208	0.0137910
689.286	0.0139487
689.364	0.0139237
689.443	0.0137971
689.521	0.0136293
689.599	0.0135440
689.677	0.0134203
689.755	0.0130930
689.833	0.0128645
689.911	0.0125217
689.989	0.0123268
690.068	0.0119654
690.146	0.0118341
690.224	0.0114716
690.302	0.0113201
690.380	0.0111961
690.458	0.0111186
690.536	0.0109747
690.614	0.0109347
690.693	0.0110329
690.771	0.0108934
690.849	0.0110854
690.927	0.0113535
691.005	0.0117639
691.083	0.0119018
691.161	0.0121980
691.239	0.0126089
691.318	0.0131331
691.396	0.0134883
691.474	0.0137499
691.552	0.0144543
691.630	0.0147662
691.708	0.0151881
691.786	0.0155886
691.864	0.0160199
691.943	0.0160632
692.021	0.0162393
692.099	0.0162180
692.177	0.0162010
692.255	0.0162019
692.333	0.0158809
692.411	0.0153817
692.489	0.0150964
692.568	0.0147342
692.646	0.0141339
692.724	0.0136900
692.802	0.0132022
692.880	0.0127731
692.958	0.0122958
693.036	0.0119611
693.114	0.0117508
693.193	0.0114692
693.271	0.0112901
693.349	0.0111184
693.427	0.0110474
693.505	0.0108200
693.583	0.0106577
693.661	0.0105347
693.739	0.0104405
693.818	0.0103202
693.896	0.0101514
693.974	0.0103583
694.052	0.0103085
694.130	0.0103005
694.208	0.0103196
694.286	0.0103297
694.364	0.0103927
694.443	0.0106857
694.521	0.0108150
694.599	0.0112621
694.677	0.0115318
694.755	0.0117106
694.833	0.0118776
694.911	0.0122966
694.989	0.0125355
695.068	0.0129176
695.146	0.0132150
695.224	0.0134606
695.302	0.0136193
695.380	0.0140297
695.458	0.0143858
695.536	0.0144520
695.614	0.0147782
695.693	0.0148797
695.771	0.0151466
695.849	0.0153999
695.927	0.0155585
696.005	0.0158310
696.083	0.0160300
696.161	0.0160113
696.239	0.0161422
696.318	0.0160383
696.396	0.0161624
696.474	0.0158530
696.552	0.0158575
696.630	0.0156503
696.708	0.0151644
696.786	0.0147612
696.864	0.0144877
696.943	0.0139565
697.021	0.0134920
697.099	0.0130233
697.177	0.0126574
697.255	0.0121997
697.333	0.0117795
697.411	0.0115845
697.489	0.0113036
697.568	0.0110173
697.646	0.0108532
697.724	0.0106834
697.802	0.0105608
697.880	0.0102751
697.958	0.0100216
698.036	0.00984619
698.114	0.00978493
698.193	0.00967659
698.271	0.00934380
698.349	0.00933556
698.427	0.00946899
698.505	0.00949295
698.583	0.00963669
698.661	0.00978035
698.739	0.0102088
698.818	0.0105553
698.896	0.0108345
698.974	0.0112719
699.052	0.0117474
699.130	0.0120136
699.208	0.0125344
699.286	0.0128247
699.364	0.0131857
699.443	0.0133889
699.521	0.0136534
699.599	0.0139101
699.677	0.0140718
699.755	0.0140794
699.833	0.0142129
699.911	0.0143239
699.989	0.0143713
700.068	0.0144548
700.146	0.0144028
700.224	0.0144416
700.302	0.0144551
700.380	0.0143835
700.458	0.0143246
700.536	0.0142196
700.614	0.0143087
700.693	0.0142702
700.771	0.0142289
700.849	0.0144031
700.927	0.0145425
701.005	0.0149081
701.083	0.0150027
701.161	0.0152020
701.239	0.0154662
701.318	0.0154585
701.396	0.0155849
701.474	0.0155208
701.552	0.0156158
701.630	0.0156318
701.708	0.0153940
701.786	0.0149862
701.864	0.0146593
701.943	0.0142948
702.021	0.0139441
702.099	0.0135562
702.177	0.0130926
702.255	0.0127164
702.333	0.0121671
702.411	0.0119229
702.489	0.0115943
702.568	0.0110163
702.646	0.0106128
702.724	0.0101494
702.802	0.00977264
702.880	0.00925987
702.958	0.00901901
703.036	0.00844963
703.114	0.00822212
703.193	0.00802696
703.271	0.00776840
703.349	0.00776863
703.427	0.00781128
703.505	0.00795364
703.583	0.00820656
703.661	0.00860870
703.739	0.00895943
703.818	0.00959610
703.896	0.00996521
703.974	0.0106823
704.052	0.0111779
704.130	0.0117493
704.208	0.0122135
704.286	0.0127220
704.364	0.0133224
704.443	0.0137389
704.521	0.0139923
704.599	0.0144583
704.677	0.0148854
704.755	0.0151950
704.833	0.0155202
704.911	0.0158422
704.989	0.0163512
705.068	0.0165891
705.146	0.0168050
705.224	0.0170234
705.302	0.0170320
705.380	0.0171816
705.458	0.0173277
705.536	0.0173147
705.614	0.0173266
705.693	0.0172032
705.771	0.0169115
705.849	0.0167943
705.927	0.0165427
706.005	0.0163927
706.083	0.0161430
706.161	0.0158267
706.239	0.0154836
706.318	0.0151556
706.396	0.0148470
706.474	0.0144257
706.552	0.0139320
706.630	0.0134543
706.708	0.0129234
706.786	0.0124908
706.864	0.0120010
706.943	0.0114276
707.021	0.0108065
707.099	0.0104342
707.177	0.0101710
707.255	0.00952255
707.333	0.00914139
707.411	0.00870285
707.489	0.00843674
707.568	0.00811913
707.646	0.00790840
707.724	0.00785995
707.802	0.00768082
707.880	0.00765282
707.958	0.00783997
708.036	0.00796394
708.114	0.00826149
708.193	0.00849892
708.271	0.00919708
708.349	0.00956139
708.427	0.0100443
708.505	0.0106557
708.583	0.0113131
708.661	0.0117404
708.739	0.0124451
708.818	0.0131092
708.896	0.0134643
708.974	0.0140192
709.052	0.0144160
709.130	0.0148753
709.208	0.0151128
709.286	0.0154140
709.364	0.0156524
709.443	0.0158119
709.521	0.0158331
709.599	0.0158276
709.677	0.0157934
709.755	0.0157417
709.833	0.0158125
709.911	0.0153338
709.989	0.0154226
710.068	0.0151046
710.146	0.0147002
710.224	0.0144325
710.302	0.0142756
710.380	0.0139553
710.458	0.0138683
710.536	0.0136783
710.614	0.0135858
710.693	0.0134857
710.771	0.0134374
710.849	0.0133460
710.927	0.0132201
711.005	0.0131440
711.083	0.0132338
711.161	0.0135176
711.239	0.0135413
711.318	0.0137111
711.396	0.0138988
711.474	0.0140253
711.552	0.0141739
711.630	0.0142011
711.708	0.0144129
711.786	0.0144306
711.864	0.0142278
711.943	0.0140318
712.021	0.0139890
712.099	0.0136666
712.177	0.0135224
712.255	0.0133334
712.333	0.0131648
712.411	0.0129749
712.489	0.0127258
712.568	0.0125410
712.646	0.0120712
712.724	0.0118450
712.802	0.0116457
712.880	0.0113477
712.958	0.0109378
713.036	0.0105711
713.114	0.0101366
713.193	0.00967628
713.271	0.00943314
713.349	0.00902061
713.427	0.00864868
713.505	0.00849838
713.583	0.00831566
713.661	0.00834366
713.739	0.00847366
713.818	0.00888084
713.896	0.00938377
713.974	0.00988365
714.052	0.0103848
714.130	0.0111089
714.208	0.0118230
714.286	0.0125270
714.364	0.0131930
714.443	0.0138290
714.521	0.0142912
714.599	0.0148679
714.677	0.0154594
714.755	0.0156963
714.833	0.0159007
714.911	0.0161054
714.989	0.0162005
715.068	0.0160040
715.146	0.0157450
715.224	0.0155969
715.302	0.0151831
715.380	0.0149606
715.458	0.0145199
715.536	0.0143615
715.614	0.0140453
715.693	0.0137275
715.771	0.0136631
715.849	0.0134664
715.927	0.0133444
716.005	0.0134069
716.083	0.0133517
716.161	0.0134264
716.239	0.0136887
716.318	0.0134851
716.396	0.0137451
716.474	0.0140304
716.552	0.0140687
716.630	0.0141438
716.708	0.0140595
716.786	0.0142654
716.864	0.0143463
716.943	0.0142580
717.021	0.0139758
717.099	0.0140021
717.177	0.0139458
717.255	0.0137441
717.333	0.0136179
717.411	0.0133639
717.489	0.0132336
717.568	0.0130878
717.646	0.0128419
717.724	0.0126373
717.802	0.0124310
717.880	0.0121885
717.958	0.0119881
718.036	0.0118354
718.114	0.0117570
718.193	0.0114561
718.271	0.0113168
718.349	0.0112278
718.427	0.0109749
718.505	0.0108106
718.583	0.0107671
718.661	0.0107040
718.739	0.0105017
718.818	0.0102083
718.896	0.0102493
718.974	0.0104002
719.052	0.0104234
719.130	0.0103909
719.208	0.0106460
719.286	0.0107278
719.364	0.0110627
719.443	0.0113003
719.521	0.0115661
719.599	0.0119782
719.677	0.0122650
719.755	0.0127027
719.833	0.0132414
719.911	0.0133625
719.989	0.0137663
720.068	0.0140026
720.146	0.0140525
720.224	0.0141460
720.302	0.0144520
720.380	0.0145535
720.458	0.0146854
720.536	0.0146404
720.614	0.0146122
720.693	0.0145149
720.771	0.0145020
720.849	0.0141924
720.927	0.0141021
721.005	0.0138683
721.083	0.0137560
721.161	0.0134993
721.239	0.0133501
721.318	0.0131664
721.396	0.0130803
721.474	0.0129533
721.552	0.0128070
721.630	0.0129762
721.708	0.0128627
721.786	0.0130175
721.864	0.0130161
721.943	0.0130894
722.021	0.0132098
722.099	0.0133415
722.177	0.0136244
722.255	0.0137460
722.333	0.0138426
722.411	0.0139867
722.489	0.0140854
722.568	0.0141955
722.646	0.0140395
722.724	0.0139398
722.802	0.0138903
722.880	0.0139040
722.958	0.0137883
723.036	0.0137863
723.114	0.0136205
723.193	0.0135964
723.271	0.0132972
723.349	0.0133599
723.427	0.0131541
723.505	0.0130039
723.583	0.0129546
723.661	0.0126353
723.739	0.0124181
723.818	0.0123205
723.896	0.0120853
723.974	0.0118006
724.052	0.0113814
724.130	0.0114416
724.208	0.0112429
724.286	0.0109328
724.364	0.0108629
724.443	0.0107615
724.521	0.0108000
724.599	0.0107042
724.677	0.0109550
724.755	0.0110341
724.833	0.0110530
724.911	0.0112137
724.989	0.0115559
725.068	0.0118034
725.146	0.0118903
725.224	0.0121144
725.302	0.0123660
725.380	0.0125890
725.458	0.0126394
