05/14/2022	16:35:31	Ver.	4.1	UNKNOWN
Optical Delay	639.989416	Delta X		0.078125	Sweeps	1	Scan Rate	0/0
Coordinates	Axis 1	NaN	Axis 2	NaN	Axis 3	NaN	Axis 4	NaN	Axis 5	NaN	Axis 6	0.000000
TX Power	0.000000	RX Power	0.000000

639.989	0.0130625
640.068	0.0131817
640.146	0.0130334
640.224	0.0132147
640.302	0.0130592
640.380	0.0130400
640.458	0.0131653
640.536	0.0131393
640.614	0.0131968
640.693	0.0129646
640.771	0.0131061
640.849	0.0131847
640.927	0.0131492
641.005	0.0131433
641.083	0.0130871
641.161	0.0131512
641.239	0.0131325
641.318	0.0130534
641.396	0.0129883
641.474	0.0129900
641.552	0.0131053
641.630	0.0130180
641.708	0.0129356
641.786	0.0130582
641.864	0.0130737
641.943	0.0131496
642.021	0.0130436
642.099	0.0128798
642.177	0.0129510
642.255	0.0129909
642.333	0.0130247
642.411	0.0131191
642.489	0.0131115
642.568	0.0128729
642.646	0.0129383
642.724	0.0130644
642.802	0.0130153
642.880	0.0129030
642.958	0.0129929
643.036	0.0129608
643.114	0.0129839
643.193	0.0129781
643.271	0.0128797
643.349	0.0130148
643.427	0.0130098
643.505	0.0129833
643.583	0.0130373
643.661	0.0128752
643.739	0.0130258
643.818	0.0129069
643.896	0.0128919
643.974	0.0129938
644.052	0.0129905
644.130	0.0130676
644.208	0.0130699
644.286	0.0129126
644.364	0.0129737
644.443	0.0130357
644.521	0.0129155
644.599	0.0130311
644.677	0.0129478
644.755	0.0129321
644.833	0.0129818
644.911	0.0129583
644.989	0.0129359
645.068	0.0130367
645.146	0.0130108
645.224	0.0128985
645.302	0.0129816
645.380	0.0129253
645.458	0.0129404
645.536	0.0130221
645.614	0.0129177
645.693	0.0130668
645.771	0.0131039
645.849	0.0131119
645.927	0.0131250
646.005	0.0129572
646.083	0.0130101
646.161	0.0129916
646.239	0.0129381
646.318	0.0130106
646.396	0.0130191
646.474	0.0130299
646.552	0.0130011
646.630	0.0130203
646.708	0.0129838
646.786	0.0128671
646.864	0.0128889
646.943	0.0128874
647.021	0.0130402
647.099	0.0129659
647.177	0.0129269
647.255	0.0129180
647.333	0.0129902
647.411	0.0130521
647.489	0.0130312
647.568	0.0129781
647.646	0.0128386
647.724	0.0128980
647.802	0.0130067
647.880	0.0129812
647.958	0.0130276
648.036	0.0129790
648.114	0.0129216
648.193	0.0130006
648.271	0.0130250
648.349	0.0129218
648.427	0.0129870
648.505	0.0129716
648.583	0.0130367
648.661	0.0129277
648.739	0.0129499
648.818	0.0129667
648.896	0.0128928
648.974	0.0129382
649.052	0.0129195
649.130	0.0129508
649.208	0.0129819
649.286	0.0130431
649.364	0.0129070
649.443	0.0129510
649.521	0.0129531
649.599	0.0129562
649.677	0.0129189
649.755	0.0129522
649.833	0.0130237
649.911	0.0129109
649.989	0.0129273
650.068	0.0130067
650.146	0.0129546
650.224	0.0128975
650.302	0.0129467
650.380	0.0129805
650.458	0.0129063
650.536	0.0130128
650.614	0.0129919
650.693	0.0130513
650.771	0.0130550
650.849	0.0129829
650.927	0.0129504
651.005	0.0130626
651.083	0.0130439
651.161	0.0130008
651.239	0.0129808
651.318	0.0129843
651.396	0.0129234
651.474	0.0130470
651.552	0.0129369
651.630	0.0130679
651.708	0.0131237
651.786	0.0129907
651.864	0.0130089
651.943	0.0130078
652.021	0.0131062
652.099	0.0129747
652.177	0.0129849
652.255	0.0129363
652.333	0.0130511
652.411	0.0130740
652.489	0.0129814
652.568	0.0129570
652.646	0.0130483
652.724	0.0130598
652.802	0.0130493
652.880	0.0130941
652.958	0.0129405
653.036	0.0129887
653.114	0.0129732
653.193	0.0130126
653.271	0.0128996
653.349	0.0129782
653.427	0.0129732
653.505	0.0130652
653.583	0.0130569
653.661	0.0129842
653.739	0.0129866
653.818	0.0130495
653.896	0.0130271
653.974	0.0130812
654.052	0.0130003
654.130	0.0130605
654.208	0.0129631
654.286	0.0131442
654.364	0.0131299
654.443	0.0129202
654.521	0.0130141
654.599	0.0131263
654.677	0.0129871
654.755	0.0129065
654.833	0.0130316
654.911	0.0131258
654.989	0.0129700
655.068	0.0130184
655.146	0.0131786
655.224	0.0129604
655.302	0.0129155
655.380	0.0129572
655.458	0.0130882
655.536	0.0131291
655.614	0.0131008
655.693	0.0129733
655.771	0.0130572
655.849	0.0131636
655.927	0.0131060
656.005	0.0129940
656.083	0.0130663
656.161	0.0131902
656.239	0.0131324
656.318	0.0132050
656.396	0.0131376
656.474	0.0130701
656.552	0.0131511
656.630	0.0130638
656.708	0.0130509
656.786	0.0132156
656.864	0.0132336
656.943	0.0132381
657.021	0.0131421
657.099	0.0130274
657.177	0.0130086
657.255	0.0132500
657.333	0.0132086
657.411	0.0129794
657.489	0.0131770
657.568	0.0130180
657.646	0.0130745
657.724	0.0131348
657.802	0.0130306
657.880	0.0131178
657.958	0.0130055
658.036	0.0130685
658.114	0.0132005
658.193	0.0130863
658.271	0.0131905
658.349	0.0131667
658.427	0.0132591
658.505	0.0132065
658.583	0.0132074
658.661	0.0131516
658.739	0.0133086
658.818	0.0133201
658.896	0.0132478
658.974	0.0131316
659.052	0.0132038
659.130	0.0132615
659.208	0.0131754
659.286	0.0132653
659.364	0.0131219
659.443	0.0132533
659.521	0.0133227
659.599	0.0130875
659.677	0.0132523
659.755	0.0132124
659.833	0.0130881
659.911	0.0130980
659.989	0.0132385
660.068	0.0131226
660.146	0.0130548
660.224	0.0131484
660.302	0.0132626
660.380	0.0131399
660.458	0.0132179
660.536	0.0132230
660.614	0.0132784
660.693	0.0132197
660.771	0.0131736
660.849	0.0131354
660.927	0.0131376
661.005	0.0130892
661.083	0.0130320
661.161	0.0131635
661.239	0.0131781
661.318	0.0131752
661.396	0.0132308
661.474	0.0132304
661.552	0.0132604
661.630	0.0131882
661.708	0.0131615
661.786	0.0131229
661.864	0.0131039
661.943	0.0130318
662.021	0.0130804
662.099	0.0130092
662.177	0.0130140
662.255	0.0130993
662.333	0.0131138
662.411	0.0130815
662.489	0.0131190
662.568	0.0131387
662.646	0.0130856
662.724	0.0129282
662.802	0.0130417
662.880	0.0131028
662.958	0.0130951
663.036	0.0131062
663.114	0.0130512
663.193	0.0130692
663.271	0.0129780
663.349	0.0130019
663.427	0.0130238
663.505	0.0130654
663.583	0.0130019
663.661	0.0129878
663.739	0.0130064
663.818	0.0129165
663.896	0.0130328
663.974	0.0130757
664.052	0.0130087
664.130	0.0129845
664.208	0.0131683
664.286	0.0131714
664.364	0.0131429
664.443	0.0131754
664.521	0.0129342
664.599	0.0130721
664.677	0.0131500
664.755	0.0131993
664.833	0.0132028
664.911	0.0131143
664.989	0.0130138
665.068	0.0130785
665.146	0.0130102
665.224	0.0131150
665.302	0.0130951
665.380	0.0131216
665.458	0.0130852
665.536	0.0129673
665.614	0.0130363
665.693	0.0131458
665.771	0.0130450
665.849	0.0129965
665.927	0.0130972
666.005	0.0130737
666.083	0.0131850
666.161	0.0131838
666.239	0.0131119
666.318	0.0130982
666.396	0.0130404
666.474	0.0131147
666.552	0.0131365
666.630	0.0130202
666.708	0.0131333
666.786	0.0130157
666.864	0.0129882
666.943	0.0130342
667.021	0.0129533
667.099	0.0129874
667.177	0.0129861
667.255	0.0129068
667.333	0.0130049
667.411	0.0130415
667.489	0.0130198
667.568	0.0129273
667.646	0.0128365
667.724	0.0129184
667.802	0.0130591
667.880	0.0129075
667.958	0.0128898
668.036	0.0129332
668.114	0.0130390
668.193	0.0130138
668.271	0.0129666
668.349	0.0129127
668.427	0.0128831
668.505	0.0130817
668.583	0.0129664
668.661	0.0130094
668.739	0.0130544
668.818	0.0129355
668.896	0.0129671
668.974	0.0130190
669.052	0.0129130
669.130	0.0128123
669.208	0.0129827
669.286	0.0130811
669.364	0.0130125
669.443	0.0129198
669.521	0.0129693
669.599	0.0129896
669.677	0.0128594
669.755	0.0128431
669.833	0.0129102
669.911	0.0129341
669.989	0.0129532
670.068	0.0129198
670.146	0.0127963
670.224	0.0127946
670.302	0.0129659
670.380	0.0128636
670.458	0.0127894
670.536	0.0129441
670.614	0.0129932
670.693	0.0130360
670.771	0.0131100
670.849	0.0128794
670.927	0.0129156
671.005	0.0130004
671.083	0.0130973
671.161	0.0131682
671.239	0.0131535
671.318	0.0130036
671.396	0.0131163
671.474	0.0130779
671.552	0.0130161
671.630	0.0129968
671.708	0.0130282
671.786	0.0130750
671.864	0.0130729
671.943	0.0130914
672.021	0.0130856
672.099	0.0130233
672.177	0.0130879
672.255	0.0130406
672.333	0.0130445
672.411	0.0130651
672.489	0.0129528
672.568	0.0131110
672.646	0.0129808
672.724	0.0131283
672.802	0.0131055
672.880	0.0130768
672.958	0.0131547
673.036	0.0130104
673.114	0.0131146
673.193	0.0132172
673.271	0.0131112
673.349	0.0131567
673.427	0.0131377
673.505	0.0130618
673.583	0.0130220
673.661	0.0130862
673.739	0.0130144
673.818	0.0129955
673.896	0.0131599
673.974	0.0129836
674.052	0.0130610
674.130	0.0130196
674.208	0.0129639
674.286	0.0130962
674.364	0.0131595
674.443	0.0131368
674.521	0.0130087
674.599	0.0130823
674.677	0.0130956
674.755	0.0130869
674.833	0.0131132
674.911	0.0130698
674.989	0.0130913
675.068	0.0130611
675.146	0.0129869
675.224	0.0131730
675.302	0.0131298
675.380	0.0130695
675.458	0.0130444
675.536	0.0130733
675.614	0.0131545
675.693	0.0130153
675.771	0.0131100
675.849	0.0132135
675.927	0.0132935
676.005	0.0131120
676.083	0.0132845
676.161	0.0133350
676.239	0.0132156
676.318	0.0134422
676.396	0.0133624
676.474	0.0133864
676.552	0.0133252
676.630	0.0132420
676.708	0.0130947
676.786	0.0131864
676.864	0.0130206
676.943	0.0129929
677.021	0.0130935
677.099	0.0127935
677.177	0.0127586
677.255	0.0127164
677.333	0.0125329
677.411	0.0125968
677.489	0.0127180
677.568	0.0125755
677.646	0.0125963
677.724	0.0126588
677.802	0.0128747
677.880	0.0128452
677.958	0.0129255
678.036	0.0129960
678.114	0.0130991
678.193	0.0131274
678.271	0.0133668
678.349	0.0134744
678.427	0.0135814
678.505	0.0137890
678.583	0.0136974
678.661	0.0138416
678.739	0.0139874
678.818	0.0140470
678.896	0.0140733
678.974	0.0139400
679.052	0.0139566
679.130	0.0137099
679.208	0.0135250
679.286	0.0135709
679.364	0.0133604
679.443	0.0128987
679.521	0.0126839
679.599	0.0124864
679.677	0.0122268
679.755	0.0121027
679.833	0.0118349
679.911	0.0117056
679.989	0.0115464
680.068	0.0115190
680.146	0.0114019
680.224	0.0115227
680.302	0.0115657
680.380	0.0118054
680.458	0.0119310
680.536	0.0122370
680.614	0.0122884
680.693	0.0127879
680.771	0.0130162
680.849	0.0132448
680.927	0.0136696
681.005	0.0140575
681.083	0.0142310
681.161	0.0144524
681.239	0.0146446
681.318	0.0148930
681.396	0.0150331
681.474	0.0150039
681.552	0.0151373
681.630	0.0150063
681.708	0.0149034
681.786	0.0147302
681.864	0.0145605
681.943	0.0144417
682.021	0.0141877
682.099	0.0138287
682.177	0.0134188
682.255	0.0131133
682.333	0.0127837
682.411	0.0125279
682.489	0.0123291
682.568	0.0119032
682.646	0.0115260
682.724	0.0111865
682.802	0.0109085
682.880	0.0107528
682.958	0.0105177
683.036	0.0103463
683.114	0.0105294
683.193	0.0104846
683.271	0.0105951
683.349	0.0108176
683.427	0.0109632
683.505	0.0113560
683.583	0.0117138
683.661	0.0120770
683.739	0.0123367
683.818	0.0128888
683.896	0.0133701
683.974	0.0138365
684.052	0.0142250
684.130	0.0146291
684.208	0.0149847
684.286	0.0153660
684.364	0.0156621
684.443	0.0159705
684.521	0.0161327
684.599	0.0160311
684.677	0.0160661
684.755	0.0161208
684.833	0.0159673
684.911	0.0156505
684.989	0.0153208
685.068	0.0151308
685.146	0.0146656
685.224	0.0142683
685.302	0.0137841
685.380	0.0133504
685.458	0.0129259
685.536	0.0124269
685.614	0.0119549
685.693	0.0115123
685.771	0.0112778
685.849	0.0109574
685.927	0.0107594
686.005	0.0104117
686.083	0.0104411
686.161	0.0102605
686.239	0.0101389
686.318	0.0102170
686.396	0.0102997
686.474	0.0105917
686.552	0.0107010
686.630	0.0109931
686.708	0.0112658
686.786	0.0114995
686.864	0.0119534
686.943	0.0123940
687.021	0.0127843
687.099	0.0131837
687.177	0.0135358
687.255	0.0139461
687.333	0.0143080
687.411	0.0146821
687.489	0.0148847
687.568	0.0150751
687.646	0.0153008
687.724	0.0156078
687.802	0.0157583
687.880	0.0156157
687.958	0.0157294
688.036	0.0154517
688.114	0.0154485
688.193	0.0152045
688.271	0.0150467
688.349	0.0145873
688.427	0.0143850
688.505	0.0141788
688.583	0.0138866
688.661	0.0135319
688.739	0.0132028
688.818	0.0128425
688.896	0.0125359
688.974	0.0123764
689.052	0.0118230
689.130	0.0117645
689.208	0.0115238
689.286	0.0114277
689.364	0.0113644
689.443	0.0113007
689.521	0.0111219
689.599	0.0111706
689.677	0.0112212
689.755	0.0111751
689.833	0.0113123
689.911	0.0116241
689.989	0.0117975
690.068	0.0121735
690.146	0.0122872
690.224	0.0125656
690.302	0.0128683
690.380	0.0130466
690.458	0.0135445
690.536	0.0138679
690.614	0.0141771
690.693	0.0144753
690.771	0.0149110
690.849	0.0150288
690.927	0.0151836
691.005	0.0152554
691.083	0.0152013
691.161	0.0150938
691.239	0.0150122
691.318	0.0147959
691.396	0.0145392
691.474	0.0141883
691.552	0.0138764
691.630	0.0135101
691.708	0.0131660
691.786	0.0128281
691.864	0.0122684
691.943	0.0120982
692.021	0.0118953
692.099	0.0114969
692.177	0.0111949
692.255	0.0110571
692.333	0.0109584
692.411	0.0109162
692.489	0.0108435
692.568	0.0108080
692.646	0.0107933
692.724	0.0110252
692.802	0.0111395
692.880	0.0111669
692.958	0.0114343
693.036	0.0118175
693.114	0.0120672
693.193	0.0124575
693.271	0.0128085
693.349	0.0131782
693.427	0.0134531
693.505	0.0138638
693.583	0.0141555
693.661	0.0145187
693.739	0.0147856
693.818	0.0150777
693.896	0.0154568
693.974	0.0156615
694.052	0.0157706
694.130	0.0160094
694.208	0.0159317
694.286	0.0160342
694.364	0.0160098
694.443	0.0159167
694.521	0.0156472
694.599	0.0156723
694.677	0.0155329
694.755	0.0153091
694.833	0.0147174
694.911	0.0144706
694.989	0.0140427
695.068	0.0138136
695.146	0.0134283
695.224	0.0130016
695.302	0.0126083
695.380	0.0121313
695.458	0.0116471
695.536	0.0112632
695.614	0.0108764
695.693	0.0102942
695.771	0.00984779
695.849	0.00950684
695.927	0.00930450
696.005	0.00899124
696.083	0.00883553
696.161	0.00871330
696.239	0.00885994
696.318	0.00883347
696.396	0.00900162
696.474	0.00921867
696.552	0.00967934
696.630	0.0100181
696.708	0.0106023
696.786	0.0110251
696.864	0.0116410
696.943	0.0122615
697.021	0.0128828
697.099	0.0134391
697.177	0.0141185
697.255	0.0146584
697.333	0.0152595
697.411	0.0157402
697.489	0.0164143
697.568	0.0167579
697.646	0.0170820
697.724	0.0170853
697.802	0.0172812
697.880	0.0172308
697.958	0.0171776
698.036	0.0170900
698.114	0.0168445
698.193	0.0162902
698.271	0.0159785
698.349	0.0155814
698.427	0.0151687
698.505	0.0147403
698.583	0.0140529
698.661	0.0136292
698.739	0.0132723
698.818	0.0130124
698.896	0.0126228
698.974	0.0122800
699.052	0.0120544
699.130	0.0119827
699.208	0.0119049
699.286	0.0116720
699.364	0.0115533
699.443	0.0115864
699.521	0.0118001
699.599	0.0116953
699.677	0.0117611
699.755	0.0119043
699.833	0.0120227
699.911	0.0118679
699.989	0.0119801
700.068	0.0119853
700.146	0.0121650
700.224	0.0122132
700.302	0.0124532
700.380	0.0123205
700.458	0.0122076
700.536	0.0124014
700.614	0.0122729
700.693	0.0122559
700.771	0.0120081
700.849	0.0120612
700.927	0.0118067
701.005	0.0117962
701.083	0.0115699
701.161	0.0113530
701.239	0.0113580
701.318	0.0113480
701.396	0.0111458
701.474	0.0113284
701.552	0.0113580
701.630	0.0114297
701.708	0.0118002
701.786	0.0118303
701.864	0.0120233
701.943	0.0123306
702.021	0.0125703
702.099	0.0127123
702.177	0.0131084
702.255	0.0133085
702.333	0.0136093
702.411	0.0138261
702.489	0.0140157
702.568	0.0144593
702.646	0.0144247
702.724	0.0147195
702.802	0.0149845
702.880	0.0151014
702.958	0.0152149
703.036	0.0155048
703.114	0.0155096
703.193	0.0155812
703.271	0.0155871
703.349	0.0156052
703.427	0.0154170
703.505	0.0154958
703.583	0.0153271
703.661	0.0152653
703.739	0.0151994
703.818	0.0148772
703.896	0.0148083
703.974	0.0145192
704.052	0.0143758
704.130	0.0138570
704.208	0.0135598
704.286	0.0132985
704.364	0.0127872
704.443	0.0124012
704.521	0.0120609
704.599	0.0117118
704.677	0.0111218
704.755	0.0109171
704.833	0.0105082
704.911	0.0102338
704.989	0.0100340
705.068	0.00998260
705.146	0.00987572
705.224	0.00997917
705.302	0.0100763
705.380	0.0104565
705.458	0.0105957
705.536	0.0109333
705.614	0.0112387
705.693	0.0116807
705.771	0.0119254
705.849	0.0122041
705.927	0.0126096
706.005	0.0129332
706.083	0.0131384
706.161	0.0135281
706.239	0.0136123
706.318	0.0136657
706.396	0.0136883
706.474	0.0138072
706.552	0.0138308
706.630	0.0138150
706.708	0.0137703
706.786	0.0137073
706.864	0.0135754
706.943	0.0136073
707.021	0.0135724
707.099	0.0133927
707.177	0.0134320
707.255	0.0132455
707.333	0.0131387
707.411	0.0131028
707.489	0.0130231
707.568	0.0129710
707.646	0.0130386
707.724	0.0129024
707.802	0.0128922
707.880	0.0130093
707.958	0.0131046
708.036	0.0132302
708.114	0.0130954
708.193	0.0133503
708.271	0.0133607
708.349	0.0134313
708.427	0.0134696
708.505	0.0135900
708.583	0.0135190
708.661	0.0136250
708.739	0.0136942
708.818	0.0137575
708.896	0.0137392
708.974	0.0137663
709.052	0.0140339
709.130	0.0140649
709.208	0.0140283
709.286	0.0142046
709.364	0.0143411
709.443	0.0143359
709.521	0.0144052
709.599	0.0142513
709.677	0.0142527
709.755	0.0143267
709.833	0.0141777
709.911	0.0140432
709.989	0.0139597
710.068	0.0138271
710.146	0.0135742
710.224	0.0137752
710.302	0.0136139
710.380	0.0134319
710.458	0.0133620
710.536	0.0132523
710.614	0.0132558
710.693	0.0129269
710.771	0.0129066
710.849	0.0125672
710.927	0.0122924
711.005	0.0120284
711.083	0.0119364
711.161	0.0116552
711.239	0.0114087
711.318	0.0114039
711.396	0.0110809
711.474	0.0110246
711.552	0.0112280
711.630	0.0110967
711.708	0.0110253
711.786	0.0111543
711.864	0.0112421
711.943	0.0112468
712.021	0.0114124
712.099	0.0114312
712.177	0.0116536
712.255	0.0118085
712.333	0.0120332
712.411	0.0120657
712.489	0.0123242
712.568	0.0125585
712.646	0.0126546
712.724	0.0129782
712.802	0.0130196
712.880	0.0132008
712.958	0.0131290
713.036	0.0132191
713.114	0.0132628
713.193	0.0132518
713.271	0.0132664
713.349	0.0132986
713.427	0.0132977
713.505	0.0134007
713.583	0.0134003
713.661	0.0135375
713.739	0.0137145
713.818	0.0136976
713.896	0.0138644
713.974	0.0141213
714.052	0.0141991
714.130	0.0144658
714.208	0.0148373
714.286	0.0150755
714.364	0.0152044
714.443	0.0152309
714.521	0.0153989
714.599	0.0156449
714.677	0.0158800
714.755	0.0157640
714.833	0.0157350
714.911	0.0156766
714.989	0.0156264
715.068	0.0154229
715.146	0.0150981
715.224	0.0150372
715.302	0.0147363
715.380	0.0143916
715.458	0.0142036
715.536	0.0139594
715.614	0.0137360
715.693	0.0134472
715.771	0.0132414
715.849	0.0131023
715.927	0.0127762
716.005	0.0126763
716.083	0.0124506
716.161	0.0122971
716.239	0.0119551
716.318	0.0116914
716.396	0.0114137
716.474	0.0110225
716.552	0.0109075
716.630	0.0106193
716.708	0.0105192
716.786	0.0104697
716.864	0.0104567
716.943	0.0102596
717.021	0.0104042
717.099	0.0104529
717.177	0.0105147
717.255	0.0106197
717.333	0.0108720
717.411	0.0109493
717.489	0.0110630
717.568	0.0112707
717.646	0.0115897
717.724	0.0118159
717.802	0.0119040
717.880	0.0120480
717.958	0.0120958
718.036	0.0122120
718.114	0.0122836
718.193	0.0122543
718.271	0.0123865
718.349	0.0124760
718.427	0.0124396
718.505	0.0123994
718.583	0.0125592
718.661	0.0126041
718.739	0.0126764
718.818	0.0129782
718.896	0.0130475
718.974	0.0132767
719.052	0.0134345
719.130	0.0137431
719.208	0.0142252
719.286	0.0143351
719.364	0.0145057
719.443	0.0147668
719.521	0.0151404
719.599	0.0154646
719.677	0.0158045
719.755	0.0158226
719.833	0.0158588
719.911	0.0161066
719.989	0.0161287
720.068	0.0159424
720.146	0.0159108
720.224	0.0159808
720.302	0.0158574
720.380	0.0156433
720.458	0.0155447
720.536	0.0153114
720.614	0.0150478
720.693	0.0147752
720.771	0.0146931
720.849	0.0145358
720.927	0.0143079
721.005	0.0140801
721.083	0.0138549
721.161	0.0136127
721.239	0.0132523
721.318	0.0130280
721.396	0.0126941
721.474	0.0125201
721.552	0.0123061
721.630	0.0119855
721.708	0.0117871
721.786	0.0115078
721.864	0.0109377
721.943	0.0106689
722.021	0.0105245
722.099	0.0100612
722.177	0.00978737
722.255	0.00952965
722.333	0.00932701
722.411	0.00918724
722.489	0.00911530
722.568	0.00912041
722.646	0.00923782
722.724	0.00942421
722.802	0.00969620
722.880	0.00988167
722.958	0.0104039
723.036	0.0105882
723.114	0.0108608
723.193	0.0113756
723.271	0.0116691
723.349	0.0121404
723.427	0.0122561
723.505	0.0126658
723.583	0.0129127
723.661	0.0131667
723.739	0.0132877
723.818	0.0137066
723.896	0.0137963
723.974	0.0138266
724.052	0.0138313
724.130	0.0139542
724.208	0.0142921
724.286	0.0143723
724.364	0.0145831
724.443	0.0145845
724.521	0.0148322
724.599	0.0149510
724.677	0.0148366
724.755	0.0148590
724.833	0.0149821
724.911	0.0149361
724.989	0.0149270
725.068	0.0149098
725.146	0.0149014
725.224	0.0148430
725.302	0.0146185
725.380	0.0145397
725.458	0.0144939
725.536	0.0144504
725.614	0.0144709
