05/14/2022	16:36:06	Ver.	4.1	UNKNOWN
Optical Delay	639.989416	Delta X		0.078125	Sweeps	1	Scan Rate	0/0
Coordinates	Axis 1	NaN	Axis 2	NaN	Axis 3	NaN	Axis 4	NaN	Axis 5	NaN	Axis 6	0.000000
TX Power	0.000000	RX Power	0.000000

639.989	0.0129579
640.068	0.0128696
640.146	0.0130466
640.224	0.0127964
640.302	0.0127314
640.380	0.0128825
640.458	0.0129122
640.536	0.0129561
640.614	0.0128587
640.693	0.0128201
640.771	0.0128906
640.849	0.0129156
640.927	0.0127992
641.005	0.0129478
641.083	0.0129915
641.161	0.0128883
641.239	0.0128173
641.318	0.0128857
641.396	0.0129430
641.474	0.0128373
641.552	0.0130463
641.630	0.0129639
641.708	0.0129577
641.786	0.0128358
641.864	0.0129068
641.943	0.0130872
642.021	0.0130538
642.099	0.0130853
642.177	0.0129474
642.255	0.0127230
642.333	0.0129568
642.411	0.0130349
642.489	0.0129852
642.568	0.0129677
642.646	0.0129431
642.724	0.0130176
642.802	0.0130001
642.880	0.0129018
642.958	0.0130276
643.036	0.0129426
643.114	0.0131012
643.193	0.0130114
643.271	0.0129147
643.349	0.0129381
643.427	0.0129713
643.505	0.0128760
643.583	0.0129030
643.661	0.0128380
643.739	0.0130241
643.818	0.0130144
643.896	0.0129303
643.974	0.0130209
644.052	0.0130045
644.130	0.0128771
644.208	0.0130413
644.286	0.0130312
644.364	0.0129613
644.443	0.0130785
644.521	0.0129510
644.599	0.0130389
644.677	0.0130897
644.755	0.0130255
644.833	0.0129208
644.911	0.0129565
644.989	0.0129872
645.068	0.0129581
645.146	0.0129239
645.224	0.0129161
645.302	0.0130402
645.380	0.0130388
645.458	0.0130566
645.536	0.0129642
645.614	0.0129520
645.693	0.0129812
645.771	0.0129802
645.849	0.0128726
645.927	0.0130183
646.005	0.0128547
646.083	0.0129974
646.161	0.0130440
646.239	0.0130238
646.318	0.0129523
646.396	0.0130594
646.474	0.0129720
646.552	0.0130771
646.630	0.0130621
646.708	0.0129298
646.786	0.0130537
646.864	0.0131103
646.943	0.0130212
647.021	0.0129822
647.099	0.0130889
647.177	0.0129962
647.255	0.0130267
647.333	0.0130753
647.411	0.0129549
647.489	0.0130111
647.568	0.0131289
647.646	0.0130918
647.724	0.0131277
647.802	0.0130807
647.880	0.0130616
647.958	0.0130328
648.036	0.0131121
648.114	0.0130543
648.193	0.0130633
648.271	0.0129694
648.349	0.0130875
648.427	0.0130650
648.505	0.0130529
648.583	0.0131339
648.661	0.0130579
648.739	0.0130791
648.818	0.0130508
648.896	0.0130982
648.974	0.0131473
649.052	0.0133105
649.130	0.0130881
649.208	0.0128391
649.286	0.0131449
649.364	0.0131013
649.443	0.0130662
649.521	0.0129974
649.599	0.0131578
649.677	0.0129871
649.755	0.0131483
649.833	0.0132682
649.911	0.0131706
649.989	0.0132682
650.068	0.0131440
650.146	0.0130286
650.224	0.0131371
650.302	0.0132400
650.380	0.0133276
650.458	0.0131757
650.536	0.0131792
650.614	0.0130769
650.693	0.0130740
650.771	0.0132455
650.849	0.0132031
650.927	0.0132987
651.005	0.0132216
651.083	0.0131802
651.161	0.0132378
651.239	0.0131759
651.318	0.0131021
651.396	0.0132059
651.474	0.0131867
651.552	0.0131274
651.630	0.0132535
651.708	0.0132532
651.786	0.0130562
651.864	0.0132152
651.943	0.0131493
652.021	0.0131523
652.099	0.0131283
652.177	0.0131798
652.255	0.0131621
652.333	0.0131550
652.411	0.0132140
652.489	0.0132065
652.568	0.0129483
652.646	0.0130559
652.724	0.0130550
652.802	0.0130491
652.880	0.0131024
652.958	0.0131231
653.036	0.0130345
653.114	0.0129958
653.193	0.0130428
653.271	0.0131268
653.349	0.0129913
653.427	0.0130587
653.505	0.0131421
653.583	0.0131182
653.661	0.0131043
653.739	0.0130522
653.818	0.0128838
653.896	0.0130270
653.974	0.0132263
654.052	0.0131371
654.130	0.0131738
654.208	0.0130463
654.286	0.0131529
654.364	0.0130643
654.443	0.0130618
654.521	0.0130883
654.599	0.0130454
654.677	0.0131142
654.755	0.0130800
654.833	0.0130455
654.911	0.0131497
654.989	0.0130484
655.068	0.0129790
655.146	0.0129290
655.224	0.0129935
655.302	0.0130541
655.380	0.0129708
655.458	0.0128670
655.536	0.0132164
655.614	0.0131091
655.693	0.0130077
655.771	0.0130817
655.849	0.0130473
655.927	0.0130429
656.005	0.0131313
656.083	0.0130729
656.161	0.0130247
656.239	0.0130725
656.318	0.0130738
656.396	0.0131871
656.474	0.0130520
656.552	0.0129335
656.630	0.0130857
656.708	0.0131387
656.786	0.0130838
656.864	0.0130338
656.943	0.0130048
657.021	0.0128933
657.099	0.0130196
657.177	0.0130016
657.255	0.0130463
657.333	0.0131954
657.411	0.0129904
657.489	0.0130939
657.568	0.0130396
657.646	0.0130177
657.724	0.0129462
657.802	0.0129521
657.880	0.0130084
657.958	0.0130450
658.036	0.0129356
658.114	0.0130180
658.193	0.0130415
658.271	0.0130865
658.349	0.0129629
658.427	0.0129383
658.505	0.0130435
658.583	0.0129296
658.661	0.0130812
658.739	0.0129945
658.818	0.0130213
658.896	0.0129503
658.974	0.0129565
659.052	0.0130367
659.130	0.0129753
659.208	0.0130814
659.286	0.0129745
659.364	0.0128780
659.443	0.0129170
659.521	0.0128525
659.599	0.0129169
659.677	0.0129375
659.755	0.0130684
659.833	0.0130354
659.911	0.0129922
659.989	0.0128135
660.068	0.0127793
660.146	0.0128733
660.224	0.0128941
660.302	0.0129226
660.380	0.0128184
660.458	0.0129144
660.536	0.0128165
660.614	0.0129375
660.693	0.0130078
660.771	0.0130408
660.849	0.0129594
660.927	0.0129952
661.005	0.0128417
661.083	0.0129072
661.161	0.0129244
661.239	0.0128057
661.318	0.0129525
661.396	0.0129743
661.474	0.0129247
661.552	0.0129447
661.630	0.0130743
661.708	0.0130015
661.786	0.0130370
661.864	0.0130756
661.943	0.0132022
662.021	0.0130926
662.099	0.0131333
662.177	0.0131191
662.255	0.0130556
662.333	0.0129984
662.411	0.0132026
662.489	0.0131464
662.568	0.0131426
662.646	0.0129256
662.724	0.0129872
662.802	0.0129725
662.880	0.0129028
662.958	0.0129324
663.036	0.0129926
663.114	0.0129587
663.193	0.0130264
663.271	0.0130034
663.349	0.0131386
663.427	0.0131097
663.505	0.0129504
663.583	0.0129681
663.661	0.0131771
663.739	0.0132019
663.818	0.0130250
663.896	0.0131236
663.974	0.0132253
664.052	0.0131135
664.130	0.0132072
664.208	0.0130006
664.286	0.0130474
664.364	0.0130148
664.443	0.0131399
664.521	0.0131120
664.599	0.0129937
664.677	0.0130459
664.755	0.0130029
664.833	0.0130054
664.911	0.0130471
664.989	0.0130753
665.068	0.0131273
665.146	0.0129684
665.224	0.0130629
665.302	0.0129800
665.380	0.0131025
665.458	0.0130170
665.536	0.0131214
665.614	0.0130302
665.693	0.0130769
665.771	0.0130991
665.849	0.0131279
665.927	0.0130500
666.005	0.0130801
666.083	0.0130948
666.161	0.0130453
666.239	0.0130584
666.318	0.0131001
666.396	0.0129906
666.474	0.0129002
666.552	0.0130932
666.630	0.0130767
666.708	0.0131293
666.786	0.0129937
666.864	0.0131465
666.943	0.0129653
667.021	0.0130533
667.099	0.0130449
667.177	0.0131869
667.255	0.0131635
667.333	0.0129790
667.411	0.0129684
667.489	0.0130592
667.568	0.0130198
667.646	0.0130595
667.724	0.0130634
667.802	0.0129539
667.880	0.0130421
667.958	0.0129076
668.036	0.0129469
668.114	0.0129301
668.193	0.0129858
668.271	0.0129166
668.349	0.0129187
668.427	0.0129881
668.505	0.0130293
668.583	0.0130085
668.661	0.0131516
668.739	0.0130737
668.818	0.0130774
668.896	0.0129312
668.974	0.0130306
669.052	0.0130345
669.130	0.0130439
669.208	0.0129552
669.286	0.0129675
669.364	0.0130740
669.443	0.0131055
669.521	0.0130471
669.599	0.0130465
669.677	0.0130574
669.755	0.0129846
669.833	0.0129697
669.911	0.0129406
669.989	0.0128939
670.068	0.0130573
670.146	0.0130432
670.224	0.0129305
670.302	0.0129334
670.380	0.0131796
670.458	0.0130173
670.536	0.0131116
670.614	0.0130922
670.693	0.0129060
670.771	0.0131384
670.849	0.0130333
670.927	0.0130307
671.005	0.0129184
671.083	0.0128928
671.161	0.0130448
671.239	0.0130607
671.318	0.0130080
671.396	0.0128834
671.474	0.0128907
671.552	0.0130261
671.630	0.0130441
671.708	0.0131611
671.786	0.0128363
671.864	0.0129080
671.943	0.0130203
672.021	0.0131145
672.099	0.0129665
672.177	0.0129939
672.255	0.0130314
672.333	0.0130441
672.411	0.0131138
672.489	0.0130848
672.568	0.0129523
672.646	0.0128811
672.724	0.0131934
672.802	0.0128587
672.880	0.0129291
672.958	0.0128999
673.036	0.0129698
673.114	0.0129317
673.193	0.0130027
673.271	0.0129758
673.349	0.0130576
673.427	0.0130019
673.505	0.0129895
673.583	0.0129834
673.661	0.0130305
673.739	0.0129713
673.818	0.0131030
673.896	0.0130614
673.974	0.0128952
674.052	0.0130291
674.130	0.0129626
674.208	0.0129263
674.286	0.0129153
674.364	0.0128551
674.443	0.0129922
674.521	0.0128657
674.599	0.0129634
674.677	0.0130573
674.755	0.0130418
674.833	0.0131075
674.911	0.0128931
674.989	0.0129570
675.068	0.0130289
675.146	0.0129970
675.224	0.0131167
675.302	0.0131683
675.380	0.0131629
675.458	0.0131466
675.536	0.0131644
675.614	0.0132436
675.693	0.0132281
675.771	0.0131664
675.849	0.0133901
675.927	0.0131801
676.005	0.0131599
676.083	0.0131969
676.161	0.0130271
676.239	0.0130023
676.318	0.0129225
676.396	0.0129518
676.474	0.0129088
676.552	0.0127625
676.630	0.0127524
676.708	0.0126285
676.786	0.0127016
676.864	0.0124754
676.943	0.0125353
677.021	0.0127569
677.099	0.0128021
677.177	0.0126819
677.255	0.0126836
677.333	0.0128248
677.411	0.0130264
677.489	0.0130840
677.568	0.0131795
677.646	0.0133288
677.724	0.0133208
677.802	0.0133781
677.880	0.0135580
677.958	0.0135970
678.036	0.0137608
678.114	0.0139726
678.193	0.0138972
678.271	0.0138823
678.349	0.0138853
678.427	0.0139095
678.505	0.0137709
678.583	0.0135732
678.661	0.0135860
678.739	0.0133841
678.818	0.0131701
678.896	0.0128590
678.974	0.0126553
679.052	0.0125928
679.130	0.0123362
679.208	0.0120672
679.286	0.0120814
679.364	0.0118491
679.443	0.0117694
679.521	0.0116891
679.599	0.0115936
679.677	0.0116709
679.755	0.0118929
679.833	0.0119378
679.911	0.0121729
679.989	0.0123827
680.068	0.0126700
680.146	0.0129226
680.224	0.0132111
680.302	0.0135165
680.380	0.0137487
680.458	0.0138952
680.536	0.0143835
680.614	0.0144456
680.693	0.0147442
680.771	0.0149774
680.849	0.0150582
680.927	0.0149251
681.005	0.0150246
681.083	0.0151809
681.161	0.0148640
681.239	0.0147432
681.318	0.0143316
681.396	0.0142856
681.474	0.0140632
681.552	0.0137921
681.630	0.0133544
681.708	0.0131361
681.786	0.0125830
681.864	0.0123595
681.943	0.0120087
682.021	0.0114886
682.099	0.0113151
682.177	0.0112247
682.255	0.0107143
682.333	0.0107261
682.411	0.0105522
682.489	0.0104629
682.568	0.0103566
682.646	0.0103435
682.724	0.0104778
682.802	0.0106399
682.880	0.0108537
682.958	0.0111665
683.036	0.0115201
683.114	0.0120253
683.193	0.0124647
683.271	0.0128183
683.349	0.0132927
683.427	0.0139334
683.505	0.0144742
683.583	0.0149055
683.661	0.0153138
683.739	0.0157959
683.818	0.0161587
683.896	0.0163762
683.974	0.0166235
684.052	0.0166823
684.130	0.0166412
684.208	0.0164719
684.286	0.0163935
684.364	0.0160553
684.443	0.0157298
684.521	0.0151221
684.599	0.0146336
684.677	0.0140856
684.755	0.0135182
684.833	0.0129813
684.911	0.0123985
684.989	0.0118848
685.068	0.0114286
685.146	0.0109632
685.224	0.0105556
685.302	0.0101872
685.380	0.00985123
685.458	0.00985657
685.536	0.00979553
685.614	0.00965355
685.693	0.00983269
685.771	0.00977531
685.849	0.0100705
685.927	0.0103002
686.005	0.0106032
686.083	0.0108900
686.161	0.0113360
686.239	0.0118139
686.318	0.0121604
686.396	0.0126482
686.474	0.0128925
686.552	0.0132705
686.630	0.0137332
686.708	0.0139425
686.786	0.0144430
686.864	0.0146925
686.943	0.0148457
687.021	0.0151183
687.099	0.0153205
687.177	0.0152837
687.255	0.0155641
687.333	0.0156184
687.411	0.0157726
687.489	0.0157475
687.568	0.0154922
687.646	0.0152676
687.724	0.0150401
687.802	0.0148305
687.880	0.0146663
687.958	0.0142648
688.036	0.0139210
688.114	0.0136054
688.193	0.0133479
688.271	0.0131370
688.349	0.0128928
688.427	0.0124316
688.505	0.0122630
688.583	0.0119984
688.661	0.0118356
688.739	0.0114188
688.818	0.0113366
688.896	0.0113331
688.974	0.0110692
689.052	0.0109440
689.130	0.0109563
689.208	0.0109583
689.286	0.0109988
689.364	0.0109472
689.443	0.0111246
689.521	0.0112417
689.599	0.0116244
689.677	0.0118224
689.755	0.0121247
689.833	0.0123708
689.911	0.0127092
689.989	0.0131424
690.068	0.0136105
690.146	0.0137518
690.224	0.0140145
690.302	0.0142030
690.380	0.0143472
690.458	0.0145000
690.536	0.0147622
690.614	0.0145868
690.693	0.0145565
690.771	0.0146030
690.849	0.0144332
690.927	0.0143358
691.005	0.0142399
691.083	0.0141999
691.161	0.0140655
691.239	0.0138184
691.318	0.0135477
691.396	0.0135030
691.474	0.0133453
691.552	0.0130699
691.630	0.0129624
691.708	0.0126859
691.786	0.0124475
691.864	0.0123653
691.943	0.0121716
692.021	0.0118150
692.099	0.0119511
692.177	0.0118722
692.255	0.0115635
692.333	0.0116203
692.411	0.0116830
692.489	0.0117155
692.568	0.0118398
692.646	0.0118210
692.724	0.0120004
692.802	0.0119443
692.880	0.0122575
692.958	0.0123297
693.036	0.0123663
693.114	0.0125520
693.193	0.0126810
693.271	0.0128286
693.349	0.0130808
693.427	0.0132504
693.505	0.0134081
693.583	0.0135815
693.661	0.0137147
693.739	0.0139675
693.818	0.0141654
693.896	0.0142818
693.974	0.0145261
694.052	0.0146127
694.130	0.0146855
694.208	0.0148837
694.286	0.0149036
694.364	0.0150438
694.443	0.0150626
694.521	0.0150922
694.599	0.0148399
694.677	0.0146037
694.755	0.0143951
694.833	0.0141460
694.911	0.0140156
694.989	0.0136044
695.068	0.0131996
695.146	0.0126905
695.224	0.0121775
695.302	0.0118615
695.380	0.0114873
695.458	0.0109319
695.536	0.0104086
695.614	0.0100705
695.693	0.00988106
695.771	0.00944786
695.849	0.00930305
695.927	0.00939980
696.005	0.00928589
696.083	0.00907715
696.161	0.00926216
696.239	0.00945435
696.318	0.00973831
696.396	0.0100255
696.474	0.0103810
696.552	0.0108066
696.630	0.0114001
696.708	0.0119016
696.786	0.0125020
696.864	0.0131576
696.943	0.0136416
697.021	0.0143803
697.099	0.0150555
697.177	0.0155909
697.255	0.0159906
697.333	0.0164109
697.411	0.0167741
697.489	0.0170741
697.568	0.0173058
697.646	0.0174104
697.724	0.0174033
697.802	0.0175050
697.880	0.0173022
697.958	0.0171847
698.036	0.0168307
698.114	0.0164384
698.193	0.0161942
698.271	0.0156297
698.349	0.0152240
698.427	0.0146569
698.505	0.0140871
698.583	0.0136555
698.661	0.0130344
698.739	0.0126597
698.818	0.0120343
698.896	0.0115903
698.974	0.0112386
699.052	0.0108659
699.130	0.0105511
699.208	0.0102293
699.286	0.00998779
699.364	0.00991318
699.443	0.0100123
699.521	0.00996948
699.599	0.0100823
699.677	0.0102646
699.755	0.0103381
699.833	0.0105424
699.911	0.0107582
699.989	0.0110139
700.068	0.0113597
700.146	0.0116668
700.224	0.0116470
700.302	0.0120483
700.380	0.0120467
700.458	0.0122917
700.536	0.0125842
700.614	0.0127232
700.693	0.0129970
700.771	0.0131469
700.849	0.0132194
700.927	0.0135014
701.005	0.0136175
701.083	0.0137695
701.161	0.0140157
701.239	0.0139721
701.318	0.0141407
701.396	0.0142102
701.474	0.0143418
701.552	0.0141479
701.630	0.0141196
701.708	0.0140971
701.786	0.0138119
701.864	0.0138768
701.943	0.0137704
702.021	0.0135892
702.099	0.0134991
702.177	0.0134159
702.255	0.0134242
702.333	0.0133579
702.411	0.0134727
702.489	0.0136555
702.568	0.0136433
702.646	0.0137659
702.724	0.0140112
702.802	0.0144044
702.880	0.0144254
702.958	0.0145347
703.036	0.0147580
703.114	0.0150420
703.193	0.0150793
703.271	0.0150845
703.349	0.0150752
703.427	0.0150412
703.505	0.0149948
703.583	0.0145847
703.661	0.0144765
703.739	0.0142059
703.818	0.0138025
703.896	0.0135786
703.974	0.0133864
704.052	0.0129417
704.130	0.0124664
704.208	0.0123057
704.286	0.0118346
704.364	0.0115771
704.443	0.0114258
704.521	0.0110822
704.599	0.0108199
704.677	0.0106335
704.755	0.0105086
704.833	0.0103992
704.911	0.0104257
704.989	0.0104550
705.068	0.0105637
705.146	0.0107579
705.224	0.0108652
705.302	0.0110865
705.380	0.0113422
705.458	0.0114892
705.536	0.0117982
705.614	0.0121825
705.693	0.0123607
705.771	0.0125053
705.849	0.0125826
705.927	0.0128856
706.005	0.0131021
706.083	0.0131503
706.161	0.0132878
706.239	0.0136258
706.318	0.0135986
706.396	0.0137130
706.474	0.0140670
706.552	0.0139869
706.630	0.0143534
706.708	0.0143140
706.786	0.0143376
706.864	0.0143805
706.943	0.0143186
707.021	0.0145099
707.099	0.0143006
707.177	0.0143605
707.255	0.0142589
707.333	0.0141103
707.411	0.0138274
707.489	0.0139815
707.568	0.0139070
707.646	0.0137131
707.724	0.0136723
707.802	0.0137388
707.880	0.0137032
707.958	0.0137396
708.036	0.0138071
708.114	0.0137250
708.193	0.0138348
708.271	0.0138560
708.349	0.0138689
708.427	0.0137729
708.505	0.0137802
708.583	0.0137914
708.661	0.0135940
708.739	0.0134584
708.818	0.0134537
708.896	0.0133283
708.974	0.0132327
709.052	0.0132973
709.130	0.0132184
709.208	0.0129865
709.286	0.0128111
709.364	0.0128504
709.443	0.0127242
709.521	0.0128853
709.599	0.0127383
709.677	0.0126966
709.755	0.0125443
709.833	0.0125447
709.911	0.0124144
709.989	0.0125426
710.068	0.0126850
710.146	0.0124763
710.224	0.0125082
710.302	0.0126612
710.380	0.0127408
710.458	0.0126556
710.536	0.0126793
710.614	0.0127324
710.693	0.0125740
710.771	0.0125282
710.849	0.0125811
710.927	0.0124274
711.005	0.0124419
711.083	0.0121947
711.161	0.0120860
711.239	0.0120591
711.318	0.0118845
711.396	0.0118871
711.474	0.0117063
711.552	0.0115392
711.630	0.0118134
711.708	0.0117782
711.786	0.0119118
711.864	0.0118652
711.943	0.0120837
712.021	0.0123512
712.099	0.0125328
712.177	0.0126923
712.255	0.0129994
712.333	0.0132225
712.411	0.0134203
712.489	0.0135579
712.568	0.0138151
712.646	0.0138850
712.724	0.0139419
712.802	0.0137736
712.880	0.0138657
712.958	0.0138477
713.036	0.0138133
713.114	0.0137167
713.193	0.0135650
713.271	0.0134212
713.349	0.0133098
713.427	0.0131515
713.505	0.0131263
713.583	0.0129863
713.661	0.0130385
713.739	0.0129501
713.818	0.0130141
713.896	0.0130943
713.974	0.0131461
714.052	0.0133459
714.130	0.0135735
714.208	0.0135998
714.286	0.0137177
714.364	0.0138436
714.443	0.0140488
714.521	0.0141687
714.599	0.0144010
714.677	0.0145525
714.755	0.0146597
714.833	0.0146587
714.911	0.0146447
714.989	0.0146231
715.068	0.0146462
715.146	0.0145138
715.224	0.0145046
715.302	0.0141884
715.380	0.0140307
715.458	0.0138850
715.536	0.0134435
715.614	0.0132920
715.693	0.0131728
715.771	0.0128978
715.849	0.0126794
715.927	0.0124295
716.005	0.0123272
716.083	0.0122342
716.161	0.0119390
716.239	0.0115865
716.318	0.0113521
716.396	0.0113781
716.474	0.0113219
716.552	0.0111194
716.630	0.0110450
716.708	0.0109494
716.786	0.0107595
716.864	0.0107785
716.943	0.0106963
717.021	0.0105965
717.099	0.0106627
717.177	0.0106860
717.255	0.0107535
717.333	0.0108244
717.411	0.0110323
717.489	0.0111411
717.568	0.0114651
717.646	0.0115475
717.724	0.0117783
717.802	0.0120536
717.880	0.0124470
717.958	0.0125946
718.036	0.0127288
718.114	0.0129130
718.193	0.0130148
718.271	0.0131123
718.349	0.0130978
718.427	0.0130154
718.505	0.0129752
718.583	0.0131335
718.661	0.0132201
718.739	0.0130842
718.818	0.0132344
718.896	0.0133594
718.974	0.0134920
719.052	0.0138785
719.130	0.0138316
719.208	0.0141471
719.286	0.0145978
719.364	0.0149609
719.443	0.0149254
719.521	0.0152651
719.599	0.0153058
719.677	0.0157349
719.755	0.0157314
719.833	0.0158289
719.911	0.0159060
719.989	0.0159635
720.068	0.0159722
720.146	0.0159194
720.224	0.0159491
720.302	0.0157951
720.380	0.0155553
720.458	0.0153982
720.536	0.0152167
720.614	0.0150729
720.693	0.0148196
720.771	0.0146363
720.849	0.0142675
720.927	0.0139086
721.005	0.0135130
721.083	0.0132903
721.161	0.0128288
721.239	0.0125105
721.318	0.0122547
721.396	0.0117522
721.474	0.0115503
721.552	0.0111207
721.630	0.0108399
721.708	0.0104258
721.786	0.0100745
721.864	0.00985191
721.943	0.00966644
722.021	0.00947441
722.099	0.00929634
722.177	0.00930847
722.255	0.00934486
722.333	0.00942810
722.411	0.00931709
722.489	0.00960754
722.568	0.00975861
722.646	0.0100065
722.724	0.0103094
722.802	0.0106084
722.880	0.0107583
722.958	0.0110114
723.036	0.0115355
723.114	0.0119721
723.193	0.0120608
723.271	0.0124827
723.349	0.0128352
723.427	0.0129826
723.505	0.0133424
723.583	0.0136477
723.661	0.0138226
723.739	0.0140072
723.818	0.0143391
723.896	0.0144161
723.974	0.0144906
724.052	0.0144955
724.130	0.0146163
724.208	0.0145831
724.286	0.0147066
724.364	0.0146804
724.443	0.0146639
724.521	0.0147630
724.599	0.0149197
724.677	0.0149094
724.755	0.0149809
724.833	0.0152795
724.911	0.0152020
724.989	0.0153126
725.068	0.0154390
725.146	0.0154610
725.224	0.0156168
725.302	0.0154990
725.380	0.0156045
725.458	0.0154633
725.536	0.0153355
725.614	0.0150993
