05/17/2022	16:29:02	Ver.	4.1	UNKNOWN
Optical Delay	639.989416	Delta X		0.078125	Sweeps	1	Scan Rate	0/0
Coordinates	Axis 1	NaN	Axis 2	NaN	Axis 3	NaN	Axis 4	NaN	Axis 5	NaN	Axis 6	0.000000
TX Power	0.000000	RX Power	0.000000

639.989	0.0147699
640.068	0.0147762
640.146	0.0147383
640.224	0.0146104
640.302	0.0147517
640.380	0.0148847
640.458	0.0148143
640.536	0.0147135
640.614	0.0147855
640.693	0.0146517
640.771	0.0146776
640.849	0.0149254
640.927	0.0147063
641.005	0.0147721
641.083	0.0148176
641.161	0.0147633
641.239	0.0147655
641.318	0.0148653
641.396	0.0148668
641.474	0.0148714
641.552	0.0148749
641.630	0.0147675
641.708	0.0148438
641.786	0.0147490
641.864	0.0148743
641.943	0.0148348
642.021	0.0147811
642.099	0.0148373
642.177	0.0147266
642.255	0.0148254
642.333	0.0148483
642.411	0.0148788
642.489	0.0148675
642.568	0.0148029
642.646	0.0148372
642.724	0.0149643
642.802	0.0148221
642.880	0.0148522
642.958	0.0147650
643.036	0.0149009
643.114	0.0148725
643.193	0.0148426
643.271	0.0149178
643.349	0.0149190
643.427	0.0148801
643.505	0.0147362
643.583	0.0147777
643.661	0.0146472
643.739	0.0147390
643.818	0.0148125
643.896	0.0146455
643.974	0.0148779
644.052	0.0148453
644.130	0.0147299
644.208	0.0146974
644.286	0.0147945
644.364	0.0148161
644.443	0.0149969
644.521	0.0147385
644.599	0.0148553
644.677	0.0146941
644.755	0.0148161
644.833	0.0147398
644.911	0.0147466
644.989	0.0147303
645.068	0.0147391
645.146	0.0148231
645.224	0.0147784
645.302	0.0147717
645.380	0.0148460
645.458	0.0148465
645.536	0.0148690
645.614	0.0148047
645.693	0.0147482
645.771	0.0148463
645.849	0.0147617
645.927	0.0147743
646.005	0.0147149
646.083	0.0147019
646.161	0.0146705
646.239	0.0148737
646.318	0.0148575
646.396	0.0148012
646.474	0.0145992
646.552	0.0146978
646.630	0.0148515
646.708	0.0147906
646.786	0.0148689
646.864	0.0146730
646.943	0.0147278
647.021	0.0148078
647.099	0.0147460
647.177	0.0148282
647.255	0.0147961
647.333	0.0145615
647.411	0.0147547
647.489	0.0147201
647.568	0.0147588
647.646	0.0148197
647.724	0.0149086
647.802	0.0147630
647.880	0.0148277
647.958	0.0146978
648.036	0.0148168
648.114	0.0147614
648.193	0.0147357
648.271	0.0147355
648.349	0.0147760
648.427	0.0147387
648.505	0.0147334
648.583	0.0147975
648.661	0.0147256
648.739	0.0146703
648.818	0.0147487
648.896	0.0147634
648.974	0.0148042
649.052	0.0146947
649.130	0.0146480
649.208	0.0148225
649.286	0.0148392
649.364	0.0146725
649.443	0.0147489
649.521	0.0147527
649.599	0.0147039
649.677	0.0147881
649.755	0.0148303
649.833	0.0147256
649.911	0.0147754
649.989	0.0148669
650.068	0.0146923
650.146	0.0147404
650.224	0.0148143
650.302	0.0149058
650.380	0.0147267
650.458	0.0147077
650.536	0.0148880
650.614	0.0147968
650.693	0.0148362
650.771	0.0147626
650.849	0.0146311
650.927	0.0147880
651.005	0.0148900
651.083	0.0148508
651.161	0.0147600
651.239	0.0148095
651.318	0.0147429
651.396	0.0147497
651.474	0.0147810
651.552	0.0148194
651.630	0.0148739
651.708	0.0147437
651.786	0.0148144
651.864	0.0147571
651.943	0.0147601
652.021	0.0147683
652.099	0.0147529
652.177	0.0148017
652.255	0.0147211
652.333	0.0147707
652.411	0.0148677
652.489	0.0147534
652.568	0.0147832
652.646	0.0147999
652.724	0.0145856
652.802	0.0146996
652.880	0.0148221
652.958	0.0147798
653.036	0.0147563
653.114	0.0148109
653.193	0.0147982
653.271	0.0148351
653.349	0.0148681
653.427	0.0148201
653.505	0.0148490
653.583	0.0148280
653.661	0.0147805
653.739	0.0148563
653.818	0.0147890
653.896	0.0147178
653.974	0.0146873
654.052	0.0148190
654.130	0.0148320
654.208	0.0148175
654.286	0.0148177
654.364	0.0148321
654.443	0.0148105
654.521	0.0148559
654.599	0.0146156
654.677	0.0147582
654.755	0.0147359
654.833	0.0147295
654.911	0.0146992
654.989	0.0148527
655.068	0.0147901
655.146	0.0148436
655.224	0.0148354
655.302	0.0147333
655.380	0.0147433
655.458	0.0148710
655.536	0.0148026
655.614	0.0148173
655.693	0.0147985
655.771	0.0146836
655.849	0.0147623
655.927	0.0147523
656.005	0.0148117
656.083	0.0147404
656.161	0.0146043
656.239	0.0147310
656.318	0.0147740
656.396	0.0147380
656.474	0.0149717
656.552	0.0147570
656.630	0.0147563
656.708	0.0147788
656.786	0.0148122
656.864	0.0148215
656.943	0.0147392
657.021	0.0148304
657.099	0.0148873
657.177	0.0148159
657.255	0.0147150
657.333	0.0147505
657.411	0.0148013
657.489	0.0148270
657.568	0.0146915
657.646	0.0147943
657.724	0.0148457
657.802	0.0147088
657.880	0.0147298
657.958	0.0147600
658.036	0.0147453
658.114	0.0148280
658.193	0.0147255
658.271	0.0146717
658.349	0.0146844
658.427	0.0148035
658.505	0.0147824
658.583	0.0148479
658.661	0.0147380
658.739	0.0147502
658.818	0.0149088
658.896	0.0148607
658.974	0.0148066
659.052	0.0147485
659.130	0.0148061
659.208	0.0147159
659.286	0.0147222
659.364	0.0147932
659.443	0.0149075
659.521	0.0148164
659.599	0.0147866
659.677	0.0146703
659.755	0.0148710
659.833	0.0148457
659.911	0.0147437
659.989	0.0148608
660.068	0.0147733
660.146	0.0148856
660.224	0.0148773
660.302	0.0148389
660.380	0.0148221
660.458	0.0147575
660.536	0.0147560
660.614	0.0147620
660.693	0.0149011
660.771	0.0147598
660.849	0.0147580
660.927	0.0147455
661.005	0.0148105
661.083	0.0147103
661.161	0.0146920
661.239	0.0147099
661.318	0.0146906
661.396	0.0147586
661.474	0.0148400
661.552	0.0147044
661.630	0.0148384
661.708	0.0146873
661.786	0.0148301
661.864	0.0147758
661.943	0.0147115
662.021	0.0147810
662.099	0.0148060
662.177	0.0148026
662.255	0.0148512
662.333	0.0147656
662.411	0.0148020
662.489	0.0146918
662.568	0.0147971
662.646	0.0147707
662.724	0.0147840
662.802	0.0147868
662.880	0.0147801
662.958	0.0146737
663.036	0.0146285
663.114	0.0149371
663.193	0.0147869
663.271	0.0147481
663.349	0.0149209
663.427	0.0147956
663.505	0.0148597
663.583	0.0148595
663.661	0.0148056
663.739	0.0148023
663.818	0.0147549
663.896	0.0148338
663.974	0.0148577
664.052	0.0148824
664.130	0.0148433
664.208	0.0147612
664.286	0.0148161
664.364	0.0149682
664.443	0.0149045
664.521	0.0148012
664.599	0.0148105
664.677	0.0147114
664.755	0.0148637
664.833	0.0146975
664.911	0.0146986
664.989	0.0146671
665.068	0.0147043
665.146	0.0147404
665.224	0.0147608
665.302	0.0147653
665.380	0.0149510
665.458	0.0147839
665.536	0.0148118
665.614	0.0147382
665.693	0.0148994
665.771	0.0148878
665.849	0.0149418
665.927	0.0147621
666.005	0.0147272
666.083	0.0147343
666.161	0.0147787
666.239	0.0148817
666.318	0.0147530
666.396	0.0147396
666.474	0.0148243
666.552	0.0148166
666.630	0.0148558
666.708	0.0147142
666.786	0.0147782
666.864	0.0148228
666.943	0.0147636
667.021	0.0148525
667.099	0.0147770
667.177	0.0147197
667.255	0.0147368
667.333	0.0147313
667.411	0.0147500
667.489	0.0147594
667.568	0.0148866
667.646	0.0147620
667.724	0.0147520
667.802	0.0147871
667.880	0.0148046
667.958	0.0148110
668.036	0.0148217
668.114	0.0147727
668.193	0.0148764
668.271	0.0148629
668.349	0.0147784
668.427	0.0147771
668.505	0.0146341
668.583	0.0146710
668.661	0.0149306
668.739	0.0148613
668.818	0.0148957
668.896	0.0147963
668.974	0.0149537
669.052	0.0146832
669.130	0.0147414
669.208	0.0148891
669.286	0.0148031
669.364	0.0147852
669.443	0.0147527
669.521	0.0147043
669.599	0.0148988
669.677	0.0147844
669.755	0.0148579
669.833	0.0147776
669.911	0.0148060
669.989	0.0148094
670.068	0.0148440
670.146	0.0149440
670.224	0.0147767
670.302	0.0146616
670.380	0.0148063
670.458	0.0148138
670.536	0.0147748
670.614	0.0148471
670.693	0.0147665
670.771	0.0146517
670.849	0.0148058
670.927	0.0148863
671.005	0.0148328
671.083	0.0148553
671.161	0.0147176
671.239	0.0147746
671.318	0.0147403
671.396	0.0146706
671.474	0.0147231
671.552	0.0148604
671.630	0.0147296
671.708	0.0146911
671.786	0.0148105
671.864	0.0147528
671.943	0.0147960
672.021	0.0146975
672.099	0.0147182
672.177	0.0147765
672.255	0.0146770
672.333	0.0148943
672.411	0.0148666
672.489	0.0146593
672.568	0.0146858
672.646	0.0146278
672.724	0.0147871
672.802	0.0147690
672.880	0.0145183
672.958	0.0146347
673.036	0.0147948
673.114	0.0146202
673.193	0.0148399
673.271	0.0146921
673.349	0.0148200
673.427	0.0147570
673.505	0.0147548
673.583	0.0147332
673.661	0.0146432
673.739	0.0148126
673.818	0.0147229
673.896	0.0147193
673.974	0.0147711
674.052	0.0146803
674.130	0.0146099
674.208	0.0148483
674.286	0.0148193
674.364	0.0147791
674.443	0.0146957
674.521	0.0148079
674.599	0.0148030
674.677	0.0147795
674.755	0.0146426
674.833	0.0148053
674.911	0.0146928
674.989	0.0147173
675.068	0.0147171
675.146	0.0148080
675.224	0.0148317
675.302	0.0147594
675.380	0.0147351
675.458	0.0146750
675.536	0.0146722
675.614	0.0148319
675.693	0.0147697
675.771	0.0146906
675.849	0.0146241
675.927	0.0147221
676.005	0.0147427
676.083	0.0146885
676.161	0.0146341
676.239	0.0147661
676.318	0.0147823
676.396	0.0146777
676.474	0.0148455
676.552	0.0147327
676.630	0.0147157
676.708	0.0147330
676.786	0.0146669
676.864	0.0146983
676.943	0.0146992
677.021	0.0147706
677.099	0.0147359
677.177	0.0146658
677.255	0.0147742
677.333	0.0148633
677.411	0.0146648
677.489	0.0147129
677.568	0.0148587
677.646	0.0149224
677.724	0.0147839
677.802	0.0147755
677.880	0.0146964
677.958	0.0147449
678.036	0.0147686
678.114	0.0148581
678.193	0.0147617
678.271	0.0148325
678.349	0.0149424
678.427	0.0147540
678.505	0.0148051
678.583	0.0147036
678.661	0.0148419
678.739	0.0147195
678.818	0.0148904
678.896	0.0148474
678.974	0.0147622
679.052	0.0148093
679.130	0.0148978
679.208	0.0148898
679.286	0.0148655
679.364	0.0148010
679.443	0.0148158
679.521	0.0148616
679.599	0.0148606
679.677	0.0149326
679.755	0.0147791
679.833	0.0148563
679.911	0.0148350
679.989	0.0147419
680.068	0.0148434
680.146	0.0147545
680.224	0.0148051
680.302	0.0148782
680.380	0.0148295
680.458	0.0148423
680.536	0.0148672
680.614	0.0147540
680.693	0.0148642
680.771	0.0148802
680.849	0.0149691
680.927	0.0149238
681.005	0.0148412
681.083	0.0147758
681.161	0.0147404
681.239	0.0148563
681.318	0.0147633
681.396	0.0148547
681.474	0.0150891
681.552	0.0148102
681.630	0.0148872
681.708	0.0149107
681.786	0.0149449
681.864	0.0149239
681.943	0.0148679
682.021	0.0147608
682.099	0.0148885
682.177	0.0148598
682.255	0.0149291
682.333	0.0148576
682.411	0.0149111
682.489	0.0149216
682.568	0.0147089
682.646	0.0149373
682.724	0.0149513
682.802	0.0148427
682.880	0.0148545
682.958	0.0149172
683.036	0.0148662
683.114	0.0148330
683.193	0.0148140
683.271	0.0149449
683.349	0.0147524
683.427	0.0147567
683.505	0.0149255
683.583	0.0148445
683.661	0.0148431
683.739	0.0147765
683.818	0.0149831
683.896	0.0148113
683.974	0.0148190
684.052	0.0147778
684.130	0.0147588
684.208	0.0148318
684.286	0.0148939
684.364	0.0147835
684.443	0.0148811
684.521	0.0148682
684.599	0.0148460
684.677	0.0147813
684.755	0.0148669
684.833	0.0148735
684.911	0.0149264
684.989	0.0147360
685.068	0.0148737
685.146	0.0148672
685.224	0.0147580
685.302	0.0147513
685.380	0.0148320
685.458	0.0146503
685.536	0.0146622
685.614	0.0148277
685.693	0.0148527
685.771	0.0150103
685.849	0.0149267
685.927	0.0147078
686.005	0.0148165
686.083	0.0149477
686.161	0.0147338
686.239	0.0148335
686.318	0.0147839
686.396	0.0147877
686.474	0.0147674
686.552	0.0148261
686.630	0.0146976
686.708	0.0148868
686.786	0.0148804
686.864	0.0148795
686.943	0.0148468
687.021	0.0147971
687.099	0.0148194
687.177	0.0147968
687.255	0.0148817
687.333	0.0148347
687.411	0.0148427
687.489	0.0148238
687.568	0.0149424
687.646	0.0148537
687.724	0.0148376
687.802	0.0147690
687.880	0.0146986
687.958	0.0148167
688.036	0.0149373
688.114	0.0146948
688.193	0.0147428
688.271	0.0147331
688.349	0.0147677
688.427	0.0147948
688.505	0.0148361
688.583	0.0147051
688.661	0.0147044
688.739	0.0147453
688.818	0.0146932
688.896	0.0147145
688.974	0.0146869
689.052	0.0147821
689.130	0.0147265
689.208	0.0147210
689.286	0.0148348
689.364	0.0148238
689.443	0.0149229
689.521	0.0149130
689.599	0.0146262
689.677	0.0148582
689.755	0.0146614
689.833	0.0148122
689.911	0.0148668
689.989	0.0148117
690.068	0.0148119
690.146	0.0149612
690.224	0.0147414
690.302	0.0147202
690.380	0.0146559
690.458	0.0147483
690.536	0.0148882
690.614	0.0148003
690.693	0.0146464
690.771	0.0147593
690.849	0.0147729
690.927	0.0147961
691.005	0.0148542
691.083	0.0148018
691.161	0.0146930
691.239	0.0148271
691.318	0.0149545
691.396	0.0148995
691.474	0.0149564
691.552	0.0148581
691.630	0.0147827
691.708	0.0150652
691.786	0.0149125
691.864	0.0147897
691.943	0.0148466
692.021	0.0147329
692.099	0.0146984
692.177	0.0147906
692.255	0.0146311
692.333	0.0147300
692.411	0.0147390
692.489	0.0146431
692.568	0.0145984
692.646	0.0145705
692.724	0.0146140
692.802	0.0146836
692.880	0.0147284
692.958	0.0147917
693.036	0.0148204
693.114	0.0148302
693.193	0.0147522
693.271	0.0147822
693.349	0.0148786
693.427	0.0150629
693.505	0.0147614
693.583	0.0148454
693.661	0.0149860
693.739	0.0149519
693.818	0.0148436
693.896	0.0148407
693.974	0.0148438
694.052	0.0150071
694.130	0.0148630
694.208	0.0146786
694.286	0.0149397
694.364	0.0147356
694.443	0.0146502
694.521	0.0147491
694.599	0.0147417
694.677	0.0148935
694.755	0.0146588
694.833	0.0146851
694.911	0.0147167
694.989	0.0146991
695.068	0.0146135
695.146	0.0146141
695.224	0.0146130
695.302	0.0146298
695.380	0.0146075
695.458	0.0146447
695.536	0.0145867
695.614	0.0147145
695.693	0.0147400
695.771	0.0148312
695.849	0.0147790
695.927	0.0147939
696.005	0.0147536
696.083	0.0148618
696.161	0.0148607
696.239	0.0147957
696.318	0.0149358
696.396	0.0148141
696.474	0.0147606
696.552	0.0148386
696.630	0.0147588
696.708	0.0148042
696.786	0.0150294
696.864	0.0148993
696.943	0.0147247
697.021	0.0147543
697.099	0.0147292
697.177	0.0148517
697.255	0.0148610
697.333	0.0149030
697.411	0.0148121
697.489	0.0148591
697.568	0.0149089
697.646	0.0148485
697.724	0.0147573
697.802	0.0147573
697.880	0.0148351
697.958	0.0147890
698.036	0.0146799
698.114	0.0148569
698.193	0.0148994
698.271	0.0147588
698.349	0.0147233
698.427	0.0147462
698.505	0.0147375
698.583	0.0147668
698.661	0.0145837
698.739	0.0145838
698.818	0.0146519
698.896	0.0146957
698.974	0.0146648
699.052	0.0146630
699.130	0.0145082
699.208	0.0146100
699.286	0.0145278
699.364	0.0146944
699.443	0.0146964
699.521	0.0145234
699.599	0.0145535
699.677	0.0145306
699.755	0.0146340
699.833	0.0146432
699.911	0.0147489
699.989	0.0147096
700.068	0.0147247
700.146	0.0147887
700.224	0.0148464
700.302	0.0148363
700.380	0.0150042
700.458	0.0148949
700.536	0.0150415
700.614	0.0149358
700.693	0.0149357
700.771	0.0149879
700.849	0.0149891
700.927	0.0149100
701.005	0.0149170
701.083	0.0149057
701.161	0.0148256
701.239	0.0147910
701.318	0.0147412
701.396	0.0146308
701.474	0.0145710
701.552	0.0144202
701.630	0.0145577
701.708	0.0145721
701.786	0.0145547
701.864	0.0146617
701.943	0.0146946
702.021	0.0147341
702.099	0.0148608
702.177	0.0147118
702.255	0.0148056
702.333	0.0147874
702.411	0.0148191
702.489	0.0148151
702.568	0.0147951
702.646	0.0149211
702.724	0.0147740
702.802	0.0147330
702.880	0.0147587
702.958	0.0147226
703.036	0.0147008
703.114	0.0147791
703.193	0.0148299
703.271	0.0148106
703.349	0.0147195
703.427	0.0147497
703.505	0.0147068
703.583	0.0146753
703.661	0.0147234
703.739	0.0147079
703.818	0.0147285
703.896	0.0147337
703.974	0.0146926
704.052	0.0148032
704.130	0.0148196
704.208	0.0150035
704.286	0.0148395
704.364	0.0148049
704.443	0.0148992
704.521	0.0149509
704.599	0.0148051
704.677	0.0148906
704.755	0.0147816
704.833	0.0148567
704.911	0.0149456
704.989	0.0148574
705.068	0.0147363
705.146	0.0146809
705.224	0.0146009
705.302	0.0146613
705.380	0.0147462
705.458	0.0148464
705.536	0.0146709
705.614	0.0147382
705.693	0.0147026
705.771	0.0147503
705.849	0.0148272
705.927	0.0146931
706.005	0.0147249
706.083	0.0148507
706.161	0.0148621
706.239	0.0148744
706.318	0.0148370
706.396	0.0148919
706.474	0.0149848
706.552	0.0150617
706.630	0.0148900
706.708	0.0149613
706.786	0.0149490
706.864	0.0148919
706.943	0.0148824
707.021	0.0148051
707.099	0.0146574
707.177	0.0146373
707.255	0.0145552
707.333	0.0146453
707.411	0.0145870
707.489	0.0146262
707.568	0.0145064
707.646	0.0145709
707.724	0.0143916
707.802	0.0145184
707.880	0.0145149
707.958	0.0147425
708.036	0.0147537
708.114	0.0147488
708.193	0.0147539
708.271	0.0148098
708.349	0.0147283
708.427	0.0148839
708.505	0.0148083
708.583	0.0148543
708.661	0.0149013
708.739	0.0147985
708.818	0.0148904
708.896	0.0150097
708.974	0.0150178
709.052	0.0149289
709.130	0.0150749
709.208	0.0148545
709.286	0.0147602
709.364	0.0150106
709.443	0.0151218
709.521	0.0149648
709.599	0.0147768
709.677	0.0148463
709.755	0.0147804
709.833	0.0147445
709.911	0.0146048
709.989	0.0147244
710.068	0.0146262
710.146	0.0145737
710.224	0.0145772
710.302	0.0145004
710.380	0.0146101
710.458	0.0146037
710.536	0.0145827
710.614	0.0145964
710.693	0.0147198
710.771	0.0145942
710.849	0.0147024
710.927	0.0147790
711.005	0.0149649
711.083	0.0149709
711.161	0.0150520
711.239	0.0153670
711.318	0.0152411
711.396	0.0152615
711.474	0.0152486
711.552	0.0151786
711.630	0.0151610
711.708	0.0153654
711.786	0.0150427
711.864	0.0149264
711.943	0.0149176
712.021	0.0145671
712.099	0.0145652
712.177	0.0143951
712.255	0.0143262
712.333	0.0142397
712.411	0.0141801
712.489	0.0141518
712.568	0.0140659
712.646	0.0141739
712.724	0.0144413
712.802	0.0145475
712.880	0.0145986
712.958	0.0147935
713.036	0.0148428
713.114	0.0149377
713.193	0.0152737
713.271	0.0153526
713.349	0.0155081
713.427	0.0156509
713.505	0.0156194
713.583	0.0156197
713.661	0.0156177
713.739	0.0155640
713.818	0.0153400
713.896	0.0151650
713.974	0.0150436
714.052	0.0148219
714.130	0.0147044
714.208	0.0144614
714.286	0.0142978
714.364	0.0141351
714.443	0.0140570
714.521	0.0139674
714.599	0.0139437
714.677	0.0140206
714.755	0.0139357
714.833	0.0140375
714.911	0.0142291
714.989	0.0143457
715.068	0.0145763
715.146	0.0147857
715.224	0.0148514
715.302	0.0150748
715.380	0.0151692
715.458	0.0153315
715.536	0.0154829
715.614	0.0153684
715.693	0.0153795
715.771	0.0153165
715.849	0.0152408
715.927	0.0152201
716.005	0.0149255
716.083	0.0148649
716.161	0.0145957
716.239	0.0145214
716.318	0.0143294
716.396	0.0142621
716.474	0.0143524
716.552	0.0145397
716.630	0.0144205
716.708	0.0144814
716.786	0.0146736
716.864	0.0150460
716.943	0.0149920
717.021	0.0150969
717.099	0.0151086
717.177	0.0150274
717.255	0.0149846
717.333	0.0148787
717.411	0.0149228
717.489	0.0148042
717.568	0.0147761
717.646	0.0146937
717.724	0.0146541
717.802	0.0147179
717.880	0.0146017
717.958	0.0145213
718.036	0.0145933
718.114	0.0146586
718.193	0.0146317
718.271	0.0145922
718.349	0.0146713
718.427	0.0145842
718.505	0.0146389
718.583	0.0147148
718.661	0.0146568
718.739	0.0148367
718.818	0.0146517
718.896	0.0146620
718.974	0.0148874
719.052	0.0150289
719.130	0.0150252
719.208	0.0147899
719.286	0.0149271
719.364	0.0149741
719.443	0.0150115
719.521	0.0150636
719.599	0.0150029
719.677	0.0148025
719.755	0.0149831
719.833	0.0150573
719.911	0.0148948
719.989	0.0147961
720.068	0.0147418
720.146	0.0145384
720.224	0.0145000
720.302	0.0145843
720.380	0.0145144
720.458	0.0145047
720.536	0.0144749
720.614	0.0144214
720.693	0.0145420
720.771	0.0145497
720.849	0.0146868
720.927	0.0148759
721.005	0.0148726
721.083	0.0151382
721.161	0.0152619
721.239	0.0152653
721.318	0.0153858
721.396	0.0153574
721.474	0.0154643
721.552	0.0153461
721.630	0.0153041
721.708	0.0152586
721.786	0.0149952
721.864	0.0151092
721.943	0.0148495
722.021	0.0146447
722.099	0.0145293
722.177	0.0145049
722.255	0.0144337
722.333	0.0143357
722.411	0.0143340
722.489	0.0141308
722.568	0.0143021
722.646	0.0145030
722.724	0.0144612
722.802	0.0143649
722.880	0.0145190
722.958	0.0145852
723.036	0.0146625
723.114	0.0148314
723.193	0.0149171
723.271	0.0150426
723.349	0.0150539
723.427	0.0149413
723.505	0.0151506
723.583	0.0150224
723.661	0.0149152
723.739	0.0151145
723.818	0.0149940
723.896	0.0150018
723.974	0.0148936
724.052	0.0147559
724.130	0.0147227
724.208	0.0147610
724.286	0.0146721
724.364	0.0145158
724.443	0.0147419
724.521	0.0146842
724.599	0.0144770
724.677	0.0146830
724.755	0.0146735
724.833	0.0146117
724.911	0.0146101
724.989	0.0145113
725.068	0.0148164
725.146	0.0147299
725.224	0.0146239
725.302	0.0145953
725.380	0.0146004
725.458	0.0147088
725.536	0.0149143
725.614	0.0147856
725.693	0.0146754
