05/17/2022	16:29:22	Ver.	4.1	UNKNOWN
Optical Delay	639.989416	Delta X		0.078125	Sweeps	1	Scan Rate	0/0
Coordinates	Axis 1	NaN	Axis 2	NaN	Axis 3	NaN	Axis 4	NaN	Axis 5	NaN	Axis 6	0.000000
TX Power	0.000000	RX Power	0.000000

639.989	0.0147296
640.068	0.0147726
640.146	0.0147198
640.224	0.0147862
640.302	0.0147256
640.380	0.0147240
640.458	0.0146217
640.536	0.0146350
640.614	0.0147226
640.693	0.0146445
640.771	0.0148331
640.849	0.0147620
640.927	0.0147344
641.005	0.0147138
641.083	0.0148699
641.161	0.0147424
641.239	0.0147895
641.318	0.0146944
641.396	0.0147182
641.474	0.0148593
641.552	0.0147051
641.630	0.0147015
641.708	0.0147672
641.786	0.0146996
641.864	0.0147436
641.943	0.0147729
642.021	0.0149236
642.099	0.0146980
642.177	0.0147392
642.255	0.0147948
642.333	0.0147991
642.411	0.0147558
642.489	0.0146037
642.568	0.0146846
642.646	0.0147372
642.724	0.0146986
642.802	0.0148013
642.880	0.0147245
642.958	0.0146971
643.036	0.0148225
643.114	0.0147545
643.193	0.0147380
643.271	0.0146825
643.349	0.0147947
643.427	0.0147257
643.505	0.0148000
643.583	0.0147266
643.661	0.0146055
643.739	0.0146171
643.818	0.0148511
643.896	0.0147514
643.974	0.0147122
644.052	0.0148223
644.130	0.0148091
644.208	0.0147340
644.286	0.0147321
644.364	0.0146790
644.443	0.0147855
644.521	0.0146920
644.599	0.0148071
644.677	0.0148485
644.755	0.0147123
644.833	0.0147945
644.911	0.0148141
644.989	0.0149095
645.068	0.0147343
645.146	0.0146883
645.224	0.0149438
645.302	0.0146072
645.380	0.0147944
645.458	0.0147787
645.536	0.0148185
645.614	0.0147292
645.693	0.0146568
645.771	0.0148161
645.849	0.0146913
645.927	0.0146750
646.005	0.0147424
646.083	0.0145919
646.161	0.0147856
646.239	0.0146963
646.318	0.0147234
646.396	0.0146475
646.474	0.0147639
646.552	0.0147251
646.630	0.0148063
646.708	0.0147730
646.786	0.0147356
646.864	0.0148011
646.943	0.0147384
647.021	0.0147218
647.099	0.0148474
647.177	0.0148530
647.255	0.0147837
647.333	0.0148293
647.411	0.0147498
647.489	0.0147729
647.568	0.0147418
647.646	0.0147370
647.724	0.0149388
647.802	0.0148856
647.880	0.0147375
647.958	0.0146565
648.036	0.0147593
648.114	0.0147648
648.193	0.0148132
648.271	0.0147641
648.349	0.0146623
648.427	0.0146648
648.505	0.0145952
648.583	0.0147856
648.661	0.0147739
648.739	0.0146825
648.818	0.0148536
648.896	0.0148243
648.974	0.0147478
649.052	0.0146992
649.130	0.0148042
649.208	0.0148408
649.286	0.0149083
649.364	0.0147726
649.443	0.0148293
649.521	0.0148363
649.599	0.0147569
649.677	0.0146566
649.755	0.0147361
649.833	0.0148283
649.911	0.0149087
649.989	0.0148462
650.068	0.0148342
650.146	0.0149111
650.224	0.0147836
650.302	0.0147620
650.380	0.0147963
650.458	0.0148255
650.536	0.0147221
650.614	0.0147951
650.693	0.0148102
650.771	0.0147985
650.849	0.0148062
650.927	0.0147630
651.005	0.0147795
651.083	0.0147726
651.161	0.0147672
651.239	0.0147361
651.318	0.0146796
651.396	0.0148015
651.474	0.0147165
651.552	0.0148592
651.630	0.0148203
651.708	0.0148740
651.786	0.0147922
651.864	0.0147137
651.943	0.0147803
652.021	0.0147960
652.099	0.0149300
652.177	0.0148713
652.255	0.0147457
652.333	0.0146827
652.411	0.0147472
652.489	0.0146944
652.568	0.0147976
652.646	0.0146562
652.724	0.0146948
652.802	0.0147958
652.880	0.0147071
652.958	0.0146464
653.036	0.0147842
653.114	0.0148965
653.193	0.0147754
653.271	0.0148067
653.349	0.0147676
653.427	0.0146118
653.505	0.0147355
653.583	0.0148138
653.661	0.0147431
653.739	0.0147254
653.818	0.0146889
653.896	0.0146899
653.974	0.0147783
654.052	0.0147993
654.130	0.0146793
654.208	0.0147594
654.286	0.0148054
654.364	0.0149121
654.443	0.0148255
654.521	0.0148006
654.599	0.0148463
654.677	0.0147666
654.755	0.0147723
654.833	0.0147019
654.911	0.0148518
654.989	0.0149197
655.068	0.0147044
655.146	0.0148690
655.224	0.0147624
655.302	0.0146575
655.380	0.0148230
655.458	0.0147941
655.536	0.0149703
655.614	0.0148966
655.693	0.0148987
655.771	0.0148435
655.849	0.0148563
655.927	0.0148042
656.005	0.0147167
656.083	0.0148881
656.161	0.0149992
656.239	0.0147385
656.318	0.0148998
656.396	0.0148094
656.474	0.0148083
656.552	0.0146617
656.630	0.0147899
656.708	0.0148462
656.786	0.0147363
656.864	0.0148023
656.943	0.0148730
657.021	0.0147543
657.099	0.0146254
657.177	0.0148139
657.255	0.0147215
657.333	0.0148866
657.411	0.0149527
657.489	0.0147500
657.568	0.0147502
657.646	0.0149115
657.724	0.0148454
657.802	0.0148229
657.880	0.0149110
657.958	0.0149043
658.036	0.0146365
658.114	0.0149565
658.193	0.0148490
658.271	0.0148430
658.349	0.0145809
658.427	0.0146867
658.505	0.0148446
658.583	0.0148446
658.661	0.0148447
658.739	0.0148176
658.818	0.0148256
658.896	0.0149444
658.974	0.0148042
659.052	0.0147720
659.130	0.0148443
659.208	0.0148798
659.286	0.0147946
659.364	0.0149146
659.443	0.0147455
659.521	0.0147802
659.599	0.0148165
659.677	0.0148392
659.755	0.0147561
659.833	0.0148627
659.911	0.0147507
659.989	0.0147535
660.068	0.0149267
660.146	0.0147462
660.224	0.0148370
660.302	0.0147970
660.380	0.0147361
660.458	0.0146615
660.536	0.0148293
660.614	0.0147971
660.693	0.0148268
660.771	0.0147265
660.849	0.0147190
660.927	0.0148512
661.005	0.0148685
661.083	0.0147959
661.161	0.0146975
661.239	0.0148289
661.318	0.0148406
661.396	0.0148180
661.474	0.0147887
661.552	0.0148407
661.630	0.0147421
661.708	0.0147831
661.786	0.0146391
661.864	0.0146769
661.943	0.0147887
662.021	0.0149239
662.099	0.0147443
662.177	0.0147817
662.255	0.0147353
662.333	0.0148595
662.411	0.0148922
662.489	0.0148940
662.568	0.0148228
662.646	0.0147227
662.724	0.0147036
662.802	0.0147567
662.880	0.0147762
662.958	0.0148293
663.036	0.0147106
663.114	0.0147443
663.193	0.0148288
663.271	0.0147750
663.349	0.0146169
663.427	0.0148547
663.505	0.0147897
663.583	0.0147602
663.661	0.0147092
663.739	0.0146339
663.818	0.0146738
663.896	0.0147945
663.974	0.0147611
664.052	0.0147583
664.130	0.0147009
664.208	0.0147008
664.286	0.0147990
664.364	0.0147765
664.443	0.0148086
664.521	0.0148989
664.599	0.0148708
664.677	0.0146575
664.755	0.0147917
664.833	0.0147711
664.911	0.0146593
664.989	0.0147203
665.068	0.0147222
665.146	0.0148109
665.224	0.0147185
665.302	0.0146599
665.380	0.0147289
665.458	0.0146532
665.536	0.0147945
665.614	0.0147495
665.693	0.0148209
665.771	0.0147433
665.849	0.0147955
665.927	0.0148826
666.005	0.0147707
666.083	0.0148717
666.161	0.0146014
666.239	0.0148060
666.318	0.0149498
666.396	0.0147273
666.474	0.0148124
666.552	0.0148895
666.630	0.0147452
666.708	0.0147872
666.786	0.0147946
666.864	0.0146996
666.943	0.0147514
667.021	0.0147865
667.099	0.0148193
667.177	0.0147289
667.255	0.0147587
667.333	0.0148283
667.411	0.0147734
667.489	0.0147974
667.568	0.0147547
667.646	0.0147348
667.724	0.0147572
667.802	0.0147906
667.880	0.0147234
667.958	0.0148956
668.036	0.0149030
668.114	0.0148244
668.193	0.0148040
668.271	0.0150177
668.349	0.0147752
668.427	0.0148601
668.505	0.0147445
668.583	0.0147816
668.661	0.0148560
668.739	0.0148351
668.818	0.0146603
668.896	0.0147273
668.974	0.0147079
669.052	0.0149380
669.130	0.0148126
669.208	0.0148269
669.286	0.0149196
669.364	0.0149144
669.443	0.0148019
669.521	0.0147374
669.599	0.0147418
669.677	0.0147284
669.755	0.0147844
669.833	0.0147829
669.911	0.0148052
669.989	0.0147465
670.068	0.0148394
670.146	0.0147484
670.224	0.0148369
670.302	0.0149046
670.380	0.0149449
670.458	0.0149248
670.536	0.0147175
670.614	0.0148567
670.693	0.0148309
670.771	0.0148701
670.849	0.0147506
670.927	0.0146889
671.005	0.0147668
671.083	0.0147254
671.161	0.0148464
671.239	0.0147815
671.318	0.0147165
671.396	0.0147474
671.474	0.0146204
671.552	0.0146693
671.630	0.0146991
671.708	0.0145721
671.786	0.0146846
671.864	0.0147707
671.943	0.0146975
672.021	0.0147208
672.099	0.0147614
672.177	0.0147842
672.255	0.0147902
672.333	0.0146710
672.411	0.0147604
672.489	0.0147149
672.568	0.0147914
672.646	0.0147137
672.724	0.0146622
672.802	0.0146913
672.880	0.0148399
672.958	0.0146200
673.036	0.0147067
673.114	0.0147696
673.193	0.0146755
673.271	0.0146815
673.349	0.0147066
673.427	0.0146932
673.505	0.0147170
673.583	0.0146843
673.661	0.0147585
673.739	0.0145872
673.818	0.0146221
673.896	0.0147543
673.974	0.0148177
674.052	0.0148369
674.130	0.0146217
674.208	0.0146066
674.286	0.0147739
674.364	0.0146642
674.443	0.0146551
674.521	0.0147407
674.599	0.0146658
674.677	0.0147431
674.755	0.0147288
674.833	0.0146673
674.911	0.0145939
674.989	0.0146590
675.068	0.0146949
675.146	0.0147430
675.224	0.0147923
675.302	0.0146655
675.380	0.0146419
675.458	0.0146649
675.536	0.0148472
675.614	0.0146970
675.693	0.0147018
675.771	0.0146152
675.849	0.0148109
675.927	0.0147728
676.005	0.0147015
676.083	0.0146043
676.161	0.0148055
676.239	0.0147893
676.318	0.0146323
676.396	0.0146733
676.474	0.0147019
676.552	0.0147873
676.630	0.0147858
676.708	0.0147770
676.786	0.0146560
676.864	0.0148032
676.943	0.0147939
677.021	0.0147039
677.099	0.0147380
677.177	0.0148066
677.255	0.0146907
677.333	0.0147923
677.411	0.0148051
677.489	0.0148479
677.568	0.0148930
677.646	0.0148671
677.724	0.0147940
677.802	0.0148560
677.880	0.0147410
677.958	0.0148495
678.036	0.0147624
678.114	0.0147437
678.193	0.0148031
678.271	0.0146801
678.349	0.0148193
678.427	0.0149702
678.505	0.0148375
678.583	0.0147319
678.661	0.0148262
678.739	0.0149161
678.818	0.0148184
678.896	0.0147653
678.974	0.0148706
679.052	0.0146989
679.130	0.0147997
679.208	0.0147314
679.286	0.0148797
679.364	0.0148758
679.443	0.0148300
679.521	0.0147197
679.599	0.0149595
679.677	0.0149834
679.755	0.0149683
679.833	0.0148987
679.911	0.0148701
679.989	0.0148903
680.068	0.0147953
680.146	0.0148788
680.224	0.0148907
680.302	0.0148997
680.380	0.0147920
680.458	0.0147209
680.536	0.0148835
680.614	0.0148087
680.693	0.0148315
680.771	0.0147902
680.849	0.0149178
680.927	0.0148344
681.005	0.0147124
681.083	0.0147655
681.161	0.0148086
681.239	0.0148700
681.318	0.0148997
681.396	0.0146957
681.474	0.0149350
681.552	0.0148656
681.630	0.0148369
681.708	0.0148055
681.786	0.0149426
681.864	0.0147948
681.943	0.0148859
682.021	0.0149496
682.099	0.0147985
682.177	0.0148110
682.255	0.0147855
682.333	0.0147961
682.411	0.0148455
682.489	0.0147776
682.568	0.0149004
682.646	0.0148061
682.724	0.0148432
682.802	0.0147863
682.880	0.0147982
682.958	0.0147535
683.036	0.0148960
683.114	0.0148681
683.193	0.0148414
683.271	0.0148249
683.349	0.0147564
683.427	0.0147995
683.505	0.0149088
683.583	0.0148850
683.661	0.0149639
683.739	0.0149282
683.818	0.0148263
683.896	0.0148113
683.974	0.0148722
684.052	0.0148505
684.130	0.0147651
684.208	0.0148158
684.286	0.0148978
684.364	0.0147750
684.443	0.0148592
684.521	0.0148213
684.599	0.0146140
684.677	0.0148119
684.755	0.0149069
684.833	0.0148179
684.911	0.0147682
684.989	0.0148132
685.068	0.0148259
685.146	0.0148091
685.224	0.0146688
685.302	0.0146973
685.380	0.0148494
685.458	0.0148579
685.536	0.0147440
685.614	0.0147094
685.693	0.0148056
685.771	0.0149938
685.849	0.0147734
685.927	0.0146998
686.005	0.0148154
686.083	0.0147737
686.161	0.0149355
686.239	0.0148806
686.318	0.0147353
686.396	0.0148198
686.474	0.0148233
686.552	0.0147363
686.630	0.0147348
686.708	0.0148582
686.786	0.0146341
686.864	0.0146582
686.943	0.0148914
687.021	0.0147824
687.099	0.0147719
687.177	0.0147218
687.255	0.0147649
687.333	0.0146987
687.411	0.0147416
687.489	0.0147776
687.568	0.0148547
687.646	0.0148045
687.724	0.0146943
687.802	0.0148177
687.880	0.0147717
687.958	0.0148376
688.036	0.0148211
688.114	0.0147346
688.193	0.0146699
688.271	0.0146754
688.349	0.0146905
688.427	0.0148006
688.505	0.0147105
688.583	0.0146609
688.661	0.0147929
688.739	0.0147829
688.818	0.0147118
688.896	0.0147011
688.974	0.0147975
689.052	0.0146515
689.130	0.0147993
689.208	0.0148106
689.286	0.0147975
689.364	0.0148504
689.443	0.0147835
689.521	0.0147996
689.599	0.0148560
689.677	0.0148866
689.755	0.0149135
689.833	0.0147548
689.911	0.0147705
689.989	0.0148277
690.068	0.0148467
690.146	0.0146375
690.224	0.0147002
690.302	0.0147697
690.380	0.0147226
690.458	0.0145908
690.536	0.0146955
690.614	0.0147679
690.693	0.0149485
690.771	0.0148015
690.849	0.0148308
690.927	0.0148109
691.005	0.0148949
691.083	0.0149437
691.161	0.0150166
691.239	0.0149019
691.318	0.0149137
691.396	0.0149078
691.474	0.0147649
691.552	0.0147793
691.630	0.0148080
691.708	0.0146605
691.786	0.0146957
691.864	0.0145635
691.943	0.0145932
692.021	0.0145565
692.099	0.0146411
692.177	0.0145126
692.255	0.0145994
692.333	0.0147702
692.411	0.0144666
692.489	0.0146651
692.568	0.0147301
692.646	0.0146423
692.724	0.0147685
692.802	0.0146983
692.880	0.0148404
692.958	0.0148566
693.036	0.0149017
693.114	0.0148751
693.193	0.0147697
693.271	0.0147662
693.349	0.0149042
693.427	0.0149953
693.505	0.0148362
693.583	0.0149104
693.661	0.0149722
693.739	0.0148402
693.818	0.0148825
693.896	0.0148878
693.974	0.0149100
694.052	0.0147259
694.130	0.0145859
694.208	0.0146763
694.286	0.0147095
694.364	0.0147483
694.443	0.0147881
694.521	0.0146378
694.599	0.0147667
694.677	0.0146959
694.755	0.0147619
694.833	0.0147541
694.911	0.0144905
694.989	0.0145749
695.068	0.0145200
695.146	0.0146275
695.224	0.0147189
695.302	0.0147511
695.380	0.0147063
695.458	0.0147513
695.536	0.0147356
695.614	0.0147079
695.693	0.0149368
695.771	0.0148026
695.849	0.0148791
695.927	0.0148835
696.005	0.0150527
696.083	0.0148896
696.161	0.0148069
696.239	0.0148881
696.318	0.0149234
696.396	0.0149318
696.474	0.0148965
696.552	0.0147719
696.630	0.0146296
696.708	0.0147594
696.786	0.0147193
696.864	0.0146999
696.943	0.0147478
697.021	0.0148066
697.099	0.0148085
697.177	0.0147169
697.255	0.0147610
697.333	0.0147063
697.411	0.0147960
697.489	0.0147750
697.568	0.0148360
697.646	0.0148520
697.724	0.0148705
697.802	0.0148659
697.880	0.0148279
697.958	0.0148356
698.036	0.0148283
698.114	0.0147735
698.193	0.0147988
698.271	0.0147316
698.349	0.0148194
698.427	0.0148131
698.505	0.0148304
698.583	0.0146343
698.661	0.0145600
698.739	0.0146249
698.818	0.0146208
698.896	0.0143512
698.974	0.0145238
699.052	0.0144281
699.130	0.0145013
699.208	0.0144011
699.286	0.0143220
699.364	0.0144589
699.443	0.0144514
699.521	0.0145344
699.599	0.0146957
699.677	0.0147902
699.755	0.0147572
699.833	0.0148013
699.911	0.0148668
699.989	0.0148936
700.068	0.0150053
700.146	0.0150256
700.224	0.0149438
700.302	0.0150706
700.380	0.0150729
700.458	0.0151375
700.536	0.0151523
700.614	0.0150272
700.693	0.0148118
700.771	0.0149333
700.849	0.0147575
700.927	0.0147211
701.005	0.0147697
701.083	0.0147103
701.161	0.0145876
701.239	0.0144868
701.318	0.0145945
701.396	0.0143216
701.474	0.0143622
701.552	0.0145309
701.630	0.0144642
701.708	0.0145131
701.786	0.0146764
701.864	0.0145255
701.943	0.0146889
702.021	0.0147543
702.099	0.0145858
702.177	0.0146906
702.255	0.0146448
702.333	0.0148639
702.411	0.0148914
702.489	0.0148331
702.568	0.0148675
702.646	0.0147990
702.724	0.0148774
702.802	0.0146954
702.880	0.0148486
702.958	0.0149025
703.036	0.0147628
703.114	0.0147456
703.193	0.0147758
703.271	0.0145609
703.349	0.0146558
703.427	0.0146353
703.505	0.0147306
703.583	0.0148892
703.661	0.0148184
703.739	0.0148132
703.818	0.0148042
703.896	0.0149101
703.974	0.0148887
704.052	0.0148765
704.130	0.0147637
704.208	0.0148584
704.286	0.0148470
704.364	0.0148516
704.443	0.0149043
704.521	0.0148933
704.599	0.0148676
704.677	0.0149504
704.755	0.0147242
704.833	0.0147324
704.911	0.0146872
704.989	0.0147681
705.068	0.0148814
705.146	0.0149086
705.224	0.0147490
705.302	0.0147202
705.380	0.0147028
705.458	0.0147099
705.536	0.0148128
705.614	0.0147942
705.693	0.0147656
705.771	0.0147024
705.849	0.0146859
705.927	0.0148845
706.005	0.0149116
706.083	0.0150776
706.161	0.0148640
706.239	0.0148400
706.318	0.0150399
706.396	0.0150664
706.474	0.0149547
706.552	0.0149184
706.630	0.0149477
706.708	0.0147886
706.786	0.0149509
706.864	0.0146957
706.943	0.0145937
707.021	0.0146193
707.099	0.0145387
707.177	0.0144566
707.255	0.0143513
707.333	0.0145367
707.411	0.0144836
707.489	0.0145472
707.568	0.0144521
707.646	0.0145922
707.724	0.0146516
707.802	0.0145344
707.880	0.0147886
707.958	0.0148035
708.036	0.0146671
708.114	0.0148545
708.193	0.0148345
708.271	0.0149035
708.349	0.0149537
708.427	0.0150736
708.505	0.0149799
708.583	0.0149124
708.661	0.0150513
708.739	0.0150343
708.818	0.0149232
708.896	0.0149556
708.974	0.0148368
709.052	0.0148269
709.130	0.0146642
709.208	0.0145345
709.286	0.0144673
709.364	0.0145161
709.443	0.0145518
709.521	0.0143550
709.599	0.0143397
709.677	0.0144563
709.755	0.0144666
709.833	0.0143916
709.911	0.0144370
709.989	0.0146773
710.068	0.0147027
710.146	0.0147484
710.224	0.0146972
710.302	0.0148915
710.380	0.0149355
710.458	0.0149718
710.536	0.0151105
710.614	0.0152454
710.693	0.0152345
710.771	0.0152361
710.849	0.0151747
710.927	0.0152380
711.005	0.0151431
711.083	0.0150430
711.161	0.0149934
711.239	0.0149129
711.318	0.0147875
711.396	0.0147530
711.474	0.0146041
711.552	0.0143620
711.630	0.0143843
711.708	0.0142588
711.786	0.0141798
711.864	0.0143693
711.943	0.0142544
712.021	0.0143930
712.099	0.0145236
712.177	0.0145116
712.255	0.0148225
712.333	0.0148569
712.411	0.0150130
712.489	0.0153662
712.568	0.0153377
712.646	0.0155453
712.724	0.0154115
712.802	0.0154377
712.880	0.0156155
712.958	0.0155955
713.036	0.0154337
713.114	0.0153720
713.193	0.0153226
713.271	0.0151517
713.349	0.0149004
713.427	0.0148206
713.505	0.0146492
713.583	0.0144664
713.661	0.0141201
713.739	0.0140776
713.818	0.0141991
713.896	0.0139596
713.974	0.0140571
714.052	0.0140818
714.130	0.0141122
714.208	0.0143341
714.286	0.0143877
714.364	0.0143970
714.443	0.0145774
714.521	0.0148078
714.599	0.0149777
714.677	0.0151166
714.755	0.0150971
714.833	0.0153021
714.911	0.0153136
714.989	0.0152922
715.068	0.0153784
715.146	0.0151089
715.224	0.0151324
715.302	0.0151752
715.380	0.0149326
715.458	0.0146792
715.536	0.0147363
715.614	0.0143789
715.693	0.0144914
715.771	0.0143047
715.849	0.0144024
715.927	0.0144392
716.005	0.0143846
716.083	0.0145883
716.161	0.0145954
716.239	0.0147943
716.318	0.0147925
716.396	0.0149458
716.474	0.0148732
716.552	0.0149867
716.630	0.0149033
716.708	0.0149166
716.786	0.0148783
716.864	0.0150529
716.943	0.0149225
717.021	0.0148153
717.099	0.0148557
717.177	0.0149689
717.255	0.0149126
717.333	0.0148333
717.411	0.0148364
717.489	0.0147874
717.568	0.0146558
717.646	0.0146445
717.724	0.0145387
717.802	0.0145895
717.880	0.0145870
717.958	0.0145369
718.036	0.0144862
718.114	0.0144439
718.193	0.0144197
718.271	0.0145017
718.349	0.0144788
718.427	0.0146505
718.505	0.0147195
718.583	0.0147004
718.661	0.0148436
718.739	0.0149474
718.818	0.0149917
718.896	0.0150748
718.974	0.0150194
719.052	0.0151210
719.130	0.0152260
719.208	0.0152631
719.286	0.0151338
719.364	0.0150777
719.443	0.0149487
719.521	0.0148875
719.599	0.0147462
719.677	0.0146573
719.755	0.0145457
719.833	0.0144303
719.911	0.0143295
719.989	0.0142291
720.068	0.0143372
720.146	0.0142798
720.224	0.0144577
720.302	0.0146733
720.380	0.0147618
720.458	0.0148567
720.536	0.0151285
720.614	0.0150754
720.693	0.0153066
720.771	0.0154346
720.849	0.0154605
720.927	0.0155154
721.005	0.0154388
721.083	0.0153606
721.161	0.0152972
721.239	0.0150446
721.318	0.0149949
721.396	0.0149534
721.474	0.0147027
721.552	0.0146248
721.630	0.0145447
721.708	0.0143551
721.786	0.0143333
721.864	0.0142894
721.943	0.0143598
722.021	0.0143326
722.099	0.0142345
722.177	0.0143542
722.255	0.0144389
722.333	0.0146728
722.411	0.0147475
722.489	0.0147346
722.568	0.0146423
722.646	0.0148042
722.724	0.0149025
722.802	0.0149500
722.880	0.0149832
722.958	0.0148934
723.036	0.0149135
723.114	0.0150612
723.193	0.0149789
723.271	0.0149099
723.349	0.0148749
723.427	0.0146883
723.505	0.0145776
723.583	0.0146169
723.661	0.0146912
723.739	0.0145896
723.818	0.0145084
723.896	0.0146585
723.974	0.0146182
724.052	0.0145657
724.130	0.0145258
724.208	0.0146369
724.286	0.0146407
724.364	0.0146373
724.443	0.0146549
724.521	0.0146966
724.599	0.0148329
724.677	0.0146353
724.755	0.0147978
724.833	0.0147618
724.911	0.0147754
724.989	0.0147852
725.068	0.0148454
725.146	0.0147047
725.224	0.0148251
725.302	0.0147356
725.380	0.0147929
725.458	0.0149832
725.536	0.0148787
725.614	0.0150080
725.693	0.0150075
