05/26/2022	21:12:16	Ver.	4.1	UNKNOWN
Optical Delay	400.043419	Delta X		0.078125	Sweeps	1	Scan Rate	0/0
Coordinates	Axis 1	NaN	Axis 2	NaN	Axis 3	NaN	Axis 4	NaN	Axis 5	NaN	Axis 6	0.000000
TX Power	0.000000	RX Power	0.000000

400.043	0.0147721
400.122	0.0147968
400.200	0.0147500
400.278	0.0148277
400.356	0.0146281
400.434	0.0147244
400.512	0.0146455
400.590	0.0148444
400.668	0.0148309
400.747	0.0147506
400.825	0.0147298
400.903	0.0146823
400.981	0.0147229
401.059	0.0147622
401.137	0.0148231
401.215	0.0148790
401.293	0.0148166
401.372	0.0147442
401.450	0.0148538
401.528	0.0147050
401.606	0.0146895
401.684	0.0149367
401.762	0.0148307
401.840	0.0147322
401.918	0.0147014
401.997	0.0147826
402.075	0.0148415
402.153	0.0148368
402.231	0.0147747
402.309	0.0147720
402.387	0.0147648
402.465	0.0147874
402.543	0.0147542
402.622	0.0148544
402.700	0.0148172
402.778	0.0147260
402.856	0.0147334
402.934	0.0147433
403.012	0.0147733
403.090	0.0146271
403.168	0.0147559
403.247	0.0146595
403.325	0.0146977
403.403	0.0147904
403.481	0.0147532
403.559	0.0148474
403.637	0.0149299
403.715	0.0149146
403.793	0.0148836
403.872	0.0147263
403.950	0.0148383
404.028	0.0148208
404.106	0.0146405
404.184	0.0147960
404.262	0.0147247
404.340	0.0147315
404.418	0.0148775
404.497	0.0147086
404.575	0.0147186
404.653	0.0148344
404.731	0.0147532
404.809	0.0147235
404.887	0.0147094
404.965	0.0147581
405.043	0.0146968
405.122	0.0148840
405.200	0.0148027
405.278	0.0147777
405.356	0.0147254
405.434	0.0148690
405.512	0.0147512
405.590	0.0147846
405.668	0.0147448
405.747	0.0148367
405.825	0.0148430
405.903	0.0148373
405.981	0.0148309
406.059	0.0147373
406.137	0.0148206
406.215	0.0147767
406.293	0.0146535
406.372	0.0146591
406.450	0.0147258
406.528	0.0148457
406.606	0.0147915
406.684	0.0148489
406.762	0.0146741
406.840	0.0147843
406.918	0.0147270
406.997	0.0148196
407.075	0.0148161
407.153	0.0146470
407.231	0.0146570
407.309	0.0146989
407.387	0.0146052
407.465	0.0146415
407.543	0.0147408
407.622	0.0147189
407.700	0.0148232
407.778	0.0148358
407.856	0.0147898
407.934	0.0147601
408.012	0.0147449
408.090	0.0148553
408.168	0.0147511
408.247	0.0149290
408.325	0.0148243
408.403	0.0146909
408.481	0.0148648
408.559	0.0147927
408.637	0.0148099
408.715	0.0146455
408.793	0.0147686
408.872	0.0147644
408.950	0.0147461
409.028	0.0148301
409.106	0.0147543
409.184	0.0147239
409.262	0.0148106
409.340	0.0147746
409.418	0.0148307
409.497	0.0147571
409.575	0.0147438
409.653	0.0148005
409.731	0.0146477
409.809	0.0146814
409.887	0.0146723
409.965	0.0147086
410.043	0.0148417
410.122	0.0147726
410.200	0.0147030
410.278	0.0147340
410.356	0.0148534
410.434	0.0147890
410.512	0.0147891
410.590	0.0149036
410.668	0.0148148
410.747	0.0147968
410.825	0.0147849
410.903	0.0148067
410.981	0.0149309
411.059	0.0148203
411.137	0.0147717
411.215	0.0147022
411.293	0.0147807
411.372	0.0148645
411.450	0.0148476
411.528	0.0147400
411.606	0.0147347
411.684	0.0146975
411.762	0.0147995
411.840	0.0148532
411.918	0.0147713
411.997	0.0147777
412.075	0.0148667
412.153	0.0148463
412.231	0.0148055
412.309	0.0148737
412.387	0.0147692
412.465	0.0148157
412.543	0.0148751
412.622	0.0147729
412.700	0.0147314
412.778	0.0148181
412.856	0.0148015
412.934	0.0149323
413.012	0.0147307
413.090	0.0147150
413.168	0.0146358
413.247	0.0146904
413.325	0.0147820
413.403	0.0148531
413.481	0.0146896
413.559	0.0147361
413.637	0.0147160
413.715	0.0147810
413.793	0.0146820
413.872	0.0149369
413.950	0.0148559
414.028	0.0148363
414.106	0.0147568
414.184	0.0148324
414.262	0.0148150
414.340	0.0148806
414.418	0.0147009
414.497	0.0147307
414.575	0.0148176
414.653	0.0147343
414.731	0.0147142
414.809	0.0147268
414.887	0.0148036
414.965	0.0147205
415.043	0.0148754
415.122	0.0148786
415.200	0.0148405
415.278	0.0148198
415.356	0.0148080
415.434	0.0147633
415.512	0.0148829
415.590	0.0148505
415.668	0.0147390
415.747	0.0146778
415.825	0.0146710
415.903	0.0149065
415.981	0.0146876
416.059	0.0148096
416.137	0.0147817
416.215	0.0146923
416.293	0.0149162
416.372	0.0148103
416.450	0.0148615
416.528	0.0148788
416.606	0.0149498
416.684	0.0147651
416.762	0.0145725
416.840	0.0147378
416.918	0.0147901
416.997	0.0147076
417.075	0.0147775
417.153	0.0147861
417.231	0.0148016
417.309	0.0148067
417.387	0.0148091
417.465	0.0148254
417.543	0.0146992
417.622	0.0147456
417.700	0.0148077
417.778	0.0146780
417.856	0.0146663
417.934	0.0148330
418.012	0.0147323
418.090	0.0147060
418.168	0.0147577
418.247	0.0147298
418.325	0.0145512
418.403	0.0147617
418.481	0.0147437
418.559	0.0147451
418.637	0.0147739
418.715	0.0147544
418.793	0.0147218
418.872	0.0148005
418.950	0.0148236
419.028	0.0147685
419.106	0.0147256
419.184	0.0146720
419.262	0.0147849
419.340	0.0147762
419.418	0.0147622
419.497	0.0148013
419.575	0.0147531
419.653	0.0147449
419.731	0.0147868
419.809	0.0148386
419.887	0.0148302
419.965	0.0147805
420.043	0.0148979
420.122	0.0147023
420.200	0.0148725
420.278	0.0149535
420.356	0.0147141
420.434	0.0148399
420.512	0.0147364
420.590	0.0147321
420.668	0.0148067
420.747	0.0147852
420.825	0.0148001
420.903	0.0147411
420.981	0.0148251
421.059	0.0147398
421.137	0.0147280
421.215	0.0149200
421.293	0.0147186
421.372	0.0147653
421.450	0.0147438
421.528	0.0146763
421.606	0.0147466
421.684	0.0148048
421.762	0.0147442
421.840	0.0147709
421.918	0.0148371
421.997	0.0147360
422.075	0.0148516
422.153	0.0148465
422.231	0.0148422
422.309	0.0148718
422.387	0.0147682
422.465	0.0147264
422.543	0.0146962
422.622	0.0147350
422.700	0.0148550
422.778	0.0148129
422.856	0.0147504
422.934	0.0146953
423.012	0.0147491
423.090	0.0148613
423.168	0.0147706
423.247	0.0147937
423.325	0.0146702
423.403	0.0147385
423.481	0.0147974
423.559	0.0147893
423.637	0.0148454
423.715	0.0147990
423.793	0.0147105
423.872	0.0147672
423.950	0.0147933
424.028	0.0146943
424.106	0.0147988
424.184	0.0146599
424.262	0.0148003
424.340	0.0147771
424.418	0.0147177
424.497	0.0146592
424.575	0.0147174
424.653	0.0148698
424.731	0.0148225
424.809	0.0147156
424.887	0.0147916
424.965	0.0147940
425.043	0.0147152
425.122	0.0147068
425.200	0.0147729
425.278	0.0147299
425.356	0.0148289
425.434	0.0146884
425.512	0.0147190
425.590	0.0146994
425.668	0.0147036
425.747	0.0146826
425.825	0.0147391
425.903	0.0148134
425.981	0.0147182
426.059	0.0147787
426.137	0.0147875
426.215	0.0148413
426.293	0.0148665
426.372	0.0148215
426.450	0.0147646
426.528	0.0147992
426.606	0.0147656
426.684	0.0147455
426.762	0.0146122
426.840	0.0146773
426.918	0.0147949
426.997	0.0147375
427.075	0.0147092
427.153	0.0147355
427.231	0.0147308
427.309	0.0147443
427.387	0.0146751
427.465	0.0148139
427.543	0.0148701
427.622	0.0148587
427.700	0.0147051
427.778	0.0147805
427.856	0.0147297
427.934	0.0148035
428.012	0.0147572
428.090	0.0147852
428.168	0.0147668
428.247	0.0148505
428.325	0.0148020
428.403	0.0148196
428.481	0.0146066
428.559	0.0147860
428.637	0.0147676
428.715	0.0148260
428.793	0.0147234
428.872	0.0146928
428.950	0.0145288
429.028	0.0146068
429.106	0.0147222
429.184	0.0148155
429.262	0.0149416
429.340	0.0146854
429.418	0.0148000
429.497	0.0146804
429.575	0.0147112
429.653	0.0148906
429.731	0.0147768
429.809	0.0149489
429.887	0.0148222
429.965	0.0147034
430.043	0.0147910
430.122	0.0147607
430.200	0.0147460
430.278	0.0147726
430.356	0.0148443
430.434	0.0147682
430.512	0.0147574
430.590	0.0146403
430.668	0.0147342
430.747	0.0147964
430.825	0.0147798
430.903	0.0148551
430.981	0.0147678
431.059	0.0148307
431.137	0.0148227
431.215	0.0147871
431.293	0.0147651
431.372	0.0148013
431.450	0.0147144
431.528	0.0147488
431.606	0.0148058
431.684	0.0147834
431.762	0.0147720
431.840	0.0148262
431.918	0.0147876
431.997	0.0148657
432.075	0.0148503
432.153	0.0147714
432.231	0.0146913
432.309	0.0147652
432.387	0.0148395
432.465	0.0147401
432.543	0.0147747
432.622	0.0147184
432.700	0.0147241
432.778	0.0147673
432.856	0.0147068
432.934	0.0148257
433.012	0.0148772
433.090	0.0149515
433.168	0.0148589
433.247	0.0147203
433.325	0.0147032
433.403	0.0148642
433.481	0.0147076
433.559	0.0147726
433.637	0.0147854
433.715	0.0148054
433.793	0.0148564
433.872	0.0147850
433.950	0.0148918
434.028	0.0147595
434.106	0.0147184
434.184	0.0148717
434.262	0.0148064
434.340	0.0148151
434.418	0.0148029
434.497	0.0148379
434.575	0.0147655
434.653	0.0146856
434.731	0.0147401
434.809	0.0147536
434.887	0.0148608
434.965	0.0147862
435.043	0.0150106
435.122	0.0147918
435.200	0.0146970
435.278	0.0146989
435.356	0.0146446
435.434	0.0146988
435.512	0.0147237
435.590	0.0147388
435.668	0.0146321
435.747	0.0148466
435.825	0.0147993
435.903	0.0147371
435.981	0.0148813
436.059	0.0147697
436.137	0.0148205
436.215	0.0147746
436.293	0.0146221
436.372	0.0147154
436.450	0.0148327
436.528	0.0147962
436.606	0.0147250
436.684	0.0148727
436.762	0.0147798
436.840	0.0147289
436.918	0.0147997
436.997	0.0147628
437.075	0.0147775
437.153	0.0147717
437.231	0.0148291
437.309	0.0148766
437.387	0.0147355
437.465	0.0147526
437.543	0.0148061
437.622	0.0147829
437.700	0.0147425
437.778	0.0147932
437.856	0.0148053
437.934	0.0148606
438.012	0.0146929
438.090	0.0149483
438.168	0.0148580
438.247	0.0147468
438.325	0.0146386
438.403	0.0147453
438.481	0.0146946
438.559	0.0147239
438.637	0.0146803
438.715	0.0147881
438.793	0.0147136
438.872	0.0146407
438.950	0.0148390
439.028	0.0148457
439.106	0.0146968
439.184	0.0146343
439.262	0.0148116
439.340	0.0146758
439.418	0.0147115
439.497	0.0149298
439.575	0.0147861
439.653	0.0147766
439.731	0.0148593
439.809	0.0148186
439.887	0.0148425
439.965	0.0149507
440.043	0.0148314
440.122	0.0146482
440.200	0.0148682
440.278	0.0148798
440.356	0.0147348
440.434	0.0147614
440.512	0.0148700
440.590	0.0148482
440.668	0.0147594
440.747	0.0148000
440.825	0.0147497
440.903	0.0147470
440.981	0.0148658
441.059	0.0146819
441.137	0.0146779
441.215	0.0146911
441.293	0.0147328
441.372	0.0148019
441.450	0.0148389
441.528	0.0148729
441.606	0.0147069
441.684	0.0147344
441.762	0.0147765
441.840	0.0146578
441.918	0.0148063
441.997	0.0147661
442.075	0.0147497
442.153	0.0148090
442.231	0.0148016
442.309	0.0147148
442.387	0.0146892
442.465	0.0147015
442.543	0.0147419
442.622	0.0147166
442.700	0.0148456
442.778	0.0146507
442.856	0.0146213
442.934	0.0147184
443.012	0.0147954
443.090	0.0146904
443.168	0.0147625
443.247	0.0148903
443.325	0.0147118
443.403	0.0146987
443.481	0.0148931
443.559	0.0147149
443.637	0.0148454
443.715	0.0148042
443.793	0.0148174
443.872	0.0147731
443.950	0.0147040
444.028	0.0147175
444.106	0.0149128
444.184	0.0148798
444.262	0.0145716
444.340	0.0146983
444.418	0.0148811
444.497	0.0148183
444.575	0.0148202
444.653	0.0148372
444.731	0.0148431
444.809	0.0148633
444.887	0.0147186
444.965	0.0147785
445.043	0.0146790
445.122	0.0146676
445.200	0.0147523
445.278	0.0147786
445.356	0.0148102
445.434	0.0147604
445.512	0.0147759
445.590	0.0147964
445.668	0.0147961
445.747	0.0147729
445.825	0.0147754
445.903	0.0148948
445.981	0.0147844
446.059	0.0147736
446.137	0.0148977
446.215	0.0149547
446.293	0.0148358
446.372	0.0146960
446.450	0.0148119
446.528	0.0147756
446.606	0.0147665
446.684	0.0149065
446.762	0.0148480
446.840	0.0149553
446.918	0.0147794
446.997	0.0147007
447.075	0.0148191
447.153	0.0149093
447.231	0.0147308
447.309	0.0148498
447.387	0.0147375
447.465	0.0146805
447.543	0.0149339
447.622	0.0147059
447.700	0.0146602
447.778	0.0147064
447.856	0.0147276
447.934	0.0148508
448.012	0.0146893
448.090	0.0147485
448.168	0.0145858
448.247	0.0148845
448.325	0.0148299
448.403	0.0146890
448.481	0.0147732
448.559	0.0147681
448.637	0.0147026
448.715	0.0148394
448.793	0.0148124
448.872	0.0146458
448.950	0.0147442
449.028	0.0148803
449.106	0.0148286
449.184	0.0147142
449.262	0.0147066
449.340	0.0146774
449.418	0.0148313
449.497	0.0148802
449.575	0.0147893
449.653	0.0148472
449.731	0.0148513
449.809	0.0148036
449.887	0.0147126
449.965	0.0147253
450.043	0.0148936
450.122	0.0147274
450.200	0.0147774
450.278	0.0148621
450.356	0.0147757
450.434	0.0147227
450.512	0.0148199
450.590	0.0148140
450.668	0.0148524
450.747	0.0149091
450.825	0.0148749
450.903	0.0147572
450.981	0.0149099
451.059	0.0148175
451.137	0.0148790
451.215	0.0147996
451.293	0.0147435
451.372	0.0148025
451.450	0.0147250
451.528	0.0147412
451.606	0.0147775
451.684	0.0148641
451.762	0.0147159
451.840	0.0146822
451.918	0.0147401
451.997	0.0147421
452.075	0.0146970
452.153	0.0147699
452.231	0.0147104
452.309	0.0147736
452.387	0.0147242
452.465	0.0147707
452.543	0.0147638
452.622	0.0148515
452.700	0.0146341
452.778	0.0146969
452.856	0.0147030
452.934	0.0147465
453.012	0.0147456
453.090	0.0147366
453.168	0.0147356
453.247	0.0146599
453.325	0.0149142
453.403	0.0148869
453.481	0.0147437
453.559	0.0146758
453.637	0.0147523
453.715	0.0148328
453.793	0.0147528
453.872	0.0147120
453.950	0.0146835
454.028	0.0148822
454.106	0.0147980
454.184	0.0148016
454.262	0.0148048
454.340	0.0147475
454.418	0.0147739
454.497	0.0146723
454.575	0.0147326
454.653	0.0149431
454.731	0.0148010
454.809	0.0147127
454.887	0.0148038
454.965	0.0148154
455.043	0.0148007
455.122	0.0147540
455.200	0.0148201
455.278	0.0147735
455.356	0.0147656
455.434	0.0148415
455.512	0.0149005
455.590	0.0147173
455.668	0.0147346
455.747	0.0147412
455.825	0.0146922
455.903	0.0147089
455.981	0.0148653
456.059	0.0147549
456.137	0.0146180
456.215	0.0146873
456.293	0.0147353
456.372	0.0148274
456.450	0.0146279
456.528	0.0147639
456.606	0.0148212
456.684	0.0147343
456.762	0.0146547
456.840	0.0147188
456.918	0.0147298
456.997	0.0147650
457.075	0.0148070
457.153	0.0147522
457.231	0.0147530
457.309	0.0149300
457.387	0.0148672
457.465	0.0148878
457.543	0.0146551
457.622	0.0148169
457.700	0.0148301
457.778	0.0147427
457.856	0.0147401
457.934	0.0145844
458.012	0.0147959
458.090	0.0148763
458.168	0.0147916
458.247	0.0147250
458.325	0.0147289
458.403	0.0147250
458.481	0.0148013
458.559	0.0148521
458.637	0.0147756
458.715	0.0147115
458.793	0.0147677
458.872	0.0149353
458.950	0.0148907
459.028	0.0147558
459.106	0.0146711
459.184	0.0148689
459.262	0.0148709
459.340	0.0147710
459.418	0.0147903
459.497	0.0147493
459.575	0.0149100
459.653	0.0147672
459.731	0.0147831
459.809	0.0148526
459.887	0.0148217
459.965	0.0149113
460.043	0.0148304
460.122	0.0148239
460.200	0.0147213
460.278	0.0147239
460.356	0.0148716
460.434	0.0147966
460.512	0.0147959
460.590	0.0147916
460.668	0.0146936
460.747	0.0148651
460.825	0.0149261
460.903	0.0147539
460.981	0.0147520
461.059	0.0148610
461.137	0.0148792
461.215	0.0148927
461.293	0.0147701
461.372	0.0148393
461.450	0.0148193
461.528	0.0147747
461.606	0.0148551
461.684	0.0147715
461.762	0.0146410
461.840	0.0148175
461.918	0.0149213
461.997	0.0148299
462.075	0.0147305
462.153	0.0147887
462.231	0.0147535
462.309	0.0147288
462.387	0.0148381
462.465	0.0148075
462.543	0.0146460
462.622	0.0147318
462.700	0.0147226
462.778	0.0147572
462.856	0.0148701
462.934	0.0146934
463.012	0.0147089
463.090	0.0147842
463.168	0.0147953
463.247	0.0146581
463.325	0.0147837
463.403	0.0148495
463.481	0.0149584
463.559	0.0147868
463.637	0.0147815
463.715	0.0147561
463.793	0.0146326
463.872	0.0148135
463.950	0.0146616
464.028	0.0146420
464.106	0.0148090
464.184	0.0147747
464.262	0.0147409
464.340	0.0147471
464.418	0.0147654
464.497	0.0147586
464.575	0.0146875
464.653	0.0146777
464.731	0.0147506
464.809	0.0147695
464.887	0.0147184
464.965	0.0147408
465.043	0.0146828
465.122	0.0146867
465.200	0.0146849
465.278	0.0146167
465.356	0.0147053
465.434	0.0146784
465.512	0.0146214
465.590	0.0147059
465.668	0.0147297
465.747	0.0148894
465.825	0.0148181
465.903	0.0147511
465.981	0.0147274
466.059	0.0147914
466.137	0.0146391
466.215	0.0146514
466.293	0.0146757
466.372	0.0146410
466.450	0.0148526
466.528	0.0146833
466.606	0.0146656
466.684	0.0146708
466.762	0.0146420
466.840	0.0147810
466.918	0.0146786
466.997	0.0147438
467.075	0.0146725
467.153	0.0147079
467.231	0.0147391
467.309	0.0147729
467.387	0.0147575
467.465	0.0147887
467.543	0.0149397
467.622	0.0147691
467.700	0.0146822
467.778	0.0147207
467.856	0.0147551
467.934	0.0148004
468.012	0.0147156
468.090	0.0147295
468.168	0.0147632
468.247	0.0146262
468.325	0.0148328
468.403	0.0148839
468.481	0.0146867
468.559	0.0147293
468.637	0.0147599
468.715	0.0148322
468.793	0.0148280
468.872	0.0146782
468.950	0.0147356
469.028	0.0148257
469.106	0.0148524
469.184	0.0149406
469.262	0.0145749
469.340	0.0147073
469.418	0.0148386
469.497	0.0147234
469.575	0.0148213
469.653	0.0146488
469.731	0.0147519
469.809	0.0147027
469.887	0.0148756
469.965	0.0146853
470.043	0.0146478
470.122	0.0147640
470.200	0.0148048
470.278	0.0148402
470.356	0.0148106
470.434	0.0148997
470.512	0.0145885
470.590	0.0148091
470.668	0.0147228
470.747	0.0146790
470.825	0.0147742
470.903	0.0148476
470.981	0.0147751
471.059	0.0148313
471.137	0.0147710
471.215	0.0147001
471.293	0.0147599
471.372	0.0147684
471.450	0.0147925
471.528	0.0147952
471.606	0.0148298
471.684	0.0148527
471.762	0.0147022
471.840	0.0148100
471.918	0.0147802
471.997	0.0147798
472.075	0.0148556
472.153	0.0147052
472.231	0.0147720
472.309	0.0148138
472.387	0.0148133
472.465	0.0148221
472.543	0.0148140
472.622	0.0147186
472.700	0.0146463
472.778	0.0148236
472.856	0.0147427
472.934	0.0145159
473.012	0.0145890
473.090	0.0147148
473.168	0.0148379
473.247	0.0148748
473.325	0.0148116
473.403	0.0147334
473.481	0.0147420
473.559	0.0147337
473.637	0.0146841
473.715	0.0147668
473.793	0.0147652
473.872	0.0147240
473.950	0.0147681
474.028	0.0147403
474.106	0.0146403
474.184	0.0147076
474.262	0.0146774
474.340	0.0148128
474.418	0.0148108
474.497	0.0146347
474.575	0.0147551
474.653	0.0147164
474.731	0.0147560
474.809	0.0148654
474.887	0.0148167
474.965	0.0148417
475.043	0.0147643
475.122	0.0147033
475.200	0.0146741
475.278	0.0146793
475.356	0.0147663
475.434	0.0146748
475.512	0.0148589
475.590	0.0147918
475.668	0.0148790
475.747	0.0147061
475.825	0.0147480
475.903	0.0147484
475.981	0.0146732
476.059	0.0147811
476.137	0.0146488
476.215	0.0146988
476.293	0.0148396
476.372	0.0148025
476.450	0.0148357
476.528	0.0147466
476.606	0.0146301
476.684	0.0148122
476.762	0.0148200
476.840	0.0146872
476.918	0.0147103
476.997	0.0147416
477.075	0.0147582
477.153	0.0148856
477.231	0.0148257
477.309	0.0148373
477.387	0.0147724
477.465	0.0147364
477.543	0.0146606
477.622	0.0148190
477.700	0.0147779
477.778	0.0147055
477.856	0.0148435
477.934	0.0147485
478.012	0.0146412
478.090	0.0146794
478.168	0.0147739
478.247	0.0146907
478.325	0.0147279
478.403	0.0146793
478.481	0.0147649
478.559	0.0148016
478.637	0.0147491
478.715	0.0146509
478.793	0.0146007
478.872	0.0148158
478.950	0.0147541
479.028	0.0147364
479.106	0.0147575
479.184	0.0147436
479.262	0.0148257
479.340	0.0147977
479.418	0.0148688
479.497	0.0148083
479.575	0.0147903
479.653	0.0147905
479.731	0.0146974
479.809	0.0148756
479.887	0.0146638
479.965	0.0148193
480.043	0.0147600
480.122	0.0147543
480.200	0.0147575
480.278	0.0146201
480.356	0.0147482
480.434	0.0148544
480.512	0.0147980
480.590	0.0147087
480.668	0.0147587
480.747	0.0147291
480.825	0.0148134
480.903	0.0147687
480.981	0.0146400
481.059	0.0147006
481.137	0.0147065
481.215	0.0147573
481.293	0.0148450
481.372	0.0147336
481.450	0.0147836
481.528	0.0148307
481.606	0.0148154
481.684	0.0147070
481.762	0.0146692
481.840	0.0147859
481.918	0.0149240
481.997	0.0147105
482.075	0.0148275
482.153	0.0147460
482.231	0.0147962
482.309	0.0146958
482.387	0.0147585
482.465	0.0148350
482.543	0.0147446
482.622	0.0147087
482.700	0.0146711
482.778	0.0147398
482.856	0.0148726
482.934	0.0146197
483.012	0.0146957
483.090	0.0147118
483.168	0.0147490
483.247	0.0147777
483.325	0.0145769
483.403	0.0146615
483.481	0.0147828
483.559	0.0148138
483.637	0.0148217
483.715	0.0147008
483.793	0.0147668
483.872	0.0147515
483.950	0.0147128
484.028	0.0146788
484.106	0.0147260
484.184	0.0147681
484.262	0.0147562
484.340	0.0148355
484.418	0.0147003
484.497	0.0147114
484.575	0.0147925
484.653	0.0147945
484.731	0.0147337
484.809	0.0148386
484.887	0.0147521
484.965	0.0146384
485.043	0.0147322
485.122	0.0148489
485.200	0.0147820
485.278	0.0147852
485.356	0.0147923
485.434	0.0147936
485.512	0.0147691
485.590	0.0148082
485.668	0.0146976
485.747	0.0147993
