05/04/2022	20:50:06	Ver.	4.1	UNKNOWN
Optical Delay	679.003072	Delta X		0.078125	Sweeps	1	Scan Rate	0/0
Coordinates	Axis 1	NaN	Axis 2	NaN	Axis 3	NaN	Axis 4	NaN	Axis 5	NaN	Axis 6	0.000000
TX Power	0.000000	RX Power	0.000000

679.003	0.0142798
679.081	0.0142673
679.159	0.0142417
679.237	0.0141866
679.316	0.0143259
679.394	0.0143422
679.472	0.0142612
679.550	0.0143118
679.628	0.0143019
679.706	0.0143082
679.784	0.0142702
679.862	0.0143223
679.941	0.0142229
680.019	0.0142292
680.097	0.0143105
680.175	0.0141695
680.253	0.0143316
680.331	0.0142735
680.409	0.0143229
680.487	0.0141903
680.566	0.0142702
680.644	0.0142706
680.722	0.0143246
680.800	0.0142374
680.878	0.0142557
680.956	0.0143244
681.034	0.0142694
681.112	0.0142666
681.191	0.0141996
681.269	0.0143112
681.347	0.0143890
681.425	0.0143210
681.503	0.0142583
681.581	0.0142655
681.659	0.0141927
681.737	0.0142620
681.816	0.0143323
681.894	0.0142537
681.972	0.0142921
682.050	0.0143089
682.128	0.0143799
682.206	0.0143314
682.284	0.0142117
682.362	0.0143969
682.441	0.0143404
682.519	0.0143469
682.597	0.0142776
682.675	0.0143150
682.753	0.0143846
682.831	0.0142635
682.909	0.0143884
682.987	0.0142567
683.066	0.0142822
683.144	0.0143696
683.222	0.0142514
683.300	0.0142532
683.378	0.0142328
683.456	0.0143573
683.534	0.0142073
683.612	0.0142273
683.691	0.0142856
683.769	0.0141818
683.847	0.0143753
683.925	0.0143316
684.003	0.0142712
684.081	0.0143024
684.159	0.0143662
684.237	0.0143115
684.316	0.0142046
684.394	0.0142729
684.472	0.0140944
684.550	0.0143214
684.628	0.0143415
684.706	0.0142954
684.784	0.0144431
684.862	0.0143648
684.941	0.0142191
685.019	0.0142563
685.097	0.0142406
685.175	0.0143198
685.253	0.0143146
685.331	0.0143439
685.409	0.0142623
685.487	0.0143732
685.566	0.0142708
685.644	0.0141228
685.722	0.0141026
685.800	0.0141848
685.878	0.0141895
685.956	0.0143288
686.034	0.0143339
686.112	0.0143481
686.191	0.0141962
686.269	0.0142628
686.347	0.0143708
686.425	0.0143399
686.503	0.0142556
686.581	0.0144598
686.659	0.0143049
686.737	0.0140964
686.816	0.0144080
686.894	0.0142567
686.972	0.0143697
687.050	0.0143797
687.128	0.0142045
687.206	0.0143282
687.284	0.0142200
687.362	0.0143536
687.441	0.0144448
687.519	0.0142928
687.597	0.0143484
687.675	0.0143532
687.753	0.0142293
687.831	0.0143554
687.909	0.0143267
687.987	0.0142705
688.066	0.0143650
688.144	0.0143571
688.222	0.0143751
688.300	0.0142716
688.378	0.0144476
688.456	0.0143754
688.534	0.0142632
688.612	0.0142929
688.691	0.0142265
688.769	0.0142571
688.847	0.0141500
688.925	0.0143380
689.003	0.0144859
689.081	0.0142242
689.159	0.0141772
689.237	0.0142765
689.316	0.0143873
689.394	0.0141864
689.472	0.0142451
689.550	0.0142383
689.628	0.0143056
689.706	0.0143113
689.784	0.0142883
689.862	0.0142445
689.941	0.0142815
690.019	0.0142469
690.097	0.0142480
690.175	0.0143505
690.253	0.0143842
690.331	0.0143697
690.409	0.0142431
690.487	0.0142667
690.566	0.0144838
690.644	0.0142509
690.722	0.0142610
690.800	0.0141841
690.878	0.0143282
690.956	0.0143002
691.034	0.0143524
691.112	0.0142410
691.191	0.0143356
691.269	0.0142325
691.347	0.0144120
691.425	0.0144336
691.503	0.0143407
691.581	0.0143620
691.659	0.0143245
691.737	0.0143858
691.816	0.0142916
691.894	0.0144981
691.972	0.0142953
692.050	0.0143103
692.128	0.0145050
692.206	0.0143388
692.284	0.0142709
692.362	0.0143214
692.441	0.0143635
692.519	0.0142011
692.597	0.0142156
692.675	0.0144286
692.753	0.0143655
692.831	0.0142305
692.909	0.0142235
692.987	0.0143326
693.066	0.0143668
693.144	0.0142775
693.222	0.0141891
693.300	0.0143591
693.378	0.0143571
693.456	0.0143400
693.534	0.0142917
693.612	0.0142841
693.691	0.0143359
693.769	0.0142786
693.847	0.0143622
693.925	0.0144513
694.003	0.0143375
694.081	0.0143220
694.159	0.0143980
694.237	0.0144138
694.316	0.0142394
694.394	0.0144073
694.472	0.0143570
694.550	0.0144544
694.628	0.0142780
694.706	0.0141806
694.784	0.0143350
694.862	0.0143717
694.941	0.0143202
695.019	0.0144003
695.097	0.0143177
695.175	0.0143313
695.253	0.0142170
695.331	0.0144266
695.409	0.0143137
695.487	0.0141611
695.566	0.0143136
695.644	0.0142881
695.722	0.0144036
695.800	0.0143619
695.878	0.0142599
695.956	0.0142539
696.034	0.0142284
696.112	0.0142050
696.191	0.0144428
696.269	0.0143047
696.347	0.0143233
696.425	0.0142233
696.503	0.0141396
696.581	0.0142516
696.659	0.0142841
696.737	0.0141888
696.816	0.0143883
696.894	0.0143250
696.972	0.0141409
697.050	0.0142303
697.128	0.0141794
697.206	0.0142255
697.284	0.0143233
697.362	0.0143652
697.441	0.0142741
697.519	0.0143890
697.597	0.0142139
697.675	0.0142124
697.753	0.0143015
697.831	0.0142699
697.909	0.0141408
697.987	0.0140839
698.066	0.0141634
698.144	0.0143732
698.222	0.0143214
698.300	0.0142355
698.378	0.0143213
698.456	0.0141821
698.534	0.0142850
698.612	0.0143285
698.691	0.0143547
698.769	0.0143743
698.847	0.0143073
698.925	0.0142938
699.003	0.0141940
699.081	0.0142445
699.159	0.0141703
699.237	0.0143527
699.316	0.0142481
699.394	0.0142170
699.472	0.0142336
699.550	0.0143272
699.628	0.0142360
699.706	0.0142630
699.784	0.0143378
699.862	0.0143928
699.941	0.0142647
700.019	0.0143150
700.097	0.0142849
700.175	0.0141648
700.253	0.0143352
700.331	0.0141113
700.409	0.0142605
700.487	0.0142334
700.566	0.0141779
700.644	0.0141774
700.722	0.0142831
700.800	0.0142182
700.878	0.0143362
700.956	0.0142821
701.034	0.0143542
701.112	0.0141620
701.191	0.0141082
701.269	0.0143285
701.347	0.0142333
701.425	0.0143411
701.503	0.0143068
701.581	0.0142030
701.659	0.0143240
701.737	0.0142706
701.816	0.0144271
701.894	0.0142681
701.972	0.0141836
702.050	0.0141857
702.128	0.0141044
702.206	0.0143183
702.284	0.0142523
702.362	0.0143261
702.441	0.0142229
702.519	0.0143039
702.597	0.0142640
702.675	0.0142368
702.753	0.0143053
702.831	0.0143301
702.909	0.0142438
702.987	0.0142414
703.066	0.0141653
703.144	0.0142342
703.222	0.0142809
703.300	0.0142420
703.378	0.0142704
703.456	0.0141871
703.534	0.0142041
703.612	0.0142654
703.691	0.0143020
703.769	0.0142950
703.847	0.0142537
703.925	0.0141522
704.003	0.0141859
704.081	0.0141572
704.159	0.0141801
704.237	0.0144145
704.316	0.0142478
704.394	0.0141642
704.472	0.0142368
704.550	0.0141942
704.628	0.0141611
704.706	0.0143828
704.784	0.0142860
704.862	0.0142504
704.941	0.0141423
705.019	0.0141844
705.097	0.0141714
705.175	0.0143248
705.253	0.0141795
705.331	0.0142310
705.409	0.0141873
705.487	0.0142991
705.566	0.0142163
705.644	0.0142385
705.722	0.0142194
705.800	0.0142441
705.878	0.0143192
705.956	0.0141624
706.034	0.0141677
706.112	0.0143608
706.191	0.0142751
706.269	0.0141772
706.347	0.0144074
706.425	0.0143280
706.503	0.0141225
706.581	0.0141085
706.659	0.0142863
706.737	0.0142971
706.816	0.0142310
706.894	0.0142886
706.972	0.0142681
707.050	0.0142458
707.128	0.0141963
707.206	0.0144221
707.284	0.0142607
707.362	0.0142485
707.441	0.0143066
707.519	0.0142898
707.597	0.0142426
707.675	0.0143327
707.753	0.0142567
707.831	0.0143777
707.909	0.0142647
707.987	0.0142538
708.066	0.0143363
708.144	0.0143057
708.222	0.0141521
708.300	0.0143414
708.378	0.0144244
708.456	0.0143838
708.534	0.0143063
708.612	0.0142142
708.691	0.0143093
708.769	0.0142706
708.847	0.0142255
708.925	0.0142623
709.003	0.0141634
709.081	0.0142667
709.159	0.0143410
709.237	0.0142937
709.316	0.0143127
709.394	0.0142726
709.472	0.0142867
709.550	0.0142273
709.628	0.0143549
709.706	0.0142651
709.784	0.0143231
709.862	0.0142130
709.941	0.0141705
710.019	0.0142271
710.097	0.0142646
710.175	0.0141207
710.253	0.0143090
710.331	0.0144256
710.409	0.0141908
710.487	0.0142357
710.566	0.0142024
710.644	0.0142674
710.722	0.0142963
710.800	0.0141949
710.878	0.0141725
710.956	0.0143268
711.034	0.0143539
711.112	0.0143472
711.191	0.0142509
711.269	0.0143613
711.347	0.0144256
711.425	0.0143533
711.503	0.0144056
711.581	0.0142976
711.659	0.0144110
711.737	0.0144080
711.816	0.0142735
711.894	0.0143913
711.972	0.0142912
712.050	0.0143038
712.128	0.0142960
712.206	0.0143241
712.284	0.0142119
712.362	0.0144503
712.441	0.0143555
712.519	0.0142215
712.597	0.0142983
712.675	0.0143507
712.753	0.0142625
712.831	0.0140989
712.909	0.0140569
712.987	0.0141673
713.066	0.0141927
713.144	0.0141576
713.222	0.0143442
713.300	0.0142994
713.378	0.0143337
713.456	0.0143774
713.534	0.0144661
713.612	0.0144754
713.691	0.0143630
713.769	0.0144465
713.847	0.0143684
713.925	0.0143951
714.003	0.0143005
714.081	0.0142953
714.159	0.0144592
714.237	0.0143678
714.316	0.0144215
714.394	0.0145666
714.472	0.0143552
714.550	0.0144630
714.628	0.0145352
714.706	0.0144251
714.784	0.0142618
714.862	0.0142066
714.941	0.0142279
715.019	0.0142550
715.097	0.0140604
715.175	0.0140904
715.253	0.0142608
715.331	0.0139764
715.409	0.0138266
715.487	0.0138949
715.566	0.0139725
715.644	0.0139131
715.722	0.0139390
715.800	0.0140980
715.878	0.0140421
715.956	0.0141534
716.034	0.0142190
716.112	0.0142542
716.191	0.0142960
716.269	0.0145284
716.347	0.0145060
716.425	0.0146849
716.503	0.0147443
716.581	0.0146632
716.659	0.0146600
716.737	0.0144838
716.816	0.0141722
716.894	0.0141200
716.972	0.0139555
717.050	0.0137784
717.128	0.0137598
717.206	0.0134268
717.284	0.0135049
717.362	0.0134997
717.441	0.0135951
717.519	0.0136604
717.597	0.0137383
717.675	0.0139391
717.753	0.0141017
717.831	0.0142709
717.909	0.0143276
717.987	0.0143678
718.066	0.0145480
718.144	0.0143958
718.222	0.0145370
718.300	0.0144029
718.378	0.0143475
718.456	0.0143135
718.534	0.0142988
718.612	0.0144772
718.691	0.0143149
718.769	0.0142659
718.847	0.0143390
718.925	0.0143680
719.003	0.0142741
719.081	0.0143253
719.159	0.0144885
719.237	0.0147518
719.316	0.0145510
719.394	0.0148736
719.472	0.0149225
719.550	0.0150627
719.628	0.0149282
719.706	0.0148817
719.784	0.0148839
719.862	0.0147504
719.941	0.0144520
720.019	0.0142280
720.097	0.0142024
720.175	0.0138956
720.253	0.0136469
720.331	0.0135986
720.409	0.0133846
720.487	0.0133088
720.566	0.0136114
720.644	0.0135738
720.722	0.0136214
720.800	0.0139396
720.878	0.0141516
720.956	0.0141933
721.034	0.0146296
721.112	0.0146239
721.191	0.0145677
721.269	0.0146603
721.347	0.0146896
721.425	0.0145728
721.503	0.0142973
721.581	0.0144067
721.659	0.0143035
721.737	0.0139801
721.816	0.0140235
721.894	0.0139075
721.972	0.0139045
722.050	0.0139069
722.128	0.0138720
722.206	0.0140906
722.284	0.0141009
722.362	0.0140777
722.441	0.0144035
722.519	0.0145285
722.597	0.0144733
722.675	0.0146107
722.753	0.0145144
722.831	0.0146157
722.909	0.0146908
722.987	0.0146978
723.066	0.0143964
723.144	0.0143263
723.222	0.0143478
723.300	0.0142082
723.378	0.0140665
723.456	0.0139416
723.534	0.0136889
723.612	0.0137336
723.691	0.0138689
723.769	0.0137672
723.847	0.0140433
723.925	0.0142371
724.003	0.0142210
724.081	0.0143456
724.159	0.0146611
724.237	0.0146902
724.316	0.0146223
724.394	0.0148576
724.472	0.0148471
724.550	0.0149520
724.628	0.0149669
724.706	0.0149017
724.784	0.0149464
724.862	0.0146782
724.941	0.0145426
725.019	0.0144955
725.097	0.0142730
725.175	0.0139944
725.253	0.0141173
725.331	0.0139476
725.409	0.0137978
725.487	0.0137453
725.566	0.0138848
725.644	0.0137962
725.722	0.0138245
725.800	0.0140019
725.878	0.0141680
725.956	0.0143179
726.034	0.0143941
726.112	0.0143673
726.191	0.0145422
726.269	0.0145930
726.347	0.0145435
726.425	0.0145203
726.503	0.0144634
726.581	0.0144428
726.659	0.0144595
726.737	0.0143005
726.816	0.0141070
726.894	0.0139789
726.972	0.0139672
727.050	0.0139323
727.128	0.0137064
727.206	0.0137325
727.284	0.0137817
727.362	0.0140157
727.441	0.0136909
727.519	0.0140800
727.597	0.0141174
727.675	0.0142825
727.753	0.0144456
727.831	0.0143791
727.909	0.0146540
727.987	0.0147116
728.066	0.0148309
728.144	0.0147914
728.222	0.0147144
728.300	0.0146908
728.378	0.0146107
728.456	0.0144390
728.534	0.0144914
728.612	0.0143703
728.691	0.0142781
728.769	0.0140272
728.847	0.0139364
728.925	0.0139388
729.003	0.0138781
729.081	0.0140089
729.159	0.0139915
729.237	0.0139566
729.316	0.0142504
729.394	0.0142848
729.472	0.0143823
729.550	0.0143137
729.628	0.0142808
729.706	0.0143822
729.784	0.0146809
729.862	0.0147754
729.941	0.0145982
730.019	0.0144070
730.097	0.0146519
730.175	0.0145499
730.253	0.0145271
730.331	0.0145688
730.409	0.0142944
730.487	0.0142007
730.566	0.0143281
730.644	0.0141191
730.722	0.0143231
730.800	0.0142639
730.878	0.0141944
730.956	0.0142070
731.034	0.0143016
731.112	0.0142255
731.191	0.0142643
731.269	0.0142754
731.347	0.0143392
731.425	0.0143118
731.503	0.0144046
731.581	0.0145140
731.659	0.0143758
731.737	0.0141640
731.816	0.0141526
731.894	0.0143558
731.972	0.0142124
732.050	0.0141010
732.128	0.0141573
732.206	0.0140059
732.284	0.0139165
732.362	0.0139960
732.441	0.0139723
732.519	0.0141222
732.597	0.0139958
732.675	0.0138765
732.753	0.0140370
732.831	0.0142382
732.909	0.0141065
732.987	0.0142120
733.066	0.0142021
733.144	0.0142845
733.222	0.0142068
733.300	0.0141852
733.378	0.0142201
733.456	0.0143398
733.534	0.0143133
733.612	0.0143590
733.691	0.0142564
733.769	0.0142731
733.847	0.0143823
733.925	0.0142772
734.003	0.0142839
734.081	0.0142702
734.159	0.0143645
734.237	0.0142246
734.316	0.0142961
734.394	0.0142039
734.472	0.0141795
734.550	0.0142052
734.628	0.0142923
734.706	0.0143403
734.784	0.0142951
734.862	0.0141827
734.941	0.0142131
735.019	0.0141267
735.097	0.0141432
735.175	0.0141573
735.253	0.0141754
735.331	0.0142954
735.409	0.0142202
735.487	0.0140727
735.566	0.0143711
735.644	0.0144815
735.722	0.0142713
735.800	0.0142565
735.878	0.0144783
735.956	0.0144492
736.034	0.0144254
736.112	0.0145570
736.191	0.0145340
736.269	0.0144267
736.347	0.0143259
736.425	0.0142929
736.503	0.0143652
736.581	0.0143483
736.659	0.0140562
736.737	0.0140894
736.816	0.0141389
736.894	0.0141824
736.972	0.0140611
737.050	0.0140920
737.128	0.0140422
737.206	0.0138202
737.284	0.0141321
737.362	0.0141335
737.441	0.0141186
737.519	0.0139168
737.597	0.0140038
737.675	0.0142058
737.753	0.0141457
737.831	0.0142058
737.909	0.0143236
737.987	0.0141996
738.066	0.0142535
738.144	0.0144053
738.222	0.0144946
738.300	0.0143502
738.378	0.0144658
738.456	0.0145229
738.534	0.0145969
738.612	0.0142944
738.691	0.0142172
738.769	0.0143187
738.847	0.0142535
738.925	0.0142039
739.003	0.0141207
739.081	0.0139995
739.159	0.0140674
739.237	0.0140456
739.316	0.0140450
739.394	0.0140441
739.472	0.0141020
739.550	0.0140424
739.628	0.0140939
739.706	0.0142384
739.784	0.0144102
739.862	0.0143816
739.941	0.0144882
740.019	0.0143574
740.097	0.0144601
740.175	0.0144767
740.253	0.0144466
740.331	0.0144660
740.409	0.0143301
740.487	0.0144129
740.566	0.0143437
740.644	0.0143625
740.722	0.0142955
740.800	0.0141721
740.878	0.0142334
740.956	0.0140295
741.034	0.0141137
741.112	0.0140696
741.191	0.0140943
741.269	0.0141366
741.347	0.0140984
741.425	0.0140182
741.503	0.0141876
741.581	0.0140413
741.659	0.0140362
741.737	0.0140919
741.816	0.0140237
741.894	0.0138824
741.972	0.0140052
742.050	0.0140578
742.128	0.0139951
742.206	0.0141940
742.284	0.0141880
742.362	0.0142136
742.441	0.0141873
742.519	0.0142033
742.597	0.0142513
742.675	0.0143658
742.753	0.0145300
742.831	0.0143958
742.909	0.0144569
742.987	0.0146148
743.066	0.0145301
743.144	0.0144711
743.222	0.0145168
743.300	0.0144881
743.378	0.0144279
743.456	0.0144957
743.534	0.0143680
743.612	0.0142147
743.691	0.0141415
743.769	0.0141878
743.847	0.0141311
743.925	0.0140734
744.003	0.0140516
744.081	0.0141613
744.159	0.0143305
744.237	0.0141328
744.316	0.0141503
744.394	0.0142645
744.472	0.0141637
744.550	0.0142757
744.628	0.0143655
744.706	0.0143098
744.784	0.0142080
744.862	0.0142475
744.941	0.0142968
745.019	0.0142844
745.097	0.0144408
745.175	0.0145039
745.253	0.0145016
745.331	0.0143427
745.409	0.0144723
745.487	0.0143399
745.566	0.0143801
745.644	0.0144444
745.722	0.0144417
745.800	0.0142953
745.878	0.0143492
745.956	0.0143513
746.034	0.0143025
746.112	0.0144250
746.191	0.0143608
746.269	0.0142490
746.347	0.0142979
746.425	0.0142635
746.503	0.0142083
746.581	0.0142061
746.659	0.0141934
746.737	0.0142958
746.816	0.0143919
746.894	0.0143985
746.972	0.0142666
747.050	0.0143302
747.128	0.0143970
747.206	0.0142457
747.284	0.0144029
747.362	0.0142031
747.441	0.0143675
747.519	0.0141869
747.597	0.0141633
747.675	0.0142241
747.753	0.0142927
747.831	0.0141817
747.909	0.0141107
747.987	0.0141671
748.066	0.0140804
748.144	0.0138947
748.222	0.0139906
748.300	0.0141761
748.378	0.0142011
748.456	0.0142345
748.534	0.0142964
748.612	0.0144032
748.691	0.0144424
748.769	0.0144240
748.847	0.0142780
748.925	0.0143578
749.003	0.0143542
749.081	0.0142612
749.159	0.0143512
749.237	0.0143733
749.316	0.0142854
749.394	0.0141811
749.472	0.0141556
749.550	0.0141969
749.628	0.0140786
749.706	0.0139063
749.784	0.0139973
749.862	0.0140400
749.941	0.0140917
750.019	0.0142611
750.097	0.0141533
750.175	0.0143237
750.253	0.0144178
750.331	0.0143231
750.409	0.0144428
750.487	0.0144559
750.566	0.0145119
750.644	0.0144463
750.722	0.0145431
750.800	0.0144347
750.878	0.0144714
750.956	0.0144247
751.034	0.0145016
751.112	0.0144643
751.191	0.0143585
751.269	0.0143452
751.347	0.0140468
751.425	0.0140890
751.503	0.0140565
751.581	0.0140295
751.659	0.0140054
751.737	0.0141337
751.816	0.0140810
751.894	0.0141713
751.972	0.0141324
752.050	0.0142196
752.128	0.0143517
752.206	0.0142542
752.284	0.0141655
752.362	0.0142683
752.441	0.0143847
752.519	0.0144386
752.597	0.0142277
752.675	0.0144040
752.753	0.0143910
752.831	0.0142374
752.909	0.0142709
752.987	0.0143277
753.066	0.0142631
753.144	0.0142569
753.222	0.0141399
753.300	0.0142886
753.378	0.0141566
753.456	0.0142129
753.534	0.0143070
753.612	0.0140791
753.691	0.0139859
753.769	0.0141847
753.847	0.0140903
753.925	0.0141026
754.003	0.0141193
754.081	0.0141870
754.159	0.0141862
754.237	0.0141228
754.316	0.0142935
754.394	0.0142170
754.472	0.0141552
754.550	0.0141084
754.628	0.0142239
754.706	0.0144046
754.784	0.0144625
754.862	0.0143394
754.941	0.0143273
755.019	0.0142454
755.097	0.0144188
755.175	0.0143855
755.253	0.0144482
755.331	0.0142823
755.409	0.0142315
755.487	0.0142467
755.566	0.0142219
755.644	0.0141256
755.722	0.0142538
755.800	0.0141887
755.878	0.0140936
755.956	0.0142206
756.034	0.0142227
756.112	0.0141167
756.191	0.0141227
756.269	0.0140774
756.347	0.0143739
756.425	0.0142903
756.503	0.0143105
756.581	0.0142424
756.659	0.0143387
756.737	0.0143147
756.816	0.0143459
756.894	0.0143298
756.972	0.0142359
757.050	0.0142678
757.128	0.0143659
757.206	0.0141527
757.284	0.0142850
757.362	0.0143196
757.441	0.0142951
757.519	0.0143213
757.597	0.0143629
757.675	0.0142512
757.753	0.0142773
757.831	0.0143864
757.909	0.0145429
757.987	0.0144367
758.066	0.0144093
758.144	0.0144449
758.222	0.0142554
758.300	0.0143256
758.378	0.0143855
758.456	0.0143104
758.534	0.0143230
758.612	0.0142512
758.691	0.0141356
758.769	0.0141946
758.847	0.0144086
758.925	0.0141557
759.003	0.0141706
759.081	0.0141949
759.159	0.0140060
759.237	0.0140860
759.316	0.0141579
759.394	0.0141261
759.472	0.0141769
759.550	0.0142235
759.628	0.0142448
759.706	0.0142445
759.784	0.0141171
759.862	0.0142590
759.941	0.0142573
760.019	0.0143669
760.097	0.0141532
760.175	0.0142931
760.253	0.0143158
760.331	0.0142828
760.409	0.0141802
760.487	0.0142693
760.566	0.0141854
760.644	0.0143197
760.722	0.0143684
760.800	0.0142999
760.878	0.0144644
760.956	0.0142722
761.034	0.0143995
761.112	0.0143491
761.191	0.0143255
761.269	0.0143423
761.347	0.0142453
761.425	0.0143007
761.503	0.0142788
761.581	0.0143324
761.659	0.0142184
761.737	0.0142887
761.816	0.0142492
761.894	0.0142607
761.972	0.0142996
762.050	0.0142953
762.128	0.0142242
762.206	0.0142831
762.284	0.0142656
762.362	0.0141486
762.441	0.0144414
762.519	0.0142689
762.597	0.0143151
762.675	0.0143435
762.753	0.0143889
762.831	0.0144151
762.909	0.0144870
762.987	0.0144647
763.066	0.0143837
763.144	0.0144029
763.222	0.0143230
763.300	0.0142727
763.378	0.0143024
763.456	0.0142916
763.534	0.0142480
763.612	0.0142724
763.691	0.0143106
763.769	0.0143456
763.847	0.0142409
763.925	0.0143156
764.003	0.0142965
764.081	0.0142838
764.159	0.0141920
764.237	0.0142899
764.316	0.0142220
764.394	0.0142663
764.472	0.0142207
764.550	0.0143076
764.628	0.0142677
764.706	0.0142773
