05/04/2022	21:33:33	Ver.	4.1	UNKNOWN
Optical Delay	678.996401	Delta X		0.078125	Sweeps	1	Scan Rate	0/0
Coordinates	Axis 1	NaN	Axis 2	NaN	Axis 3	NaN	Axis 4	NaN	Axis 5	NaN	Axis 6	0.000000
TX Power	0.000000	RX Power	0.000000

678.996	0.0144254
679.075	0.0144731
679.153	0.0144733
679.231	0.0143727
679.309	0.0142287
679.387	0.0144909
679.465	0.0144950
679.543	0.0145033
679.621	0.0145229
679.700	0.0143567
679.778	0.0145616
679.856	0.0145103
679.934	0.0143407
680.012	0.0144316
680.090	0.0144175
680.168	0.0143631
680.246	0.0144369
680.325	0.0145006
680.403	0.0143249
680.481	0.0144881
680.559	0.0146370
680.637	0.0144138
680.715	0.0144006
680.793	0.0145642
680.871	0.0144299
680.950	0.0143964
681.028	0.0144149
681.106	0.0144383
681.184	0.0142378
681.262	0.0140977
681.340	0.0143228
681.418	0.0145193
681.496	0.0145171
681.575	0.0143909
681.653	0.0142392
681.731	0.0144405
681.809	0.0144502
681.887	0.0145086
681.965	0.0145555
682.043	0.0146304
682.121	0.0145085
682.200	0.0144657
682.278	0.0144561
682.356	0.0143280
682.434	0.0144351
682.512	0.0146365
682.590	0.0144575
682.668	0.0144644
682.746	0.0146378
682.825	0.0145683
682.903	0.0143981
682.981	0.0144382
683.059	0.0143964
683.137	0.0144078
683.215	0.0143911
683.293	0.0143047
683.371	0.0143390
683.450	0.0142432
683.528	0.0143102
683.606	0.0143686
683.684	0.0144460
683.762	0.0144905
683.840	0.0143848
683.918	0.0144897
683.996	0.0145402
684.075	0.0143977
684.153	0.0144556
684.231	0.0145053
684.309	0.0146521
684.387	0.0144737
684.465	0.0145937
684.543	0.0145692
684.621	0.0145902
684.700	0.0146848
684.778	0.0146212
684.856	0.0146445
684.934	0.0145277
685.012	0.0145950
685.090	0.0143956
685.168	0.0144182
685.246	0.0144057
685.325	0.0142988
685.403	0.0142283
685.481	0.0143251
685.559	0.0143703
685.637	0.0142799
685.715	0.0142538
685.793	0.0142640
685.871	0.0142649
685.950	0.0142991
686.028	0.0143712
686.106	0.0143642
686.184	0.0144649
686.262	0.0144830
686.340	0.0143525
686.418	0.0145421
686.496	0.0145448
686.575	0.0145483
686.653	0.0146146
686.731	0.0147757
686.809	0.0147620
686.887	0.0149742
686.965	0.0148354
687.043	0.0148920
687.121	0.0147566
687.200	0.0147896
687.278	0.0148152
687.356	0.0146843
687.434	0.0144409
687.512	0.0144069
687.590	0.0143515
687.668	0.0140691
687.746	0.0141726
687.825	0.0142818
687.903	0.0140913
687.981	0.0138850
688.059	0.0140958
688.137	0.0141428
688.215	0.0141602
688.293	0.0139510
688.371	0.0141681
688.450	0.0143111
688.528	0.0142725
688.606	0.0143183
688.684	0.0143895
688.762	0.0144589
688.840	0.0145305
688.918	0.0147237
688.996	0.0146526
689.075	0.0148338
689.153	0.0148966
689.231	0.0147522
689.309	0.0149550
689.387	0.0148843
689.465	0.0146296
689.543	0.0146579
689.621	0.0147015
689.700	0.0147046
689.778	0.0147253
689.856	0.0146459
689.934	0.0145769
690.012	0.0147548
690.090	0.0147156
690.168	0.0145087
690.246	0.0146336
690.325	0.0145549
690.403	0.0143497
690.481	0.0143773
690.559	0.0144680
690.637	0.0142490
690.715	0.0141527
690.793	0.0142284
690.871	0.0143372
690.950	0.0141950
691.028	0.0141269
691.106	0.0140708
691.184	0.0141348
691.262	0.0143403
691.340	0.0141399
691.418	0.0142736
691.496	0.0142606
691.575	0.0142575
691.653	0.0142581
691.731	0.0142219
691.809	0.0143569
691.887	0.0143829
691.965	0.0143920
692.043	0.0145992
692.121	0.0145200
692.200	0.0146218
692.278	0.0146201
692.356	0.0147476
692.434	0.0147446
692.512	0.0148078
692.590	0.0146568
692.668	0.0147325
692.746	0.0146979
692.825	0.0146662
692.903	0.0146087
692.981	0.0148372
693.059	0.0147414
693.137	0.0146508
693.215	0.0145303
693.293	0.0145649
693.371	0.0146633
693.450	0.0146078
693.528	0.0143996
693.606	0.0143426
693.684	0.0142116
693.762	0.0141849
693.840	0.0143877
693.918	0.0142470
693.996	0.0142390
694.075	0.0142423
694.153	0.0142989
694.231	0.0142582
694.309	0.0142442
694.387	0.0141898
694.465	0.0142788
694.543	0.0141540
694.621	0.0140985
694.700	0.0141303
694.778	0.0141830
694.856	0.0142361
694.934	0.0143758
695.012	0.0142932
695.090	0.0143504
695.168	0.0144432
695.246	0.0146613
695.325	0.0148639
695.403	0.0149273
695.481	0.0149186
695.559	0.0149780
695.637	0.0150828
695.715	0.0150531
695.793	0.0149325
695.871	0.0149110
695.950	0.0147701
696.028	0.0147083
696.106	0.0148237
696.184	0.0147186
696.262	0.0145761
696.340	0.0147165
696.418	0.0145548
696.496	0.0145315
696.575	0.0144727
696.653	0.0144403
696.731	0.0143666
696.809	0.0143229
696.887	0.0143369
696.965	0.0142880
697.043	0.0142079
697.121	0.0140623
697.200	0.0141752
697.278	0.0141583
697.356	0.0141405
697.434	0.0140155
697.512	0.0141853
697.590	0.0143497
697.668	0.0143117
697.746	0.0142854
697.825	0.0142571
697.903	0.0143935
697.981	0.0143996
698.059	0.0143991
698.137	0.0143592
698.215	0.0143522
698.293	0.0143342
698.371	0.0143319
698.450	0.0145233
698.528	0.0145058
698.606	0.0145020
698.684	0.0146709
698.762	0.0146804
698.840	0.0146798
698.918	0.0146261
698.996	0.0146992
699.075	0.0146912
699.153	0.0146030
699.231	0.0145753
699.309	0.0145849
699.387	0.0147640
699.465	0.0149164
699.543	0.0150727
699.621	0.0149305
699.700	0.0147784
699.778	0.0148200
699.856	0.0148151
699.934	0.0147726
700.012	0.0144704
700.090	0.0143412
700.168	0.0141120
700.246	0.0139780
700.325	0.0140325
700.403	0.0138475
700.481	0.0138106
700.559	0.0138657
700.637	0.0139796
700.715	0.0140245
700.793	0.0139995
700.871	0.0140368
700.950	0.0143341
701.028	0.0144350
701.106	0.0144841
701.184	0.0144860
701.262	0.0145500
701.340	0.0146432
701.418	0.0147240
701.496	0.0147359
701.575	0.0147568
701.653	0.0146857
701.731	0.0145318
701.809	0.0145639
701.887	0.0144660
701.965	0.0145104
702.043	0.0145261
702.121	0.0143816
702.200	0.0143452
702.278	0.0144204
702.356	0.0145975
702.434	0.0147114
702.512	0.0148907
702.590	0.0148158
702.668	0.0147965
702.746	0.0149202
702.825	0.0148158
702.903	0.0148559
702.981	0.0147643
703.059	0.0146732
703.137	0.0144016
703.215	0.0142814
703.293	0.0141945
703.371	0.0140865
703.450	0.0141138
703.528	0.0139520
703.606	0.0139332
703.684	0.0140926
703.762	0.0139701
703.840	0.0140493
703.918	0.0141388
703.996	0.0142372
704.075	0.0142210
704.153	0.0141225
704.231	0.0144427
704.309	0.0144688
704.387	0.0144077
704.465	0.0145789
704.543	0.0144509
704.621	0.0145379
704.700	0.0145165
704.778	0.0143765
704.856	0.0142949
704.934	0.0143240
705.012	0.0142814
705.090	0.0143501
705.168	0.0144241
705.246	0.0142975
705.325	0.0144139
705.403	0.0146177
705.481	0.0145868
705.559	0.0146518
705.637	0.0147134
705.715	0.0149640
705.793	0.0150363
705.871	0.0149136
705.950	0.0150557
706.028	0.0149350
706.106	0.0147968
706.184	0.0147255
706.262	0.0146933
706.340	0.0145505
706.418	0.0143969
706.496	0.0141953
706.575	0.0142564
706.653	0.0141431
706.731	0.0140158
706.809	0.0141521
706.887	0.0143282
706.965	0.0142510
707.043	0.0143615
707.121	0.0144790
707.200	0.0144463
707.278	0.0144635
707.356	0.0146030
707.434	0.0144731
707.512	0.0143900
707.590	0.0144868
707.668	0.0143269
707.746	0.0142928
707.825	0.0144304
707.903	0.0143289
707.981	0.0142741
708.059	0.0141628
708.137	0.0141451
708.215	0.0143939
708.293	0.0142513
708.371	0.0142933
708.450	0.0144498
708.528	0.0144710
708.606	0.0145161
708.684	0.0146147
708.762	0.0145174
708.840	0.0146032
708.918	0.0147961
708.996	0.0148201
709.075	0.0147223
709.153	0.0146340
709.231	0.0145906
709.309	0.0146188
709.387	0.0145126
709.465	0.0144817
709.543	0.0144789
709.621	0.0142999
709.700	0.0143568
709.778	0.0144500
709.856	0.0143621
709.934	0.0143732
710.012	0.0143665
710.090	0.0143975
710.168	0.0143833
710.246	0.0144505
710.325	0.0143714
710.403	0.0143215
710.481	0.0142963
710.559	0.0142454
710.637	0.0141505
710.715	0.0143131
710.793	0.0142193
710.871	0.0142590
710.950	0.0141399
711.028	0.0142386
711.106	0.0143724
711.184	0.0141998
711.262	0.0143878
711.340	0.0144950
711.418	0.0144775
711.496	0.0145718
711.575	0.0144944
711.653	0.0144414
711.731	0.0144761
711.809	0.0144823
711.887	0.0146620
711.965	0.0145060
712.043	0.0145440
712.121	0.0147826
712.200	0.0145150
712.278	0.0146309
712.356	0.0145927
712.434	0.0144389
712.512	0.0145470
712.590	0.0144854
712.668	0.0144617
712.746	0.0144334
712.825	0.0143977
712.903	0.0144761
712.981	0.0144019
713.059	0.0145102
713.137	0.0144857
713.215	0.0144648
713.293	0.0144682
713.371	0.0144652
713.450	0.0146014
713.528	0.0144727
713.606	0.0144877
713.684	0.0144429
713.762	0.0143793
713.840	0.0145634
713.918	0.0145147
713.996	0.0144046
714.075	0.0143932
714.153	0.0144789
714.231	0.0144490
714.309	0.0143342
714.387	0.0143056
714.465	0.0143977
714.543	0.0143627
714.621	0.0144234
714.700	0.0144664
714.778	0.0145356
714.856	0.0144807
714.934	0.0143314
715.012	0.0142725
715.090	0.0146069
715.168	0.0144742
715.246	0.0144611
715.325	0.0144707
715.403	0.0144872
715.481	0.0143378
715.559	0.0143266
715.637	0.0143265
715.715	0.0145444
715.793	0.0143563
715.871	0.0144924
715.950	0.0145875
716.028	0.0144151
716.106	0.0145715
716.184	0.0146429
716.262	0.0146123
716.340	0.0145953
716.418	0.0146844
716.496	0.0145926
716.575	0.0148174
716.653	0.0145992
716.731	0.0146499
716.809	0.0145129
716.887	0.0146690
716.965	0.0144627
717.043	0.0144048
717.121	0.0142231
717.200	0.0140114
717.278	0.0143016
717.356	0.0142303
717.434	0.0142187
717.512	0.0141389
717.590	0.0140823
717.668	0.0142706
717.746	0.0142932
717.825	0.0143159
717.903	0.0142139
717.981	0.0144420
718.059	0.0146379
718.137	0.0144562
718.215	0.0144953
718.293	0.0145132
718.371	0.0144357
718.450	0.0147292
718.528	0.0148305
718.606	0.0148573
718.684	0.0148026
718.762	0.0146413
718.840	0.0148314
718.918	0.0147434
718.996	0.0146722
719.075	0.0146018
719.153	0.0145029
719.231	0.0145078
719.309	0.0146158
719.387	0.0144906
719.465	0.0145101
719.543	0.0144767
719.621	0.0144949
719.700	0.0143779
719.778	0.0143632
719.856	0.0144389
719.934	0.0145724
720.012	0.0143718
720.090	0.0142087
720.168	0.0142394
720.246	0.0142609
720.325	0.0141647
720.403	0.0141637
720.481	0.0143292
720.559	0.0142148
720.637	0.0143746
720.715	0.0142435
720.793	0.0143410
720.871	0.0144046
720.950	0.0144286
721.028	0.0144489
721.106	0.0143301
721.184	0.0144376
721.262	0.0144514
721.340	0.0144665
721.418	0.0144350
721.496	0.0145520
721.575	0.0146365
721.653	0.0146753
721.731	0.0146370
721.809	0.0146912
721.887	0.0145910
721.965	0.0146198
722.043	0.0145948
722.121	0.0145896
722.200	0.0146356
722.278	0.0145512
722.356	0.0144519
722.434	0.0144806
722.512	0.0144113
722.590	0.0145324
722.668	0.0145257
722.746	0.0144408
722.825	0.0144874
722.903	0.0143948
722.981	0.0144806
723.059	0.0144698
723.137	0.0145063
723.215	0.0144825
723.293	0.0144790
723.371	0.0144073
723.450	0.0143987
723.528	0.0144688
723.606	0.0144915
723.684	0.0145638
723.762	0.0144057
723.840	0.0145089
723.918	0.0145769
723.996	0.0144817
724.075	0.0144271
724.153	0.0144909
724.231	0.0143760
724.309	0.0144335
724.387	0.0143327
724.465	0.0142323
724.543	0.0143324
724.621	0.0144209
724.700	0.0143076
724.778	0.0143198
724.856	0.0141576
724.934	0.0141959
725.012	0.0143122
725.090	0.0144772
725.168	0.0144569
725.246	0.0144092
725.325	0.0145936
725.403	0.0145830
725.481	0.0146542
725.559	0.0145627
725.637	0.0146342
725.715	0.0145468
725.793	0.0145293
725.871	0.0147301
725.950	0.0146069
726.028	0.0147616
726.106	0.0148049
726.184	0.0146504
726.262	0.0144552
726.340	0.0145295
726.418	0.0146152
726.496	0.0144584
726.575	0.0144955
726.653	0.0145233
726.731	0.0143858
726.809	0.0143349
726.887	0.0142812
726.965	0.0142796
727.043	0.0142700
727.121	0.0143221
727.200	0.0141748
727.278	0.0142249
727.356	0.0142612
727.434	0.0140665
727.512	0.0141948
727.590	0.0143715
727.668	0.0141601
727.746	0.0142255
727.825	0.0142709
727.903	0.0143236
727.981	0.0143982
728.059	0.0144342
728.137	0.0145066
728.215	0.0145325
728.293	0.0144724
728.371	0.0145819
728.450	0.0145259
728.528	0.0148038
728.606	0.0146451
728.684	0.0145821
728.762	0.0146451
728.840	0.0145707
728.918	0.0147195
728.996	0.0146876
729.075	0.0145886
729.153	0.0147990
729.231	0.0146194
729.309	0.0146450
729.387	0.0145895
729.465	0.0144841
729.543	0.0145946
729.621	0.0145239
729.700	0.0144505
729.778	0.0145356
729.856	0.0143057
729.934	0.0143683
730.012	0.0143098
730.090	0.0142896
730.168	0.0143958
730.246	0.0144505
730.325	0.0142803
730.403	0.0142844
730.481	0.0143282
730.559	0.0143984
730.637	0.0143679
730.715	0.0144293
730.793	0.0145100
730.871	0.0144277
730.950	0.0145088
731.028	0.0144727
731.106	0.0144324
731.184	0.0144650
731.262	0.0145368
731.340	0.0145994
731.418	0.0145579
731.496	0.0145728
731.575	0.0144788
731.653	0.0143124
731.731	0.0145324
731.809	0.0143541
731.887	0.0143505
731.965	0.0143983
732.043	0.0145070
732.121	0.0144602
732.200	0.0144221
732.278	0.0146127
732.356	0.0145935
732.434	0.0145468
732.512	0.0145679
732.590	0.0145470
732.668	0.0146359
732.746	0.0147198
732.825	0.0146176
732.903	0.0146384
732.981	0.0146674
733.059	0.0147038
733.137	0.0144848
733.215	0.0145184
733.293	0.0142595
733.371	0.0143827
733.450	0.0144367
733.528	0.0145852
733.606	0.0144098
733.684	0.0143878
733.762	0.0144411
733.840	0.0143652
733.918	0.0143552
733.996	0.0144152
734.075	0.0143890
734.153	0.0144267
734.231	0.0141864
734.309	0.0142580
734.387	0.0142709
734.465	0.0142361
734.543	0.0142469
734.621	0.0143730
734.700	0.0141779
734.778	0.0143050
734.856	0.0142337
734.934	0.0142535
735.012	0.0142972
735.090	0.0144083
735.168	0.0143492
735.246	0.0144403
735.325	0.0145084
735.403	0.0146227
735.481	0.0145496
735.559	0.0146271
735.637	0.0146075
735.715	0.0146820
735.793	0.0144878
735.871	0.0144973
735.950	0.0145825
736.028	0.0146126
736.106	0.0145586
736.184	0.0143311
736.262	0.0143711
736.340	0.0143743
736.418	0.0144329
736.496	0.0143534
736.575	0.0142160
736.653	0.0143710
736.731	0.0143666
736.809	0.0143248
736.887	0.0143448
736.965	0.0143569
737.043	0.0143087
737.121	0.0144547
737.200	0.0144108
737.278	0.0142534
737.356	0.0144775
737.434	0.0143663
737.512	0.0143963
737.590	0.0144987
737.668	0.0144142
737.746	0.0142944
737.825	0.0144247
737.903	0.0142680
737.981	0.0143208
738.059	0.0143862
738.137	0.0143610
738.215	0.0144426
738.293	0.0145025
738.371	0.0145318
738.450	0.0145657
738.528	0.0144221
738.606	0.0143555
738.684	0.0144755
738.762	0.0146329
738.840	0.0146257
738.918	0.0144547
738.996	0.0142087
739.075	0.0145193
739.153	0.0145103
739.231	0.0144167
739.309	0.0143770
739.387	0.0143553
739.465	0.0144051
739.543	0.0144321
739.621	0.0144423
739.700	0.0144215
739.778	0.0143601
739.856	0.0144350
739.934	0.0143543
740.012	0.0142812
740.090	0.0144024
740.168	0.0144196
740.246	0.0142484
740.325	0.0142686
740.403	0.0142627
740.481	0.0143151
740.559	0.0143028
740.637	0.0143673
740.715	0.0142995
740.793	0.0142962
740.871	0.0142539
740.950	0.0145428
741.028	0.0146058
741.106	0.0145479
741.184	0.0144291
741.262	0.0143449
741.340	0.0145088
741.418	0.0145941
741.496	0.0144669
741.575	0.0145499
741.653	0.0146659
741.731	0.0145065
741.809	0.0146061
741.887	0.0145354
741.965	0.0145750
742.043	0.0145142
742.121	0.0143768
742.200	0.0144727
742.278	0.0144001
742.356	0.0144664
742.434	0.0144352
742.512	0.0145313
742.590	0.0144036
742.668	0.0144593
742.746	0.0144392
742.825	0.0144404
742.903	0.0144969
742.981	0.0144262
743.059	0.0144631
743.137	0.0145092
743.215	0.0143257
743.293	0.0143623
743.371	0.0143427
743.450	0.0143481
743.528	0.0144904
743.606	0.0142461
743.684	0.0143922
743.762	0.0144732
743.840	0.0144527
743.918	0.0144357
743.996	0.0144222
744.075	0.0144080
744.153	0.0144819
744.231	0.0144915
744.309	0.0144849
744.387	0.0143947
744.465	0.0145246
744.543	0.0144336
744.621	0.0143913
744.700	0.0143356
744.778	0.0144398
744.856	0.0143242
744.934	0.0144006
745.012	0.0145548
745.090	0.0144595
745.168	0.0144111
745.246	0.0145926
745.325	0.0145927
745.403	0.0143963
745.481	0.0145943
745.559	0.0145177
745.637	0.0145345
745.715	0.0144665
745.793	0.0145879
745.871	0.0146136
745.950	0.0146102
746.028	0.0147807
746.106	0.0144571
746.184	0.0143816
746.262	0.0145316
746.340	0.0144650
746.418	0.0144370
746.496	0.0144818
746.575	0.0143696
746.653	0.0145161
746.731	0.0143520
746.809	0.0143418
746.887	0.0143958
746.965	0.0142271
747.043	0.0142544
747.121	0.0142401
747.200	0.0142547
747.278	0.0141535
747.356	0.0142097
747.434	0.0143035
747.512	0.0143742
747.590	0.0142560
747.668	0.0142295
747.746	0.0145226
747.825	0.0145411
747.903	0.0144315
747.981	0.0145915
748.059	0.0145470
748.137	0.0145828
748.215	0.0144689
748.293	0.0145351
748.371	0.0147422
748.450	0.0146603
748.528	0.0146568
748.606	0.0145892
748.684	0.0147029
748.762	0.0145747
748.840	0.0146920
748.918	0.0146478
748.996	0.0145567
749.075	0.0145073
749.153	0.0144664
749.231	0.0145957
749.309	0.0144799
749.387	0.0144112
749.465	0.0144434
749.543	0.0145734
749.621	0.0142434
749.700	0.0144587
749.778	0.0144716
749.856	0.0144919
749.934	0.0144691
750.012	0.0145403
750.090	0.0144727
750.168	0.0145334
750.246	0.0144308
750.325	0.0144723
750.403	0.0145369
750.481	0.0145694
750.559	0.0144939
750.637	0.0144971
750.715	0.0145074
750.793	0.0143901
750.871	0.0143876
750.950	0.0145410
751.028	0.0145490
751.106	0.0143834
751.184	0.0145212
751.262	0.0144991
751.340	0.0143729
751.418	0.0143148
751.496	0.0143533
751.575	0.0143618
751.653	0.0142886
751.731	0.0143471
751.809	0.0144341
751.887	0.0144102
751.965	0.0145016
752.043	0.0145272
752.121	0.0144074
752.200	0.0145693
752.278	0.0144196
752.356	0.0144129
752.434	0.0145361
752.512	0.0144927
752.590	0.0145894
752.668	0.0145167
752.746	0.0144550
752.825	0.0144349
752.903	0.0143971
752.981	0.0144845
753.059	0.0146054
753.137	0.0145340
753.215	0.0145119
753.293	0.0145666
753.371	0.0146039
753.450	0.0145346
753.528	0.0144150
753.606	0.0145758
753.684	0.0145538
753.762	0.0145623
753.840	0.0145250
753.918	0.0145484
753.996	0.0144083
754.075	0.0145139
754.153	0.0145040
754.231	0.0143199
754.309	0.0144507
754.387	0.0144423
754.465	0.0142191
754.543	0.0143046
754.621	0.0143573
754.700	0.0143250
754.778	0.0143414
754.856	0.0143015
754.934	0.0144599
755.012	0.0142554
755.090	0.0142728
755.168	0.0142887
755.246	0.0144511
755.325	0.0144825
755.403	0.0143417
755.481	0.0143691
755.559	0.0145001
755.637	0.0144402
755.715	0.0145044
755.793	0.0145119
755.871	0.0145954
755.950	0.0145744
756.028	0.0146632
756.106	0.0145484
756.184	0.0144815
756.262	0.0143764
756.340	0.0144636
756.418	0.0144238
756.496	0.0144168
756.575	0.0144162
756.653	0.0144849
756.731	0.0144246
756.809	0.0144317
756.887	0.0143586
756.965	0.0144878
757.043	0.0144042
757.121	0.0144781
757.200	0.0144383
757.278	0.0144380
757.356	0.0145132
757.434	0.0145104
757.512	0.0144553
757.590	0.0146306
757.668	0.0145428
757.746	0.0144875
757.825	0.0143107
757.903	0.0144146
757.981	0.0143951
758.059	0.0145222
758.137	0.0145013
758.215	0.0144205
758.293	0.0144706
758.371	0.0143558
758.450	0.0143322
758.528	0.0144654
758.606	0.0144778
758.684	0.0143124
758.762	0.0144171
758.840	0.0143816
758.918	0.0144210
758.996	0.0146438
759.075	0.0144522
759.153	0.0144646
759.231	0.0144739
759.309	0.0144542
759.387	0.0144093
759.465	0.0144831
759.543	0.0144485
759.621	0.0143596
759.700	0.0144802
759.778	0.0143484
759.856	0.0144840
759.934	0.0144035
760.012	0.0143468
760.090	0.0145164
760.168	0.0144886
760.246	0.0144511
760.325	0.0143787
760.403	0.0142867
760.481	0.0145294
760.559	0.0145531
760.637	0.0144596
760.715	0.0142884
760.793	0.0145527
760.871	0.0145951
760.950	0.0144662
761.028	0.0143171
761.106	0.0144857
761.184	0.0145999
761.262	0.0144503
761.340	0.0144569
761.418	0.0146286
761.496	0.0145374
761.575	0.0143609
761.653	0.0145528
761.731	0.0144897
761.809	0.0144618
761.887	0.0145298
761.965	0.0145062
762.043	0.0145444
762.121	0.0144325
762.200	0.0145634
762.278	0.0145885
762.356	0.0144837
762.434	0.0144354
762.512	0.0143785
762.590	0.0144038
762.668	0.0144062
762.746	0.0144234
762.825	0.0144508
762.903	0.0143794
762.981	0.0144647
763.059	0.0143542
763.137	0.0143257
763.215	0.0145654
763.293	0.0145785
763.371	0.0144724
763.450	0.0144794
763.528	0.0145243
763.606	0.0145535
763.684	0.0144948
763.762	0.0145063
763.840	0.0144656
763.918	0.0145541
763.996	0.0145592
764.075	0.0144420
764.153	0.0144820
764.231	0.0145216
764.309	0.0145872
764.387	0.0144112
764.465	0.0143079
764.543	0.0144614
764.621	0.0144156
764.700	0.0144600
