05/04/2022	21:35:19	Ver.	4.1	UNKNOWN
Optical Delay	678.989730	Delta X		0.078125	Sweeps	1	Scan Rate	0/0
Coordinates	Axis 1	NaN	Axis 2	NaN	Axis 3	NaN	Axis 4	NaN	Axis 5	NaN	Axis 6	0.000000
TX Power	0.000000	RX Power	0.000000

678.990	0.0146137
679.068	0.0146878
679.146	0.0145103
679.224	0.0146855
679.302	0.0145464
679.380	0.0145381
679.458	0.0146334
679.537	0.0146148
679.615	0.0145702
679.693	0.0145139
679.771	0.0147559
679.849	0.0145890
679.927	0.0145276
680.005	0.0145013
680.083	0.0147394
680.162	0.0146005
680.240	0.0147543
680.318	0.0145399
680.396	0.0145524
680.474	0.0144084
680.552	0.0144917
680.630	0.0146510
680.708	0.0145889
680.787	0.0146225
680.865	0.0145728
680.943	0.0144903
681.021	0.0146426
681.099	0.0146822
681.177	0.0145244
681.255	0.0147562
681.333	0.0144816
681.412	0.0145724
681.490	0.0145408
681.568	0.0144921
681.646	0.0142973
681.724	0.0145212
681.802	0.0145949
681.880	0.0145318
681.958	0.0146782
682.037	0.0146233
682.115	0.0146573
682.193	0.0148533
682.271	0.0146788
682.349	0.0145625
682.427	0.0145679
682.505	0.0145687
682.583	0.0146367
682.662	0.0145575
682.740	0.0145212
682.818	0.0146292
682.896	0.0145753
682.974	0.0147208
683.052	0.0147913
683.130	0.0147257
683.208	0.0145980
683.287	0.0147630
683.365	0.0146445
683.443	0.0146568
683.521	0.0146001
683.599	0.0144998
683.677	0.0144049
683.755	0.0145992
683.833	0.0145422
683.912	0.0144372
683.990	0.0144453
684.068	0.0144248
684.146	0.0146985
684.224	0.0144582
684.302	0.0143603
684.380	0.0145004
684.458	0.0145467
684.537	0.0144929
684.615	0.0144239
684.693	0.0143860
684.771	0.0147662
684.849	0.0145834
684.927	0.0146470
685.005	0.0147423
685.083	0.0149816
685.162	0.0149535
685.240	0.0148205
685.318	0.0148913
685.396	0.0149744
685.474	0.0149020
685.552	0.0146600
685.630	0.0146152
685.708	0.0146872
685.787	0.0147961
685.865	0.0145589
685.943	0.0145844
686.021	0.0144990
686.099	0.0144563
686.177	0.0142996
686.255	0.0143542
686.333	0.0143288
686.412	0.0144229
686.490	0.0141598
686.568	0.0140417
686.646	0.0141545
686.724	0.0142349
686.802	0.0142864
686.880	0.0144539
686.958	0.0145953
687.037	0.0144812
687.115	0.0145796
687.193	0.0147225
687.271	0.0147112
687.349	0.0148061
687.427	0.0147917
687.505	0.0147297
687.583	0.0147011
687.662	0.0147850
687.740	0.0151017
687.818	0.0148956
687.896	0.0149351
687.974	0.0148152
688.052	0.0149113
688.130	0.0147675
688.208	0.0146955
688.287	0.0147547
688.365	0.0148121
688.443	0.0146888
688.521	0.0146053
688.599	0.0144183
688.677	0.0146090
688.755	0.0145480
688.833	0.0144864
688.912	0.0145753
688.990	0.0144975
689.068	0.0146066
689.146	0.0147205
689.224	0.0145901
689.302	0.0145042
689.380	0.0144649
689.458	0.0143743
689.537	0.0141994
689.615	0.0142850
689.693	0.0143491
689.771	0.0144247
689.849	0.0146307
689.927	0.0144795
690.005	0.0145047
690.083	0.0146947
690.162	0.0145531
690.240	0.0145065
690.318	0.0147176
690.396	0.0147799
690.474	0.0146867
690.552	0.0147565
690.630	0.0148823
690.708	0.0147924
690.787	0.0148399
690.865	0.0150606
690.943	0.0149846
691.021	0.0151343
691.099	0.0148713
691.177	0.0149542
691.255	0.0148415
691.333	0.0146803
691.412	0.0146190
691.490	0.0146738
691.568	0.0147684
691.646	0.0146475
691.724	0.0147377
691.802	0.0147284
691.880	0.0146659
691.958	0.0147707
692.037	0.0147330
692.115	0.0146040
692.193	0.0145220
692.271	0.0145045
692.349	0.0144002
692.427	0.0142488
692.505	0.0142490
692.583	0.0143551
692.662	0.0143864
692.740	0.0143512
692.818	0.0143749
692.896	0.0145494
692.974	0.0142882
693.052	0.0144744
693.130	0.0145824
693.208	0.0147467
693.287	0.0146227
693.365	0.0145186
693.443	0.0146575
693.521	0.0147085
693.599	0.0146786
693.677	0.0148508
693.755	0.0148330
693.833	0.0149287
693.912	0.0150041
693.990	0.0150967
694.068	0.0151253
694.146	0.0148563
694.224	0.0149561
694.302	0.0147424
694.380	0.0148145
694.458	0.0149262
694.537	0.0148915
694.615	0.0148367
694.693	0.0149256
694.771	0.0148845
694.849	0.0150285
694.927	0.0151331
695.005	0.0149547
695.083	0.0150996
695.162	0.0148814
695.240	0.0148864
695.318	0.0147895
695.396	0.0145689
695.474	0.0146443
695.552	0.0143831
695.630	0.0142481
695.708	0.0141846
695.787	0.0141289
695.865	0.0141465
695.943	0.0142141
696.021	0.0142180
696.099	0.0142772
696.177	0.0142927
696.255	0.0142233
696.333	0.0143543
696.412	0.0143469
696.490	0.0144377
696.568	0.0145226
696.646	0.0145161
696.724	0.0144930
696.802	0.0146382
696.880	0.0146143
696.958	0.0146185
697.037	0.0146052
697.115	0.0145773
697.193	0.0147499
697.271	0.0147931
697.349	0.0147791
697.427	0.0147817
697.505	0.0148948
697.583	0.0150163
697.662	0.0151160
697.740	0.0151028
697.818	0.0150421
697.896	0.0151963
697.974	0.0151859
698.052	0.0152104
698.130	0.0151560
698.208	0.0150890
698.287	0.0148349
698.365	0.0148448
698.443	0.0148060
698.521	0.0146378
698.599	0.0144656
698.677	0.0143011
698.755	0.0142584
698.833	0.0143288
698.912	0.0141119
698.990	0.0141392
699.068	0.0140009
699.146	0.0140580
699.224	0.0141942
699.302	0.0142992
699.380	0.0142307
699.458	0.0142410
699.537	0.0146074
699.615	0.0144450
699.693	0.0144172
699.771	0.0146938
699.849	0.0146936
699.927	0.0145735
700.005	0.0147504
700.083	0.0146799
700.162	0.0145528
700.240	0.0145551
700.318	0.0145982
700.396	0.0146213
700.474	0.0145776
700.552	0.0145853
700.630	0.0146207
700.708	0.0147633
700.787	0.0147409
700.865	0.0147784
700.943	0.0149417
701.021	0.0149519
701.099	0.0149544
701.177	0.0151045
701.255	0.0152156
701.333	0.0151284
701.412	0.0151266
701.490	0.0150928
701.568	0.0150739
701.646	0.0148122
701.724	0.0146845
701.802	0.0146793
701.880	0.0144796
701.958	0.0144002
702.037	0.0142771
702.115	0.0143446
702.193	0.0143708
702.271	0.0141572
702.349	0.0141537
702.427	0.0143226
702.505	0.0143110
702.583	0.0143996
702.662	0.0145018
702.740	0.0143429
702.818	0.0143546
702.896	0.0142268
702.974	0.0142463
703.052	0.0142630
703.130	0.0142001
703.208	0.0140797
703.287	0.0141534
703.365	0.0139998
703.443	0.0141065
703.521	0.0140618
703.599	0.0141946
703.677	0.0142807
703.755	0.0143840
703.833	0.0145194
703.912	0.0147813
703.990	0.0148219
704.068	0.0148809
704.146	0.0150596
704.224	0.0151987
704.302	0.0152597
704.380	0.0153237
704.458	0.0152988
704.537	0.0152336
704.615	0.0151350
704.693	0.0151399
704.771	0.0152187
704.849	0.0148377
704.927	0.0147952
705.005	0.0145970
705.083	0.0146387
705.162	0.0143990
705.240	0.0142876
705.318	0.0142548
705.396	0.0142860
705.474	0.0143019
705.552	0.0142426
705.630	0.0143486
705.708	0.0143695
705.787	0.0142769
705.865	0.0144997
705.943	0.0142092
706.021	0.0144434
706.099	0.0145236
706.177	0.0144626
706.255	0.0143443
706.333	0.0144267
706.412	0.0144875
706.490	0.0143118
706.568	0.0145309
706.646	0.0143713
706.724	0.0144155
706.802	0.0143413
706.880	0.0146693
706.958	0.0144591
707.037	0.0144507
707.115	0.0146519
707.193	0.0145898
707.271	0.0145492
707.349	0.0146650
707.427	0.0148509
707.505	0.0149063
707.583	0.0148280
707.662	0.0148462
707.740	0.0148775
707.818	0.0147555
707.896	0.0147735
707.974	0.0147848
708.052	0.0148617
708.130	0.0146200
708.208	0.0145655
708.287	0.0144515
708.365	0.0146251
708.443	0.0147432
708.521	0.0145152
708.599	0.0147195
708.677	0.0145236
708.755	0.0146503
708.833	0.0146940
708.912	0.0148377
708.990	0.0147860
709.068	0.0147623
709.146	0.0145887
709.224	0.0145595
709.302	0.0145114
709.380	0.0146033
709.458	0.0143091
709.537	0.0142635
709.615	0.0143899
709.693	0.0143729
709.771	0.0142020
709.849	0.0142875
709.927	0.0140852
710.005	0.0140859
710.083	0.0140427
710.162	0.0139523
710.240	0.0141903
710.318	0.0141949
710.396	0.0142767
710.474	0.0144682
710.552	0.0145567
710.630	0.0144678
710.708	0.0147165
710.787	0.0147471
710.865	0.0148716
710.943	0.0149418
711.021	0.0151238
711.099	0.0151804
711.177	0.0151215
711.255	0.0149123
711.333	0.0151271
711.412	0.0149754
711.490	0.0150319
711.568	0.0149127
711.646	0.0148334
711.724	0.0149063
711.802	0.0148212
711.880	0.0147441
711.958	0.0146965
712.037	0.0147172
712.115	0.0146892
712.193	0.0147629
712.271	0.0144771
712.349	0.0144417
712.427	0.0144114
712.505	0.0143600
712.583	0.0142443
712.662	0.0143230
712.740	0.0141537
712.818	0.0143192
712.896	0.0143008
712.974	0.0142013
713.052	0.0141592
713.130	0.0142036
713.208	0.0141876
713.287	0.0142797
713.365	0.0143391
713.443	0.0143995
713.521	0.0145008
713.599	0.0145951
713.677	0.0144917
713.755	0.0145929
713.833	0.0146559
713.912	0.0146689
713.990	0.0147720
714.068	0.0148709
714.146	0.0147597
714.224	0.0148338
714.302	0.0148752
714.380	0.0147832
714.458	0.0148601
714.537	0.0148226
714.615	0.0148291
714.693	0.0148175
714.771	0.0145815
714.849	0.0146183
714.927	0.0145590
715.005	0.0146357
715.083	0.0146485
715.162	0.0144850
715.240	0.0144902
715.318	0.0145670
715.396	0.0144691
715.474	0.0145681
715.552	0.0147391
715.630	0.0145788
715.708	0.0145084
715.787	0.0145522
715.865	0.0145973
715.943	0.0144475
716.021	0.0145801
716.099	0.0144849
716.177	0.0145377
716.255	0.0144912
716.333	0.0146636
716.412	0.0144200
716.490	0.0145221
716.568	0.0144276
716.646	0.0145049
716.724	0.0143303
716.802	0.0144469
716.880	0.0143917
716.958	0.0144882
717.037	0.0147183
717.115	0.0145138
717.193	0.0145947
717.271	0.0145632
717.349	0.0145379
717.427	0.0144656
717.505	0.0145727
717.583	0.0146304
717.662	0.0145560
717.740	0.0145792
717.818	0.0146214
717.896	0.0146430
717.974	0.0146705
718.052	0.0146695
718.130	0.0147936
718.208	0.0147135
718.287	0.0147576
718.365	0.0148878
718.443	0.0148923
718.521	0.0148440
718.599	0.0148473
718.677	0.0148013
718.755	0.0147828
718.833	0.0150236
718.912	0.0148870
718.990	0.0149643
719.068	0.0145535
719.146	0.0146238
719.224	0.0146223
719.302	0.0145732
719.380	0.0145438
719.458	0.0144238
719.537	0.0144960
719.615	0.0143813
719.693	0.0143896
719.771	0.0143419
719.849	0.0142294
719.927	0.0143063
720.005	0.0144095
720.083	0.0143964
720.162	0.0143452
720.240	0.0144537
720.318	0.0144630
720.396	0.0144620
720.474	0.0145090
720.552	0.0145454
720.630	0.0147030
720.708	0.0145895
720.787	0.0147540
720.865	0.0147462
720.943	0.0147651
721.021	0.0148125
721.099	0.0148663
721.177	0.0148040
721.255	0.0148058
721.333	0.0148534
721.412	0.0149726
721.490	0.0148841
721.568	0.0146179
721.646	0.0145716
721.724	0.0147158
721.802	0.0147038
721.880	0.0147623
721.958	0.0147306
722.037	0.0147050
722.115	0.0146191
722.193	0.0146374
722.271	0.0146030
722.349	0.0145262
722.427	0.0145520
722.505	0.0145618
722.583	0.0147066
722.662	0.0146458
722.740	0.0145108
722.818	0.0144740
722.896	0.0145688
722.974	0.0145326
723.052	0.0145148
723.130	0.0146185
723.208	0.0145451
723.287	0.0145313
723.365	0.0145810
723.443	0.0146967
723.521	0.0146068
723.599	0.0146469
723.677	0.0145935
723.755	0.0146107
723.833	0.0146963
723.912	0.0145136
723.990	0.0145887
724.068	0.0145808
724.146	0.0146265
724.224	0.0145888
724.302	0.0144595
724.380	0.0145731
724.458	0.0145110
724.537	0.0146186
724.615	0.0147253
724.693	0.0145868
724.771	0.0146244
724.849	0.0148331
724.927	0.0148053
725.005	0.0147112
725.083	0.0147244
725.162	0.0146637
725.240	0.0147858
725.318	0.0147781
725.396	0.0147363
725.474	0.0147208
725.552	0.0147255
725.630	0.0147201
725.708	0.0147343
725.787	0.0146988
725.865	0.0147652
725.943	0.0145984
726.021	0.0147946
726.099	0.0145734
726.177	0.0143813
726.255	0.0141792
726.333	0.0142146
726.412	0.0144525
726.490	0.0143327
726.568	0.0143617
726.646	0.0143246
726.724	0.0144246
726.802	0.0142332
726.880	0.0142507
726.958	0.0144443
727.037	0.0145200
727.115	0.0146085
727.193	0.0146146
727.271	0.0145667
727.349	0.0146231
727.427	0.0146012
727.505	0.0147556
727.583	0.0147266
727.662	0.0147060
727.740	0.0146896
727.818	0.0145159
727.896	0.0146369
727.974	0.0147836
728.052	0.0145464
728.130	0.0145847
728.208	0.0146737
728.287	0.0146322
728.365	0.0146980
728.443	0.0147038
728.521	0.0145135
728.599	0.0146037
728.677	0.0147327
728.755	0.0146118
728.833	0.0145663
728.912	0.0147126
728.990	0.0144362
729.068	0.0144916
729.146	0.0144550
729.224	0.0144556
729.302	0.0144167
729.380	0.0144482
729.458	0.0144745
729.537	0.0145823
729.615	0.0144733
729.693	0.0144666
729.771	0.0144713
729.849	0.0145607
729.927	0.0146037
730.005	0.0145952
730.083	0.0145496
730.162	0.0145149
730.240	0.0145351
730.318	0.0147144
730.396	0.0146773
730.474	0.0146648
730.552	0.0145744
730.630	0.0146708
730.708	0.0146201
730.787	0.0144873
730.865	0.0144657
730.943	0.0146547
731.021	0.0144769
731.099	0.0144474
731.177	0.0146394
731.255	0.0144910
731.333	0.0145403
731.412	0.0145473
731.490	0.0144817
731.568	0.0145648
731.646	0.0145116
731.724	0.0145715
731.802	0.0146333
731.880	0.0146508
731.958	0.0146216
732.037	0.0145847
732.115	0.0144660
732.193	0.0146976
732.271	0.0148316
732.349	0.0147023
732.427	0.0147385
732.505	0.0146626
732.583	0.0147272
732.662	0.0145834
732.740	0.0145743
732.818	0.0146502
732.896	0.0146210
732.974	0.0143783
733.052	0.0145735
733.130	0.0145168
733.208	0.0145427
733.287	0.0144016
733.365	0.0144299
733.443	0.0145171
733.521	0.0144086
733.599	0.0143579
733.677	0.0143233
733.755	0.0143882
733.833	0.0142421
733.912	0.0143365
733.990	0.0142672
734.068	0.0145248
734.146	0.0143479
734.224	0.0144054
734.302	0.0144095
734.380	0.0146021
734.458	0.0147089
734.537	0.0145289
734.615	0.0147331
734.693	0.0148587
734.771	0.0147607
734.849	0.0147847
734.927	0.0149940
735.005	0.0146966
735.083	0.0147572
735.162	0.0147837
735.240	0.0148486
735.318	0.0148197
735.396	0.0146597
735.474	0.0146793
735.552	0.0146131
735.630	0.0146250
735.708	0.0144289
735.787	0.0145860
735.865	0.0145002
735.943	0.0143980
736.021	0.0144163
736.099	0.0142697
736.177	0.0142912
736.255	0.0142970
736.333	0.0144453
736.412	0.0144520
736.490	0.0144067
736.568	0.0144727
736.646	0.0144853
736.724	0.0144370
736.802	0.0143888
736.880	0.0145747
736.958	0.0146172
737.037	0.0147341
737.115	0.0146999
737.193	0.0147842
737.271	0.0147376
737.349	0.0146414
737.427	0.0147305
737.505	0.0147334
737.583	0.0146133
737.662	0.0147930
737.740	0.0147228
737.818	0.0146957
737.896	0.0146533
737.974	0.0146473
738.052	0.0147116
738.130	0.0146265
738.208	0.0144576
738.287	0.0145435
738.365	0.0145444
738.443	0.0145667
738.521	0.0145984
738.599	0.0144390
738.677	0.0145277
738.755	0.0145256
738.833	0.0144042
738.912	0.0144289
738.990	0.0144473
739.068	0.0144331
739.146	0.0145520
739.224	0.0145802
739.302	0.0146494
739.380	0.0147492
739.458	0.0146074
739.537	0.0147526
739.615	0.0148414
739.693	0.0145899
739.771	0.0145934
739.849	0.0146176
739.927	0.0147200
740.005	0.0144417
740.083	0.0145392
740.162	0.0146197
740.240	0.0145554
740.318	0.0146164
740.396	0.0146208
740.474	0.0144633
740.552	0.0146120
740.630	0.0146108
740.708	0.0144614
740.787	0.0144484
740.865	0.0144456
740.943	0.0144817
741.021	0.0146399
741.099	0.0145650
741.177	0.0146621
741.255	0.0146026
741.333	0.0146610
741.412	0.0144517
741.490	0.0146001
741.568	0.0146175
741.646	0.0146619
741.724	0.0146184
741.802	0.0147002
741.880	0.0147468
741.958	0.0146120
742.037	0.0146488
742.115	0.0147147
742.193	0.0146045
742.271	0.0148962
742.349	0.0147446
742.427	0.0146184
742.505	0.0146619
742.583	0.0147909
742.662	0.0147162
742.740	0.0146846
742.818	0.0146781
742.896	0.0146342
742.974	0.0145927
743.052	0.0144889
743.130	0.0145886
743.208	0.0145085
743.287	0.0145611
743.365	0.0144402
743.443	0.0144461
743.521	0.0144958
743.599	0.0144322
743.677	0.0143507
743.755	0.0144138
743.833	0.0144485
743.912	0.0144763
743.990	0.0145456
744.068	0.0145210
744.146	0.0145365
744.224	0.0145957
744.302	0.0145803
744.380	0.0147163
744.458	0.0145961
744.537	0.0146433
744.615	0.0147498
744.693	0.0146804
744.771	0.0146538
744.849	0.0146387
744.927	0.0147713
745.005	0.0146725
745.083	0.0147269
745.162	0.0147963
745.240	0.0147249
745.318	0.0146709
745.396	0.0147556
745.474	0.0145509
745.552	0.0145595
745.630	0.0146560
745.708	0.0145685
745.787	0.0145079
745.865	0.0144682
745.943	0.0145191
746.021	0.0145357
746.099	0.0145267
746.177	0.0143864
746.255	0.0145786
746.333	0.0144091
746.412	0.0144372
746.490	0.0146158
746.568	0.0145194
746.646	0.0145338
746.724	0.0145094
746.802	0.0144778
746.880	0.0144505
746.958	0.0146385
747.037	0.0145147
747.115	0.0146182
747.193	0.0146957
747.271	0.0145648
747.349	0.0145535
747.427	0.0146768
747.505	0.0145878
747.583	0.0146272
747.662	0.0147072
747.740	0.0147833
747.818	0.0147062
747.896	0.0146864
747.974	0.0145838
748.052	0.0146626
748.130	0.0147049
748.208	0.0146198
748.287	0.0146433
748.365	0.0146995
748.443	0.0146313
748.521	0.0146458
748.599	0.0146525
748.677	0.0146210
748.755	0.0147061
748.833	0.0146556
748.912	0.0146609
748.990	0.0145431
749.068	0.0145535
749.146	0.0146592
749.224	0.0145402
749.302	0.0147005
749.380	0.0146407
749.458	0.0146016
749.537	0.0145882
749.615	0.0147198
749.693	0.0146961
749.771	0.0146214
749.849	0.0146413
749.927	0.0146690
750.005	0.0146767
750.083	0.0146214
750.162	0.0146719
750.240	0.0144984
750.318	0.0145860
750.396	0.0146742
750.474	0.0146932
750.552	0.0145490
750.630	0.0145733
750.708	0.0146056
750.787	0.0145968
750.865	0.0145300
750.943	0.0146973
751.021	0.0145620
751.099	0.0147173
751.177	0.0147169
751.255	0.0146091
751.333	0.0146722
751.412	0.0146298
751.490	0.0145471
751.568	0.0145391
751.646	0.0146209
751.724	0.0146941
751.802	0.0145878
751.880	0.0144482
751.958	0.0145399
752.037	0.0144090
752.115	0.0145879
752.193	0.0146183
752.271	0.0145773
752.349	0.0146824
752.427	0.0146730
752.505	0.0145811
752.583	0.0145847
752.662	0.0147690
752.740	0.0146562
752.818	0.0146368
752.896	0.0146235
752.974	0.0146945
753.052	0.0145561
753.130	0.0146831
753.208	0.0147208
753.287	0.0147960
753.365	0.0147491
753.443	0.0148215
753.521	0.0146102
753.599	0.0147156
753.677	0.0147427
753.755	0.0146661
753.833	0.0145513
753.912	0.0145944
753.990	0.0145463
754.068	0.0145113
754.146	0.0144841
754.224	0.0144566
754.302	0.0146159
754.380	0.0145726
754.458	0.0145191
754.537	0.0144852
754.615	0.0145357
754.693	0.0146732
754.771	0.0145451
754.849	0.0144914
754.927	0.0144382
755.005	0.0146023
755.083	0.0145559
755.162	0.0146535
755.240	0.0146072
755.318	0.0147205
755.396	0.0147071
755.474	0.0147213
755.552	0.0145396
755.630	0.0147321
755.708	0.0146226
755.787	0.0145899
755.865	0.0146053
755.943	0.0145361
756.021	0.0146906
756.099	0.0145866
756.177	0.0147154
756.255	0.0145263
756.333	0.0145743
756.412	0.0146741
756.490	0.0143455
756.568	0.0145959
756.646	0.0146508
756.724	0.0145233
756.802	0.0144984
756.880	0.0146133
756.958	0.0146494
757.037	0.0145692
757.115	0.0146152
757.193	0.0145808
757.271	0.0147406
757.349	0.0146532
757.427	0.0145388
757.505	0.0144540
757.583	0.0145972
757.662	0.0145750
757.740	0.0145901
757.818	0.0147157
757.896	0.0148117
757.974	0.0145852
758.052	0.0144980
758.130	0.0145951
758.208	0.0144947
758.287	0.0145397
758.365	0.0145480
758.443	0.0147487
758.521	0.0144989
758.599	0.0144810
758.677	0.0146288
758.755	0.0145078
758.833	0.0145455
758.912	0.0146541
758.990	0.0145578
759.068	0.0146200
759.146	0.0146172
759.224	0.0145718
759.302	0.0146471
759.380	0.0145837
759.458	0.0146144
759.537	0.0146243
759.615	0.0145385
759.693	0.0147042
759.771	0.0149184
759.849	0.0147511
759.927	0.0145557
760.005	0.0146310
760.083	0.0146529
760.162	0.0146638
760.240	0.0147128
760.318	0.0146700
760.396	0.0147707
760.474	0.0146223
760.552	0.0145555
760.630	0.0146855
760.708	0.0146272
760.787	0.0145370
760.865	0.0145387
760.943	0.0147060
761.021	0.0145818
761.099	0.0145067
761.177	0.0144884
761.255	0.0145799
761.333	0.0145945
761.412	0.0145496
761.490	0.0143298
761.568	0.0145572
761.646	0.0145139
761.724	0.0144126
761.802	0.0145801
761.880	0.0146741
761.958	0.0147151
762.037	0.0147062
762.115	0.0146788
762.193	0.0145925
762.271	0.0146809
762.349	0.0146691
762.427	0.0146797
762.505	0.0147231
762.583	0.0146985
762.662	0.0147044
762.740	0.0147424
762.818	0.0147106
762.896	0.0147230
762.974	0.0147105
763.052	0.0146687
763.130	0.0146349
763.208	0.0146719
763.287	0.0147436
763.365	0.0145998
763.443	0.0146407
763.521	0.0145916
763.599	0.0145516
763.677	0.0145733
763.755	0.0146917
763.833	0.0145612
763.912	0.0144819
763.990	0.0144424
764.068	0.0146140
764.146	0.0146970
764.224	0.0147575
764.302	0.0145923
764.380	0.0146541
764.458	0.0145667
764.537	0.0146912
764.615	0.0146745
764.693	0.0147751
