05/04/2022	21:35:34	Ver.	4.1	UNKNOWN
Optical Delay	678.996401	Delta X		0.078125	Sweeps	1	Scan Rate	0/0
Coordinates	Axis 1	NaN	Axis 2	NaN	Axis 3	NaN	Axis 4	NaN	Axis 5	NaN	Axis 6	0.000000
TX Power	0.000000	RX Power	0.000000

678.996	0.0144762
679.075	0.0145416
679.153	0.0146236
679.231	0.0145943
679.309	0.0144489
679.387	0.0145146
679.465	0.0145914
679.543	0.0145365
679.621	0.0145054
679.700	0.0144531
679.778	0.0144139
679.856	0.0145373
679.934	0.0145058
680.012	0.0143754
680.090	0.0145118
680.168	0.0144420
680.246	0.0143789
680.325	0.0144814
680.403	0.0145422
680.481	0.0144538
680.559	0.0146147
680.637	0.0145700
680.715	0.0145011
680.793	0.0145384
680.871	0.0145467
680.950	0.0145116
681.028	0.0144189
681.106	0.0146344
681.184	0.0144853
681.262	0.0143388
681.340	0.0143356
681.418	0.0143144
681.496	0.0142418
681.575	0.0143967
681.653	0.0145222
681.731	0.0145531
681.809	0.0145403
681.887	0.0145654
681.965	0.0144360
682.043	0.0145975
682.121	0.0144495
682.200	0.0144210
682.278	0.0144978
682.356	0.0145018
682.434	0.0143838
682.512	0.0144509
682.590	0.0145289
682.668	0.0145525
682.746	0.0146435
682.825	0.0145701
682.903	0.0145917
682.981	0.0145910
683.059	0.0145672
683.137	0.0145812
683.215	0.0146371
683.293	0.0143906
683.371	0.0143396
683.450	0.0143353
683.528	0.0143366
683.606	0.0143482
683.684	0.0143938
683.762	0.0144203
683.840	0.0144119
683.918	0.0143642
683.996	0.0144501
684.075	0.0144572
684.153	0.0143925
684.231	0.0144678
684.309	0.0145023
684.387	0.0144114
684.465	0.0144243
684.543	0.0144973
684.621	0.0146095
684.700	0.0145654
684.778	0.0147347
684.856	0.0148698
684.934	0.0147931
685.012	0.0148865
685.090	0.0148586
685.168	0.0146666
685.246	0.0146881
685.325	0.0147162
685.403	0.0144973
685.481	0.0146162
685.559	0.0144373
685.637	0.0143838
685.715	0.0144594
685.793	0.0144169
685.871	0.0143640
685.950	0.0144296
686.028	0.0142950
686.106	0.0142429
686.184	0.0142816
686.262	0.0141445
686.340	0.0140368
686.418	0.0142342
686.496	0.0142697
686.575	0.0142618
686.653	0.0143406
686.731	0.0145218
686.809	0.0145781
686.887	0.0145678
686.965	0.0146038
687.043	0.0145428
687.121	0.0145425
687.200	0.0146486
687.278	0.0148093
687.356	0.0146620
687.434	0.0147159
687.512	0.0148284
687.590	0.0147825
687.668	0.0148669
687.746	0.0149011
687.825	0.0148707
687.903	0.0147941
687.981	0.0146728
688.059	0.0146943
688.137	0.0146819
688.215	0.0146929
688.293	0.0145084
688.371	0.0142931
688.450	0.0143847
688.528	0.0145521
688.606	0.0144627
688.684	0.0143898
688.762	0.0146735
688.840	0.0144775
688.918	0.0144369
688.996	0.0145431
689.075	0.0144800
689.153	0.0143184
689.231	0.0143978
689.309	0.0144069
689.387	0.0143247
689.465	0.0143237
689.543	0.0144164
689.621	0.0144557
689.700	0.0145562
689.778	0.0145103
689.856	0.0145280
689.934	0.0145491
690.012	0.0146410
690.090	0.0145872
690.168	0.0147489
690.246	0.0147048
690.325	0.0146515
690.403	0.0146869
690.481	0.0148153
690.559	0.0148417
690.637	0.0149158
690.715	0.0150116
690.793	0.0148679
690.871	0.0147883
690.950	0.0149137
691.028	0.0148505
691.106	0.0146604
691.184	0.0146231
691.262	0.0145631
691.340	0.0144740
691.418	0.0145391
691.496	0.0145503
691.575	0.0144656
691.653	0.0146009
691.731	0.0145104
691.809	0.0145287
691.887	0.0144366
691.965	0.0146254
692.043	0.0145103
692.121	0.0143880
692.200	0.0142797
692.278	0.0142670
692.356	0.0142071
692.434	0.0142728
692.512	0.0142120
692.590	0.0142455
692.668	0.0141894
692.746	0.0142716
692.825	0.0143498
692.903	0.0143005
692.981	0.0142699
693.059	0.0144094
693.137	0.0143601
693.215	0.0145038
693.293	0.0145874
693.371	0.0146129
693.450	0.0147127
693.528	0.0148773
693.606	0.0147196
693.684	0.0147489
693.762	0.0149044
693.840	0.0150223
693.918	0.0148093
693.996	0.0146963
694.075	0.0147293
694.153	0.0146120
694.231	0.0145187
694.309	0.0144498
694.387	0.0145113
694.465	0.0145612
694.543	0.0146440
694.621	0.0147798
694.700	0.0147523
694.778	0.0148814
694.856	0.0149330
694.934	0.0148493
695.012	0.0147725
695.090	0.0147253
695.168	0.0146012
695.246	0.0146262
695.325	0.0143759
695.403	0.0141366
695.481	0.0140256
695.559	0.0138791
695.637	0.0139548
695.715	0.0139277
695.793	0.0139383
695.871	0.0138830
695.950	0.0140809
696.028	0.0139632
696.106	0.0140168
696.184	0.0142186
696.262	0.0141785
696.340	0.0142350
696.418	0.0142713
696.496	0.0142766
696.575	0.0142828
696.653	0.0145197
696.731	0.0145497
696.809	0.0145515
696.887	0.0145984
696.965	0.0145705
697.043	0.0145474
697.121	0.0145441
697.200	0.0145416
697.278	0.0146386
697.356	0.0147186
697.434	0.0147794
697.512	0.0149963
697.590	0.0149840
697.668	0.0149858
697.746	0.0150430
697.825	0.0151756
697.903	0.0151392
697.981	0.0150015
698.059	0.0150316
698.137	0.0150363
698.215	0.0146975
698.293	0.0147371
698.371	0.0144347
698.450	0.0142036
698.528	0.0142855
698.606	0.0141566
698.684	0.0140451
698.762	0.0139979
698.840	0.0138990
698.918	0.0138251
698.996	0.0138695
699.075	0.0140814
699.153	0.0139730
699.231	0.0140068
699.309	0.0140601
699.387	0.0142133
699.465	0.0142121
699.543	0.0143784
699.621	0.0143983
699.700	0.0144902
699.778	0.0146532
699.856	0.0145838
699.934	0.0145377
700.012	0.0146608
700.090	0.0146791
700.168	0.0146066
700.246	0.0146114
700.325	0.0144756
700.403	0.0144138
700.481	0.0145100
700.559	0.0144818
700.637	0.0144556
700.715	0.0145738
700.793	0.0145714
700.871	0.0147086
700.950	0.0147482
701.028	0.0150230
701.106	0.0150047
701.184	0.0148523
701.262	0.0149543
701.340	0.0148958
701.418	0.0148180
701.496	0.0146204
701.575	0.0144704
701.653	0.0144210
701.731	0.0144144
701.809	0.0142854
701.887	0.0140948
701.965	0.0141360
702.043	0.0141074
702.121	0.0140287
702.200	0.0139735
702.278	0.0140679
702.356	0.0142025
702.434	0.0141489
702.512	0.0142242
702.590	0.0142092
702.668	0.0143526
702.746	0.0141912
702.825	0.0142022
702.903	0.0141753
702.981	0.0142078
703.059	0.0141344
703.137	0.0141750
703.215	0.0141257
703.293	0.0139799
703.371	0.0140669
703.450	0.0140343
703.528	0.0140322
703.606	0.0142515
703.684	0.0144157
703.762	0.0144788
703.840	0.0146933
703.918	0.0146138
703.996	0.0148769
704.075	0.0150024
704.153	0.0150972
704.231	0.0150461
704.309	0.0151570
704.387	0.0151418
704.465	0.0152386
704.543	0.0151727
704.621	0.0150205
704.700	0.0148850
704.778	0.0148494
704.856	0.0147353
704.934	0.0145979
705.012	0.0144434
705.090	0.0141714
705.168	0.0141544
705.246	0.0140891
705.325	0.0140247
705.403	0.0140012
705.481	0.0140797
705.559	0.0140485
705.637	0.0140997
705.715	0.0140902
705.793	0.0141621
705.871	0.0141881
705.950	0.0142644
706.028	0.0142475
706.106	0.0143301
706.184	0.0143935
706.262	0.0143356
706.340	0.0142469
706.418	0.0141535
706.496	0.0142213
706.575	0.0143387
706.653	0.0143318
706.731	0.0144129
706.809	0.0143706
706.887	0.0143460
706.965	0.0143200
707.043	0.0145679
707.121	0.0145700
707.200	0.0146322
707.278	0.0147202
707.356	0.0147920
707.434	0.0148754
707.512	0.0150364
707.590	0.0149388
707.668	0.0149004
707.746	0.0148891
707.825	0.0149980
707.903	0.0148903
707.981	0.0148478
708.059	0.0146107
708.137	0.0144751
708.215	0.0142555
708.293	0.0142540
708.371	0.0143924
708.450	0.0142999
708.528	0.0143513
708.606	0.0144144
708.684	0.0143438
708.762	0.0142943
708.840	0.0143647
708.918	0.0145096
708.996	0.0144262
709.075	0.0145169
709.153	0.0143139
709.231	0.0144729
709.309	0.0144557
709.387	0.0144258
709.465	0.0143787
709.543	0.0142217
709.621	0.0142139
709.700	0.0142130
709.778	0.0140939
709.856	0.0140907
709.934	0.0139690
710.012	0.0139626
710.090	0.0140501
710.168	0.0141993
710.246	0.0139304
710.325	0.0142457
710.403	0.0141859
710.481	0.0142763
710.559	0.0146078
710.637	0.0145884
710.715	0.0146118
710.793	0.0146230
710.871	0.0147161
710.950	0.0147874
711.028	0.0148982
711.106	0.0150201
711.184	0.0149560
711.262	0.0150306
711.340	0.0150079
711.418	0.0149281
711.496	0.0148540
711.575	0.0148411
711.653	0.0148683
711.731	0.0147262
711.809	0.0147086
711.887	0.0146423
711.965	0.0147178
712.043	0.0145443
712.121	0.0144401
712.200	0.0143880
712.278	0.0144048
712.356	0.0143008
712.434	0.0143283
712.512	0.0143040
712.590	0.0141859
712.668	0.0141463
712.746	0.0141177
712.825	0.0141293
712.903	0.0141893
712.981	0.0140703
713.059	0.0141146
713.137	0.0141535
713.215	0.0142208
713.293	0.0142457
713.371	0.0142703
713.450	0.0143993
713.528	0.0144971
713.606	0.0144914
713.684	0.0146470
713.762	0.0146252
713.840	0.0146765
713.918	0.0148273
713.996	0.0149736
714.075	0.0150493
714.153	0.0149043
714.231	0.0148521
714.309	0.0149852
714.387	0.0149291
714.465	0.0148757
714.543	0.0148249
714.621	0.0146967
714.700	0.0148438
714.778	0.0147847
714.856	0.0145165
714.934	0.0144134
715.012	0.0144918
715.090	0.0145253
715.168	0.0144752
715.246	0.0143663
715.325	0.0143697
715.403	0.0144740
715.481	0.0142418
715.559	0.0144330
715.637	0.0145724
715.715	0.0143450
715.793	0.0143679
715.871	0.0144510
715.950	0.0144125
716.028	0.0145630
716.106	0.0145815
716.184	0.0145090
716.262	0.0145036
716.340	0.0146061
716.418	0.0146093
716.496	0.0145238
716.575	0.0146114
716.653	0.0145345
716.731	0.0145878
716.809	0.0144525
716.887	0.0144217
716.965	0.0143616
717.043	0.0146552
717.121	0.0144939
717.200	0.0144435
717.278	0.0144485
717.356	0.0144648
717.434	0.0144300
717.512	0.0144182
717.590	0.0144527
717.668	0.0144423
717.746	0.0145396
717.825	0.0144795
717.903	0.0143954
717.981	0.0146496
718.059	0.0146215
718.137	0.0145846
718.215	0.0147150
718.293	0.0147984
718.371	0.0147425
718.450	0.0146817
718.528	0.0146809
718.606	0.0147621
718.684	0.0148045
718.762	0.0148224
718.840	0.0147364
718.918	0.0148190
718.996	0.0146220
719.075	0.0147074
719.153	0.0144527
719.231	0.0145541
719.309	0.0145210
719.387	0.0143291
719.465	0.0144242
719.543	0.0142230
719.621	0.0142148
719.700	0.0141316
719.778	0.0140118
719.856	0.0141439
719.934	0.0141371
720.012	0.0141096
720.090	0.0141460
720.168	0.0142382
720.246	0.0141860
720.325	0.0142433
720.403	0.0142659
720.481	0.0145846
720.559	0.0145382
720.637	0.0144036
720.715	0.0145434
720.793	0.0146215
720.871	0.0146458
720.950	0.0147179
721.028	0.0145675
721.106	0.0146338
721.184	0.0146935
721.262	0.0146766
721.340	0.0148331
721.418	0.0145508
721.496	0.0146295
721.575	0.0148159
721.653	0.0146559
721.731	0.0146405
721.809	0.0145971
721.887	0.0144903
721.965	0.0145083
722.043	0.0143355
722.121	0.0144498
722.200	0.0144165
722.278	0.0142426
722.356	0.0142043
722.434	0.0144337
722.512	0.0142363
722.590	0.0143563
722.668	0.0142823
722.746	0.0142943
722.825	0.0143520
722.903	0.0144800
722.981	0.0145676
723.059	0.0145102
723.137	0.0144289
723.215	0.0144410
723.293	0.0144427
723.371	0.0146127
723.450	0.0144753
723.528	0.0145416
723.606	0.0145878
723.684	0.0145333
723.762	0.0145115
723.840	0.0145663
723.918	0.0144972
723.996	0.0145619
724.075	0.0144991
724.153	0.0144151
724.231	0.0145633
724.309	0.0145100
724.387	0.0144404
724.465	0.0143774
724.543	0.0143667
724.621	0.0146083
724.700	0.0145139
724.778	0.0146122
724.856	0.0145603
724.934	0.0146506
725.012	0.0145965
725.090	0.0145214
725.168	0.0145979
725.246	0.0145357
725.325	0.0144774
725.403	0.0145378
725.481	0.0146465
725.559	0.0146980
725.637	0.0145320
725.715	0.0145391
725.793	0.0146716
725.871	0.0145854
725.950	0.0145619
726.028	0.0146054
726.106	0.0144485
726.184	0.0144289
726.262	0.0145066
726.340	0.0143813
726.418	0.0143591
726.496	0.0143050
726.575	0.0142516
726.653	0.0143194
726.731	0.0142537
726.809	0.0142358
726.887	0.0142770
726.965	0.0141322
727.043	0.0142053
727.121	0.0144026
727.200	0.0144929
727.278	0.0143354
727.356	0.0145737
727.434	0.0145689
727.512	0.0145738
727.590	0.0145348
727.668	0.0146061
727.746	0.0145902
727.825	0.0146043
727.903	0.0145757
727.981	0.0144547
728.059	0.0146410
728.137	0.0146425
728.215	0.0144032
728.293	0.0147018
728.371	0.0145639
728.450	0.0145975
728.528	0.0144874
728.606	0.0145769
728.684	0.0144934
728.762	0.0145696
728.840	0.0146089
728.918	0.0143720
728.996	0.0144939
729.075	0.0143980
729.153	0.0142789
729.231	0.0143799
729.309	0.0145006
729.387	0.0144477
729.465	0.0143233
729.543	0.0142851
729.621	0.0144741
729.700	0.0144622
729.778	0.0143649
729.856	0.0144028
729.934	0.0143645
730.012	0.0144424
730.090	0.0145257
730.168	0.0144620
730.246	0.0144217
730.325	0.0144965
730.403	0.0144495
730.481	0.0144985
730.559	0.0144187
730.637	0.0145399
730.715	0.0145737
730.793	0.0142316
730.871	0.0143770
730.950	0.0144359
731.028	0.0144100
731.106	0.0146019
731.184	0.0144057
731.262	0.0144302
731.340	0.0144479
731.418	0.0143916
731.496	0.0144071
731.575	0.0143370
731.653	0.0144092
731.731	0.0144434
731.809	0.0144855
731.887	0.0144514
731.965	0.0145717
732.043	0.0145896
732.121	0.0145466
732.200	0.0145350
732.278	0.0145949
732.356	0.0145509
732.434	0.0147485
732.512	0.0145763
732.590	0.0146024
732.668	0.0146113
732.746	0.0145914
732.825	0.0146730
732.903	0.0146078
732.981	0.0143597
733.059	0.0144103
733.137	0.0145356
733.215	0.0144071
733.293	0.0143891
733.371	0.0144937
733.450	0.0143449
733.528	0.0143075
733.606	0.0143100
733.684	0.0142840
733.762	0.0143331
733.840	0.0142946
733.918	0.0144571
733.996	0.0142442
734.075	0.0142503
734.153	0.0143966
734.231	0.0143739
734.309	0.0144330
734.387	0.0144946
734.465	0.0144356
734.543	0.0146931
734.621	0.0147028
734.700	0.0145075
734.778	0.0146467
734.856	0.0147716
734.934	0.0147569
735.012	0.0147379
735.090	0.0147827
735.168	0.0147314
735.246	0.0147915
735.325	0.0147808
735.403	0.0146767
735.481	0.0147140
735.559	0.0145380
735.637	0.0145444
735.715	0.0145021
735.793	0.0144306
735.871	0.0144261
735.950	0.0144135
736.028	0.0144525
736.106	0.0143684
736.184	0.0143466
736.262	0.0143819
736.340	0.0143211
736.418	0.0142683
736.496	0.0143872
736.575	0.0144303
736.653	0.0144864
736.731	0.0144468
736.809	0.0144624
736.887	0.0144987
736.965	0.0144612
737.043	0.0146159
737.121	0.0146513
737.200	0.0146484
737.278	0.0146352
737.356	0.0146144
737.434	0.0146623
737.512	0.0145920
737.590	0.0146323
737.668	0.0147012
737.746	0.0146300
737.825	0.0146183
737.903	0.0145634
737.981	0.0146935
738.059	0.0145754
738.137	0.0144578
738.215	0.0144444
738.293	0.0146164
738.371	0.0145393
738.450	0.0143922
738.528	0.0144929
738.606	0.0144105
738.684	0.0142541
738.762	0.0145372
738.840	0.0144602
738.918	0.0145167
738.996	0.0144166
739.075	0.0144106
739.153	0.0144836
739.231	0.0145259
739.309	0.0144218
739.387	0.0144752
739.465	0.0146531
739.543	0.0144775
739.621	0.0146518
739.700	0.0145586
739.778	0.0145805
739.856	0.0146149
739.934	0.0147248
740.012	0.0144089
740.090	0.0145904
740.168	0.0145502
740.246	0.0144936
740.325	0.0145369
740.403	0.0143927
740.481	0.0143555
740.559	0.0143411
740.637	0.0144022
740.715	0.0143680
740.793	0.0144307
740.871	0.0144363
740.950	0.0144094
741.028	0.0144190
741.106	0.0143412
741.184	0.0145296
741.262	0.0145579
741.340	0.0143616
741.418	0.0145434
741.496	0.0144825
741.575	0.0144689
741.653	0.0146040
741.731	0.0145127
741.809	0.0144966
741.887	0.0145760
741.965	0.0145060
742.043	0.0145938
742.121	0.0147173
742.200	0.0145776
742.278	0.0146189
742.356	0.0148357
742.434	0.0146610
742.512	0.0146688
742.590	0.0145578
742.668	0.0145560
742.746	0.0145903
742.825	0.0145366
742.903	0.0144923
742.981	0.0145393
743.059	0.0143881
743.137	0.0143611
743.215	0.0143191
743.293	0.0145101
743.371	0.0143816
743.450	0.0142757
743.528	0.0143157
743.606	0.0144608
743.684	0.0144060
743.762	0.0142334
743.840	0.0144138
743.918	0.0143661
743.996	0.0144370
744.075	0.0144589
744.153	0.0144995
744.231	0.0145872
744.309	0.0147084
744.387	0.0145868
744.465	0.0144401
744.543	0.0145325
744.621	0.0147363
744.700	0.0146667
744.778	0.0145741
744.856	0.0147704
744.934	0.0145750
745.012	0.0145449
745.090	0.0147563
745.168	0.0147517
745.246	0.0146159
745.325	0.0145855
745.403	0.0145188
745.481	0.0146033
745.559	0.0145345
745.637	0.0144875
745.715	0.0144310
745.793	0.0144903
745.871	0.0145313
745.950	0.0145533
746.028	0.0144720
746.106	0.0145889
746.184	0.0145449
746.262	0.0145179
746.340	0.0143299
746.418	0.0145134
746.496	0.0145283
746.575	0.0144164
746.653	0.0144150
746.731	0.0144386
746.809	0.0144808
746.887	0.0144172
746.965	0.0145002
747.043	0.0146146
747.121	0.0145036
747.200	0.0145145
747.278	0.0145274
747.356	0.0144246
747.434	0.0144678
747.512	0.0146123
747.590	0.0144391
747.668	0.0145150
747.746	0.0143439
747.825	0.0143905
747.903	0.0145573
747.981	0.0144528
748.059	0.0145273
748.137	0.0145696
748.215	0.0143965
748.293	0.0144398
748.371	0.0144786
748.450	0.0145354
748.528	0.0144296
748.606	0.0144860
748.684	0.0146590
748.762	0.0145702
748.840	0.0145951
748.918	0.0145827
748.996	0.0146008
749.075	0.0144982
749.153	0.0145013
749.231	0.0145708
749.309	0.0145322
749.387	0.0144722
749.465	0.0147219
749.543	0.0147329
749.621	0.0145998
749.700	0.0145265
749.778	0.0146196
749.856	0.0145854
749.934	0.0145747
750.012	0.0146186
750.090	0.0144754
750.168	0.0144225
750.246	0.0145724
750.325	0.0145467
750.403	0.0145165
750.481	0.0145124
750.559	0.0144428
750.637	0.0144076
750.715	0.0144896
750.793	0.0145345
750.871	0.0143616
750.950	0.0143910
751.028	0.0143663
751.106	0.0143449
751.184	0.0145615
751.262	0.0145631
751.340	0.0144501
751.418	0.0144767
751.496	0.0145731
751.575	0.0145243
751.653	0.0145131
751.731	0.0145575
751.809	0.0145313
751.887	0.0146246
751.965	0.0146761
752.043	0.0145349
752.121	0.0145704
752.200	0.0145151
752.278	0.0145852
752.356	0.0146974
752.434	0.0145732
752.512	0.0144817
752.590	0.0145977
752.668	0.0146916
752.746	0.0145786
752.825	0.0145786
752.903	0.0145582
752.981	0.0144650
753.059	0.0144457
753.137	0.0144124
753.215	0.0145033
753.293	0.0144916
753.371	0.0144521
753.450	0.0144602
753.528	0.0144834
753.606	0.0144288
753.684	0.0145709
753.762	0.0145251
753.840	0.0145491
753.918	0.0145084
753.996	0.0144901
754.075	0.0145242
754.153	0.0144389
754.231	0.0144582
754.309	0.0145779
754.387	0.0144751
754.465	0.0144527
754.543	0.0143959
754.621	0.0146266
754.700	0.0144958
754.778	0.0144941
754.856	0.0144942
754.934	0.0145278
755.012	0.0146355
755.090	0.0146564
755.168	0.0144772
755.246	0.0144882
755.325	0.0145022
755.403	0.0145602
755.481	0.0144012
755.559	0.0145708
755.637	0.0146660
755.715	0.0145881
755.793	0.0145506
755.871	0.0145766
755.950	0.0147126
756.028	0.0146342
756.106	0.0145773
756.184	0.0144610
756.262	0.0146753
756.340	0.0145683
756.418	0.0145312
756.496	0.0146606
756.575	0.0145904
756.653	0.0144534
756.731	0.0143556
756.809	0.0145761
756.887	0.0144780
756.965	0.0144893
757.043	0.0144553
757.121	0.0144321
757.200	0.0145727
757.278	0.0145271
757.356	0.0144624
757.434	0.0144788
757.512	0.0144317
757.590	0.0145034
757.668	0.0145036
757.746	0.0145631
757.825	0.0145051
757.903	0.0145811
757.981	0.0145497
758.059	0.0146116
758.137	0.0146212
758.215	0.0145694
758.293	0.0145403
758.371	0.0144943
758.450	0.0145847
758.528	0.0145403
758.606	0.0145307
758.684	0.0146868
758.762	0.0145545
758.840	0.0145824
758.918	0.0146912
758.996	0.0145733
759.075	0.0146380
759.153	0.0144978
759.231	0.0145899
759.309	0.0146627
759.387	0.0146191
759.465	0.0145656
759.543	0.0146196
759.621	0.0145904
759.700	0.0145189
759.778	0.0145393
759.856	0.0144565
759.934	0.0146849
760.012	0.0146008
760.090	0.0145326
760.168	0.0144290
760.246	0.0147040
760.325	0.0146200
760.403	0.0145827
760.481	0.0146841
760.559	0.0145793
760.637	0.0144531
760.715	0.0146101
760.793	0.0144813
760.871	0.0145615
760.950	0.0145366
761.028	0.0146136
761.106	0.0144874
761.184	0.0146168
761.262	0.0145219
761.340	0.0145078
761.418	0.0145181
761.496	0.0147702
761.575	0.0147564
761.653	0.0147120
761.731	0.0144965
761.809	0.0145697
761.887	0.0146718
761.965	0.0144264
762.043	0.0147211
762.121	0.0146925
762.200	0.0145424
762.278	0.0145844
762.356	0.0146124
762.434	0.0144894
762.512	0.0146098
762.590	0.0144994
762.668	0.0146267
762.746	0.0146764
762.825	0.0146400
762.903	0.0145441
762.981	0.0146327
763.059	0.0146312
763.137	0.0146246
763.215	0.0146086
763.293	0.0146120
763.371	0.0145632
763.450	0.0145110
763.528	0.0146609
763.606	0.0145700
763.684	0.0146940
763.762	0.0145313
763.840	0.0145842
763.918	0.0147560
763.996	0.0144998
764.075	0.0145213
764.153	0.0146149
764.231	0.0145401
764.309	0.0145332
764.387	0.0145202
764.465	0.0144105
764.543	0.0145370
764.621	0.0146643
764.700	0.0145396
