05/04/2022	21:36:49	Ver.	4.1	UNKNOWN
Optical Delay	678.996401	Delta X		0.078125	Sweeps	1	Scan Rate	0/0
Coordinates	Axis 1	NaN	Axis 2	NaN	Axis 3	NaN	Axis 4	NaN	Axis 5	NaN	Axis 6	0.000000
TX Power	0.000000	RX Power	0.000000

678.996	0.0148956
679.075	0.0149207
679.153	0.0147111
679.231	0.0149060
679.309	0.0147941
679.387	0.0147009
679.465	0.0147673
679.543	0.0147836
679.621	0.0147251
679.700	0.0146984
679.778	0.0146925
679.856	0.0147596
679.934	0.0148475
680.012	0.0149149
680.090	0.0148846
680.168	0.0148747
680.246	0.0149813
680.325	0.0149160
680.403	0.0150184
680.481	0.0151466
680.559	0.0149782
680.637	0.0149734
680.715	0.0148904
680.793	0.0148650
680.871	0.0147009
680.950	0.0147318
681.028	0.0145508
681.106	0.0145979
681.184	0.0143835
681.262	0.0144411
681.340	0.0145428
681.418	0.0147766
681.496	0.0148873
681.575	0.0148994
681.653	0.0148890
681.731	0.0151560
681.809	0.0152278
681.887	0.0153770
681.965	0.0153594
682.043	0.0151749
682.121	0.0153424
682.200	0.0150271
682.278	0.0148940
682.356	0.0148584
682.434	0.0146400
682.512	0.0147474
682.590	0.0144970
682.668	0.0146216
682.746	0.0148012
682.825	0.0148029
682.903	0.0149049
682.981	0.0148225
683.059	0.0150387
683.137	0.0150133
683.215	0.0149902
683.293	0.0147859
683.371	0.0147296
683.450	0.0146867
683.528	0.0144186
683.606	0.0145219
683.684	0.0144977
683.762	0.0145799
683.840	0.0145104
683.918	0.0143452
683.996	0.0145456
684.075	0.0148102
684.153	0.0149618
684.231	0.0149622
684.309	0.0151972
684.387	0.0153515
684.465	0.0153610
684.543	0.0156245
684.621	0.0156942
684.700	0.0157789
684.778	0.0155905
684.856	0.0155362
684.934	0.0153695
685.012	0.0152228
685.090	0.0150176
685.168	0.0148522
685.246	0.0148911
685.325	0.0147054
685.403	0.0145844
685.481	0.0144560
685.559	0.0144991
685.637	0.0146931
685.715	0.0146801
685.793	0.0145359
685.871	0.0147073
685.950	0.0146114
686.028	0.0145788
686.106	0.0145152
686.184	0.0143741
686.262	0.0144190
686.340	0.0143632
686.418	0.0143145
686.496	0.0143536
686.575	0.0143161
686.653	0.0144569
686.731	0.0146574
686.809	0.0148047
686.887	0.0149187
686.965	0.0151925
687.043	0.0153062
687.121	0.0155081
687.200	0.0154816
687.278	0.0156030
687.356	0.0156947
687.434	0.0157127
687.512	0.0157726
687.590	0.0156469
687.668	0.0156151
687.746	0.0153088
687.825	0.0154118
687.903	0.0152372
687.981	0.0150858
688.059	0.0149841
688.137	0.0146823
688.215	0.0145779
688.293	0.0144312
688.371	0.0143887
688.450	0.0144682
688.528	0.0145297
688.606	0.0143342
688.684	0.0142468
688.762	0.0144041
688.840	0.0145439
688.918	0.0146033
688.996	0.0145120
689.075	0.0143214
689.153	0.0145081
689.231	0.0145258
689.309	0.0143173
689.387	0.0143768
689.465	0.0144709
689.543	0.0144785
689.621	0.0144715
689.700	0.0145190
689.778	0.0146782
689.856	0.0148129
689.934	0.0149104
690.012	0.0150623
690.090	0.0152609
690.168	0.0154069
690.246	0.0155157
690.325	0.0156130
690.403	0.0156110
690.481	0.0155676
690.559	0.0158128
690.637	0.0159042
690.715	0.0156818
690.793	0.0154583
690.871	0.0153125
690.950	0.0151933
691.028	0.0149597
691.106	0.0145996
691.184	0.0143271
691.262	0.0141752
691.340	0.0140805
691.418	0.0139191
691.496	0.0139197
691.575	0.0140660
691.653	0.0141070
691.731	0.0140504
691.809	0.0142381
691.887	0.0145508
691.965	0.0145016
692.043	0.0146242
692.121	0.0146175
692.200	0.0145872
692.278	0.0144737
692.356	0.0143922
692.434	0.0143703
692.512	0.0143028
692.590	0.0142233
692.668	0.0143173
692.746	0.0144298
692.825	0.0144675
692.903	0.0146772
692.981	0.0149746
693.059	0.0151573
693.137	0.0154072
693.215	0.0158445
693.293	0.0158409
693.371	0.0159605
693.450	0.0159837
693.528	0.0159560
693.606	0.0158868
693.684	0.0157882
693.762	0.0155579
693.840	0.0152284
693.918	0.0150565
693.996	0.0147722
694.075	0.0145155
694.153	0.0143764
694.231	0.0141285
694.309	0.0141230
694.387	0.0142872
694.465	0.0143363
694.543	0.0141769
694.621	0.0142939
694.700	0.0145981
694.778	0.0145709
694.856	0.0145655
694.934	0.0145068
695.012	0.0146698
695.090	0.0146455
695.168	0.0145877
695.246	0.0143948
695.325	0.0144582
695.403	0.0145065
695.481	0.0143955
695.559	0.0143458
695.637	0.0142466
695.715	0.0141541
695.793	0.0140976
695.871	0.0140990
695.950	0.0143946
696.028	0.0145048
696.106	0.0146876
696.184	0.0148741
696.262	0.0149454
696.340	0.0151122
696.418	0.0153249
696.496	0.0153939
696.575	0.0153251
696.653	0.0153746
696.731	0.0152538
696.809	0.0153689
696.887	0.0152431
696.965	0.0151189
697.043	0.0150425
697.121	0.0150284
697.200	0.0148878
697.278	0.0149173
697.356	0.0149656
697.434	0.0148872
697.512	0.0150465
697.590	0.0151937
697.668	0.0151201
697.746	0.0150610
697.825	0.0150642
697.903	0.0149970
697.981	0.0151115
698.059	0.0151586
698.137	0.0149600
698.215	0.0148476
698.293	0.0148529
698.371	0.0146828
698.450	0.0144785
698.528	0.0143747
698.606	0.0141357
698.684	0.0139362
698.762	0.0137646
698.840	0.0137189
698.918	0.0136397
698.996	0.0137217
699.075	0.0139087
699.153	0.0139385
699.231	0.0140977
699.309	0.0144008
699.387	0.0145542
699.465	0.0149181
699.543	0.0152276
699.621	0.0154443
699.700	0.0156741
699.778	0.0157520
699.856	0.0157563
699.934	0.0157078
700.012	0.0156989
700.090	0.0155212
700.168	0.0153784
700.246	0.0151543
700.325	0.0150597
700.403	0.0148489
700.481	0.0147147
700.559	0.0147081
700.637	0.0146585
700.715	0.0146084
700.793	0.0144973
700.871	0.0147362
700.950	0.0149229
701.028	0.0149188
701.106	0.0149619
701.184	0.0151015
701.262	0.0152209
701.340	0.0152042
701.418	0.0152692
701.496	0.0151299
701.575	0.0148763
701.653	0.0147298
701.731	0.0144401
701.809	0.0144333
701.887	0.0141082
701.965	0.0139938
702.043	0.0139488
702.121	0.0137637
702.200	0.0139377
702.278	0.0139217
702.356	0.0141053
702.434	0.0141994
702.512	0.0143375
702.590	0.0145833
702.668	0.0148076
702.746	0.0148846
702.825	0.0147750
702.903	0.0148928
702.981	0.0150057
703.059	0.0150879
703.137	0.0151631
703.215	0.0150633
703.293	0.0150111
703.371	0.0149311
703.450	0.0150335
703.528	0.0150273
703.606	0.0150009
703.684	0.0148136
703.762	0.0149953
703.840	0.0152091
703.918	0.0151690
703.996	0.0152152
704.075	0.0152849
704.153	0.0153711
704.231	0.0154502
704.309	0.0153970
704.387	0.0155341
704.465	0.0154257
704.543	0.0153071
704.621	0.0152898
704.700	0.0151350
704.778	0.0150381
704.856	0.0148579
704.934	0.0146822
705.012	0.0143177
705.090	0.0141833
705.168	0.0140548
705.246	0.0140118
705.325	0.0139221
705.403	0.0140434
705.481	0.0141359
705.559	0.0140715
705.637	0.0143956
705.715	0.0143772
705.793	0.0146602
705.871	0.0147610
705.950	0.0149438
706.028	0.0150481
706.106	0.0151171
706.184	0.0153139
706.262	0.0151781
706.340	0.0152317
706.418	0.0153097
706.496	0.0152907
706.575	0.0150894
706.653	0.0150972
706.731	0.0151444
706.809	0.0150821
706.887	0.0150954
706.965	0.0149443
707.043	0.0149522
707.121	0.0149409
707.200	0.0150545
707.278	0.0151228
707.356	0.0151922
707.434	0.0150336
707.512	0.0152503
707.590	0.0152452
707.668	0.0151208
707.746	0.0151990
707.825	0.0151974
707.903	0.0151292
707.981	0.0148997
708.059	0.0147706
708.137	0.0147745
708.215	0.0146212
708.293	0.0146720
708.371	0.0145142
708.450	0.0145105
708.528	0.0146162
708.606	0.0146185
708.684	0.0144551
708.762	0.0143924
708.840	0.0146838
708.918	0.0148660
708.996	0.0148425
709.075	0.0148869
709.153	0.0148393
709.231	0.0150256
709.309	0.0149758
709.387	0.0150528
709.465	0.0151031
709.543	0.0150368
709.621	0.0149583
709.700	0.0149767
709.778	0.0150122
709.856	0.0148154
709.934	0.0147874
710.012	0.0147958
710.090	0.0146578
710.168	0.0146147
710.246	0.0145164
710.325	0.0146888
710.403	0.0148666
710.481	0.0146423
710.559	0.0145825
710.637	0.0146903
710.715	0.0148151
710.793	0.0147546
710.871	0.0146967
710.950	0.0148019
711.028	0.0149228
711.106	0.0149442
711.184	0.0149871
711.262	0.0150463
711.340	0.0150910
711.418	0.0151340
711.496	0.0151405
711.575	0.0151574
711.653	0.0153723
711.731	0.0152389
711.809	0.0152791
711.887	0.0151694
711.965	0.0151691
712.043	0.0149964
712.121	0.0150021
712.200	0.0148569
712.278	0.0147865
712.356	0.0147459
712.434	0.0146121
712.512	0.0146743
712.590	0.0146497
712.668	0.0146467
712.746	0.0145454
712.825	0.0145310
712.903	0.0146442
712.981	0.0144650
713.059	0.0143998
713.137	0.0145740
713.215	0.0145533
713.293	0.0145528
713.371	0.0144910
713.450	0.0144167
713.528	0.0145651
713.606	0.0146404
713.684	0.0145757
713.762	0.0147512
713.840	0.0148769
713.918	0.0150079
713.996	0.0151141
714.075	0.0151404
714.153	0.0152505
714.231	0.0153487
714.309	0.0153881
714.387	0.0154002
714.465	0.0153190
714.543	0.0151393
714.621	0.0151968
714.700	0.0151465
714.778	0.0150307
714.856	0.0149908
714.934	0.0149384
715.012	0.0148698
715.090	0.0147665
715.168	0.0145750
715.246	0.0145419
715.325	0.0145577
715.403	0.0144897
715.481	0.0144678
715.559	0.0145130
715.637	0.0146025
715.715	0.0144689
715.793	0.0145563
715.871	0.0144309
715.950	0.0145573
716.028	0.0146009
716.106	0.0145834
716.184	0.0144624
716.262	0.0145968
716.340	0.0147359
716.418	0.0146886
716.496	0.0147054
716.575	0.0148022
716.653	0.0148026
716.731	0.0148319
716.809	0.0149248
716.887	0.0148909
716.965	0.0148481
717.043	0.0149346
717.121	0.0148664
717.200	0.0148943
717.278	0.0148640
717.356	0.0147979
717.434	0.0148983
717.512	0.0148896
717.590	0.0146759
717.668	0.0145247
717.746	0.0146624
717.825	0.0146250
717.903	0.0145135
717.981	0.0145602
718.059	0.0147421
718.137	0.0147045
718.215	0.0145926
718.293	0.0147070
718.371	0.0148344
718.450	0.0149687
718.528	0.0149187
718.606	0.0149052
718.684	0.0148347
718.762	0.0149146
718.840	0.0150561
718.918	0.0148810
718.996	0.0149635
719.075	0.0149364
719.153	0.0148167
719.231	0.0149821
719.309	0.0148331
719.387	0.0148727
719.465	0.0148140
719.543	0.0146585
719.621	0.0147332
719.700	0.0146293
719.778	0.0146352
719.856	0.0146222
719.934	0.0145943
720.012	0.0145193
720.090	0.0144608
720.168	0.0147242
720.246	0.0145640
720.325	0.0145488
720.403	0.0146764
720.481	0.0147649
720.559	0.0146500
720.637	0.0146056
720.715	0.0146959
720.793	0.0147072
720.871	0.0146001
720.950	0.0146834
721.028	0.0145581
721.106	0.0146636
721.184	0.0148356
721.262	0.0149051
721.340	0.0149280
721.418	0.0147958
721.496	0.0147669
721.575	0.0150492
721.653	0.0149953
721.731	0.0150584
721.809	0.0149564
721.887	0.0151328
721.965	0.0150408
722.043	0.0149568
722.121	0.0149648
722.200	0.0148434
722.278	0.0148183
722.356	0.0147733
722.434	0.0145753
722.512	0.0144992
722.590	0.0145551
722.668	0.0144891
722.746	0.0145118
722.825	0.0144781
722.903	0.0146241
722.981	0.0146893
723.059	0.0145864
723.137	0.0146825
723.215	0.0147089
723.293	0.0146751
723.371	0.0149510
723.450	0.0149639
723.528	0.0150594
723.606	0.0148338
723.684	0.0149670
723.762	0.0149159
723.840	0.0148346
723.918	0.0147436
723.996	0.0147248
724.075	0.0147288
724.153	0.0147310
724.231	0.0147578
724.309	0.0148618
724.387	0.0148138
724.465	0.0148431
724.543	0.0149673
724.621	0.0149302
724.700	0.0150159
724.778	0.0149388
724.856	0.0150020
724.934	0.0148054
725.012	0.0148795
725.090	0.0148471
725.168	0.0147805
725.246	0.0148196
725.325	0.0147645
725.403	0.0147071
725.481	0.0147744
725.559	0.0146772
725.637	0.0146472
725.715	0.0148815
725.793	0.0149333
725.871	0.0148584
725.950	0.0147740
726.028	0.0149846
726.106	0.0150024
726.184	0.0150252
726.262	0.0147727
726.340	0.0150512
726.418	0.0148561
726.496	0.0148477
726.575	0.0148651
726.653	0.0146647
726.731	0.0146722
726.809	0.0147128
726.887	0.0145490
726.965	0.0145932
727.043	0.0145602
727.121	0.0144880
727.200	0.0147220
727.278	0.0145982
727.356	0.0147154
727.434	0.0147443
727.512	0.0145814
727.590	0.0145467
727.668	0.0147384
727.746	0.0147502
727.825	0.0150121
727.903	0.0148701
727.981	0.0149255
728.059	0.0150160
728.137	0.0150090
728.215	0.0149916
728.293	0.0150082
728.371	0.0151375
728.450	0.0149293
728.528	0.0149553
728.606	0.0150866
728.684	0.0151004
728.762	0.0151041
728.840	0.0150383
728.918	0.0149429
728.996	0.0151435
729.075	0.0149950
729.153	0.0148447
729.231	0.0147656
729.309	0.0147859
729.387	0.0148473
729.465	0.0147668
729.543	0.0147251
729.621	0.0147785
729.700	0.0146761
729.778	0.0147121
729.856	0.0146902
729.934	0.0146834
730.012	0.0146899
730.090	0.0148069
730.168	0.0147914
730.246	0.0148488
730.325	0.0148680
730.403	0.0148115
730.481	0.0149975
730.559	0.0151056
730.637	0.0150858
730.715	0.0152042
730.793	0.0149445
730.871	0.0149981
730.950	0.0150039
731.028	0.0151427
731.106	0.0148721
731.184	0.0148394
731.262	0.0149600
731.340	0.0150715
731.418	0.0148934
731.496	0.0147012
731.575	0.0147287
731.653	0.0147545
731.731	0.0148221
731.809	0.0146519
731.887	0.0145676
731.965	0.0146245
732.043	0.0147591
732.121	0.0148189
732.200	0.0147015
732.278	0.0149162
732.356	0.0149290
732.434	0.0149567
732.512	0.0149117
732.590	0.0149401
732.668	0.0150637
732.746	0.0149267
732.825	0.0150351
732.903	0.0149630
732.981	0.0148815
733.059	0.0149257
733.137	0.0148717
733.215	0.0149364
733.293	0.0148524
733.371	0.0147472
733.450	0.0147755
733.528	0.0147822
733.606	0.0146737
733.684	0.0146004
733.762	0.0147574
733.840	0.0147679
733.918	0.0145615
733.996	0.0146091
734.075	0.0147231
734.153	0.0147039
734.231	0.0147360
734.309	0.0147363
734.387	0.0148277
734.465	0.0148997
734.543	0.0148399
734.621	0.0148461
734.700	0.0148766
734.778	0.0148576
734.856	0.0151024
734.934	0.0149734
735.012	0.0150132
735.090	0.0148523
735.168	0.0149440
735.246	0.0150042
735.325	0.0150240
735.403	0.0147417
735.481	0.0149384
735.559	0.0149171
735.637	0.0149915
735.715	0.0149067
735.793	0.0149270
735.871	0.0148050
735.950	0.0145780
736.028	0.0145818
736.106	0.0148171
736.184	0.0146495
736.262	0.0147036
736.340	0.0146808
736.418	0.0147902
736.496	0.0146632
736.575	0.0147137
736.653	0.0147401
736.731	0.0147345
736.809	0.0147423
736.887	0.0148135
736.965	0.0148466
737.043	0.0148678
737.121	0.0149560
737.200	0.0151401
737.278	0.0149359
737.356	0.0150033
737.434	0.0148589
737.512	0.0148167
737.590	0.0149561
737.668	0.0150284
737.746	0.0149704
737.825	0.0148912
737.903	0.0148286
737.981	0.0149159
738.059	0.0148794
738.137	0.0149444
738.215	0.0148554
738.293	0.0148357
738.371	0.0148304
738.450	0.0148810
738.528	0.0147044
738.606	0.0147150
738.684	0.0146478
738.762	0.0147061
738.840	0.0147163
738.918	0.0145959
738.996	0.0146548
739.075	0.0147465
739.153	0.0147768
739.231	0.0147261
739.309	0.0148017
739.387	0.0147894
739.465	0.0148964
739.543	0.0149202
739.621	0.0148025
739.700	0.0148922
739.778	0.0149106
739.856	0.0149033
739.934	0.0149102
740.012	0.0146823
740.090	0.0148951
740.168	0.0148193
740.246	0.0147492
740.325	0.0145955
740.403	0.0146873
740.481	0.0148125
740.559	0.0147572
740.637	0.0147119
740.715	0.0147429
740.793	0.0146362
740.871	0.0145860
740.950	0.0147213
741.028	0.0148560
741.106	0.0145879
741.184	0.0146516
741.262	0.0148452
741.340	0.0147564
741.418	0.0147872
741.496	0.0147091
741.575	0.0148948
741.653	0.0147552
741.731	0.0148032
741.809	0.0149258
741.887	0.0149780
741.965	0.0148571
742.043	0.0147905
742.121	0.0150028
742.200	0.0150864
742.278	0.0149296
742.356	0.0149294
742.434	0.0148553
742.512	0.0149015
742.590	0.0148660
742.668	0.0148938
742.746	0.0148093
742.825	0.0149223
742.903	0.0147949
742.981	0.0148898
743.059	0.0148340
743.137	0.0147749
743.215	0.0147729
743.293	0.0148272
743.371	0.0148245
743.450	0.0149081
743.528	0.0147260
743.606	0.0145805
743.684	0.0148038
743.762	0.0147200
743.840	0.0147458
743.918	0.0148173
743.996	0.0146983
744.075	0.0146178
744.153	0.0146147
744.231	0.0146858
744.309	0.0145461
744.387	0.0145644
744.465	0.0146968
744.543	0.0147056
744.621	0.0147815
744.700	0.0147317
744.778	0.0147567
744.856	0.0148541
744.934	0.0148345
745.012	0.0148506
745.090	0.0149284
745.168	0.0149046
745.246	0.0148838
745.325	0.0148602
745.403	0.0148834
745.481	0.0149629
745.559	0.0148289
745.637	0.0148569
745.715	0.0149149
745.793	0.0149349
745.871	0.0148323
745.950	0.0148028
746.028	0.0147652
746.106	0.0146996
746.184	0.0148037
746.262	0.0148256
746.340	0.0148627
746.418	0.0147377
746.496	0.0147133
746.575	0.0148181
746.653	0.0148006
746.731	0.0147853
746.809	0.0146149
746.887	0.0146441
746.965	0.0147443
747.043	0.0146461
747.121	0.0146886
747.200	0.0146520
747.278	0.0147009
747.356	0.0147649
747.434	0.0147649
747.512	0.0147443
747.590	0.0147847
747.668	0.0147698
747.746	0.0147269
747.825	0.0148056
747.903	0.0149583
747.981	0.0147208
748.059	0.0148867
748.137	0.0147653
748.215	0.0147440
748.293	0.0149078
748.371	0.0147523
748.450	0.0147529
748.528	0.0149448
748.606	0.0148592
748.684	0.0147725
748.762	0.0146622
748.840	0.0147007
748.918	0.0147096
748.996	0.0147581
749.075	0.0147901
749.153	0.0147078
749.231	0.0146999
749.309	0.0149302
749.387	0.0148433
749.465	0.0147758
749.543	0.0149885
749.621	0.0149349
749.700	0.0147823
749.778	0.0148138
749.856	0.0148777
749.934	0.0148366
750.012	0.0149167
750.090	0.0150233
750.168	0.0149688
750.246	0.0148547
750.325	0.0148589
750.403	0.0147849
750.481	0.0149264
750.559	0.0149455
750.637	0.0149326
750.715	0.0149110
750.793	0.0149244
750.871	0.0146413
750.950	0.0148158
751.028	0.0147161
751.106	0.0147714
751.184	0.0147828
751.262	0.0146935
751.340	0.0146752
751.418	0.0147729
751.496	0.0149046
751.575	0.0146914
751.653	0.0147195
751.731	0.0148967
751.809	0.0148576
751.887	0.0148797
751.965	0.0147700
752.043	0.0147800
752.121	0.0148141
752.200	0.0150375
752.278	0.0149715
752.356	0.0149054
752.434	0.0148447
752.512	0.0149132
752.590	0.0150059
752.668	0.0150078
752.746	0.0147876
752.825	0.0148751
752.903	0.0147858
752.981	0.0150407
753.059	0.0148653
753.137	0.0149072
753.215	0.0149220
753.293	0.0148856
753.371	0.0149374
753.450	0.0149378
753.528	0.0148596
753.606	0.0149072
753.684	0.0149765
753.762	0.0148555
753.840	0.0149703
753.918	0.0149174
753.996	0.0148557
754.075	0.0148225
754.153	0.0149149
754.231	0.0147964
754.309	0.0149931
754.387	0.0148885
754.465	0.0149109
754.543	0.0149664
754.621	0.0148424
754.700	0.0149040
754.778	0.0147652
754.856	0.0148546
754.934	0.0148272
755.012	0.0147865
755.090	0.0148073
755.168	0.0148765
755.246	0.0149510
755.325	0.0148779
755.403	0.0149037
755.481	0.0148116
755.559	0.0149075
755.637	0.0148878
755.715	0.0147688
755.793	0.0148355
755.871	0.0148512
755.950	0.0148112
756.028	0.0149386
756.106	0.0147772
756.184	0.0149177
756.262	0.0147791
756.340	0.0148528
756.418	0.0148177
756.496	0.0148190
756.575	0.0146849
756.653	0.0147442
756.731	0.0148325
756.809	0.0148161
756.887	0.0149863
756.965	0.0148234
757.043	0.0147381
757.121	0.0149599
757.200	0.0148482
757.278	0.0146912
757.356	0.0147402
757.434	0.0146507
757.512	0.0148238
757.590	0.0150614
757.668	0.0148217
757.746	0.0148340
757.825	0.0146313
757.903	0.0146572
757.981	0.0147848
758.059	0.0148510
758.137	0.0147122
758.215	0.0148171
758.293	0.0149328
758.371	0.0147383
758.450	0.0147121
758.528	0.0147741
758.606	0.0148851
758.684	0.0150144
758.762	0.0149521
758.840	0.0148858
758.918	0.0148834
758.996	0.0147938
759.075	0.0147359
759.153	0.0148148
759.231	0.0147887
759.309	0.0147613
759.387	0.0147601
759.465	0.0147282
759.543	0.0147012
759.621	0.0148351
759.700	0.0148701
759.778	0.0146557
759.856	0.0147234
759.934	0.0147279
760.012	0.0147816
760.090	0.0148800
760.168	0.0149295
760.246	0.0147940
760.325	0.0148817
760.403	0.0148974
760.481	0.0148888
760.559	0.0148056
760.637	0.0148071
760.715	0.0148409
760.793	0.0147866
760.871	0.0149369
760.950	0.0149180
761.028	0.0147520
761.106	0.0148707
761.184	0.0148771
761.262	0.0148856
761.340	0.0148617
761.418	0.0148182
761.496	0.0148576
761.575	0.0147636
761.653	0.0148521
761.731	0.0149411
761.809	0.0148127
761.887	0.0148883
761.965	0.0149201
762.043	0.0148411
762.121	0.0148746
762.200	0.0149271
762.278	0.0147656
762.356	0.0148917
762.434	0.0148848
762.512	0.0148909
762.590	0.0148436
762.668	0.0148545
762.746	0.0150358
762.825	0.0146831
762.903	0.0149287
762.981	0.0148957
763.059	0.0149617
763.137	0.0148804
763.215	0.0149030
763.293	0.0150921
763.371	0.0149162
763.450	0.0149097
763.528	0.0147617
763.606	0.0149461
763.684	0.0150260
763.762	0.0148871
763.840	0.0149021
763.918	0.0148137
763.996	0.0148216
764.075	0.0148986
764.153	0.0148708
764.231	0.0146757
764.309	0.0148087
764.387	0.0147874
764.465	0.0147491
764.543	0.0145866
764.621	0.0147766
764.700	0.0146589
