05/04/2022	21:40:14	Ver.	4.1	UNKNOWN
Optical Delay	678.989730	Delta X		0.078125	Sweeps	1	Scan Rate	0/0
Coordinates	Axis 1	NaN	Axis 2	NaN	Axis 3	NaN	Axis 4	NaN	Axis 5	NaN	Axis 6	0.000000
TX Power	0.000000	RX Power	0.000000

678.990	0.0141703
679.068	0.0144198
679.146	0.0144680
679.224	0.0145280
679.302	0.0142584
679.380	0.0141446
679.458	0.0138809
679.537	0.0138052
679.615	0.0137850
679.693	0.0137490
679.771	0.0136662
679.849	0.0138401
679.927	0.0138354
680.005	0.0141509
680.083	0.0143314
680.162	0.0144290
680.240	0.0144276
680.318	0.0145827
680.396	0.0146364
680.474	0.0145493
680.552	0.0144744
680.630	0.0144222
680.708	0.0142391
680.787	0.0140954
680.865	0.0139548
680.943	0.0138780
681.021	0.0138285
681.099	0.0138863
681.177	0.0136721
681.255	0.0137486
681.333	0.0137762
681.412	0.0139399
681.490	0.0140750
681.568	0.0140274
681.646	0.0143398
681.724	0.0144372
681.802	0.0145257
681.880	0.0143910
681.958	0.0144695
682.037	0.0145444
682.115	0.0143579
682.193	0.0143203
682.271	0.0142209
682.349	0.0141196
682.427	0.0140561
682.505	0.0139917
682.583	0.0139053
682.662	0.0136705
682.740	0.0137840
682.818	0.0140479
682.896	0.0143176
682.974	0.0141528
683.052	0.0143295
683.130	0.0144109
683.208	0.0146667
683.287	0.0147512
683.365	0.0148206
683.443	0.0147169
683.521	0.0147187
683.599	0.0147152
683.677	0.0145389
683.755	0.0144433
683.833	0.0143290
683.912	0.0142022
683.990	0.0139747
684.068	0.0138828
684.146	0.0137326
684.224	0.0133717
684.302	0.0132395
684.380	0.0132017
684.458	0.0132556
684.537	0.0130590
684.615	0.0132231
684.693	0.0134303
684.771	0.0136058
684.849	0.0136080
684.927	0.0137910
685.005	0.0140525
685.083	0.0141315
685.162	0.0142873
685.240	0.0144425
685.318	0.0144598
685.396	0.0146030
685.474	0.0145374
685.552	0.0146218
685.630	0.0146497
685.708	0.0146110
685.787	0.0146964
685.865	0.0145537
685.943	0.0145823
686.021	0.0144853
686.099	0.0145818
686.177	0.0146289
686.255	0.0145731
686.333	0.0145149
686.412	0.0145113
686.490	0.0144062
686.568	0.0143866
686.646	0.0146136
686.724	0.0143759
686.802	0.0143182
686.880	0.0140727
686.958	0.0138623
687.037	0.0137656
687.115	0.0135553
687.193	0.0130945
687.271	0.0128695
687.349	0.0128640
687.427	0.0127135
687.505	0.0127978
687.583	0.0129961
687.662	0.0133257
687.740	0.0135876
687.818	0.0137775
687.896	0.0142358
687.974	0.0145947
688.052	0.0147678
688.130	0.0150586
688.208	0.0152462
688.287	0.0153313
688.365	0.0154021
688.443	0.0152477
688.521	0.0149225
688.599	0.0148356
688.677	0.0143990
688.755	0.0142119
688.833	0.0139549
688.912	0.0138178
688.990	0.0136060
689.068	0.0135812
689.146	0.0136200
689.224	0.0136523
689.302	0.0137212
689.380	0.0139557
689.458	0.0140822
689.537	0.0143733
689.615	0.0143832
689.693	0.0144931
689.771	0.0146011
689.849	0.0143761
689.927	0.0142785
690.005	0.0141395
690.083	0.0140081
690.162	0.0138821
690.240	0.0135964
690.318	0.0134448
690.396	0.0134303
690.474	0.0132196
690.552	0.0132957
690.630	0.0132538
690.708	0.0132229
690.787	0.0133286
690.865	0.0135938
690.943	0.0137183
691.021	0.0141064
691.099	0.0143127
691.177	0.0144729
691.255	0.0146511
691.333	0.0147675
691.412	0.0148347
691.490	0.0149657
691.568	0.0150066
691.646	0.0149673
691.724	0.0148024
691.802	0.0146928
691.880	0.0146303
691.958	0.0144654
692.037	0.0143606
692.115	0.0142486
692.193	0.0142259
692.271	0.0142909
692.349	0.0141320
692.427	0.0142439
692.505	0.0142378
692.583	0.0143114
692.662	0.0143040
692.740	0.0142612
692.818	0.0143406
692.896	0.0143229
692.974	0.0143468
693.052	0.0142133
693.130	0.0140141
693.208	0.0140283
693.287	0.0137677
693.365	0.0137463
693.443	0.0137675
693.521	0.0134870
693.599	0.0135146
693.677	0.0133749
693.755	0.0132751
693.833	0.0134496
693.912	0.0135291
693.990	0.0136550
694.068	0.0138049
694.146	0.0139159
694.224	0.0141487
694.302	0.0143407
694.380	0.0145000
694.458	0.0144509
694.537	0.0146381
694.615	0.0147350
694.693	0.0148647
694.771	0.0147034
694.849	0.0148095
694.927	0.0147406
695.005	0.0144518
695.083	0.0144478
695.162	0.0142356
695.240	0.0141055
695.318	0.0140749
695.396	0.0138428
695.474	0.0139005
695.552	0.0138062
695.630	0.0137652
695.708	0.0138242
695.787	0.0138959
695.865	0.0140254
695.943	0.0141068
696.021	0.0143911
696.099	0.0146621
696.177	0.0144822
696.255	0.0145805
696.333	0.0146410
696.412	0.0146394
696.490	0.0146877
696.568	0.0145230
696.646	0.0143378
696.724	0.0143654
696.802	0.0141593
696.880	0.0138697
696.958	0.0139587
697.037	0.0138711
697.115	0.0137118
697.193	0.0137957
697.271	0.0138773
697.349	0.0139404
697.427	0.0139587
697.505	0.0139937
697.583	0.0141481
697.662	0.0141290
697.740	0.0140394
697.818	0.0140926
697.896	0.0141635
697.974	0.0141977
698.052	0.0141489
698.130	0.0142371
698.208	0.0142301
698.287	0.0142009
698.365	0.0141834
698.443	0.0140584
698.521	0.0141045
698.599	0.0142555
698.677	0.0141592
698.755	0.0141629
698.833	0.0140708
698.912	0.0143004
698.990	0.0144459
699.068	0.0144638
699.146	0.0145958
699.224	0.0146603
699.302	0.0146996
699.380	0.0148605
699.458	0.0149007
699.537	0.0148705
699.615	0.0149033
699.693	0.0149413
699.771	0.0147403
699.849	0.0147222
699.927	0.0146466
700.005	0.0144813
700.083	0.0142889
700.162	0.0140998
700.240	0.0140838
700.318	0.0139580
700.396	0.0138254
700.474	0.0137121
700.552	0.0135512
700.630	0.0133714
700.708	0.0133951
700.787	0.0133347
700.865	0.0133437
700.943	0.0134463
701.021	0.0134412
701.099	0.0135773
701.177	0.0136505
701.255	0.0138010
701.333	0.0138918
701.412	0.0140894
701.490	0.0140731
701.568	0.0140087
701.646	0.0141187
701.724	0.0143683
701.802	0.0141747
701.880	0.0142896
701.958	0.0142570
702.037	0.0143750
702.115	0.0144016
702.193	0.0144989
702.271	0.0145843
702.349	0.0144826
702.427	0.0146190
702.505	0.0146979
702.583	0.0146513
702.662	0.0147546
702.740	0.0146322
702.818	0.0147010
702.896	0.0148316
702.974	0.0147109
703.052	0.0145023
703.130	0.0145285
703.208	0.0143493
703.287	0.0143586
703.365	0.0140546
703.443	0.0140105
703.521	0.0138576
703.599	0.0138409
703.677	0.0135599
703.755	0.0135723
703.833	0.0135656
703.912	0.0134703
703.990	0.0135233
704.068	0.0135461
704.146	0.0135712
704.224	0.0137624
704.302	0.0139401
704.380	0.0140674
704.458	0.0142832
704.537	0.0142211
704.615	0.0143822
704.693	0.0143616
704.771	0.0145357
704.849	0.0144015
704.927	0.0143797
705.005	0.0143750
705.083	0.0143846
705.162	0.0142135
705.240	0.0140242
705.318	0.0139500
705.396	0.0138191
705.474	0.0139087
705.552	0.0137817
705.630	0.0136314
705.708	0.0138875
705.787	0.0140061
705.865	0.0140195
705.943	0.0141383
706.021	0.0140813
706.099	0.0142841
706.177	0.0143885
706.255	0.0144032
706.333	0.0143351
706.412	0.0143016
706.490	0.0144619
706.568	0.0144749
706.646	0.0146047
706.724	0.0146234
706.802	0.0146636
706.880	0.0148454
706.958	0.0146564
707.037	0.0146492
707.115	0.0145808
707.193	0.0145374
707.271	0.0145564
707.349	0.0143150
707.427	0.0142207
707.505	0.0140075
707.583	0.0139706
707.662	0.0138799
707.740	0.0137523
707.818	0.0135676
707.896	0.0134879
707.974	0.0134271
708.052	0.0135253
708.130	0.0136678
708.208	0.0134235
708.287	0.0135472
708.365	0.0135931
708.443	0.0135004
708.521	0.0136674
708.599	0.0136340
708.677	0.0138676
708.755	0.0139206
708.833	0.0139928
708.912	0.0141359
708.990	0.0142724
709.068	0.0144682
709.146	0.0143758
709.224	0.0146211
709.302	0.0146738
709.380	0.0147802
709.458	0.0147804
709.537	0.0146755
709.615	0.0147759
709.693	0.0149210
709.771	0.0145193
709.849	0.0144191
709.927	0.0144736
710.005	0.0143583
710.083	0.0142785
710.162	0.0141130
710.240	0.0141436
710.318	0.0138179
710.396	0.0139439
710.474	0.0138015
710.552	0.0136861
710.630	0.0136953
710.708	0.0137141
710.787	0.0137292
710.865	0.0138779
710.943	0.0137900
711.021	0.0139043
711.099	0.0139948
711.177	0.0139433
711.255	0.0140976
711.333	0.0141850
711.412	0.0143275
711.490	0.0142815
711.568	0.0144360
711.646	0.0144529
711.724	0.0145776
711.802	0.0144997
711.880	0.0143584
711.958	0.0144529
712.037	0.0144514
712.115	0.0142176
712.193	0.0141706
712.271	0.0141354
712.349	0.0140809
712.427	0.0141748
712.505	0.0140188
712.583	0.0141201
712.662	0.0140949
712.740	0.0137900
712.818	0.0138853
712.896	0.0140196
712.974	0.0139625
713.052	0.0138350
713.130	0.0140316
713.208	0.0140069
713.287	0.0141232
713.365	0.0141355
713.443	0.0141009
713.521	0.0141497
713.599	0.0144492
713.677	0.0143395
713.755	0.0144339
713.833	0.0146374
713.912	0.0146247
713.990	0.0146044
714.068	0.0145778
714.146	0.0146108
714.224	0.0145483
714.302	0.0146667
714.380	0.0144257
714.458	0.0144630
714.537	0.0144624
714.615	0.0142825
714.693	0.0141694
714.771	0.0140997
714.849	0.0140182
714.927	0.0140649
715.005	0.0140134
715.083	0.0139494
715.162	0.0139365
715.240	0.0139309
715.318	0.0139081
715.396	0.0137474
715.474	0.0138565
715.552	0.0139493
715.630	0.0139935
715.708	0.0138564
715.787	0.0140961
715.865	0.0141748
715.943	0.0140314
716.021	0.0141905
716.099	0.0142767
716.177	0.0143520
716.255	0.0146060
716.333	0.0145329
716.412	0.0145311
716.490	0.0145855
716.568	0.0145213
716.646	0.0145837
716.724	0.0146576
716.802	0.0146220
716.880	0.0146102
716.958	0.0145648
717.037	0.0144642
717.115	0.0144865
717.193	0.0144433
717.271	0.0142971
717.349	0.0143811
717.427	0.0144212
717.505	0.0141626
717.583	0.0140763
717.662	0.0142128
717.740	0.0140653
717.818	0.0140372
717.896	0.0140503
717.974	0.0140043
718.052	0.0140392
718.130	0.0138611
718.208	0.0139635
718.287	0.0140320
718.365	0.0139765
718.443	0.0139371
718.521	0.0140430
718.599	0.0141352
718.677	0.0141418
718.755	0.0142375
718.833	0.0142571
718.912	0.0142950
718.990	0.0142256
719.068	0.0142322
719.146	0.0143259
719.224	0.0142505
719.302	0.0143723
719.380	0.0142721
719.458	0.0143968
719.537	0.0142950
719.615	0.0142118
719.693	0.0141735
719.771	0.0143244
719.849	0.0141515
719.927	0.0139772
720.005	0.0140979
720.083	0.0142888
720.162	0.0141721
720.240	0.0141345
720.318	0.0142020
720.396	0.0140949
720.474	0.0141216
720.552	0.0141315
720.630	0.0143526
720.708	0.0141598
720.787	0.0142014
720.865	0.0142297
720.943	0.0141797
721.021	0.0142503
721.099	0.0141404
721.177	0.0142070
721.255	0.0141498
721.333	0.0140275
721.412	0.0139931
721.490	0.0139421
721.568	0.0140440
721.646	0.0139465
721.724	0.0140095
721.802	0.0139629
721.880	0.0140911
721.958	0.0139313
722.037	0.0141080
722.115	0.0141157
722.193	0.0141033
722.271	0.0139625
722.349	0.0140076
722.427	0.0141684
722.505	0.0140813
722.583	0.0139939
722.662	0.0140443
722.740	0.0141267
722.818	0.0139537
722.896	0.0141706
722.974	0.0141148
723.052	0.0140491
723.130	0.0141772
723.208	0.0142734
723.287	0.0143040
723.365	0.0144662
723.443	0.0143766
723.521	0.0143795
723.599	0.0145142
723.677	0.0145667
723.755	0.0145370
723.833	0.0144879
723.912	0.0143790
723.990	0.0144211
724.068	0.0143439
724.146	0.0142318
724.224	0.0142843
724.302	0.0141822
724.380	0.0140679
724.458	0.0139680
724.537	0.0139758
724.615	0.0139088
724.693	0.0139751
724.771	0.0137851
724.849	0.0139362
724.927	0.0139590
725.005	0.0140358
725.083	0.0140160
725.162	0.0141034
725.240	0.0141695
725.318	0.0140878
725.396	0.0143121
725.474	0.0142795
725.552	0.0140967
725.630	0.0141398
725.708	0.0142944
725.787	0.0142458
725.865	0.0142447
725.943	0.0141781
726.021	0.0140945
726.099	0.0140710
726.177	0.0140133
726.255	0.0141585
726.333	0.0140721
726.412	0.0139826
726.490	0.0140125
726.568	0.0141388
726.646	0.0140371
726.724	0.0140288
726.802	0.0141335
726.880	0.0140263
726.958	0.0141486
727.037	0.0141884
727.115	0.0140475
727.193	0.0141117
727.271	0.0141643
727.349	0.0141196
727.427	0.0140952
727.505	0.0142193
727.583	0.0142198
727.662	0.0141441
727.740	0.0142538
727.818	0.0142549
727.896	0.0142292
727.974	0.0144508
728.052	0.0143407
728.130	0.0144485
728.208	0.0144652
728.287	0.0142060
728.365	0.0142250
728.443	0.0143868
728.521	0.0142928
728.599	0.0140904
728.677	0.0142008
728.755	0.0141525
728.833	0.0139170
728.912	0.0138624
728.990	0.0138986
729.068	0.0138496
729.146	0.0138218
729.224	0.0137213
729.302	0.0138227
729.380	0.0137091
729.458	0.0138478
729.537	0.0138348
729.615	0.0139411
729.693	0.0139893
729.771	0.0140979
729.849	0.0142679
729.927	0.0141941
730.005	0.0141821
730.083	0.0142463
730.162	0.0143372
730.240	0.0145082
730.318	0.0143706
730.396	0.0143790
730.474	0.0143003
730.552	0.0143254
730.630	0.0142632
730.708	0.0144055
730.787	0.0143248
730.865	0.0142889
730.943	0.0140359
731.021	0.0140864
731.099	0.0141038
731.177	0.0140476
731.255	0.0140746
731.333	0.0140260
731.412	0.0139493
731.490	0.0139468
731.568	0.0139571
731.646	0.0139718
731.724	0.0140698
731.802	0.0139259
731.880	0.0140008
731.958	0.0141431
732.037	0.0140222
732.115	0.0140537
732.193	0.0140180
732.271	0.0141069
732.349	0.0140929
732.427	0.0143367
732.505	0.0141637
732.583	0.0141739
732.662	0.0145058
732.740	0.0142262
732.818	0.0142199
732.896	0.0143980
732.974	0.0143741
733.052	0.0142071
733.130	0.0142937
733.208	0.0142410
733.287	0.0142268
733.365	0.0142381
733.443	0.0141681
733.521	0.0141641
733.599	0.0140604
733.677	0.0140011
733.755	0.0141529
733.833	0.0142084
733.912	0.0142365
733.990	0.0141691
734.068	0.0141596
734.146	0.0142978
734.224	0.0141932
734.302	0.0142008
734.380	0.0141930
734.458	0.0141692
734.537	0.0142265
734.615	0.0143239
734.693	0.0142957
734.771	0.0141499
734.849	0.0140716
734.927	0.0141199
735.005	0.0142715
735.083	0.0141308
735.162	0.0142038
735.240	0.0142522
735.318	0.0141230
735.396	0.0143031
735.474	0.0141033
735.552	0.0141570
735.630	0.0141436
735.708	0.0141135
735.787	0.0141180
735.865	0.0141873
735.943	0.0142021
736.021	0.0139260
736.099	0.0141377
736.177	0.0141840
736.255	0.0140469
736.333	0.0142296
736.412	0.0141653
736.490	0.0141582
736.568	0.0142361
736.646	0.0141932
736.724	0.0140985
736.802	0.0141819
736.880	0.0141418
736.958	0.0140464
737.037	0.0141463
737.115	0.0143031
737.193	0.0140734
737.271	0.0141468
737.349	0.0141715
737.427	0.0142261
737.505	0.0143089
737.583	0.0143613
737.662	0.0142966
737.740	0.0142756
737.818	0.0142734
737.896	0.0143008
737.974	0.0142735
738.052	0.0142735
738.130	0.0140968
738.208	0.0142634
738.287	0.0142817
738.365	0.0140673
738.443	0.0142025
738.521	0.0141586
738.599	0.0141691
738.677	0.0142128
738.755	0.0141495
738.833	0.0142965
738.912	0.0141753
738.990	0.0140240
739.068	0.0141051
739.146	0.0140458
739.224	0.0142007
739.302	0.0140239
739.380	0.0140892
739.458	0.0141245
739.537	0.0140754
739.615	0.0140018
739.693	0.0140565
739.771	0.0140226
739.849	0.0138275
739.927	0.0137701
740.005	0.0137935
740.083	0.0140985
740.162	0.0139128
740.240	0.0140404
740.318	0.0139775
740.396	0.0140518
740.474	0.0142064
740.552	0.0143551
740.630	0.0144059
740.708	0.0143151
740.787	0.0143071
740.865	0.0141751
740.943	0.0142345
741.021	0.0143246
741.099	0.0144440
741.177	0.0143346
741.255	0.0141430
741.333	0.0142547
741.412	0.0142459
741.490	0.0142228
741.568	0.0140968
741.646	0.0141268
741.724	0.0140918
741.802	0.0140396
741.880	0.0141131
741.958	0.0139762
742.037	0.0141574
742.115	0.0140114
742.193	0.0142139
742.271	0.0141385
742.349	0.0141579
742.427	0.0140895
742.505	0.0140772
742.583	0.0142449
742.662	0.0142182
742.740	0.0141507
742.818	0.0141671
742.896	0.0141007
742.974	0.0139489
743.052	0.0141265
743.130	0.0140719
743.208	0.0141189
743.287	0.0141133
743.365	0.0141330
743.443	0.0140775
743.521	0.0140278
743.599	0.0141158
743.677	0.0140446
743.755	0.0139677
743.833	0.0141150
743.912	0.0140424
743.990	0.0140758
744.068	0.0140073
744.146	0.0140223
744.224	0.0141525
744.302	0.0140538
744.380	0.0140701
744.458	0.0141373
744.537	0.0141988
744.615	0.0142802
744.693	0.0142011
744.771	0.0143204
744.849	0.0143851
744.927	0.0142550
745.005	0.0144034
745.083	0.0142455
745.162	0.0144593
745.240	0.0144247
745.318	0.0143865
745.396	0.0141805
745.474	0.0142516
745.552	0.0142837
745.630	0.0143779
745.708	0.0142171
745.787	0.0142535
745.865	0.0141056
745.943	0.0141458
746.021	0.0142083
746.099	0.0142474
746.177	0.0141499
746.255	0.0140414
746.333	0.0141602
746.412	0.0140165
746.490	0.0142242
746.568	0.0143353
746.646	0.0140874
746.724	0.0139742
746.802	0.0141082
746.880	0.0142268
746.958	0.0143161
747.037	0.0142059
747.115	0.0141443
747.193	0.0141217
747.271	0.0140795
747.349	0.0140517
747.427	0.0141268
747.505	0.0141739
747.583	0.0141881
747.662	0.0141586
747.740	0.0140620
747.818	0.0140764
747.896	0.0142090
747.974	0.0141782
748.052	0.0141518
748.130	0.0142027
748.208	0.0143447
748.287	0.0142600
748.365	0.0143613
748.443	0.0143529
748.521	0.0144817
748.599	0.0144466
748.677	0.0143996
748.755	0.0142995
748.833	0.0143740
748.912	0.0143311
748.990	0.0142166
749.068	0.0143110
749.146	0.0143546
749.224	0.0142916
749.302	0.0143027
749.380	0.0144016
749.458	0.0142540
749.537	0.0141259
749.615	0.0141540
749.693	0.0143173
749.771	0.0141159
749.849	0.0142059
749.927	0.0141494
750.005	0.0141734
750.083	0.0141514
750.162	0.0141062
750.240	0.0141790
750.318	0.0141576
750.396	0.0141180
750.474	0.0140896
750.552	0.0142341
750.630	0.0140649
750.708	0.0141256
750.787	0.0141716
750.865	0.0141244
750.943	0.0142904
751.021	0.0141820
751.099	0.0141107
751.177	0.0142982
751.255	0.0142012
751.333	0.0142542
751.412	0.0141824
751.490	0.0141638
751.568	0.0142976
751.646	0.0142960
751.724	0.0140585
751.802	0.0140134
751.880	0.0141843
751.958	0.0142433
752.037	0.0139541
752.115	0.0140566
752.193	0.0140244
752.271	0.0140395
752.349	0.0139949
752.427	0.0139712
752.505	0.0140765
752.583	0.0141643
752.662	0.0141232
752.740	0.0141779
752.818	0.0142503
752.896	0.0141532
752.974	0.0141619
753.052	0.0142032
753.130	0.0143037
753.208	0.0141673
753.287	0.0142084
753.365	0.0141019
753.443	0.0140774
753.521	0.0141498
753.599	0.0140711
753.677	0.0142010
753.755	0.0142846
753.833	0.0140099
753.912	0.0141316
753.990	0.0141496
754.068	0.0141548
754.146	0.0141759
754.224	0.0140339
754.302	0.0141034
754.380	0.0141021
754.458	0.0140871
754.537	0.0141245
754.615	0.0141913
754.693	0.0141335
754.771	0.0140900
754.849	0.0140820
754.927	0.0142149
755.005	0.0142140
755.083	0.0142486
755.162	0.0142452
755.240	0.0141801
755.318	0.0140797
755.396	0.0141906
755.474	0.0142731
755.552	0.0143027
755.630	0.0142937
755.708	0.0142105
755.787	0.0141648
755.865	0.0141406
755.943	0.0141542
756.021	0.0142001
756.099	0.0142222
756.177	0.0141483
756.255	0.0140747
756.333	0.0142978
756.412	0.0141531
756.490	0.0141534
756.568	0.0142454
756.646	0.0141682
756.724	0.0141059
756.802	0.0142294
756.880	0.0142792
756.958	0.0142785
757.037	0.0142291
757.115	0.0142721
757.193	0.0141582
757.271	0.0141044
757.349	0.0142120
757.427	0.0140965
757.505	0.0141074
757.583	0.0142406
757.662	0.0142473
757.740	0.0142011
757.818	0.0141020
757.896	0.0141047
757.974	0.0140939
758.052	0.0141985
758.130	0.0142513
758.208	0.0143495
758.287	0.0142721
758.365	0.0143181
758.443	0.0142426
758.521	0.0140691
758.599	0.0142863
758.677	0.0141914
758.755	0.0140942
758.833	0.0142335
758.912	0.0142191
758.990	0.0140342
759.068	0.0141309
759.146	0.0141363
759.224	0.0142138
759.302	0.0141656
759.380	0.0141788
759.458	0.0141479
759.537	0.0141786
759.615	0.0139636
759.693	0.0139139
759.771	0.0140259
759.849	0.0140398
759.927	0.0141574
760.005	0.0140649
760.083	0.0141112
760.162	0.0140186
760.240	0.0139222
760.318	0.0141066
760.396	0.0142080
760.474	0.0140978
760.552	0.0139809
760.630	0.0140678
760.708	0.0140904
760.787	0.0140186
760.865	0.0141025
760.943	0.0140907
761.021	0.0140733
761.099	0.0140334
761.177	0.0141590
761.255	0.0141393
761.333	0.0140926
761.412	0.0141504
761.490	0.0141111
761.568	0.0141998
761.646	0.0140871
761.724	0.0140955
761.802	0.0142354
761.880	0.0141782
761.958	0.0142757
762.037	0.0141836
762.115	0.0142650
762.193	0.0141840
762.271	0.0141708
762.349	0.0142050
762.427	0.0141415
762.505	0.0143512
762.583	0.0142464
762.662	0.0142052
762.740	0.0142084
762.818	0.0143636
762.896	0.0142796
762.974	0.0141908
763.052	0.0141119
763.130	0.0141143
763.208	0.0141999
763.287	0.0140913
763.365	0.0141149
763.443	0.0141295
763.521	0.0141869
763.599	0.0141809
763.677	0.0141509
763.755	0.0140907
763.833	0.0140219
763.912	0.0141901
763.990	0.0140031
764.068	0.0141951
764.146	0.0141703
764.224	0.0142231
764.302	0.0142002
764.380	0.0140855
764.458	0.0141504
764.537	0.0141196
764.615	0.0141720
764.693	0.0140989
