05/04/2022	21:40:49	Ver.	4.1	UNKNOWN
Optical Delay	678.996401	Delta X		0.078125	Sweeps	1	Scan Rate	0/0
Coordinates	Axis 1	NaN	Axis 2	NaN	Axis 3	NaN	Axis 4	NaN	Axis 5	NaN	Axis 6	0.000000
TX Power	0.000000	RX Power	0.000000

678.996	0.0146149
679.075	0.0141180
679.153	0.0141407
679.231	0.0142915
679.309	0.0142966
679.387	0.0146008
679.465	0.0147388
679.543	0.0149773
679.621	0.0150169
679.700	0.0150081
679.778	0.0150108
679.856	0.0149576
679.934	0.0149084
680.012	0.0148006
680.090	0.0146233
680.168	0.0144797
680.246	0.0143073
680.325	0.0142015
680.403	0.0142233
680.481	0.0140524
680.559	0.0141470
680.637	0.0141507
680.715	0.0142065
680.793	0.0143511
680.871	0.0143531
680.950	0.0146053
681.028	0.0146718
681.106	0.0147266
681.184	0.0148687
681.262	0.0150532
681.340	0.0150453
681.418	0.0150812
681.496	0.0148701
681.575	0.0148885
681.653	0.0148586
681.731	0.0145982
681.809	0.0145693
681.887	0.0145283
681.965	0.0143580
682.043	0.0144297
682.121	0.0143541
682.200	0.0143700
682.278	0.0143626
682.356	0.0144288
682.434	0.0145219
682.512	0.0146828
682.590	0.0148190
682.668	0.0148513
682.746	0.0150551
682.825	0.0150637
682.903	0.0150753
682.981	0.0151824
683.059	0.0152687
683.137	0.0152079
683.215	0.0151210
683.293	0.0151003
683.371	0.0148408
683.450	0.0145531
683.528	0.0143034
683.606	0.0139581
683.684	0.0138574
683.762	0.0135374
683.840	0.0136069
683.918	0.0135110
683.996	0.0135511
684.075	0.0135909
684.153	0.0138390
684.231	0.0139597
684.309	0.0142821
684.387	0.0144568
684.465	0.0147801
684.543	0.0150510
684.621	0.0152644
684.700	0.0154673
684.778	0.0155247
684.856	0.0154228
684.934	0.0155525
685.012	0.0154251
685.090	0.0154173
685.168	0.0152505
685.246	0.0153196
685.325	0.0151183
685.403	0.0148486
685.481	0.0147755
685.559	0.0147762
685.637	0.0147509
685.715	0.0148173
685.793	0.0147403
685.871	0.0147278
685.950	0.0149291
686.028	0.0148772
686.106	0.0148704
686.184	0.0148287
686.262	0.0147758
686.340	0.0147411
686.418	0.0145495
686.496	0.0143496
686.575	0.0141174
686.653	0.0137107
686.731	0.0135878
686.809	0.0133729
686.887	0.0135196
686.965	0.0133755
687.043	0.0134001
687.121	0.0136871
687.200	0.0139839
687.278	0.0144965
687.356	0.0148090
687.434	0.0151886
687.512	0.0155412
687.590	0.0158080
687.668	0.0158601
687.746	0.0161057
687.825	0.0162238
687.903	0.0161164
687.981	0.0158677
688.059	0.0155210
688.137	0.0152950
688.215	0.0149870
688.293	0.0146354
688.371	0.0143002
688.450	0.0141651
688.528	0.0139478
688.606	0.0139631
688.684	0.0139123
688.762	0.0139106
688.840	0.0139876
688.918	0.0142292
688.996	0.0142966
689.075	0.0145911
689.153	0.0147345
689.231	0.0147448
689.309	0.0148381
689.387	0.0148160
689.465	0.0147667
689.543	0.0146627
689.621	0.0144949
689.700	0.0143993
689.778	0.0142472
689.856	0.0142191
689.934	0.0140887
690.012	0.0139376
690.090	0.0140051
690.168	0.0142068
690.246	0.0140761
690.325	0.0141180
690.403	0.0144968
690.481	0.0146470
690.559	0.0148714
690.637	0.0149850
690.715	0.0151047
690.793	0.0152830
690.871	0.0155043
690.950	0.0154501
691.028	0.0155153
691.106	0.0153751
691.184	0.0152026
691.262	0.0152739
691.340	0.0152310
691.418	0.0150769
691.496	0.0149641
691.575	0.0147709
691.653	0.0149118
691.731	0.0147780
691.809	0.0145899
691.887	0.0145949
691.965	0.0145858
692.043	0.0144395
692.121	0.0146481
692.200	0.0145987
692.278	0.0147417
692.356	0.0148862
692.434	0.0146256
692.512	0.0146644
692.590	0.0146949
692.668	0.0147142
692.746	0.0145509
692.825	0.0144397
692.903	0.0143731
692.981	0.0144141
693.059	0.0144125
693.137	0.0143796
693.215	0.0142526
693.293	0.0142532
693.371	0.0142309
693.450	0.0142355
693.528	0.0144073
693.606	0.0144161
693.684	0.0143919
693.762	0.0146041
693.840	0.0144780
693.918	0.0146407
693.996	0.0149169
694.075	0.0148373
694.153	0.0150004
694.231	0.0152457
694.309	0.0151064
694.387	0.0151380
694.465	0.0149702
694.543	0.0152131
694.621	0.0150473
694.700	0.0149834
694.778	0.0148638
694.856	0.0148241
694.934	0.0148270
695.012	0.0147122
695.090	0.0145062
695.168	0.0144270
695.246	0.0143732
695.325	0.0142322
695.403	0.0143056
695.481	0.0144654
695.559	0.0144724
695.637	0.0145604
695.715	0.0145928
695.793	0.0147831
695.871	0.0147324
695.950	0.0148174
696.028	0.0149263
696.106	0.0148150
696.184	0.0148922
696.262	0.0145819
696.340	0.0147384
696.418	0.0146287
696.496	0.0146370
696.575	0.0143727
696.653	0.0144617
696.731	0.0142195
696.809	0.0143407
696.887	0.0142869
696.965	0.0144440
697.043	0.0145047
697.121	0.0145853
697.200	0.0145646
697.278	0.0145861
697.356	0.0145518
697.434	0.0147174
697.512	0.0147145
697.590	0.0146666
697.668	0.0146349
697.746	0.0146323
697.825	0.0145573
697.903	0.0144690
697.981	0.0146730
698.059	0.0143229
698.137	0.0144096
698.215	0.0144248
698.293	0.0144303
698.371	0.0143379
698.450	0.0145606
698.528	0.0145473
698.606	0.0145852
698.684	0.0147997
698.762	0.0147814
698.840	0.0148471
698.918	0.0150571
698.996	0.0151210
699.075	0.0151968
699.153	0.0151421
699.231	0.0151368
699.309	0.0152834
699.387	0.0150500
699.465	0.0150247
699.543	0.0149606
699.621	0.0149062
699.700	0.0147119
699.778	0.0145335
699.856	0.0143948
699.934	0.0142719
700.012	0.0141747
700.090	0.0139421
700.168	0.0139678
700.246	0.0136561
700.325	0.0137130
700.403	0.0137434
700.481	0.0137032
700.559	0.0137354
700.637	0.0138881
700.715	0.0139461
700.793	0.0139267
700.871	0.0139794
700.950	0.0142597
701.028	0.0143615
701.106	0.0145534
701.184	0.0146939
701.262	0.0147493
701.340	0.0148103
701.418	0.0150056
701.496	0.0150127
701.575	0.0150845
701.653	0.0150465
701.731	0.0150262
701.809	0.0151061
701.887	0.0151534
701.965	0.0151271
702.043	0.0151399
702.121	0.0152135
702.200	0.0150960
702.278	0.0151040
702.356	0.0152528
702.434	0.0151293
702.512	0.0151295
702.590	0.0150871
702.668	0.0149890
702.746	0.0149198
702.825	0.0147626
702.903	0.0146245
702.981	0.0143060
703.059	0.0141255
703.137	0.0140202
703.215	0.0138128
703.293	0.0137923
703.371	0.0136975
703.450	0.0136386
703.528	0.0137540
703.606	0.0139487
703.684	0.0140652
703.762	0.0142029
703.840	0.0144555
703.918	0.0147565
703.996	0.0149824
704.075	0.0149520
704.153	0.0153250
704.231	0.0152136
704.309	0.0152060
704.387	0.0151846
704.465	0.0151799
704.543	0.0150509
704.621	0.0148246
704.700	0.0147307
704.778	0.0146186
704.856	0.0144772
704.934	0.0143596
705.012	0.0143832
705.090	0.0144461
705.168	0.0143369
705.246	0.0143871
705.325	0.0143943
705.403	0.0144955
705.481	0.0145251
705.559	0.0145821
705.637	0.0145184
705.715	0.0146201
705.793	0.0147071
705.871	0.0147801
705.950	0.0148450
706.028	0.0148006
706.106	0.0148524
706.184	0.0148446
706.262	0.0149020
706.340	0.0148855
706.418	0.0151531
706.496	0.0151898
706.575	0.0151691
706.653	0.0153288
706.731	0.0152180
706.809	0.0153829
706.887	0.0152838
706.965	0.0150974
707.043	0.0148650
707.121	0.0147165
707.200	0.0148380
707.278	0.0145200
707.356	0.0142422
707.434	0.0141960
707.512	0.0139368
707.590	0.0138860
707.668	0.0138323
707.746	0.0138551
707.825	0.0138474
707.903	0.0140196
707.981	0.0139234
708.059	0.0140741
708.137	0.0142077
708.215	0.0143214
708.293	0.0143663
708.371	0.0145676
708.450	0.0147073
708.528	0.0147787
708.606	0.0147815
708.684	0.0149660
708.762	0.0149540
708.840	0.0152935
708.918	0.0152083
708.996	0.0154139
709.075	0.0155209
709.153	0.0154277
709.231	0.0152699
709.309	0.0153939
709.387	0.0153900
709.465	0.0153203
709.543	0.0151554
709.621	0.0150859
709.700	0.0149020
709.778	0.0148013
709.856	0.0147773
709.934	0.0146870
710.012	0.0145015
710.090	0.0144050
710.168	0.0143155
710.246	0.0142123
710.325	0.0143447
710.403	0.0142242
710.481	0.0141930
710.559	0.0142812
710.637	0.0141903
710.715	0.0142104
710.793	0.0143345
710.871	0.0144434
710.950	0.0145336
711.028	0.0146621
711.106	0.0147100
711.184	0.0148760
711.262	0.0148631
711.340	0.0150049
711.418	0.0149718
711.496	0.0150077
711.575	0.0150200
711.653	0.0149298
711.731	0.0148915
711.809	0.0149364
711.887	0.0149221
711.965	0.0148628
712.043	0.0149638
712.121	0.0149016
712.200	0.0147491
712.278	0.0147379
712.356	0.0143793
712.434	0.0143778
712.512	0.0144431
712.590	0.0143964
712.668	0.0144678
712.746	0.0144150
712.825	0.0143676
712.903	0.0144511
712.981	0.0144245
713.059	0.0144099
713.137	0.0145933
713.215	0.0145441
713.293	0.0146555
713.371	0.0148138
713.450	0.0147617
713.528	0.0149602
713.606	0.0150117
713.684	0.0150412
713.762	0.0149904
713.840	0.0150388
713.918	0.0149461
713.996	0.0148010
714.075	0.0148325
714.153	0.0146304
714.231	0.0144888
714.309	0.0145095
714.387	0.0144481
714.465	0.0144232
714.543	0.0142342
714.621	0.0144588
714.700	0.0144617
714.778	0.0144144
714.856	0.0145374
714.934	0.0143922
715.012	0.0144189
715.090	0.0146291
715.168	0.0144038
715.246	0.0145054
715.325	0.0143874
715.403	0.0145488
715.481	0.0146402
715.559	0.0146075
715.637	0.0146154
715.715	0.0146481
715.793	0.0146070
715.871	0.0146487
715.950	0.0147327
716.028	0.0147924
716.106	0.0148652
716.184	0.0149808
716.262	0.0148510
716.340	0.0148383
716.418	0.0149042
716.496	0.0150483
716.575	0.0149359
716.653	0.0149632
716.731	0.0149235
716.809	0.0148383
716.887	0.0146415
716.965	0.0144861
717.043	0.0146401
717.121	0.0143898
717.200	0.0143823
717.278	0.0142638
717.356	0.0144730
717.434	0.0143162
717.512	0.0143486
717.590	0.0143494
717.668	0.0144626
717.746	0.0144476
717.825	0.0143894
717.903	0.0144112
717.981	0.0146024
718.059	0.0144827
718.137	0.0145322
718.215	0.0146467
718.293	0.0146651
718.371	0.0146049
718.450	0.0148075
718.528	0.0147796
718.606	0.0148104
718.684	0.0146915
718.762	0.0147313
718.840	0.0147743
718.918	0.0147697
718.996	0.0146893
719.075	0.0147814
719.153	0.0145853
719.231	0.0146116
719.309	0.0146666
719.387	0.0146414
719.465	0.0146302
719.543	0.0147266
719.621	0.0146660
719.700	0.0147050
719.778	0.0146734
719.856	0.0146857
719.934	0.0147194
720.012	0.0147499
720.090	0.0146674
720.168	0.0147035
720.246	0.0148466
720.325	0.0147340
720.403	0.0147009
720.481	0.0147356
720.559	0.0147745
720.637	0.0145929
720.715	0.0145123
720.793	0.0145285
720.871	0.0145052
720.950	0.0144392
721.028	0.0143838
721.106	0.0142885
721.184	0.0143813
721.262	0.0145175
721.340	0.0144395
721.418	0.0143442
721.496	0.0142903
721.575	0.0144469
721.653	0.0144373
721.731	0.0145541
721.809	0.0144151
721.887	0.0144046
721.965	0.0144109
722.043	0.0146024
722.121	0.0143520
722.200	0.0143950
722.278	0.0144048
722.356	0.0144841
722.434	0.0145773
722.512	0.0144749
722.590	0.0145823
722.668	0.0145467
722.746	0.0147914
722.825	0.0147980
722.903	0.0147281
722.981	0.0148248
723.059	0.0148622
723.137	0.0149146
723.215	0.0147471
723.293	0.0148162
723.371	0.0148494
723.450	0.0148415
723.528	0.0147536
723.606	0.0146413
723.684	0.0145872
723.762	0.0147018
723.840	0.0144981
723.918	0.0143100
723.996	0.0142966
724.075	0.0142907
724.153	0.0143961
724.231	0.0143314
724.309	0.0142681
724.387	0.0142641
724.465	0.0142056
724.543	0.0144714
724.621	0.0144576
724.700	0.0144915
724.778	0.0145296
724.856	0.0144615
724.934	0.0147164
725.012	0.0145650
725.090	0.0145232
725.168	0.0147602
725.246	0.0146503
725.325	0.0146931
725.403	0.0146898
725.481	0.0147041
725.559	0.0147240
725.637	0.0147128
725.715	0.0146420
725.793	0.0146333
725.871	0.0146963
725.950	0.0145544
726.028	0.0145519
726.106	0.0145762
726.184	0.0146457
726.262	0.0146055
726.340	0.0146191
726.418	0.0145101
726.496	0.0145702
726.575	0.0146365
726.653	0.0146883
726.731	0.0145837
726.809	0.0147269
726.887	0.0146260
726.965	0.0146361
727.043	0.0145867
727.121	0.0145795
727.200	0.0146828
727.278	0.0146942
727.356	0.0146577
727.434	0.0148859
727.512	0.0147105
727.590	0.0148642
727.668	0.0148426
727.746	0.0148896
727.825	0.0148582
727.903	0.0146718
727.981	0.0147657
728.059	0.0147035
728.137	0.0146327
728.215	0.0146346
728.293	0.0146930
728.371	0.0146624
728.450	0.0144223
728.528	0.0144361
728.606	0.0144014
728.684	0.0144077
728.762	0.0144066
728.840	0.0143555
728.918	0.0143250
728.996	0.0144621
729.075	0.0145244
729.153	0.0145031
729.231	0.0145670
729.309	0.0145300
729.387	0.0143992
729.465	0.0145653
729.543	0.0146313
729.621	0.0146658
729.700	0.0147834
729.778	0.0146009
729.856	0.0146049
729.934	0.0147066
730.012	0.0146903
730.090	0.0147726
730.168	0.0146342
730.246	0.0147896
730.325	0.0147859
730.403	0.0147904
730.481	0.0146737
730.559	0.0145886
730.637	0.0146268
730.715	0.0146313
730.793	0.0145602
730.871	0.0144640
730.950	0.0144419
731.028	0.0144437
731.106	0.0144125
731.184	0.0144020
731.262	0.0142847
731.340	0.0143038
731.418	0.0142043
731.496	0.0144614
731.575	0.0145718
731.653	0.0145230
731.731	0.0144099
731.809	0.0146426
731.887	0.0145796
731.965	0.0145062
732.043	0.0145350
732.121	0.0147271
732.200	0.0146925
732.278	0.0146561
732.356	0.0146465
732.434	0.0146856
732.512	0.0146116
732.590	0.0148524
732.668	0.0147222
732.746	0.0144356
732.825	0.0145750
732.903	0.0147067
732.981	0.0147093
733.059	0.0144954
733.137	0.0145661
733.215	0.0145805
733.293	0.0147397
733.371	0.0146423
733.450	0.0147382
733.528	0.0145857
733.606	0.0145303
733.684	0.0145997
733.762	0.0147137
733.840	0.0146509
733.918	0.0146441
733.996	0.0146616
734.075	0.0145927
734.153	0.0146185
734.231	0.0144995
734.309	0.0146282
734.387	0.0146541
734.465	0.0144858
734.543	0.0144722
734.621	0.0145848
734.700	0.0143333
734.778	0.0145766
734.856	0.0146473
734.934	0.0144849
735.012	0.0145367
735.090	0.0146062
735.168	0.0146420
735.246	0.0145665
735.325	0.0146270
735.403	0.0145879
735.481	0.0145526
735.559	0.0146532
735.637	0.0146045
735.715	0.0144896
735.793	0.0146235
735.871	0.0145177
735.950	0.0146484
736.028	0.0145232
736.106	0.0146315
736.184	0.0144361
736.262	0.0145441
736.340	0.0144942
736.418	0.0145000
736.496	0.0144516
736.575	0.0144512
736.653	0.0143364
736.731	0.0145791
736.809	0.0145842
736.887	0.0145525
736.965	0.0146485
737.043	0.0146472
737.121	0.0146301
737.200	0.0146336
737.278	0.0148235
737.356	0.0146815
737.434	0.0147919
737.512	0.0147263
737.590	0.0146976
737.668	0.0146777
737.746	0.0145714
737.825	0.0147932
737.903	0.0147309
737.981	0.0144992
738.059	0.0147351
738.137	0.0147503
738.215	0.0146839
738.293	0.0146806
738.371	0.0145677
738.450	0.0146066
738.528	0.0146515
738.606	0.0145445
738.684	0.0145654
738.762	0.0145886
738.840	0.0143720
738.918	0.0145632
738.996	0.0145442
739.075	0.0145044
739.153	0.0144445
739.231	0.0143967
739.309	0.0144601
739.387	0.0144312
739.465	0.0144535
739.543	0.0146109
739.621	0.0147121
739.700	0.0146679
739.778	0.0147674
739.856	0.0146398
739.934	0.0147373
740.012	0.0147121
740.090	0.0148262
740.168	0.0148595
740.246	0.0148722
740.325	0.0148594
740.403	0.0148302
740.481	0.0149197
740.559	0.0148654
740.637	0.0148631
740.715	0.0148206
740.793	0.0146944
740.871	0.0147447
740.950	0.0149316
741.028	0.0147895
741.106	0.0147012
741.184	0.0147763
741.262	0.0147440
741.340	0.0146102
741.418	0.0146693
741.496	0.0147720
741.575	0.0146107
741.653	0.0147359
741.731	0.0147091
741.809	0.0147256
741.887	0.0145838
741.965	0.0146489
742.043	0.0145302
742.121	0.0148408
742.200	0.0147043
742.278	0.0144807
742.356	0.0147313
742.434	0.0144867
742.512	0.0146889
742.590	0.0146472
742.668	0.0144862
742.746	0.0145834
742.825	0.0146377
742.903	0.0146844
742.981	0.0146240
743.059	0.0147186
743.137	0.0146987
743.215	0.0145807
743.293	0.0146638
743.371	0.0144572
743.450	0.0145964
743.528	0.0146635
743.606	0.0145758
743.684	0.0146290
743.762	0.0146780
743.840	0.0146778
743.918	0.0146602
743.996	0.0145435
744.075	0.0146239
744.153	0.0146581
744.231	0.0147525
744.309	0.0147250
744.387	0.0147486
744.465	0.0147517
744.543	0.0146844
744.621	0.0147717
744.700	0.0146984
744.778	0.0147489
744.856	0.0147498
744.934	0.0147092
745.012	0.0146983
745.090	0.0147497
745.168	0.0147417
745.246	0.0145816
745.325	0.0145258
745.403	0.0146024
745.481	0.0145735
745.559	0.0147430
745.637	0.0144910
745.715	0.0144189
745.793	0.0145441
745.871	0.0146733
745.950	0.0146402
746.028	0.0145183
746.106	0.0145135
746.184	0.0145007
746.262	0.0147422
746.340	0.0145902
746.418	0.0144779
746.496	0.0146060
746.575	0.0145752
746.653	0.0144798
746.731	0.0145257
746.809	0.0144846
746.887	0.0146284
746.965	0.0143925
747.043	0.0145085
747.121	0.0145773
747.200	0.0144736
747.278	0.0144271
747.356	0.0145216
747.434	0.0145617
747.512	0.0145585
747.590	0.0147003
747.668	0.0146436
747.746	0.0146157
747.825	0.0145765
747.903	0.0148322
747.981	0.0146671
748.059	0.0147520
748.137	0.0148211
748.215	0.0148216
748.293	0.0147845
748.371	0.0145772
748.450	0.0146730
748.528	0.0147898
748.606	0.0148342
748.684	0.0147173
748.762	0.0147105
748.840	0.0146365
748.918	0.0145488
748.996	0.0146397
749.075	0.0145905
749.153	0.0146162
749.231	0.0146708
749.309	0.0146818
749.387	0.0144643
749.465	0.0145464
749.543	0.0145927
749.621	0.0145553
749.700	0.0145415
749.778	0.0145097
749.856	0.0145945
749.934	0.0146045
750.012	0.0145969
750.090	0.0145904
750.168	0.0145763
750.246	0.0144970
750.325	0.0145221
750.403	0.0145696
750.481	0.0145286
750.559	0.0146006
750.637	0.0146048
750.715	0.0146223
750.793	0.0146808
750.871	0.0146428
750.950	0.0146496
751.028	0.0146849
751.106	0.0146530
751.184	0.0146593
751.262	0.0146095
751.340	0.0147428
751.418	0.0147625
751.496	0.0146204
751.575	0.0144580
751.653	0.0147035
751.731	0.0146993
751.809	0.0146786
751.887	0.0144187
751.965	0.0146224
752.043	0.0145834
752.121	0.0146449
752.200	0.0146030
752.278	0.0145485
752.356	0.0145483
752.434	0.0145422
752.512	0.0146058
752.590	0.0146709
752.668	0.0147196
752.746	0.0146975
752.825	0.0147662
752.903	0.0146619
752.981	0.0146954
753.059	0.0146965
753.137	0.0147947
753.215	0.0146387
753.293	0.0146546
753.371	0.0147268
753.450	0.0146462
753.528	0.0146293
753.606	0.0146294
753.684	0.0146758
753.762	0.0145279
753.840	0.0146223
753.918	0.0144626
753.996	0.0144831
754.075	0.0145646
754.153	0.0146922
754.231	0.0146499
754.309	0.0144631
754.387	0.0145718
754.465	0.0145508
754.543	0.0146120
754.621	0.0146275
754.700	0.0145973
754.778	0.0145742
754.856	0.0145335
754.934	0.0146552
755.012	0.0144825
755.090	0.0147404
755.168	0.0146243
755.246	0.0146339
755.325	0.0144473
755.403	0.0146644
755.481	0.0146491
755.559	0.0146030
755.637	0.0146504
755.715	0.0146033
755.793	0.0146143
755.871	0.0145641
755.950	0.0146562
756.028	0.0146443
756.106	0.0144962
756.184	0.0146906
756.262	0.0145621
756.340	0.0145294
756.418	0.0145647
756.496	0.0145968
756.575	0.0146438
756.653	0.0145871
756.731	0.0146151
756.809	0.0145421
756.887	0.0146181
756.965	0.0145586
757.043	0.0145423
757.121	0.0144775
757.200	0.0145453
757.278	0.0147311
757.356	0.0145978
757.434	0.0146307
757.512	0.0145724
757.590	0.0146195
757.668	0.0145801
757.746	0.0146848
757.825	0.0146833
757.903	0.0146600
757.981	0.0145866
758.059	0.0145821
758.137	0.0147029
758.215	0.0145395
758.293	0.0146979
758.371	0.0147134
758.450	0.0147430
758.528	0.0147884
758.606	0.0146407
758.684	0.0146764
758.762	0.0147134
758.840	0.0146708
758.918	0.0147803
758.996	0.0147075
759.075	0.0146777
759.153	0.0147045
759.231	0.0145809
759.309	0.0146805
759.387	0.0146984
759.465	0.0146802
759.543	0.0145129
759.621	0.0146036
759.700	0.0144706
759.778	0.0146902
759.856	0.0146417
759.934	0.0146484
760.012	0.0146066
760.090	0.0146622
760.168	0.0145509
760.246	0.0146245
760.325	0.0146513
760.403	0.0146158
760.481	0.0145332
760.559	0.0147189
760.637	0.0146777
760.715	0.0147156
760.793	0.0147137
760.871	0.0144325
760.950	0.0145992
761.028	0.0145375
761.106	0.0146840
761.184	0.0146098
761.262	0.0146679
761.340	0.0146503
761.418	0.0147563
761.496	0.0146994
761.575	0.0146392
761.653	0.0146319
761.731	0.0146848
761.809	0.0147492
761.887	0.0145751
761.965	0.0146630
762.043	0.0148922
762.121	0.0147746
762.200	0.0146803
762.278	0.0147383
762.356	0.0147015
762.434	0.0145821
762.512	0.0144819
762.590	0.0145371
762.668	0.0144855
762.746	0.0146111
762.825	0.0146210
762.903	0.0146636
762.981	0.0146941
763.059	0.0146560
763.137	0.0147831
763.215	0.0147094
763.293	0.0146056
763.371	0.0147324
763.450	0.0146438
763.528	0.0145358
763.606	0.0147427
763.684	0.0146854
763.762	0.0147870
763.840	0.0145593
763.918	0.0146614
763.996	0.0148660
764.075	0.0147575
764.153	0.0146699
764.231	0.0147630
764.309	0.0147418
764.387	0.0145258
764.465	0.0145772
764.543	0.0145728
764.621	0.0147114
764.700	0.0148313
