05/04/2022	21:41:14	Ver.	4.1	UNKNOWN
Optical Delay	678.989730	Delta X		0.078125	Sweeps	1	Scan Rate	0/0
Coordinates	Axis 1	NaN	Axis 2	NaN	Axis 3	NaN	Axis 4	NaN	Axis 5	NaN	Axis 6	0.000000
TX Power	0.000000	RX Power	0.000000

678.990	0.0144467
679.068	0.0145152
679.146	0.0147670
679.224	0.0148129
679.302	0.0148530
679.380	0.0148324
679.458	0.0147578
679.537	0.0147962
679.615	0.0146477
679.693	0.0144693
679.771	0.0143356
679.849	0.0142322
679.927	0.0141502
680.005	0.0141563
680.083	0.0142470
680.162	0.0140942
680.240	0.0142013
680.318	0.0144556
680.396	0.0142445
680.474	0.0144391
680.552	0.0145740
680.630	0.0147180
680.708	0.0147823
680.787	0.0147962
680.865	0.0146959
680.943	0.0148366
681.021	0.0148071
681.099	0.0150082
681.177	0.0147855
681.255	0.0147855
681.333	0.0146551
681.412	0.0146167
681.490	0.0146687
681.568	0.0144336
681.646	0.0141869
681.724	0.0144118
681.802	0.0141791
681.880	0.0142255
681.958	0.0142491
682.037	0.0142731
682.115	0.0143719
682.193	0.0144605
682.271	0.0148096
682.349	0.0148458
682.427	0.0149080
682.505	0.0149543
682.583	0.0149945
682.662	0.0152445
682.740	0.0151414
682.818	0.0151730
682.896	0.0152573
682.974	0.0150706
683.052	0.0147065
683.130	0.0145245
683.208	0.0142950
683.287	0.0139688
683.365	0.0137405
683.443	0.0133936
683.521	0.0132181
683.599	0.0132519
683.677	0.0132550
683.755	0.0133893
683.833	0.0135409
683.912	0.0137870
683.990	0.0141489
684.068	0.0144991
684.146	0.0147826
684.224	0.0151548
684.302	0.0154155
684.380	0.0155374
684.458	0.0156421
684.537	0.0155632
684.615	0.0156267
684.693	0.0154703
684.771	0.0153255
684.849	0.0151005
684.927	0.0150305
685.005	0.0148047
685.083	0.0145972
685.162	0.0145493
685.240	0.0143958
685.318	0.0144366
685.396	0.0144811
685.474	0.0145570
685.552	0.0143625
685.630	0.0144482
685.708	0.0145029
685.787	0.0146194
685.865	0.0146276
685.943	0.0145231
686.021	0.0145034
686.099	0.0143799
686.177	0.0142658
686.255	0.0140021
686.333	0.0138654
686.412	0.0136584
686.490	0.0133823
686.568	0.0133726
686.646	0.0133910
686.724	0.0134775
686.802	0.0135655
686.880	0.0138991
686.958	0.0142283
687.037	0.0144292
687.115	0.0148555
687.193	0.0152921
687.271	0.0155813
687.349	0.0158978
687.427	0.0159241
687.505	0.0160207
687.583	0.0160062
687.662	0.0159085
687.740	0.0155260
687.818	0.0152531
687.896	0.0149219
687.974	0.0146877
688.052	0.0142995
688.130	0.0140418
688.208	0.0137901
688.287	0.0137429
688.365	0.0136241
688.443	0.0136457
688.521	0.0138019
688.599	0.0138210
688.677	0.0139133
688.755	0.0140175
688.833	0.0143313
688.912	0.0144308
688.990	0.0145189
689.068	0.0146673
689.146	0.0145770
689.224	0.0145157
689.302	0.0144121
689.380	0.0144044
689.458	0.0143806
689.537	0.0142010
689.615	0.0141419
689.693	0.0142078
689.771	0.0140855
689.849	0.0141285
689.927	0.0142014
690.005	0.0141891
690.083	0.0143813
690.162	0.0145188
690.240	0.0146811
690.318	0.0149004
690.396	0.0148899
690.474	0.0150177
690.552	0.0149979
690.630	0.0150908
690.708	0.0152896
690.787	0.0152332
690.865	0.0151479
690.943	0.0149998
691.021	0.0149068
691.099	0.0147410
691.177	0.0147762
691.255	0.0144073
691.333	0.0143266
691.412	0.0143958
691.490	0.0142503
691.568	0.0143300
691.646	0.0142457
691.724	0.0143389
691.802	0.0143551
691.880	0.0143200
691.958	0.0144559
692.037	0.0145115
692.115	0.0144099
692.193	0.0143924
692.271	0.0143350
692.349	0.0143692
692.427	0.0143069
692.505	0.0142941
692.583	0.0142628
692.662	0.0142741
692.740	0.0140760
692.818	0.0141017
692.896	0.0141048
692.974	0.0141226
693.052	0.0142374
693.130	0.0143031
693.208	0.0142515
693.287	0.0143292
693.365	0.0143255
693.443	0.0142774
693.521	0.0142184
693.599	0.0143545
693.677	0.0143935
693.755	0.0143222
693.833	0.0146249
693.912	0.0145234
693.990	0.0144704
694.068	0.0144808
694.146	0.0146012
694.224	0.0146451
694.302	0.0147504
694.380	0.0148447
694.458	0.0147941
694.537	0.0147989
694.615	0.0148318
694.693	0.0147392
694.771	0.0147919
694.849	0.0146313
694.927	0.0143330
695.005	0.0143630
695.083	0.0143102
695.162	0.0142489
695.240	0.0140684
695.318	0.0138438
695.396	0.0139696
695.474	0.0140620
695.552	0.0142034
695.630	0.0141521
695.708	0.0141727
695.787	0.0142413
695.865	0.0144407
695.943	0.0145992
696.021	0.0145613
696.099	0.0145419
696.177	0.0146908
696.255	0.0146179
696.333	0.0146254
696.412	0.0143682
696.490	0.0143114
696.568	0.0142873
696.646	0.0143936
696.724	0.0143717
696.802	0.0143613
696.880	0.0142399
696.958	0.0143967
697.037	0.0144695
697.115	0.0144971
697.193	0.0144569
697.271	0.0145016
697.349	0.0145972
697.427	0.0144308
697.505	0.0146124
697.583	0.0143557
697.662	0.0143127
697.740	0.0143820
697.818	0.0142556
697.896	0.0142711
697.974	0.0142832
698.052	0.0143633
698.130	0.0142236
698.208	0.0142757
698.287	0.0142953
698.365	0.0145184
698.443	0.0144836
698.521	0.0145850
698.599	0.0147983
698.677	0.0148863
698.755	0.0149322
698.833	0.0149728
698.912	0.0150285
698.990	0.0150083
699.068	0.0149915
699.146	0.0150784
699.224	0.0150538
699.302	0.0148917
699.380	0.0147814
699.458	0.0146546
699.537	0.0144621
699.615	0.0144762
699.693	0.0142625
699.771	0.0141347
699.849	0.0138080
699.927	0.0138858
700.005	0.0138058
700.083	0.0137977
700.162	0.0137115
700.240	0.0136777
700.318	0.0137360
700.396	0.0138251
700.474	0.0139160
700.552	0.0139978
700.630	0.0140855
700.708	0.0141716
700.787	0.0143332
700.865	0.0143916
700.943	0.0144938
701.021	0.0144347
701.099	0.0148843
701.177	0.0148308
701.255	0.0149491
701.333	0.0148901
701.412	0.0151286
701.490	0.0151415
701.568	0.0151778
701.646	0.0150249
701.724	0.0150326
701.802	0.0151186
701.880	0.0150979
701.958	0.0151408
702.037	0.0149998
702.115	0.0149918
702.193	0.0148783
702.271	0.0149496
702.349	0.0148340
702.427	0.0148408
702.505	0.0146289
702.583	0.0144537
702.662	0.0144389
702.740	0.0141214
702.818	0.0139580
702.896	0.0138222
702.974	0.0135282
703.052	0.0134923
703.130	0.0134590
703.208	0.0136182
703.287	0.0136108
703.365	0.0137180
703.443	0.0139297
703.521	0.0141829
703.599	0.0144012
703.677	0.0146130
703.755	0.0148561
703.833	0.0150661
703.912	0.0150819
703.990	0.0151685
704.068	0.0150273
704.146	0.0150651
704.224	0.0149555
704.302	0.0148785
704.380	0.0147856
704.458	0.0145601
704.537	0.0145292
704.615	0.0144279
704.693	0.0144254
704.771	0.0143930
704.849	0.0143769
704.927	0.0144343
705.005	0.0143831
705.083	0.0144563
705.162	0.0145058
705.240	0.0143742
705.318	0.0145206
705.396	0.0144392
705.474	0.0144590
705.552	0.0145866
705.630	0.0143977
705.708	0.0144965
705.787	0.0146056
705.865	0.0144865
705.943	0.0147539
706.021	0.0147606
706.099	0.0148030
706.177	0.0148813
706.255	0.0149489
706.333	0.0148908
706.412	0.0150980
706.490	0.0150967
706.568	0.0151204
706.646	0.0150292
706.724	0.0148820
706.802	0.0148636
706.880	0.0148540
706.958	0.0144872
707.037	0.0144083
707.115	0.0143281
707.193	0.0140904
707.271	0.0139294
707.349	0.0137855
707.427	0.0136427
707.505	0.0135500
707.583	0.0135622
707.662	0.0136118
707.740	0.0137337
707.818	0.0139149
707.896	0.0138655
707.974	0.0140142
708.052	0.0142035
708.130	0.0143585
708.208	0.0144321
708.287	0.0145424
708.365	0.0146375
708.443	0.0148792
708.521	0.0148891
708.599	0.0150227
708.677	0.0151093
708.755	0.0150220
708.833	0.0151351
708.912	0.0151733
708.990	0.0151330
709.068	0.0150531
709.146	0.0152274
709.224	0.0149790
709.302	0.0148546
709.380	0.0148653
709.458	0.0147636
709.537	0.0146377
709.615	0.0145202
709.693	0.0143346
709.771	0.0144081
709.849	0.0141828
709.927	0.0141523
710.005	0.0140936
710.083	0.0140333
710.162	0.0139070
710.240	0.0140583
710.318	0.0139877
710.396	0.0140315
710.474	0.0139594
710.552	0.0140114
710.630	0.0141779
710.708	0.0142367
710.787	0.0143185
710.865	0.0144651
710.943	0.0145752
711.021	0.0145689
711.099	0.0146506
711.177	0.0148497
711.255	0.0146979
711.333	0.0148876
711.412	0.0148569
711.490	0.0148266
711.568	0.0147436
711.646	0.0147849
711.724	0.0147188
711.802	0.0148034
711.880	0.0146992
711.958	0.0147949
712.037	0.0146704
712.115	0.0145451
712.193	0.0144659
712.271	0.0144391
712.349	0.0143845
712.427	0.0141335
712.505	0.0143847
712.583	0.0144036
712.662	0.0141932
712.740	0.0142131
712.818	0.0143579
712.896	0.0143298
712.974	0.0145074
713.052	0.0144964
713.130	0.0145358
713.208	0.0146890
713.287	0.0146423
713.365	0.0147196
713.443	0.0146796
713.521	0.0147446
713.599	0.0147468
713.677	0.0147700
713.755	0.0148268
713.833	0.0146934
713.912	0.0146185
713.990	0.0144801
714.068	0.0145681
714.146	0.0145500
714.224	0.0142947
714.302	0.0143655
714.380	0.0143851
714.458	0.0144449
714.537	0.0142038
714.615	0.0142838
714.693	0.0142516
714.771	0.0143723
714.849	0.0142820
714.927	0.0142001
715.005	0.0145033
715.083	0.0143910
715.162	0.0144573
715.240	0.0146325
715.318	0.0144736
715.396	0.0144378
715.474	0.0145109
715.552	0.0145444
715.630	0.0145084
715.708	0.0143993
715.787	0.0145183
715.865	0.0145747
715.943	0.0147252
716.021	0.0148183
716.099	0.0145943
716.177	0.0145753
716.255	0.0146741
716.333	0.0146709
716.412	0.0145921
716.490	0.0146638
716.568	0.0145228
716.646	0.0145096
716.724	0.0142438
716.802	0.0143633
716.880	0.0143688
716.958	0.0142856
717.037	0.0141046
717.115	0.0141576
717.193	0.0141967
717.271	0.0143337
717.349	0.0141389
717.427	0.0140411
717.505	0.0142002
717.583	0.0144920
717.662	0.0143604
717.740	0.0144694
717.818	0.0145486
717.896	0.0144995
717.974	0.0144936
718.052	0.0145199
718.130	0.0145799
718.208	0.0147144
718.287	0.0145817
718.365	0.0144500
718.443	0.0145389
718.521	0.0144804
718.599	0.0144730
718.677	0.0143906
718.755	0.0142498
718.833	0.0141689
718.912	0.0144337
718.990	0.0142736
719.068	0.0143224
719.146	0.0144502
719.224	0.0143935
719.302	0.0144405
719.380	0.0142981
719.458	0.0144080
719.537	0.0144090
719.615	0.0144903
719.693	0.0144691
719.771	0.0145744
719.849	0.0147090
719.927	0.0145110
720.005	0.0146790
720.083	0.0145071
720.162	0.0145128
720.240	0.0145360
720.318	0.0146866
720.396	0.0145213
720.474	0.0144075
720.552	0.0144374
720.630	0.0142349
720.708	0.0142471
720.787	0.0142464
720.865	0.0142269
720.943	0.0142004
721.021	0.0141517
721.099	0.0141459
721.177	0.0142358
721.255	0.0142489
721.333	0.0141292
721.412	0.0141783
721.490	0.0142299
721.568	0.0141750
721.646	0.0141333
721.724	0.0142164
721.802	0.0142367
721.880	0.0143116
721.958	0.0142744
722.037	0.0144865
722.115	0.0144819
722.193	0.0143647
722.271	0.0145238
722.349	0.0145661
722.427	0.0144658
722.505	0.0146685
722.583	0.0146844
722.662	0.0147909
722.740	0.0147978
722.818	0.0149126
722.896	0.0149435
722.974	0.0147570
723.052	0.0148109
723.130	0.0148498
723.208	0.0147884
723.287	0.0147587
723.365	0.0146964
723.443	0.0146703
723.521	0.0144709
723.599	0.0143812
723.677	0.0143198
723.755	0.0142780
723.833	0.0142508
723.912	0.0143285
723.990	0.0142712
724.068	0.0142213
724.146	0.0141475
724.224	0.0142082
724.302	0.0143140
724.380	0.0142183
724.458	0.0141515
724.537	0.0143832
724.615	0.0144962
724.693	0.0143333
724.771	0.0144461
724.849	0.0145164
724.927	0.0145581
725.005	0.0147153
725.083	0.0145655
725.162	0.0145236
725.240	0.0145811
725.318	0.0146409
725.396	0.0146288
725.474	0.0146255
725.552	0.0146461
725.630	0.0145598
725.708	0.0145921
725.787	0.0145191
725.865	0.0145374
725.943	0.0146127
726.021	0.0145238
726.099	0.0144919
726.177	0.0145373
726.255	0.0144143
726.333	0.0144477
726.412	0.0144748
726.490	0.0143807
726.568	0.0144326
726.646	0.0143214
726.724	0.0143420
726.802	0.0144188
726.880	0.0143623
726.958	0.0143304
727.037	0.0144320
727.115	0.0144778
727.193	0.0146169
727.271	0.0146323
727.349	0.0145348
727.427	0.0146872
727.505	0.0145197
727.583	0.0146446
727.662	0.0145997
727.740	0.0145896
727.818	0.0146172
727.896	0.0145211
727.974	0.0144722
728.052	0.0145772
728.130	0.0145258
728.208	0.0144094
728.287	0.0143192
728.365	0.0143532
728.443	0.0142820
728.521	0.0143372
728.599	0.0143048
728.677	0.0142883
728.755	0.0141660
728.833	0.0143066
728.912	0.0143183
728.990	0.0142606
729.068	0.0142461
729.146	0.0142991
729.224	0.0143693
729.302	0.0143009
729.380	0.0143875
729.458	0.0145456
729.537	0.0144736
729.615	0.0144114
729.693	0.0146227
729.771	0.0147401
729.849	0.0147064
729.927	0.0145874
730.005	0.0147012
730.083	0.0146597
730.162	0.0147449
730.240	0.0148122
730.318	0.0147641
730.396	0.0146575
730.474	0.0147058
730.552	0.0145530
730.630	0.0146329
730.708	0.0145847
730.787	0.0144815
730.865	0.0145262
730.943	0.0144287
731.021	0.0144228
731.099	0.0142897
731.177	0.0141956
731.255	0.0141805
731.333	0.0143450
731.412	0.0143002
731.490	0.0141940
731.568	0.0142679
731.646	0.0143078
731.724	0.0143346
731.802	0.0144781
731.880	0.0143879
731.958	0.0144475
732.037	0.0144155
732.115	0.0143641
732.193	0.0145073
732.271	0.0145645
732.349	0.0145261
732.427	0.0144324
732.505	0.0145741
732.583	0.0145332
732.662	0.0144699
732.740	0.0146281
732.818	0.0146175
732.896	0.0145346
732.974	0.0146323
733.052	0.0146024
733.130	0.0146413
733.208	0.0146965
733.287	0.0145937
733.365	0.0145670
733.443	0.0146648
733.521	0.0146352
733.599	0.0144843
733.677	0.0144868
733.755	0.0144715
733.833	0.0143871
733.912	0.0143405
733.990	0.0143945
734.068	0.0144119
734.146	0.0143017
734.224	0.0142528
734.302	0.0142300
734.380	0.0145031
734.458	0.0143088
734.537	0.0143493
734.615	0.0143669
734.693	0.0144306
734.771	0.0145213
734.849	0.0145266
734.927	0.0145940
735.005	0.0145007
735.083	0.0144493
735.162	0.0143988
735.240	0.0146059
735.318	0.0145441
735.396	0.0144986
735.474	0.0144621
735.552	0.0146117
735.630	0.0145168
735.708	0.0145158
735.787	0.0144760
735.865	0.0145908
735.943	0.0144508
736.021	0.0144311
736.099	0.0144262
736.177	0.0143718
736.255	0.0143028
736.333	0.0145327
736.412	0.0143456
736.490	0.0142783
736.568	0.0145338
736.646	0.0143931
736.724	0.0144703
736.802	0.0145676
736.880	0.0145162
736.958	0.0146552
737.037	0.0145698
737.115	0.0145691
737.193	0.0145987
737.271	0.0145763
737.349	0.0145348
737.427	0.0145426
737.505	0.0146387
737.583	0.0146513
737.662	0.0146821
737.740	0.0145510
737.818	0.0146053
737.896	0.0146671
737.974	0.0147478
738.052	0.0145246
738.130	0.0145874
738.208	0.0146170
738.287	0.0145278
738.365	0.0145661
738.443	0.0143899
738.521	0.0144672
738.599	0.0144263
738.677	0.0143072
738.755	0.0143638
738.833	0.0143114
738.912	0.0141707
738.990	0.0143697
739.068	0.0143895
739.146	0.0144218
739.224	0.0144328
739.302	0.0144461
739.380	0.0144305
739.458	0.0145227
739.537	0.0144270
739.615	0.0143655
739.693	0.0145426
739.771	0.0144708
739.849	0.0144472
739.927	0.0145644
740.005	0.0145889
740.083	0.0146670
740.162	0.0145365
740.240	0.0146510
740.318	0.0147445
740.396	0.0146720
740.474	0.0146113
740.552	0.0147430
740.630	0.0146986
740.708	0.0147610
740.787	0.0145435
740.865	0.0145992
740.943	0.0146545
741.021	0.0146416
741.099	0.0145039
741.177	0.0144783
741.255	0.0146353
741.333	0.0144160
741.412	0.0144031
741.490	0.0144632
741.568	0.0144682
741.646	0.0144037
741.724	0.0143536
741.802	0.0144781
741.880	0.0143655
741.958	0.0143621
742.037	0.0143681
742.115	0.0142897
742.193	0.0143504
742.271	0.0143181
742.349	0.0142904
742.427	0.0143550
742.505	0.0143540
742.583	0.0144764
742.662	0.0143223
742.740	0.0143694
742.818	0.0143654
742.896	0.0144099
742.974	0.0144079
743.052	0.0145098
743.130	0.0144637
743.208	0.0143921
743.287	0.0144315
743.365	0.0144861
743.443	0.0143404
743.521	0.0144342
743.599	0.0143393
743.677	0.0142873
743.755	0.0145222
743.833	0.0144005
743.912	0.0143583
743.990	0.0142715
744.068	0.0143681
744.146	0.0143472
744.224	0.0146032
744.302	0.0143456
744.380	0.0143455
744.458	0.0144523
744.537	0.0144440
744.615	0.0144573
744.693	0.0144663
744.771	0.0145364
744.849	0.0145070
744.927	0.0143973
745.005	0.0143748
745.083	0.0144532
745.162	0.0143877
745.240	0.0142969
745.318	0.0143647
745.396	0.0144106
745.474	0.0144571
745.552	0.0143417
745.630	0.0144266
745.708	0.0145309
745.787	0.0144432
745.865	0.0144083
745.943	0.0146175
746.021	0.0143923
746.099	0.0144900
746.177	0.0143696
746.255	0.0144604
746.333	0.0145393
746.412	0.0144777
746.490	0.0143793
746.568	0.0144229
746.646	0.0143282
746.724	0.0143733
746.802	0.0143674
746.880	0.0143642
746.958	0.0142617
747.037	0.0143737
747.115	0.0144616
747.193	0.0143497
747.271	0.0143485
747.349	0.0144039
747.427	0.0144700
747.505	0.0144120
747.583	0.0146228
747.662	0.0145839
747.740	0.0144594
747.818	0.0143465
747.896	0.0145319
747.974	0.0145375
748.052	0.0144673
748.130	0.0145932
748.208	0.0146303
748.287	0.0144894
748.365	0.0145845
748.443	0.0145565
748.521	0.0145692
748.599	0.0144392
748.677	0.0144397
748.755	0.0144779
748.833	0.0145822
748.912	0.0145168
748.990	0.0144437
749.068	0.0144989
749.146	0.0143520
749.224	0.0144736
749.302	0.0143677
749.380	0.0142890
749.458	0.0143199
749.537	0.0143636
749.615	0.0142521
749.693	0.0143439
749.771	0.0143053
749.849	0.0143324
749.927	0.0144818
750.005	0.0143496
750.083	0.0143941
750.162	0.0142612
750.240	0.0143726
750.318	0.0145070
750.396	0.0145012
750.474	0.0144225
750.552	0.0145858
750.630	0.0145910
750.708	0.0144441
750.787	0.0144975
750.865	0.0145952
750.943	0.0145483
751.021	0.0146280
751.099	0.0146719
751.177	0.0146095
751.255	0.0145100
751.333	0.0144839
751.412	0.0145138
751.490	0.0145467
751.568	0.0143710
751.646	0.0144821
751.724	0.0144862
751.802	0.0144636
751.880	0.0143738
751.958	0.0142651
752.037	0.0144190
752.115	0.0145698
752.193	0.0145082
752.271	0.0143109
752.349	0.0145153
752.427	0.0146227
752.505	0.0145940
752.583	0.0146958
752.662	0.0145098
752.740	0.0146080
752.818	0.0147044
752.896	0.0146091
752.974	0.0146337
753.052	0.0145095
753.130	0.0145660
753.208	0.0146362
753.287	0.0146467
753.365	0.0145023
753.443	0.0144595
753.521	0.0144223
753.599	0.0145128
753.677	0.0145906
753.755	0.0144340
753.833	0.0145772
753.912	0.0146069
753.990	0.0145650
754.068	0.0144640
754.146	0.0144914
754.224	0.0145522
754.302	0.0143327
754.380	0.0144916
754.458	0.0144786
754.537	0.0146066
754.615	0.0146179
754.693	0.0146487
754.771	0.0145126
754.849	0.0145161
754.927	0.0145116
755.005	0.0145720
755.083	0.0146562
755.162	0.0145412
755.240	0.0145362
755.318	0.0146695
755.396	0.0145943
755.474	0.0145490
755.552	0.0145393
755.630	0.0144936
755.708	0.0146291
755.787	0.0145708
755.865	0.0144933
755.943	0.0144997
756.021	0.0146017
756.099	0.0145462
756.177	0.0146358
756.255	0.0145872
756.333	0.0144035
756.412	0.0145110
756.490	0.0145666
756.568	0.0144953
756.646	0.0144577
756.724	0.0144374
756.802	0.0144465
756.880	0.0144588
756.958	0.0144095
757.037	0.0145616
757.115	0.0146170
757.193	0.0143800
757.271	0.0142131
757.349	0.0145039
757.427	0.0143695
757.505	0.0144804
757.583	0.0144851
757.662	0.0143915
757.740	0.0143551
757.818	0.0143774
757.896	0.0142970
757.974	0.0144331
758.052	0.0145120
758.130	0.0144013
758.208	0.0144415
758.287	0.0144129
758.365	0.0144698
758.443	0.0145171
758.521	0.0144599
758.599	0.0145050
758.677	0.0143960
758.755	0.0144717
758.833	0.0145765
758.912	0.0145287
758.990	0.0144916
759.068	0.0144828
759.146	0.0144547
759.224	0.0144228
759.302	0.0145943
759.380	0.0145959
759.458	0.0145148
759.537	0.0145497
759.615	0.0145256
759.693	0.0142706
759.771	0.0142651
759.849	0.0145020
759.927	0.0144629
760.005	0.0145135
760.083	0.0144665
760.162	0.0144895
760.240	0.0144968
760.318	0.0145308
760.396	0.0145589
760.474	0.0145358
760.552	0.0145247
760.630	0.0145615
760.708	0.0145573
760.787	0.0145512
760.865	0.0144896
760.943	0.0144711
761.021	0.0145600
761.099	0.0146859
761.177	0.0145412
761.255	0.0145494
761.333	0.0145277
761.412	0.0145911
761.490	0.0145448
761.568	0.0145063
761.646	0.0145151
761.724	0.0145804
761.802	0.0145839
761.880	0.0146491
761.958	0.0145866
762.037	0.0145012
762.115	0.0145053
762.193	0.0145688
762.271	0.0146964
762.349	0.0145047
762.427	0.0145090
762.505	0.0144810
762.583	0.0145433
762.662	0.0144700
762.740	0.0146608
762.818	0.0145320
762.896	0.0145538
762.974	0.0145568
763.052	0.0145162
763.130	0.0144379
763.208	0.0146482
763.287	0.0145689
763.365	0.0145240
763.443	0.0145016
763.521	0.0147379
763.599	0.0146388
763.677	0.0146553
763.755	0.0146450
763.833	0.0146535
763.912	0.0146415
763.990	0.0146273
764.068	0.0146288
764.146	0.0144467
764.224	0.0145907
764.302	0.0145102
764.380	0.0146095
764.458	0.0145276
764.537	0.0145418
764.615	0.0144156
764.693	0.0146357
