05/04/2022	21:42:34	Ver.	4.1	UNKNOWN
Optical Delay	678.996401	Delta X		0.078125	Sweeps	1	Scan Rate	0/0
Coordinates	Axis 1	NaN	Axis 2	NaN	Axis 3	NaN	Axis 4	NaN	Axis 5	NaN	Axis 6	0.000000
TX Power	0.000000	RX Power	0.000000

678.996	0.0143142
679.075	0.0146076
679.153	0.0144685
679.231	0.0142606
679.309	0.0144069
679.387	0.0142860
679.465	0.0141144
679.543	0.0141911
679.621	0.0142170
679.700	0.0142384
679.778	0.0142142
679.856	0.0143795
679.934	0.0144390
680.012	0.0144707
680.090	0.0144482
680.168	0.0144781
680.246	0.0144718
680.325	0.0143261
680.403	0.0143800
680.481	0.0144160
680.559	0.0143957
680.637	0.0144091
680.715	0.0144899
680.793	0.0144733
680.871	0.0145348
680.950	0.0146645
681.028	0.0142847
681.106	0.0142723
681.184	0.0143314
681.262	0.0142254
681.340	0.0141152
681.418	0.0140134
681.496	0.0139544
681.575	0.0140034
681.653	0.0140660
681.731	0.0140993
681.809	0.0143327
681.887	0.0144000
681.965	0.0146566
682.043	0.0147414
682.121	0.0148989
682.200	0.0149540
682.278	0.0150822
682.356	0.0150260
682.434	0.0150303
682.512	0.0149744
682.590	0.0149130
682.668	0.0145952
682.746	0.0144021
682.825	0.0141694
682.903	0.0136946
682.981	0.0134776
683.059	0.0132957
683.137	0.0130224
683.215	0.0128821
683.293	0.0130233
683.371	0.0129552
683.450	0.0132222
683.528	0.0136008
683.606	0.0139593
683.684	0.0144046
683.762	0.0147235
683.840	0.0151332
683.918	0.0153487
683.996	0.0156602
684.075	0.0155907
684.153	0.0155973
684.231	0.0156594
684.309	0.0153018
684.387	0.0151190
684.465	0.0150102
684.543	0.0147298
684.621	0.0143172
684.700	0.0141690
684.778	0.0142448
684.856	0.0140655
684.934	0.0141379
685.012	0.0141786
685.090	0.0140798
685.168	0.0143468
685.246	0.0143010
685.325	0.0145818
685.403	0.0145812
685.481	0.0146025
685.559	0.0145085
685.637	0.0143091
685.715	0.0141907
685.793	0.0140845
685.871	0.0137682
685.950	0.0136214
686.028	0.0134763
686.106	0.0134415
686.184	0.0132637
686.262	0.0131744
686.340	0.0134856
686.418	0.0136451
686.496	0.0137138
686.575	0.0140294
686.653	0.0143160
686.731	0.0145957
686.809	0.0148570
686.887	0.0151239
686.965	0.0154079
687.043	0.0153600
687.121	0.0154859
687.200	0.0153692
687.278	0.0155202
687.356	0.0153840
687.434	0.0149293
687.512	0.0148771
687.590	0.0145905
687.668	0.0141766
687.746	0.0138496
687.825	0.0136594
687.903	0.0134943
687.981	0.0135656
688.059	0.0133888
688.137	0.0134618
688.215	0.0135041
688.293	0.0135255
688.371	0.0135989
688.450	0.0137114
688.528	0.0136682
688.606	0.0138611
688.684	0.0138779
688.762	0.0140403
688.840	0.0139864
688.918	0.0139017
688.996	0.0140344
689.075	0.0139342
689.153	0.0142551
689.231	0.0141132
689.309	0.0141570
689.387	0.0142124
689.465	0.0143929
689.543	0.0143964
689.621	0.0144341
689.700	0.0146531
689.778	0.0146199
689.856	0.0148455
689.934	0.0148441
690.012	0.0149403
690.090	0.0149292
690.168	0.0150222
690.246	0.0149905
690.325	0.0148637
690.403	0.0148080
690.481	0.0147526
690.559	0.0146208
690.637	0.0142469
690.715	0.0143067
690.793	0.0140997
690.871	0.0142802
690.950	0.0140745
691.028	0.0141639
691.106	0.0140720
691.184	0.0140669
691.262	0.0143353
691.340	0.0142669
691.418	0.0142839
691.496	0.0143520
691.575	0.0142393
691.653	0.0144203
691.731	0.0146121
691.809	0.0144784
691.887	0.0142459
691.965	0.0141930
692.043	0.0141371
692.121	0.0142648
692.200	0.0142403
692.278	0.0140772
692.356	0.0142584
692.434	0.0143609
692.512	0.0141362
692.590	0.0142799
692.668	0.0144704
692.746	0.0145647
692.825	0.0144470
692.903	0.0145825
692.981	0.0144341
693.059	0.0145084
693.137	0.0145760
693.215	0.0144252
693.293	0.0143478
693.371	0.0142385
693.450	0.0142833
693.528	0.0142087
693.606	0.0140754
693.684	0.0140034
693.762	0.0140112
693.840	0.0140571
693.918	0.0140974
693.996	0.0143812
694.075	0.0142768
694.153	0.0145457
694.231	0.0147315
694.309	0.0149419
694.387	0.0150986
694.465	0.0150229
694.543	0.0150493
694.621	0.0151044
694.700	0.0150446
694.778	0.0147699
694.856	0.0145258
694.934	0.0143207
695.012	0.0141208
695.090	0.0136909
695.168	0.0136317
695.246	0.0136298
695.325	0.0135204
695.403	0.0135824
695.481	0.0136646
695.559	0.0137478
695.637	0.0139260
695.715	0.0141144
695.793	0.0143553
695.871	0.0144911
695.950	0.0146948
696.028	0.0148257
696.106	0.0148948
696.184	0.0147982
696.262	0.0147482
696.340	0.0146627
696.418	0.0146039
696.496	0.0144384
696.575	0.0144230
696.653	0.0141842
696.731	0.0141924
696.809	0.0140509
696.887	0.0141651
696.965	0.0143230
697.043	0.0144099
697.121	0.0144605
697.200	0.0146689
697.278	0.0146495
697.356	0.0145428
697.434	0.0147073
697.512	0.0145928
697.590	0.0145846
697.668	0.0145018
697.746	0.0145718
697.825	0.0142957
697.903	0.0143079
697.981	0.0142638
698.059	0.0140471
698.137	0.0140475
698.215	0.0140672
698.293	0.0141595
698.371	0.0142883
698.450	0.0144915
698.528	0.0144431
698.606	0.0145403
698.684	0.0149237
698.762	0.0150226
698.840	0.0149016
698.918	0.0150121
698.996	0.0150395
699.075	0.0150237
699.153	0.0148565
699.231	0.0146479
699.309	0.0145058
699.387	0.0143922
699.465	0.0141835
699.543	0.0141006
699.621	0.0138956
699.700	0.0137932
699.778	0.0137974
699.856	0.0137911
699.934	0.0135896
700.012	0.0136681
700.090	0.0136681
700.168	0.0137161
700.246	0.0139884
700.325	0.0138627
700.403	0.0141952
700.481	0.0142690
700.559	0.0142509
700.637	0.0143655
700.715	0.0144357
700.793	0.0143666
700.871	0.0144073
700.950	0.0145438
701.028	0.0147650
701.106	0.0147641
701.184	0.0147823
701.262	0.0149374
701.340	0.0148710
701.418	0.0150069
701.496	0.0151382
701.575	0.0152621
701.653	0.0150932
701.731	0.0150686
701.809	0.0149958
701.887	0.0149107
701.965	0.0149062
702.043	0.0148884
702.121	0.0146233
702.200	0.0144500
702.278	0.0143770
702.356	0.0143542
702.434	0.0142310
702.512	0.0138986
702.590	0.0137169
702.668	0.0137366
702.746	0.0137062
702.825	0.0137235
702.903	0.0136278
702.981	0.0137349
703.059	0.0138255
703.137	0.0137074
703.215	0.0139332
703.293	0.0139947
703.371	0.0142213
703.450	0.0143020
703.528	0.0143830
703.606	0.0145379
703.684	0.0144424
703.762	0.0146325
703.840	0.0146899
703.918	0.0147149
703.996	0.0147703
704.075	0.0147655
704.153	0.0145553
704.231	0.0145303
704.309	0.0145274
704.387	0.0145400
704.465	0.0145528
704.543	0.0144679
704.621	0.0145095
704.700	0.0145108
704.778	0.0145146
704.856	0.0144882
704.934	0.0143732
705.012	0.0142239
705.090	0.0142566
705.168	0.0142383
705.246	0.0141295
705.325	0.0140744
705.403	0.0142632
705.481	0.0142950
705.559	0.0142524
705.637	0.0143050
705.715	0.0144113
705.793	0.0144518
705.871	0.0145589
705.950	0.0146658
706.028	0.0145998
706.106	0.0145310
706.184	0.0146027
706.262	0.0145686
706.340	0.0144370
706.418	0.0145802
706.496	0.0145441
706.575	0.0144417
706.653	0.0144199
706.731	0.0142588
706.809	0.0141787
706.887	0.0141747
706.965	0.0142197
707.043	0.0140712
707.121	0.0139088
707.200	0.0138719
707.278	0.0138401
707.356	0.0136449
707.434	0.0138472
707.512	0.0137949
707.590	0.0138158
707.668	0.0137284
707.746	0.0139787
707.825	0.0141087
707.903	0.0140342
707.981	0.0141810
708.059	0.0143169
708.137	0.0143919
708.215	0.0145517
708.293	0.0146181
708.371	0.0146572
708.450	0.0146852
708.528	0.0146107
708.606	0.0147629
708.684	0.0147423
708.762	0.0148235
708.840	0.0146775
708.918	0.0147325
708.996	0.0145995
709.075	0.0145369
709.153	0.0145285
709.231	0.0145365
709.309	0.0144962
709.387	0.0144287
709.465	0.0143145
709.543	0.0143111
709.621	0.0141500
709.700	0.0141140
709.778	0.0140304
709.856	0.0139900
709.934	0.0140173
710.012	0.0137510
710.090	0.0139008
710.168	0.0138861
710.246	0.0138298
710.325	0.0138786
710.403	0.0139882
710.481	0.0138706
710.559	0.0139862
710.637	0.0141443
710.715	0.0141302
710.793	0.0142754
710.871	0.0143193
710.950	0.0143608
711.028	0.0145238
711.106	0.0143491
711.184	0.0144012
711.262	0.0144287
711.340	0.0144881
711.418	0.0145168
711.496	0.0144245
711.575	0.0144540
711.653	0.0145826
711.731	0.0145515
711.809	0.0144308
711.887	0.0145061
711.965	0.0145061
712.043	0.0145334
712.121	0.0145039
712.200	0.0144625
712.278	0.0143999
712.356	0.0142813
712.434	0.0143504
712.512	0.0142576
712.590	0.0142475
712.668	0.0143569
712.746	0.0142249
712.825	0.0142702
712.903	0.0143736
712.981	0.0143243
713.059	0.0142715
713.137	0.0144829
713.215	0.0144633
713.293	0.0144033
713.371	0.0144588
713.450	0.0144579
713.528	0.0143646
713.606	0.0142680
713.684	0.0143000
713.762	0.0143753
713.840	0.0142959
713.918	0.0140831
713.996	0.0140681
714.075	0.0139817
714.153	0.0139512
714.231	0.0138550
714.309	0.0140974
714.387	0.0140719
714.465	0.0140700
714.543	0.0141952
714.621	0.0141037
714.700	0.0142157
714.778	0.0143259
714.856	0.0143449
714.934	0.0145298
715.012	0.0145662
715.090	0.0146952
715.168	0.0147018
715.246	0.0147282
715.325	0.0146980
715.403	0.0147290
715.481	0.0148196
715.559	0.0146447
715.637	0.0145060
715.715	0.0143030
715.793	0.0142621
715.871	0.0141597
715.950	0.0141888
716.028	0.0142207
716.106	0.0140607
716.184	0.0140228
716.262	0.0140369
716.340	0.0140520
716.418	0.0140778
716.496	0.0142023
716.575	0.0140253
716.653	0.0140200
716.731	0.0141213
716.809	0.0140285
716.887	0.0143800
716.965	0.0142182
717.043	0.0140281
717.121	0.0141946
717.200	0.0142489
717.278	0.0142808
717.356	0.0142678
717.434	0.0142641
717.512	0.0142998
717.590	0.0144971
717.668	0.0144644
717.746	0.0145730
717.825	0.0144372
717.903	0.0145796
717.981	0.0145626
718.059	0.0144815
718.137	0.0146418
718.215	0.0145448
718.293	0.0143617
718.371	0.0144333
718.450	0.0143924
718.528	0.0142435
718.606	0.0140488
718.684	0.0141409
718.762	0.0139729
718.840	0.0139785
718.918	0.0139557
718.996	0.0139819
719.075	0.0139455
719.153	0.0139394
719.231	0.0139864
719.309	0.0140983
719.387	0.0141572
719.465	0.0141364
719.543	0.0142462
719.621	0.0142611
719.700	0.0142595
719.778	0.0141991
719.856	0.0143102
719.934	0.0143479
720.012	0.0144518
720.090	0.0145300
720.168	0.0144005
720.246	0.0144114
720.325	0.0144923
720.403	0.0145454
720.481	0.0146487
720.559	0.0142829
720.637	0.0143771
720.715	0.0144147
720.793	0.0144280
720.871	0.0141656
720.950	0.0141995
721.028	0.0141601
721.106	0.0141917
721.184	0.0139371
721.262	0.0139359
721.340	0.0138828
721.418	0.0139990
721.496	0.0140339
721.575	0.0139267
721.653	0.0140041
721.731	0.0140224
721.809	0.0140850
721.887	0.0142110
721.965	0.0143833
722.043	0.0142904
722.121	0.0145081
722.200	0.0146255
722.278	0.0147398
722.356	0.0147747
722.434	0.0147356
722.512	0.0147958
722.590	0.0149082
722.668	0.0148616
722.746	0.0147688
722.825	0.0147963
722.903	0.0148275
722.981	0.0147741
723.059	0.0146114
723.137	0.0146781
723.215	0.0144192
723.293	0.0145361
723.371	0.0144753
723.450	0.0142796
723.528	0.0142513
723.606	0.0142792
723.684	0.0141309
723.762	0.0141436
723.840	0.0140505
723.918	0.0140524
723.996	0.0139379
724.075	0.0139833
724.153	0.0141074
724.231	0.0140921
724.309	0.0140423
724.387	0.0140305
724.465	0.0139130
724.543	0.0143226
724.621	0.0144420
724.700	0.0143884
724.778	0.0144910
724.856	0.0145595
724.934	0.0145117
725.012	0.0145161
725.090	0.0145393
725.168	0.0146960
725.246	0.0147787
725.325	0.0146273
725.403	0.0146738
725.481	0.0146066
725.559	0.0146072
725.637	0.0147071
725.715	0.0147042
725.793	0.0145401
725.871	0.0145521
725.950	0.0145623
726.028	0.0145119
726.106	0.0142535
726.184	0.0143082
726.262	0.0142719
726.340	0.0142143
726.418	0.0141832
726.496	0.0141586
726.575	0.0140311
726.653	0.0141068
726.731	0.0141653
726.809	0.0140975
726.887	0.0142942
726.965	0.0142170
727.043	0.0143072
727.121	0.0143832
727.200	0.0145084
727.278	0.0145448
727.356	0.0143268
727.434	0.0145865
727.512	0.0144966
727.590	0.0144188
727.668	0.0144648
727.746	0.0143800
727.825	0.0143281
727.903	0.0143641
727.981	0.0142915
728.059	0.0143353
728.137	0.0143595
728.215	0.0143217
728.293	0.0141881
728.371	0.0141359
728.450	0.0140849
728.528	0.0143536
728.606	0.0142143
728.684	0.0142212
728.762	0.0143282
728.840	0.0142545
728.918	0.0143531
728.996	0.0142921
729.075	0.0143099
729.153	0.0141223
729.231	0.0142190
729.309	0.0143419
729.387	0.0141855
729.465	0.0143495
729.543	0.0143501
729.621	0.0143721
729.700	0.0144113
729.778	0.0144440
729.856	0.0144991
729.934	0.0145560
730.012	0.0147665
730.090	0.0145866
730.168	0.0146305
730.246	0.0145921
730.325	0.0146523
730.403	0.0145834
730.481	0.0143520
730.559	0.0144067
730.637	0.0145428
730.715	0.0144434
730.793	0.0145182
730.871	0.0142930
730.950	0.0141954
731.028	0.0143076
731.106	0.0143390
731.184	0.0142081
731.262	0.0143926
731.340	0.0143606
731.418	0.0142646
731.496	0.0142786
731.575	0.0143909
731.653	0.0140974
731.731	0.0142544
731.809	0.0142847
731.887	0.0144027
731.965	0.0141747
732.043	0.0141791
732.121	0.0142390
732.200	0.0142740
732.278	0.0143269
732.356	0.0143187
732.434	0.0144287
732.512	0.0145319
732.590	0.0145475
732.668	0.0144319
732.746	0.0145920
732.825	0.0145055
732.903	0.0146774
732.981	0.0146843
733.059	0.0146096
733.137	0.0146272
733.215	0.0145543
733.293	0.0147895
733.371	0.0147356
733.450	0.0145670
733.528	0.0145374
733.606	0.0144034
733.684	0.0144162
733.762	0.0145206
733.840	0.0142704
733.918	0.0141286
733.996	0.0142552
734.075	0.0142647
734.153	0.0141700
734.231	0.0139949
734.309	0.0141479
734.387	0.0141341
734.465	0.0141031
734.543	0.0141939
734.621	0.0141457
734.700	0.0142444
734.778	0.0142281
734.856	0.0143031
734.934	0.0143507
735.012	0.0143544
735.090	0.0144048
735.168	0.0143638
735.246	0.0144361
735.325	0.0142939
735.403	0.0142581
735.481	0.0143476
735.559	0.0144201
735.637	0.0143649
735.715	0.0143534
735.793	0.0143694
735.871	0.0142654
735.950	0.0143075
736.028	0.0143202
736.106	0.0142574
736.184	0.0142227
736.262	0.0143056
736.340	0.0141763
736.418	0.0142300
736.496	0.0142522
736.575	0.0141247
736.653	0.0142244
736.731	0.0142372
736.809	0.0141302
736.887	0.0141286
736.965	0.0142698
737.043	0.0143105
737.121	0.0142645
737.200	0.0142925
737.278	0.0143194
737.356	0.0143952
737.434	0.0143644
737.512	0.0144536
737.590	0.0144397
737.668	0.0144802
737.746	0.0144453
737.825	0.0145213
737.903	0.0142558
737.981	0.0142920
738.059	0.0144750
738.137	0.0143007
738.215	0.0141734
738.293	0.0143568
738.371	0.0142216
738.450	0.0141068
738.528	0.0141923
738.606	0.0141161
738.684	0.0141054
738.762	0.0139901
738.840	0.0140598
738.918	0.0141045
738.996	0.0143014
739.075	0.0142156
739.153	0.0142212
739.231	0.0142062
739.309	0.0143451
739.387	0.0140486
739.465	0.0141833
739.543	0.0142514
739.621	0.0141647
739.700	0.0142194
739.778	0.0142731
739.856	0.0142725
739.934	0.0141814
740.012	0.0142931
740.090	0.0144724
740.168	0.0144421
740.246	0.0145184
740.325	0.0143523
740.403	0.0144766
740.481	0.0147538
740.559	0.0145406
740.637	0.0146345
740.715	0.0145212
740.793	0.0146542
740.871	0.0144564
740.950	0.0144853
741.028	0.0145307
741.106	0.0145462
741.184	0.0144452
741.262	0.0145274
741.340	0.0143750
741.418	0.0143750
741.496	0.0143935
741.575	0.0142638
741.653	0.0143420
741.731	0.0143315
741.809	0.0144933
741.887	0.0142133
741.965	0.0141808
742.043	0.0142989
742.121	0.0142495
742.200	0.0143304
742.278	0.0144141
742.356	0.0144562
742.434	0.0144257
742.512	0.0144002
742.590	0.0143655
742.668	0.0143482
742.746	0.0144395
742.825	0.0143182
742.903	0.0144101
742.981	0.0144489
743.059	0.0144762
743.137	0.0144942
743.215	0.0145857
743.293	0.0144306
743.371	0.0143869
743.450	0.0145124
743.528	0.0144867
743.606	0.0143552
743.684	0.0144741
743.762	0.0143771
743.840	0.0144507
743.918	0.0143810
743.996	0.0144081
744.075	0.0142731
744.153	0.0144437
744.231	0.0145197
744.309	0.0144681
744.387	0.0144292
744.465	0.0143017
744.543	0.0145059
744.621	0.0142872
744.700	0.0142825
744.778	0.0142862
744.856	0.0143639
744.934	0.0143689
745.012	0.0142802
745.090	0.0144163
745.168	0.0142919
745.246	0.0144414
745.325	0.0144759
745.403	0.0144284
745.481	0.0144794
745.559	0.0144977
745.637	0.0145110
745.715	0.0144264
745.793	0.0145902
745.871	0.0146323
745.950	0.0145713
746.028	0.0143432
746.106	0.0143622
746.184	0.0144550
746.262	0.0145276
746.340	0.0143964
746.418	0.0144239
746.496	0.0144150
746.575	0.0144099
746.653	0.0141782
746.731	0.0142506
746.809	0.0143372
746.887	0.0144343
746.965	0.0143054
747.043	0.0144048
747.121	0.0144051
747.200	0.0144261
747.278	0.0144009
747.356	0.0142844
747.434	0.0143504
747.512	0.0145338
747.590	0.0144721
747.668	0.0145266
747.746	0.0145148
747.825	0.0144308
747.903	0.0144905
747.981	0.0145016
748.059	0.0144825
748.137	0.0144081
748.215	0.0144923
748.293	0.0146165
748.371	0.0144986
748.450	0.0143635
748.528	0.0144578
748.606	0.0144969
748.684	0.0145018
748.762	0.0145274
748.840	0.0144234
748.918	0.0144190
748.996	0.0142755
749.075	0.0142381
749.153	0.0141586
749.231	0.0141809
749.309	0.0142265
749.387	0.0141917
749.465	0.0141220
749.543	0.0141779
749.621	0.0143609
749.700	0.0143553
749.778	0.0143233
749.856	0.0142552
749.934	0.0143808
750.012	0.0146031
750.090	0.0142144
750.168	0.0143930
750.246	0.0144245
750.325	0.0144910
750.403	0.0144063
750.481	0.0143476
750.559	0.0145580
750.637	0.0144939
750.715	0.0143890
750.793	0.0144758
750.871	0.0145053
750.950	0.0144662
751.028	0.0144565
751.106	0.0143726
751.184	0.0144432
751.262	0.0143392
751.340	0.0144342
751.418	0.0144263
751.496	0.0143228
751.575	0.0142511
751.653	0.0141735
751.731	0.0142002
751.809	0.0141674
751.887	0.0142562
751.965	0.0141941
752.043	0.0141991
752.121	0.0141514
752.200	0.0142208
752.278	0.0142799
752.356	0.0141744
752.434	0.0142839
752.512	0.0144002
752.590	0.0143169
752.668	0.0141950
752.746	0.0143340
752.825	0.0143230
752.903	0.0141334
752.981	0.0142356
753.059	0.0142968
753.137	0.0142550
753.215	0.0142485
753.293	0.0142985
753.371	0.0143856
753.450	0.0143343
753.528	0.0143292
753.606	0.0143764
753.684	0.0143505
753.762	0.0143027
753.840	0.0142856
753.918	0.0143049
753.996	0.0143179
754.075	0.0142447
754.153	0.0143354
754.231	0.0143650
754.309	0.0143147
754.387	0.0142405
754.465	0.0142637
754.543	0.0143425
754.621	0.0143179
754.700	0.0144175
754.778	0.0142545
754.856	0.0143472
754.934	0.0143710
755.012	0.0142323
755.090	0.0143456
755.168	0.0144068
755.246	0.0142721
755.325	0.0144180
755.403	0.0143791
755.481	0.0143575
755.559	0.0144787
755.637	0.0144073
755.715	0.0143884
755.793	0.0143922
755.871	0.0143493
755.950	0.0143810
756.028	0.0145085
756.106	0.0143262
756.184	0.0144177
756.262	0.0142720
756.340	0.0142973
756.418	0.0143801
756.496	0.0144856
756.575	0.0144164
756.653	0.0143343
756.731	0.0143472
756.809	0.0143335
756.887	0.0142611
756.965	0.0144459
757.043	0.0142818
757.121	0.0142787
757.200	0.0142350
757.278	0.0142166
757.356	0.0142233
757.434	0.0143258
757.512	0.0141946
757.590	0.0145457
757.668	0.0143533
757.746	0.0144449
757.825	0.0143633
757.903	0.0143388
757.981	0.0143230
758.059	0.0143827
758.137	0.0143949
758.215	0.0143193
758.293	0.0143457
758.371	0.0144021
758.450	0.0144343
758.528	0.0144290
758.606	0.0144824
758.684	0.0144691
758.762	0.0143591
758.840	0.0143700
758.918	0.0144163
758.996	0.0142871
759.075	0.0143854
759.153	0.0144205
759.231	0.0142039
759.309	0.0142918
759.387	0.0143893
759.465	0.0142464
759.543	0.0143814
759.621	0.0143981
759.700	0.0142854
759.778	0.0142040
759.856	0.0142815
759.934	0.0142697
760.012	0.0142258
760.090	0.0142995
760.168	0.0144225
760.246	0.0144388
760.325	0.0144263
760.403	0.0141714
760.481	0.0142892
760.559	0.0144273
760.637	0.0144043
760.715	0.0143375
760.793	0.0143877
760.871	0.0143109
760.950	0.0143713
761.028	0.0142661
761.106	0.0143994
761.184	0.0143979
761.262	0.0143916
761.340	0.0143321
761.418	0.0143827
761.496	0.0144661
761.575	0.0143442
761.653	0.0143349
761.731	0.0143069
761.809	0.0143673
761.887	0.0143563
761.965	0.0143031
762.043	0.0144844
762.121	0.0142801
762.200	0.0144560
762.278	0.0142914
762.356	0.0143620
762.434	0.0144190
762.512	0.0142999
762.590	0.0143135
762.668	0.0143368
762.746	0.0143095
762.825	0.0144341
762.903	0.0144359
762.981	0.0144173
763.059	0.0144716
763.137	0.0144778
763.215	0.0145322
763.293	0.0144732
763.371	0.0144408
763.450	0.0143701
763.528	0.0145483
763.606	0.0145317
763.684	0.0144338
763.762	0.0143396
763.840	0.0143649
763.918	0.0145668
763.996	0.0146390
764.075	0.0144015
764.153	0.0142886
764.231	0.0143776
764.309	0.0144430
764.387	0.0144793
764.465	0.0144741
764.543	0.0144846
764.621	0.0143136
764.700	0.0143650
