05/04/2022	21:42:54	Ver.	4.1	UNKNOWN
Optical Delay	678.996401	Delta X		0.078125	Sweeps	1	Scan Rate	0/0
Coordinates	Axis 1	NaN	Axis 2	NaN	Axis 3	NaN	Axis 4	NaN	Axis 5	NaN	Axis 6	0.000000
TX Power	0.000000	RX Power	0.000000

678.996	0.0140712
679.075	0.0143240
679.153	0.0143019
679.231	0.0141920
679.309	0.0141935
679.387	0.0141569
679.465	0.0143174
679.543	0.0142183
679.621	0.0141682
679.700	0.0140820
679.778	0.0141851
679.856	0.0141576
679.934	0.0141824
680.012	0.0143401
680.090	0.0143014
680.168	0.0141462
680.246	0.0141520
680.325	0.0141222
680.403	0.0141478
680.481	0.0140824
680.559	0.0141921
680.637	0.0142225
680.715	0.0142069
680.793	0.0141363
680.871	0.0141821
680.950	0.0143221
681.028	0.0141514
681.106	0.0143710
681.184	0.0142423
681.262	0.0141599
681.340	0.0140373
681.418	0.0139026
681.496	0.0139441
681.575	0.0138261
681.653	0.0137119
681.731	0.0136612
681.809	0.0139034
681.887	0.0139886
681.965	0.0141125
682.043	0.0141132
682.121	0.0145051
682.200	0.0145287
682.278	0.0145342
682.356	0.0146869
682.434	0.0148202
682.512	0.0147540
682.590	0.0147363
682.668	0.0145295
682.746	0.0142091
682.825	0.0139938
682.903	0.0136316
682.981	0.0134078
683.059	0.0130331
683.137	0.0129105
683.215	0.0126545
683.293	0.0126681
683.371	0.0125556
683.450	0.0127261
683.528	0.0129041
683.606	0.0133059
683.684	0.0136221
683.762	0.0140182
683.840	0.0143553
683.918	0.0147034
683.996	0.0149504
684.075	0.0151835
684.153	0.0154424
684.231	0.0152023
684.309	0.0151435
684.387	0.0149352
684.465	0.0149191
684.543	0.0145168
684.621	0.0144125
684.700	0.0141556
684.778	0.0140321
684.856	0.0138342
684.934	0.0136388
685.012	0.0137233
685.090	0.0138401
685.168	0.0137891
685.246	0.0139780
685.325	0.0140141
685.403	0.0141319
685.481	0.0141834
685.559	0.0142127
685.637	0.0142161
685.715	0.0140695
685.793	0.0138678
685.871	0.0137481
685.950	0.0134360
686.028	0.0133673
686.106	0.0132932
686.184	0.0131799
686.262	0.0131663
686.340	0.0131399
686.418	0.0131683
686.496	0.0134835
686.575	0.0136855
686.653	0.0140339
686.731	0.0140215
686.809	0.0144913
686.887	0.0147247
686.965	0.0149372
687.043	0.0151785
687.121	0.0152645
687.200	0.0151987
687.278	0.0153696
687.356	0.0152065
687.434	0.0150316
687.512	0.0149357
687.590	0.0147058
687.668	0.0143938
687.746	0.0141050
687.825	0.0139885
687.903	0.0138343
687.981	0.0134628
688.059	0.0134030
688.137	0.0134755
688.215	0.0131444
688.293	0.0134406
688.371	0.0134689
688.450	0.0135044
688.528	0.0135690
688.606	0.0135616
688.684	0.0135317
688.762	0.0135915
688.840	0.0136373
688.918	0.0136206
688.996	0.0136517
689.075	0.0136897
689.153	0.0138523
689.231	0.0139210
689.309	0.0139070
689.387	0.0140807
689.465	0.0142381
689.543	0.0143074
689.621	0.0143990
689.700	0.0145015
689.778	0.0146562
689.856	0.0147547
689.934	0.0147917
690.012	0.0148648
690.090	0.0148468
690.168	0.0147916
690.246	0.0146861
690.325	0.0147903
690.403	0.0146660
690.481	0.0145918
690.559	0.0143528
690.637	0.0142328
690.715	0.0141292
690.793	0.0140237
690.871	0.0139711
690.950	0.0136104
691.028	0.0137901
691.106	0.0136768
691.184	0.0137185
691.262	0.0138197
691.340	0.0138493
691.418	0.0139213
691.496	0.0140268
691.575	0.0140384
691.653	0.0140593
691.731	0.0141756
691.809	0.0142746
691.887	0.0140421
691.965	0.0139212
692.043	0.0139294
692.121	0.0139436
692.200	0.0139029
692.278	0.0137579
692.356	0.0137849
692.434	0.0140117
692.512	0.0140374
692.590	0.0139909
692.668	0.0141611
692.746	0.0141483
692.825	0.0142859
692.903	0.0142237
692.981	0.0142661
693.059	0.0142774
693.137	0.0141764
693.215	0.0141371
693.293	0.0140512
693.371	0.0140845
693.450	0.0140551
693.528	0.0138379
693.606	0.0138484
693.684	0.0138538
693.762	0.0135010
693.840	0.0134379
693.918	0.0136340
693.996	0.0135580
694.075	0.0136399
694.153	0.0139815
694.231	0.0140567
694.309	0.0142297
694.387	0.0144486
694.465	0.0146906
694.543	0.0147733
694.621	0.0149097
694.700	0.0149708
694.778	0.0147630
694.856	0.0147353
694.934	0.0145568
695.012	0.0144685
695.090	0.0140990
695.168	0.0137990
695.246	0.0136242
695.325	0.0133204
695.403	0.0131628
695.481	0.0132967
695.559	0.0131925
695.637	0.0133459
695.715	0.0134904
695.793	0.0137011
695.871	0.0137392
695.950	0.0139852
696.028	0.0141526
696.106	0.0144576
696.184	0.0146623
696.262	0.0145818
696.340	0.0146838
696.418	0.0146018
696.496	0.0144251
696.575	0.0143272
696.653	0.0143136
696.731	0.0140855
696.809	0.0138301
696.887	0.0139487
696.965	0.0138995
697.043	0.0139204
697.121	0.0139850
697.200	0.0140526
697.278	0.0141487
697.356	0.0142646
697.434	0.0143658
697.512	0.0144455
697.590	0.0145642
697.668	0.0145919
697.746	0.0144668
697.825	0.0142779
697.903	0.0141194
697.981	0.0139786
698.059	0.0140309
698.137	0.0138036
698.215	0.0136125
698.293	0.0137018
698.371	0.0136774
698.450	0.0137018
698.528	0.0136908
698.606	0.0139368
698.684	0.0140252
698.762	0.0141719
698.840	0.0145930
698.918	0.0145851
698.996	0.0147635
699.075	0.0147154
699.153	0.0147015
699.231	0.0146426
699.309	0.0143439
699.387	0.0143324
699.465	0.0142343
699.543	0.0141489
699.621	0.0138369
699.700	0.0137750
699.778	0.0136136
699.856	0.0134523
699.934	0.0133974
700.012	0.0133557
700.090	0.0134537
700.168	0.0134285
700.246	0.0134148
700.325	0.0135458
700.403	0.0136440
700.481	0.0138724
700.559	0.0138103
700.637	0.0140112
700.715	0.0139648
700.793	0.0139448
700.871	0.0140980
700.950	0.0140808
701.028	0.0141884
701.106	0.0143533
701.184	0.0142908
701.262	0.0143390
701.340	0.0144803
701.418	0.0145888
701.496	0.0146813
701.575	0.0147074
701.653	0.0148658
701.731	0.0146674
701.809	0.0149290
701.887	0.0149159
701.965	0.0146433
702.043	0.0147321
702.121	0.0145675
702.200	0.0145109
702.278	0.0143050
702.356	0.0140349
702.434	0.0139850
702.512	0.0139182
702.590	0.0138049
702.668	0.0137511
702.746	0.0135999
702.825	0.0134532
702.903	0.0136260
702.981	0.0134861
703.059	0.0136510
703.137	0.0137059
703.215	0.0135593
703.293	0.0136980
703.371	0.0137430
703.450	0.0138010
703.528	0.0138672
703.606	0.0138821
703.684	0.0139581
703.762	0.0141634
703.840	0.0141595
703.918	0.0142081
703.996	0.0141407
704.075	0.0143042
704.153	0.0144062
704.231	0.0144024
704.309	0.0142887
704.387	0.0144933
704.465	0.0146031
704.543	0.0142767
704.621	0.0142199
704.700	0.0143240
704.778	0.0143290
704.856	0.0144015
704.934	0.0142607
705.012	0.0143478
705.090	0.0140059
705.168	0.0141109
705.246	0.0140986
705.325	0.0138872
705.403	0.0139148
705.481	0.0138469
705.559	0.0138521
705.637	0.0140207
705.715	0.0140208
705.793	0.0139906
705.871	0.0140940
705.950	0.0141386
706.028	0.0143643
706.106	0.0141979
706.184	0.0142107
706.262	0.0142402
706.340	0.0141159
706.418	0.0141543
706.496	0.0139846
706.575	0.0140257
706.653	0.0140353
706.731	0.0139598
706.809	0.0139153
706.887	0.0138459
706.965	0.0138701
707.043	0.0137377
707.121	0.0137579
707.200	0.0137766
707.278	0.0136989
707.356	0.0137785
707.434	0.0136473
707.512	0.0136531
707.590	0.0136465
707.668	0.0137371
707.746	0.0137886
707.825	0.0137743
707.903	0.0137381
707.981	0.0139106
708.059	0.0138381
708.137	0.0140692
708.215	0.0141102
708.293	0.0142144
708.371	0.0142414
708.450	0.0142295
708.528	0.0143606
708.606	0.0143278
708.684	0.0144234
708.762	0.0143325
708.840	0.0142185
708.918	0.0144499
708.996	0.0144176
709.075	0.0142935
709.153	0.0143084
709.231	0.0141811
709.309	0.0142341
709.387	0.0141607
709.465	0.0141889
709.543	0.0141745
709.621	0.0140972
709.700	0.0138530
709.778	0.0139860
709.856	0.0137491
709.934	0.0136816
710.012	0.0138090
710.090	0.0136377
710.168	0.0136663
710.246	0.0137021
710.325	0.0138412
710.403	0.0137779
710.481	0.0138285
710.559	0.0137074
710.637	0.0138030
710.715	0.0137311
710.793	0.0139603
710.871	0.0140989
710.950	0.0140401
711.028	0.0140445
711.106	0.0139809
711.184	0.0140238
711.262	0.0139500
711.340	0.0140735
711.418	0.0140532
711.496	0.0140379
711.575	0.0139925
711.653	0.0139748
711.731	0.0140839
711.809	0.0140688
711.887	0.0141193
711.965	0.0141289
712.043	0.0142214
712.121	0.0141854
712.200	0.0142295
712.278	0.0140781
712.356	0.0140887
712.434	0.0142561
712.512	0.0140482
712.590	0.0140125
712.668	0.0142458
712.746	0.0140299
712.825	0.0140170
712.903	0.0139634
712.981	0.0140926
713.059	0.0141399
713.137	0.0139369
713.215	0.0141338
713.293	0.0140174
713.371	0.0141547
713.450	0.0140656
713.528	0.0141844
713.606	0.0140488
713.684	0.0139808
713.762	0.0140732
713.840	0.0140668
713.918	0.0139160
713.996	0.0138308
714.075	0.0138909
714.153	0.0138525
714.231	0.0136774
714.309	0.0135316
714.387	0.0135018
714.465	0.0135790
714.543	0.0136140
714.621	0.0137843
714.700	0.0136499
714.778	0.0138018
714.856	0.0138699
714.934	0.0140576
715.012	0.0142462
715.090	0.0143246
715.168	0.0145145
715.246	0.0145466
715.325	0.0145138
715.403	0.0144621
715.481	0.0145647
715.559	0.0144531
715.637	0.0145413
715.715	0.0144398
715.793	0.0142555
715.871	0.0140649
715.950	0.0139341
716.028	0.0139760
716.106	0.0137962
716.184	0.0137498
716.262	0.0138039
716.340	0.0136485
716.418	0.0135548
716.496	0.0135921
716.575	0.0136607
716.653	0.0136459
716.731	0.0136631
716.809	0.0135624
716.887	0.0137149
716.965	0.0138332
717.043	0.0137486
717.121	0.0138923
717.200	0.0138670
717.278	0.0139191
717.356	0.0140372
717.434	0.0139594
717.512	0.0139043
717.590	0.0141635
717.668	0.0142030
717.746	0.0141521
717.825	0.0143092
717.903	0.0142766
717.981	0.0143726
718.059	0.0143739
718.137	0.0143710
718.215	0.0142872
718.293	0.0143395
718.371	0.0143681
718.450	0.0142401
718.528	0.0142008
718.606	0.0142116
718.684	0.0139848
718.762	0.0140012
718.840	0.0138947
718.918	0.0137782
718.996	0.0137668
719.075	0.0139108
719.153	0.0137569
719.231	0.0137545
719.309	0.0138602
719.387	0.0138797
719.465	0.0137060
719.543	0.0138354
719.621	0.0139358
719.700	0.0140178
719.778	0.0139908
719.856	0.0140327
719.934	0.0141479
720.012	0.0141270
720.090	0.0142632
720.168	0.0143586
720.246	0.0144330
720.325	0.0141637
720.403	0.0145231
720.481	0.0143386
720.559	0.0144629
720.637	0.0143517
720.715	0.0144046
720.793	0.0143496
720.871	0.0143937
720.950	0.0141676
721.028	0.0142190
721.106	0.0141829
721.184	0.0140734
721.262	0.0140475
721.340	0.0139095
721.418	0.0138049
721.496	0.0138013
721.575	0.0137702
721.653	0.0138042
721.731	0.0136697
721.809	0.0136954
721.887	0.0138023
721.965	0.0138619
722.043	0.0138680
722.121	0.0139941
722.200	0.0138731
722.278	0.0140960
722.356	0.0141753
722.434	0.0142831
722.512	0.0143575
722.590	0.0143119
722.668	0.0143787
722.746	0.0143967
722.825	0.0146408
722.903	0.0146032
722.981	0.0144822
723.059	0.0144151
723.137	0.0143995
723.215	0.0142244
723.293	0.0142481
723.371	0.0141489
723.450	0.0143131
723.528	0.0142442
723.606	0.0139354
723.684	0.0138189
723.762	0.0138526
723.840	0.0137156
723.918	0.0136945
723.996	0.0137329
724.075	0.0136834
724.153	0.0136794
724.231	0.0138249
724.309	0.0135597
724.387	0.0136931
724.465	0.0137183
724.543	0.0136919
724.621	0.0137173
724.700	0.0137267
724.778	0.0138508
724.856	0.0137187
724.934	0.0140295
725.012	0.0141912
725.090	0.0142214
725.168	0.0141139
725.246	0.0142912
725.325	0.0143353
725.403	0.0142036
725.481	0.0143848
725.559	0.0143847
725.637	0.0143947
725.715	0.0143865
725.793	0.0144354
725.871	0.0143830
725.950	0.0143607
726.028	0.0142429
726.106	0.0140778
726.184	0.0141050
726.262	0.0140808
726.340	0.0140176
726.418	0.0138197
726.496	0.0139354
726.575	0.0140188
726.653	0.0138421
726.731	0.0139426
726.809	0.0138152
726.887	0.0137154
726.965	0.0138280
727.043	0.0140211
727.121	0.0140102
727.200	0.0140969
727.278	0.0140327
727.356	0.0141221
727.434	0.0141167
727.512	0.0142204
727.590	0.0142421
727.668	0.0141583
727.746	0.0142482
727.825	0.0141135
727.903	0.0141982
727.981	0.0142763
728.059	0.0142126
728.137	0.0143224
728.215	0.0142849
728.293	0.0142423
728.371	0.0141299
728.450	0.0140163
728.528	0.0139984
728.606	0.0140581
728.684	0.0140873
728.762	0.0140726
728.840	0.0141836
728.918	0.0140056
728.996	0.0140357
729.075	0.0140461
729.153	0.0141251
729.231	0.0138439
729.309	0.0139877
729.387	0.0139735
729.465	0.0139950
729.543	0.0140603
729.621	0.0140005
729.700	0.0139210
729.778	0.0139410
729.856	0.0140451
729.934	0.0140646
730.012	0.0141052
730.090	0.0142091
730.168	0.0140609
730.246	0.0142416
730.325	0.0142965
730.403	0.0141855
730.481	0.0142091
730.559	0.0141143
730.637	0.0141055
730.715	0.0142413
730.793	0.0141628
730.871	0.0141409
730.950	0.0140652
731.028	0.0140102
731.106	0.0139256
731.184	0.0138544
731.262	0.0138866
731.340	0.0139336
731.418	0.0140146
731.496	0.0139882
731.575	0.0139616
731.653	0.0139046
731.731	0.0138474
731.809	0.0138745
731.887	0.0137961
731.965	0.0139046
732.043	0.0139105
732.121	0.0138741
732.200	0.0138815
732.278	0.0137163
732.356	0.0137038
732.434	0.0139616
732.512	0.0138556
732.590	0.0140254
732.668	0.0139798
732.746	0.0141151
732.825	0.0140744
732.903	0.0141258
732.981	0.0141660
733.059	0.0140949
733.137	0.0142527
733.215	0.0144671
733.293	0.0143942
733.371	0.0142025
733.450	0.0142731
733.528	0.0141479
733.606	0.0141343
733.684	0.0140535
733.762	0.0140877
733.840	0.0141794
733.918	0.0140649
733.996	0.0138764
734.075	0.0139222
734.153	0.0139017
734.231	0.0137173
734.309	0.0136864
734.387	0.0137489
734.465	0.0138538
734.543	0.0136850
734.621	0.0136669
734.700	0.0137302
734.778	0.0139450
734.856	0.0137338
734.934	0.0137286
735.012	0.0139837
735.090	0.0140253
735.168	0.0139891
735.246	0.0139341
735.325	0.0140370
735.403	0.0140437
735.481	0.0138908
735.559	0.0140519
735.637	0.0140487
735.715	0.0141787
735.793	0.0140946
735.871	0.0141327
735.950	0.0141280
736.028	0.0141793
736.106	0.0140233
736.184	0.0140359
736.262	0.0140051
736.340	0.0140431
736.418	0.0141127
736.496	0.0139838
736.575	0.0140281
736.653	0.0140408
736.731	0.0138906
736.809	0.0138477
736.887	0.0139890
736.965	0.0138771
737.043	0.0140382
737.121	0.0139721
737.200	0.0140099
737.278	0.0139937
737.356	0.0139880
737.434	0.0139154
737.512	0.0140533
737.590	0.0140942
737.668	0.0142198
737.746	0.0141488
737.825	0.0141079
737.903	0.0143395
737.981	0.0141344
738.059	0.0141248
738.137	0.0143222
738.215	0.0141482
738.293	0.0141420
738.371	0.0142062
738.450	0.0141518
738.528	0.0139907
738.606	0.0140444
738.684	0.0140568
738.762	0.0141064
738.840	0.0141798
738.918	0.0140199
738.996	0.0140364
739.075	0.0139495
739.153	0.0140034
739.231	0.0139842
739.309	0.0140359
739.387	0.0140293
739.465	0.0139799
739.543	0.0140315
739.621	0.0140137
739.700	0.0140083
739.778	0.0139526
739.856	0.0141112
739.934	0.0140011
740.012	0.0139999
740.090	0.0141131
740.168	0.0141347
740.246	0.0142106
740.325	0.0141223
740.403	0.0142279
740.481	0.0143280
740.559	0.0142826
740.637	0.0142761
740.715	0.0143143
740.793	0.0143363
740.871	0.0143430
740.950	0.0141618
741.028	0.0141695
741.106	0.0142690
741.184	0.0143047
741.262	0.0142958
741.340	0.0141967
741.418	0.0142085
741.496	0.0141073
741.575	0.0140412
741.653	0.0139405
741.731	0.0139390
741.809	0.0140247
741.887	0.0138953
741.965	0.0140277
742.043	0.0139145
742.121	0.0139785
742.200	0.0139069
742.278	0.0138490
742.356	0.0139449
742.434	0.0137414
742.512	0.0141091
742.590	0.0139776
742.668	0.0140642
742.746	0.0141007
742.825	0.0141400
742.903	0.0140116
742.981	0.0141955
743.059	0.0141911
743.137	0.0140930
743.215	0.0141113
743.293	0.0142628
743.371	0.0141309
743.450	0.0142652
743.528	0.0142944
743.606	0.0142426
743.684	0.0143234
743.762	0.0140844
743.840	0.0141492
743.918	0.0141515
743.996	0.0141310
744.075	0.0140804
744.153	0.0141050
744.231	0.0140665
744.309	0.0140305
744.387	0.0140092
744.465	0.0140083
744.543	0.0140086
744.621	0.0139919
744.700	0.0139979
744.778	0.0139637
744.856	0.0139902
744.934	0.0139795
745.012	0.0140865
745.090	0.0140096
745.168	0.0139925
745.246	0.0140839
745.325	0.0140655
745.403	0.0141263
745.481	0.0139192
745.559	0.0140629
745.637	0.0142007
745.715	0.0141659
745.793	0.0140941
745.871	0.0140401
745.950	0.0142145
746.028	0.0140652
746.106	0.0139887
746.184	0.0140038
746.262	0.0140454
746.340	0.0140794
746.418	0.0141039
746.496	0.0139045
746.575	0.0139632
746.653	0.0139990
746.731	0.0139804
746.809	0.0139380
746.887	0.0139383
746.965	0.0141584
747.043	0.0139291
747.121	0.0139249
747.200	0.0140691
747.278	0.0139006
747.356	0.0140078
747.434	0.0140984
747.512	0.0138921
747.590	0.0140566
747.668	0.0139523
747.746	0.0139294
747.825	0.0141370
747.903	0.0138927
747.981	0.0140371
748.059	0.0141682
748.137	0.0141529
748.215	0.0141129
748.293	0.0141535
748.371	0.0141586
748.450	0.0141920
748.528	0.0140298
748.606	0.0140963
748.684	0.0141122
748.762	0.0141015
748.840	0.0140146
748.918	0.0140294
748.996	0.0139130
749.075	0.0140204
749.153	0.0138868
749.231	0.0140968
749.309	0.0140549
749.387	0.0139441
749.465	0.0138493
749.543	0.0139332
749.621	0.0138562
749.700	0.0140007
749.778	0.0139898
749.856	0.0140430
749.934	0.0139957
750.012	0.0139516
750.090	0.0139161
750.168	0.0141757
750.246	0.0141145
750.325	0.0140072
750.403	0.0140445
750.481	0.0140424
750.559	0.0142159
750.637	0.0141550
750.715	0.0141478
750.793	0.0140992
750.871	0.0141604
750.950	0.0142081
751.028	0.0141576
751.106	0.0141352
751.184	0.0142279
751.262	0.0141761
751.340	0.0140533
751.418	0.0140702
751.496	0.0139867
751.575	0.0140620
751.653	0.0141154
751.731	0.0141193
751.809	0.0139954
751.887	0.0140669
751.965	0.0139577
752.043	0.0138725
752.121	0.0139651
752.200	0.0138999
752.278	0.0138794
752.356	0.0138950
752.434	0.0137961
752.512	0.0140535
752.590	0.0141219
752.668	0.0140061
752.746	0.0139746
752.825	0.0140680
752.903	0.0140213
752.981	0.0141657
753.059	0.0140269
753.137	0.0138972
753.215	0.0140361
753.293	0.0141232
753.371	0.0141546
753.450	0.0140508
753.528	0.0141469
753.606	0.0139871
753.684	0.0140313
753.762	0.0141438
753.840	0.0141416
753.918	0.0141750
753.996	0.0140817
754.075	0.0142751
754.153	0.0141833
754.231	0.0141129
754.309	0.0139753
754.387	0.0140858
754.465	0.0140865
754.543	0.0141537
754.621	0.0140955
754.700	0.0140360
754.778	0.0141338
754.856	0.0141163
754.934	0.0140298
755.012	0.0140728
755.090	0.0141832
755.168	0.0141885
755.246	0.0140490
755.325	0.0141888
755.403	0.0141991
755.481	0.0140340
755.559	0.0141323
755.637	0.0141909
755.715	0.0141132
755.793	0.0141307
755.871	0.0141483
755.950	0.0142290
756.028	0.0141349
756.106	0.0141198
756.184	0.0142706
756.262	0.0141233
756.340	0.0141073
756.418	0.0142916
756.496	0.0142233
756.575	0.0142380
756.653	0.0142028
756.731	0.0141570
756.809	0.0140778
756.887	0.0139616
756.965	0.0140697
757.043	0.0140933
757.121	0.0140344
757.200	0.0140232
757.278	0.0140527
757.356	0.0139613
757.434	0.0139805
757.512	0.0141169
757.590	0.0140707
757.668	0.0141122
757.746	0.0140228
757.825	0.0139693
757.903	0.0140826
757.981	0.0140054
758.059	0.0140243
758.137	0.0140155
758.215	0.0140640
758.293	0.0141354
758.371	0.0141451
758.450	0.0141607
758.528	0.0143233
758.606	0.0142065
758.684	0.0141750
758.762	0.0142871
758.840	0.0142928
758.918	0.0141741
758.996	0.0141618
759.075	0.0141742
759.153	0.0141341
759.231	0.0140885
759.309	0.0141029
759.387	0.0142554
759.465	0.0140224
759.543	0.0140125
759.621	0.0139548
759.700	0.0140797
759.778	0.0140964
759.856	0.0139955
759.934	0.0140870
760.012	0.0140307
760.090	0.0140704
760.168	0.0142178
760.246	0.0141683
760.325	0.0140053
760.403	0.0141127
760.481	0.0140497
760.559	0.0141494
760.637	0.0142185
760.715	0.0141251
760.793	0.0143375
760.871	0.0142271
760.950	0.0141379
761.028	0.0142389
761.106	0.0143409
761.184	0.0142420
761.262	0.0141886
761.340	0.0142649
761.418	0.0142899
761.496	0.0141541
761.575	0.0142850
761.653	0.0141734
761.731	0.0142361
761.809	0.0142319
761.887	0.0140268
761.965	0.0141901
762.043	0.0142505
762.121	0.0141844
762.200	0.0142477
762.278	0.0141519
762.356	0.0141766
762.434	0.0141662
762.512	0.0141109
762.590	0.0141171
762.668	0.0141383
762.746	0.0139618
762.825	0.0141507
762.903	0.0141966
762.981	0.0141688
763.059	0.0140646
763.137	0.0139167
763.215	0.0139960
763.293	0.0142032
763.371	0.0142371
763.450	0.0140859
763.528	0.0142336
763.606	0.0139849
763.684	0.0140886
763.762	0.0140746
763.840	0.0141869
763.918	0.0140759
763.996	0.0139921
764.075	0.0142106
764.153	0.0141695
764.231	0.0141496
764.309	0.0142339
764.387	0.0140244
764.465	0.0141012
764.543	0.0141380
764.621	0.0141395
764.700	0.0140801
