05/04/2022	21:44:49	Ver.	4.1	UNKNOWN
Optical Delay	630.015849	Delta X		0.078125	Sweeps	1	Scan Rate	0/0
Coordinates	Axis 1	NaN	Axis 2	NaN	Axis 3	NaN	Axis 4	NaN	Axis 5	NaN	Axis 6	0.000000
TX Power	0.000000	RX Power	0.000000

630.016	0.0142245
630.094	0.0141243
630.172	0.0141600
630.250	0.0142988
630.328	0.0142333
630.406	0.0141354
630.485	0.0141758
630.563	0.0141435
630.641	0.0140824
630.719	0.0142255
630.797	0.0143160
630.875	0.0142276
630.953	0.0142237
631.031	0.0142959
631.110	0.0141991
631.188	0.0143334
631.266	0.0143291
631.344	0.0143003
631.422	0.0142244
631.500	0.0142523
631.578	0.0142778
631.656	0.0142532
631.735	0.0142068
631.813	0.0141109
631.891	0.0141375
631.969	0.0144709
632.047	0.0143019
632.125	0.0142184
632.203	0.0142577
632.281	0.0143661
632.360	0.0143250
632.438	0.0141846
632.516	0.0141495
632.594	0.0142254
632.672	0.0142663
632.750	0.0143571
632.828	0.0142181
632.906	0.0143003
632.985	0.0142378
633.063	0.0141679
633.141	0.0142486
633.219	0.0141759
633.297	0.0141753
633.375	0.0142761
633.453	0.0141946
633.531	0.0141985
633.610	0.0140945
633.688	0.0142542
633.766	0.0142306
633.844	0.0142806
633.922	0.0143288
634.000	0.0142645
634.078	0.0141975
634.156	0.0142065
634.235	0.0142601
634.313	0.0142939
634.391	0.0141309
634.469	0.0141402
634.547	0.0141261
634.625	0.0141138
634.703	0.0141926
634.781	0.0142838
634.860	0.0142887
634.938	0.0142739
635.016	0.0142593
635.094	0.0142422
635.172	0.0141650
635.250	0.0141769
635.328	0.0142434
635.406	0.0142509
635.485	0.0144094
635.563	0.0142457
635.641	0.0143770
635.719	0.0142572
635.797	0.0142629
635.875	0.0142832
635.953	0.0142158
636.031	0.0141967
636.110	0.0142393
636.188	0.0141846
636.266	0.0141378
636.344	0.0142060
636.422	0.0142477
636.500	0.0140858
636.578	0.0143166
636.656	0.0142216
636.735	0.0140899
636.813	0.0141592
636.891	0.0141989
636.969	0.0141333
637.047	0.0141843
637.125	0.0142818
637.203	0.0142487
637.281	0.0142883
637.360	0.0142616
637.438	0.0141176
637.516	0.0142626
637.594	0.0142129
637.672	0.0142283
637.750	0.0142737
637.828	0.0142858
637.906	0.0143457
637.985	0.0141791
638.063	0.0141543
638.141	0.0142743
638.219	0.0142994
638.297	0.0142599
638.375	0.0142683
638.453	0.0144039
638.531	0.0142329
638.610	0.0144085
638.688	0.0143636
638.766	0.0143452
638.844	0.0142989
638.922	0.0144123
639.000	0.0144334
639.078	0.0143548
639.156	0.0144054
639.235	0.0143394
639.313	0.0142937
639.391	0.0142935
639.469	0.0144055
639.547	0.0143774
639.625	0.0144689
639.703	0.0143885
639.781	0.0143131
639.860	0.0143824
639.938	0.0144425
640.016	0.0143144
640.094	0.0144715
640.172	0.0144473
640.250	0.0143790
640.328	0.0143068
640.406	0.0144952
640.485	0.0144698
640.563	0.0144412
640.641	0.0143995
640.719	0.0145064
640.797	0.0145078
640.875	0.0143185
640.953	0.0143200
641.031	0.0143691
641.110	0.0145732
641.188	0.0143590
641.266	0.0143811
641.344	0.0144536
641.422	0.0144698
641.500	0.0145669
641.578	0.0144153
641.656	0.0144601
641.735	0.0145298
641.813	0.0143262
641.891	0.0143373
641.969	0.0144832
642.047	0.0145383
642.125	0.0144237
642.203	0.0143076
642.281	0.0144067
642.360	0.0144357
642.438	0.0145490
642.516	0.0144709
642.594	0.0143509
642.672	0.0143534
642.750	0.0144947
642.828	0.0144113
642.906	0.0144099
642.985	0.0144717
643.063	0.0143390
643.141	0.0143646
643.219	0.0144391
643.297	0.0145132
643.375	0.0144139
643.453	0.0144321
643.531	0.0144123
643.610	0.0143319
643.688	0.0143928
643.766	0.0143997
643.844	0.0144193
643.922	0.0144646
644.000	0.0144888
644.078	0.0144627
644.156	0.0144108
644.235	0.0142454
644.313	0.0142897
644.391	0.0143943
644.469	0.0143401
644.547	0.0143446
644.625	0.0143562
644.703	0.0143385
644.781	0.0143915
644.860	0.0143961
644.938	0.0143272
645.016	0.0141984
645.094	0.0143457
645.172	0.0142384
645.250	0.0143044
645.328	0.0142849
645.406	0.0142632
645.485	0.0141662
645.563	0.0142327
645.641	0.0143591
645.719	0.0142796
645.797	0.0143152
645.875	0.0144295
645.953	0.0143835
646.031	0.0142890
646.110	0.0143491
646.188	0.0142292
646.266	0.0143063
646.344	0.0145065
646.422	0.0143528
646.500	0.0143602
646.578	0.0144557
646.656	0.0144175
646.735	0.0143034
646.813	0.0143365
646.891	0.0142434
646.969	0.0144194
647.047	0.0144544
647.125	0.0143928
647.203	0.0143277
647.281	0.0142982
647.360	0.0143922
647.438	0.0143833
647.516	0.0142916
647.594	0.0144006
647.672	0.0143143
647.750	0.0143571
647.828	0.0143324
647.906	0.0142108
647.985	0.0144318
648.063	0.0145284
648.141	0.0143402
648.219	0.0144749
648.297	0.0142777
648.375	0.0143124
648.453	0.0144135
648.531	0.0144007
648.610	0.0144375
648.688	0.0144176
648.766	0.0144658
648.844	0.0143386
648.922	0.0145660
649.000	0.0143157
649.078	0.0144261
649.156	0.0144474
649.235	0.0143468
649.313	0.0144199
649.391	0.0144415
649.469	0.0143981
649.547	0.0144133
649.625	0.0144042
649.703	0.0144240
649.781	0.0144505
649.860	0.0144065
649.938	0.0144524
650.016	0.0144168
650.094	0.0144161
650.172	0.0143932
650.250	0.0144560
650.328	0.0142892
650.406	0.0145240
650.485	0.0144884
650.563	0.0144216
650.641	0.0145155
650.719	0.0143823
650.797	0.0144073
650.875	0.0143233
650.953	0.0144351
651.031	0.0144348
651.110	0.0143745
651.188	0.0144106
651.266	0.0144576
651.344	0.0143014
651.422	0.0142629
651.500	0.0144109
651.578	0.0145280
651.656	0.0144940
651.735	0.0144536
651.813	0.0144272
651.891	0.0143448
651.969	0.0143439
652.047	0.0143517
652.125	0.0142566
652.203	0.0143175
652.281	0.0142979
652.360	0.0143389
652.438	0.0142457
652.516	0.0142472
652.594	0.0143299
652.672	0.0142851
652.750	0.0142468
652.828	0.0142284
652.906	0.0143584
652.985	0.0144434
653.063	0.0143803
653.141	0.0141990
653.219	0.0143637
653.297	0.0143741
653.375	0.0142691
653.453	0.0142542
653.531	0.0142906
653.610	0.0143458
653.688	0.0142827
653.766	0.0142436
653.844	0.0143464
653.922	0.0141055
654.000	0.0141331
654.078	0.0142560
654.156	0.0140105
654.235	0.0143040
654.313	0.0143227
654.391	0.0142659
654.469	0.0143690
654.547	0.0142912
654.625	0.0143423
654.703	0.0141452
654.781	0.0143711
654.860	0.0144232
654.938	0.0142184
655.016	0.0142498
655.094	0.0142063
655.172	0.0141612
655.250	0.0142645
655.328	0.0142957
655.406	0.0142970
655.485	0.0142162
655.563	0.0143433
655.641	0.0142471
655.719	0.0141797
655.797	0.0142307
655.875	0.0142145
655.953	0.0142891
656.031	0.0143195
656.110	0.0142532
656.188	0.0143210
656.266	0.0142846
656.344	0.0142836
656.422	0.0143626
656.500	0.0143367
656.578	0.0145113
656.656	0.0142446
656.735	0.0142144
656.813	0.0142746
656.891	0.0143121
656.969	0.0142825
657.047	0.0143132
657.125	0.0143237
657.203	0.0142793
657.281	0.0143075
657.360	0.0142669
657.438	0.0142577
657.516	0.0142020
657.594	0.0142255
657.672	0.0143121
657.750	0.0144560
657.828	0.0142767
657.906	0.0143159
657.985	0.0142212
658.063	0.0144054
658.141	0.0141725
658.219	0.0142503
658.297	0.0143367
658.375	0.0142281
658.453	0.0142531
658.531	0.0142694
658.610	0.0142558
658.688	0.0143104
658.766	0.0143401
658.844	0.0142584
658.922	0.0142692
659.000	0.0142563
659.078	0.0143514
659.156	0.0145272
659.235	0.0143901
659.313	0.0143821
659.391	0.0144318
659.469	0.0143955
659.547	0.0144041
659.625	0.0142946
659.703	0.0142410
659.781	0.0142278
659.860	0.0141595
659.938	0.0142473
660.016	0.0144218
660.094	0.0143890
660.172	0.0142737
660.250	0.0142612
660.328	0.0142714
660.406	0.0141758
660.485	0.0141824
660.563	0.0141441
660.641	0.0141647
660.719	0.0142223
660.797	0.0142578
660.875	0.0142529
660.953	0.0143408
661.031	0.0143932
661.110	0.0142142
661.188	0.0142242
661.266	0.0141546
661.344	0.0142637
661.422	0.0143755
661.500	0.0143336
661.578	0.0144064
661.656	0.0143517
661.735	0.0143333
661.813	0.0143242
661.891	0.0143215
661.969	0.0141924
662.047	0.0142856
662.125	0.0143186
662.203	0.0141014
662.281	0.0142361
662.360	0.0141621
662.438	0.0143645
662.516	0.0141978
662.594	0.0141486
662.672	0.0142089
662.750	0.0142949
662.828	0.0143060
662.906	0.0143713
662.985	0.0143292
663.063	0.0144793
663.141	0.0142801
663.219	0.0143201
663.297	0.0142494
663.375	0.0145256
663.453	0.0143211
663.531	0.0142942
663.610	0.0142513
663.688	0.0141957
663.766	0.0143454
663.844	0.0142757
663.922	0.0142828
664.000	0.0140834
664.078	0.0143309
664.156	0.0142263
664.235	0.0141660
664.313	0.0142000
664.391	0.0142415
664.469	0.0143547
664.547	0.0143179
664.625	0.0142072
664.703	0.0141922
664.781	0.0144453
664.860	0.0142900
664.938	0.0143501
665.016	0.0143554
665.094	0.0143470
665.172	0.0142960
665.250	0.0144186
665.328	0.0142942
665.406	0.0143007
665.485	0.0143849
665.563	0.0143296
665.641	0.0144050
665.719	0.0144051
665.797	0.0142068
665.875	0.0143102
665.953	0.0142595
666.031	0.0143677
666.110	0.0143015
666.188	0.0143127
666.266	0.0143597
666.344	0.0143349
666.422	0.0143135
666.500	0.0141013
666.578	0.0141837
666.656	0.0141737
666.735	0.0142802
666.813	0.0142865
666.891	0.0143392
666.969	0.0141270
667.047	0.0142725
667.125	0.0143056
667.203	0.0145105
667.281	0.0142355
667.360	0.0143193
667.438	0.0142319
667.516	0.0143037
667.594	0.0141215
667.672	0.0142561
667.750	0.0143129
667.828	0.0144690
667.906	0.0143260
667.985	0.0142139
668.063	0.0143420
668.141	0.0144567
668.219	0.0143341
668.297	0.0142221
668.375	0.0143541
668.453	0.0142496
668.531	0.0143930
668.610	0.0143330
668.688	0.0143611
668.766	0.0143431
668.844	0.0143224
668.922	0.0143493
669.000	0.0144112
669.078	0.0143230
669.156	0.0144567
669.235	0.0143269
669.313	0.0144093
669.391	0.0142609
669.469	0.0142387
669.547	0.0141917
669.625	0.0141541
669.703	0.0141697
669.781	0.0141327
669.860	0.0141502
669.938	0.0141264
670.016	0.0140921
670.094	0.0141624
670.172	0.0141234
670.250	0.0142838
670.328	0.0141918
670.406	0.0141361
670.485	0.0141446
670.563	0.0143651
670.641	0.0143804
670.719	0.0144846
670.797	0.0145448
670.875	0.0144685
670.953	0.0145966
671.031	0.0145849
671.110	0.0145052
671.188	0.0144809
671.266	0.0144593
671.344	0.0145467
671.422	0.0143624
671.500	0.0144337
671.578	0.0143412
671.656	0.0142825
671.735	0.0143941
671.813	0.0144262
671.891	0.0143031
671.969	0.0143276
672.047	0.0142773
672.125	0.0144878
672.203	0.0145329
672.281	0.0145222
672.360	0.0142661
672.438	0.0142718
672.516	0.0143943
672.594	0.0143011
672.672	0.0142121
672.750	0.0142781
672.828	0.0142802
672.906	0.0144058
672.985	0.0144575
673.063	0.0142345
673.141	0.0142756
673.219	0.0144298
673.297	0.0145615
673.375	0.0144713
673.453	0.0145412
673.531	0.0145060
673.610	0.0147248
673.688	0.0145496
673.766	0.0143939
673.844	0.0144746
673.922	0.0144010
674.000	0.0142657
674.078	0.0142134
674.156	0.0140154
674.235	0.0140523
674.313	0.0138829
674.391	0.0139127
674.469	0.0139073
674.547	0.0138186
674.625	0.0139336
674.703	0.0139407
674.781	0.0141086
674.860	0.0143314
674.938	0.0144830
675.016	0.0146082
675.094	0.0147121
675.172	0.0147534
675.250	0.0149072
675.328	0.0149529
675.406	0.0148390
675.485	0.0146694
675.563	0.0146021
675.641	0.0144701
675.719	0.0142942
675.797	0.0141161
675.875	0.0140877
675.953	0.0139496
676.031	0.0140573
676.110	0.0139948
676.188	0.0140177
676.266	0.0141578
676.344	0.0141840
676.422	0.0141761
676.500	0.0143623
676.578	0.0144071
676.656	0.0144489
676.735	0.0145497
676.813	0.0145069
676.891	0.0144467
676.969	0.0144884
677.047	0.0145025
677.125	0.0144532
677.203	0.0144416
677.281	0.0143371
677.360	0.0141987
677.438	0.0140794
677.516	0.0140492
677.594	0.0139587
677.672	0.0137785
677.750	0.0136633
677.828	0.0135841
677.906	0.0136053
677.985	0.0135216
678.063	0.0136253
678.141	0.0137836
678.219	0.0138754
678.297	0.0141069
678.375	0.0141718
678.453	0.0142189
678.531	0.0143701
678.610	0.0145154
678.688	0.0145427
678.766	0.0146252
678.844	0.0145124
678.922	0.0146160
679.000	0.0145536
679.078	0.0145218
679.156	0.0145396
679.235	0.0144848
679.313	0.0144143
679.391	0.0142107
679.469	0.0141769
679.547	0.0141203
679.625	0.0140621
679.703	0.0141315
679.781	0.0140098
679.860	0.0140922
679.938	0.0141902
680.016	0.0141722
680.094	0.0141192
680.172	0.0140848
680.250	0.0142834
680.328	0.0142794
680.406	0.0143646
680.485	0.0142674
680.563	0.0143193
680.641	0.0142942
680.719	0.0141445
680.797	0.0141191
680.875	0.0140405
680.953	0.0139876
681.031	0.0140604
681.110	0.0140867
681.188	0.0140268
681.266	0.0141650
681.344	0.0141510
681.422	0.0142807
681.500	0.0146175
681.578	0.0146014
681.656	0.0147339
681.735	0.0148482
681.813	0.0147872
681.891	0.0147875
681.969	0.0147504
682.047	0.0146577
682.125	0.0144718
682.203	0.0141497
682.281	0.0140096
682.360	0.0136896
682.438	0.0134675
682.516	0.0133395
682.594	0.0132206
682.672	0.0130267
682.750	0.0130756
682.828	0.0133213
682.906	0.0134107
682.985	0.0135057
683.063	0.0136906
683.141	0.0139071
683.219	0.0142738
683.297	0.0144788
683.375	0.0145587
683.453	0.0148328
683.531	0.0150339
683.610	0.0149823
683.688	0.0150707
683.766	0.0150298
683.844	0.0149366
683.922	0.0149501
684.000	0.0148294
684.078	0.0146491
684.156	0.0145180
684.235	0.0145350
684.313	0.0143306
684.391	0.0143547
684.469	0.0144314
684.547	0.0142015
684.625	0.0142966
684.703	0.0143504
684.781	0.0144109
684.860	0.0143297
684.938	0.0143839
685.016	0.0141842
685.094	0.0141255
685.172	0.0137914
685.250	0.0137992
685.328	0.0136523
685.406	0.0134366
685.485	0.0133229
685.563	0.0131528
685.641	0.0132648
685.719	0.0132342
685.797	0.0134562
685.875	0.0136121
685.953	0.0139224
686.031	0.0140147
686.110	0.0144264
686.188	0.0145189
686.266	0.0147397
686.344	0.0149966
686.422	0.0151416
686.500	0.0150388
686.578	0.0153944
686.656	0.0153619
686.735	0.0152415
686.813	0.0151702
686.891	0.0152048
686.969	0.0150246
687.047	0.0147898
687.125	0.0144614
687.203	0.0142599
687.281	0.0141991
687.360	0.0141393
687.438	0.0138925
687.516	0.0137597
687.594	0.0136500
687.672	0.0136361
687.750	0.0135826
687.828	0.0136189
687.906	0.0135844
687.985	0.0136134
688.063	0.0136146
688.141	0.0136442
688.219	0.0136403
688.297	0.0135514
688.375	0.0136453
688.453	0.0137083
688.531	0.0137132
688.610	0.0136798
688.688	0.0136720
688.766	0.0139445
688.844	0.0139970
688.922	0.0140839
689.000	0.0143362
689.078	0.0144930
689.156	0.0147404
689.235	0.0149324
689.313	0.0151442
689.391	0.0152697
689.469	0.0152390
689.547	0.0152724
689.625	0.0152861
689.703	0.0152895
689.781	0.0150637
689.860	0.0149323
689.938	0.0145100
690.016	0.0142248
690.094	0.0141732
690.172	0.0140317
690.250	0.0138605
690.328	0.0136355
690.406	0.0136430
690.485	0.0134949
690.563	0.0134835
690.641	0.0136881
690.719	0.0136421
690.797	0.0136668
690.875	0.0137835
690.953	0.0137836
691.031	0.0139012
691.110	0.0139668
691.188	0.0140881
691.266	0.0140948
691.344	0.0140572
691.422	0.0140922
691.500	0.0140734
691.578	0.0141352
691.656	0.0142782
691.735	0.0142815
691.813	0.0143597
691.891	0.0143850
691.969	0.0145944
692.047	0.0146074
692.125	0.0144869
692.203	0.0146272
692.281	0.0145872
692.360	0.0146045
692.438	0.0145964
692.516	0.0145274
692.594	0.0143987
692.672	0.0144006
692.750	0.0141856
692.828	0.0140392
692.906	0.0141404
692.985	0.0139914
693.063	0.0138475
693.141	0.0137081
693.219	0.0138063
693.297	0.0136625
693.375	0.0138255
693.453	0.0138725
693.531	0.0138899
693.610	0.0140357
693.688	0.0141825
693.766	0.0144415
693.844	0.0144450
693.922	0.0146363
694.000	0.0147421
694.078	0.0148605
694.156	0.0148557
694.235	0.0150223
694.313	0.0148920
694.391	0.0150082
694.469	0.0146084
694.547	0.0146111
694.625	0.0144965
694.703	0.0143880
694.781	0.0140953
694.860	0.0140342
694.938	0.0139388
695.016	0.0136835
695.094	0.0136613
695.172	0.0137085
695.250	0.0135521
695.328	0.0137649
695.406	0.0138744
695.485	0.0138828
695.563	0.0140971
695.641	0.0141688
695.719	0.0143815
695.797	0.0142712
695.875	0.0144482
695.953	0.0144820
696.031	0.0145885
696.110	0.0144137
696.188	0.0146178
696.266	0.0146030
696.344	0.0145498
696.422	0.0145891
696.500	0.0144747
696.578	0.0144826
696.656	0.0144006
696.735	0.0143854
696.813	0.0144769
696.891	0.0144106
696.969	0.0144624
697.047	0.0145435
697.125	0.0144611
697.203	0.0144780
697.281	0.0144263
697.360	0.0144912
697.438	0.0145608
697.516	0.0141938
697.594	0.0142008
697.672	0.0142542
697.750	0.0141271
697.828	0.0139389
697.906	0.0139529
697.985	0.0137989
698.063	0.0138178
698.141	0.0138750
698.219	0.0138171
698.297	0.0140668
698.375	0.0141666
698.453	0.0142052
698.531	0.0142462
698.610	0.0142832
698.688	0.0143974
698.766	0.0143561
698.844	0.0144927
698.922	0.0144844
699.000	0.0145367
699.078	0.0143275
699.156	0.0143132
699.235	0.0142271
699.313	0.0140194
699.391	0.0138221
699.469	0.0139626
699.547	0.0140887
699.625	0.0138300
699.703	0.0138416
699.781	0.0138161
699.860	0.0139441
699.938	0.0140142
700.016	0.0140246
700.094	0.0140876
700.172	0.0141595
700.250	0.0140714
700.328	0.0141059
700.406	0.0141370
700.485	0.0142992
700.563	0.0142570
700.641	0.0143745
700.719	0.0142887
700.797	0.0143419
700.875	0.0144516
700.953	0.0144555
701.031	0.0144964
701.110	0.0145896
701.188	0.0146810
701.266	0.0145499
701.344	0.0143559
701.422	0.0145670
701.500	0.0144612
701.578	0.0144877
701.656	0.0143291
701.735	0.0142831
701.813	0.0140640
701.891	0.0140465
701.969	0.0140204
702.047	0.0140978
702.125	0.0140457
702.203	0.0140277
702.281	0.0139771
702.360	0.0138962
702.438	0.0140529
702.516	0.0141270
702.594	0.0140706
702.672	0.0140975
702.750	0.0140809
702.828	0.0140214
702.906	0.0139472
702.985	0.0138276
703.063	0.0139186
703.141	0.0137914
703.219	0.0138085
703.297	0.0138284
703.375	0.0139348
703.453	0.0139244
703.531	0.0140614
703.610	0.0141111
703.688	0.0141817
703.766	0.0143164
703.844	0.0144113
703.922	0.0144481
704.000	0.0144684
704.078	0.0144681
704.156	0.0145103
704.235	0.0145598
704.313	0.0145242
704.391	0.0144944
704.469	0.0144701
704.547	0.0143165
704.625	0.0143150
704.703	0.0141505
704.781	0.0143692
704.860	0.0142923
704.938	0.0141631
705.016	0.0142113
705.094	0.0144176
705.172	0.0142571
705.250	0.0142970
705.328	0.0144801
705.406	0.0143779
705.485	0.0143446
705.563	0.0142496
705.641	0.0142447
705.719	0.0141194
705.797	0.0140804
705.875	0.0138919
705.953	0.0138563
706.031	0.0139005
706.110	0.0138317
706.188	0.0138195
706.266	0.0138023
706.344	0.0140236
706.422	0.0139723
706.500	0.0139282
706.578	0.0139693
706.656	0.0141212
706.735	0.0140794
706.813	0.0140924
706.891	0.0143159
706.969	0.0142517
707.047	0.0143614
707.125	0.0144166
707.203	0.0143696
707.281	0.0144560
707.360	0.0143732
707.438	0.0144051
707.516	0.0143436
707.594	0.0143031
707.672	0.0144586
707.750	0.0143819
707.828	0.0143362
707.906	0.0144286
707.985	0.0144592
708.063	0.0143260
708.141	0.0142863
708.219	0.0144254
708.297	0.0145176
708.375	0.0143018
708.453	0.0143953
708.531	0.0144037
708.610	0.0143605
708.688	0.0141645
708.766	0.0141023
708.844	0.0141647
708.922	0.0141528
709.000	0.0140549
709.078	0.0140708
709.156	0.0140830
709.235	0.0139520
709.313	0.0140569
709.391	0.0139507
709.469	0.0139532
709.547	0.0140011
709.625	0.0139832
709.703	0.0141032
709.781	0.0142655
709.860	0.0141994
709.938	0.0142970
710.016	0.0141684
710.094	0.0143288
710.172	0.0143134
710.250	0.0143424
710.328	0.0143164
710.406	0.0143053
710.485	0.0142867
710.563	0.0142396
710.641	0.0140435
710.719	0.0141277
710.797	0.0141922
710.875	0.0142498
710.953	0.0139473
711.031	0.0141178
711.110	0.0141731
711.188	0.0140797
711.266	0.0141351
711.344	0.0140778
711.422	0.0140383
711.500	0.0141772
711.578	0.0140894
711.656	0.0140726
711.735	0.0141956
711.813	0.0141625
711.891	0.0141123
711.969	0.0141457
712.047	0.0141623
712.125	0.0142724
712.203	0.0142878
712.281	0.0144176
712.360	0.0142805
712.438	0.0143822
712.516	0.0144541
712.594	0.0145448
712.672	0.0145730
712.750	0.0146494
712.828	0.0146304
712.906	0.0145747
712.985	0.0145758
713.063	0.0144505
713.141	0.0143762
713.219	0.0142799
713.297	0.0141496
713.375	0.0140675
713.453	0.0139803
713.531	0.0139497
713.610	0.0137642
713.688	0.0136929
713.766	0.0135966
713.844	0.0137245
713.922	0.0137845
714.000	0.0136665
714.078	0.0136877
714.156	0.0138028
714.235	0.0137577
714.313	0.0139004
714.391	0.0140276
714.469	0.0141492
714.547	0.0144054
714.625	0.0144772
714.703	0.0146310
714.781	0.0148060
714.860	0.0147421
714.938	0.0148681
715.016	0.0150784
715.094	0.0151551
715.172	0.0150372
715.250	0.0150370
715.328	0.0149671
715.406	0.0149614
715.485	0.0148038
715.563	0.0146946
715.641	0.0146473
715.719	0.0144794
