05/04/2022	21:45:04	Ver.	4.1	UNKNOWN
Optical Delay	630.015849	Delta X		0.078125	Sweeps	1	Scan Rate	0/0
Coordinates	Axis 1	NaN	Axis 2	NaN	Axis 3	NaN	Axis 4	NaN	Axis 5	NaN	Axis 6	0.000000
TX Power	0.000000	RX Power	0.000000

630.016	0.0145017
630.094	0.0147077
630.172	0.0145979
630.250	0.0143966
630.328	0.0145763
630.406	0.0145327
630.485	0.0144762
630.563	0.0145434
630.641	0.0145445
630.719	0.0145305
630.797	0.0145415
630.875	0.0146226
630.953	0.0145364
631.031	0.0144777
631.110	0.0144940
631.188	0.0145182
631.266	0.0144169
631.344	0.0146066
631.422	0.0144932
631.500	0.0144936
631.578	0.0144946
631.656	0.0145853
631.735	0.0145119
631.813	0.0145009
631.891	0.0145288
631.969	0.0145605
632.047	0.0146021
632.125	0.0145544
632.203	0.0146046
632.281	0.0144518
632.360	0.0146054
632.438	0.0145238
632.516	0.0145389
632.594	0.0145795
632.672	0.0145866
632.750	0.0145554
632.828	0.0144238
632.906	0.0144915
632.985	0.0144592
633.063	0.0145285
633.141	0.0145683
633.219	0.0145435
633.297	0.0144534
633.375	0.0144375
633.453	0.0145224
633.531	0.0145942
633.610	0.0145038
633.688	0.0143581
633.766	0.0145669
633.844	0.0146078
633.922	0.0144788
634.000	0.0145232
634.078	0.0144701
634.156	0.0144972
634.235	0.0144646
634.313	0.0145454
634.391	0.0145338
634.469	0.0146064
634.547	0.0144288
634.625	0.0145259
634.703	0.0145480
634.781	0.0144159
634.860	0.0144658
634.938	0.0144341
635.016	0.0144823
635.094	0.0145148
635.172	0.0145284
635.250	0.0145531
635.328	0.0145553
635.406	0.0146650
635.485	0.0145155
635.563	0.0145686
635.641	0.0146251
635.719	0.0146207
635.797	0.0145242
635.875	0.0145200
635.953	0.0145117
636.031	0.0146059
636.110	0.0145890
636.188	0.0145788
636.266	0.0146019
636.344	0.0145732
636.422	0.0145055
636.500	0.0146082
636.578	0.0144939
636.656	0.0144918
636.735	0.0147186
636.813	0.0146589
636.891	0.0146628
636.969	0.0145990
637.047	0.0146527
637.125	0.0145792
637.203	0.0145952
637.281	0.0145974
637.360	0.0147594
637.438	0.0145880
637.516	0.0144992
637.594	0.0146197
637.672	0.0146922
637.750	0.0146031
637.828	0.0145287
637.906	0.0146716
637.985	0.0146456
638.063	0.0146406
638.141	0.0145148
638.219	0.0144760
638.297	0.0146958
638.375	0.0147337
638.453	0.0146352
638.531	0.0145140
638.610	0.0145322
638.688	0.0147066
638.766	0.0145871
638.844	0.0146297
638.922	0.0146970
639.000	0.0148594
639.078	0.0146977
639.156	0.0146436
639.235	0.0146307
639.313	0.0146375
639.391	0.0146027
639.469	0.0146655
639.547	0.0147248
639.625	0.0146584
639.703	0.0144189
639.781	0.0145994
639.860	0.0147378
639.938	0.0146773
640.016	0.0146831
640.094	0.0144889
640.172	0.0146108
640.250	0.0146860
640.328	0.0146222
640.406	0.0146609
640.485	0.0146702
640.563	0.0148083
640.641	0.0147328
640.719	0.0147170
640.797	0.0147678
640.875	0.0147222
640.953	0.0145061
641.031	0.0146483
641.110	0.0147116
641.188	0.0145372
641.266	0.0147598
641.344	0.0145910
641.422	0.0146404
641.500	0.0146409
641.578	0.0146049
641.656	0.0146279
641.735	0.0145979
641.813	0.0147826
641.891	0.0146947
641.969	0.0145655
642.047	0.0144926
642.125	0.0145827
642.203	0.0146201
642.281	0.0146348
642.360	0.0146580
642.438	0.0146313
642.516	0.0145834
642.594	0.0145168
642.672	0.0146517
642.750	0.0145507
642.828	0.0146414
642.906	0.0146739
642.985	0.0145656
643.063	0.0146077
643.141	0.0145927
643.219	0.0146454
643.297	0.0146335
643.375	0.0145475
643.453	0.0145778
643.531	0.0145503
643.610	0.0146597
643.688	0.0146214
643.766	0.0145977
643.844	0.0146738
643.922	0.0146256
644.000	0.0145679
644.078	0.0145692
644.156	0.0145386
644.235	0.0144843
644.313	0.0145950
644.391	0.0146351
644.469	0.0145587
644.547	0.0144910
644.625	0.0145605
644.703	0.0145209
644.781	0.0146102
644.860	0.0146454
644.938	0.0144861
645.016	0.0143919
645.094	0.0145718
645.172	0.0145243
645.250	0.0144490
645.328	0.0145376
645.406	0.0145645
645.485	0.0144326
645.563	0.0147291
645.641	0.0147008
645.719	0.0145068
645.797	0.0145217
645.875	0.0144891
645.953	0.0146161
646.031	0.0144810
646.110	0.0146432
646.188	0.0145851
646.266	0.0145133
646.344	0.0144496
646.422	0.0145113
646.500	0.0145675
646.578	0.0144522
646.656	0.0144798
646.735	0.0145348
646.813	0.0145950
646.891	0.0144920
646.969	0.0145861
647.047	0.0147109
647.125	0.0145750
647.203	0.0145082
647.281	0.0143712
647.360	0.0145567
647.438	0.0146265
647.516	0.0146685
647.594	0.0145470
647.672	0.0144537
647.750	0.0145331
647.828	0.0144884
647.906	0.0146938
647.985	0.0146149
648.063	0.0145986
648.141	0.0146405
648.219	0.0146265
648.297	0.0146445
648.375	0.0145589
648.453	0.0144046
648.531	0.0147368
648.610	0.0145796
648.688	0.0144598
648.766	0.0147623
648.844	0.0145755
648.922	0.0146202
649.000	0.0146569
649.078	0.0145447
649.156	0.0146124
649.235	0.0145688
649.313	0.0146239
649.391	0.0145603
649.469	0.0146468
649.547	0.0145855
649.625	0.0146143
649.703	0.0146207
649.781	0.0144027
649.860	0.0146032
649.938	0.0145660
650.016	0.0144736
650.094	0.0144418
650.172	0.0146117
650.250	0.0145685
650.328	0.0145534
650.406	0.0146220
650.485	0.0146144
650.563	0.0145258
650.641	0.0146585
650.719	0.0144735
650.797	0.0145804
650.875	0.0145959
650.953	0.0145537
651.031	0.0146500
651.110	0.0145190
651.188	0.0144573
651.266	0.0146362
651.344	0.0145797
651.422	0.0144893
651.500	0.0144956
651.578	0.0144818
651.656	0.0145040
651.735	0.0145976
651.813	0.0145971
651.891	0.0147165
651.969	0.0146600
652.047	0.0144810
652.125	0.0145370
652.203	0.0145923
652.281	0.0146810
652.360	0.0145848
652.438	0.0145402
652.516	0.0144838
652.594	0.0144670
652.672	0.0145756
652.750	0.0145635
652.828	0.0146560
652.906	0.0147324
652.985	0.0145362
653.063	0.0145041
653.141	0.0145701
653.219	0.0146011
653.297	0.0146890
653.375	0.0145614
653.453	0.0145334
653.531	0.0146400
653.610	0.0145596
653.688	0.0144354
653.766	0.0143760
653.844	0.0146574
653.922	0.0147555
654.000	0.0146461
654.078	0.0146480
654.156	0.0146950
654.235	0.0145406
654.313	0.0145895
654.391	0.0145930
654.469	0.0147211
654.547	0.0145541
654.625	0.0146093
654.703	0.0146181
654.781	0.0146098
654.860	0.0146342
654.938	0.0146227
655.016	0.0146161
655.094	0.0146271
655.172	0.0145724
655.250	0.0146222
655.328	0.0148305
655.406	0.0147039
655.485	0.0145805
655.563	0.0148824
655.641	0.0146962
655.719	0.0147246
655.797	0.0147264
655.875	0.0145446
655.953	0.0144348
656.031	0.0147678
656.110	0.0146169
656.188	0.0146327
656.266	0.0146239
656.344	0.0145486
656.422	0.0145238
656.500	0.0145324
656.578	0.0146499
656.656	0.0147733
656.735	0.0146638
656.813	0.0144035
656.891	0.0145882
656.969	0.0146517
657.047	0.0145341
657.125	0.0145492
657.203	0.0145724
657.281	0.0147446
657.360	0.0146024
657.438	0.0145557
657.516	0.0145435
657.594	0.0145332
657.672	0.0145009
657.750	0.0145473
657.828	0.0144943
657.906	0.0146152
657.985	0.0144891
658.063	0.0144086
658.141	0.0143774
658.219	0.0146177
658.297	0.0146246
658.375	0.0146033
658.453	0.0146764
658.531	0.0146628
658.610	0.0145686
658.688	0.0146114
658.766	0.0145600
658.844	0.0145126
658.922	0.0146725
659.000	0.0144623
659.078	0.0145878
659.156	0.0146140
659.235	0.0145075
659.313	0.0146143
659.391	0.0145208
659.469	0.0144137
659.547	0.0144287
659.625	0.0145533
659.703	0.0146786
659.781	0.0143502
659.860	0.0143933
659.938	0.0144632
660.016	0.0144955
660.094	0.0144337
660.172	0.0144510
660.250	0.0145200
660.328	0.0144359
660.406	0.0144936
660.485	0.0145067
660.563	0.0144810
660.641	0.0145325
660.719	0.0144864
660.797	0.0144271
660.875	0.0144994
660.953	0.0146531
661.031	0.0146580
661.110	0.0146593
661.188	0.0146599
661.266	0.0146362
661.344	0.0146623
661.422	0.0145950
661.500	0.0146439
661.578	0.0143742
661.656	0.0143738
661.735	0.0145940
661.813	0.0144619
661.891	0.0144642
661.969	0.0144053
662.047	0.0144449
662.125	0.0145362
662.203	0.0145460
662.281	0.0145652
662.360	0.0144666
662.438	0.0146346
662.516	0.0146140
662.594	0.0146474
662.672	0.0145686
662.750	0.0146675
662.828	0.0145844
662.906	0.0146349
662.985	0.0146192
663.063	0.0146124
663.141	0.0144871
663.219	0.0146227
663.297	0.0145523
663.375	0.0144993
663.453	0.0145090
663.531	0.0144758
663.610	0.0145126
663.688	0.0144282
663.766	0.0145253
663.844	0.0144022
663.922	0.0144550
664.000	0.0145170
664.078	0.0144492
664.156	0.0145882
664.235	0.0145029
664.313	0.0144114
664.391	0.0146461
664.469	0.0145676
664.547	0.0146809
664.625	0.0145538
664.703	0.0146939
664.781	0.0144741
664.860	0.0145656
664.938	0.0147251
665.016	0.0146957
665.094	0.0146548
665.172	0.0147139
665.250	0.0147112
665.328	0.0145750
665.406	0.0146962
665.485	0.0146011
665.563	0.0145664
665.641	0.0145426
665.719	0.0146396
665.797	0.0147440
665.875	0.0146609
665.953	0.0146751
666.031	0.0146707
666.110	0.0146414
666.188	0.0146613
666.266	0.0147361
666.344	0.0145461
666.422	0.0146044
666.500	0.0145793
666.578	0.0146576
666.656	0.0144496
666.735	0.0146797
666.813	0.0147203
666.891	0.0146483
666.969	0.0146681
667.047	0.0145116
667.125	0.0144862
667.203	0.0146496
667.281	0.0147008
667.360	0.0146054
667.438	0.0148218
667.516	0.0146042
667.594	0.0145808
667.672	0.0147311
667.750	0.0147250
667.828	0.0146984
667.906	0.0148410
667.985	0.0147353
668.063	0.0147380
668.141	0.0147565
668.219	0.0148761
668.297	0.0146787
668.375	0.0146941
668.453	0.0146228
668.531	0.0147508
668.610	0.0148502
668.688	0.0148717
668.766	0.0148364
668.844	0.0147176
668.922	0.0149230
669.000	0.0147433
669.078	0.0147986
669.156	0.0147461
669.235	0.0145165
669.313	0.0145368
669.391	0.0143894
669.469	0.0144565
669.547	0.0145370
669.625	0.0143405
669.703	0.0142816
669.781	0.0142825
669.860	0.0144214
669.938	0.0143449
670.016	0.0142827
670.094	0.0144936
670.172	0.0145721
670.250	0.0145699
670.328	0.0146622
670.406	0.0147086
670.485	0.0145658
670.563	0.0147601
670.641	0.0147536
670.719	0.0149357
670.797	0.0147753
670.875	0.0148228
670.953	0.0145813
671.031	0.0145723
671.110	0.0146334
671.188	0.0146250
671.266	0.0146488
671.344	0.0145151
671.422	0.0146069
671.500	0.0144978
671.578	0.0144996
671.656	0.0145232
671.735	0.0145582
671.813	0.0145866
671.891	0.0146481
671.969	0.0145943
672.047	0.0144633
672.125	0.0146620
672.203	0.0145046
672.281	0.0144826
672.360	0.0145023
672.438	0.0145745
672.516	0.0145142
672.594	0.0144330
672.672	0.0144597
672.750	0.0145004
672.828	0.0143995
672.906	0.0146158
672.985	0.0145867
673.063	0.0145782
673.141	0.0146181
673.219	0.0146080
673.297	0.0147852
673.375	0.0147255
673.453	0.0148355
673.531	0.0147359
673.610	0.0146404
673.688	0.0145171
673.766	0.0146457
673.844	0.0143649
673.922	0.0143725
674.000	0.0143305
674.078	0.0141387
674.156	0.0140086
674.235	0.0139331
674.313	0.0139458
674.391	0.0142744
674.469	0.0140604
674.547	0.0142024
674.625	0.0143858
674.703	0.0144942
674.781	0.0145518
674.860	0.0147659
674.938	0.0148969
675.016	0.0149628
675.094	0.0148908
675.172	0.0150191
675.250	0.0148690
675.328	0.0149165
675.406	0.0149149
675.485	0.0148385
675.563	0.0146525
675.641	0.0143144
675.719	0.0143221
675.797	0.0142664
675.875	0.0142079
675.953	0.0141110
676.031	0.0140220
676.110	0.0143005
676.188	0.0141954
676.266	0.0144118
676.344	0.0144705
676.422	0.0146174
676.500	0.0145868
676.578	0.0146119
676.656	0.0147601
676.735	0.0146941
676.813	0.0147516
676.891	0.0148023
676.969	0.0148412
677.047	0.0147925
677.125	0.0146894
677.203	0.0146903
677.281	0.0145572
677.360	0.0145219
677.438	0.0144012
677.516	0.0141420
677.594	0.0141066
677.672	0.0139388
677.750	0.0140118
677.828	0.0139599
677.906	0.0140028
677.985	0.0141248
678.063	0.0140678
678.141	0.0142858
678.219	0.0143303
678.297	0.0145783
678.375	0.0146548
678.453	0.0147372
678.531	0.0147880
678.610	0.0148189
678.688	0.0149202
678.766	0.0149601
678.844	0.0149816
678.922	0.0149132
679.000	0.0148448
679.078	0.0147462
679.156	0.0146011
679.235	0.0145725
679.313	0.0145020
679.391	0.0145382
679.469	0.0144128
679.547	0.0143969
679.625	0.0142656
679.703	0.0142520
679.781	0.0142028
679.860	0.0143208
679.938	0.0142107
680.016	0.0142657
680.094	0.0143587
680.172	0.0143147
680.250	0.0145207
680.328	0.0144383
680.406	0.0144056
680.485	0.0144421
680.563	0.0142797
680.641	0.0141803
680.719	0.0142809
680.797	0.0143263
680.875	0.0141730
680.953	0.0142272
681.031	0.0143729
681.110	0.0143931
681.188	0.0145059
681.266	0.0146455
681.344	0.0146486
681.422	0.0147388
681.500	0.0148969
681.578	0.0150493
681.656	0.0150632
681.735	0.0150512
681.813	0.0148344
681.891	0.0148714
681.969	0.0147392
682.047	0.0145960
682.125	0.0143723
682.203	0.0140781
682.281	0.0140043
682.360	0.0138413
682.438	0.0137401
682.516	0.0134422
682.594	0.0134396
682.672	0.0135027
682.750	0.0136940
682.828	0.0139782
682.906	0.0140714
682.985	0.0143920
683.063	0.0143727
683.141	0.0144876
683.219	0.0146268
683.297	0.0150793
683.375	0.0151083
683.453	0.0151894
683.531	0.0151393
683.610	0.0152453
683.688	0.0152730
683.766	0.0150890
683.844	0.0151276
683.922	0.0150342
684.000	0.0149536
684.078	0.0149909
684.156	0.0149139
684.235	0.0147782
684.313	0.0147341
684.391	0.0146824
684.469	0.0146374
684.547	0.0145110
684.625	0.0146500
684.703	0.0147130
684.781	0.0145718
684.860	0.0145361
684.938	0.0144608
685.016	0.0142014
685.094	0.0140833
685.172	0.0139439
685.250	0.0136865
685.328	0.0135757
685.406	0.0133857
685.485	0.0135330
685.563	0.0135060
685.641	0.0136166
685.719	0.0136819
685.797	0.0139202
685.875	0.0141770
685.953	0.0141875
686.031	0.0145464
686.110	0.0147865
686.188	0.0149802
686.266	0.0152829
686.344	0.0153423
686.422	0.0155595
686.500	0.0154619
686.578	0.0156314
686.656	0.0155476
686.735	0.0155427
686.813	0.0154951
686.891	0.0153863
686.969	0.0151211
687.047	0.0148718
687.125	0.0145983
687.203	0.0146188
687.281	0.0143041
687.360	0.0142021
687.438	0.0139964
687.516	0.0140941
687.594	0.0138448
687.672	0.0139048
687.750	0.0138920
687.828	0.0138242
687.906	0.0137762
687.985	0.0138288
688.063	0.0139359
688.141	0.0139189
688.219	0.0138441
688.297	0.0138465
688.375	0.0138300
688.453	0.0139483
688.531	0.0139449
688.610	0.0139722
688.688	0.0141586
688.766	0.0143256
688.844	0.0142657
688.922	0.0145679
689.000	0.0148719
689.078	0.0150050
689.156	0.0151618
689.235	0.0154584
689.313	0.0154285
689.391	0.0154996
689.469	0.0156200
689.547	0.0155725
689.625	0.0155228
689.703	0.0153342
689.781	0.0152402
689.860	0.0150314
689.938	0.0147853
690.016	0.0145650
690.094	0.0143877
690.172	0.0142556
690.250	0.0141503
690.328	0.0140593
690.406	0.0138845
690.485	0.0138367
690.563	0.0139413
690.641	0.0139579
690.719	0.0140683
690.797	0.0140309
690.875	0.0141384
690.953	0.0142867
691.031	0.0143934
691.110	0.0144099
691.188	0.0145271
691.266	0.0146276
691.344	0.0145667
691.422	0.0145456
691.500	0.0146143
691.578	0.0148190
691.656	0.0148615
691.735	0.0149661
691.813	0.0149899
691.891	0.0150507
691.969	0.0150390
692.047	0.0152235
692.125	0.0151250
692.203	0.0152348
692.281	0.0150322
692.360	0.0151613
692.438	0.0148973
692.516	0.0149020
692.594	0.0147516
692.672	0.0144997
692.750	0.0143771
692.828	0.0143672
692.906	0.0143112
692.985	0.0141396
693.063	0.0139442
693.141	0.0139417
693.219	0.0139617
693.297	0.0139930
693.375	0.0140580
693.453	0.0141830
693.531	0.0143069
693.610	0.0145086
693.688	0.0146246
693.766	0.0147725
693.844	0.0149169
693.922	0.0148531
694.000	0.0149682
694.078	0.0150931
694.156	0.0150816
694.235	0.0151053
694.313	0.0150345
694.391	0.0148100
694.469	0.0148225
694.547	0.0145979
694.625	0.0145633
694.703	0.0143222
694.781	0.0143472
694.860	0.0142246
694.938	0.0139487
695.016	0.0140750
695.094	0.0139471
695.172	0.0140231
695.250	0.0138792
695.328	0.0140210
695.406	0.0141783
695.485	0.0141537
695.563	0.0142370
695.641	0.0142986
695.719	0.0145097
695.797	0.0144087
695.875	0.0146297
695.953	0.0146735
696.031	0.0146464
696.110	0.0147963
696.188	0.0147801
696.266	0.0147010
696.344	0.0148660
696.422	0.0148212
696.500	0.0147821
696.578	0.0148822
696.656	0.0146765
696.735	0.0145943
696.813	0.0146336
696.891	0.0146542
696.969	0.0146070
697.047	0.0144685
697.125	0.0145273
697.203	0.0145916
697.281	0.0146981
697.360	0.0146465
697.438	0.0146776
697.516	0.0146601
697.594	0.0143879
697.672	0.0144096
697.750	0.0143040
697.828	0.0141426
697.906	0.0141879
697.985	0.0140826
698.063	0.0140762
698.141	0.0140113
698.219	0.0140152
698.297	0.0141118
698.375	0.0141631
698.453	0.0140952
698.531	0.0143762
698.610	0.0143834
698.688	0.0144305
698.766	0.0145015
698.844	0.0144386
698.922	0.0145588
699.000	0.0145621
699.078	0.0144494
699.156	0.0144019
699.235	0.0144517
699.313	0.0144267
699.391	0.0141590
699.469	0.0141762
699.547	0.0143254
699.625	0.0140329
699.703	0.0141433
699.781	0.0140678
699.860	0.0142532
699.938	0.0141132
700.016	0.0142555
700.094	0.0143249
700.172	0.0141896
700.250	0.0141873
700.328	0.0143446
700.406	0.0143564
700.485	0.0144402
700.563	0.0143428
700.641	0.0143387
700.719	0.0144895
700.797	0.0145531
700.875	0.0144833
700.953	0.0145047
701.031	0.0146116
701.110	0.0146904
701.188	0.0146294
701.266	0.0146652
701.344	0.0146538
701.422	0.0145673
701.500	0.0145287
701.578	0.0146288
701.656	0.0145170
701.735	0.0143884
701.813	0.0144612
701.891	0.0144773
701.969	0.0145150
702.047	0.0144024
702.125	0.0144081
702.203	0.0144517
702.281	0.0143919
702.360	0.0145093
702.438	0.0145501
702.516	0.0146252
702.594	0.0144892
702.672	0.0145767
702.750	0.0144368
702.828	0.0144895
702.906	0.0143700
702.985	0.0143667
703.063	0.0142245
703.141	0.0143231
703.219	0.0142784
703.297	0.0142998
703.375	0.0143492
703.453	0.0144563
703.531	0.0145692
703.610	0.0146844
703.688	0.0145862
703.766	0.0147296
703.844	0.0150291
703.922	0.0148757
704.000	0.0148654
704.078	0.0148702
704.156	0.0148544
704.235	0.0149838
704.313	0.0148514
704.391	0.0148349
704.469	0.0146959
704.547	0.0146739
704.625	0.0147682
704.703	0.0147452
704.781	0.0146162
704.860	0.0145614
704.938	0.0145973
705.016	0.0146802
705.094	0.0147482
705.172	0.0146230
705.250	0.0145832
705.328	0.0146290
705.406	0.0146481
705.485	0.0144958
705.563	0.0143833
705.641	0.0143579
705.719	0.0142564
705.797	0.0143620
705.875	0.0141191
705.953	0.0141035
706.031	0.0140279
706.110	0.0140690
706.188	0.0140154
706.266	0.0139993
706.344	0.0141548
706.422	0.0141818
706.500	0.0140914
706.578	0.0141430
706.656	0.0142427
706.735	0.0143271
706.813	0.0145489
706.891	0.0143990
706.969	0.0145907
707.047	0.0147281
707.125	0.0147219
707.203	0.0147299
707.281	0.0147528
707.360	0.0147580
707.438	0.0148729
707.516	0.0146727
707.594	0.0147197
707.672	0.0145895
707.750	0.0147038
707.828	0.0145792
707.906	0.0146520
707.985	0.0145661
708.063	0.0146309
708.141	0.0144916
708.219	0.0146065
708.297	0.0146611
708.375	0.0145953
708.453	0.0144077
708.531	0.0144719
708.610	0.0144682
708.688	0.0144050
708.766	0.0144791
708.844	0.0143969
708.922	0.0142750
709.000	0.0143600
709.078	0.0143131
709.156	0.0141499
709.235	0.0141763
709.313	0.0141970
709.391	0.0141318
709.469	0.0145097
709.547	0.0143612
709.625	0.0144851
709.703	0.0146368
709.781	0.0146886
709.860	0.0146641
709.938	0.0147867
710.016	0.0146790
710.094	0.0147841
710.172	0.0148186
710.250	0.0147781
710.328	0.0147667
710.406	0.0146436
710.485	0.0146687
710.563	0.0147581
710.641	0.0147047
710.719	0.0145296
710.797	0.0146288
710.875	0.0145707
710.953	0.0147483
711.031	0.0144537
711.110	0.0144770
711.188	0.0145850
711.266	0.0147012
711.344	0.0145639
711.422	0.0145734
711.500	0.0144543
711.578	0.0146143
711.656	0.0146956
711.735	0.0146559
711.813	0.0146170
711.891	0.0146416
711.969	0.0146073
712.047	0.0146482
712.125	0.0147697
712.203	0.0147749
712.281	0.0147602
712.360	0.0147842
712.438	0.0150008
712.516	0.0150315
712.594	0.0149760
712.672	0.0150831
712.750	0.0149635
712.828	0.0150911
712.906	0.0149937
712.985	0.0149013
713.063	0.0148602
713.141	0.0147450
713.219	0.0146275
713.297	0.0143269
713.375	0.0143217
713.453	0.0144377
713.531	0.0140092
713.610	0.0139824
713.688	0.0138958
713.766	0.0139648
713.844	0.0139369
713.922	0.0139956
714.000	0.0139660
714.078	0.0141592
714.156	0.0141510
714.235	0.0141530
714.313	0.0143327
714.391	0.0143639
714.469	0.0144514
714.547	0.0145791
714.625	0.0145816
714.703	0.0147120
714.781	0.0150214
714.860	0.0150816
714.938	0.0151561
715.016	0.0150119
715.094	0.0153004
715.172	0.0150964
715.250	0.0149815
715.328	0.0150722
715.406	0.0151687
715.485	0.0149085
715.563	0.0147728
715.641	0.0147899
715.719	0.0145229
