05/04/2022	21:45:29	Ver.	4.1	UNKNOWN
Optical Delay	630.015849	Delta X		0.078125	Sweeps	1	Scan Rate	0/0
Coordinates	Axis 1	NaN	Axis 2	NaN	Axis 3	NaN	Axis 4	NaN	Axis 5	NaN	Axis 6	0.000000
TX Power	0.000000	RX Power	0.000000

630.016	0.0146422
630.094	0.0146738
630.172	0.0147912
630.250	0.0146037
630.328	0.0146255
630.406	0.0146571
630.485	0.0146592
630.563	0.0146761
630.641	0.0147546
630.719	0.0146761
630.797	0.0145171
630.875	0.0145672
630.953	0.0147354
631.031	0.0145496
631.110	0.0145079
631.188	0.0145927
631.266	0.0144603
631.344	0.0147108
631.422	0.0145959
631.500	0.0145750
631.578	0.0146976
631.656	0.0146289
631.735	0.0145784
631.813	0.0146127
631.891	0.0144955
631.969	0.0147029
632.047	0.0146924
632.125	0.0147044
632.203	0.0146292
632.281	0.0145687
632.360	0.0146095
632.438	0.0147456
632.516	0.0146558
632.594	0.0146213
632.672	0.0145162
632.750	0.0146014
632.828	0.0146678
632.906	0.0145051
632.985	0.0146765
633.063	0.0145838
633.141	0.0144812
633.219	0.0147189
633.297	0.0147485
633.375	0.0145235
633.453	0.0146472
633.531	0.0146823
633.610	0.0146317
633.688	0.0146039
633.766	0.0145007
633.844	0.0147292
633.922	0.0146539
634.000	0.0145302
634.078	0.0146022
634.156	0.0147355
634.235	0.0147347
634.313	0.0145237
634.391	0.0146008
634.469	0.0146017
634.547	0.0146365
634.625	0.0147061
634.703	0.0145895
634.781	0.0146456
634.860	0.0145985
634.938	0.0146924
635.016	0.0147314
635.094	0.0146172
635.172	0.0148119
635.250	0.0146729
635.328	0.0147520
635.406	0.0148273
635.485	0.0146174
635.563	0.0147433
635.641	0.0147085
635.719	0.0147498
635.797	0.0148495
635.875	0.0147284
635.953	0.0147690
636.031	0.0148048
636.110	0.0147160
636.188	0.0147471
636.266	0.0147003
636.344	0.0147591
636.422	0.0146570
636.500	0.0146986
636.578	0.0146172
636.656	0.0147182
636.735	0.0147366
636.813	0.0147662
636.891	0.0146342
636.969	0.0147783
637.047	0.0147741
637.125	0.0147580
637.203	0.0147768
637.281	0.0147832
637.360	0.0145981
637.438	0.0148806
637.516	0.0148091
637.594	0.0148598
637.672	0.0148073
637.750	0.0147436
637.828	0.0146098
637.906	0.0147993
637.985	0.0147510
638.063	0.0148007
638.141	0.0147585
638.219	0.0148384
638.297	0.0148299
638.375	0.0145843
638.453	0.0148047
638.531	0.0147945
638.610	0.0146223
638.688	0.0147096
638.766	0.0147850
638.844	0.0146915
638.922	0.0148313
639.000	0.0148341
639.078	0.0148003
639.156	0.0147381
639.235	0.0148058
639.313	0.0147373
639.391	0.0146046
639.469	0.0147173
639.547	0.0147621
639.625	0.0148048
639.703	0.0146747
639.781	0.0148148
639.860	0.0146412
639.938	0.0147657
640.016	0.0147346
640.094	0.0147688
640.172	0.0147986
640.250	0.0146671
640.328	0.0147794
640.406	0.0146665
640.485	0.0148022
640.563	0.0148320
640.641	0.0147720
640.719	0.0147789
640.797	0.0146837
640.875	0.0148360
640.953	0.0147294
641.031	0.0147005
641.110	0.0148997
641.188	0.0146856
641.266	0.0146598
641.344	0.0147222
641.422	0.0146468
641.500	0.0148439
641.578	0.0147260
641.656	0.0147183
641.735	0.0147907
641.813	0.0146288
641.891	0.0147048
641.969	0.0147754
642.047	0.0146587
642.125	0.0145158
642.203	0.0146916
642.281	0.0147009
642.360	0.0147448
642.438	0.0146755
642.516	0.0145396
642.594	0.0147092
642.672	0.0147272
642.750	0.0146815
642.828	0.0144995
642.906	0.0147506
642.985	0.0146605
643.063	0.0146446
643.141	0.0146864
643.219	0.0146247
643.297	0.0145883
643.375	0.0145441
643.453	0.0144563
643.531	0.0145972
643.610	0.0146345
643.688	0.0144589
643.766	0.0146121
643.844	0.0145770
643.922	0.0147460
644.000	0.0145396
644.078	0.0146454
644.156	0.0147043
644.235	0.0145367
644.313	0.0145764
644.391	0.0147608
644.469	0.0147378
644.547	0.0145424
644.625	0.0146506
644.703	0.0146256
644.781	0.0147681
644.860	0.0146942
644.938	0.0145701
645.016	0.0145518
645.094	0.0144801
645.172	0.0146880
645.250	0.0147835
645.328	0.0146911
645.406	0.0145558
645.485	0.0146269
645.563	0.0145588
645.641	0.0147072
645.719	0.0146233
645.797	0.0146534
645.875	0.0147548
645.953	0.0145800
646.031	0.0147296
646.110	0.0145951
646.188	0.0146071
646.266	0.0146281
646.344	0.0145576
646.422	0.0146574
646.500	0.0145506
646.578	0.0146730
646.656	0.0146706
646.735	0.0146001
646.813	0.0146031
646.891	0.0146401
646.969	0.0145819
647.047	0.0147089
647.125	0.0148656
647.203	0.0147181
647.281	0.0145739
647.360	0.0146632
647.438	0.0146122
647.516	0.0146804
647.594	0.0147127
647.672	0.0147021
647.750	0.0145822
647.828	0.0146571
647.906	0.0146636
647.985	0.0146217
648.063	0.0146458
648.141	0.0146655
648.219	0.0146711
648.297	0.0146552
648.375	0.0144743
648.453	0.0146629
648.531	0.0146266
648.610	0.0147882
648.688	0.0146439
648.766	0.0145677
648.844	0.0145936
648.922	0.0147054
649.000	0.0146121
649.078	0.0146893
649.156	0.0146978
649.235	0.0146107
649.313	0.0147107
649.391	0.0144885
649.469	0.0145682
649.547	0.0146430
649.625	0.0146461
649.703	0.0147291
649.781	0.0146538
649.860	0.0147064
649.938	0.0146645
650.016	0.0144481
650.094	0.0146500
650.172	0.0146652
650.250	0.0146378
650.328	0.0146987
650.406	0.0147940
650.485	0.0146117
650.563	0.0145795
650.641	0.0146190
650.719	0.0145550
650.797	0.0146824
650.875	0.0146703
650.953	0.0145942
651.031	0.0147514
651.110	0.0146078
651.188	0.0145844
651.266	0.0147396
651.344	0.0145568
651.422	0.0146662
651.500	0.0147455
651.578	0.0147386
651.656	0.0145409
651.735	0.0145933
651.813	0.0146424
651.891	0.0146095
651.969	0.0146690
652.047	0.0147017
652.125	0.0144877
652.203	0.0146142
652.281	0.0145877
652.360	0.0144859
652.438	0.0146496
652.516	0.0147180
652.594	0.0145817
652.672	0.0147082
652.750	0.0146739
652.828	0.0144950
652.906	0.0147003
652.985	0.0146218
653.063	0.0146015
653.141	0.0146448
653.219	0.0145033
653.297	0.0146453
653.375	0.0146860
653.453	0.0145913
653.531	0.0144707
653.610	0.0145004
653.688	0.0146103
653.766	0.0147322
653.844	0.0146886
653.922	0.0146913
654.000	0.0147631
654.078	0.0148331
654.156	0.0147990
654.235	0.0145775
654.313	0.0146938
654.391	0.0146851
654.469	0.0146770
654.547	0.0146213
654.625	0.0144666
654.703	0.0146625
654.781	0.0148000
654.860	0.0146893
654.938	0.0146537
655.016	0.0146007
655.094	0.0144638
655.172	0.0146043
655.250	0.0146466
655.328	0.0145661
655.406	0.0145939
655.485	0.0145415
655.563	0.0145769
655.641	0.0147202
655.719	0.0145646
655.797	0.0144520
655.875	0.0144209
655.953	0.0144424
656.031	0.0145513
656.110	0.0145983
656.188	0.0145814
656.266	0.0144816
656.344	0.0144971
656.422	0.0144641
656.500	0.0146304
656.578	0.0145752
656.656	0.0145718
656.735	0.0146114
656.813	0.0145081
656.891	0.0145943
656.969	0.0146706
657.047	0.0146294
657.125	0.0146622
657.203	0.0145787
657.281	0.0145708
657.360	0.0147894
657.438	0.0145570
657.516	0.0145959
657.594	0.0144997
657.672	0.0145713
657.750	0.0146629
657.828	0.0144559
657.906	0.0146163
657.985	0.0146268
658.063	0.0145213
658.141	0.0145607
658.219	0.0146172
658.297	0.0147572
658.375	0.0147288
658.453	0.0147848
658.531	0.0147409
658.610	0.0146513
658.688	0.0146537
658.766	0.0145432
658.844	0.0145715
658.922	0.0146528
659.000	0.0145320
659.078	0.0146095
659.156	0.0146751
659.235	0.0146333
659.313	0.0145950
659.391	0.0146767
659.469	0.0145161
659.547	0.0144794
659.625	0.0146938
659.703	0.0146477
659.781	0.0145007
659.860	0.0144388
659.938	0.0145987
660.016	0.0145632
660.094	0.0146456
660.172	0.0147012
660.250	0.0147378
660.328	0.0147301
660.406	0.0145302
660.485	0.0145962
660.563	0.0147546
660.641	0.0147087
660.719	0.0147617
660.797	0.0147318
660.875	0.0146402
660.953	0.0147160
661.031	0.0146865
661.110	0.0147782
661.188	0.0146948
661.266	0.0146365
661.344	0.0147202
661.422	0.0145856
661.500	0.0144325
661.578	0.0145771
661.656	0.0146817
661.735	0.0145108
661.813	0.0144426
661.891	0.0146094
661.969	0.0145787
662.047	0.0145160
662.125	0.0145468
662.203	0.0145146
662.281	0.0147305
662.360	0.0146655
662.438	0.0147067
662.516	0.0145942
662.594	0.0145907
662.672	0.0147227
662.750	0.0148413
662.828	0.0147217
662.906	0.0147200
662.985	0.0145277
663.063	0.0148354
663.141	0.0146417
663.219	0.0146646
663.297	0.0146699
663.375	0.0146943
663.453	0.0144999
663.531	0.0147430
663.610	0.0145636
663.688	0.0146014
663.766	0.0146657
663.844	0.0146662
663.922	0.0147661
664.000	0.0145955
664.078	0.0148009
664.156	0.0146490
664.235	0.0145213
664.313	0.0147054
664.391	0.0147643
664.469	0.0148247
664.547	0.0148013
664.625	0.0147368
664.703	0.0149010
664.781	0.0148486
664.860	0.0147835
664.938	0.0147920
665.016	0.0147845
665.094	0.0147981
665.172	0.0148502
665.250	0.0148798
665.328	0.0148352
665.406	0.0147985
665.485	0.0148933
665.563	0.0147442
665.641	0.0146870
665.719	0.0146910
665.797	0.0148344
665.875	0.0148849
665.953	0.0147473
666.031	0.0146534
666.110	0.0147338
666.188	0.0147409
666.266	0.0147210
666.344	0.0146584
666.422	0.0146523
666.500	0.0148232
666.578	0.0146025
666.656	0.0146447
666.735	0.0146647
666.813	0.0147618
666.891	0.0146780
666.969	0.0147759
667.047	0.0147213
667.125	0.0146574
667.203	0.0148166
667.281	0.0147782
667.360	0.0148086
667.438	0.0146835
667.516	0.0147329
667.594	0.0147649
667.672	0.0148759
667.750	0.0147393
667.828	0.0147308
667.906	0.0147640
667.985	0.0148098
668.063	0.0148293
668.141	0.0145840
668.219	0.0148425
668.297	0.0147387
668.375	0.0146290
668.453	0.0148078
668.531	0.0148430
668.610	0.0147538
668.688	0.0147132
668.766	0.0146835
668.844	0.0148563
668.922	0.0147658
669.000	0.0146746
669.078	0.0146701
669.156	0.0146559
669.235	0.0145241
669.313	0.0144689
669.391	0.0143266
669.469	0.0143546
669.547	0.0142765
669.625	0.0142803
669.703	0.0142394
669.781	0.0144247
669.860	0.0143686
669.938	0.0143163
670.016	0.0145237
670.094	0.0146291
670.172	0.0145569
670.250	0.0146381
670.328	0.0148213
670.406	0.0148446
670.485	0.0147512
670.563	0.0149216
670.641	0.0150538
670.719	0.0148759
670.797	0.0147765
670.875	0.0147237
670.953	0.0148619
671.031	0.0147855
671.110	0.0147559
671.188	0.0145671
671.266	0.0145979
671.344	0.0145572
671.422	0.0146539
671.500	0.0146305
671.578	0.0145685
671.656	0.0146163
671.735	0.0146027
671.813	0.0146816
671.891	0.0145628
671.969	0.0145750
672.047	0.0146090
672.125	0.0145273
672.203	0.0146448
672.281	0.0146557
672.360	0.0144160
672.438	0.0144085
672.516	0.0143735
672.594	0.0144579
672.672	0.0145325
672.750	0.0143944
672.828	0.0146209
672.906	0.0145925
672.985	0.0145779
673.063	0.0147223
673.141	0.0147681
673.219	0.0148331
673.297	0.0149081
673.375	0.0146876
673.453	0.0146826
673.531	0.0146387
673.610	0.0146298
673.688	0.0145129
673.766	0.0144692
673.844	0.0143861
673.922	0.0144195
674.000	0.0141970
674.078	0.0141757
674.156	0.0142218
674.235	0.0142170
674.313	0.0141629
674.391	0.0142534
674.469	0.0144039
674.547	0.0143455
674.625	0.0145276
674.703	0.0145001
674.781	0.0149413
674.860	0.0147323
674.938	0.0149316
675.016	0.0150179
675.094	0.0152036
675.172	0.0149603
675.250	0.0149989
675.328	0.0149815
675.406	0.0148766
675.485	0.0147593
675.563	0.0145275
675.641	0.0143490
675.719	0.0143800
675.797	0.0143031
675.875	0.0142027
675.953	0.0141496
676.031	0.0142235
676.110	0.0142368
676.188	0.0143380
676.266	0.0145137
676.344	0.0142627
676.422	0.0146659
676.500	0.0146784
676.578	0.0146732
676.656	0.0147074
676.735	0.0146654
676.813	0.0148185
676.891	0.0149801
676.969	0.0148592
677.047	0.0148676
677.125	0.0147984
677.203	0.0145893
677.281	0.0144965
677.360	0.0145619
677.438	0.0142258
677.516	0.0140852
677.594	0.0141960
677.672	0.0140357
677.750	0.0139223
677.828	0.0138165
677.906	0.0140346
677.985	0.0140660
678.063	0.0142290
678.141	0.0142755
678.219	0.0144335
678.297	0.0146897
678.375	0.0147247
678.453	0.0148580
678.531	0.0149348
678.610	0.0149731
678.688	0.0148656
678.766	0.0150380
678.844	0.0148597
678.922	0.0148217
679.000	0.0148660
679.078	0.0147424
679.156	0.0147672
679.235	0.0146378
679.313	0.0145221
679.391	0.0145338
679.469	0.0144619
679.547	0.0143537
679.625	0.0143640
679.703	0.0143017
679.781	0.0143932
679.860	0.0142451
679.938	0.0143036
680.016	0.0144186
680.094	0.0143700
680.172	0.0144988
680.250	0.0145843
680.328	0.0143876
680.406	0.0144810
680.485	0.0143834
680.563	0.0144004
680.641	0.0144676
680.719	0.0145834
680.797	0.0143483
680.875	0.0143353
680.953	0.0143777
681.031	0.0145479
681.110	0.0145972
681.188	0.0147437
681.266	0.0148059
681.344	0.0148566
681.422	0.0150907
681.500	0.0149632
681.578	0.0152066
681.656	0.0151917
681.735	0.0151225
681.813	0.0150825
681.891	0.0149699
681.969	0.0148849
682.047	0.0146925
682.125	0.0142684
682.203	0.0140483
682.281	0.0139741
682.360	0.0137476
682.438	0.0136986
682.516	0.0136140
682.594	0.0137349
682.672	0.0136793
682.750	0.0138779
682.828	0.0139552
682.906	0.0142812
682.985	0.0143099
683.063	0.0145049
683.141	0.0147117
683.219	0.0149103
683.297	0.0151020
683.375	0.0152026
683.453	0.0152116
683.531	0.0152264
683.610	0.0151494
683.688	0.0152723
683.766	0.0153130
683.844	0.0151234
683.922	0.0151169
684.000	0.0150768
684.078	0.0149781
684.156	0.0149789
684.235	0.0148580
684.313	0.0148264
684.391	0.0147765
684.469	0.0148159
684.547	0.0149379
684.625	0.0148090
684.703	0.0146371
684.781	0.0145058
684.860	0.0144974
684.938	0.0146233
685.016	0.0143266
685.094	0.0141473
685.172	0.0139436
685.250	0.0137167
685.328	0.0136793
685.406	0.0136572
685.485	0.0137354
685.563	0.0136160
685.641	0.0137112
685.719	0.0138150
685.797	0.0139732
685.875	0.0141880
685.953	0.0143382
686.031	0.0147013
686.110	0.0149691
686.188	0.0151119
686.266	0.0151450
686.344	0.0152757
686.422	0.0153737
686.500	0.0154421
686.578	0.0155918
686.656	0.0155636
686.735	0.0153325
686.813	0.0154008
686.891	0.0150553
686.969	0.0151398
687.047	0.0148014
687.125	0.0146986
687.203	0.0145282
687.281	0.0144451
687.360	0.0142441
687.438	0.0140655
687.516	0.0140022
687.594	0.0138907
687.672	0.0140099
687.750	0.0138462
687.828	0.0137926
687.906	0.0138682
687.985	0.0139229
688.063	0.0138593
688.141	0.0139450
688.219	0.0139664
688.297	0.0140687
688.375	0.0140853
688.453	0.0140633
688.531	0.0141959
688.610	0.0142178
688.688	0.0143542
688.766	0.0144090
688.844	0.0146940
688.922	0.0148464
689.000	0.0150623
689.078	0.0151091
689.156	0.0154879
689.235	0.0155050
689.313	0.0156641
689.391	0.0158022
689.469	0.0159840
689.547	0.0157777
689.625	0.0157339
689.703	0.0156545
689.781	0.0153467
689.860	0.0150509
689.938	0.0148261
690.016	0.0146314
690.094	0.0145425
690.172	0.0144060
690.250	0.0142066
690.328	0.0140841
690.406	0.0141198
690.485	0.0140656
690.563	0.0140171
690.641	0.0139603
690.719	0.0140773
690.797	0.0141162
690.875	0.0142025
690.953	0.0143755
691.031	0.0145189
691.110	0.0145515
691.188	0.0144116
691.266	0.0146494
691.344	0.0146857
691.422	0.0147099
691.500	0.0147375
691.578	0.0148737
691.656	0.0148823
691.735	0.0148795
691.813	0.0149854
691.891	0.0151662
691.969	0.0152180
692.047	0.0153053
692.125	0.0152078
692.203	0.0151019
692.281	0.0152044
692.360	0.0151500
692.438	0.0149959
692.516	0.0148030
692.594	0.0146383
692.672	0.0144273
692.750	0.0142304
692.828	0.0140218
692.906	0.0140948
692.985	0.0138712
693.063	0.0138303
693.141	0.0138311
693.219	0.0139127
693.297	0.0140605
693.375	0.0140311
693.453	0.0142433
693.531	0.0143620
693.610	0.0144640
693.688	0.0145464
693.766	0.0146898
693.844	0.0147935
693.922	0.0149692
694.000	0.0149435
694.078	0.0149701
694.156	0.0149873
694.235	0.0148978
694.313	0.0148518
694.391	0.0148132
694.469	0.0147434
694.547	0.0144678
694.625	0.0144556
694.703	0.0143152
694.781	0.0142753
694.860	0.0142048
694.938	0.0141210
695.016	0.0141014
695.094	0.0140752
695.172	0.0141114
695.250	0.0139832
695.328	0.0140874
695.406	0.0140195
695.485	0.0142149
695.563	0.0143601
695.641	0.0143927
695.719	0.0144402
695.797	0.0144769
695.875	0.0145705
695.953	0.0146829
696.031	0.0147686
696.110	0.0147526
696.188	0.0147516
696.266	0.0148585
696.344	0.0147133
696.422	0.0147691
696.500	0.0147605
696.578	0.0147361
696.656	0.0147052
696.735	0.0145291
696.813	0.0146394
696.891	0.0146266
696.969	0.0147243
697.047	0.0145042
697.125	0.0144877
697.203	0.0145554
697.281	0.0145357
697.360	0.0144868
697.438	0.0145821
697.516	0.0144504
697.594	0.0144493
697.672	0.0144444
697.750	0.0143019
697.828	0.0142786
697.906	0.0141618
697.985	0.0140910
698.063	0.0141426
698.141	0.0141092
698.219	0.0140975
698.297	0.0141327
698.375	0.0141273
698.453	0.0143355
698.531	0.0143298
698.610	0.0144078
698.688	0.0144642
698.766	0.0145772
698.844	0.0145925
698.922	0.0145020
699.000	0.0146139
699.078	0.0146832
699.156	0.0146920
699.235	0.0145685
699.313	0.0145869
699.391	0.0145619
699.469	0.0144892
699.547	0.0145200
699.625	0.0144901
699.703	0.0144732
699.781	0.0145186
699.860	0.0145035
699.938	0.0145653
700.016	0.0145275
700.094	0.0147331
700.172	0.0146815
700.250	0.0147369
700.328	0.0146931
700.406	0.0145905
700.485	0.0145571
700.563	0.0148172
700.641	0.0148135
700.719	0.0146416
700.797	0.0148008
700.875	0.0146535
700.953	0.0146932
701.031	0.0149110
701.110	0.0148636
701.188	0.0147598
701.266	0.0147151
701.344	0.0147414
701.422	0.0146735
701.500	0.0146867
701.578	0.0147871
701.656	0.0146967
701.735	0.0146842
701.813	0.0147091
701.891	0.0146458
701.969	0.0146574
702.047	0.0146380
702.125	0.0146342
702.203	0.0145975
702.281	0.0146899
702.360	0.0146725
702.438	0.0148038
702.516	0.0148740
702.594	0.0148251
702.672	0.0147208
702.750	0.0146354
702.828	0.0144550
702.906	0.0145332
702.985	0.0144646
703.063	0.0145329
703.141	0.0142104
703.219	0.0141520
703.297	0.0143622
703.375	0.0143481
703.453	0.0144925
703.531	0.0145229
703.610	0.0147386
703.688	0.0146980
703.766	0.0146204
703.844	0.0148016
703.922	0.0149368
704.000	0.0149065
704.078	0.0146939
704.156	0.0148483
704.235	0.0147216
704.313	0.0147640
704.391	0.0147769
704.469	0.0147759
704.547	0.0146667
704.625	0.0146684
704.703	0.0145467
704.781	0.0147092
704.860	0.0146262
704.938	0.0146989
705.016	0.0145724
705.094	0.0145506
705.172	0.0145718
705.250	0.0145842
705.328	0.0145730
705.406	0.0144827
705.485	0.0145583
705.563	0.0144021
705.641	0.0143018
705.719	0.0142666
705.797	0.0143415
705.875	0.0141730
705.953	0.0141993
706.031	0.0142210
706.110	0.0140489
706.188	0.0141747
706.266	0.0141467
706.344	0.0142281
706.422	0.0142816
706.500	0.0141135
706.578	0.0143088
706.656	0.0144150
706.735	0.0145210
706.813	0.0146133
706.891	0.0146541
706.969	0.0147888
707.047	0.0148249
707.125	0.0149874
707.203	0.0150648
707.281	0.0149921
707.360	0.0148966
707.438	0.0150383
707.516	0.0150008
707.594	0.0149651
707.672	0.0151106
707.750	0.0151139
707.828	0.0150582
707.906	0.0149426
707.985	0.0150085
708.063	0.0149235
708.141	0.0148507
708.219	0.0147987
708.297	0.0149800
708.375	0.0147615
708.453	0.0147708
708.531	0.0147796
708.610	0.0147857
708.688	0.0147332
708.766	0.0144878
708.844	0.0145014
708.922	0.0144950
709.000	0.0143806
709.078	0.0144447
709.156	0.0143722
709.235	0.0144771
709.313	0.0143537
709.391	0.0145169
709.469	0.0144716
709.547	0.0146480
709.625	0.0146673
709.703	0.0147842
709.781	0.0147137
709.860	0.0147816
709.938	0.0149974
710.016	0.0149226
710.094	0.0149796
710.172	0.0148726
710.250	0.0148183
710.328	0.0149251
710.406	0.0149285
710.485	0.0148325
710.563	0.0147716
710.641	0.0147796
710.719	0.0148379
710.797	0.0146889
710.875	0.0145750
710.953	0.0147207
711.031	0.0146410
711.110	0.0146606
711.188	0.0145814
711.266	0.0145445
711.344	0.0145754
711.422	0.0147475
711.500	0.0146669
711.578	0.0146456
711.656	0.0145315
711.735	0.0146895
711.813	0.0146859
711.891	0.0145789
711.969	0.0146195
712.047	0.0147977
712.125	0.0146815
712.203	0.0146674
712.281	0.0146849
712.360	0.0149356
712.438	0.0149505
712.516	0.0150710
712.594	0.0149015
712.672	0.0148775
712.750	0.0150434
712.828	0.0150698
712.906	0.0150534
712.985	0.0149339
713.063	0.0148988
713.141	0.0148289
713.219	0.0147205
713.297	0.0145482
713.375	0.0144807
713.453	0.0143633
713.531	0.0142329
713.610	0.0140709
713.688	0.0140040
713.766	0.0140223
713.844	0.0141064
713.922	0.0139836
714.000	0.0139771
714.078	0.0141393
714.156	0.0141796
714.235	0.0141672
714.313	0.0143212
714.391	0.0145063
714.469	0.0145651
714.547	0.0147141
714.625	0.0148003
714.703	0.0148417
714.781	0.0149568
714.860	0.0150985
714.938	0.0151279
715.016	0.0151920
715.094	0.0152909
715.172	0.0153187
715.250	0.0151640
715.328	0.0150352
715.406	0.0150616
715.485	0.0151736
715.563	0.0150144
715.641	0.0149762
715.719	0.0147364
