05/04/2022	20:55:06	Ver.	4.1	UNKNOWN
Optical Delay	678.996401	Delta X		0.078125	Sweeps	1	Scan Rate	0/0
Coordinates	Axis 1	NaN	Axis 2	NaN	Axis 3	NaN	Axis 4	NaN	Axis 5	NaN	Axis 6	0.000000
TX Power	0.000000	RX Power	0.000000

678.996	0.0135374
679.075	0.0134903
679.153	0.0135927
679.231	0.0136275
679.309	0.0134297
679.387	0.0133818
679.465	0.0135011
679.543	0.0136153
679.621	0.0136698
679.700	0.0135961
679.778	0.0134645
679.856	0.0135715
679.934	0.0134734
680.012	0.0135868
680.090	0.0136199
680.168	0.0134556
680.246	0.0135569
680.325	0.0135965
680.403	0.0135114
680.481	0.0134711
680.559	0.0135011
680.637	0.0135856
680.715	0.0135349
680.793	0.0136063
680.871	0.0136384
680.950	0.0134045
681.028	0.0134487
681.106	0.0135738
681.184	0.0136181
681.262	0.0135269
681.340	0.0136619
681.418	0.0134310
681.496	0.0134460
681.575	0.0135585
681.653	0.0136658
681.731	0.0136558
681.809	0.0134916
681.887	0.0135034
681.965	0.0134971
682.043	0.0135690
682.121	0.0135327
682.200	0.0135107
682.278	0.0135706
682.356	0.0135376
682.434	0.0135605
682.512	0.0134810
682.590	0.0134847
682.668	0.0135327
682.746	0.0134359
682.825	0.0134737
682.903	0.0135222
682.981	0.0135202
683.059	0.0135892
683.137	0.0135579
683.215	0.0135421
683.293	0.0135642
683.371	0.0134456
683.450	0.0135558
683.528	0.0134660
683.606	0.0135653
683.684	0.0134585
683.762	0.0133821
683.840	0.0134794
683.918	0.0135813
683.996	0.0135469
684.075	0.0134528
684.153	0.0136929
684.231	0.0133903
684.309	0.0133891
684.387	0.0135413
684.465	0.0135996
684.543	0.0135070
684.621	0.0134758
684.700	0.0135261
684.778	0.0136031
684.856	0.0135415
684.934	0.0135094
685.012	0.0136033
685.090	0.0135741
685.168	0.0134262
685.246	0.0134454
685.325	0.0134514
685.403	0.0136213
685.481	0.0135078
685.559	0.0135004
685.637	0.0134872
685.715	0.0135934
685.793	0.0135359
685.871	0.0134638
685.950	0.0136065
686.028	0.0135876
686.106	0.0134933
686.184	0.0135611
686.262	0.0135215
686.340	0.0134560
686.418	0.0135030
686.496	0.0135617
686.575	0.0134727
686.653	0.0135284
686.731	0.0135340
686.809	0.0134834
686.887	0.0135165
686.965	0.0134642
687.043	0.0134265
687.121	0.0134982
687.200	0.0133398
687.278	0.0134682
687.356	0.0135999
687.434	0.0135123
687.512	0.0134311
687.590	0.0133913
687.668	0.0135963
687.746	0.0134895
687.825	0.0135235
687.903	0.0134451
687.981	0.0135742
688.059	0.0136176
688.137	0.0135246
688.215	0.0134022
688.293	0.0135112
688.371	0.0133706
688.450	0.0134596
688.528	0.0133292
688.606	0.0136376
688.684	0.0134646
688.762	0.0134225
688.840	0.0134573
688.918	0.0134299
688.996	0.0134197
689.075	0.0135141
689.153	0.0135318
689.231	0.0134061
689.309	0.0135536
689.387	0.0135091
689.465	0.0133781
689.543	0.0134524
689.621	0.0134713
689.700	0.0135075
689.778	0.0136237
689.856	0.0135230
689.934	0.0135412
690.012	0.0133875
690.090	0.0135188
690.168	0.0136071
690.246	0.0134838
690.325	0.0134343
690.403	0.0134635
690.481	0.0135463
690.559	0.0135571
690.637	0.0135365
690.715	0.0135144
690.793	0.0133022
690.871	0.0134646
690.950	0.0135524
691.028	0.0134403
691.106	0.0133807
691.184	0.0135046
691.262	0.0135726
691.340	0.0134116
691.418	0.0135351
691.496	0.0135951
691.575	0.0135586
691.653	0.0134721
691.731	0.0134453
691.809	0.0135369
691.887	0.0134720
691.965	0.0134636
692.043	0.0135558
692.121	0.0135781
692.200	0.0134502
692.278	0.0133307
692.356	0.0136047
692.434	0.0134549
692.512	0.0133440
692.590	0.0135859
692.668	0.0134651
692.746	0.0132884
692.825	0.0134329
692.903	0.0134527
692.981	0.0134902
693.059	0.0135583
693.137	0.0134526
693.215	0.0135628
693.293	0.0132772
693.371	0.0132693
693.450	0.0136182
693.528	0.0136290
693.606	0.0134608
693.684	0.0134724
693.762	0.0136388
693.840	0.0134975
693.918	0.0135436
693.996	0.0133898
694.075	0.0135420
694.153	0.0135828
694.231	0.0134710
694.309	0.0134290
694.387	0.0135372
694.465	0.0135199
694.543	0.0134007
694.621	0.0134450
694.700	0.0134269
694.778	0.0134865
694.856	0.0135383
694.934	0.0135183
695.012	0.0134547
695.090	0.0134771
695.168	0.0134367
695.246	0.0134672
695.325	0.0134629
695.403	0.0134866
695.481	0.0134798
695.559	0.0134897
695.637	0.0136481
695.715	0.0135051
695.793	0.0134576
695.871	0.0135919
695.950	0.0134625
696.028	0.0135623
696.106	0.0136566
696.184	0.0133454
696.262	0.0134632
696.340	0.0135327
696.418	0.0135344
696.496	0.0134239
696.575	0.0134613
696.653	0.0134180
696.731	0.0134946
696.809	0.0134840
696.887	0.0135066
696.965	0.0133376
697.043	0.0134502
697.121	0.0134665
697.200	0.0134664
697.278	0.0133893
697.356	0.0134210
697.434	0.0134895
697.512	0.0135165
697.590	0.0135085
697.668	0.0135799
697.746	0.0133527
697.825	0.0135572
697.903	0.0135057
697.981	0.0133910
698.059	0.0135371
698.137	0.0135074
698.215	0.0134511
698.293	0.0135336
698.371	0.0135748
698.450	0.0135319
698.528	0.0134184
698.606	0.0134225
698.684	0.0135184
698.762	0.0133544
698.840	0.0136143
698.918	0.0135855
698.996	0.0134146
699.075	0.0135191
699.153	0.0134866
699.231	0.0134988
699.309	0.0135555
699.387	0.0134544
699.465	0.0134271
699.543	0.0134658
699.621	0.0135050
699.700	0.0135684
699.778	0.0134071
699.856	0.0133790
699.934	0.0134276
700.012	0.0134723
700.090	0.0135876
700.168	0.0137066
700.246	0.0135226
700.325	0.0134541
700.403	0.0134779
700.481	0.0135651
700.559	0.0134144
700.637	0.0135445
700.715	0.0134702
700.793	0.0133428
700.871	0.0135506
700.950	0.0135307
701.028	0.0135472
701.106	0.0135879
701.184	0.0134734
701.262	0.0134507
701.340	0.0134506
701.418	0.0135006
701.496	0.0135671
701.575	0.0135126
701.653	0.0135000
701.731	0.0134753
701.809	0.0136193
701.887	0.0135486
701.965	0.0134869
702.043	0.0135249
702.121	0.0134111
702.200	0.0134322
702.278	0.0135749
702.356	0.0134897
702.434	0.0135719
702.512	0.0135078
702.590	0.0135002
702.668	0.0134887
702.746	0.0136118
702.825	0.0136327
702.903	0.0135897
702.981	0.0135679
703.059	0.0134868
703.137	0.0135374
703.215	0.0134910
703.293	0.0135924
703.371	0.0134543
703.450	0.0136025
703.528	0.0134216
703.606	0.0135435
703.684	0.0135860
703.762	0.0134713
703.840	0.0135825
703.918	0.0135220
703.996	0.0134653
704.075	0.0136071
704.153	0.0136031
704.231	0.0134760
704.309	0.0135400
704.387	0.0136184
704.465	0.0134824
704.543	0.0134502
704.621	0.0135053
704.700	0.0135397
704.778	0.0134827
704.856	0.0135650
704.934	0.0134556
705.012	0.0133089
705.090	0.0135126
705.168	0.0136011
705.246	0.0135536
705.325	0.0135865
705.403	0.0134829
705.481	0.0134548
705.559	0.0135609
705.637	0.0136089
705.715	0.0134882
705.793	0.0136526
705.871	0.0136543
705.950	0.0136413
706.028	0.0136212
706.106	0.0134689
706.184	0.0134350
706.262	0.0134536
706.340	0.0135873
706.418	0.0134126
706.496	0.0135081
706.575	0.0135131
706.653	0.0135062
706.731	0.0135287
706.809	0.0134566
706.887	0.0135195
706.965	0.0134789
707.043	0.0135388
707.121	0.0136035
707.200	0.0135060
707.278	0.0134695
707.356	0.0135037
707.434	0.0135243
707.512	0.0134138
707.590	0.0134866
707.668	0.0134958
707.746	0.0134900
707.825	0.0135059
707.903	0.0133978
707.981	0.0135396
708.059	0.0135583
708.137	0.0134673
708.215	0.0135679
708.293	0.0135210
708.371	0.0135503
708.450	0.0134930
708.528	0.0134438
708.606	0.0134631
708.684	0.0135400
708.762	0.0135264
708.840	0.0135537
708.918	0.0135298
708.996	0.0133656
709.075	0.0132476
709.153	0.0134874
709.231	0.0134755
709.309	0.0134583
709.387	0.0134296
709.465	0.0134338
709.543	0.0134638
709.621	0.0134496
709.700	0.0133378
709.778	0.0133951
709.856	0.0132721
709.934	0.0132043
710.012	0.0133387
710.090	0.0135375
710.168	0.0136781
710.246	0.0137579
710.325	0.0139998
710.403	0.0138483
710.481	0.0139431
710.559	0.0138157
710.637	0.0136903
710.715	0.0134274
710.793	0.0133870
710.871	0.0133270
710.950	0.0131845
711.028	0.0130008
711.106	0.0132410
711.184	0.0133589
711.262	0.0134412
711.340	0.0136381
711.418	0.0139256
711.496	0.0137954
711.575	0.0136042
711.653	0.0137295
711.731	0.0136499
711.809	0.0135814
711.887	0.0134286
711.965	0.0132816
712.043	0.0133183
712.121	0.0134727
712.200	0.0135858
712.278	0.0134068
712.356	0.0134650
712.434	0.0136706
712.512	0.0137596
712.590	0.0137387
712.668	0.0137406
712.746	0.0137247
712.825	0.0136372
712.903	0.0134792
712.981	0.0134816
713.059	0.0135983
713.137	0.0134783
713.215	0.0134399
713.293	0.0134522
713.371	0.0135748
713.450	0.0136139
713.528	0.0134279
713.606	0.0134205
713.684	0.0134106
713.762	0.0133823
713.840	0.0133624
713.918	0.0134072
713.996	0.0134300
714.075	0.0136604
714.153	0.0138180
714.231	0.0140405
714.309	0.0141248
714.387	0.0141568
714.465	0.0141281
714.543	0.0138689
714.621	0.0137428
714.700	0.0134153
714.778	0.0130341
714.856	0.0125580
714.934	0.0123430
715.012	0.0121786
715.090	0.0119645
715.168	0.0118695
715.246	0.0117616
715.325	0.0119188
715.403	0.0123093
715.481	0.0126711
715.559	0.0129924
715.637	0.0135779
715.715	0.0139371
715.793	0.0142490
715.871	0.0145763
715.950	0.0146983
716.028	0.0146402
716.106	0.0145769
716.184	0.0143716
716.262	0.0140662
716.340	0.0139644
716.418	0.0135963
716.496	0.0133701
716.575	0.0132504
716.653	0.0130337
716.731	0.0128889
716.809	0.0129038
716.887	0.0130441
716.965	0.0132171
717.043	0.0134606
717.121	0.0135959
717.200	0.0139306
717.278	0.0140699
717.356	0.0144216
717.434	0.0146108
717.512	0.0144844
717.590	0.0145984
717.668	0.0144999
717.746	0.0144024
717.825	0.0143816
717.903	0.0139354
717.981	0.0136165
718.059	0.0131374
718.137	0.0126799
718.215	0.0124031
718.293	0.0121477
718.371	0.0119773
718.450	0.0120832
718.528	0.0123924
718.606	0.0127371
718.684	0.0132344
718.762	0.0136607
718.840	0.0141376
718.918	0.0144459
718.996	0.0147036
719.075	0.0147066
719.153	0.0146555
719.231	0.0144154
719.309	0.0141920
719.387	0.0138184
719.465	0.0133759
719.543	0.0129797
719.621	0.0128580
719.700	0.0127525
719.778	0.0127140
719.856	0.0127168
719.934	0.0127225
720.012	0.0129049
720.090	0.0130191
720.168	0.0133751
720.246	0.0137756
720.325	0.0137741
720.403	0.0139812
720.481	0.0140293
720.559	0.0140237
720.637	0.0139744
720.715	0.0138019
720.793	0.0136616
720.871	0.0134779
720.950	0.0133081
721.028	0.0128735
721.106	0.0126431
721.184	0.0125684
721.262	0.0121495
721.340	0.0122477
721.418	0.0121617
721.496	0.0123563
721.575	0.0126627
721.653	0.0129784
721.731	0.0132666
721.809	0.0136198
721.887	0.0140989
721.965	0.0145534
722.043	0.0148209
722.121	0.0149605
722.200	0.0151105
722.278	0.0150338
722.356	0.0150337
722.434	0.0147474
722.512	0.0144479
722.590	0.0142489
722.668	0.0141111
722.746	0.0136422
722.825	0.0135007
722.903	0.0132061
722.981	0.0128332
723.059	0.0125462
723.137	0.0123225
723.215	0.0123327
723.293	0.0122915
723.371	0.0123620
723.450	0.0126363
723.528	0.0128057
723.606	0.0130815
723.684	0.0133678
723.762	0.0136789
723.840	0.0140800
723.918	0.0143121
723.996	0.0146349
724.075	0.0147985
724.153	0.0150005
724.231	0.0150239
724.309	0.0148633
724.387	0.0146075
724.465	0.0142741
724.543	0.0141550
724.621	0.0137614
724.700	0.0132475
724.778	0.0129853
724.856	0.0126200
724.934	0.0122499
725.012	0.0121760
725.090	0.0120374
725.168	0.0119653
725.246	0.0122385
725.325	0.0122054
725.403	0.0124278
725.481	0.0127822
725.559	0.0130643
725.637	0.0133000
725.715	0.0137511
725.793	0.0140380
725.871	0.0143591
725.950	0.0144329
726.028	0.0146087
726.106	0.0145974
726.184	0.0145749
726.262	0.0144604
726.340	0.0143473
726.418	0.0139897
726.496	0.0138593
726.575	0.0134613
726.653	0.0130109
726.731	0.0127718
726.809	0.0125272
726.887	0.0124619
726.965	0.0124996
727.043	0.0122872
727.121	0.0124363
727.200	0.0125840
727.278	0.0127347
727.356	0.0131313
727.434	0.0132992
727.512	0.0136679
727.590	0.0138630
727.668	0.0139886
727.746	0.0141255
727.825	0.0142667
727.903	0.0142831
727.981	0.0144672
728.059	0.0144408
728.137	0.0143151
728.215	0.0142067
728.293	0.0139417
728.371	0.0137765
728.450	0.0135614
728.528	0.0134224
728.606	0.0133573
728.684	0.0130479
728.762	0.0128535
728.840	0.0128777
728.918	0.0127695
728.996	0.0127580
729.075	0.0128260
729.153	0.0129341
729.231	0.0130667
729.309	0.0131838
729.387	0.0134016
729.465	0.0135706
729.543	0.0135041
729.621	0.0135999
729.700	0.0135352
729.778	0.0137930
729.856	0.0136749
729.934	0.0138442
730.012	0.0137557
730.090	0.0137328
730.168	0.0138376
730.246	0.0138708
730.325	0.0137205
730.403	0.0137791
730.481	0.0137890
730.559	0.0138332
730.637	0.0136764
730.715	0.0136567
730.793	0.0135212
730.871	0.0133182
730.950	0.0132932
731.028	0.0132970
731.106	0.0130811
731.184	0.0130319
731.262	0.0129540
731.340	0.0128330
731.418	0.0129070
731.496	0.0129126
731.575	0.0130061
731.653	0.0131763
731.731	0.0132208
731.809	0.0134367
731.887	0.0135110
731.965	0.0134835
732.043	0.0137798
732.121	0.0137301
732.200	0.0137659
732.278	0.0138419
732.356	0.0137389
732.434	0.0137026
732.512	0.0137160
732.590	0.0135728
732.668	0.0134177
732.746	0.0134069
732.825	0.0131130
732.903	0.0131570
732.981	0.0130486
733.059	0.0129216
733.137	0.0128655
733.215	0.0129110
733.293	0.0130468
733.371	0.0130249
733.450	0.0132079
733.528	0.0131916
733.606	0.0134178
733.684	0.0135221
733.762	0.0136072
733.840	0.0137138
733.918	0.0137967
733.996	0.0139176
734.075	0.0138174
734.153	0.0138696
734.231	0.0139090
734.309	0.0138683
734.387	0.0138338
734.465	0.0138837
734.543	0.0138351
734.621	0.0136832
734.700	0.0136922
734.778	0.0136208
734.856	0.0134320
734.934	0.0133527
735.012	0.0134105
735.090	0.0134422
735.168	0.0132201
735.246	0.0131535
735.325	0.0131238
735.403	0.0130054
735.481	0.0130836
735.559	0.0129150
735.637	0.0131724
735.715	0.0132291
735.793	0.0132868
735.871	0.0135979
735.950	0.0136056
736.028	0.0138161
736.106	0.0140660
736.184	0.0141914
736.262	0.0141827
736.340	0.0143589
736.418	0.0142590
736.496	0.0142878
736.575	0.0143598
736.653	0.0143301
736.731	0.0140905
736.809	0.0138399
736.887	0.0137003
736.965	0.0136865
737.043	0.0133751
737.121	0.0131882
737.200	0.0131946
737.278	0.0131020
737.356	0.0130214
737.434	0.0131597
737.512	0.0130914
737.590	0.0131484
737.668	0.0132301
737.746	0.0134462
737.825	0.0135621
737.903	0.0135589
737.981	0.0137318
738.059	0.0137073
738.137	0.0139117
738.215	0.0138621
738.293	0.0138838
738.371	0.0137814
738.450	0.0137025
738.528	0.0136432
738.606	0.0137280
738.684	0.0135194
738.762	0.0136509
738.840	0.0134816
738.918	0.0133863
738.996	0.0134512
739.075	0.0133916
739.153	0.0133421
739.231	0.0134608
739.309	0.0132535
739.387	0.0132162
739.465	0.0130775
739.543	0.0130697
739.621	0.0131438
739.700	0.0129994
739.778	0.0128323
739.856	0.0127986
739.934	0.0128755
740.012	0.0131269
740.090	0.0131535
740.168	0.0132966
740.246	0.0135155
740.325	0.0136717
740.403	0.0138017
740.481	0.0139917
740.559	0.0141373
740.637	0.0143940
740.715	0.0143990
740.793	0.0144701
740.871	0.0143910
740.950	0.0144267
741.028	0.0143346
741.106	0.0142929
741.184	0.0140154
741.262	0.0137170
741.340	0.0135239
741.418	0.0133839
741.496	0.0131987
741.575	0.0129036
741.653	0.0128668
741.731	0.0127780
741.809	0.0125917
741.887	0.0126146
741.965	0.0127110
742.043	0.0127116
742.121	0.0127940
742.200	0.0132202
742.278	0.0132229
742.356	0.0132798
742.434	0.0134857
742.512	0.0136705
742.590	0.0136213
742.668	0.0137191
742.746	0.0140524
742.825	0.0139541
742.903	0.0140763
742.981	0.0140312
743.059	0.0141209
743.137	0.0141293
743.215	0.0139523
743.293	0.0138948
743.371	0.0140467
743.450	0.0139440
743.528	0.0136475
743.606	0.0135145
743.684	0.0134243
743.762	0.0132695
743.840	0.0129887
743.918	0.0130138
743.996	0.0129990
744.075	0.0129415
744.153	0.0127922
744.231	0.0127979
744.309	0.0130097
744.387	0.0129709
744.465	0.0130951
744.543	0.0133117
744.621	0.0134587
744.700	0.0136160
744.778	0.0137923
744.856	0.0138217
744.934	0.0139381
745.012	0.0140982
745.090	0.0140736
745.168	0.0139827
745.246	0.0140050
745.325	0.0138598
745.403	0.0139568
745.481	0.0138195
745.559	0.0135802
745.637	0.0135212
745.715	0.0134102
745.793	0.0133807
745.871	0.0132880
745.950	0.0132290
746.028	0.0131606
746.106	0.0132450
746.184	0.0133072
746.262	0.0132088
746.340	0.0132972
746.418	0.0132730
746.496	0.0135127
746.575	0.0135197
746.653	0.0135845
746.731	0.0137306
746.809	0.0137385
746.887	0.0136791
746.965	0.0136348
747.043	0.0136951
747.121	0.0137828
747.200	0.0137014
747.278	0.0135399
747.356	0.0134318
747.434	0.0135357
747.512	0.0133650
747.590	0.0132375
747.668	0.0132237
747.746	0.0133456
747.825	0.0134885
747.903	0.0133879
747.981	0.0133927
748.059	0.0135547
748.137	0.0136084
748.215	0.0135959
748.293	0.0137283
748.371	0.0137971
748.450	0.0138373
748.528	0.0139081
748.606	0.0137947
748.684	0.0138077
748.762	0.0138650
748.840	0.0140084
748.918	0.0137046
748.996	0.0134405
749.075	0.0133264
749.153	0.0132731
749.231	0.0132765
749.309	0.0131982
749.387	0.0130492
749.465	0.0130068
749.543	0.0130171
749.621	0.0130078
749.700	0.0132086
749.778	0.0132227
749.856	0.0133117
749.934	0.0134713
750.012	0.0136674
750.090	0.0136765
750.168	0.0137310
750.246	0.0137054
750.325	0.0137207
750.403	0.0138930
750.481	0.0138342
750.559	0.0138847
750.637	0.0138763
750.715	0.0138457
750.793	0.0136373
750.871	0.0137089
750.950	0.0134679
751.028	0.0134902
751.106	0.0133936
751.184	0.0133819
751.262	0.0134651
751.340	0.0132695
751.418	0.0132515
751.496	0.0131827
751.575	0.0131454
751.653	0.0130527
751.731	0.0130754
751.809	0.0129834
751.887	0.0131702
751.965	0.0131649
752.043	0.0131083
752.121	0.0134665
752.200	0.0135462
752.278	0.0135812
752.356	0.0135785
752.434	0.0136506
752.512	0.0137899
752.590	0.0140109
752.668	0.0139811
752.746	0.0139820
752.825	0.0139539
752.903	0.0139173
752.981	0.0139680
753.059	0.0138387
753.137	0.0136649
753.215	0.0135233
753.293	0.0133320
753.371	0.0134486
753.450	0.0133114
753.528	0.0132386
753.606	0.0131047
753.684	0.0130067
753.762	0.0130085
753.840	0.0130538
753.918	0.0130470
753.996	0.0130387
754.075	0.0129847
754.153	0.0132510
754.231	0.0134357
754.309	0.0135568
754.387	0.0136729
754.465	0.0136999
754.543	0.0136990
754.621	0.0137663
754.700	0.0137189
754.778	0.0137667
754.856	0.0137705
754.934	0.0137389
755.012	0.0136066
755.090	0.0135878
755.168	0.0135595
755.246	0.0134834
755.325	0.0135882
755.403	0.0135152
755.481	0.0133833
755.559	0.0134000
755.637	0.0133705
755.715	0.0133918
755.793	0.0132424
755.871	0.0133613
755.950	0.0132669
756.028	0.0132928
756.106	0.0132590
756.184	0.0132730
756.262	0.0132711
756.340	0.0133408
756.418	0.0134361
756.496	0.0132452
756.575	0.0132525
756.653	0.0133769
756.731	0.0133356
756.809	0.0132301
756.887	0.0133878
756.965	0.0134755
757.043	0.0135173
757.121	0.0134358
757.200	0.0135041
757.278	0.0136349
757.356	0.0135735
757.434	0.0137327
757.512	0.0135683
757.590	0.0136469
757.668	0.0136465
757.746	0.0136600
757.825	0.0137112
757.903	0.0135614
757.981	0.0135439
758.059	0.0135692
758.137	0.0134566
758.215	0.0134582
758.293	0.0135529
758.371	0.0134185
758.450	0.0135071
758.528	0.0134413
758.606	0.0133997
758.684	0.0134496
758.762	0.0135157
758.840	0.0134680
758.918	0.0136011
758.996	0.0134460
759.075	0.0135078
759.153	0.0135863
759.231	0.0135572
759.309	0.0136159
759.387	0.0133279
759.465	0.0134010
759.543	0.0134600
759.621	0.0134956
759.700	0.0135986
759.778	0.0134901
759.856	0.0135762
759.934	0.0136349
760.012	0.0135459
760.090	0.0135220
760.168	0.0136134
760.246	0.0137486
760.325	0.0136956
760.403	0.0137247
760.481	0.0137292
760.559	0.0137215
760.637	0.0136777
760.715	0.0136446
760.793	0.0136601
760.871	0.0137893
760.950	0.0136434
761.028	0.0136127
761.106	0.0133877
761.184	0.0135260
761.262	0.0134710
761.340	0.0134417
761.418	0.0132599
761.496	0.0133425
761.575	0.0133197
761.653	0.0132741
761.731	0.0133788
761.809	0.0134240
761.887	0.0133831
761.965	0.0135226
762.043	0.0135554
762.121	0.0136237
762.200	0.0136769
762.278	0.0136282
762.356	0.0137607
762.434	0.0137653
762.512	0.0138879
762.590	0.0137495
762.668	0.0138063
762.746	0.0138818
762.825	0.0137698
762.903	0.0137760
762.981	0.0136468
763.059	0.0136402
763.137	0.0136441
763.215	0.0135881
763.293	0.0134065
763.371	0.0134680
763.450	0.0132851
763.528	0.0131990
763.606	0.0132758
763.684	0.0132928
763.762	0.0133153
763.840	0.0131936
763.918	0.0131932
763.996	0.0132484
764.075	0.0133212
764.153	0.0134492
764.231	0.0133556
764.309	0.0134188
764.387	0.0135352
764.465	0.0135157
764.543	0.0136433
764.621	0.0136132
764.700	0.0136417
