05/04/2022	20:56:01	Ver.	4.1	UNKNOWN
Optical Delay	678.996401	Delta X		0.078125	Sweeps	1	Scan Rate	0/0
Coordinates	Axis 1	NaN	Axis 2	NaN	Axis 3	NaN	Axis 4	NaN	Axis 5	NaN	Axis 6	0.000000
TX Power	0.000000	RX Power	0.000000

678.996	0.0142446
679.075	0.0142944
679.153	0.0141924
679.231	0.0142670
679.309	0.0142403
679.387	0.0141943
679.465	0.0140987
679.543	0.0142359
679.621	0.0141924
679.700	0.0142123
679.778	0.0142995
679.856	0.0143383
679.934	0.0141974
680.012	0.0143475
680.090	0.0142581
680.168	0.0142504
680.246	0.0142645
680.325	0.0141547
680.403	0.0141184
680.481	0.0141208
680.559	0.0142825
680.637	0.0142131
680.715	0.0142733
680.793	0.0142394
680.871	0.0142635
680.950	0.0142507
681.028	0.0141623
681.106	0.0142965
681.184	0.0142422
681.262	0.0141035
681.340	0.0143139
681.418	0.0143269
681.496	0.0142053
681.575	0.0141438
681.653	0.0142793
681.731	0.0142879
681.809	0.0141199
681.887	0.0143052
681.965	0.0142508
682.043	0.0141727
682.121	0.0141843
682.200	0.0142887
682.278	0.0142453
682.356	0.0141257
682.434	0.0141937
682.512	0.0142628
682.590	0.0141914
682.668	0.0142113
682.746	0.0142323
682.825	0.0141961
682.903	0.0141842
682.981	0.0141568
683.059	0.0141904
683.137	0.0141901
683.215	0.0141434
683.293	0.0143993
683.371	0.0142247
683.450	0.0141827
683.528	0.0142051
683.606	0.0141968
683.684	0.0140893
683.762	0.0142843
683.840	0.0142575
683.918	0.0141602
683.996	0.0142550
684.075	0.0141164
684.153	0.0141304
684.231	0.0142199
684.309	0.0142315
684.387	0.0141943
684.465	0.0141896
684.543	0.0143227
684.621	0.0141498
684.700	0.0142696
684.778	0.0141480
684.856	0.0141858
684.934	0.0143311
685.012	0.0143193
685.090	0.0142289
685.168	0.0142762
685.246	0.0141930
685.325	0.0142950
685.403	0.0142702
685.481	0.0142448
685.559	0.0142191
685.637	0.0142635
685.715	0.0141165
685.793	0.0143670
685.871	0.0142451
685.950	0.0142804
686.028	0.0142670
686.106	0.0141960
686.184	0.0142141
686.262	0.0142496
686.340	0.0142450
686.418	0.0143188
686.496	0.0142326
686.575	0.0143281
686.653	0.0141570
686.731	0.0143491
686.809	0.0142054
686.887	0.0141812
686.965	0.0142451
687.043	0.0142215
687.121	0.0143188
687.200	0.0142141
687.278	0.0141528
687.356	0.0143469
687.434	0.0143830
687.512	0.0143212
687.590	0.0141576
687.668	0.0141991
687.746	0.0142404
687.825	0.0142136
687.903	0.0143588
687.981	0.0142281
688.059	0.0141315
688.137	0.0141371
688.215	0.0142573
688.293	0.0141994
688.371	0.0142130
688.450	0.0141095
688.528	0.0141933
688.606	0.0141332
688.684	0.0143420
688.762	0.0142411
688.840	0.0142105
688.918	0.0142483
688.996	0.0143270
689.075	0.0142357
689.153	0.0143177
689.231	0.0142365
689.309	0.0140824
689.387	0.0142441
689.465	0.0142915
689.543	0.0143270
689.621	0.0143336
689.700	0.0142399
689.778	0.0143337
689.856	0.0142832
689.934	0.0142580
690.012	0.0142908
690.090	0.0141791
690.168	0.0143204
690.246	0.0141908
690.325	0.0141672
690.403	0.0142242
690.481	0.0141367
690.559	0.0142455
690.637	0.0142139
690.715	0.0142366
690.793	0.0141845
690.871	0.0142751
690.950	0.0143032
691.028	0.0142220
691.106	0.0141259
691.184	0.0141706
691.262	0.0142181
691.340	0.0142345
691.418	0.0141912
691.496	0.0142533
691.575	0.0142285
691.653	0.0142424
691.731	0.0141936
691.809	0.0141466
691.887	0.0142031
691.965	0.0141740
692.043	0.0142966
692.121	0.0142944
692.200	0.0142851
692.278	0.0141470
692.356	0.0143522
692.434	0.0143683
692.512	0.0142181
692.590	0.0141840
692.668	0.0141606
692.746	0.0141931
692.825	0.0142101
692.903	0.0142509
692.981	0.0142517
693.059	0.0141819
693.137	0.0141419
693.215	0.0143593
693.293	0.0143371
693.371	0.0141945
693.450	0.0142040
693.528	0.0142546
693.606	0.0142297
693.684	0.0141610
693.762	0.0143561
693.840	0.0141672
693.918	0.0142293
693.996	0.0143407
694.075	0.0143151
694.153	0.0141535
694.231	0.0140816
694.309	0.0142407
694.387	0.0142377
694.465	0.0142082
694.543	0.0140238
694.621	0.0141998
694.700	0.0142768
694.778	0.0142726
694.856	0.0142178
694.934	0.0142840
695.012	0.0141711
695.090	0.0142535
695.168	0.0142810
695.246	0.0143298
695.325	0.0142253
695.403	0.0142655
695.481	0.0143309
695.559	0.0143089
695.637	0.0141891
695.715	0.0142425
695.793	0.0142131
695.871	0.0142363
695.950	0.0140932
696.028	0.0142226
696.106	0.0140806
696.184	0.0141696
696.262	0.0142725
696.340	0.0142572
696.418	0.0142984
696.496	0.0143060
696.575	0.0141252
696.653	0.0140802
696.731	0.0142419
696.809	0.0141685
696.887	0.0142500
696.965	0.0141885
697.043	0.0142927
697.121	0.0142165
697.200	0.0142871
697.278	0.0142969
697.356	0.0141244
697.434	0.0141220
697.512	0.0141560
697.590	0.0141335
697.668	0.0141521
697.746	0.0143221
697.825	0.0141922
697.903	0.0141776
697.981	0.0141404
698.059	0.0142471
698.137	0.0141434
698.215	0.0142040
698.293	0.0142077
698.371	0.0141833
698.450	0.0141937
698.528	0.0142326
698.606	0.0142815
698.684	0.0143722
698.762	0.0142814
698.840	0.0142033
698.918	0.0143171
698.996	0.0143927
699.075	0.0143024
699.153	0.0141232
699.231	0.0142731
699.309	0.0142992
699.387	0.0142934
699.465	0.0142963
699.543	0.0141802
699.621	0.0141698
699.700	0.0141758
699.778	0.0142644
699.856	0.0141870
699.934	0.0142252
700.012	0.0140823
700.090	0.0141709
700.168	0.0141751
700.246	0.0141016
700.325	0.0141995
700.403	0.0141656
700.481	0.0141027
700.559	0.0142113
700.637	0.0142731
700.715	0.0142396
700.793	0.0141631
700.871	0.0141151
700.950	0.0142126
701.028	0.0143156
701.106	0.0142114
701.184	0.0142223
701.262	0.0142854
701.340	0.0143417
701.418	0.0140250
701.496	0.0141283
701.575	0.0144221
701.653	0.0142322
701.731	0.0141748
701.809	0.0142332
701.887	0.0142387
701.965	0.0141919
702.043	0.0143346
702.121	0.0142225
702.200	0.0141694
702.278	0.0142537
702.356	0.0142418
702.434	0.0143745
702.512	0.0143056
702.590	0.0143126
702.668	0.0143592
702.746	0.0142483
702.825	0.0142483
702.903	0.0142371
702.981	0.0141782
703.059	0.0141862
703.137	0.0142613
703.215	0.0141968
703.293	0.0143086
703.371	0.0142403
703.450	0.0142512
703.528	0.0143513
703.606	0.0142405
703.684	0.0142264
703.762	0.0143581
703.840	0.0141727
703.918	0.0141805
703.996	0.0143021
704.075	0.0143753
704.153	0.0142774
704.231	0.0143520
704.309	0.0143075
704.387	0.0142204
704.465	0.0143096
704.543	0.0144558
704.621	0.0143211
704.700	0.0142870
704.778	0.0142752
704.856	0.0142157
704.934	0.0142229
705.012	0.0143974
705.090	0.0142860
705.168	0.0142892
705.246	0.0143091
705.325	0.0142522
705.403	0.0143023
705.481	0.0142249
705.559	0.0142319
705.637	0.0142635
705.715	0.0142222
705.793	0.0143568
705.871	0.0142481
705.950	0.0141619
706.028	0.0142905
706.106	0.0142364
706.184	0.0141996
706.262	0.0141206
706.340	0.0143145
706.418	0.0141983
706.496	0.0142133
706.575	0.0144178
706.653	0.0142784
706.731	0.0141454
706.809	0.0142395
706.887	0.0142421
706.965	0.0143312
707.043	0.0143141
707.121	0.0142766
707.200	0.0141711
707.278	0.0142832
707.356	0.0144359
707.434	0.0144039
707.512	0.0142526
707.590	0.0143409
707.668	0.0143587
707.746	0.0142097
707.825	0.0142474
707.903	0.0143542
707.981	0.0142645
708.059	0.0143310
708.137	0.0142566
708.215	0.0141004
708.293	0.0142046
708.371	0.0141342
708.450	0.0142518
708.528	0.0143097
708.606	0.0141896
708.684	0.0144038
708.762	0.0141820
708.840	0.0140646
708.918	0.0142303
708.996	0.0142563
709.075	0.0142433
709.153	0.0143106
709.231	0.0142140
709.309	0.0141747
709.387	0.0142587
709.465	0.0141503
709.543	0.0141962
709.621	0.0141007
709.700	0.0140970
709.778	0.0139629
709.856	0.0141437
709.934	0.0142733
710.012	0.0144804
710.090	0.0144791
710.168	0.0146198
710.246	0.0147659
710.325	0.0146238
710.403	0.0143400
710.481	0.0144469
710.559	0.0141864
710.637	0.0141069
710.715	0.0137873
710.793	0.0138181
710.871	0.0137634
710.950	0.0139432
711.028	0.0141317
711.106	0.0142584
711.184	0.0142870
711.262	0.0145749
711.340	0.0145034
711.418	0.0147562
711.496	0.0146079
711.575	0.0145480
711.653	0.0144559
711.731	0.0144106
711.809	0.0142881
711.887	0.0142424
711.965	0.0140125
712.043	0.0140005
712.121	0.0141326
712.200	0.0142265
712.278	0.0142400
712.356	0.0142150
712.434	0.0142413
712.512	0.0144361
712.590	0.0143318
712.668	0.0143117
712.746	0.0142722
712.825	0.0144335
712.903	0.0143532
712.981	0.0144189
713.059	0.0145466
713.137	0.0146803
713.215	0.0144860
713.293	0.0146251
713.371	0.0145381
713.450	0.0144529
713.528	0.0141744
713.606	0.0140007
713.684	0.0138670
713.762	0.0137727
713.840	0.0138924
713.918	0.0139800
713.996	0.0140946
714.075	0.0144661
714.153	0.0147055
714.231	0.0148324
714.309	0.0150489
714.387	0.0149242
714.465	0.0149262
714.543	0.0147442
714.621	0.0144092
714.700	0.0140394
714.778	0.0134895
714.856	0.0132536
714.934	0.0128351
715.012	0.0127314
715.090	0.0123809
715.168	0.0122627
715.246	0.0125712
715.325	0.0127707
715.403	0.0130867
715.481	0.0135901
715.559	0.0141686
715.637	0.0147234
715.715	0.0151752
715.793	0.0154086
715.871	0.0156235
715.950	0.0158909
716.028	0.0157859
716.106	0.0158391
716.184	0.0157106
716.262	0.0153866
716.340	0.0149421
716.418	0.0145760
716.496	0.0143063
716.575	0.0138472
716.653	0.0135937
716.731	0.0132581
716.809	0.0131174
716.887	0.0130659
716.965	0.0133828
717.043	0.0136433
717.121	0.0138641
717.200	0.0142107
717.278	0.0147398
717.356	0.0151041
717.434	0.0153008
717.512	0.0154092
717.590	0.0155845
717.668	0.0155501
717.746	0.0152781
717.825	0.0151249
717.903	0.0149288
717.981	0.0144293
718.059	0.0140035
718.137	0.0136591
718.215	0.0131487
718.293	0.0129208
718.371	0.0127869
718.450	0.0130617
718.528	0.0133477
718.606	0.0136421
718.684	0.0139143
718.762	0.0144776
718.840	0.0147893
718.918	0.0148520
718.996	0.0152231
719.075	0.0152200
719.153	0.0151561
719.231	0.0149976
719.309	0.0148190
719.387	0.0144404
719.465	0.0141038
719.543	0.0137292
719.621	0.0134441
719.700	0.0134032
719.778	0.0134364
719.856	0.0135961
719.934	0.0137948
720.012	0.0137939
720.090	0.0140045
720.168	0.0141691
720.246	0.0143510
720.325	0.0145839
720.403	0.0146008
720.481	0.0146711
720.559	0.0147784
720.637	0.0146748
720.715	0.0146046
720.793	0.0144083
720.871	0.0142654
720.950	0.0140140
721.028	0.0136794
721.106	0.0134992
721.184	0.0134512
721.262	0.0132001
721.340	0.0129939
721.418	0.0130901
721.496	0.0134191
721.575	0.0134561
721.653	0.0137298
721.731	0.0140062
721.809	0.0145396
721.887	0.0148313
721.965	0.0149707
722.043	0.0152617
722.121	0.0156174
722.200	0.0157203
722.278	0.0156153
722.356	0.0157127
722.434	0.0156629
722.512	0.0153629
722.590	0.0150693
722.668	0.0148020
722.746	0.0144810
722.825	0.0142122
722.903	0.0140343
722.981	0.0136329
723.059	0.0133992
723.137	0.0131937
723.215	0.0129423
723.293	0.0128877
723.371	0.0128586
723.450	0.0129899
723.528	0.0132299
723.606	0.0136119
723.684	0.0139426
723.762	0.0143906
723.840	0.0146089
723.918	0.0149163
723.996	0.0152567
724.075	0.0155169
724.153	0.0156364
724.231	0.0156397
724.309	0.0157997
724.387	0.0157568
724.465	0.0154907
724.543	0.0151653
724.621	0.0145874
724.700	0.0142279
724.778	0.0137486
724.856	0.0133508
724.934	0.0129099
725.012	0.0128466
725.090	0.0127831
725.168	0.0127418
725.246	0.0128357
725.325	0.0128903
725.403	0.0129846
725.481	0.0133375
725.559	0.0134461
725.637	0.0138056
725.715	0.0142773
725.793	0.0146372
725.871	0.0150635
725.950	0.0152546
726.028	0.0156057
726.106	0.0155603
726.184	0.0155626
726.262	0.0155083
726.340	0.0154377
726.418	0.0152014
726.496	0.0146891
726.575	0.0143604
726.653	0.0139925
726.731	0.0136428
726.809	0.0134343
726.887	0.0131304
726.965	0.0129391
727.043	0.0129981
727.121	0.0129325
727.200	0.0131491
727.278	0.0133484
727.356	0.0136264
727.434	0.0138971
727.512	0.0140919
727.590	0.0145655
727.668	0.0147549
727.746	0.0149255
727.825	0.0151077
727.903	0.0152924
727.981	0.0153904
728.059	0.0151798
728.137	0.0152900
728.215	0.0150215
728.293	0.0149683
728.371	0.0146725
728.450	0.0144857
728.528	0.0142873
728.606	0.0140280
728.684	0.0138079
728.762	0.0136688
728.840	0.0135613
728.918	0.0134811
728.996	0.0135805
729.075	0.0134922
729.153	0.0136275
729.231	0.0137199
729.309	0.0136501
729.387	0.0138409
729.465	0.0139548
729.543	0.0140768
729.621	0.0142651
729.700	0.0142812
729.778	0.0143877
729.856	0.0143197
729.934	0.0144244
730.012	0.0145139
730.090	0.0146732
730.168	0.0146656
730.246	0.0145963
730.325	0.0145665
730.403	0.0146993
730.481	0.0147929
730.559	0.0147250
730.637	0.0145667
730.715	0.0144440
730.793	0.0144321
730.871	0.0141827
730.950	0.0140572
731.028	0.0138566
731.106	0.0136687
731.184	0.0136957
731.262	0.0134306
731.340	0.0134398
731.418	0.0134208
731.496	0.0134660
731.575	0.0135673
731.653	0.0137517
731.731	0.0139315
731.809	0.0140410
731.887	0.0140677
731.965	0.0142710
732.043	0.0143127
732.121	0.0145287
732.200	0.0146146
732.278	0.0145019
732.356	0.0146148
732.434	0.0146748
732.512	0.0146359
732.590	0.0142915
732.668	0.0143288
732.746	0.0141560
732.825	0.0139471
732.903	0.0139399
732.981	0.0140051
733.059	0.0139134
733.137	0.0137799
733.215	0.0136710
733.293	0.0137334
733.371	0.0138712
733.450	0.0138076
733.528	0.0138732
733.606	0.0138657
733.684	0.0140594
733.762	0.0141541
733.840	0.0142748
733.918	0.0143925
733.996	0.0142607
734.075	0.0145943
734.153	0.0144802
734.231	0.0145512
734.309	0.0144751
734.387	0.0145141
734.465	0.0145501
734.543	0.0145541
734.621	0.0144016
734.700	0.0144496
734.778	0.0144266
734.856	0.0144151
734.934	0.0143272
735.012	0.0143180
735.090	0.0140343
735.168	0.0140846
735.246	0.0141005
735.325	0.0138491
735.403	0.0137025
735.481	0.0137376
735.559	0.0136167
735.637	0.0136101
735.715	0.0138941
735.793	0.0140545
735.871	0.0140710
735.950	0.0141878
736.028	0.0145071
736.106	0.0146937
736.184	0.0149033
736.262	0.0149754
736.340	0.0151539
736.418	0.0151579
736.496	0.0152113
736.575	0.0152888
736.653	0.0150604
736.731	0.0148929
736.809	0.0148376
736.887	0.0145319
736.965	0.0143244
737.043	0.0143292
737.121	0.0140878
737.200	0.0137630
737.278	0.0137034
737.356	0.0137694
737.434	0.0137714
737.512	0.0137526
737.590	0.0137857
737.668	0.0138335
737.746	0.0138700
737.825	0.0138544
737.903	0.0142189
737.981	0.0142691
738.059	0.0143444
738.137	0.0142561
738.215	0.0142054
738.293	0.0144828
738.371	0.0142445
738.450	0.0143486
738.528	0.0141405
738.606	0.0143353
738.684	0.0143565
738.762	0.0140984
738.840	0.0141177
738.918	0.0142117
738.996	0.0144098
739.075	0.0142310
739.153	0.0141177
739.231	0.0142377
739.309	0.0141496
739.387	0.0142749
739.465	0.0139957
739.543	0.0137846
739.621	0.0138213
739.700	0.0138255
739.778	0.0138407
739.856	0.0137085
739.934	0.0137006
740.012	0.0136662
740.090	0.0136592
740.168	0.0138506
740.246	0.0138754
740.325	0.0142934
740.403	0.0144390
740.481	0.0145419
740.559	0.0148184
740.637	0.0149716
740.715	0.0150289
740.793	0.0152708
740.871	0.0153551
740.950	0.0151939
741.028	0.0150902
741.106	0.0149860
741.184	0.0147517
741.262	0.0145020
741.340	0.0142052
741.418	0.0141544
741.496	0.0140242
741.575	0.0138644
741.653	0.0135596
741.731	0.0134113
741.809	0.0134740
741.887	0.0134300
741.965	0.0135294
742.043	0.0134911
742.121	0.0135831
742.200	0.0137478
742.278	0.0139429
742.356	0.0140100
742.434	0.0141174
742.512	0.0140273
742.590	0.0143288
742.668	0.0145082
742.746	0.0146785
742.825	0.0146523
742.903	0.0147228
742.981	0.0149228
743.059	0.0149057
743.137	0.0147379
743.215	0.0148135
743.293	0.0147825
743.371	0.0147227
743.450	0.0145745
743.528	0.0144864
743.606	0.0144111
743.684	0.0142519
743.762	0.0141222
743.840	0.0138921
743.918	0.0138705
743.996	0.0136067
744.075	0.0135587
744.153	0.0136707
744.231	0.0137175
744.309	0.0137893
744.387	0.0138335
744.465	0.0138663
744.543	0.0139937
744.621	0.0142293
744.700	0.0143493
744.778	0.0144607
744.856	0.0146816
744.934	0.0146548
745.012	0.0146706
745.090	0.0147939
745.168	0.0148966
745.246	0.0147752
745.325	0.0148247
745.403	0.0148127
745.481	0.0147044
745.559	0.0145068
745.637	0.0143237
745.715	0.0142297
745.793	0.0141739
745.871	0.0141334
745.950	0.0139806
746.028	0.0139440
746.106	0.0138657
746.184	0.0138526
746.262	0.0140616
746.340	0.0139137
746.418	0.0141187
746.496	0.0140973
746.575	0.0142215
746.653	0.0143804
746.731	0.0146281
746.809	0.0145506
746.887	0.0145148
746.965	0.0146580
747.043	0.0144763
747.121	0.0144469
747.200	0.0144464
747.278	0.0144108
747.356	0.0142470
747.434	0.0142690
747.512	0.0141045
747.590	0.0141551
747.668	0.0141715
747.746	0.0141225
747.825	0.0141226
747.903	0.0140803
747.981	0.0140973
748.059	0.0142128
748.137	0.0145042
748.215	0.0143999
748.293	0.0143611
748.371	0.0144806
748.450	0.0145260
748.528	0.0146500
748.606	0.0145034
748.684	0.0146465
748.762	0.0146181
748.840	0.0144611
748.918	0.0143022
748.996	0.0141951
749.075	0.0141893
749.153	0.0138632
749.231	0.0139226
749.309	0.0138020
749.387	0.0136950
749.465	0.0137029
749.543	0.0137553
749.621	0.0139797
749.700	0.0138606
749.778	0.0139198
749.856	0.0139542
749.934	0.0141614
750.012	0.0141795
750.090	0.0144377
750.168	0.0145381
750.246	0.0146356
750.325	0.0145972
750.403	0.0146082
750.481	0.0147211
750.559	0.0146972
750.637	0.0145467
750.715	0.0145598
750.793	0.0145303
750.871	0.0144789
750.950	0.0143652
751.028	0.0143075
751.106	0.0142009
751.184	0.0141969
751.262	0.0141180
751.340	0.0140841
751.418	0.0140264
751.496	0.0139283
751.575	0.0137856
751.653	0.0138612
751.731	0.0136855
751.809	0.0137094
751.887	0.0139014
751.965	0.0138438
752.043	0.0137690
752.121	0.0141362
752.200	0.0140869
752.278	0.0142642
752.356	0.0144560
752.434	0.0146165
752.512	0.0146643
752.590	0.0147108
752.668	0.0148441
752.746	0.0149321
752.825	0.0149252
752.903	0.0149249
752.981	0.0147241
753.059	0.0149329
753.137	0.0144868
753.215	0.0144054
753.293	0.0142917
753.371	0.0141695
753.450	0.0140700
753.528	0.0138778
753.606	0.0136111
753.684	0.0136723
753.762	0.0135651
753.840	0.0136098
753.918	0.0137426
753.996	0.0137437
754.075	0.0137355
754.153	0.0139165
754.231	0.0139967
754.309	0.0139986
754.387	0.0143542
754.465	0.0144554
754.543	0.0145288
754.621	0.0144785
754.700	0.0145479
754.778	0.0146243
754.856	0.0145896
754.934	0.0145886
755.012	0.0146306
755.090	0.0143800
755.168	0.0143811
755.246	0.0143783
755.325	0.0143810
755.403	0.0142659
755.481	0.0141593
755.559	0.0143277
755.637	0.0141440
755.715	0.0139989
755.793	0.0140364
755.871	0.0140301
755.950	0.0141068
756.028	0.0139427
756.106	0.0138630
756.184	0.0138213
756.262	0.0139377
756.340	0.0140167
756.418	0.0139265
756.496	0.0140298
756.575	0.0140770
756.653	0.0140132
756.731	0.0139989
756.809	0.0140747
756.887	0.0141310
756.965	0.0142711
757.043	0.0143499
757.121	0.0142779
757.200	0.0143874
757.278	0.0144270
757.356	0.0145186
757.434	0.0145792
757.512	0.0145475
757.590	0.0145746
757.668	0.0145645
757.746	0.0146268
757.825	0.0143785
757.903	0.0143455
757.981	0.0143988
758.059	0.0142197
758.137	0.0141811
758.215	0.0141904
758.293	0.0142086
758.371	0.0141944
758.450	0.0141185
758.528	0.0140962
758.606	0.0141046
758.684	0.0142985
758.762	0.0141769
758.840	0.0141131
758.918	0.0141846
758.996	0.0141506
759.075	0.0142944
759.153	0.0142234
759.231	0.0141793
759.309	0.0143207
759.387	0.0142678
759.465	0.0142399
759.543	0.0141853
759.621	0.0144035
759.700	0.0142434
759.778	0.0142487
759.856	0.0142113
759.934	0.0143566
760.012	0.0143298
760.090	0.0143236
760.168	0.0144962
760.246	0.0145067
760.325	0.0144627
760.403	0.0145149
760.481	0.0145470
760.559	0.0143823
760.637	0.0144233
760.715	0.0145029
760.793	0.0144128
760.871	0.0143962
760.950	0.0143419
761.028	0.0143211
761.106	0.0143261
761.184	0.0143104
761.262	0.0140617
761.340	0.0139844
761.418	0.0139471
761.496	0.0140353
761.575	0.0139574
761.653	0.0139771
761.731	0.0140308
761.809	0.0141632
761.887	0.0140237
761.965	0.0141965
762.043	0.0143053
762.121	0.0143468
762.200	0.0145297
762.278	0.0144997
762.356	0.0145891
762.434	0.0146440
762.512	0.0145231
762.590	0.0146957
762.668	0.0146665
762.746	0.0144833
762.825	0.0145477
762.903	0.0145112
762.981	0.0144273
763.059	0.0143682
763.137	0.0142757
763.215	0.0141350
763.293	0.0142142
763.371	0.0141876
763.450	0.0139008
763.528	0.0139686
763.606	0.0138444
763.684	0.0138425
763.762	0.0139795
763.840	0.0139676
763.918	0.0139713
763.996	0.0139233
764.075	0.0139217
764.153	0.0139831
764.231	0.0142879
764.309	0.0143065
764.387	0.0142547
764.465	0.0143880
764.543	0.0143506
764.621	0.0145361
764.700	0.0143968
