05/04/2022	20:57:47	Ver.	4.1	UNKNOWN
Optical Delay	678.996401	Delta X		0.078125	Sweeps	1	Scan Rate	0/0
Coordinates	Axis 1	NaN	Axis 2	NaN	Axis 3	NaN	Axis 4	NaN	Axis 5	NaN	Axis 6	0.000000
TX Power	0.000000	RX Power	0.000000

678.996	0.0141078
679.075	0.0140733
679.153	0.0141759
679.231	0.0143077
679.309	0.0141085
679.387	0.0140705
679.465	0.0141640
679.543	0.0141304
679.621	0.0141429
679.700	0.0142267
679.778	0.0141389
679.856	0.0140861
679.934	0.0141716
680.012	0.0140462
680.090	0.0140742
680.168	0.0142271
680.246	0.0139983
680.325	0.0139965
680.403	0.0141158
680.481	0.0141879
680.559	0.0141096
680.637	0.0140456
680.715	0.0140167
680.793	0.0141472
680.871	0.0140894
680.950	0.0141207
681.028	0.0141552
681.106	0.0142189
681.184	0.0141216
681.262	0.0141180
681.340	0.0141210
681.418	0.0141427
681.496	0.0141350
681.575	0.0141110
681.653	0.0141437
681.731	0.0141129
681.809	0.0140112
681.887	0.0140865
681.965	0.0141412
682.043	0.0140319
682.121	0.0140501
682.200	0.0140420
682.278	0.0139981
682.356	0.0141075
682.434	0.0140787
682.512	0.0140641
682.590	0.0142153
682.668	0.0141307
682.746	0.0141454
682.825	0.0140631
682.903	0.0140981
682.981	0.0139884
683.059	0.0140776
683.137	0.0140407
683.215	0.0140112
683.293	0.0141042
683.371	0.0141256
683.450	0.0141089
683.528	0.0140506
683.606	0.0142142
683.684	0.0142114
683.762	0.0141196
683.840	0.0140928
683.918	0.0139648
683.996	0.0140960
684.075	0.0141067
684.153	0.0141298
684.231	0.0140179
684.309	0.0141241
684.387	0.0140688
684.465	0.0141956
684.543	0.0141751
684.621	0.0141360
684.700	0.0141178
684.778	0.0140781
684.856	0.0141895
684.934	0.0140192
685.012	0.0141614
685.090	0.0141351
685.168	0.0141230
685.246	0.0141126
685.325	0.0141870
685.403	0.0141762
685.481	0.0141574
685.559	0.0141453
685.637	0.0140627
685.715	0.0140134
685.793	0.0140154
685.871	0.0141736
685.950	0.0141053
686.028	0.0141526
686.106	0.0141792
686.184	0.0140923
686.262	0.0140585
686.340	0.0141110
686.418	0.0141546
686.496	0.0142028
686.575	0.0141660
686.653	0.0141561
686.731	0.0141541
686.809	0.0141801
686.887	0.0141570
686.965	0.0141481
687.043	0.0141833
687.121	0.0141629
687.200	0.0141318
687.278	0.0140856
687.356	0.0141351
687.434	0.0140234
687.512	0.0139819
687.590	0.0141521
687.668	0.0140852
687.746	0.0140876
687.825	0.0141434
687.903	0.0141203
687.981	0.0141056
688.059	0.0140868
688.137	0.0139879
688.215	0.0142532
688.293	0.0141547
688.371	0.0140479
688.450	0.0141566
688.528	0.0140750
688.606	0.0140907
688.684	0.0141750
688.762	0.0141370
688.840	0.0142144
688.918	0.0140483
688.996	0.0140546
689.075	0.0142139
689.153	0.0142313
689.231	0.0141702
689.309	0.0142062
689.387	0.0141911
689.465	0.0140665
689.543	0.0141432
689.621	0.0140880
689.700	0.0142237
689.778	0.0142316
689.856	0.0142393
689.934	0.0142174
690.012	0.0139564
690.090	0.0140987
690.168	0.0141826
690.246	0.0141299
690.325	0.0141394
690.403	0.0141113
690.481	0.0141943
690.559	0.0141949
690.637	0.0141112
690.715	0.0140487
690.793	0.0141878
690.871	0.0140997
690.950	0.0140827
691.028	0.0140486
691.106	0.0142123
691.184	0.0142228
691.262	0.0140861
691.340	0.0140781
691.418	0.0140044
691.496	0.0141130
691.575	0.0140578
691.653	0.0140417
691.731	0.0142211
691.809	0.0141522
691.887	0.0141733
691.965	0.0141161
692.043	0.0139677
692.121	0.0142111
692.200	0.0142513
692.278	0.0140885
692.356	0.0141882
692.434	0.0142948
692.512	0.0141539
692.590	0.0141202
692.668	0.0141555
692.746	0.0141398
692.825	0.0142496
692.903	0.0140705
692.981	0.0140222
693.059	0.0141687
693.137	0.0141480
693.215	0.0141225
693.293	0.0141804
693.371	0.0142796
693.450	0.0140624
693.528	0.0141151
693.606	0.0141361
693.684	0.0141160
693.762	0.0141911
693.840	0.0142273
693.918	0.0142458
693.996	0.0141600
694.075	0.0140440
694.153	0.0141523
694.231	0.0141747
694.309	0.0141269
694.387	0.0141097
694.465	0.0140482
694.543	0.0139994
694.621	0.0142433
694.700	0.0142035
694.778	0.0140041
694.856	0.0141991
694.934	0.0141723
695.012	0.0140900
695.090	0.0139831
695.168	0.0141183
695.246	0.0140862
695.325	0.0141999
695.403	0.0143020
695.481	0.0140644
695.559	0.0141730
695.637	0.0141234
695.715	0.0140676
695.793	0.0140812
695.871	0.0142021
695.950	0.0140442
696.028	0.0140469
696.106	0.0142030
696.184	0.0141925
696.262	0.0142336
696.340	0.0141396
696.418	0.0141357
696.496	0.0139481
696.575	0.0141712
696.653	0.0141650
696.731	0.0141273
696.809	0.0141733
696.887	0.0140094
696.965	0.0140705
697.043	0.0141114
697.121	0.0141235
697.200	0.0140779
697.278	0.0139594
697.356	0.0141301
697.434	0.0141966
697.512	0.0140531
697.590	0.0140438
697.668	0.0141865
697.746	0.0141969
697.825	0.0140720
697.903	0.0140010
697.981	0.0139967
698.059	0.0141477
698.137	0.0141413
698.215	0.0141493
698.293	0.0140501
698.371	0.0140865
698.450	0.0141402
698.528	0.0138987
698.606	0.0140085
698.684	0.0141338
698.762	0.0142194
698.840	0.0142652
698.918	0.0141441
698.996	0.0140398
699.075	0.0139426
699.153	0.0142407
699.231	0.0141567
699.309	0.0141221
699.387	0.0141330
699.465	0.0141361
699.543	0.0140913
699.621	0.0140247
699.700	0.0140059
699.778	0.0141985
699.856	0.0141680
699.934	0.0140993
700.012	0.0141178
700.090	0.0142840
700.168	0.0142497
700.246	0.0141489
700.325	0.0140912
700.403	0.0142696
700.481	0.0141421
700.559	0.0141467
700.637	0.0141342
700.715	0.0140472
700.793	0.0140622
700.871	0.0140229
700.950	0.0140481
701.028	0.0140864
701.106	0.0140029
701.184	0.0140833
701.262	0.0140617
701.340	0.0140719
701.418	0.0141552
701.496	0.0140598
701.575	0.0141715
701.653	0.0140350
701.731	0.0141308
701.809	0.0141764
701.887	0.0141489
701.965	0.0142100
702.043	0.0141500
702.121	0.0141736
702.200	0.0140874
702.278	0.0141228
702.356	0.0141891
702.434	0.0140993
702.512	0.0141422
702.590	0.0142313
702.668	0.0141794
702.746	0.0141273
702.825	0.0140618
702.903	0.0140994
702.981	0.0140710
703.059	0.0141576
703.137	0.0143119
703.215	0.0140903
703.293	0.0141074
703.371	0.0141479
703.450	0.0140348
703.528	0.0140836
703.606	0.0141073
703.684	0.0140896
703.762	0.0141486
703.840	0.0141468
703.918	0.0140549
703.996	0.0140286
704.075	0.0141109
704.153	0.0141214
704.231	0.0141765
704.309	0.0141076
704.387	0.0141440
704.465	0.0141154
704.543	0.0141451
704.621	0.0140264
704.700	0.0140833
704.778	0.0141214
704.856	0.0141613
704.934	0.0141946
705.012	0.0141655
705.090	0.0141059
705.168	0.0141093
705.246	0.0139552
705.325	0.0141463
705.403	0.0141051
705.481	0.0140023
705.559	0.0142405
705.637	0.0141099
705.715	0.0141925
705.793	0.0140637
705.871	0.0142014
705.950	0.0141753
706.028	0.0141536
706.106	0.0140269
706.184	0.0140697
706.262	0.0142675
706.340	0.0142085
706.418	0.0141552
706.496	0.0142076
706.575	0.0141470
706.653	0.0142902
706.731	0.0141698
706.809	0.0142697
706.887	0.0143316
706.965	0.0141740
707.043	0.0141476
707.121	0.0142120
707.200	0.0141615
707.278	0.0142081
707.356	0.0141800
707.434	0.0141446
707.512	0.0140258
707.590	0.0139907
707.668	0.0141177
707.746	0.0141721
707.825	0.0141204
707.903	0.0142575
707.981	0.0142422
708.059	0.0142579
708.137	0.0142480
708.215	0.0141174
708.293	0.0139916
708.371	0.0139516
708.450	0.0138708
708.528	0.0138383
708.606	0.0137935
708.684	0.0137810
708.762	0.0139626
708.840	0.0141194
708.918	0.0142966
708.996	0.0143077
709.075	0.0143459
709.153	0.0145393
709.231	0.0144398
709.309	0.0143508
709.387	0.0141885
709.465	0.0141129
709.543	0.0137562
709.621	0.0136771
709.700	0.0135670
709.778	0.0135850
709.856	0.0135976
709.934	0.0137663
710.012	0.0138386
710.090	0.0139555
710.168	0.0140421
710.246	0.0143070
710.325	0.0146150
710.403	0.0146086
710.481	0.0145341
710.559	0.0145937
710.637	0.0144985
710.715	0.0145027
710.793	0.0144692
710.871	0.0143612
710.950	0.0142328
711.028	0.0139546
711.106	0.0139171
711.184	0.0137427
711.262	0.0137311
711.340	0.0133941
711.418	0.0133205
711.496	0.0133596
711.575	0.0136405
711.653	0.0137341
711.731	0.0140198
711.809	0.0144711
711.887	0.0148273
711.965	0.0151836
712.043	0.0153674
712.121	0.0155145
712.200	0.0155614
712.278	0.0152055
712.356	0.0149431
712.434	0.0144736
712.512	0.0140198
712.590	0.0135458
712.668	0.0131236
712.746	0.0127545
712.825	0.0126765
712.903	0.0127630
712.981	0.0127379
713.059	0.0128650
713.137	0.0134808
713.215	0.0137778
713.293	0.0142638
713.371	0.0147173
713.450	0.0150945
713.528	0.0152419
713.606	0.0151510
713.684	0.0150358
713.762	0.0149036
713.840	0.0145309
713.918	0.0140562
713.996	0.0136240
714.075	0.0131059
714.153	0.0127473
714.231	0.0125082
714.309	0.0123148
714.387	0.0121992
714.465	0.0121735
714.543	0.0125251
714.621	0.0129067
714.700	0.0134731
714.778	0.0141322
714.856	0.0146669
714.934	0.0153587
715.012	0.0160151
715.090	0.0163412
715.168	0.0164501
715.246	0.0165651
715.325	0.0163117
715.403	0.0161644
715.481	0.0157406
715.559	0.0151735
715.637	0.0144638
715.715	0.0138153
715.793	0.0128900
715.871	0.0124223
715.950	0.0122168
716.028	0.0118508
716.106	0.0119846
716.184	0.0123592
716.262	0.0128072
716.340	0.0133527
716.418	0.0139117
716.496	0.0143678
716.575	0.0148993
716.653	0.0152598
716.731	0.0155634
716.809	0.0156857
716.887	0.0156419
716.965	0.0153266
717.043	0.0150562
717.121	0.0146753
717.200	0.0144542
717.278	0.0141326
717.356	0.0137416
717.434	0.0136462
717.512	0.0135357
717.590	0.0135477
717.668	0.0134922
717.746	0.0136431
717.825	0.0138035
717.903	0.0139937
717.981	0.0142237
718.059	0.0143076
718.137	0.0144003
718.215	0.0144461
718.293	0.0144451
718.371	0.0143416
718.450	0.0142397
718.528	0.0141508
718.606	0.0139330
718.684	0.0137839
718.762	0.0136501
718.840	0.0134600
718.918	0.0131481
718.996	0.0130679
719.075	0.0130875
719.153	0.0131508
719.231	0.0131731
719.309	0.0134801
719.387	0.0137556
719.465	0.0139213
719.543	0.0142286
719.621	0.0145850
719.700	0.0149428
719.778	0.0150050
719.856	0.0151782
719.934	0.0152909
720.012	0.0150697
720.090	0.0149536
720.168	0.0148008
720.246	0.0146932
720.325	0.0145100
720.403	0.0142677
720.481	0.0140032
720.559	0.0136688
720.637	0.0132322
720.715	0.0130373
720.793	0.0128136
720.871	0.0126215
720.950	0.0125308
721.028	0.0125851
721.106	0.0128195
721.184	0.0131287
721.262	0.0135436
721.340	0.0138913
721.418	0.0143604
721.496	0.0149500
721.575	0.0154005
721.653	0.0158127
721.731	0.0161028
721.809	0.0162840
721.887	0.0164477
721.965	0.0163752
722.043	0.0161174
722.121	0.0157694
722.200	0.0152511
722.278	0.0147784
722.356	0.0141663
722.434	0.0136704
722.512	0.0131791
722.590	0.0126849
722.668	0.0123930
722.746	0.0121281
722.825	0.0119672
722.903	0.0118955
722.981	0.0119157
723.059	0.0122386
723.137	0.0125696
723.215	0.0132001
723.293	0.0138039
723.371	0.0141783
723.450	0.0148966
723.528	0.0154176
723.606	0.0155836
723.684	0.0157223
723.762	0.0160080
723.840	0.0161537
723.918	0.0160149
723.996	0.0158611
724.075	0.0153540
724.153	0.0150926
724.231	0.0145658
724.309	0.0139661
724.387	0.0135606
724.465	0.0132181
724.543	0.0127096
724.621	0.0124568
724.700	0.0121571
724.778	0.0121474
724.856	0.0123466
724.934	0.0125552
725.012	0.0128790
725.090	0.0131560
725.168	0.0135853
725.246	0.0138011
725.325	0.0142563
725.403	0.0144695
725.481	0.0147469
725.559	0.0150594
725.637	0.0151408
725.715	0.0151892
725.793	0.0153535
725.871	0.0151181
725.950	0.0151028
726.028	0.0148830
726.106	0.0146290
726.184	0.0143698
726.262	0.0140040
726.340	0.0138660
726.418	0.0137218
726.496	0.0135783
726.575	0.0134292
726.653	0.0133907
726.731	0.0133974
726.809	0.0136127
726.887	0.0136102
726.965	0.0136005
727.043	0.0137402
727.121	0.0138578
727.200	0.0138945
727.278	0.0139606
727.356	0.0141814
727.434	0.0143459
727.512	0.0142256
727.590	0.0142128
727.668	0.0143845
727.746	0.0143740
727.825	0.0142121
727.903	0.0141673
727.981	0.0144434
728.059	0.0143771
728.137	0.0143465
728.215	0.0142580
728.293	0.0143017
728.371	0.0144305
728.450	0.0143404
728.528	0.0141668
728.606	0.0141743
728.684	0.0139404
728.762	0.0139139
728.840	0.0137618
728.918	0.0139270
728.996	0.0139017
729.075	0.0137835
729.153	0.0140407
729.231	0.0140383
729.309	0.0140234
729.387	0.0142029
729.465	0.0142765
729.543	0.0145218
729.621	0.0144647
729.700	0.0144212
729.778	0.0143221
729.856	0.0144783
729.934	0.0145411
730.012	0.0145071
730.090	0.0144517
730.168	0.0142133
730.246	0.0140886
730.325	0.0138379
730.403	0.0137331
730.481	0.0136182
730.559	0.0134327
730.637	0.0133422
730.715	0.0132972
730.793	0.0133739
730.871	0.0132671
730.950	0.0135281
731.028	0.0138275
731.106	0.0138029
731.184	0.0141000
731.262	0.0141122
731.340	0.0144128
731.418	0.0146366
731.496	0.0146471
731.575	0.0147372
731.653	0.0147399
731.731	0.0146893
731.809	0.0146688
731.887	0.0145736
731.965	0.0145657
732.043	0.0143677
732.121	0.0142768
732.200	0.0140997
732.278	0.0139341
732.356	0.0140324
732.434	0.0137953
732.512	0.0137664
732.590	0.0136727
732.668	0.0134872
732.746	0.0133340
732.825	0.0133601
732.903	0.0132951
732.981	0.0131876
733.059	0.0131403
733.137	0.0132557
733.215	0.0131935
733.293	0.0133696
733.371	0.0136704
733.450	0.0138142
733.528	0.0141067
733.606	0.0144297
733.684	0.0145809
733.762	0.0147781
733.840	0.0150781
733.918	0.0152794
733.996	0.0153975
734.075	0.0152421
734.153	0.0152327
734.231	0.0151868
734.309	0.0149194
734.387	0.0147086
734.465	0.0143300
734.543	0.0139953
734.621	0.0138699
734.700	0.0134821
734.778	0.0132621
734.856	0.0131467
734.934	0.0131304
735.012	0.0132765
735.090	0.0133553
735.168	0.0132764
735.246	0.0135393
735.325	0.0138459
735.403	0.0140295
735.481	0.0141576
735.559	0.0144530
735.637	0.0148270
735.715	0.0148460
735.793	0.0150317
735.871	0.0149650
735.950	0.0148836
736.028	0.0150243
736.106	0.0151083
736.184	0.0149467
736.262	0.0148581
736.340	0.0148072
736.418	0.0147860
736.496	0.0145871
736.575	0.0146526
736.653	0.0144536
736.731	0.0142438
736.809	0.0140757
736.887	0.0139806
736.965	0.0140290
737.043	0.0136583
737.121	0.0134843
737.200	0.0134428
737.278	0.0130679
737.356	0.0128596
737.434	0.0127235
737.512	0.0127232
737.590	0.0126084
737.668	0.0127699
737.746	0.0131727
737.825	0.0133061
737.903	0.0133924
737.981	0.0137981
738.059	0.0142606
738.137	0.0146245
738.215	0.0148751
738.293	0.0151702
738.371	0.0153635
738.450	0.0153893
738.528	0.0156052
738.606	0.0156100
738.684	0.0153597
738.762	0.0153938
738.840	0.0150521
738.918	0.0147985
738.996	0.0145837
739.075	0.0142214
739.153	0.0139756
739.231	0.0135318
739.309	0.0133098
739.387	0.0131372
739.465	0.0130443
739.543	0.0128769
739.621	0.0129030
739.700	0.0130750
739.778	0.0129765
739.856	0.0130276
739.934	0.0133896
740.012	0.0136314
740.090	0.0136384
740.168	0.0139817
740.246	0.0143162
740.325	0.0143286
740.403	0.0146070
740.481	0.0147919
740.559	0.0148225
740.637	0.0149126
740.715	0.0152887
740.793	0.0151137
740.871	0.0150985
740.950	0.0149074
741.028	0.0149229
741.106	0.0148674
741.184	0.0146561
741.262	0.0143395
741.340	0.0141057
741.418	0.0137443
741.496	0.0135663
741.575	0.0134963
741.653	0.0132105
741.731	0.0130465
741.809	0.0128551
741.887	0.0130944
741.965	0.0129585
742.043	0.0130650
742.121	0.0132638
742.200	0.0135062
742.278	0.0137270
742.356	0.0141664
742.434	0.0142849
742.512	0.0143056
742.590	0.0147348
742.668	0.0149393
742.746	0.0150257
742.825	0.0150784
742.903	0.0152296
742.981	0.0150538
743.059	0.0150317
743.137	0.0148856
743.215	0.0148998
743.293	0.0147478
743.371	0.0144537
743.450	0.0143005
743.528	0.0140205
743.606	0.0138733
743.684	0.0138513
743.762	0.0137487
743.840	0.0135417
743.918	0.0134068
743.996	0.0134772
744.075	0.0136479
744.153	0.0135546
744.231	0.0138107
744.309	0.0139820
744.387	0.0141545
744.465	0.0140848
744.543	0.0141514
744.621	0.0142020
744.700	0.0143288
744.778	0.0143634
744.856	0.0144164
744.934	0.0143411
745.012	0.0142917
745.090	0.0142858
745.168	0.0140289
745.246	0.0141534
745.325	0.0142926
745.403	0.0141406
745.481	0.0141513
745.559	0.0142275
745.637	0.0141830
745.715	0.0142598
745.793	0.0144263
745.871	0.0142387
745.950	0.0143227
746.028	0.0145457
746.106	0.0144788
746.184	0.0144263
746.262	0.0142216
746.340	0.0142934
746.418	0.0141435
746.496	0.0140866
746.575	0.0140347
746.653	0.0137039
746.731	0.0136958
746.809	0.0136715
746.887	0.0136364
746.965	0.0134942
747.043	0.0134481
747.121	0.0134892
747.200	0.0136741
747.278	0.0135374
747.356	0.0135771
747.434	0.0140335
747.512	0.0141187
747.590	0.0141444
747.668	0.0142981
747.746	0.0146284
747.825	0.0146319
747.903	0.0144901
747.981	0.0146364
748.059	0.0147359
748.137	0.0146702
748.215	0.0145661
748.293	0.0144312
748.371	0.0144328
748.450	0.0142805
748.528	0.0141639
748.606	0.0140851
748.684	0.0141286
748.762	0.0139063
748.840	0.0138743
748.918	0.0136800
748.996	0.0136642
749.075	0.0134921
749.153	0.0136437
749.231	0.0135932
749.309	0.0136604
749.387	0.0135479
749.465	0.0136342
749.543	0.0137547
749.621	0.0136143
749.700	0.0139339
749.778	0.0141323
749.856	0.0141988
749.934	0.0144035
750.012	0.0145078
750.090	0.0146815
750.168	0.0149786
750.246	0.0150403
750.325	0.0148741
750.403	0.0149027
750.481	0.0148795
750.559	0.0148903
750.637	0.0147352
750.715	0.0145777
750.793	0.0143567
750.871	0.0141573
750.950	0.0138715
751.028	0.0138488
751.106	0.0136786
751.184	0.0134231
751.262	0.0133712
751.340	0.0133176
751.418	0.0133131
751.496	0.0132360
751.575	0.0134138
751.653	0.0134090
751.731	0.0136466
751.809	0.0137520
751.887	0.0138186
751.965	0.0141999
752.043	0.0142450
752.121	0.0143683
752.200	0.0145523
752.278	0.0146769
752.356	0.0147357
752.434	0.0146851
752.512	0.0145816
752.590	0.0145956
752.668	0.0144226
752.746	0.0144415
752.825	0.0142415
752.903	0.0142272
752.981	0.0141562
753.059	0.0139651
753.137	0.0141281
753.215	0.0139040
753.293	0.0138022
753.371	0.0138406
753.450	0.0138271
753.528	0.0137090
753.606	0.0135777
753.684	0.0135583
753.762	0.0138528
753.840	0.0137079
753.918	0.0136703
753.996	0.0138747
754.075	0.0137417
754.153	0.0138833
754.231	0.0138854
754.309	0.0139088
754.387	0.0139673
754.465	0.0140318
754.543	0.0141444
754.621	0.0141526
754.700	0.0143037
754.778	0.0143137
754.856	0.0143140
754.934	0.0143414
755.012	0.0142943
755.090	0.0143572
755.168	0.0145876
755.246	0.0144985
755.325	0.0142122
755.403	0.0142840
755.481	0.0142542
755.559	0.0141608
755.637	0.0141782
755.715	0.0138637
755.793	0.0139179
755.871	0.0137380
755.950	0.0138308
756.028	0.0137301
756.106	0.0137229
756.184	0.0137596
756.262	0.0138388
756.340	0.0138490
756.418	0.0140388
756.496	0.0140281
756.575	0.0140183
756.653	0.0141448
756.731	0.0141777
756.809	0.0143115
756.887	0.0143399
756.965	0.0140965
757.043	0.0143590
757.121	0.0141895
757.200	0.0143076
757.278	0.0143301
757.356	0.0142764
757.434	0.0142411
757.512	0.0142361
757.590	0.0143023
757.668	0.0142788
757.746	0.0141472
757.825	0.0141990
757.903	0.0141011
757.981	0.0142376
758.059	0.0142108
758.137	0.0142475
758.215	0.0141550
758.293	0.0140511
758.371	0.0141840
758.450	0.0141242
758.528	0.0139918
758.606	0.0139440
758.684	0.0139239
758.762	0.0138960
758.840	0.0138833
758.918	0.0137867
758.996	0.0137666
759.075	0.0138824
759.153	0.0138825
759.231	0.0138899
759.309	0.0138528
759.387	0.0138474
759.465	0.0140160
759.543	0.0140611
759.621	0.0140914
759.700	0.0142418
759.778	0.0142828
759.856	0.0141515
759.934	0.0142968
760.012	0.0144619
760.090	0.0145453
760.168	0.0144440
760.246	0.0144004
760.325	0.0143323
760.403	0.0143524
760.481	0.0143671
760.559	0.0142322
760.637	0.0142379
760.715	0.0141094
760.793	0.0141175
760.871	0.0142097
760.950	0.0139960
761.028	0.0140462
761.106	0.0139683
761.184	0.0138422
761.262	0.0137063
761.340	0.0138843
761.418	0.0138541
761.496	0.0138216
761.575	0.0138342
761.653	0.0136973
761.731	0.0138354
761.809	0.0139801
761.887	0.0140434
761.965	0.0141277
762.043	0.0142553
762.121	0.0143352
762.200	0.0144476
762.278	0.0143008
762.356	0.0144896
762.434	0.0143327
762.512	0.0146295
762.590	0.0144002
762.668	0.0144344
762.746	0.0144949
762.825	0.0143248
762.903	0.0143954
762.981	0.0142481
763.059	0.0142651
763.137	0.0141308
763.215	0.0141182
763.293	0.0138754
763.371	0.0140507
763.450	0.0138196
763.528	0.0136598
763.606	0.0137300
763.684	0.0138947
763.762	0.0138950
763.840	0.0139075
763.918	0.0140028
763.996	0.0140011
764.075	0.0139671
764.153	0.0141476
764.231	0.0143719
764.309	0.0143227
764.387	0.0143351
764.465	0.0143687
764.543	0.0145386
764.621	0.0144179
764.700	0.0144912
