05/04/2022	20:58:12	Ver.	4.1	UNKNOWN
Optical Delay	678.996401	Delta X		0.078125	Sweeps	1	Scan Rate	0/0
Coordinates	Axis 1	NaN	Axis 2	NaN	Axis 3	NaN	Axis 4	NaN	Axis 5	NaN	Axis 6	0.000000
TX Power	0.000000	RX Power	0.000000

678.996	0.0139265
679.075	0.0140559
679.153	0.0139818
679.231	0.0139031
679.309	0.0139654
679.387	0.0138850
679.465	0.0138844
679.543	0.0139328
679.621	0.0139829
679.700	0.0138793
679.778	0.0138309
679.856	0.0139406
679.934	0.0139326
680.012	0.0139097
680.090	0.0139704
680.168	0.0139822
680.246	0.0137200
680.325	0.0137086
680.403	0.0139813
680.481	0.0139339
680.559	0.0139368
680.637	0.0139096
680.715	0.0138292
680.793	0.0139381
680.871	0.0140257
680.950	0.0140292
681.028	0.0138663
681.106	0.0138673
681.184	0.0138745
681.262	0.0138327
681.340	0.0139914
681.418	0.0140529
681.496	0.0139667
681.575	0.0139774
681.653	0.0139800
681.731	0.0138928
681.809	0.0139933
681.887	0.0139319
681.965	0.0139526
682.043	0.0139610
682.121	0.0139947
682.200	0.0138990
682.278	0.0139220
682.356	0.0141134
682.434	0.0140072
682.512	0.0140045
682.590	0.0139834
682.668	0.0137401
682.746	0.0139369
682.825	0.0138605
682.903	0.0137754
682.981	0.0139135
683.059	0.0139245
683.137	0.0139008
683.215	0.0138458
683.293	0.0140116
683.371	0.0139886
683.450	0.0138448
683.528	0.0138931
683.606	0.0140087
683.684	0.0138840
683.762	0.0138451
683.840	0.0140805
683.918	0.0139501
683.996	0.0138118
684.075	0.0138498
684.153	0.0140902
684.231	0.0139606
684.309	0.0139919
684.387	0.0139907
684.465	0.0139324
684.543	0.0139759
684.621	0.0140623
684.700	0.0139333
684.778	0.0137629
684.856	0.0139697
684.934	0.0139103
685.012	0.0139890
685.090	0.0140494
685.168	0.0139748
685.246	0.0137905
685.325	0.0139314
685.403	0.0140298
685.481	0.0138299
685.559	0.0139906
685.637	0.0139704
685.715	0.0138448
685.793	0.0138448
685.871	0.0138837
685.950	0.0138935
686.028	0.0139588
686.106	0.0139833
686.184	0.0140015
686.262	0.0139427
686.340	0.0138586
686.418	0.0138870
686.496	0.0138729
686.575	0.0138052
686.653	0.0138922
686.731	0.0139178
686.809	0.0140385
686.887	0.0139906
686.965	0.0139366
687.043	0.0138187
687.121	0.0138761
687.200	0.0138451
687.278	0.0138390
687.356	0.0139222
687.434	0.0138514
687.512	0.0139422
687.590	0.0139811
687.668	0.0139867
687.746	0.0138673
687.825	0.0139728
687.903	0.0138248
687.981	0.0138062
688.059	0.0139215
688.137	0.0140542
688.215	0.0138757
688.293	0.0137904
688.371	0.0139095
688.450	0.0138824
688.528	0.0138326
688.606	0.0138809
688.684	0.0139340
688.762	0.0139021
688.840	0.0139685
688.918	0.0139038
688.996	0.0139478
689.075	0.0138723
689.153	0.0139259
689.231	0.0139706
689.309	0.0137243
689.387	0.0138744
689.465	0.0141366
689.543	0.0138838
689.621	0.0138966
689.700	0.0138622
689.778	0.0139973
689.856	0.0139433
689.934	0.0137491
690.012	0.0138509
690.090	0.0138940
690.168	0.0139072
690.246	0.0139069
690.325	0.0140070
690.403	0.0138995
690.481	0.0140051
690.559	0.0139168
690.637	0.0139929
690.715	0.0139735
690.793	0.0138499
690.871	0.0138625
690.950	0.0139349
691.028	0.0138036
691.106	0.0139136
691.184	0.0139893
691.262	0.0138698
691.340	0.0138830
691.418	0.0139307
691.496	0.0138746
691.575	0.0140489
691.653	0.0140665
691.731	0.0138477
691.809	0.0140456
691.887	0.0139407
691.965	0.0138257
692.043	0.0139075
692.121	0.0139555
692.200	0.0138658
692.278	0.0139827
692.356	0.0139057
692.434	0.0139053
692.512	0.0138681
692.590	0.0138551
692.668	0.0138791
692.746	0.0140466
692.825	0.0139747
692.903	0.0138940
692.981	0.0139423
693.059	0.0139519
693.137	0.0138381
693.215	0.0139316
693.293	0.0139089
693.371	0.0139099
693.450	0.0139389
693.528	0.0139864
693.606	0.0138853
693.684	0.0140339
693.762	0.0140522
693.840	0.0140285
693.918	0.0140411
693.996	0.0138501
694.075	0.0137133
694.153	0.0138983
694.231	0.0139311
694.309	0.0139431
694.387	0.0138957
694.465	0.0140576
694.543	0.0139029
694.621	0.0139896
694.700	0.0139684
694.778	0.0140096
694.856	0.0138909
694.934	0.0139135
695.012	0.0140848
695.090	0.0139683
695.168	0.0138593
695.246	0.0139411
695.325	0.0137756
695.403	0.0139017
695.481	0.0139020
695.559	0.0138219
695.637	0.0140417
695.715	0.0139488
695.793	0.0138248
695.871	0.0138958
695.950	0.0139808
696.028	0.0139969
696.106	0.0138661
696.184	0.0139192
696.262	0.0138823
696.340	0.0140311
696.418	0.0139474
696.496	0.0139437
696.575	0.0138786
696.653	0.0139448
696.731	0.0138780
696.809	0.0138868
696.887	0.0140217
696.965	0.0139342
697.043	0.0140524
697.121	0.0139326
697.200	0.0138545
697.278	0.0139462
697.356	0.0138513
697.434	0.0140105
697.512	0.0138721
697.590	0.0137634
697.668	0.0139481
697.746	0.0138862
697.825	0.0139584
697.903	0.0137386
697.981	0.0138690
698.059	0.0139063
698.137	0.0140025
698.215	0.0139109
698.293	0.0139544
698.371	0.0139075
698.450	0.0139365
698.528	0.0140219
698.606	0.0138334
698.684	0.0138254
698.762	0.0139201
698.840	0.0140136
698.918	0.0138812
698.996	0.0139595
699.075	0.0140308
699.153	0.0139182
699.231	0.0139355
699.309	0.0138509
699.387	0.0140184
699.465	0.0138745
699.543	0.0139706
699.621	0.0139270
699.700	0.0139626
699.778	0.0139057
699.856	0.0138612
699.934	0.0139896
700.012	0.0139890
700.090	0.0139514
700.168	0.0139737
700.246	0.0139347
700.325	0.0139729
700.403	0.0139964
700.481	0.0138991
700.559	0.0139397
700.637	0.0139823
700.715	0.0139301
700.793	0.0137757
700.871	0.0139860
700.950	0.0139722
701.028	0.0139083
701.106	0.0139140
701.184	0.0140348
701.262	0.0139707
701.340	0.0139534
701.418	0.0140401
701.496	0.0138995
701.575	0.0138849
701.653	0.0139556
701.731	0.0139960
701.809	0.0138684
701.887	0.0140031
701.965	0.0139073
702.043	0.0140545
702.121	0.0139999
702.200	0.0139188
702.278	0.0139106
702.356	0.0139911
702.434	0.0139062
702.512	0.0139515
702.590	0.0139600
702.668	0.0139553
702.746	0.0137944
702.825	0.0139375
702.903	0.0140031
702.981	0.0139402
703.059	0.0139477
703.137	0.0142123
703.215	0.0139575
703.293	0.0139963
703.371	0.0139631
703.450	0.0139129
703.528	0.0137917
703.606	0.0139835
703.684	0.0140576
703.762	0.0141187
703.840	0.0140778
703.918	0.0139259
703.996	0.0139513
704.075	0.0139323
704.153	0.0139240
704.231	0.0140170
704.309	0.0138580
704.387	0.0137357
704.465	0.0139882
704.543	0.0139972
704.621	0.0139659
704.700	0.0140341
704.778	0.0138205
704.856	0.0139016
704.934	0.0139262
705.012	0.0138789
705.090	0.0140042
705.168	0.0139314
705.246	0.0139552
705.325	0.0139964
705.403	0.0139677
705.481	0.0137915
705.559	0.0137531
705.637	0.0138508
705.715	0.0138605
705.793	0.0138157
705.871	0.0139638
705.950	0.0139918
706.028	0.0139709
706.106	0.0140757
706.184	0.0139384
706.262	0.0139146
706.340	0.0139278
706.418	0.0140318
706.496	0.0140073
706.575	0.0140575
706.653	0.0140405
706.731	0.0140748
706.809	0.0141025
706.887	0.0140797
706.965	0.0140144
707.043	0.0139099
707.121	0.0138751
707.200	0.0140399
707.278	0.0138782
707.356	0.0138379
707.434	0.0138951
707.512	0.0138960
707.590	0.0139713
707.668	0.0140643
707.746	0.0140154
707.825	0.0141454
707.903	0.0140648
707.981	0.0139903
708.059	0.0138911
708.137	0.0136865
708.215	0.0135761
708.293	0.0135789
708.371	0.0136375
708.450	0.0136333
708.528	0.0136971
708.606	0.0138903
708.684	0.0138863
708.762	0.0140752
708.840	0.0142538
708.918	0.0144065
708.996	0.0143166
709.075	0.0142374
709.153	0.0140290
709.231	0.0138641
709.309	0.0137826
709.387	0.0136504
709.465	0.0136080
709.543	0.0134810
709.621	0.0133872
709.700	0.0133933
709.778	0.0134949
709.856	0.0135780
709.934	0.0137321
710.012	0.0140079
710.090	0.0141622
710.168	0.0143084
710.246	0.0143983
710.325	0.0144091
710.403	0.0145503
710.481	0.0146547
710.559	0.0145000
710.637	0.0143462
710.715	0.0142335
710.793	0.0141018
710.871	0.0139242
710.950	0.0137598
711.028	0.0135421
711.106	0.0132497
711.184	0.0130721
711.262	0.0129914
711.340	0.0130430
711.418	0.0131724
711.496	0.0134428
711.575	0.0138686
711.653	0.0145482
711.731	0.0149220
711.809	0.0150524
711.887	0.0154581
711.965	0.0155428
712.043	0.0155611
712.121	0.0152091
712.200	0.0149997
712.278	0.0143896
712.356	0.0138213
712.434	0.0132644
712.512	0.0129114
712.590	0.0125675
712.668	0.0124117
712.746	0.0122341
712.825	0.0122994
712.903	0.0126212
712.981	0.0128797
713.059	0.0134135
713.137	0.0139470
713.215	0.0144118
713.293	0.0147812
713.371	0.0149841
713.450	0.0151538
713.528	0.0150700
713.606	0.0147534
713.684	0.0144987
713.762	0.0140105
713.840	0.0136499
713.918	0.0131735
713.996	0.0127461
714.075	0.0125799
714.153	0.0121538
714.231	0.0119580
714.309	0.0119748
714.387	0.0121657
714.465	0.0125555
714.543	0.0130840
714.621	0.0136629
714.700	0.0143616
714.778	0.0151312
714.856	0.0157727
714.934	0.0159966
715.012	0.0163794
715.090	0.0164454
715.168	0.0163334
715.246	0.0158952
715.325	0.0154942
715.403	0.0148586
715.481	0.0142348
715.559	0.0137227
715.637	0.0130038
715.715	0.0124887
715.793	0.0121471
715.871	0.0119225
715.950	0.0119588
716.028	0.0120983
716.106	0.0125164
716.184	0.0130496
716.262	0.0137467
716.340	0.0142953
716.418	0.0146934
716.496	0.0150317
716.575	0.0153558
716.653	0.0153888
716.731	0.0152654
716.809	0.0150491
716.887	0.0148981
716.965	0.0145692
717.043	0.0143127
717.121	0.0139603
717.200	0.0136211
717.278	0.0134443
717.356	0.0134592
717.434	0.0133679
717.512	0.0135704
717.590	0.0137523
717.668	0.0137134
717.746	0.0138199
717.825	0.0139179
717.903	0.0140521
717.981	0.0142216
718.059	0.0141174
718.137	0.0141212
718.215	0.0142731
718.293	0.0141765
718.371	0.0140247
718.450	0.0137389
718.528	0.0136366
718.606	0.0134633
718.684	0.0133372
718.762	0.0132964
718.840	0.0131057
718.918	0.0128000
718.996	0.0128558
719.075	0.0130685
719.153	0.0131058
719.231	0.0131733
719.309	0.0134856
719.387	0.0139078
719.465	0.0143739
719.543	0.0144901
719.621	0.0148144
719.700	0.0150005
719.778	0.0150153
719.856	0.0151206
719.934	0.0150859
720.012	0.0151550
720.090	0.0149479
720.168	0.0148624
720.246	0.0143340
720.325	0.0142549
720.403	0.0139507
720.481	0.0135240
720.559	0.0131071
720.637	0.0125138
720.715	0.0124546
720.793	0.0123820
720.871	0.0123582
720.950	0.0123417
721.028	0.0126111
721.106	0.0128688
721.184	0.0134351
721.262	0.0139356
721.340	0.0143383
721.418	0.0148341
721.496	0.0153567
721.575	0.0157319
721.653	0.0160177
721.731	0.0162790
721.809	0.0163229
721.887	0.0163111
721.965	0.0160513
722.043	0.0157034
722.121	0.0152162
722.200	0.0145332
722.278	0.0140726
722.356	0.0135036
722.434	0.0127543
722.512	0.0122854
722.590	0.0121124
722.668	0.0118630
722.746	0.0116591
722.825	0.0114631
722.903	0.0118419
722.981	0.0121246
723.059	0.0124174
723.137	0.0128714
723.215	0.0134230
723.293	0.0141203
723.371	0.0145781
723.450	0.0149850
723.528	0.0154811
723.606	0.0157695
723.684	0.0159929
723.762	0.0160115
723.840	0.0160271
723.918	0.0158757
723.996	0.0153708
724.075	0.0149538
724.153	0.0146173
724.231	0.0140938
724.309	0.0135618
724.387	0.0131032
724.465	0.0126624
724.543	0.0123801
724.621	0.0122270
724.700	0.0122409
724.778	0.0124055
724.856	0.0124609
724.934	0.0125083
725.012	0.0127832
725.090	0.0131301
725.168	0.0135345
725.246	0.0139037
725.325	0.0141874
725.403	0.0144560
725.481	0.0146223
725.559	0.0148112
725.637	0.0149844
725.715	0.0149027
725.793	0.0149474
725.871	0.0147807
725.950	0.0146614
726.028	0.0144738
726.106	0.0143863
726.184	0.0142776
726.262	0.0140762
726.340	0.0138109
726.418	0.0136910
726.496	0.0136006
726.575	0.0135003
726.653	0.0135111
726.731	0.0134809
726.809	0.0134668
726.887	0.0135545
726.965	0.0134199
727.043	0.0135967
727.121	0.0137232
727.200	0.0137601
727.278	0.0137464
727.356	0.0137759
727.434	0.0138796
727.512	0.0139294
727.590	0.0140065
727.668	0.0140006
727.746	0.0142101
727.825	0.0142471
727.903	0.0141065
727.981	0.0142620
728.059	0.0143603
728.137	0.0142935
728.215	0.0143510
728.293	0.0143135
728.371	0.0143218
728.450	0.0141901
728.528	0.0138464
728.606	0.0140174
728.684	0.0138197
728.762	0.0136738
728.840	0.0136787
728.918	0.0135526
728.996	0.0137249
729.075	0.0137792
729.153	0.0139046
729.231	0.0140224
729.309	0.0140110
729.387	0.0141032
729.465	0.0140709
729.543	0.0140975
729.621	0.0141820
729.700	0.0142475
729.778	0.0142409
729.856	0.0141752
729.934	0.0140026
730.012	0.0141724
730.090	0.0139408
730.168	0.0137469
730.246	0.0135236
730.325	0.0134903
730.403	0.0134943
730.481	0.0133680
730.559	0.0131902
730.637	0.0134005
730.715	0.0134318
730.793	0.0134448
730.871	0.0135262
730.950	0.0135832
731.028	0.0137219
731.106	0.0137608
731.184	0.0139777
731.262	0.0141379
731.340	0.0142904
731.418	0.0145172
731.496	0.0145199
731.575	0.0145421
731.653	0.0146553
731.731	0.0143290
731.809	0.0144425
731.887	0.0142625
731.965	0.0141827
732.043	0.0141275
732.121	0.0139552
732.200	0.0140881
732.278	0.0138047
732.356	0.0137582
732.434	0.0135830
732.512	0.0135404
732.590	0.0133413
732.668	0.0131747
732.746	0.0129607
732.825	0.0128942
732.903	0.0129710
732.981	0.0130791
733.059	0.0129403
733.137	0.0130412
733.215	0.0132246
733.293	0.0133441
733.371	0.0137348
733.450	0.0140652
733.528	0.0142500
733.606	0.0146139
733.684	0.0149638
733.762	0.0149892
733.840	0.0151810
733.918	0.0150813
733.996	0.0151663
734.075	0.0152515
734.153	0.0149622
734.231	0.0146613
734.309	0.0144469
734.387	0.0141618
734.465	0.0138920
734.543	0.0136085
734.621	0.0133025
734.700	0.0131535
734.778	0.0129999
734.856	0.0128596
734.934	0.0129048
735.012	0.0130269
735.090	0.0131612
735.168	0.0133121
735.246	0.0135378
735.325	0.0136855
735.403	0.0140870
735.481	0.0142019
735.559	0.0143483
735.637	0.0144750
735.715	0.0145544
735.793	0.0147673
735.871	0.0147782
735.950	0.0147582
736.028	0.0147012
736.106	0.0149300
736.184	0.0146853
736.262	0.0148209
736.340	0.0146399
736.418	0.0145395
736.496	0.0146241
736.575	0.0146288
736.653	0.0143147
736.731	0.0141138
736.809	0.0139717
736.887	0.0137624
736.965	0.0134810
737.043	0.0132413
737.121	0.0128875
737.200	0.0126312
737.278	0.0124631
737.356	0.0122339
737.434	0.0123834
737.512	0.0122898
737.590	0.0123709
737.668	0.0127140
737.746	0.0130103
737.825	0.0132662
737.903	0.0137875
737.981	0.0141438
738.059	0.0145039
738.137	0.0148251
738.215	0.0152166
738.293	0.0152872
738.371	0.0154886
738.450	0.0156498
738.528	0.0155257
738.606	0.0155733
738.684	0.0154086
738.762	0.0150554
738.840	0.0148151
738.918	0.0144070
738.996	0.0141737
739.075	0.0138790
739.153	0.0134508
739.231	0.0132334
739.309	0.0130087
739.387	0.0128751
739.465	0.0127992
739.543	0.0126850
739.621	0.0126660
739.700	0.0126267
739.778	0.0128737
739.856	0.0130392
739.934	0.0131712
740.012	0.0133712
740.090	0.0134865
740.168	0.0138650
740.246	0.0139645
740.325	0.0143473
740.403	0.0146238
740.481	0.0148332
740.559	0.0148938
740.637	0.0150438
740.715	0.0151713
740.793	0.0152203
740.871	0.0151315
740.950	0.0149983
741.028	0.0148957
741.106	0.0145946
741.184	0.0142577
741.262	0.0140214
741.340	0.0137386
741.418	0.0134279
741.496	0.0132253
741.575	0.0130930
741.653	0.0130902
741.731	0.0127333
741.809	0.0126359
741.887	0.0127357
741.965	0.0129739
742.043	0.0129894
742.121	0.0132256
742.200	0.0133617
742.278	0.0137090
742.356	0.0139832
742.434	0.0141998
742.512	0.0145341
742.590	0.0147430
742.668	0.0148226
742.746	0.0150617
742.825	0.0151337
742.903	0.0151102
742.981	0.0149585
743.059	0.0148415
743.137	0.0148410
743.215	0.0146573
743.293	0.0144559
743.371	0.0142243
743.450	0.0140859
743.528	0.0138958
743.606	0.0136715
743.684	0.0136193
743.762	0.0133164
743.840	0.0134418
743.918	0.0133390
743.996	0.0133016
744.075	0.0133912
744.153	0.0136407
744.231	0.0136286
744.309	0.0137852
744.387	0.0138783
744.465	0.0139829
744.543	0.0139841
744.621	0.0140131
744.700	0.0140358
744.778	0.0140638
744.856	0.0141193
744.934	0.0141579
745.012	0.0140044
745.090	0.0139230
745.168	0.0138078
745.246	0.0139207
745.325	0.0139921
745.403	0.0141277
745.481	0.0141142
745.559	0.0141139
745.637	0.0142519
745.715	0.0141991
745.793	0.0141937
745.871	0.0142420
745.950	0.0142930
746.028	0.0143830
746.106	0.0142168
746.184	0.0143507
746.262	0.0139927
746.340	0.0139073
746.418	0.0138178
746.496	0.0136832
746.575	0.0136314
746.653	0.0134327
746.731	0.0132600
746.809	0.0132742
746.887	0.0131916
746.965	0.0131555
747.043	0.0130956
747.121	0.0132869
747.200	0.0134677
747.278	0.0136238
747.356	0.0136426
747.434	0.0138497
747.512	0.0139746
747.590	0.0144202
747.668	0.0144118
747.746	0.0145089
747.825	0.0146985
747.903	0.0146263
747.981	0.0145515
748.059	0.0145627
748.137	0.0145463
748.215	0.0145515
748.293	0.0141965
748.371	0.0143702
748.450	0.0142857
748.528	0.0139989
748.606	0.0138255
748.684	0.0138721
748.762	0.0136741
748.840	0.0134563
748.918	0.0134894
748.996	0.0133944
749.075	0.0132452
749.153	0.0132516
749.231	0.0132006
749.309	0.0132374
749.387	0.0132230
749.465	0.0132614
749.543	0.0133248
749.621	0.0136541
749.700	0.0136359
749.778	0.0138737
749.856	0.0140662
749.934	0.0144453
750.012	0.0146336
750.090	0.0147681
750.168	0.0148034
750.246	0.0149693
750.325	0.0149947
750.403	0.0149635
750.481	0.0148085
750.559	0.0147671
750.637	0.0144561
750.715	0.0143117
750.793	0.0140948
750.871	0.0139334
750.950	0.0137648
751.028	0.0135442
751.106	0.0133584
751.184	0.0131830
751.262	0.0130244
751.340	0.0129775
751.418	0.0129322
751.496	0.0130530
751.575	0.0130199
751.653	0.0133492
751.731	0.0134772
751.809	0.0135122
751.887	0.0136473
751.965	0.0139967
752.043	0.0140671
752.121	0.0142574
752.200	0.0141309
752.278	0.0143644
752.356	0.0144125
752.434	0.0144260
752.512	0.0143316
752.590	0.0143875
752.668	0.0144646
752.746	0.0142561
752.825	0.0142233
752.903	0.0142561
752.981	0.0141364
753.059	0.0140621
753.137	0.0139054
753.215	0.0139708
753.293	0.0137107
753.371	0.0136800
753.450	0.0135978
753.528	0.0136101
753.606	0.0135415
753.684	0.0133811
753.762	0.0134694
753.840	0.0134234
753.918	0.0133356
753.996	0.0133342
754.075	0.0134624
754.153	0.0135136
754.231	0.0136626
754.309	0.0137014
754.387	0.0136102
754.465	0.0138820
754.543	0.0139129
754.621	0.0141737
754.700	0.0140882
754.778	0.0143020
754.856	0.0144590
754.934	0.0143899
755.012	0.0143742
755.090	0.0143505
755.168	0.0143664
755.246	0.0143391
755.325	0.0143615
755.403	0.0141785
755.481	0.0140019
755.559	0.0139607
755.637	0.0139189
755.715	0.0137643
755.793	0.0138317
755.871	0.0136385
755.950	0.0136664
756.028	0.0137248
756.106	0.0137464
756.184	0.0136756
756.262	0.0136772
756.340	0.0136757
756.418	0.0136861
756.496	0.0138413
756.575	0.0138584
756.653	0.0138708
756.731	0.0140320
756.809	0.0140106
756.887	0.0141002
756.965	0.0141532
757.043	0.0141504
757.121	0.0140215
757.200	0.0140627
757.278	0.0141703
757.356	0.0142032
757.434	0.0141895
757.512	0.0141521
757.590	0.0141851
757.668	0.0141664
757.746	0.0141650
757.825	0.0141934
757.903	0.0141051
757.981	0.0141560
758.059	0.0139190
758.137	0.0139170
758.215	0.0139721
758.293	0.0140978
758.371	0.0139042
758.450	0.0138919
758.528	0.0137014
758.606	0.0136790
758.684	0.0137637
758.762	0.0137019
758.840	0.0136246
758.918	0.0136842
758.996	0.0136349
759.075	0.0136256
759.153	0.0135686
759.231	0.0136187
759.309	0.0135584
759.387	0.0137122
759.465	0.0137399
759.543	0.0139288
759.621	0.0140220
759.700	0.0140230
759.778	0.0139875
759.856	0.0141370
759.934	0.0141436
760.012	0.0145716
760.090	0.0143272
760.168	0.0143253
760.246	0.0142722
760.325	0.0142828
760.403	0.0142615
760.481	0.0142503
760.559	0.0142222
760.637	0.0140527
760.715	0.0139791
760.793	0.0140141
760.871	0.0137338
760.950	0.0138251
761.028	0.0137076
761.106	0.0136726
761.184	0.0135036
761.262	0.0134798
761.340	0.0136129
761.418	0.0135416
761.496	0.0133311
761.575	0.0135892
761.653	0.0135618
761.731	0.0138667
761.809	0.0138866
761.887	0.0138752
761.965	0.0139539
762.043	0.0141366
762.121	0.0141235
762.200	0.0142580
762.278	0.0142829
762.356	0.0143459
762.434	0.0143905
762.512	0.0144161
762.590	0.0143654
762.668	0.0144126
762.746	0.0143845
762.825	0.0143459
762.903	0.0141720
762.981	0.0141906
763.059	0.0139434
763.137	0.0138321
763.215	0.0137717
763.293	0.0137080
763.371	0.0136932
763.450	0.0136356
763.528	0.0134764
763.606	0.0135691
763.684	0.0135960
763.762	0.0135757
763.840	0.0136586
763.918	0.0138332
763.996	0.0138946
764.075	0.0138275
764.153	0.0139823
764.231	0.0140977
764.309	0.0139512
764.387	0.0140511
764.465	0.0142470
764.543	0.0140708
764.621	0.0140574
764.700	0.0141585
