05/04/2022	20:59:22	Ver.	4.1	UNKNOWN
Optical Delay	678.996401	Delta X		0.078125	Sweeps	1	Scan Rate	0/0
Coordinates	Axis 1	NaN	Axis 2	NaN	Axis 3	NaN	Axis 4	NaN	Axis 5	NaN	Axis 6	0.000000
TX Power	0.000000	RX Power	0.000000

678.996	0.0140679
679.075	0.0142023
679.153	0.0140302
679.231	0.0140314
679.309	0.0140952
679.387	0.0140247
679.465	0.0139218
679.543	0.0140210
679.621	0.0140736
679.700	0.0140566
679.778	0.0138612
679.856	0.0141257
679.934	0.0140958
680.012	0.0139962
680.090	0.0139922
680.168	0.0142203
680.246	0.0139834
680.325	0.0139497
680.403	0.0141400
680.481	0.0140501
680.559	0.0140659
680.637	0.0139796
680.715	0.0139999
680.793	0.0141227
680.871	0.0140942
680.950	0.0141189
681.028	0.0140459
681.106	0.0139593
681.184	0.0139725
681.262	0.0140592
681.340	0.0140469
681.418	0.0139857
681.496	0.0140862
681.575	0.0139371
681.653	0.0140087
681.731	0.0139375
681.809	0.0139549
681.887	0.0139256
681.965	0.0140446
682.043	0.0139754
682.121	0.0139555
682.200	0.0139881
682.278	0.0140912
682.356	0.0140607
682.434	0.0141424
682.512	0.0139352
682.590	0.0139571
682.668	0.0140845
682.746	0.0139265
682.825	0.0138866
682.903	0.0140329
682.981	0.0140788
683.059	0.0140694
683.137	0.0139410
683.215	0.0140047
683.293	0.0140874
683.371	0.0139375
683.450	0.0139596
683.528	0.0140978
683.606	0.0142065
683.684	0.0140557
683.762	0.0140924
683.840	0.0141378
683.918	0.0140257
683.996	0.0139622
684.075	0.0140217
684.153	0.0140044
684.231	0.0139353
684.309	0.0141601
684.387	0.0141070
684.465	0.0139888
684.543	0.0139054
684.621	0.0138988
684.700	0.0140891
684.778	0.0140761
684.856	0.0141013
684.934	0.0141255
685.012	0.0141707
685.090	0.0139901
685.168	0.0141573
685.246	0.0140352
685.325	0.0139240
685.403	0.0139646
685.481	0.0140262
685.559	0.0140587
685.637	0.0141103
685.715	0.0140687
685.793	0.0140751
685.871	0.0139186
685.950	0.0139969
686.028	0.0140486
686.106	0.0139989
686.184	0.0141286
686.262	0.0141055
686.340	0.0139450
686.418	0.0140594
686.496	0.0140489
686.575	0.0141341
686.653	0.0141286
686.731	0.0139344
686.809	0.0140358
686.887	0.0140537
686.965	0.0140863
687.043	0.0141860
687.121	0.0140504
687.200	0.0141605
687.278	0.0141640
687.356	0.0138350
687.434	0.0139721
687.512	0.0140373
687.590	0.0141388
687.668	0.0140171
687.746	0.0140120
687.825	0.0139777
687.903	0.0139178
687.981	0.0139540
688.059	0.0140322
688.137	0.0140613
688.215	0.0139251
688.293	0.0140524
688.371	0.0139857
688.450	0.0140592
688.528	0.0140843
688.606	0.0141088
688.684	0.0139300
688.762	0.0140379
688.840	0.0141509
688.918	0.0139822
688.996	0.0140611
689.075	0.0140773
689.153	0.0140714
689.231	0.0139933
689.309	0.0139864
689.387	0.0140038
689.465	0.0139290
689.543	0.0141235
689.621	0.0139570
689.700	0.0139893
689.778	0.0140797
689.856	0.0140729
689.934	0.0141146
690.012	0.0140537
690.090	0.0140118
690.168	0.0140666
690.246	0.0139974
690.325	0.0139719
690.403	0.0141247
690.481	0.0140307
690.559	0.0140537
690.637	0.0141815
690.715	0.0140094
690.793	0.0139580
690.871	0.0139550
690.950	0.0140369
691.028	0.0141138
691.106	0.0140245
691.184	0.0141167
691.262	0.0142011
691.340	0.0141818
691.418	0.0140650
691.496	0.0140928
691.575	0.0139430
691.653	0.0141304
691.731	0.0140858
691.809	0.0141647
691.887	0.0141244
691.965	0.0139734
692.043	0.0140885
692.121	0.0141733
692.200	0.0139618
692.278	0.0140186
692.356	0.0140930
692.434	0.0141181
692.512	0.0139974
692.590	0.0140155
692.668	0.0139171
692.746	0.0140071
692.825	0.0139249
692.903	0.0140159
692.981	0.0140057
693.059	0.0140909
693.137	0.0140319
693.215	0.0141355
693.293	0.0141104
693.371	0.0139604
693.450	0.0139187
693.528	0.0140471
693.606	0.0139707
693.684	0.0140295
693.762	0.0140643
693.840	0.0140581
693.918	0.0139899
693.996	0.0139687
694.075	0.0140237
694.153	0.0139873
694.231	0.0141776
694.309	0.0140978
694.387	0.0140617
694.465	0.0140145
694.543	0.0141193
694.621	0.0139954
694.700	0.0139878
694.778	0.0140540
694.856	0.0140038
694.934	0.0140367
695.012	0.0141375
695.090	0.0141042
695.168	0.0140727
695.246	0.0141985
695.325	0.0140827
695.403	0.0139353
695.481	0.0139607
695.559	0.0141026
695.637	0.0141106
695.715	0.0139971
695.793	0.0140083
695.871	0.0141750
695.950	0.0141278
696.028	0.0141534
696.106	0.0139433
696.184	0.0140604
696.262	0.0140990
696.340	0.0140231
696.418	0.0141039
696.496	0.0140522
696.575	0.0141042
696.653	0.0139661
696.731	0.0139844
696.809	0.0140088
696.887	0.0140572
696.965	0.0140137
697.043	0.0140384
697.121	0.0140954
697.200	0.0141157
697.278	0.0141715
697.356	0.0140224
697.434	0.0141731
697.512	0.0140656
697.590	0.0141015
697.668	0.0140314
697.746	0.0141502
697.825	0.0141194
697.903	0.0141911
697.981	0.0140884
698.059	0.0139968
698.137	0.0140506
698.215	0.0141036
698.293	0.0140620
698.371	0.0140659
698.450	0.0140923
698.528	0.0140446
698.606	0.0141488
698.684	0.0141071
698.762	0.0139574
698.840	0.0141265
698.918	0.0140195
698.996	0.0139919
699.075	0.0142586
699.153	0.0138967
699.231	0.0140618
699.309	0.0139756
699.387	0.0141611
699.465	0.0140479
699.543	0.0140387
699.621	0.0139140
699.700	0.0140642
699.778	0.0140613
699.856	0.0140402
699.934	0.0140510
700.012	0.0139843
700.090	0.0142271
700.168	0.0140948
700.246	0.0139286
700.325	0.0140575
700.403	0.0140039
700.481	0.0138390
700.559	0.0140910
700.637	0.0140298
700.715	0.0141159
700.793	0.0140546
700.871	0.0139414
700.950	0.0140404
701.028	0.0140863
701.106	0.0139970
701.184	0.0140268
701.262	0.0141370
701.340	0.0139633
701.418	0.0140859
701.496	0.0140131
701.575	0.0140477
701.653	0.0140623
701.731	0.0140775
701.809	0.0140287
701.887	0.0139764
701.965	0.0141180
702.043	0.0140406
702.121	0.0141936
702.200	0.0141303
702.278	0.0139757
702.356	0.0139575
702.434	0.0140469
702.512	0.0140456
702.590	0.0139104
702.668	0.0139895
702.746	0.0141319
702.825	0.0140555
702.903	0.0140239
702.981	0.0140041
703.059	0.0140388
703.137	0.0140827
703.215	0.0140710
703.293	0.0141412
703.371	0.0140898
703.450	0.0140826
703.528	0.0138836
703.606	0.0140791
703.684	0.0139465
703.762	0.0141142
703.840	0.0141090
703.918	0.0140209
703.996	0.0141694
704.075	0.0140660
704.153	0.0140569
704.231	0.0138527
704.309	0.0139155
704.387	0.0140717
704.465	0.0141925
704.543	0.0140245
704.621	0.0140222
704.700	0.0140233
704.778	0.0141207
704.856	0.0140475
704.934	0.0141085
705.012	0.0140498
705.090	0.0139995
705.168	0.0139925
705.246	0.0140125
705.325	0.0142222
705.403	0.0140440
705.481	0.0139154
705.559	0.0140726
705.637	0.0140511
705.715	0.0139868
705.793	0.0140408
705.871	0.0139988
705.950	0.0140578
706.028	0.0140455
706.106	0.0140727
706.184	0.0142683
706.262	0.0142294
706.340	0.0140377
706.418	0.0140703
706.496	0.0140955
706.575	0.0139554
706.653	0.0140315
706.731	0.0140298
706.809	0.0140606
706.887	0.0140247
706.965	0.0140211
707.043	0.0140609
707.121	0.0141481
707.200	0.0140903
707.278	0.0139850
707.356	0.0141042
707.434	0.0141902
707.512	0.0141599
707.590	0.0140724
707.668	0.0138609
707.746	0.0136706
707.825	0.0137288
707.903	0.0135934
707.981	0.0136151
708.059	0.0137016
708.137	0.0137498
708.215	0.0139063
708.293	0.0141497
708.371	0.0142651
708.450	0.0143313
708.528	0.0145243
708.606	0.0145821
708.684	0.0143295
708.762	0.0143228
708.840	0.0142617
708.918	0.0141092
708.996	0.0138217
709.075	0.0136792
709.153	0.0135725
709.231	0.0135037
709.309	0.0133202
709.387	0.0133856
709.465	0.0134090
709.543	0.0135706
709.621	0.0137661
709.700	0.0139240
709.778	0.0141922
709.856	0.0144576
709.934	0.0147325
710.012	0.0147497
710.090	0.0148456
710.168	0.0149168
710.246	0.0148434
710.325	0.0146864
710.403	0.0145287
710.481	0.0141423
710.559	0.0138785
710.637	0.0135636
710.715	0.0131602
710.793	0.0129040
710.871	0.0126575
710.950	0.0126906
711.028	0.0127112
711.106	0.0130599
711.184	0.0135429
711.262	0.0141332
711.340	0.0146637
711.418	0.0152312
711.496	0.0157124
711.575	0.0160575
711.653	0.0161512
711.731	0.0160155
711.809	0.0157192
711.887	0.0152736
711.965	0.0147342
712.043	0.0141289
712.121	0.0135691
712.200	0.0130225
712.278	0.0124424
712.356	0.0122323
712.434	0.0118487
712.512	0.0118961
712.590	0.0120160
712.668	0.0124353
712.746	0.0128777
712.825	0.0133353
712.903	0.0138999
712.981	0.0146146
713.059	0.0150638
713.137	0.0153575
713.215	0.0155073
713.293	0.0153001
713.371	0.0151401
713.450	0.0148756
713.528	0.0143024
713.606	0.0139509
713.684	0.0136201
713.762	0.0130073
713.840	0.0126054
713.918	0.0123900
713.996	0.0121974
714.075	0.0122249
714.153	0.0125832
714.231	0.0127419
714.309	0.0134599
714.387	0.0141756
714.465	0.0149468
714.543	0.0154086
714.621	0.0158966
714.700	0.0163671
714.778	0.0162936
714.856	0.0162721
714.934	0.0159584
715.012	0.0155961
715.090	0.0149486
715.168	0.0145231
715.246	0.0139635
715.325	0.0132881
715.403	0.0128421
715.481	0.0124004
715.559	0.0121840
715.637	0.0121156
715.715	0.0123238
715.793	0.0126109
715.871	0.0130547
715.950	0.0135793
716.028	0.0142716
716.106	0.0145315
716.184	0.0149095
716.262	0.0150940
716.340	0.0152608
716.418	0.0152424
716.496	0.0151451
716.575	0.0149905
716.653	0.0146790
716.731	0.0142192
716.809	0.0139639
716.887	0.0137212
716.965	0.0135227
717.043	0.0134388
717.121	0.0134120
717.200	0.0135228
717.278	0.0136790
717.356	0.0137788
717.434	0.0140344
717.512	0.0142030
717.590	0.0144617
717.668	0.0145492
717.746	0.0146889
717.825	0.0147488
717.903	0.0146878
717.981	0.0145851
718.059	0.0145186
718.137	0.0142229
718.215	0.0140681
718.293	0.0137032
718.371	0.0133943
718.450	0.0131133
718.528	0.0129908
718.606	0.0126952
718.684	0.0124060
718.762	0.0122738
718.840	0.0123524
718.918	0.0126040
718.996	0.0128923
719.075	0.0131530
719.153	0.0135644
719.231	0.0140203
719.309	0.0145909
719.387	0.0150832
719.465	0.0155837
719.543	0.0159757
719.621	0.0162486
719.700	0.0163055
719.778	0.0163416
719.856	0.0158322
719.934	0.0156910
720.012	0.0153320
720.090	0.0148276
720.168	0.0142795
720.246	0.0138975
720.325	0.0133133
720.403	0.0127722
720.481	0.0123135
720.559	0.0120419
720.637	0.0119037
720.715	0.0116987
720.793	0.0118167
720.871	0.0122266
720.950	0.0126165
721.028	0.0132304
721.106	0.0138020
721.184	0.0143684
721.262	0.0150179
721.340	0.0154615
721.418	0.0159711
721.496	0.0162084
721.575	0.0164732
721.653	0.0166245
721.731	0.0164468
721.809	0.0162897
721.887	0.0157695
721.965	0.0154132
722.043	0.0147502
722.121	0.0141520
722.200	0.0136350
722.278	0.0129258
722.356	0.0126778
722.434	0.0121266
722.512	0.0118466
722.590	0.0117309
722.668	0.0118243
722.746	0.0119161
722.825	0.0121108
722.903	0.0123665
722.981	0.0128016
723.059	0.0133180
723.137	0.0136244
723.215	0.0142760
723.293	0.0147612
723.371	0.0151575
723.450	0.0154587
723.528	0.0158472
723.606	0.0158672
723.684	0.0159700
723.762	0.0157666
723.840	0.0154735
723.918	0.0152120
723.996	0.0147239
724.075	0.0144297
724.153	0.0139135
724.231	0.0135625
724.309	0.0133086
724.387	0.0129769
724.465	0.0127630
724.543	0.0125449
724.621	0.0124017
724.700	0.0123381
724.778	0.0126060
724.856	0.0128784
724.934	0.0129932
725.012	0.0132036
725.090	0.0135654
725.168	0.0138094
725.246	0.0142043
725.325	0.0143524
725.403	0.0145278
725.481	0.0146828
725.559	0.0147549
725.637	0.0149377
725.715	0.0148758
725.793	0.0148934
725.871	0.0148816
725.950	0.0146587
726.028	0.0146208
726.106	0.0145531
726.184	0.0144405
726.262	0.0143162
726.340	0.0141879
726.418	0.0141093
726.496	0.0140428
726.575	0.0138499
726.653	0.0137668
726.731	0.0135163
726.809	0.0135499
726.887	0.0136006
726.965	0.0134360
727.043	0.0134191
727.121	0.0134234
727.200	0.0135205
727.278	0.0137193
727.356	0.0136734
727.434	0.0138353
727.512	0.0141079
727.590	0.0141822
727.668	0.0144640
727.746	0.0146594
727.825	0.0145771
727.903	0.0147353
727.981	0.0146418
728.059	0.0145374
728.137	0.0145565
728.215	0.0145747
728.293	0.0144094
728.371	0.0140410
728.450	0.0139527
728.528	0.0139413
728.606	0.0138570
728.684	0.0137327
728.762	0.0137305
728.840	0.0136791
728.918	0.0138882
728.996	0.0140016
729.075	0.0140887
729.153	0.0140274
729.231	0.0140248
729.309	0.0140756
729.387	0.0140173
729.465	0.0141696
729.543	0.0139962
729.621	0.0139749
729.700	0.0138992
729.778	0.0139394
729.856	0.0138783
729.934	0.0136794
730.012	0.0138460
730.090	0.0138341
730.168	0.0135824
730.246	0.0135971
730.325	0.0138052
730.403	0.0137900
730.481	0.0138811
730.559	0.0139162
730.637	0.0138390
730.715	0.0138522
730.793	0.0138612
730.871	0.0139319
730.950	0.0139883
731.028	0.0139843
731.106	0.0140890
731.184	0.0143588
731.262	0.0143536
731.340	0.0143467
731.418	0.0144124
731.496	0.0144391
731.575	0.0143768
731.653	0.0144801
731.731	0.0145747
731.809	0.0144934
731.887	0.0145350
731.965	0.0145203
732.043	0.0142726
732.121	0.0141141
732.200	0.0138917
732.278	0.0138123
732.356	0.0135147
732.434	0.0131343
732.512	0.0130157
732.590	0.0129626
732.668	0.0128104
732.746	0.0129771
732.825	0.0128835
732.903	0.0128591
732.981	0.0130804
733.059	0.0132362
733.137	0.0135871
733.215	0.0139103
733.293	0.0141791
733.371	0.0145341
733.450	0.0147362
733.528	0.0149895
733.606	0.0151611
733.684	0.0152579
733.762	0.0154332
733.840	0.0155854
733.918	0.0151536
733.996	0.0150842
734.075	0.0150250
734.153	0.0145877
734.231	0.0145486
734.309	0.0142475
734.387	0.0139287
734.465	0.0137035
734.543	0.0134417
734.621	0.0133821
734.700	0.0133715
734.778	0.0132735
734.856	0.0131728
734.934	0.0132583
735.012	0.0135125
735.090	0.0135287
735.168	0.0136529
735.246	0.0137755
735.325	0.0137877
735.403	0.0139075
735.481	0.0138609
735.559	0.0140176
735.637	0.0140956
735.715	0.0143281
735.793	0.0144695
735.871	0.0145409
735.950	0.0147708
736.028	0.0148811
736.106	0.0150263
736.184	0.0150814
736.262	0.0150576
736.340	0.0149313
736.418	0.0148049
736.496	0.0148469
736.575	0.0146555
736.653	0.0142631
736.731	0.0138393
736.809	0.0136340
736.887	0.0131036
736.965	0.0128632
737.043	0.0127679
737.121	0.0125456
737.200	0.0122498
737.278	0.0123685
737.356	0.0124515
737.434	0.0126263
737.512	0.0127984
737.590	0.0130558
737.668	0.0135606
737.746	0.0138240
737.825	0.0140522
737.903	0.0144801
737.981	0.0147313
738.059	0.0151155
738.137	0.0153074
738.215	0.0156072
738.293	0.0155441
738.371	0.0157608
738.450	0.0157690
738.528	0.0156990
738.606	0.0154310
738.684	0.0151308
738.762	0.0149217
738.840	0.0146307
738.918	0.0143489
738.996	0.0139792
739.075	0.0138884
739.153	0.0136430
739.231	0.0133035
739.309	0.0130656
739.387	0.0129465
739.465	0.0128400
739.543	0.0126646
739.621	0.0127428
739.700	0.0128028
739.778	0.0127737
739.856	0.0129447
739.934	0.0132348
740.012	0.0136416
740.090	0.0139981
740.168	0.0142638
740.246	0.0146092
740.325	0.0149339
740.403	0.0151997
740.481	0.0152816
740.559	0.0154843
740.637	0.0155335
740.715	0.0156438
740.793	0.0155145
740.871	0.0152740
740.950	0.0150866
741.028	0.0147572
741.106	0.0143288
741.184	0.0143952
741.262	0.0139022
741.340	0.0135433
741.418	0.0133334
741.496	0.0131432
741.575	0.0129828
741.653	0.0127971
741.731	0.0128387
741.809	0.0128838
741.887	0.0129895
741.965	0.0131672
742.043	0.0132922
742.121	0.0134764
742.200	0.0137059
742.278	0.0138763
742.356	0.0143429
742.434	0.0144144
742.512	0.0147549
742.590	0.0148661
742.668	0.0149909
742.746	0.0151160
742.825	0.0150494
742.903	0.0151823
742.981	0.0150275
743.059	0.0149123
743.137	0.0145727
743.215	0.0144205
743.293	0.0143539
743.371	0.0140871
743.450	0.0140057
743.528	0.0137650
743.606	0.0137466
743.684	0.0136998
743.762	0.0135903
743.840	0.0136549
743.918	0.0136961
743.996	0.0134962
744.075	0.0134982
744.153	0.0137453
744.231	0.0137701
744.309	0.0137032
744.387	0.0137546
744.465	0.0138731
744.543	0.0137301
744.621	0.0137064
744.700	0.0137135
744.778	0.0138902
744.856	0.0138534
744.934	0.0137890
745.012	0.0138186
745.090	0.0139716
745.168	0.0140771
745.246	0.0140897
745.325	0.0140650
745.403	0.0144028
745.481	0.0146996
745.559	0.0147089
745.637	0.0147960
745.715	0.0146602
745.793	0.0146812
745.871	0.0146693
745.950	0.0145860
746.028	0.0144537
746.106	0.0143483
746.184	0.0140195
746.262	0.0139520
746.340	0.0138007
746.418	0.0136263
746.496	0.0133414
746.575	0.0131004
746.653	0.0131634
746.731	0.0132478
746.809	0.0132304
746.887	0.0132056
746.965	0.0132243
747.043	0.0134171
747.121	0.0136584
747.200	0.0136992
747.278	0.0137924
747.356	0.0138998
747.434	0.0141560
747.512	0.0143377
747.590	0.0144642
747.668	0.0146319
747.746	0.0147384
747.825	0.0146107
747.903	0.0147506
747.981	0.0147663
748.059	0.0147732
748.137	0.0147835
748.215	0.0146084
748.293	0.0145580
748.371	0.0145272
748.450	0.0144207
748.528	0.0142403
748.606	0.0138602
748.684	0.0139230
748.762	0.0136299
748.840	0.0134129
748.918	0.0132111
748.996	0.0131214
749.075	0.0130653
749.153	0.0129549
749.231	0.0130578
749.309	0.0130367
749.387	0.0132548
749.465	0.0133071
749.543	0.0136550
749.621	0.0138151
749.700	0.0139735
749.778	0.0142952
749.856	0.0145124
749.934	0.0147755
750.012	0.0148909
750.090	0.0151713
750.168	0.0151479
750.246	0.0151772
750.325	0.0152303
750.403	0.0149744
750.481	0.0148986
750.559	0.0147256
750.637	0.0144806
750.715	0.0142433
750.793	0.0139872
750.871	0.0139445
750.950	0.0135870
751.028	0.0135516
751.106	0.0133913
751.184	0.0132182
751.262	0.0131554
751.340	0.0131963
751.418	0.0130801
751.496	0.0132117
751.575	0.0132724
751.653	0.0134106
751.731	0.0136263
751.809	0.0135449
751.887	0.0138770
751.965	0.0140591
752.043	0.0140230
752.121	0.0142311
752.200	0.0143698
752.278	0.0145765
752.356	0.0145197
752.434	0.0145802
752.512	0.0146959
752.590	0.0148469
752.668	0.0148656
752.746	0.0147152
752.825	0.0147583
752.903	0.0146027
752.981	0.0145848
753.059	0.0144105
753.137	0.0141640
753.215	0.0140862
753.293	0.0138622
753.371	0.0138804
753.450	0.0137066
753.528	0.0134340
753.606	0.0134281
753.684	0.0134215
753.762	0.0132639
753.840	0.0132471
753.918	0.0134147
753.996	0.0135608
754.075	0.0134220
754.153	0.0135638
754.231	0.0135526
754.309	0.0138702
754.387	0.0139053
754.465	0.0141911
754.543	0.0142905
754.621	0.0144385
754.700	0.0144956
754.778	0.0145412
754.856	0.0146985
754.934	0.0147385
755.012	0.0147607
755.090	0.0146899
755.168	0.0146104
755.246	0.0144999
755.325	0.0145218
755.403	0.0143809
755.481	0.0143491
755.559	0.0140931
755.637	0.0139820
755.715	0.0140133
755.793	0.0139074
755.871	0.0138529
755.950	0.0138612
756.028	0.0137819
756.106	0.0137851
756.184	0.0138776
756.262	0.0136930
756.340	0.0137737
756.418	0.0138301
756.496	0.0138007
756.575	0.0137556
756.653	0.0138585
756.731	0.0138759
756.809	0.0138779
756.887	0.0139336
756.965	0.0139738
757.043	0.0140237
757.121	0.0139806
757.200	0.0141336
757.278	0.0142110
757.356	0.0142377
757.434	0.0142206
757.512	0.0143163
757.590	0.0143079
757.668	0.0142348
757.746	0.0144174
757.825	0.0143808
757.903	0.0142831
757.981	0.0143845
758.059	0.0142944
758.137	0.0143003
758.215	0.0142244
758.293	0.0140383
758.371	0.0140195
758.450	0.0139045
758.528	0.0138384
758.606	0.0137798
758.684	0.0136832
758.762	0.0136986
758.840	0.0136133
758.918	0.0136279
758.996	0.0134747
759.075	0.0134326
759.153	0.0136497
759.231	0.0135815
759.309	0.0136592
759.387	0.0138357
759.465	0.0140965
759.543	0.0139799
759.621	0.0140724
759.700	0.0140485
759.778	0.0141824
759.856	0.0144730
759.934	0.0145933
760.012	0.0145203
760.090	0.0145861
760.168	0.0146869
760.246	0.0145932
760.325	0.0145374
760.403	0.0146255
760.481	0.0145203
760.559	0.0144303
760.637	0.0143324
760.715	0.0142912
760.793	0.0141232
760.871	0.0139846
760.950	0.0137797
761.028	0.0138388
761.106	0.0136111
761.184	0.0137471
761.262	0.0134903
761.340	0.0135305
761.418	0.0135271
761.496	0.0136466
761.575	0.0136848
761.653	0.0135880
761.731	0.0138759
761.809	0.0140289
761.887	0.0139439
761.965	0.0140376
762.043	0.0142696
762.121	0.0143383
762.200	0.0142435
762.278	0.0145163
762.356	0.0145294
762.434	0.0145468
762.512	0.0147752
762.590	0.0147552
762.668	0.0144003
762.746	0.0142905
762.825	0.0142605
762.903	0.0145060
762.981	0.0140916
763.059	0.0139611
763.137	0.0139844
763.215	0.0139684
763.293	0.0138274
763.371	0.0138241
763.450	0.0137836
763.528	0.0137541
763.606	0.0138919
763.684	0.0138504
763.762	0.0137754
763.840	0.0139137
763.918	0.0138134
763.996	0.0139584
764.075	0.0139026
764.153	0.0139369
764.231	0.0141363
764.309	0.0142029
764.387	0.0141101
764.465	0.0142146
764.543	0.0141508
764.621	0.0142669
764.700	0.0142294
