05/04/2022	20:59:47	Ver.	4.1	UNKNOWN
Optical Delay	678.996401	Delta X		0.078125	Sweeps	1	Scan Rate	0/0
Coordinates	Axis 1	NaN	Axis 2	NaN	Axis 3	NaN	Axis 4	NaN	Axis 5	NaN	Axis 6	0.000000
TX Power	0.000000	RX Power	0.000000

678.996	0.0142577
679.075	0.0143050
679.153	0.0143415
679.231	0.0141023
679.309	0.0142159
679.387	0.0143745
679.465	0.0141822
679.543	0.0143292
679.621	0.0142716
679.700	0.0141064
679.778	0.0141935
679.856	0.0143300
679.934	0.0141656
680.012	0.0142279
680.090	0.0142058
680.168	0.0141747
680.246	0.0141953
680.325	0.0142386
680.403	0.0144540
680.481	0.0141771
680.559	0.0140770
680.637	0.0142809
680.715	0.0142345
680.793	0.0142085
680.871	0.0142687
680.950	0.0142926
681.028	0.0143349
681.106	0.0142587
681.184	0.0141461
681.262	0.0142491
681.340	0.0142168
681.418	0.0143480
681.496	0.0143613
681.575	0.0141892
681.653	0.0142501
681.731	0.0143271
681.809	0.0143047
681.887	0.0142448
681.965	0.0143234
682.043	0.0142248
682.121	0.0142236
682.200	0.0140874
682.278	0.0141366
682.356	0.0141409
682.434	0.0141959
682.512	0.0141363
682.590	0.0143429
682.668	0.0141910
682.746	0.0142130
682.825	0.0143444
682.903	0.0142520
682.981	0.0142450
683.059	0.0141904
683.137	0.0141782
683.215	0.0142496
683.293	0.0143764
683.371	0.0142580
683.450	0.0142284
683.528	0.0143064
683.606	0.0142699
683.684	0.0141832
683.762	0.0142226
683.840	0.0142594
683.918	0.0141719
683.996	0.0141709
684.075	0.0141749
684.153	0.0142216
684.231	0.0141528
684.309	0.0143092
684.387	0.0141447
684.465	0.0142879
684.543	0.0143203
684.621	0.0142050
684.700	0.0142401
684.778	0.0141551
684.856	0.0142679
684.934	0.0144176
685.012	0.0142798
685.090	0.0142709
685.168	0.0142301
685.246	0.0142735
685.325	0.0142511
685.403	0.0141860
685.481	0.0143510
685.559	0.0143314
685.637	0.0141930
685.715	0.0142684
685.793	0.0142103
685.871	0.0142971
685.950	0.0143090
686.028	0.0141944
686.106	0.0142493
686.184	0.0141767
686.262	0.0140965
686.340	0.0142386
686.418	0.0142064
686.496	0.0142207
686.575	0.0142848
686.653	0.0142466
686.731	0.0141919
686.809	0.0140274
686.887	0.0141492
686.965	0.0142112
687.043	0.0141886
687.121	0.0141863
687.200	0.0142416
687.278	0.0141177
687.356	0.0141322
687.434	0.0141712
687.512	0.0142104
687.590	0.0142451
687.668	0.0142464
687.746	0.0141963
687.825	0.0141966
687.903	0.0142248
687.981	0.0142694
688.059	0.0143753
688.137	0.0140123
688.215	0.0143285
688.293	0.0142794
688.371	0.0142495
688.450	0.0143192
688.528	0.0141283
688.606	0.0142534
688.684	0.0142534
688.762	0.0142666
688.840	0.0141864
688.918	0.0141396
688.996	0.0142911
689.075	0.0143367
689.153	0.0142332
689.231	0.0143436
689.309	0.0141807
689.387	0.0141495
689.465	0.0142326
689.543	0.0141660
689.621	0.0142786
689.700	0.0142347
689.778	0.0142984
689.856	0.0143580
689.934	0.0142192
690.012	0.0141750
690.090	0.0142386
690.168	0.0143101
690.246	0.0141900
690.325	0.0143006
690.403	0.0142247
690.481	0.0141080
690.559	0.0143510
690.637	0.0143044
690.715	0.0141685
690.793	0.0142747
690.871	0.0141841
690.950	0.0142132
691.028	0.0143127
691.106	0.0141735
691.184	0.0140765
691.262	0.0143272
691.340	0.0142251
691.418	0.0142001
691.496	0.0142094
691.575	0.0143856
691.653	0.0143439
691.731	0.0141730
691.809	0.0141415
691.887	0.0141615
691.965	0.0143282
692.043	0.0144214
692.121	0.0142828
692.200	0.0142348
692.278	0.0141042
692.356	0.0143223
692.434	0.0142321
692.512	0.0143067
692.590	0.0142593
692.668	0.0142392
692.746	0.0143047
692.825	0.0141998
692.903	0.0141506
692.981	0.0142045
693.059	0.0141788
693.137	0.0142071
693.215	0.0142277
693.293	0.0144476
693.371	0.0142303
693.450	0.0142612
693.528	0.0143328
693.606	0.0141914
693.684	0.0141399
693.762	0.0142641
693.840	0.0143541
693.918	0.0141460
693.996	0.0143095
694.075	0.0142290
694.153	0.0141906
694.231	0.0143142
694.309	0.0142185
694.387	0.0142487
694.465	0.0143609
694.543	0.0143764
694.621	0.0142393
694.700	0.0142783
694.778	0.0141659
694.856	0.0142201
694.934	0.0141306
695.012	0.0142549
695.090	0.0142256
695.168	0.0143436
695.246	0.0143241
695.325	0.0143122
695.403	0.0142741
695.481	0.0142639
695.559	0.0143457
695.637	0.0143432
695.715	0.0142213
695.793	0.0141768
695.871	0.0142570
695.950	0.0142411
696.028	0.0142436
696.106	0.0142989
696.184	0.0142999
696.262	0.0143403
696.340	0.0142751
696.418	0.0141275
696.496	0.0142575
696.575	0.0142241
696.653	0.0142460
696.731	0.0142597
696.809	0.0142182
696.887	0.0142034
696.965	0.0141708
697.043	0.0142828
697.121	0.0142809
697.200	0.0142892
697.278	0.0142710
697.356	0.0143429
697.434	0.0143379
697.512	0.0143252
697.590	0.0141811
697.668	0.0141764
697.746	0.0143854
697.825	0.0142821
697.903	0.0142238
697.981	0.0142470
698.059	0.0141469
698.137	0.0142985
698.215	0.0143748
698.293	0.0143175
698.371	0.0142019
698.450	0.0142873
698.528	0.0142163
698.606	0.0141777
698.684	0.0143503
698.762	0.0142311
698.840	0.0142337
698.918	0.0142769
698.996	0.0141433
699.075	0.0141318
699.153	0.0142398
699.231	0.0143179
699.309	0.0143297
699.387	0.0142250
699.465	0.0142838
699.543	0.0142492
699.621	0.0142861
699.700	0.0143273
699.778	0.0141861
699.856	0.0141364
699.934	0.0143327
700.012	0.0142952
700.090	0.0141877
700.168	0.0143932
700.246	0.0143653
700.325	0.0142192
700.403	0.0141809
700.481	0.0141782
700.559	0.0142083
700.637	0.0142607
700.715	0.0144117
700.793	0.0140827
700.871	0.0143184
700.950	0.0143507
701.028	0.0143320
701.106	0.0142703
701.184	0.0142194
701.262	0.0142381
701.340	0.0142184
701.418	0.0143283
701.496	0.0142694
701.575	0.0142303
701.653	0.0140885
701.731	0.0142643
701.809	0.0142712
701.887	0.0142175
701.965	0.0143599
702.043	0.0141031
702.121	0.0142480
702.200	0.0141879
702.278	0.0142630
702.356	0.0141833
702.434	0.0142301
702.512	0.0142216
702.590	0.0143860
702.668	0.0143323
702.746	0.0142714
702.825	0.0142950
702.903	0.0142651
702.981	0.0142377
703.059	0.0142256
703.137	0.0141856
703.215	0.0143104
703.293	0.0143607
703.371	0.0142766
703.450	0.0141792
703.528	0.0142509
703.606	0.0141731
703.684	0.0141187
703.762	0.0142021
703.840	0.0142287
703.918	0.0142215
703.996	0.0142337
704.075	0.0141560
704.153	0.0143738
704.231	0.0143040
704.309	0.0140852
704.387	0.0141161
704.465	0.0141550
704.543	0.0143002
704.621	0.0143700
704.700	0.0142090
704.778	0.0143401
704.856	0.0143700
704.934	0.0142395
705.012	0.0143396
705.090	0.0141917
705.168	0.0141819
705.246	0.0141285
705.325	0.0141534
705.403	0.0143373
705.481	0.0141915
705.559	0.0141914
705.637	0.0142688
705.715	0.0142016
705.793	0.0143604
705.871	0.0143480
705.950	0.0143443
706.028	0.0143987
706.106	0.0143467
706.184	0.0142495
706.262	0.0142709
706.340	0.0142625
706.418	0.0142042
706.496	0.0141619
706.575	0.0142083
706.653	0.0143181
706.731	0.0142707
706.809	0.0142081
706.887	0.0143424
706.965	0.0143263
707.043	0.0143755
707.121	0.0144820
707.200	0.0144009
707.278	0.0143900
707.356	0.0142152
707.434	0.0142226
707.512	0.0141324
707.590	0.0141050
707.668	0.0138621
707.746	0.0138294
707.825	0.0138141
707.903	0.0139916
707.981	0.0141441
708.059	0.0142255
708.137	0.0145304
708.215	0.0146991
708.293	0.0146819
708.371	0.0146989
708.450	0.0147694
708.528	0.0145851
708.606	0.0143877
708.684	0.0142782
708.762	0.0141736
708.840	0.0140170
708.918	0.0138108
708.996	0.0137485
709.075	0.0135767
709.153	0.0135094
709.231	0.0135696
709.309	0.0135100
709.387	0.0135873
709.465	0.0137003
709.543	0.0140994
709.621	0.0144447
709.700	0.0146985
709.778	0.0150557
709.856	0.0152319
709.934	0.0153371
710.012	0.0153520
710.090	0.0151447
710.168	0.0149030
710.246	0.0146188
710.325	0.0143644
710.403	0.0139289
710.481	0.0135383
710.559	0.0131985
710.637	0.0128021
710.715	0.0126786
710.793	0.0127725
710.871	0.0127654
710.950	0.0130756
711.028	0.0136609
711.106	0.0143279
711.184	0.0149689
711.262	0.0155791
711.340	0.0159616
711.418	0.0164766
711.496	0.0165320
711.575	0.0166197
711.653	0.0163293
711.731	0.0157441
711.809	0.0150517
711.887	0.0144920
711.965	0.0137534
712.043	0.0130488
712.121	0.0126805
712.200	0.0122333
712.278	0.0119679
712.356	0.0118501
712.434	0.0119458
712.512	0.0123697
712.590	0.0126680
712.668	0.0132875
712.746	0.0138757
712.825	0.0144347
712.903	0.0150220
712.981	0.0155340
713.059	0.0157128
713.137	0.0157108
713.215	0.0157718
713.293	0.0154376
713.371	0.0149672
713.450	0.0145781
713.528	0.0140975
713.606	0.0135385
713.684	0.0131349
713.762	0.0129800
713.840	0.0126729
713.918	0.0125136
713.996	0.0127475
714.075	0.0132088
714.153	0.0135551
714.231	0.0139901
714.309	0.0146877
714.387	0.0154018
714.465	0.0158695
714.543	0.0161954
714.621	0.0162920
714.700	0.0163922
714.778	0.0160099
714.856	0.0155861
714.934	0.0149004
715.012	0.0145467
715.090	0.0141891
715.168	0.0135234
715.246	0.0132172
715.325	0.0127261
715.403	0.0125554
715.481	0.0124988
715.559	0.0125325
715.637	0.0129775
715.715	0.0132978
715.793	0.0136835
715.871	0.0143603
715.950	0.0149199
716.028	0.0152079
716.106	0.0155073
716.184	0.0156593
716.262	0.0155569
716.340	0.0155756
716.418	0.0152684
716.496	0.0149670
716.575	0.0146828
716.653	0.0143658
716.731	0.0139430
716.809	0.0135339
716.887	0.0134101
716.965	0.0134216
717.043	0.0133259
717.121	0.0133925
717.200	0.0136800
717.278	0.0139045
717.356	0.0140874
717.434	0.0143960
717.512	0.0148528
717.590	0.0150510
717.668	0.0151267
717.746	0.0151882
717.825	0.0152795
717.903	0.0150163
717.981	0.0150069
718.059	0.0147204
718.137	0.0145243
718.215	0.0141380
718.293	0.0135732
718.371	0.0132279
718.450	0.0128607
718.528	0.0124844
718.606	0.0123302
718.684	0.0121651
718.762	0.0122871
718.840	0.0124202
718.918	0.0129042
718.996	0.0133123
719.075	0.0138737
719.153	0.0143813
719.231	0.0149854
719.309	0.0154840
719.387	0.0159278
719.465	0.0165904
719.543	0.0167298
719.621	0.0168487
719.700	0.0167791
719.778	0.0167457
719.856	0.0163234
719.934	0.0157842
720.012	0.0152010
720.090	0.0146069
720.168	0.0139691
720.246	0.0133923
720.325	0.0128172
720.403	0.0123576
720.481	0.0121042
720.559	0.0118932
720.637	0.0117365
720.715	0.0118642
720.793	0.0122810
720.871	0.0125467
720.950	0.0127912
721.028	0.0136019
721.106	0.0143382
721.184	0.0148610
721.262	0.0155815
721.340	0.0162062
721.418	0.0165839
721.496	0.0167596
721.575	0.0168672
721.653	0.0166695
721.731	0.0166709
721.809	0.0163707
721.887	0.0159695
721.965	0.0154480
722.043	0.0148348
722.121	0.0142429
722.200	0.0136324
722.278	0.0130099
722.356	0.0126772
722.434	0.0121345
722.512	0.0119646
722.590	0.0120116
722.668	0.0119481
722.746	0.0120235
722.825	0.0121804
722.903	0.0127871
722.981	0.0131568
723.059	0.0136365
723.137	0.0140973
723.215	0.0145528
723.293	0.0149216
723.371	0.0154135
723.450	0.0156621
723.528	0.0159011
723.606	0.0159799
723.684	0.0159956
723.762	0.0157520
723.840	0.0156749
723.918	0.0152378
723.996	0.0149281
724.075	0.0146561
724.153	0.0142570
724.231	0.0138139
724.309	0.0135715
724.387	0.0132932
724.465	0.0130019
724.543	0.0130016
724.621	0.0130127
724.700	0.0129202
724.778	0.0129839
724.856	0.0131651
724.934	0.0132227
725.012	0.0135331
725.090	0.0138548
725.168	0.0138937
725.246	0.0141959
725.325	0.0143970
725.403	0.0146127
725.481	0.0148006
725.559	0.0149056
725.637	0.0149539
725.715	0.0150686
725.793	0.0151064
725.871	0.0151951
725.950	0.0152379
726.028	0.0150435
726.106	0.0149754
726.184	0.0148094
726.262	0.0147358
726.340	0.0145535
726.418	0.0143011
726.496	0.0143480
726.575	0.0141670
726.653	0.0137778
726.731	0.0136484
726.809	0.0135683
726.887	0.0134783
726.965	0.0134866
727.043	0.0133405
727.121	0.0132896
727.200	0.0135123
727.278	0.0137449
727.356	0.0139066
727.434	0.0140742
727.512	0.0143512
727.590	0.0144717
727.668	0.0145979
727.746	0.0147436
727.825	0.0149395
727.903	0.0150584
727.981	0.0150132
728.059	0.0148469
728.137	0.0147268
728.215	0.0145280
728.293	0.0145421
728.371	0.0143832
728.450	0.0141438
728.528	0.0141026
728.606	0.0138004
728.684	0.0138533
728.762	0.0137475
728.840	0.0138137
728.918	0.0138070
728.996	0.0139771
729.075	0.0140958
729.153	0.0143254
729.231	0.0142220
729.309	0.0141875
729.387	0.0142125
729.465	0.0141211
729.543	0.0140004
729.621	0.0141255
729.700	0.0140745
729.778	0.0140135
729.856	0.0140420
729.934	0.0139400
730.012	0.0140427
730.090	0.0141249
730.168	0.0140762
730.246	0.0142345
730.325	0.0142175
730.403	0.0143379
730.481	0.0142455
730.559	0.0143510
730.637	0.0143034
730.715	0.0143606
730.793	0.0142177
730.871	0.0142303
730.950	0.0141821
731.028	0.0141022
731.106	0.0141295
731.184	0.0140416
731.262	0.0141534
731.340	0.0143079
731.418	0.0144028
731.496	0.0144441
731.575	0.0147519
731.653	0.0148416
731.731	0.0148743
731.809	0.0149053
731.887	0.0149100
731.965	0.0149022
732.043	0.0147140
732.121	0.0145483
732.200	0.0142915
732.278	0.0139004
732.356	0.0137556
732.434	0.0134850
732.512	0.0132983
732.590	0.0130360
732.668	0.0130124
732.746	0.0129161
732.825	0.0128893
732.903	0.0131750
732.981	0.0132924
733.059	0.0137302
733.137	0.0139890
733.215	0.0142757
733.293	0.0145231
733.371	0.0148515
733.450	0.0150982
733.528	0.0152828
733.606	0.0153671
733.684	0.0154125
733.762	0.0154113
733.840	0.0152799
733.918	0.0152021
733.996	0.0151900
734.075	0.0149691
734.153	0.0147973
734.231	0.0146255
734.309	0.0143872
734.387	0.0142191
734.465	0.0142277
734.543	0.0140627
734.621	0.0138012
734.700	0.0138647
734.778	0.0138072
734.856	0.0136419
734.934	0.0136790
735.012	0.0136607
735.090	0.0135503
735.168	0.0136376
735.246	0.0136433
735.325	0.0134865
735.403	0.0135468
735.481	0.0137135
735.559	0.0137196
735.637	0.0138615
735.715	0.0140803
735.793	0.0142822
735.871	0.0145468
735.950	0.0148091
736.028	0.0151267
736.106	0.0152504
736.184	0.0154344
736.262	0.0155194
736.340	0.0153873
736.418	0.0151360
736.496	0.0150717
736.575	0.0147565
736.653	0.0143569
736.731	0.0140295
736.809	0.0137806
736.887	0.0135462
736.965	0.0132591
737.043	0.0130049
737.121	0.0129102
737.200	0.0126450
737.278	0.0126299
737.356	0.0128574
737.434	0.0129630
737.512	0.0131747
737.590	0.0134330
737.668	0.0135691
737.746	0.0139221
737.825	0.0143597
737.903	0.0145887
737.981	0.0150270
738.059	0.0150743
738.137	0.0153207
738.215	0.0154168
738.293	0.0156628
738.371	0.0156722
738.450	0.0157156
738.528	0.0155443
738.606	0.0154716
738.684	0.0153854
738.762	0.0151964
738.840	0.0149497
738.918	0.0147334
738.996	0.0144234
739.075	0.0143259
739.153	0.0139062
739.231	0.0136937
739.309	0.0134069
739.387	0.0134559
739.465	0.0130782
739.543	0.0128773
739.621	0.0127744
739.700	0.0127945
739.778	0.0129836
739.856	0.0129903
739.934	0.0134262
740.012	0.0136686
740.090	0.0139280
740.168	0.0143813
740.246	0.0146270
740.325	0.0150459
740.403	0.0154933
740.481	0.0155901
740.559	0.0155524
740.637	0.0157468
740.715	0.0156947
740.793	0.0155786
740.871	0.0154050
740.950	0.0151185
741.028	0.0148368
741.106	0.0146208
741.184	0.0143189
741.262	0.0139811
741.340	0.0138442
741.418	0.0135833
741.496	0.0133659
741.575	0.0132608
741.653	0.0131683
741.731	0.0130821
741.809	0.0131786
741.887	0.0131467
741.965	0.0134662
742.043	0.0136423
742.121	0.0137920
742.200	0.0140820
742.278	0.0143395
742.356	0.0143684
742.434	0.0147179
742.512	0.0149419
742.590	0.0148775
742.668	0.0150540
742.746	0.0151376
742.825	0.0150887
742.903	0.0149426
742.981	0.0148834
743.059	0.0147743
743.137	0.0147685
743.215	0.0146397
743.293	0.0145239
743.371	0.0144448
743.450	0.0144063
743.528	0.0142587
743.606	0.0141860
743.684	0.0140579
743.762	0.0138909
743.840	0.0139918
743.918	0.0140387
743.996	0.0139187
744.075	0.0139633
744.153	0.0140678
744.231	0.0140357
744.309	0.0137649
744.387	0.0138705
744.465	0.0136710
744.543	0.0136618
744.621	0.0137202
744.700	0.0136199
744.778	0.0137338
744.856	0.0139217
744.934	0.0140024
745.012	0.0140708
745.090	0.0141121
745.168	0.0143027
745.246	0.0145354
745.325	0.0147545
745.403	0.0149049
745.481	0.0150282
745.559	0.0152158
745.637	0.0150239
745.715	0.0151586
745.793	0.0151131
745.871	0.0151926
745.950	0.0149067
746.028	0.0146323
746.106	0.0144626
746.184	0.0142670
746.262	0.0140511
746.340	0.0138599
746.418	0.0136620
746.496	0.0135050
746.575	0.0133390
746.653	0.0134197
746.731	0.0134077
746.809	0.0134637
746.887	0.0133993
746.965	0.0134932
747.043	0.0135192
747.121	0.0136356
747.200	0.0137594
747.278	0.0140218
747.356	0.0141486
747.434	0.0142212
747.512	0.0144907
747.590	0.0144923
747.668	0.0145554
747.746	0.0146266
747.825	0.0149970
747.903	0.0151981
747.981	0.0151050
748.059	0.0150819
748.137	0.0150953
748.215	0.0152750
748.293	0.0150474
748.371	0.0149749
748.450	0.0148148
748.528	0.0145438
748.606	0.0143683
748.684	0.0139925
748.762	0.0136937
748.840	0.0135099
748.918	0.0133107
748.996	0.0132624
749.075	0.0130006
749.153	0.0129955
749.231	0.0130608
749.309	0.0129597
749.387	0.0131555
749.465	0.0134402
749.543	0.0134657
749.621	0.0138973
749.700	0.0142032
749.778	0.0144299
749.856	0.0147404
749.934	0.0150076
750.012	0.0152698
750.090	0.0152375
750.168	0.0153444
750.246	0.0154010
750.325	0.0154328
750.403	0.0153135
750.481	0.0151898
750.559	0.0149070
750.637	0.0147698
750.715	0.0145914
750.793	0.0143060
750.871	0.0140899
750.950	0.0138651
751.028	0.0137677
751.106	0.0135905
751.184	0.0134995
751.262	0.0134953
751.340	0.0134230
751.418	0.0133168
751.496	0.0134205
751.575	0.0134521
751.653	0.0136052
751.731	0.0135589
751.809	0.0135812
751.887	0.0139310
751.965	0.0139541
752.043	0.0139771
752.121	0.0144843
752.200	0.0145176
752.278	0.0145365
752.356	0.0147688
752.434	0.0150342
752.512	0.0150263
752.590	0.0149068
752.668	0.0150838
752.746	0.0149945
752.825	0.0150874
752.903	0.0149612
752.981	0.0148286
753.059	0.0148634
753.137	0.0145548
753.215	0.0144294
753.293	0.0143752
753.371	0.0141906
753.450	0.0137952
753.528	0.0136765
753.606	0.0135837
753.684	0.0134483
753.762	0.0133447
753.840	0.0134454
753.918	0.0134650
753.996	0.0134815
754.075	0.0134637
754.153	0.0135374
754.231	0.0137827
754.309	0.0140723
754.387	0.0141763
754.465	0.0144102
754.543	0.0144852
754.621	0.0146224
754.700	0.0147349
754.778	0.0147576
754.856	0.0147983
754.934	0.0148100
755.012	0.0149094
755.090	0.0148503
755.168	0.0148681
755.246	0.0146971
755.325	0.0146658
755.403	0.0144998
755.481	0.0144604
755.559	0.0145383
755.637	0.0142646
755.715	0.0143102
755.793	0.0142775
755.871	0.0141666
755.950	0.0140908
756.028	0.0140653
756.106	0.0140543
756.184	0.0139328
756.262	0.0138323
756.340	0.0139330
756.418	0.0139100
756.496	0.0139331
756.575	0.0138268
756.653	0.0136646
756.731	0.0138619
756.809	0.0139183
756.887	0.0138891
756.965	0.0139841
757.043	0.0140650
757.121	0.0141798
757.200	0.0143316
757.278	0.0142321
757.356	0.0143188
757.434	0.0145063
757.512	0.0145099
757.590	0.0146438
757.668	0.0147128
757.746	0.0148563
757.825	0.0145964
757.903	0.0149100
757.981	0.0146834
758.059	0.0144649
758.137	0.0146150
758.215	0.0144707
758.293	0.0143462
758.371	0.0141681
758.450	0.0139973
758.528	0.0140494
758.606	0.0137912
758.684	0.0137632
758.762	0.0137552
758.840	0.0137817
758.918	0.0136871
758.996	0.0136394
759.075	0.0135590
759.153	0.0137412
759.231	0.0136991
759.309	0.0138040
759.387	0.0137656
759.465	0.0139606
759.543	0.0141538
759.621	0.0141541
759.700	0.0144120
759.778	0.0145060
759.856	0.0144051
759.934	0.0146404
760.012	0.0147766
760.090	0.0147800
760.168	0.0147105
760.246	0.0147581
760.325	0.0148030
760.403	0.0149763
760.481	0.0146624
760.559	0.0146608
760.637	0.0145760
760.715	0.0145155
760.793	0.0142152
760.871	0.0143799
760.950	0.0140981
761.028	0.0139229
761.106	0.0137226
761.184	0.0138483
761.262	0.0137401
761.340	0.0137290
761.418	0.0136746
761.496	0.0137003
761.575	0.0138514
761.653	0.0137598
761.731	0.0138506
761.809	0.0141058
761.887	0.0141624
761.965	0.0141953
762.043	0.0144030
762.121	0.0145608
762.200	0.0146218
762.278	0.0147536
762.356	0.0147976
762.434	0.0146976
762.512	0.0147388
762.590	0.0147460
762.668	0.0147022
762.746	0.0146726
762.825	0.0146085
762.903	0.0146051
762.981	0.0144783
763.059	0.0144051
763.137	0.0144097
763.215	0.0141321
763.293	0.0140024
763.371	0.0141062
763.450	0.0141463
763.528	0.0139752
763.606	0.0140046
763.684	0.0139519
763.762	0.0140524
763.840	0.0139888
763.918	0.0139487
763.996	0.0138548
764.075	0.0141424
764.153	0.0140852
764.231	0.0142414
764.309	0.0141785
764.387	0.0141324
764.465	0.0141650
764.543	0.0142381
764.621	0.0142685
764.700	0.0143669
