05/04/2022	20:47:31	Ver.	4.1	UNKNOWN
Optical Delay	679.003072	Delta X		0.078125	Sweeps	1	Scan Rate	0/0
Coordinates	Axis 1	NaN	Axis 2	NaN	Axis 3	NaN	Axis 4	NaN	Axis 5	NaN	Axis 6	0.000000
TX Power	0.000000	RX Power	0.000000

679.003	0.0142174
679.081	0.0141503
679.159	0.0143746
679.237	0.0142995
679.316	0.0143027
679.394	0.0141867
679.472	0.0142597
679.550	0.0141618
679.628	0.0142693
679.706	0.0143567
679.784	0.0142095
679.862	0.0142252
679.941	0.0142209
680.019	0.0141305
680.097	0.0143505
680.175	0.0144109
680.253	0.0142147
680.331	0.0142461
680.409	0.0141912
680.487	0.0141177
680.566	0.0141629
680.644	0.0142898
680.722	0.0141024
680.800	0.0142498
680.878	0.0141245
680.956	0.0142374
681.034	0.0141870
681.112	0.0142921
681.191	0.0143020
681.269	0.0143155
681.347	0.0141656
681.425	0.0141601
681.503	0.0141874
681.581	0.0143780
681.659	0.0142399
681.737	0.0142970
681.816	0.0142178
681.894	0.0142372
681.972	0.0141778
682.050	0.0142877
682.128	0.0142223
682.206	0.0143320
682.284	0.0143448
682.362	0.0141678
682.441	0.0142123
682.519	0.0141793
682.597	0.0141804
682.675	0.0142220
682.753	0.0142325
682.831	0.0141613
682.909	0.0142464
682.987	0.0143447
683.066	0.0142199
683.144	0.0142474
683.222	0.0141872
683.300	0.0142660
683.378	0.0141570
683.456	0.0142408
683.534	0.0142840
683.612	0.0141145
683.691	0.0141817
683.769	0.0141553
683.847	0.0142698
683.925	0.0142251
684.003	0.0141653
684.081	0.0142178
684.159	0.0142339
684.237	0.0144054
684.316	0.0141878
684.394	0.0142023
684.472	0.0143493
684.550	0.0142067
684.628	0.0140369
684.706	0.0141614
684.784	0.0143008
684.862	0.0142371
684.941	0.0142555
685.019	0.0142088
685.097	0.0140867
685.175	0.0141771
685.253	0.0141334
685.331	0.0141781
685.409	0.0141633
685.487	0.0142921
685.566	0.0141306
685.644	0.0141540
685.722	0.0141687
685.800	0.0142619
685.878	0.0141393
685.956	0.0141692
686.034	0.0141524
686.112	0.0142288
686.191	0.0141818
686.269	0.0141921
686.347	0.0142139
686.425	0.0141949
686.503	0.0142303
686.581	0.0141470
686.659	0.0141908
686.737	0.0141685
686.816	0.0141256
686.894	0.0142454
686.972	0.0142638
687.050	0.0142075
687.128	0.0141518
687.206	0.0142614
687.284	0.0141993
687.362	0.0141222
687.441	0.0141945
687.519	0.0141453
687.597	0.0142907
687.675	0.0142231
687.753	0.0141413
687.831	0.0143601
687.909	0.0143298
687.987	0.0143129
688.066	0.0142049
688.144	0.0141090
688.222	0.0141670
688.300	0.0142816
688.378	0.0143346
688.456	0.0141618
688.534	0.0143127
688.612	0.0141238
688.691	0.0141000
688.769	0.0142503
688.847	0.0143893
688.925	0.0143502
689.003	0.0143143
689.081	0.0142313
689.159	0.0141888
689.237	0.0142815
689.316	0.0143431
689.394	0.0142829
689.472	0.0143713
689.550	0.0143903
689.628	0.0142108
689.706	0.0142637
689.784	0.0142959
689.862	0.0143684
689.941	0.0143706
690.019	0.0142899
690.097	0.0142989
690.175	0.0142567
690.253	0.0142912
690.331	0.0142573
690.409	0.0142168
690.487	0.0142592
690.566	0.0143877
690.644	0.0141891
690.722	0.0143525
690.800	0.0144064
690.878	0.0143085
690.956	0.0143046
691.034	0.0142559
691.112	0.0142444
691.191	0.0142021
691.269	0.0141451
691.347	0.0142195
691.425	0.0142496
691.503	0.0142819
691.581	0.0143333
691.659	0.0143498
691.737	0.0142809
691.816	0.0143423
691.894	0.0143049
691.972	0.0142362
692.050	0.0141761
692.128	0.0143818
692.206	0.0142133
692.284	0.0141446
692.362	0.0143696
692.441	0.0142640
692.519	0.0140640
692.597	0.0142587
692.675	0.0142641
692.753	0.0141860
692.831	0.0142647
692.909	0.0141566
692.987	0.0142837
693.066	0.0142934
693.144	0.0142384
693.222	0.0141307
693.300	0.0142339
693.378	0.0143274
693.456	0.0142566
693.534	0.0143023
693.612	0.0142326
693.691	0.0141949
693.769	0.0141169
693.847	0.0142396
693.925	0.0141219
694.003	0.0143000
694.081	0.0141047
694.159	0.0141537
694.237	0.0141615
694.316	0.0143456
694.394	0.0141209
694.472	0.0141490
694.550	0.0141127
694.628	0.0141695
694.706	0.0141949
694.784	0.0143134
694.862	0.0143374
694.941	0.0142971
695.019	0.0141550
695.097	0.0143066
695.175	0.0142378
695.253	0.0143153
695.331	0.0142088
695.409	0.0141093
695.487	0.0143140
695.566	0.0143642
695.644	0.0144457
695.722	0.0142626
695.800	0.0141233
695.878	0.0141709
695.956	0.0142845
696.034	0.0142562
696.112	0.0142738
696.191	0.0142471
696.269	0.0141748
696.347	0.0143712
696.425	0.0142063
696.503	0.0141872
696.581	0.0142786
696.659	0.0141901
696.737	0.0142381
696.816	0.0142600
696.894	0.0141597
696.972	0.0142300
697.050	0.0141721
697.128	0.0142979
697.206	0.0141960
697.284	0.0141039
697.362	0.0142723
697.441	0.0142389
697.519	0.0143426
697.597	0.0141724
697.675	0.0141949
697.753	0.0141999
697.831	0.0141503
697.909	0.0141360
697.987	0.0142815
698.066	0.0142729
698.144	0.0142390
698.222	0.0141403
698.300	0.0141447
698.378	0.0142950
698.456	0.0143015
698.534	0.0144476
698.612	0.0141860
698.691	0.0142500
698.769	0.0141408
698.847	0.0141055
698.925	0.0142601
699.003	0.0142561
699.081	0.0142288
699.159	0.0143125
699.237	0.0143752
699.316	0.0142723
699.394	0.0143058
699.472	0.0142427
699.550	0.0141305
699.628	0.0142205
699.706	0.0142368
699.784	0.0143240
699.862	0.0141942
699.941	0.0141908
700.019	0.0142467
700.097	0.0142319
700.175	0.0140430
700.253	0.0141618
700.331	0.0142844
700.409	0.0142818
700.487	0.0143542
700.566	0.0141464
700.644	0.0141891
700.722	0.0143359
700.800	0.0143817
700.878	0.0142107
700.956	0.0143069
701.034	0.0142551
701.112	0.0141763
701.191	0.0142129
701.269	0.0141927
701.347	0.0140923
701.425	0.0142312
701.503	0.0141821
701.581	0.0142594
701.659	0.0142445
701.737	0.0143007
701.816	0.0143525
701.894	0.0141508
701.972	0.0142455
702.050	0.0142626
702.128	0.0141738
702.206	0.0142742
702.284	0.0141489
702.362	0.0142279
702.441	0.0142393
702.519	0.0143478
702.597	0.0141417
702.675	0.0143659
702.753	0.0143678
702.831	0.0142434
702.909	0.0142405
702.987	0.0142231
703.066	0.0141250
703.144	0.0142153
703.222	0.0142856
703.300	0.0142946
703.378	0.0141923
703.456	0.0143194
703.534	0.0142345
703.612	0.0142879
703.691	0.0143093
703.769	0.0143673
703.847	0.0143188
703.925	0.0141946
704.003	0.0142686
704.081	0.0143529
704.159	0.0143467
704.237	0.0142588
704.316	0.0141270
704.394	0.0141393
704.472	0.0142553
704.550	0.0142918
704.628	0.0142546
704.706	0.0143446
704.784	0.0143317
704.862	0.0143777
704.941	0.0142934
705.019	0.0143531
705.097	0.0142007
705.175	0.0143114
705.253	0.0142645
705.331	0.0142946
705.409	0.0142294
705.487	0.0143212
705.566	0.0142757
705.644	0.0142438
705.722	0.0141806
705.800	0.0143768
705.878	0.0143107
705.956	0.0141108
706.034	0.0142277
706.112	0.0142369
706.191	0.0141885
706.269	0.0141865
706.347	0.0141975
706.425	0.0141463
706.503	0.0142986
706.581	0.0143864
706.659	0.0143743
706.737	0.0142612
706.816	0.0141100
706.894	0.0141296
706.972	0.0142974
707.050	0.0142017
707.128	0.0142030
707.206	0.0141866
707.284	0.0141467
707.362	0.0141264
707.441	0.0142451
707.519	0.0142574
707.597	0.0142021
707.675	0.0142080
707.753	0.0141402
707.831	0.0142715
707.909	0.0141705
707.987	0.0142255
708.066	0.0142963
708.144	0.0141886
708.222	0.0142799
708.300	0.0141341
708.378	0.0142808
708.456	0.0142222
708.534	0.0140958
708.612	0.0141650
708.691	0.0142172
708.769	0.0141191
708.847	0.0142528
708.925	0.0142632
709.003	0.0142815
709.081	0.0140028
709.159	0.0141213
709.237	0.0142490
709.316	0.0142282
709.394	0.0142005
709.472	0.0143420
709.550	0.0140692
709.628	0.0142146
709.706	0.0141233
709.784	0.0143273
709.862	0.0142210
709.941	0.0141572
710.019	0.0142198
710.097	0.0142697
710.175	0.0143530
710.253	0.0142581
710.331	0.0143353
710.409	0.0141566
710.487	0.0142360
710.566	0.0143270
710.644	0.0141167
710.722	0.0142287
710.800	0.0143072
710.878	0.0140827
710.956	0.0141579
711.034	0.0142338
711.112	0.0141943
711.191	0.0142567
711.269	0.0141386
711.347	0.0143365
711.425	0.0142647
711.503	0.0140958
711.581	0.0141473
711.659	0.0141525
711.737	0.0140946
711.816	0.0142056
711.894	0.0141330
711.972	0.0141749
712.050	0.0142491
712.128	0.0141847
712.206	0.0142855
712.284	0.0141819
712.362	0.0142845
712.441	0.0142195
712.519	0.0141936
712.597	0.0141615
712.675	0.0140757
712.753	0.0141856
712.831	0.0141816
712.909	0.0143464
712.987	0.0142427
713.066	0.0141519
713.144	0.0141983
713.222	0.0142329
713.300	0.0142900
713.378	0.0143833
713.456	0.0144279
713.534	0.0143488
713.612	0.0142546
713.691	0.0143106
713.769	0.0143206
713.847	0.0143188
713.925	0.0143684
714.003	0.0143155
714.081	0.0141898
714.159	0.0141923
714.237	0.0141548
714.316	0.0142924
714.394	0.0141967
714.472	0.0142303
714.550	0.0142547
714.628	0.0142600
714.706	0.0141782
714.784	0.0143869
714.862	0.0144766
714.941	0.0142972
715.019	0.0141978
715.097	0.0142027
715.175	0.0141874
715.253	0.0141603
715.331	0.0140674
715.409	0.0141139
715.487	0.0142836
715.566	0.0142509
715.644	0.0142207
715.722	0.0142786
715.800	0.0141165
715.878	0.0143362
715.956	0.0142639
716.034	0.0142407
716.112	0.0141603
716.191	0.0141792
716.269	0.0141120
716.347	0.0141463
716.425	0.0141888
716.503	0.0140308
716.581	0.0141005
716.659	0.0141560
716.737	0.0141541
716.816	0.0141889
716.894	0.0142607
716.972	0.0142149
717.050	0.0140421
717.128	0.0141071
717.206	0.0142611
717.284	0.0141512
717.362	0.0142361
717.441	0.0141113
717.519	0.0143275
717.597	0.0141889
717.675	0.0141523
717.753	0.0141796
717.831	0.0141692
717.909	0.0142654
717.987	0.0143095
718.066	0.0141608
718.144	0.0141389
718.222	0.0143385
718.300	0.0141862
718.378	0.0142608
718.456	0.0141783
718.534	0.0140513
718.612	0.0142268
718.691	0.0141451
718.769	0.0141745
718.847	0.0141358
718.925	0.0141532
719.003	0.0142947
719.081	0.0143497
719.159	0.0142326
719.237	0.0142509
719.316	0.0140894
719.394	0.0140930
719.472	0.0141808
719.550	0.0141879
719.628	0.0142726
719.706	0.0141658
719.784	0.0141068
719.862	0.0141276
719.941	0.0141976
720.019	0.0142929
720.097	0.0144260
720.175	0.0142278
720.253	0.0143999
720.331	0.0143536
720.409	0.0143241
720.487	0.0142969
720.566	0.0142455
720.644	0.0143652
720.722	0.0143464
720.800	0.0142889
720.878	0.0144971
720.956	0.0144910
721.034	0.0142949
721.112	0.0141321
721.191	0.0142861
721.269	0.0141574
721.347	0.0141926
721.425	0.0142248
721.503	0.0142120
721.581	0.0141054
721.659	0.0141187
721.737	0.0141571
721.816	0.0142061
721.894	0.0141867
721.972	0.0142886
722.050	0.0142218
722.128	0.0142549
722.206	0.0141945
722.284	0.0141225
722.362	0.0142749
722.441	0.0140903
722.519	0.0141000
722.597	0.0140557
722.675	0.0139101
722.753	0.0140735
722.831	0.0142419
722.909	0.0140059
722.987	0.0141618
723.066	0.0142321
723.144	0.0141528
723.222	0.0142328
723.300	0.0143324
723.378	0.0143275
723.456	0.0143567
723.534	0.0143716
723.612	0.0143708
723.691	0.0144672
723.769	0.0144135
723.847	0.0143075
723.925	0.0143465
724.003	0.0142857
724.081	0.0143181
724.159	0.0143176
724.237	0.0142089
724.316	0.0142284
724.394	0.0141416
724.472	0.0144337
724.550	0.0143547
724.628	0.0142349
724.706	0.0143571
724.784	0.0143306
724.862	0.0144602
724.941	0.0144659
725.019	0.0143448
725.097	0.0143350
725.175	0.0143164
725.253	0.0143060
725.331	0.0142641
725.409	0.0143382
725.487	0.0143373
725.566	0.0142846
725.644	0.0142448
725.722	0.0143766
725.800	0.0143907
725.878	0.0143570
725.956	0.0142817
726.034	0.0142427
726.112	0.0142635
726.191	0.0142950
726.269	0.0143473
726.347	0.0144244
726.425	0.0143547
726.503	0.0143643
726.581	0.0143675
726.659	0.0143143
726.737	0.0143193
726.816	0.0142346
726.894	0.0142416
726.972	0.0141241
727.050	0.0142339
727.128	0.0142013
727.206	0.0142234
727.284	0.0140484
727.362	0.0141756
727.441	0.0140221
727.519	0.0140188
727.597	0.0141135
727.675	0.0140771
727.753	0.0139024
727.831	0.0140146
727.909	0.0141270
727.987	0.0141663
728.066	0.0141595
728.144	0.0141515
728.222	0.0142551
728.300	0.0143218
728.378	0.0143660
728.456	0.0143774
728.534	0.0143678
728.612	0.0142133
728.691	0.0143501
728.769	0.0141746
728.847	0.0143844
728.925	0.0141923
729.003	0.0143052
729.081	0.0142791
729.159	0.0142384
729.237	0.0141366
729.316	0.0141534
729.394	0.0141900
729.472	0.0141523
729.550	0.0141715
729.628	0.0141222
729.706	0.0144167
729.784	0.0143278
729.862	0.0142247
729.941	0.0141100
730.019	0.0141988
730.097	0.0142700
730.175	0.0142290
730.253	0.0142780
730.331	0.0143602
730.409	0.0144294
730.487	0.0142680
730.566	0.0143324
730.644	0.0144164
730.722	0.0143559
730.800	0.0142744
730.878	0.0142331
730.956	0.0143312
731.034	0.0143932
731.112	0.0141495
731.191	0.0141327
731.269	0.0141090
731.347	0.0140085
731.425	0.0142435
731.503	0.0140142
731.581	0.0140343
731.659	0.0142037
731.737	0.0142798
731.816	0.0142545
731.894	0.0141676
731.972	0.0141405
732.050	0.0141959
732.128	0.0142059
732.206	0.0142487
732.284	0.0142496
732.362	0.0142494
732.441	0.0142296
732.519	0.0141918
732.597	0.0141159
732.675	0.0141134
732.753	0.0140501
732.831	0.0140603
732.909	0.0140349
732.987	0.0140324
733.066	0.0140149
733.144	0.0138742
733.222	0.0139251
733.300	0.0138093
733.378	0.0139321
733.456	0.0139056
733.534	0.0140648
733.612	0.0140405
733.691	0.0139453
733.769	0.0140615
733.847	0.0142162
733.925	0.0141932
734.003	0.0141609
734.081	0.0139880
734.159	0.0141138
734.237	0.0140929
734.316	0.0143620
734.394	0.0143978
734.472	0.0141826
734.550	0.0143310
734.628	0.0142339
734.706	0.0142403
734.784	0.0144012
734.862	0.0144767
734.941	0.0143764
735.019	0.0143548
735.097	0.0144991
735.175	0.0144466
735.253	0.0144352
735.331	0.0144161
735.409	0.0143761
735.487	0.0144546
735.566	0.0142494
735.644	0.0143192
735.722	0.0143038
735.800	0.0142313
735.878	0.0144006
735.956	0.0143164
736.034	0.0143520
736.112	0.0143392
736.191	0.0143266
736.269	0.0143172
736.347	0.0142799
736.425	0.0143694
736.503	0.0144923
736.581	0.0143870
736.659	0.0144338
736.737	0.0142154
736.816	0.0143553
736.894	0.0144221
736.972	0.0143808
737.050	0.0141778
737.128	0.0142651
737.206	0.0141724
737.284	0.0142337
737.362	0.0141782
737.441	0.0141808
737.519	0.0141466
737.597	0.0141067
737.675	0.0141722
737.753	0.0142526
737.831	0.0142770
737.909	0.0143069
737.987	0.0142707
738.066	0.0141517
738.144	0.0142857
738.222	0.0143802
738.300	0.0142082
738.378	0.0141039
738.456	0.0141475
738.534	0.0141150
738.612	0.0142599
738.691	0.0143002
738.769	0.0140931
738.847	0.0140705
738.925	0.0141331
739.003	0.0140523
739.081	0.0140841
739.159	0.0142084
739.237	0.0141212
739.316	0.0141078
739.394	0.0141560
739.472	0.0140112
739.550	0.0140984
739.628	0.0142670
739.706	0.0139871
739.784	0.0141590
739.862	0.0142513
739.941	0.0141957
740.019	0.0141549
740.097	0.0142139
740.175	0.0141354
740.253	0.0142448
740.331	0.0142966
740.409	0.0142656
740.487	0.0144296
740.566	0.0143472
740.644	0.0143341
740.722	0.0143694
740.800	0.0144268
740.878	0.0143227
740.956	0.0143600
741.034	0.0142760
741.112	0.0142913
741.191	0.0142115
741.269	0.0143279
741.347	0.0142405
741.425	0.0142169
741.503	0.0142366
741.581	0.0142462
741.659	0.0142458
741.737	0.0141564
741.816	0.0142435
741.894	0.0141846
741.972	0.0141043
742.050	0.0142020
742.128	0.0141844
742.206	0.0142509
742.284	0.0141055
742.362	0.0141100
742.441	0.0142232
742.519	0.0141782
742.597	0.0141564
742.675	0.0141575
742.753	0.0141628
742.831	0.0140806
742.909	0.0141722
742.987	0.0140343
743.066	0.0141462
743.144	0.0141908
743.222	0.0141995
743.300	0.0141159
743.378	0.0141534
743.456	0.0140804
743.534	0.0141989
743.612	0.0141473
743.691	0.0139693
743.769	0.0140567
743.847	0.0140285
743.925	0.0141442
744.003	0.0141646
744.081	0.0141847
744.159	0.0141732
744.237	0.0140730
744.316	0.0140594
744.394	0.0141360
744.472	0.0142590
744.550	0.0142374
744.628	0.0142070
744.706	0.0142042
744.784	0.0142933
744.862	0.0142632
744.941	0.0142207
745.019	0.0142635
745.097	0.0142326
745.175	0.0141945
745.253	0.0142834
745.331	0.0141927
745.409	0.0141854
745.487	0.0142588
745.566	0.0141225
745.644	0.0140128
745.722	0.0141913
745.800	0.0141591
745.878	0.0140942
745.956	0.0142139
746.034	0.0141186
746.112	0.0141736
746.191	0.0142222
746.269	0.0141505
746.347	0.0142285
746.425	0.0141474
746.503	0.0142532
746.581	0.0142368
746.659	0.0142663
746.737	0.0142722
746.816	0.0143472
746.894	0.0143261
746.972	0.0144243
747.050	0.0143057
747.128	0.0143877
747.206	0.0143285
747.284	0.0144084
747.362	0.0142991
747.441	0.0143202
747.519	0.0143718
747.597	0.0143184
747.675	0.0142365
747.753	0.0141537
747.831	0.0142524
747.909	0.0142305
747.987	0.0140923
748.066	0.0142140
748.144	0.0142081
748.222	0.0142670
748.300	0.0143386
748.378	0.0141699
748.456	0.0142307
748.534	0.0143423
748.612	0.0142618
748.691	0.0143256
748.769	0.0142512
748.847	0.0142166
748.925	0.0143839
749.003	0.0144805
749.081	0.0144000
749.159	0.0142065
749.237	0.0142710
749.316	0.0143645
749.394	0.0143401
749.472	0.0143812
749.550	0.0142800
749.628	0.0142623
749.706	0.0143375
749.784	0.0143549
749.862	0.0143338
749.941	0.0143885
750.019	0.0143654
750.097	0.0144251
750.175	0.0144898
750.253	0.0141730
750.331	0.0143064
750.409	0.0143073
750.487	0.0142943
750.566	0.0142374
750.644	0.0144526
750.722	0.0143943
750.800	0.0142876
750.878	0.0144115
750.956	0.0143220
751.034	0.0142921
751.112	0.0143384
751.191	0.0143013
751.269	0.0143430
751.347	0.0143616
751.425	0.0143397
751.503	0.0142434
751.581	0.0142296
751.659	0.0142457
751.737	0.0142960
751.816	0.0142490
751.894	0.0142956
751.972	0.0142149
752.050	0.0140649
752.128	0.0141624
752.206	0.0142245
752.284	0.0140833
752.362	0.0141705
752.441	0.0142178
752.519	0.0141595
752.597	0.0141184
752.675	0.0140571
752.753	0.0141030
752.831	0.0140990
752.909	0.0142209
752.987	0.0140969
753.066	0.0140953
753.144	0.0141449
753.222	0.0140877
753.300	0.0141027
753.378	0.0142056
753.456	0.0140900
753.534	0.0140882
753.612	0.0141603
753.691	0.0141451
753.769	0.0142609
753.847	0.0141762
753.925	0.0141419
754.003	0.0140972
754.081	0.0140954
754.159	0.0142352
754.237	0.0141184
754.316	0.0140482
754.394	0.0141809
754.472	0.0142822
754.550	0.0141940
754.628	0.0141673
754.706	0.0142191
754.784	0.0140804
754.862	0.0143533
754.941	0.0141058
755.019	0.0142092
755.097	0.0142471
755.175	0.0142715
755.253	0.0142366
755.331	0.0142651
755.409	0.0142709
755.487	0.0141882
755.566	0.0143573
755.644	0.0143637
755.722	0.0142682
755.800	0.0141555
755.878	0.0142442
755.956	0.0142518
756.034	0.0144370
756.112	0.0141563
756.191	0.0141364
756.269	0.0143057
756.347	0.0143313
756.425	0.0142719
756.503	0.0141920
756.581	0.0141828
756.659	0.0141758
756.737	0.0141389
756.816	0.0142236
756.894	0.0142889
756.972	0.0142260
757.050	0.0142436
757.128	0.0141005
757.206	0.0141384
757.284	0.0142747
757.362	0.0141671
757.441	0.0140482
757.519	0.0141375
757.597	0.0142074
757.675	0.0141754
757.753	0.0142179
757.831	0.0142637
757.909	0.0141745
757.987	0.0141783
758.066	0.0140931
758.144	0.0140231
758.222	0.0140932
758.300	0.0141653
758.378	0.0141711
758.456	0.0141681
758.534	0.0141532
758.612	0.0140013
758.691	0.0141624
758.769	0.0140586
758.847	0.0142119
758.925	0.0142761
759.003	0.0143869
759.081	0.0141754
759.159	0.0141067
759.237	0.0142070
759.316	0.0141376
759.394	0.0142035
759.472	0.0141242
759.550	0.0142197
759.628	0.0142558
759.706	0.0141370
759.784	0.0141861
759.862	0.0142535
759.941	0.0142829
760.019	0.0140617
760.097	0.0140892
760.175	0.0141629
760.253	0.0141028
760.331	0.0143072
760.409	0.0141911
760.487	0.0142258
760.566	0.0141740
760.644	0.0141338
760.722	0.0142825
760.800	0.0142271
760.878	0.0142999
760.956	0.0141701
761.034	0.0143093
761.112	0.0143864
761.191	0.0142810
761.269	0.0142791
761.347	0.0143338
761.425	0.0142972
761.503	0.0142621
761.581	0.0143573
761.659	0.0143719
761.737	0.0141460
761.816	0.0142966
761.894	0.0143714
761.972	0.0143749
762.050	0.0143799
762.128	0.0142969
762.206	0.0142108
762.284	0.0143880
762.362	0.0143148
762.441	0.0143185
762.519	0.0143048
762.597	0.0143542
762.675	0.0143707
762.753	0.0142411
762.831	0.0142526
762.909	0.0143307
762.987	0.0143048
763.066	0.0143610
763.144	0.0143224
763.222	0.0142507
763.300	0.0141230
763.378	0.0142295
763.456	0.0142534
763.534	0.0141321
763.612	0.0143035
763.691	0.0142063
763.769	0.0141676
763.847	0.0142846
763.925	0.0143409
764.003	0.0143443
764.081	0.0141821
764.159	0.0142362
764.237	0.0143458
764.316	0.0142247
764.394	0.0142693
764.472	0.0141584
764.550	0.0141878
764.628	0.0142556
764.706	0.0141982
