05/04/2022	21:02:17	Ver.	4.1	UNKNOWN
Optical Delay	678.996401	Delta X		0.078125	Sweeps	1	Scan Rate	0/0
Coordinates	Axis 1	NaN	Axis 2	NaN	Axis 3	NaN	Axis 4	NaN	Axis 5	NaN	Axis 6	0.000000
TX Power	0.000000	RX Power	0.000000

678.996	0.0143590
679.075	0.0143143
679.153	0.0143476
679.231	0.0142380
679.309	0.0143233
679.387	0.0142108
679.465	0.0141851
679.543	0.0142428
679.621	0.0144743
679.700	0.0143288
679.778	0.0143968
679.856	0.0142885
679.934	0.0143770
680.012	0.0143497
680.090	0.0141560
680.168	0.0142976
680.246	0.0143566
680.325	0.0143771
680.403	0.0143122
680.481	0.0143700
680.559	0.0143996
680.637	0.0142344
680.715	0.0142387
680.793	0.0144205
680.871	0.0144028
680.950	0.0144051
681.028	0.0144978
681.106	0.0143596
681.184	0.0144522
681.262	0.0142459
681.340	0.0142021
681.418	0.0143623
681.496	0.0143892
681.575	0.0143709
681.653	0.0143922
681.731	0.0143995
681.809	0.0142361
681.887	0.0142883
681.965	0.0144124
682.043	0.0143787
682.121	0.0143159
682.200	0.0142173
682.278	0.0143771
682.356	0.0142706
682.434	0.0144379
682.512	0.0143488
682.590	0.0144197
682.668	0.0143320
682.746	0.0143700
682.825	0.0142362
682.903	0.0143066
682.981	0.0143983
683.059	0.0141676
683.137	0.0142902
683.215	0.0144236
683.293	0.0144481
683.371	0.0143422
683.450	0.0143605
683.528	0.0142529
683.606	0.0143798
683.684	0.0143904
683.762	0.0143411
683.840	0.0142589
683.918	0.0143711
683.996	0.0142947
684.075	0.0143914
684.153	0.0143892
684.231	0.0144618
684.309	0.0143445
684.387	0.0143353
684.465	0.0142866
684.543	0.0143286
684.621	0.0143074
684.700	0.0143217
684.778	0.0144476
684.856	0.0144214
684.934	0.0142030
685.012	0.0142952
685.090	0.0143681
685.168	0.0143372
685.246	0.0143505
685.325	0.0142886
685.403	0.0143334
685.481	0.0143578
685.559	0.0143983
685.637	0.0143407
685.715	0.0142603
685.793	0.0143998
685.871	0.0142656
685.950	0.0143176
686.028	0.0142866
686.106	0.0143356
686.184	0.0143594
686.262	0.0142991
686.340	0.0144260
686.418	0.0142708
686.496	0.0143504
686.575	0.0143964
686.653	0.0141862
686.731	0.0143176
686.809	0.0143687
686.887	0.0143198
686.965	0.0142902
687.043	0.0143576
687.121	0.0142374
687.200	0.0143035
687.278	0.0144583
687.356	0.0143970
687.434	0.0143377
687.512	0.0142374
687.590	0.0142316
687.668	0.0142249
687.746	0.0142760
687.825	0.0143030
687.903	0.0144251
687.981	0.0143741
688.059	0.0142739
688.137	0.0142480
688.215	0.0143136
688.293	0.0143241
688.371	0.0143153
688.450	0.0144106
688.528	0.0142767
688.606	0.0143674
688.684	0.0143207
688.762	0.0143107
688.840	0.0144048
688.918	0.0142498
688.996	0.0142843
689.075	0.0144411
689.153	0.0142899
689.231	0.0142882
689.309	0.0142717
689.387	0.0142677
689.465	0.0142897
689.543	0.0143407
689.621	0.0144660
689.700	0.0142346
689.778	0.0142207
689.856	0.0142431
689.934	0.0143894
690.012	0.0143574
690.090	0.0144139
690.168	0.0143896
690.246	0.0143613
690.325	0.0145154
690.403	0.0142469
690.481	0.0143102
690.559	0.0143139
690.637	0.0142696
690.715	0.0143856
690.793	0.0142822
690.871	0.0142497
690.950	0.0143830
691.028	0.0144279
691.106	0.0143008
691.184	0.0143339
691.262	0.0144425
691.340	0.0144060
691.418	0.0143351
691.496	0.0143917
691.575	0.0143539
691.653	0.0143606
691.731	0.0143462
691.809	0.0142045
691.887	0.0143680
691.965	0.0143671
692.043	0.0144196
692.121	0.0143859
692.200	0.0142815
692.278	0.0142234
692.356	0.0143585
692.434	0.0143523
692.512	0.0143412
692.590	0.0144264
692.668	0.0143497
692.746	0.0143130
692.825	0.0142780
692.903	0.0143148
692.981	0.0142675
693.059	0.0143160
693.137	0.0144347
693.215	0.0142955
693.293	0.0143264
693.371	0.0142508
693.450	0.0143221
693.528	0.0144196
693.606	0.0143265
693.684	0.0143471
693.762	0.0143686
693.840	0.0143890
693.918	0.0142630
693.996	0.0143616
694.075	0.0143703
694.153	0.0142335
694.231	0.0143737
694.309	0.0143270
694.387	0.0143037
694.465	0.0144167
694.543	0.0143179
694.621	0.0144085
694.700	0.0143258
694.778	0.0142355
694.856	0.0142999
694.934	0.0144128
695.012	0.0144640
695.090	0.0144054
695.168	0.0143216
695.246	0.0142405
695.325	0.0143218
695.403	0.0143186
695.481	0.0143510
695.559	0.0143562
695.637	0.0143091
695.715	0.0143584
695.793	0.0144064
695.871	0.0144678
695.950	0.0143004
696.028	0.0144670
696.106	0.0143165
696.184	0.0143359
696.262	0.0142654
696.340	0.0142799
696.418	0.0142915
696.496	0.0143118
696.575	0.0143011
696.653	0.0143870
696.731	0.0143619
696.809	0.0142995
696.887	0.0143821
696.965	0.0143703
697.043	0.0143856
697.121	0.0142302
697.200	0.0143834
697.278	0.0144200
697.356	0.0142056
697.434	0.0142448
697.512	0.0143109
697.590	0.0143726
697.668	0.0142768
697.746	0.0142162
697.825	0.0142399
697.903	0.0142147
697.981	0.0144627
698.059	0.0143291
698.137	0.0143167
698.215	0.0143801
698.293	0.0142639
698.371	0.0142825
698.450	0.0144398
698.528	0.0144046
698.606	0.0142527
698.684	0.0144106
698.762	0.0143659
698.840	0.0142523
698.918	0.0142441
698.996	0.0142807
699.075	0.0143526
699.153	0.0143235
699.231	0.0143498
699.309	0.0143054
699.387	0.0143269
699.465	0.0144441
699.543	0.0143150
699.621	0.0142575
699.700	0.0143729
699.778	0.0143887
699.856	0.0142831
699.934	0.0143999
700.012	0.0143171
700.090	0.0142104
700.168	0.0143008
700.246	0.0145055
700.325	0.0145109
700.403	0.0142805
700.481	0.0143423
700.559	0.0143584
700.637	0.0143151
700.715	0.0141834
700.793	0.0144234
700.871	0.0143728
700.950	0.0142552
701.028	0.0144463
701.106	0.0143225
701.184	0.0144115
701.262	0.0144310
701.340	0.0144751
701.418	0.0142785
701.496	0.0142605
701.575	0.0142643
701.653	0.0144318
701.731	0.0142773
701.809	0.0142734
701.887	0.0144344
701.965	0.0143282
702.043	0.0143905
702.121	0.0144217
702.200	0.0143344
702.278	0.0142380
702.356	0.0144196
702.434	0.0144122
702.512	0.0143826
702.590	0.0143047
702.668	0.0144262
702.746	0.0142639
702.825	0.0143259
702.903	0.0142894
702.981	0.0142160
703.059	0.0143867
703.137	0.0143230
703.215	0.0144151
703.293	0.0142940
703.371	0.0143906
703.450	0.0143838
703.528	0.0143860
703.606	0.0143708
703.684	0.0143371
703.762	0.0142754
703.840	0.0144167
703.918	0.0143226
703.996	0.0143311
704.075	0.0143853
704.153	0.0143181
704.231	0.0143675
704.309	0.0143362
704.387	0.0143889
704.465	0.0144881
704.543	0.0145803
704.621	0.0143837
704.700	0.0143068
704.778	0.0142641
704.856	0.0143717
704.934	0.0144317
705.012	0.0143768
705.090	0.0143653
705.168	0.0143288
705.246	0.0145056
705.325	0.0144624
705.403	0.0144789
705.481	0.0144460
705.559	0.0145309
705.637	0.0143613
705.715	0.0144144
705.793	0.0143785
705.871	0.0141666
705.950	0.0141065
706.028	0.0142275
706.106	0.0141640
706.184	0.0140617
706.262	0.0141017
706.340	0.0141909
706.418	0.0140984
706.496	0.0143188
706.575	0.0143024
706.653	0.0144337
706.731	0.0147343
706.809	0.0147540
706.887	0.0148817
706.965	0.0149256
707.043	0.0148754
707.121	0.0147440
707.200	0.0147221
707.278	0.0144140
707.356	0.0141627
707.434	0.0139644
707.512	0.0138697
707.590	0.0136536
707.668	0.0134965
707.746	0.0132922
707.825	0.0132449
707.903	0.0131863
707.981	0.0133374
708.059	0.0135548
708.137	0.0138851
708.215	0.0141716
708.293	0.0147489
708.371	0.0150976
708.450	0.0154961
708.528	0.0158167
708.606	0.0160850
708.684	0.0162192
708.762	0.0161909
708.840	0.0155892
708.918	0.0152296
708.996	0.0148521
709.075	0.0141708
709.153	0.0137830
709.231	0.0134092
709.309	0.0130437
709.387	0.0127837
709.465	0.0128116
709.543	0.0128363
709.621	0.0128481
709.700	0.0130233
709.778	0.0133105
709.856	0.0139847
709.934	0.0143771
710.012	0.0151811
710.090	0.0157365
710.168	0.0160760
710.246	0.0164503
710.325	0.0166245
710.403	0.0162881
710.481	0.0160434
710.559	0.0156061
710.637	0.0151012
710.715	0.0145356
710.793	0.0139697
710.871	0.0133601
710.950	0.0127071
711.028	0.0125044
711.106	0.0122499
711.184	0.0121384
711.262	0.0121243
711.340	0.0123768
711.418	0.0127012
711.496	0.0132653
711.575	0.0137318
711.653	0.0142216
711.731	0.0146047
711.809	0.0150980
711.887	0.0153127
711.965	0.0154414
712.043	0.0153586
712.121	0.0154469
712.200	0.0154118
712.278	0.0152148
712.356	0.0148223
712.434	0.0146931
712.512	0.0145889
712.590	0.0142416
712.668	0.0141660
712.746	0.0139939
712.825	0.0142031
712.903	0.0141493
712.981	0.0142889
713.059	0.0144242
713.137	0.0146387
713.215	0.0148447
713.293	0.0149428
713.371	0.0147682
713.450	0.0148202
713.528	0.0145325
713.606	0.0141859
713.684	0.0137801
713.762	0.0135080
713.840	0.0131551
713.918	0.0130530
713.996	0.0129126
714.075	0.0128168
714.153	0.0128634
714.231	0.0130969
714.309	0.0135355
714.387	0.0140557
714.465	0.0146162
714.543	0.0152322
714.621	0.0158861
714.700	0.0166274
714.778	0.0168201
714.856	0.0170367
714.934	0.0172293
715.012	0.0170299
715.090	0.0167337
715.168	0.0161504
715.246	0.0158701
715.325	0.0151236
715.403	0.0144177
715.481	0.0136577
715.559	0.0130886
715.637	0.0123611
715.715	0.0117651
715.793	0.0112608
715.871	0.0111224
715.950	0.0111753
716.028	0.0114890
716.106	0.0118678
716.184	0.0125777
716.262	0.0131747
716.340	0.0140696
716.418	0.0147592
716.496	0.0156723
716.575	0.0164816
716.653	0.0169040
716.731	0.0173928
716.809	0.0176358
716.887	0.0175922
716.965	0.0173063
717.043	0.0167383
717.121	0.0161190
717.200	0.0153152
717.278	0.0146500
717.356	0.0136802
717.434	0.0129484
717.512	0.0123894
717.590	0.0117919
717.668	0.0113937
717.746	0.0111259
717.825	0.0110714
717.903	0.0112177
717.981	0.0115521
718.059	0.0121722
718.137	0.0127734
718.215	0.0135835
718.293	0.0144871
718.371	0.0152794
718.450	0.0159181
718.528	0.0165794
718.606	0.0170471
718.684	0.0173322
718.762	0.0172581
718.840	0.0173493
718.918	0.0173686
718.996	0.0169825
719.075	0.0165174
719.153	0.0159229
719.231	0.0150685
719.309	0.0145096
719.387	0.0137423
719.465	0.0130202
719.543	0.0122575
719.621	0.0120093
719.700	0.0116460
719.778	0.0115907
719.856	0.0116998
719.934	0.0119884
720.012	0.0121420
720.090	0.0126107
720.168	0.0131020
720.246	0.0134982
720.325	0.0140739
720.403	0.0146969
720.481	0.0152110
720.559	0.0157612
720.637	0.0160867
720.715	0.0164024
720.793	0.0165295
720.871	0.0166441
720.950	0.0163904
721.028	0.0161049
721.106	0.0159004
721.184	0.0155704
721.262	0.0149577
721.340	0.0143900
721.418	0.0142419
721.496	0.0137029
721.575	0.0133372
721.653	0.0130942
721.731	0.0129675
721.809	0.0127479
721.887	0.0128236
721.965	0.0127526
722.043	0.0130077
722.121	0.0131186
722.200	0.0133503
722.278	0.0134663
722.356	0.0137806
722.434	0.0142298
722.512	0.0145599
722.590	0.0146676
722.668	0.0149180
722.746	0.0151188
722.825	0.0151916
722.903	0.0151327
722.981	0.0151656
723.059	0.0152061
723.137	0.0151305
723.215	0.0148238
723.293	0.0147746
723.371	0.0146873
723.450	0.0146368
723.528	0.0147895
723.606	0.0143514
723.684	0.0143218
723.762	0.0141232
723.840	0.0139516
723.918	0.0140163
723.996	0.0138981
724.075	0.0136153
724.153	0.0136021
724.231	0.0137328
724.309	0.0136908
724.387	0.0137743
724.465	0.0138910
724.543	0.0139908
724.621	0.0141996
724.700	0.0143997
724.778	0.0145358
724.856	0.0146707
724.934	0.0149619
725.012	0.0150317
725.090	0.0150407
725.168	0.0150626
725.246	0.0150191
725.325	0.0149153
725.403	0.0144304
725.481	0.0144239
725.559	0.0141496
725.637	0.0138162
725.715	0.0136125
725.793	0.0135233
725.871	0.0135191
725.950	0.0135761
726.028	0.0137872
726.106	0.0139455
726.184	0.0143805
726.262	0.0146632
726.340	0.0147522
726.418	0.0149606
726.496	0.0152248
726.575	0.0152491
726.653	0.0151874
726.731	0.0152330
726.809	0.0150900
726.887	0.0148660
726.965	0.0148550
727.043	0.0147942
727.121	0.0145421
727.200	0.0141966
727.278	0.0142550
727.356	0.0139559
727.434	0.0138650
727.512	0.0138425
727.590	0.0137458
727.668	0.0136063
727.746	0.0136617
727.825	0.0133581
727.903	0.0133178
727.981	0.0133752
728.059	0.0134826
728.137	0.0134091
728.215	0.0135919
728.293	0.0136759
728.371	0.0141525
728.450	0.0142398
728.528	0.0145013
728.606	0.0148776
728.684	0.0152396
728.762	0.0153537
728.840	0.0156689
728.918	0.0159291
728.996	0.0161082
729.075	0.0159141
729.153	0.0158690
729.231	0.0157191
729.309	0.0155027
729.387	0.0150843
729.465	0.0146595
729.543	0.0141041
729.621	0.0137445
729.700	0.0133051
729.778	0.0128860
729.856	0.0126409
729.934	0.0124814
730.012	0.0123633
730.090	0.0122577
730.168	0.0123386
730.246	0.0127853
730.325	0.0131626
730.403	0.0133681
730.481	0.0137428
730.559	0.0142714
730.637	0.0146714
730.715	0.0150112
730.793	0.0152605
730.871	0.0153513
730.950	0.0155700
731.028	0.0156846
731.106	0.0157488
731.184	0.0158418
731.262	0.0157444
731.340	0.0155244
731.418	0.0152467
731.496	0.0150449
731.575	0.0149163
731.653	0.0148156
731.731	0.0144932
731.809	0.0141956
731.887	0.0140196
731.965	0.0137899
732.043	0.0136203
732.121	0.0136546
732.200	0.0132578
732.278	0.0131495
732.356	0.0130621
732.434	0.0129581
732.512	0.0129428
732.590	0.0129930
732.668	0.0130966
732.746	0.0133122
732.825	0.0134269
732.903	0.0139505
732.981	0.0142922
733.059	0.0147722
733.137	0.0152608
733.215	0.0156628
733.293	0.0159967
733.371	0.0164964
733.450	0.0166243
733.528	0.0165977
733.606	0.0165482
733.684	0.0166223
733.762	0.0164332
733.840	0.0159058
733.918	0.0153391
733.996	0.0150056
734.075	0.0143394
734.153	0.0139489
734.231	0.0132822
734.309	0.0129832
734.387	0.0125636
734.465	0.0122049
734.543	0.0121107
734.621	0.0120306
734.700	0.0122294
734.778	0.0124931
734.856	0.0127133
734.934	0.0130299
735.012	0.0137637
735.090	0.0140426
735.168	0.0142639
735.246	0.0148443
735.325	0.0152303
735.403	0.0154395
735.481	0.0155806
735.559	0.0159002
735.637	0.0160355
735.715	0.0161037
735.793	0.0159914
735.871	0.0158580
735.950	0.0159380
736.028	0.0156271
736.106	0.0153006
736.184	0.0150966
736.262	0.0146892
736.340	0.0143607
736.418	0.0141499
736.496	0.0138579
736.575	0.0135887
736.653	0.0132284
736.731	0.0130120
736.809	0.0127205
736.887	0.0126292
736.965	0.0125635
737.043	0.0129472
737.121	0.0130081
737.200	0.0131262
737.278	0.0135180
737.356	0.0137419
737.434	0.0142412
737.512	0.0147546
737.590	0.0150351
737.668	0.0152936
737.746	0.0156258
737.825	0.0157807
737.903	0.0157380
737.981	0.0159153
738.059	0.0159071
738.137	0.0156475
738.215	0.0156017
738.293	0.0153427
738.371	0.0149753
738.450	0.0146250
738.528	0.0144170
738.606	0.0140947
738.684	0.0139142
738.762	0.0135539
738.840	0.0134344
738.918	0.0132706
738.996	0.0131639
739.075	0.0133392
739.153	0.0134061
739.231	0.0134347
739.309	0.0136310
739.387	0.0137282
739.465	0.0139413
739.543	0.0139387
739.621	0.0140070
739.700	0.0142306
739.778	0.0143726
739.856	0.0144118
739.934	0.0145634
740.012	0.0146645
740.090	0.0146205
740.168	0.0147383
740.246	0.0148641
740.325	0.0147401
740.403	0.0147267
740.481	0.0148348
740.559	0.0150067
740.637	0.0149532
740.715	0.0150356
740.793	0.0151386
740.871	0.0149421
740.950	0.0148634
741.028	0.0148914
741.106	0.0148092
741.184	0.0146412
741.262	0.0145913
741.340	0.0144796
741.418	0.0142455
741.496	0.0140746
741.575	0.0137074
741.653	0.0135851
741.731	0.0133694
741.809	0.0132198
741.887	0.0129882
741.965	0.0133051
742.043	0.0133926
742.121	0.0133295
742.200	0.0134878
742.278	0.0136016
742.356	0.0138882
742.434	0.0140657
742.512	0.0144863
742.590	0.0146221
742.668	0.0150049
742.746	0.0152793
742.825	0.0154898
742.903	0.0155280
742.981	0.0155293
743.059	0.0156646
743.137	0.0154832
743.215	0.0153852
743.293	0.0152254
743.371	0.0149397
743.450	0.0147230
743.528	0.0144863
743.606	0.0143151
743.684	0.0139499
743.762	0.0137728
743.840	0.0134985
743.918	0.0134274
743.996	0.0131828
744.075	0.0131100
744.153	0.0132410
744.231	0.0131458
744.309	0.0132209
744.387	0.0131314
744.465	0.0133943
744.543	0.0136351
744.621	0.0137950
744.700	0.0140295
744.778	0.0142324
744.856	0.0145087
744.934	0.0146664
745.012	0.0148462
745.090	0.0150670
745.168	0.0152135
745.246	0.0153352
745.325	0.0154543
745.403	0.0155648
745.481	0.0154811
745.559	0.0151852
745.637	0.0150479
745.715	0.0149953
745.793	0.0147388
745.871	0.0144303
745.950	0.0142735
746.028	0.0139039
746.106	0.0135410
746.184	0.0134660
746.262	0.0131829
746.340	0.0130280
746.418	0.0128877
746.496	0.0128555
746.575	0.0130199
746.653	0.0131430
746.731	0.0132006
746.809	0.0135358
746.887	0.0137373
746.965	0.0141724
747.043	0.0145422
747.121	0.0148193
747.200	0.0150789
747.278	0.0152052
747.356	0.0154580
747.434	0.0154995
747.512	0.0154453
747.590	0.0154826
747.668	0.0155211
747.746	0.0153345
747.825	0.0150964
747.903	0.0149918
747.981	0.0148888
748.059	0.0145328
748.137	0.0143864
748.215	0.0142435
748.293	0.0140765
748.371	0.0137975
748.450	0.0136623
748.528	0.0135074
748.606	0.0136174
748.684	0.0135611
748.762	0.0134034
748.840	0.0133344
748.918	0.0134129
748.996	0.0136819
749.075	0.0135574
749.153	0.0137150
749.231	0.0137961
749.309	0.0140327
749.387	0.0142294
749.465	0.0144409
749.543	0.0146622
749.621	0.0146296
749.700	0.0148849
749.778	0.0149548
749.856	0.0149336
749.934	0.0151903
750.012	0.0152557
750.090	0.0153055
750.168	0.0152576
750.246	0.0152671
750.325	0.0151109
750.403	0.0149214
750.481	0.0148991
750.559	0.0145967
750.637	0.0144594
750.715	0.0143622
750.793	0.0139143
750.871	0.0137531
750.950	0.0137065
751.028	0.0136966
751.106	0.0134947
751.184	0.0133904
751.262	0.0134169
751.340	0.0133752
751.418	0.0134409
751.496	0.0135629
751.575	0.0135748
751.653	0.0137145
751.731	0.0139722
751.809	0.0140993
751.887	0.0141765
751.965	0.0145105
752.043	0.0145663
752.121	0.0148077
752.200	0.0147306
752.278	0.0147762
752.356	0.0149677
752.434	0.0149065
752.512	0.0150229
752.590	0.0149861
752.668	0.0150961
752.746	0.0149731
752.825	0.0151118
752.903	0.0148946
752.981	0.0147405
753.059	0.0146767
753.137	0.0146724
753.215	0.0144347
753.293	0.0142200
753.371	0.0142371
753.450	0.0142292
753.528	0.0140755
753.606	0.0140093
753.684	0.0137502
753.762	0.0137829
753.840	0.0137035
753.918	0.0135574
753.996	0.0136468
754.075	0.0136842
754.153	0.0137427
754.231	0.0137378
754.309	0.0138121
754.387	0.0139029
754.465	0.0141010
754.543	0.0143005
754.621	0.0144130
754.700	0.0145074
754.778	0.0147537
754.856	0.0150002
754.934	0.0150430
755.012	0.0152676
755.090	0.0152857
755.168	0.0152827
755.246	0.0151901
755.325	0.0152488
755.403	0.0149887
755.481	0.0151479
755.559	0.0149419
755.637	0.0146484
755.715	0.0143723
755.793	0.0141995
755.871	0.0140423
755.950	0.0138142
756.028	0.0137839
756.106	0.0136835
756.184	0.0135027
756.262	0.0135685
756.340	0.0134428
756.418	0.0134541
756.496	0.0134726
756.575	0.0135409
756.653	0.0136934
756.731	0.0137737
756.809	0.0139677
756.887	0.0142028
756.965	0.0143078
757.043	0.0143814
757.121	0.0146766
757.200	0.0147878
757.278	0.0149980
757.356	0.0150941
757.434	0.0151167
757.512	0.0152277
757.590	0.0152985
757.668	0.0153129
757.746	0.0151417
757.825	0.0149911
757.903	0.0148452
757.981	0.0147488
758.059	0.0143808
758.137	0.0143292
758.215	0.0141429
758.293	0.0139393
758.371	0.0139160
758.450	0.0138567
758.528	0.0137557
758.606	0.0135643
758.684	0.0134639
758.762	0.0135712
758.840	0.0137456
758.918	0.0137450
758.996	0.0139299
759.075	0.0140002
759.153	0.0140533
759.231	0.0141637
759.309	0.0143871
759.387	0.0144781
759.465	0.0145605
759.543	0.0146254
759.621	0.0148544
759.700	0.0148790
759.778	0.0148439
759.856	0.0149069
759.934	0.0148769
760.012	0.0148689
760.090	0.0148943
760.168	0.0148759
760.246	0.0146770
760.325	0.0146430
760.403	0.0144695
760.481	0.0144110
760.559	0.0144639
760.637	0.0143094
760.715	0.0142194
760.793	0.0141846
760.871	0.0142956
760.950	0.0142756
761.028	0.0140120
761.106	0.0139314
761.184	0.0140741
761.262	0.0141187
761.340	0.0139170
761.418	0.0139765
761.496	0.0139561
761.575	0.0140608
761.653	0.0141539
761.731	0.0141921
761.809	0.0141914
761.887	0.0142746
761.965	0.0142946
762.043	0.0143818
762.121	0.0144969
762.200	0.0146107
762.278	0.0147192
762.356	0.0146133
762.434	0.0146936
762.512	0.0148428
762.590	0.0149532
762.668	0.0148507
762.746	0.0147782
762.825	0.0147280
762.903	0.0147200
762.981	0.0146673
763.059	0.0146955
763.137	0.0145358
763.215	0.0142770
763.293	0.0142561
763.371	0.0140686
763.450	0.0140292
763.528	0.0139416
763.606	0.0140924
763.684	0.0139820
763.762	0.0139285
763.840	0.0139114
763.918	0.0139251
763.996	0.0138621
764.075	0.0139120
764.153	0.0139493
764.231	0.0143243
764.309	0.0142599
764.387	0.0143150
764.465	0.0144965
764.543	0.0145965
764.621	0.0147013
764.700	0.0145948
