05/04/2022	21:04:42	Ver.	4.1	UNKNOWN
Optical Delay	678.996401	Delta X		0.078125	Sweeps	1	Scan Rate	0/0
Coordinates	Axis 1	NaN	Axis 2	NaN	Axis 3	NaN	Axis 4	NaN	Axis 5	NaN	Axis 6	0.000000
TX Power	0.000000	RX Power	0.000000

678.996	0.0140470
679.075	0.0140360
679.153	0.0140785
679.231	0.0140536
679.309	0.0138733
679.387	0.0141710
679.465	0.0140048
679.543	0.0141830
679.621	0.0141232
679.700	0.0141805
679.778	0.0140926
679.856	0.0140236
679.934	0.0141546
680.012	0.0141574
680.090	0.0140399
680.168	0.0141992
680.246	0.0141033
680.325	0.0140518
680.403	0.0140535
680.481	0.0142113
680.559	0.0141703
680.637	0.0141631
680.715	0.0140340
680.793	0.0139774
680.871	0.0139767
680.950	0.0140475
681.028	0.0141681
681.106	0.0140844
681.184	0.0140417
681.262	0.0139537
681.340	0.0139027
681.418	0.0140103
681.496	0.0142033
681.575	0.0140279
681.653	0.0139981
681.731	0.0141360
681.809	0.0141260
681.887	0.0140948
681.965	0.0142048
682.043	0.0141944
682.121	0.0140833
682.200	0.0140871
682.278	0.0141442
682.356	0.0140317
682.434	0.0141261
682.512	0.0140824
682.590	0.0141199
682.668	0.0140180
682.746	0.0141348
682.825	0.0139587
682.903	0.0140781
682.981	0.0140598
683.059	0.0141459
683.137	0.0140235
683.215	0.0140910
683.293	0.0139429
683.371	0.0140138
683.450	0.0141769
683.528	0.0140239
683.606	0.0142182
683.684	0.0141161
683.762	0.0141096
683.840	0.0139712
683.918	0.0140993
683.996	0.0141050
684.075	0.0140182
684.153	0.0141344
684.231	0.0140121
684.309	0.0141586
684.387	0.0142390
684.465	0.0141528
684.543	0.0142088
684.621	0.0141284
684.700	0.0140533
684.778	0.0140036
684.856	0.0140777
684.934	0.0140953
685.012	0.0141230
685.090	0.0141647
685.168	0.0140971
685.246	0.0140227
685.325	0.0140284
685.403	0.0141487
685.481	0.0141299
685.559	0.0141100
685.637	0.0139825
685.715	0.0141695
685.793	0.0140321
685.871	0.0140007
685.950	0.0140433
686.028	0.0140865
686.106	0.0142191
686.184	0.0140444
686.262	0.0141388
686.340	0.0140811
686.418	0.0140393
686.496	0.0140181
686.575	0.0140369
686.653	0.0140797
686.731	0.0140882
686.809	0.0141409
686.887	0.0140323
686.965	0.0139999
687.043	0.0141722
687.121	0.0140436
687.200	0.0140936
687.278	0.0139463
687.356	0.0140003
687.434	0.0139953
687.512	0.0139972
687.590	0.0140951
687.668	0.0139689
687.746	0.0141267
687.825	0.0140424
687.903	0.0139488
687.981	0.0139962
688.059	0.0139836
688.137	0.0140416
688.215	0.0141007
688.293	0.0139748
688.371	0.0140827
688.450	0.0139722
688.528	0.0140562
688.606	0.0139799
688.684	0.0140464
688.762	0.0139875
688.840	0.0139891
688.918	0.0140832
688.996	0.0139983
689.075	0.0141145
689.153	0.0140216
689.231	0.0140231
689.309	0.0140162
689.387	0.0139348
689.465	0.0141526
689.543	0.0139918
689.621	0.0141566
689.700	0.0142426
689.778	0.0141124
689.856	0.0140228
689.934	0.0142107
690.012	0.0139805
690.090	0.0140877
690.168	0.0140681
690.246	0.0140269
690.325	0.0140139
690.403	0.0140643
690.481	0.0141045
690.559	0.0140112
690.637	0.0140430
690.715	0.0139182
690.793	0.0138991
690.871	0.0140625
690.950	0.0140321
691.028	0.0139630
691.106	0.0141203
691.184	0.0140343
691.262	0.0140113
691.340	0.0140479
691.418	0.0141208
691.496	0.0140015
691.575	0.0140210
691.653	0.0141479
691.731	0.0141648
691.809	0.0140492
691.887	0.0139630
691.965	0.0140012
692.043	0.0142269
692.121	0.0140414
692.200	0.0139830
692.278	0.0141566
692.356	0.0140348
692.434	0.0140653
692.512	0.0140739
692.590	0.0141263
692.668	0.0139934
692.746	0.0139644
692.825	0.0140187
692.903	0.0140709
692.981	0.0140598
693.059	0.0140385
693.137	0.0141125
693.215	0.0140964
693.293	0.0140518
693.371	0.0140506
693.450	0.0141781
693.528	0.0139967
693.606	0.0139509
693.684	0.0141396
693.762	0.0141472
693.840	0.0140716
693.918	0.0140435
693.996	0.0140288
694.075	0.0140108
694.153	0.0139794
694.231	0.0140302
694.309	0.0141335
694.387	0.0140951
694.465	0.0141010
694.543	0.0140286
694.621	0.0139191
694.700	0.0140471
694.778	0.0140273
694.856	0.0140026
694.934	0.0140218
695.012	0.0141258
695.090	0.0140811
695.168	0.0140691
695.246	0.0140984
695.325	0.0141380
695.403	0.0140791
695.481	0.0140737
695.559	0.0139842
695.637	0.0141277
695.715	0.0141617
695.793	0.0140147
695.871	0.0138725
695.950	0.0140353
696.028	0.0140580
696.106	0.0140260
696.184	0.0140739
696.262	0.0139637
696.340	0.0140701
696.418	0.0142169
696.496	0.0141259
696.575	0.0140881
696.653	0.0140266
696.731	0.0141741
696.809	0.0141499
696.887	0.0139899
696.965	0.0139592
697.043	0.0141386
697.121	0.0140961
697.200	0.0140963
697.278	0.0140485
697.356	0.0140889
697.434	0.0140106
697.512	0.0140323
697.590	0.0141483
697.668	0.0141733
697.746	0.0140097
697.825	0.0141387
697.903	0.0141818
697.981	0.0141087
698.059	0.0139969
698.137	0.0140588
698.215	0.0141615
698.293	0.0141330
698.371	0.0140088
698.450	0.0140796
698.528	0.0140724
698.606	0.0140924
698.684	0.0141043
698.762	0.0140164
698.840	0.0139861
698.918	0.0139519
698.996	0.0141110
699.075	0.0140739
699.153	0.0140170
699.231	0.0141241
699.309	0.0141100
699.387	0.0139552
699.465	0.0139406
699.543	0.0140838
699.621	0.0140884
699.700	0.0139596
699.778	0.0139522
699.856	0.0140410
699.934	0.0139607
700.012	0.0141351
700.090	0.0140307
700.168	0.0139139
700.246	0.0139484
700.325	0.0141630
700.403	0.0141183
700.481	0.0139816
700.559	0.0140246
700.637	0.0141021
700.715	0.0139842
700.793	0.0140125
700.871	0.0140338
700.950	0.0140396
701.028	0.0140716
701.106	0.0140643
701.184	0.0140102
701.262	0.0141086
701.340	0.0140240
701.418	0.0139417
701.496	0.0140194
701.575	0.0141531
701.653	0.0140191
701.731	0.0139231
701.809	0.0140871
701.887	0.0139621
701.965	0.0139802
702.043	0.0140411
702.121	0.0139108
702.200	0.0139950
702.278	0.0140279
702.356	0.0138898
702.434	0.0139284
702.512	0.0139998
702.590	0.0141121
702.668	0.0140690
702.746	0.0142516
702.825	0.0141238
702.903	0.0141753
702.981	0.0141410
703.059	0.0141394
703.137	0.0141695
703.215	0.0142426
703.293	0.0140951
703.371	0.0142064
703.450	0.0141321
703.528	0.0141290
703.606	0.0140634
703.684	0.0140875
703.762	0.0140642
703.840	0.0141223
703.918	0.0141387
703.996	0.0139422
704.075	0.0140765
704.153	0.0140703
704.231	0.0140689
704.309	0.0141008
704.387	0.0139501
704.465	0.0140330
704.543	0.0139242
704.621	0.0138665
704.700	0.0138055
704.778	0.0138618
704.856	0.0136934
704.934	0.0137212
705.012	0.0135970
705.090	0.0136769
705.168	0.0137932
705.246	0.0137403
705.325	0.0137749
705.403	0.0138776
705.481	0.0140013
705.559	0.0140495
705.637	0.0140377
705.715	0.0142974
705.793	0.0146529
705.871	0.0147815
705.950	0.0149751
706.028	0.0151204
706.106	0.0153787
706.184	0.0151329
706.262	0.0148443
706.340	0.0146995
706.418	0.0145511
706.496	0.0141856
706.575	0.0138327
706.653	0.0132829
706.731	0.0130724
706.809	0.0128439
706.887	0.0128297
706.965	0.0125933
707.043	0.0127386
707.121	0.0129259
707.200	0.0130484
707.278	0.0131258
707.356	0.0134491
707.434	0.0135659
707.512	0.0137104
707.590	0.0139141
707.668	0.0141287
707.746	0.0143232
707.825	0.0147195
707.903	0.0151171
707.981	0.0155291
708.059	0.0155730
708.137	0.0158768
708.215	0.0159750
708.293	0.0157077
708.371	0.0155502
708.450	0.0152548
708.528	0.0147958
708.606	0.0144307
708.684	0.0141432
708.762	0.0136205
708.840	0.0131184
708.918	0.0128513
708.996	0.0128301
709.075	0.0127390
709.153	0.0126538
709.231	0.0127128
709.309	0.0125822
709.387	0.0123594
709.465	0.0120695
709.543	0.0120741
709.621	0.0120947
709.700	0.0122460
709.778	0.0125317
709.856	0.0131058
709.934	0.0136068
710.012	0.0144391
710.090	0.0150129
710.168	0.0154546
710.246	0.0158674
710.325	0.0162398
710.403	0.0164981
710.481	0.0167458
710.559	0.0168670
710.637	0.0169250
710.715	0.0167994
710.793	0.0163961
710.871	0.0161985
710.950	0.0156254
711.028	0.0151326
711.106	0.0143974
711.184	0.0136829
711.262	0.0129123
711.340	0.0125306
711.418	0.0118240
711.496	0.0113139
711.575	0.0109348
711.653	0.0107256
711.731	0.0107012
711.809	0.0105829
711.887	0.0107732
711.965	0.0114090
712.043	0.0120036
712.121	0.0127613
712.200	0.0137122
712.278	0.0146568
712.356	0.0155346
712.434	0.0163419
712.512	0.0167196
712.590	0.0170452
712.668	0.0171243
712.746	0.0171758
712.825	0.0171161
712.903	0.0168565
712.981	0.0168130
713.059	0.0165671
713.137	0.0161621
713.215	0.0158643
713.293	0.0152335
713.371	0.0145791
713.450	0.0137413
713.528	0.0130669
713.606	0.0124161
713.684	0.0120010
713.762	0.0116811
713.840	0.0114977
713.918	0.0114487
713.996	0.0115858
714.075	0.0115199
714.153	0.0115801
714.231	0.0116898
714.309	0.0120203
714.387	0.0123550
714.465	0.0128054
714.543	0.0130923
714.621	0.0136824
714.700	0.0142498
714.778	0.0147172
714.856	0.0150360
714.934	0.0153230
715.012	0.0157326
715.090	0.0158185
715.168	0.0159532
715.246	0.0161122
715.325	0.0160748
715.403	0.0160919
715.481	0.0159161
715.559	0.0156931
715.637	0.0153738
715.715	0.0149128
715.793	0.0143925
715.871	0.0140878
715.950	0.0138083
716.028	0.0134422
716.106	0.0134072
716.184	0.0132614
716.262	0.0131795
716.340	0.0133003
716.418	0.0132281
716.496	0.0132509
716.575	0.0132868
716.653	0.0133572
716.731	0.0133928
716.809	0.0134743
716.887	0.0133231
716.965	0.0132732
717.043	0.0130605
717.121	0.0132284
717.200	0.0133564
717.278	0.0135318
717.356	0.0137524
717.434	0.0140009
717.512	0.0143768
717.590	0.0145844
717.668	0.0148751
717.746	0.0149731
717.825	0.0150595
717.903	0.0151868
717.981	0.0152961
718.059	0.0150968
718.137	0.0149455
718.215	0.0148728
718.293	0.0146737
718.371	0.0145273
718.450	0.0143018
718.528	0.0142937
718.606	0.0141528
718.684	0.0140646
718.762	0.0140361
718.840	0.0138329
718.918	0.0137541
718.996	0.0134882
719.075	0.0132458
719.153	0.0129419
719.231	0.0128511
719.309	0.0127147
719.387	0.0126456
719.465	0.0127285
719.543	0.0128088
719.621	0.0129497
719.700	0.0130701
719.778	0.0131908
719.856	0.0135404
719.934	0.0139143
720.012	0.0141547
720.090	0.0144871
720.168	0.0149786
720.246	0.0154171
720.325	0.0157052
720.403	0.0158297
720.481	0.0157533
720.559	0.0157229
720.637	0.0155868
720.715	0.0152422
720.793	0.0149649
720.871	0.0146680
720.950	0.0142760
721.028	0.0138400
721.106	0.0133578
721.184	0.0130572
721.262	0.0128722
721.340	0.0127311
721.418	0.0124546
721.496	0.0123647
721.575	0.0123769
721.653	0.0123218
721.731	0.0124458
721.809	0.0125954
721.887	0.0127409
721.965	0.0129562
722.043	0.0133148
722.121	0.0137067
722.200	0.0140653
722.278	0.0142760
722.356	0.0146642
722.434	0.0151745
722.512	0.0154661
722.590	0.0155740
722.668	0.0156507
722.746	0.0157454
722.825	0.0158350
722.903	0.0160353
722.981	0.0158219
723.059	0.0157338
723.137	0.0155346
723.215	0.0152576
723.293	0.0148553
723.371	0.0142337
723.450	0.0137915
723.528	0.0134258
723.606	0.0131464
723.684	0.0127605
723.762	0.0124746
723.840	0.0120573
723.918	0.0121481
723.996	0.0119657
724.075	0.0120409
724.153	0.0124718
724.231	0.0124912
724.309	0.0129869
724.387	0.0133346
724.465	0.0137287
724.543	0.0142871
724.621	0.0147284
724.700	0.0152563
724.778	0.0156227
724.856	0.0157956
724.934	0.0159953
725.012	0.0160480
725.090	0.0159043
725.168	0.0157829
725.246	0.0153648
725.325	0.0149650
725.403	0.0145956
725.481	0.0140785
725.559	0.0135750
725.637	0.0134029
725.715	0.0127213
725.793	0.0126189
725.871	0.0125079
725.950	0.0122478
726.028	0.0123408
726.106	0.0124825
726.184	0.0126367
726.262	0.0130773
726.340	0.0133146
726.418	0.0134359
726.496	0.0137106
726.575	0.0142010
726.653	0.0144196
726.731	0.0147493
726.809	0.0150951
726.887	0.0153425
726.965	0.0152210
727.043	0.0156040
727.121	0.0157383
727.200	0.0157233
727.278	0.0157747
727.356	0.0157364
727.434	0.0155683
727.512	0.0153407
727.590	0.0151392
727.668	0.0149083
727.746	0.0144778
727.825	0.0139240
727.903	0.0134441
727.981	0.0132349
728.059	0.0125407
728.137	0.0122451
728.215	0.0118103
728.293	0.0117091
728.371	0.0115732
728.450	0.0116096
728.528	0.0116946
728.606	0.0118592
728.684	0.0120657
728.762	0.0124651
728.840	0.0130373
728.918	0.0137955
728.996	0.0143274
729.075	0.0150624
729.153	0.0155522
729.231	0.0160177
729.309	0.0164583
729.387	0.0166324
729.465	0.0166368
729.543	0.0165495
729.621	0.0164307
729.700	0.0162455
729.778	0.0158906
729.856	0.0154487
729.934	0.0151125
730.012	0.0145703
730.090	0.0141592
730.168	0.0136749
730.246	0.0134055
730.325	0.0129341
730.403	0.0125256
730.481	0.0123266
730.559	0.0121976
730.637	0.0121998
730.715	0.0123004
730.793	0.0124738
730.871	0.0125350
730.950	0.0126894
731.028	0.0129848
731.106	0.0131351
731.184	0.0134266
731.262	0.0139291
731.340	0.0140881
731.418	0.0144946
731.496	0.0147387
731.575	0.0151249
731.653	0.0153020
731.731	0.0155095
731.809	0.0155804
731.887	0.0158253
731.965	0.0156837
732.043	0.0155811
732.121	0.0156132
732.200	0.0153259
732.278	0.0150328
732.356	0.0149158
732.434	0.0145539
732.512	0.0142092
732.590	0.0138901
732.668	0.0135221
732.746	0.0132079
732.825	0.0128353
732.903	0.0126311
732.981	0.0123773
733.059	0.0123399
733.137	0.0123412
733.215	0.0123992
733.293	0.0125604
733.371	0.0127518
733.450	0.0128617
733.528	0.0133035
733.606	0.0137798
733.684	0.0140440
733.762	0.0144230
733.840	0.0146958
733.918	0.0149173
733.996	0.0153808
734.075	0.0154767
734.153	0.0155949
734.231	0.0157764
734.309	0.0156917
734.387	0.0154890
734.465	0.0154721
734.543	0.0152628
734.621	0.0149091
734.700	0.0146687
734.778	0.0145684
734.856	0.0142973
734.934	0.0139445
735.012	0.0137621
735.090	0.0134244
735.168	0.0133222
735.246	0.0131960
735.325	0.0131210
735.403	0.0130477
735.481	0.0129462
735.559	0.0128798
735.637	0.0129532
735.715	0.0128565
735.793	0.0128317
735.871	0.0130153
735.950	0.0131826
736.028	0.0132841
736.106	0.0135165
736.184	0.0137526
736.262	0.0139107
736.340	0.0141171
736.418	0.0144952
736.496	0.0145931
736.575	0.0148399
736.653	0.0151241
736.731	0.0152612
736.809	0.0154996
736.887	0.0155562
736.965	0.0155798
737.043	0.0155717
737.121	0.0153530
737.200	0.0151434
737.278	0.0148787
737.356	0.0144433
737.434	0.0141915
737.512	0.0138119
737.590	0.0135134
737.668	0.0132648
737.746	0.0129315
737.825	0.0126606
737.903	0.0125591
737.981	0.0126692
738.059	0.0125821
738.137	0.0126680
738.215	0.0129185
738.293	0.0131332
738.371	0.0133974
738.450	0.0136483
738.528	0.0139793
738.606	0.0142854
738.684	0.0144720
738.762	0.0148391
738.840	0.0150420
738.918	0.0152229
738.996	0.0153239
739.075	0.0154202
739.153	0.0153439
739.231	0.0153544
739.309	0.0152198
739.387	0.0150562
739.465	0.0148326
739.543	0.0146450
739.621	0.0144382
739.700	0.0141216
739.778	0.0138309
739.856	0.0137171
739.934	0.0134668
740.012	0.0134079
740.090	0.0130843
740.168	0.0130067
740.246	0.0127623
740.325	0.0127860
740.403	0.0127888
740.481	0.0127605
740.559	0.0127566
740.637	0.0130293
740.715	0.0131610
740.793	0.0134691
740.871	0.0136501
740.950	0.0139919
741.028	0.0142504
741.106	0.0145975
741.184	0.0148270
741.262	0.0151797
741.340	0.0152522
741.418	0.0154010
741.496	0.0155601
741.575	0.0155190
741.653	0.0155934
741.731	0.0155006
741.809	0.0153090
741.887	0.0151987
741.965	0.0150198
742.043	0.0147498
742.121	0.0144625
742.200	0.0142328
742.278	0.0138488
742.356	0.0134676
742.434	0.0130628
742.512	0.0130057
742.590	0.0127732
742.668	0.0126822
742.746	0.0125494
742.825	0.0125809
742.903	0.0124437
742.981	0.0125947
743.059	0.0128145
743.137	0.0132305
743.215	0.0132867
743.293	0.0135901
743.371	0.0138161
743.450	0.0142229
743.528	0.0143604
743.606	0.0145053
743.684	0.0147244
743.762	0.0149607
743.840	0.0150927
743.918	0.0152587
743.996	0.0152070
744.075	0.0152484
744.153	0.0152200
744.231	0.0152154
744.309	0.0151070
744.387	0.0148318
744.465	0.0147141
744.543	0.0146857
744.621	0.0144021
744.700	0.0141161
744.778	0.0137984
744.856	0.0137215
744.934	0.0134109
745.012	0.0132962
745.090	0.0130669
745.168	0.0129712
745.246	0.0129286
745.325	0.0129607
745.403	0.0127901
745.481	0.0128299
745.559	0.0129156
745.637	0.0130248
745.715	0.0130746
745.793	0.0132336
745.871	0.0136025
745.950	0.0138624
746.028	0.0142125
746.106	0.0142770
746.184	0.0145844
746.262	0.0146387
746.340	0.0149072
746.418	0.0150461
746.496	0.0151321
746.575	0.0152068
746.653	0.0151869
746.731	0.0153525
746.809	0.0151933
746.887	0.0149903
746.965	0.0149466
747.043	0.0147273
747.121	0.0144473
747.200	0.0141545
747.278	0.0139906
747.356	0.0139041
747.434	0.0135999
747.512	0.0135007
747.590	0.0133807
747.668	0.0132446
747.746	0.0129848
747.825	0.0129745
747.903	0.0129498
747.981	0.0129776
748.059	0.0130997
748.137	0.0130882
748.215	0.0133773
748.293	0.0134092
748.371	0.0136336
748.450	0.0139181
748.528	0.0140721
748.606	0.0141456
748.684	0.0143490
748.762	0.0145624
748.840	0.0147074
748.918	0.0148561
748.996	0.0148181
749.075	0.0147979
749.153	0.0148695
749.231	0.0148635
749.309	0.0147980
749.387	0.0148580
749.465	0.0146762
749.543	0.0145062
749.621	0.0143019
749.700	0.0142193
749.778	0.0140370
749.856	0.0137203
749.934	0.0136624
750.012	0.0135777
750.090	0.0133807
750.168	0.0133997
750.246	0.0132874
750.325	0.0132189
750.403	0.0131611
750.481	0.0131835
750.559	0.0132810
750.637	0.0134376
750.715	0.0134225
750.793	0.0135722
750.871	0.0138147
750.950	0.0139702
751.028	0.0140964
751.106	0.0143302
751.184	0.0145633
751.262	0.0145248
751.340	0.0145672
751.418	0.0147742
751.496	0.0148853
751.575	0.0148624
751.653	0.0148898
751.731	0.0149318
751.809	0.0148796
751.887	0.0147781
751.965	0.0147476
752.043	0.0143741
752.121	0.0143887
752.200	0.0142303
752.278	0.0140965
752.356	0.0139181
752.434	0.0137460
752.512	0.0136168
752.590	0.0135728
752.668	0.0135130
752.746	0.0134767
752.825	0.0132086
752.903	0.0132159
752.981	0.0132774
753.059	0.0132644
753.137	0.0134545
753.215	0.0135486
753.293	0.0136002
753.371	0.0137858
753.450	0.0139825
753.528	0.0141135
753.606	0.0141246
753.684	0.0142765
753.762	0.0143246
753.840	0.0144381
753.918	0.0144013
753.996	0.0146563
754.075	0.0147057
754.153	0.0147034
754.231	0.0146585
754.309	0.0147260
754.387	0.0145271
754.465	0.0144814
754.543	0.0142983
754.621	0.0142518
754.700	0.0140398
754.778	0.0140820
754.856	0.0138011
754.934	0.0137923
755.012	0.0138173
755.090	0.0137400
755.168	0.0137354
755.246	0.0135075
755.325	0.0135042
755.403	0.0135263
755.481	0.0135355
755.559	0.0135293
755.637	0.0135922
755.715	0.0136667
755.793	0.0137958
755.871	0.0138091
755.950	0.0138210
756.028	0.0140382
756.106	0.0140583
756.184	0.0142554
756.262	0.0142691
756.340	0.0142872
756.418	0.0144484
756.496	0.0145760
756.575	0.0143759
756.653	0.0145993
756.731	0.0146010
756.809	0.0145910
756.887	0.0143161
756.965	0.0142658
757.043	0.0143958
757.121	0.0143755
757.200	0.0140472
757.278	0.0140055
757.356	0.0138448
757.434	0.0138747
757.512	0.0137865
757.590	0.0136709
757.668	0.0134882
757.746	0.0135410
757.825	0.0134991
757.903	0.0135816
757.981	0.0134937
758.059	0.0134778
758.137	0.0137650
758.215	0.0136157
758.293	0.0137028
758.371	0.0139114
758.450	0.0139642
758.528	0.0142323
758.606	0.0142989
758.684	0.0142622
758.762	0.0142016
758.840	0.0143839
758.918	0.0143786
758.996	0.0145306
759.075	0.0146156
759.153	0.0145964
759.231	0.0144892
759.309	0.0144163
759.387	0.0143560
759.465	0.0143565
759.543	0.0142805
759.621	0.0143294
759.700	0.0140684
759.778	0.0140273
759.856	0.0140269
759.934	0.0139475
760.012	0.0139085
760.090	0.0136862
760.168	0.0137771
760.246	0.0136086
760.325	0.0135837
760.403	0.0136393
760.481	0.0137529
760.559	0.0138538
760.637	0.0137068
760.715	0.0138142
760.793	0.0137850
760.871	0.0138036
760.950	0.0140092
761.028	0.0140569
761.106	0.0141412
761.184	0.0142204
761.262	0.0142218
761.340	0.0143632
761.418	0.0142902
761.496	0.0144544
761.575	0.0144714
761.653	0.0145538
761.731	0.0144391
761.809	0.0144337
761.887	0.0143640
761.965	0.0142299
762.043	0.0141673
762.121	0.0142086
762.200	0.0140926
762.278	0.0140137
762.356	0.0139267
762.434	0.0138940
762.512	0.0137652
762.590	0.0137539
762.668	0.0138577
762.746	0.0136820
762.825	0.0137926
762.903	0.0137572
762.981	0.0136988
763.059	0.0137445
763.137	0.0137383
763.215	0.0137029
763.293	0.0139333
763.371	0.0139792
763.450	0.0139144
763.528	0.0138865
763.606	0.0140371
763.684	0.0141230
763.762	0.0141927
763.840	0.0141384
763.918	0.0142628
763.996	0.0142541
764.075	0.0143096
764.153	0.0143659
764.231	0.0144053
764.309	0.0142154
764.387	0.0142121
764.465	0.0144420
764.543	0.0142660
764.621	0.0140606
764.700	0.0141251
