05/04/2022	21:05:22	Ver.	4.1	UNKNOWN
Optical Delay	678.996401	Delta X		0.078125	Sweeps	1	Scan Rate	0/0
Coordinates	Axis 1	NaN	Axis 2	NaN	Axis 3	NaN	Axis 4	NaN	Axis 5	NaN	Axis 6	0.000000
TX Power	0.000000	RX Power	0.000000

678.996	0.0145138
679.075	0.0145413
679.153	0.0144689
679.231	0.0144720
679.309	0.0145066
679.387	0.0144410
679.465	0.0145081
679.543	0.0146471
679.621	0.0147020
679.700	0.0145619
679.778	0.0144031
679.856	0.0144126
679.934	0.0144202
680.012	0.0144806
680.090	0.0145406
680.168	0.0146314
680.246	0.0145605
680.325	0.0144199
680.403	0.0145542
680.481	0.0145561
680.559	0.0144953
680.637	0.0145922
680.715	0.0144501
680.793	0.0145943
680.871	0.0147268
680.950	0.0145032
681.028	0.0144273
681.106	0.0145650
681.184	0.0145536
681.262	0.0144839
681.340	0.0145567
681.418	0.0145643
681.496	0.0146680
681.575	0.0145239
681.653	0.0145361
681.731	0.0144720
681.809	0.0144736
681.887	0.0145538
681.965	0.0145048
682.043	0.0144994
682.121	0.0146123
682.200	0.0145210
682.278	0.0145585
682.356	0.0145282
682.434	0.0143759
682.512	0.0145315
682.590	0.0145318
682.668	0.0144913
682.746	0.0143484
682.825	0.0145028
682.903	0.0145502
682.981	0.0146374
683.059	0.0145599
683.137	0.0144951
683.215	0.0144646
683.293	0.0146108
683.371	0.0144920
683.450	0.0143943
683.528	0.0145722
683.606	0.0144917
683.684	0.0145432
683.762	0.0146151
683.840	0.0144700
683.918	0.0146151
683.996	0.0146257
684.075	0.0144583
684.153	0.0144342
684.231	0.0144873
684.309	0.0146256
684.387	0.0145192
684.465	0.0145007
684.543	0.0146030
684.621	0.0145319
684.700	0.0144296
684.778	0.0144700
684.856	0.0143961
684.934	0.0145511
685.012	0.0145444
685.090	0.0146172
685.168	0.0144695
685.246	0.0144965
685.325	0.0144926
685.403	0.0146413
685.481	0.0144829
685.559	0.0144308
685.637	0.0144546
685.715	0.0145211
685.793	0.0144061
685.871	0.0144984
685.950	0.0144418
686.028	0.0145542
686.106	0.0144869
686.184	0.0145562
686.262	0.0144887
686.340	0.0145010
686.418	0.0143822
686.496	0.0145677
686.575	0.0145264
686.653	0.0145503
686.731	0.0145302
686.809	0.0143380
686.887	0.0146102
686.965	0.0144571
687.043	0.0144955
687.121	0.0144131
687.200	0.0145848
687.278	0.0144494
687.356	0.0145403
687.434	0.0145297
687.512	0.0145042
687.590	0.0145374
687.668	0.0144146
687.746	0.0145501
687.825	0.0146201
687.903	0.0145121
687.981	0.0145515
688.059	0.0143989
688.137	0.0143417
688.215	0.0147040
688.293	0.0145968
688.371	0.0145202
688.450	0.0145101
688.528	0.0146165
688.606	0.0145202
688.684	0.0145682
688.762	0.0144982
688.840	0.0145821
688.918	0.0145398
688.996	0.0144373
689.075	0.0144700
689.153	0.0145308
689.231	0.0145519
689.309	0.0144144
689.387	0.0144888
689.465	0.0145106
689.543	0.0145486
689.621	0.0144247
689.700	0.0144310
689.778	0.0145362
689.856	0.0143486
689.934	0.0145513
690.012	0.0145456
690.090	0.0144852
690.168	0.0143959
690.246	0.0145702
690.325	0.0145393
690.403	0.0144333
690.481	0.0144522
690.559	0.0145611
690.637	0.0143344
690.715	0.0144921
690.793	0.0145701
690.871	0.0145751
690.950	0.0146059
691.028	0.0144646
691.106	0.0146165
691.184	0.0145029
691.262	0.0144997
691.340	0.0144220
691.418	0.0143882
691.496	0.0144634
691.575	0.0144471
691.653	0.0144540
691.731	0.0145999
691.809	0.0145657
691.887	0.0146527
691.965	0.0145935
692.043	0.0145152
692.121	0.0145334
692.200	0.0145539
692.278	0.0144601
692.356	0.0144323
692.434	0.0145084
692.512	0.0144604
692.590	0.0145789
692.668	0.0144144
692.746	0.0145329
692.825	0.0144732
692.903	0.0146756
692.981	0.0145375
693.059	0.0145630
693.137	0.0145821
693.215	0.0145149
693.293	0.0143970
693.371	0.0146175
693.450	0.0144682
693.528	0.0144754
693.606	0.0145483
693.684	0.0146044
693.762	0.0144628
693.840	0.0145284
693.918	0.0145811
693.996	0.0145248
694.075	0.0146060
694.153	0.0146490
694.231	0.0145084
694.309	0.0146711
694.387	0.0145968
694.465	0.0144301
694.543	0.0146767
694.621	0.0145052
694.700	0.0145678
694.778	0.0146268
694.856	0.0145740
694.934	0.0144971
695.012	0.0144853
695.090	0.0144496
695.168	0.0144806
695.246	0.0145567
695.325	0.0145638
695.403	0.0146051
695.481	0.0144853
695.559	0.0145224
695.637	0.0145571
695.715	0.0145247
695.793	0.0145055
695.871	0.0145509
695.950	0.0145826
696.028	0.0145513
696.106	0.0144954
696.184	0.0145095
696.262	0.0145115
696.340	0.0144436
696.418	0.0144521
696.496	0.0144241
696.575	0.0144981
696.653	0.0144916
696.731	0.0145448
696.809	0.0144789
696.887	0.0144873
696.965	0.0145132
697.043	0.0146644
697.121	0.0146712
697.200	0.0145493
697.278	0.0145962
697.356	0.0145502
697.434	0.0144991
697.512	0.0146828
697.590	0.0145157
697.668	0.0145072
697.746	0.0144092
697.825	0.0145870
697.903	0.0146156
697.981	0.0145130
698.059	0.0144947
698.137	0.0144154
698.215	0.0144931
698.293	0.0146148
698.371	0.0145707
698.450	0.0145073
698.528	0.0145268
698.606	0.0144567
698.684	0.0145148
698.762	0.0146437
698.840	0.0145680
698.918	0.0146404
698.996	0.0146571
699.075	0.0143790
699.153	0.0145626
699.231	0.0145562
699.309	0.0144986
699.387	0.0144476
699.465	0.0144791
699.543	0.0146436
699.621	0.0145599
699.700	0.0146253
699.778	0.0144418
699.856	0.0146339
699.934	0.0146194
700.012	0.0144505
700.090	0.0144850
700.168	0.0145720
700.246	0.0146078
700.325	0.0144302
700.403	0.0144946
700.481	0.0145486
700.559	0.0145692
700.637	0.0144520
700.715	0.0145998
700.793	0.0145542
700.871	0.0144320
700.950	0.0145615
701.028	0.0146341
701.106	0.0145132
701.184	0.0147237
701.262	0.0146154
701.340	0.0146513
701.418	0.0147014
701.496	0.0147337
701.575	0.0145916
701.653	0.0146579
701.731	0.0146276
701.809	0.0146791
701.887	0.0146737
701.965	0.0145634
702.043	0.0146879
702.121	0.0146834
702.200	0.0144255
702.278	0.0146504
702.356	0.0147290
702.434	0.0146372
702.512	0.0146008
702.590	0.0145749
702.668	0.0146995
702.746	0.0144743
702.825	0.0145794
702.903	0.0146012
702.981	0.0146309
703.059	0.0146756
703.137	0.0145609
703.215	0.0145652
703.293	0.0147527
703.371	0.0145471
703.450	0.0146822
703.528	0.0146490
703.606	0.0147656
703.684	0.0147230
703.762	0.0145876
703.840	0.0145992
703.918	0.0146866
703.996	0.0145116
704.075	0.0144328
704.153	0.0143200
704.231	0.0144269
704.309	0.0144023
704.387	0.0144118
704.465	0.0144341
704.543	0.0143139
704.621	0.0141776
704.700	0.0141355
704.778	0.0142921
704.856	0.0143600
704.934	0.0143872
705.012	0.0144016
705.090	0.0146220
705.168	0.0145411
705.246	0.0145688
705.325	0.0149483
705.403	0.0150482
705.481	0.0152029
705.559	0.0152445
705.637	0.0152369
705.715	0.0151888
705.793	0.0152062
705.871	0.0148588
705.950	0.0145719
706.028	0.0142850
706.106	0.0140132
706.184	0.0137551
706.262	0.0136506
706.340	0.0134434
706.418	0.0136205
706.496	0.0136509
706.575	0.0136146
706.653	0.0136299
706.731	0.0139140
706.809	0.0140042
706.887	0.0141583
706.965	0.0144540
707.043	0.0147404
707.121	0.0150684
707.200	0.0152421
707.278	0.0154654
707.356	0.0156563
707.434	0.0157590
707.512	0.0158922
707.590	0.0159745
707.668	0.0159547
707.746	0.0157414
707.825	0.0157437
707.903	0.0156841
707.981	0.0153339
708.059	0.0148266
708.137	0.0145831
708.215	0.0142413
708.293	0.0137978
708.371	0.0133760
708.450	0.0131146
708.528	0.0130222
708.606	0.0128517
708.684	0.0129544
708.762	0.0131244
708.840	0.0130696
708.918	0.0131767
708.996	0.0133979
709.075	0.0133835
709.153	0.0133764
709.231	0.0134372
709.309	0.0138001
709.387	0.0141808
709.465	0.0144437
709.543	0.0148704
709.621	0.0152300
709.700	0.0155435
709.778	0.0161029
709.856	0.0162171
709.934	0.0164135
710.012	0.0166092
710.090	0.0167902
710.168	0.0168079
710.246	0.0165833
710.325	0.0163026
710.403	0.0160901
710.481	0.0156166
710.559	0.0151161
710.637	0.0144246
710.715	0.0137101
710.793	0.0131605
710.871	0.0126258
710.950	0.0123407
711.028	0.0121075
711.106	0.0119871
711.184	0.0117650
711.262	0.0117588
711.340	0.0118703
711.418	0.0121004
711.496	0.0124056
711.575	0.0129213
711.653	0.0135020
711.731	0.0141003
711.809	0.0149312
711.887	0.0155453
711.965	0.0163479
712.043	0.0167619
712.121	0.0171195
712.200	0.0172874
712.278	0.0172536
712.356	0.0171634
712.434	0.0169961
712.512	0.0167319
712.590	0.0162884
712.668	0.0161572
712.746	0.0157922
712.825	0.0153668
712.903	0.0148110
712.981	0.0144790
713.059	0.0142785
713.137	0.0138449
713.215	0.0136492
713.293	0.0134791
713.371	0.0133423
713.450	0.0129761
713.528	0.0126547
713.606	0.0125103
713.684	0.0126871
713.762	0.0123244
713.840	0.0124405
713.918	0.0123628
713.996	0.0125611
714.075	0.0129063
714.153	0.0132739
714.231	0.0137225
714.309	0.0143197
714.387	0.0147830
714.465	0.0150938
714.543	0.0157230
714.621	0.0160251
714.700	0.0162534
714.778	0.0166447
714.856	0.0166119
714.934	0.0165965
715.012	0.0164851
715.090	0.0163853
715.168	0.0161655
715.246	0.0159318
715.325	0.0156803
715.403	0.0151427
715.481	0.0149689
715.559	0.0146452
715.637	0.0142949
715.715	0.0140572
715.793	0.0138190
715.871	0.0137791
715.950	0.0136926
716.028	0.0136302
716.106	0.0135853
716.184	0.0133612
716.262	0.0133208
716.340	0.0133838
716.418	0.0132876
716.496	0.0131570
716.575	0.0130173
716.653	0.0131865
716.731	0.0131276
716.809	0.0133558
716.887	0.0136277
716.965	0.0137881
717.043	0.0141941
717.121	0.0145567
717.200	0.0149089
717.278	0.0154050
717.356	0.0158157
717.434	0.0159847
717.512	0.0162200
717.590	0.0162536
717.668	0.0161933
717.746	0.0162600
717.825	0.0158633
717.903	0.0156044
717.981	0.0153176
718.059	0.0150700
718.137	0.0146591
718.215	0.0144701
718.293	0.0142525
718.371	0.0139693
718.450	0.0139175
718.528	0.0138110
718.606	0.0136150
718.684	0.0136824
718.762	0.0134711
718.840	0.0133187
718.918	0.0131989
718.996	0.0131454
719.075	0.0134830
719.153	0.0135611
719.231	0.0135847
719.309	0.0137852
719.387	0.0141051
719.465	0.0143803
719.543	0.0145090
719.621	0.0148433
719.700	0.0152691
719.778	0.0154478
719.856	0.0157478
719.934	0.0157843
720.012	0.0155879
720.090	0.0158056
720.168	0.0156722
720.246	0.0155918
720.325	0.0154732
720.403	0.0152962
720.481	0.0149162
720.559	0.0146198
720.637	0.0142834
720.715	0.0140408
720.793	0.0137453
720.871	0.0136290
720.950	0.0132929
721.028	0.0132469
721.106	0.0130956
721.184	0.0131236
721.262	0.0130948
721.340	0.0132363
721.418	0.0134576
721.496	0.0136288
721.575	0.0138191
721.653	0.0140723
721.731	0.0141142
721.809	0.0144471
721.887	0.0147928
721.965	0.0151212
722.043	0.0153448
722.121	0.0154733
722.200	0.0156958
722.278	0.0159673
722.356	0.0158875
722.434	0.0158662
722.512	0.0157146
722.590	0.0155767
722.668	0.0155289
722.746	0.0151646
722.825	0.0151331
722.903	0.0149418
722.981	0.0146365
723.059	0.0143982
723.137	0.0142840
723.215	0.0139188
723.293	0.0138950
723.371	0.0136905
723.450	0.0134686
723.528	0.0134027
723.606	0.0133052
723.684	0.0134811
723.762	0.0133914
723.840	0.0133838
723.918	0.0137089
723.996	0.0138548
724.075	0.0140256
724.153	0.0143372
724.231	0.0148953
724.309	0.0150095
724.387	0.0150879
724.465	0.0155138
724.543	0.0156390
724.621	0.0157066
724.700	0.0157595
724.778	0.0156773
724.856	0.0152792
724.934	0.0150491
725.012	0.0148324
725.090	0.0145171
725.168	0.0141341
725.246	0.0138045
725.325	0.0135229
725.403	0.0133457
725.481	0.0131783
725.559	0.0131802
725.637	0.0132439
725.715	0.0135315
725.793	0.0139024
725.871	0.0140318
725.950	0.0143742
726.028	0.0147028
726.106	0.0150099
726.184	0.0152666
726.262	0.0153545
726.340	0.0156335
726.418	0.0157568
726.496	0.0157791
726.575	0.0157867
726.653	0.0156604
726.731	0.0156679
726.809	0.0156548
726.887	0.0154266
726.965	0.0152192
727.043	0.0150115
727.121	0.0149327
727.200	0.0146102
727.278	0.0142766
727.356	0.0141140
727.434	0.0138461
727.512	0.0136388
727.590	0.0133603
727.668	0.0131572
727.746	0.0130334
727.825	0.0128233
727.903	0.0128363
727.981	0.0127424
728.059	0.0127341
728.137	0.0128767
728.215	0.0130494
728.293	0.0134201
728.371	0.0136155
728.450	0.0140685
728.528	0.0144123
728.606	0.0149881
728.684	0.0155162
728.762	0.0159321
728.840	0.0163285
728.918	0.0164751
728.996	0.0166789
729.075	0.0166923
729.153	0.0166968
729.231	0.0165971
729.309	0.0164857
729.387	0.0160103
729.465	0.0156779
729.543	0.0154128
729.621	0.0150274
729.700	0.0145676
729.778	0.0141512
729.856	0.0137634
729.934	0.0134235
730.012	0.0130117
730.090	0.0127565
730.168	0.0126204
730.246	0.0125058
730.325	0.0127858
730.403	0.0128242
730.481	0.0130294
730.559	0.0134070
730.637	0.0137321
730.715	0.0138406
730.793	0.0142683
730.871	0.0144222
730.950	0.0146274
731.028	0.0150584
731.106	0.0152930
731.184	0.0154252
731.262	0.0156120
731.340	0.0157185
731.418	0.0157234
731.496	0.0157722
731.575	0.0156544
731.653	0.0156652
731.731	0.0154057
731.809	0.0152163
731.887	0.0151917
731.965	0.0149516
732.043	0.0147001
732.121	0.0146843
732.200	0.0143976
732.278	0.0142439
732.356	0.0139796
732.434	0.0139043
732.512	0.0136745
732.590	0.0134384
732.668	0.0134805
732.746	0.0135217
732.825	0.0134577
732.903	0.0132718
732.981	0.0133755
733.059	0.0134921
733.137	0.0136116
733.215	0.0140283
733.293	0.0141872
733.371	0.0144446
733.450	0.0146912
733.528	0.0150719
733.606	0.0153067
733.684	0.0156062
733.762	0.0157249
733.840	0.0156687
733.918	0.0159215
733.996	0.0159681
734.075	0.0157811
734.153	0.0155447
734.231	0.0154490
734.309	0.0151202
734.387	0.0148573
734.465	0.0145362
734.543	0.0141869
734.621	0.0138567
734.700	0.0137172
734.778	0.0135793
734.856	0.0133900
734.934	0.0132398
735.012	0.0133450
735.090	0.0134175
735.168	0.0133591
735.246	0.0135258
735.325	0.0137047
735.403	0.0138062
735.481	0.0140241
735.559	0.0141895
735.637	0.0142368
735.715	0.0143055
735.793	0.0146273
735.871	0.0149207
735.950	0.0149077
736.028	0.0150677
736.106	0.0151003
736.184	0.0152181
736.262	0.0151710
736.340	0.0154791
736.418	0.0154692
736.496	0.0152563
736.575	0.0153508
736.653	0.0152779
736.731	0.0151012
736.809	0.0151246
736.887	0.0147769
736.965	0.0147071
737.043	0.0144440
737.121	0.0143005
737.200	0.0140782
737.278	0.0138239
737.356	0.0136852
737.434	0.0135261
737.512	0.0133972
737.590	0.0133978
737.668	0.0134060
737.746	0.0135323
737.825	0.0136683
737.903	0.0137884
737.981	0.0139149
738.059	0.0143336
738.137	0.0147375
738.215	0.0149171
738.293	0.0151221
738.371	0.0154445
738.450	0.0155048
738.528	0.0157236
738.606	0.0157584
738.684	0.0156474
738.762	0.0158640
738.840	0.0155862
738.918	0.0155303
738.996	0.0152613
739.075	0.0151919
739.153	0.0150625
739.231	0.0146124
739.309	0.0142622
739.387	0.0140198
739.465	0.0139342
739.543	0.0136630
739.621	0.0133715
739.700	0.0132417
739.778	0.0132730
739.856	0.0131862
739.934	0.0131156
740.012	0.0131482
740.090	0.0134950
740.168	0.0136347
740.246	0.0136961
740.325	0.0139580
740.403	0.0141871
740.481	0.0144124
740.559	0.0147250
740.637	0.0149879
740.715	0.0150817
740.793	0.0152586
740.871	0.0153670
740.950	0.0156312
741.028	0.0157005
741.106	0.0156187
741.184	0.0155231
741.262	0.0155865
741.340	0.0155674
741.418	0.0155362
741.496	0.0155051
741.575	0.0152689
741.653	0.0148993
741.731	0.0148666
741.809	0.0146622
741.887	0.0141733
741.965	0.0141029
742.043	0.0138971
742.121	0.0137312
742.200	0.0136008
742.278	0.0133138
742.356	0.0132162
742.434	0.0132578
742.512	0.0132616
742.590	0.0131930
742.668	0.0132812
742.746	0.0135658
742.825	0.0136049
742.903	0.0136337
742.981	0.0139819
743.059	0.0141762
743.137	0.0145142
743.215	0.0148431
743.293	0.0149770
743.371	0.0151751
743.450	0.0152245
743.528	0.0155199
743.606	0.0155127
743.684	0.0156127
743.762	0.0155254
743.840	0.0155931
743.918	0.0155637
743.996	0.0153835
744.075	0.0152747
744.153	0.0150488
744.231	0.0148166
744.309	0.0146104
744.387	0.0142975
744.465	0.0141704
744.543	0.0141870
744.621	0.0137243
744.700	0.0135387
744.778	0.0134585
744.856	0.0134468
744.934	0.0134708
745.012	0.0133920
745.090	0.0135487
745.168	0.0135729
745.246	0.0136861
745.325	0.0137866
745.403	0.0139525
745.481	0.0141728
745.559	0.0143909
745.637	0.0145720
745.715	0.0148142
745.793	0.0149310
745.871	0.0151006
745.950	0.0152497
746.028	0.0152551
746.106	0.0151945
746.184	0.0154507
746.262	0.0155362
746.340	0.0153420
746.418	0.0153541
746.496	0.0151309
746.575	0.0152077
746.653	0.0151411
746.731	0.0148457
746.809	0.0146255
746.887	0.0144588
746.965	0.0144071
747.043	0.0140834
747.121	0.0140287
747.200	0.0139259
747.278	0.0138151
747.356	0.0136835
747.434	0.0138522
747.512	0.0136138
747.590	0.0136465
747.668	0.0137642
747.746	0.0136875
747.825	0.0139735
747.903	0.0139578
747.981	0.0140877
748.059	0.0141936
748.137	0.0144608
748.215	0.0148904
748.293	0.0149309
748.371	0.0149271
748.450	0.0149412
748.528	0.0149857
748.606	0.0151008
748.684	0.0151256
748.762	0.0149422
748.840	0.0151855
748.918	0.0151572
748.996	0.0149788
749.075	0.0148956
749.153	0.0147771
749.231	0.0148085
749.309	0.0145045
749.387	0.0143618
749.465	0.0142107
749.543	0.0141827
749.621	0.0140783
749.700	0.0139652
749.778	0.0139826
749.856	0.0140607
749.934	0.0139011
750.012	0.0140136
750.090	0.0138821
750.168	0.0140836
750.246	0.0141119
750.325	0.0142963
750.403	0.0143433
750.481	0.0144295
750.559	0.0145627
750.637	0.0146776
750.715	0.0146806
750.793	0.0149168
750.871	0.0148715
750.950	0.0150657
751.028	0.0150243
751.106	0.0152423
751.184	0.0152698
751.262	0.0150457
751.340	0.0150674
751.418	0.0151355
751.496	0.0151242
751.575	0.0149989
751.653	0.0149988
751.731	0.0149409
751.809	0.0146346
751.887	0.0144563
751.965	0.0144415
752.043	0.0141900
752.121	0.0140972
752.200	0.0139962
752.278	0.0140129
752.356	0.0138889
752.434	0.0139058
752.512	0.0139757
752.590	0.0139663
752.668	0.0138910
752.746	0.0138425
752.825	0.0138979
752.903	0.0141143
752.981	0.0141518
753.059	0.0143134
753.137	0.0143954
753.215	0.0145346
753.293	0.0146836
753.371	0.0147444
753.450	0.0149050
753.528	0.0147865
753.606	0.0149267
753.684	0.0148079
753.762	0.0149139
753.840	0.0148875
753.918	0.0148802
753.996	0.0148523
754.075	0.0149165
754.153	0.0147736
754.231	0.0146000
754.309	0.0145862
754.387	0.0143626
754.465	0.0143022
754.543	0.0143071
754.621	0.0142155
754.700	0.0140243
754.778	0.0139247
754.856	0.0139762
754.934	0.0139782
755.012	0.0138589
755.090	0.0139479
755.168	0.0139289
755.246	0.0141451
755.325	0.0140884
755.403	0.0141630
755.481	0.0142974
755.559	0.0144888
755.637	0.0144721
755.715	0.0147228
755.793	0.0147453
755.871	0.0149064
755.950	0.0149155
756.028	0.0150207
756.106	0.0149802
756.184	0.0150306
756.262	0.0149589
756.340	0.0150748
756.418	0.0148941
756.496	0.0148410
756.575	0.0147712
756.653	0.0146803
756.731	0.0145659
756.809	0.0143854
756.887	0.0143478
756.965	0.0142259
757.043	0.0141141
757.121	0.0141241
757.200	0.0140239
757.278	0.0140513
757.356	0.0139671
757.434	0.0139137
757.512	0.0138924
757.590	0.0139230
757.668	0.0140037
757.746	0.0140629
757.825	0.0141422
757.903	0.0143179
757.981	0.0143517
758.059	0.0143865
758.137	0.0146337
758.215	0.0146241
758.293	0.0145350
758.371	0.0147231
758.450	0.0147606
758.528	0.0148140
758.606	0.0149401
758.684	0.0149123
758.762	0.0148126
758.840	0.0148466
758.918	0.0149446
758.996	0.0148386
759.075	0.0147266
759.153	0.0148243
759.231	0.0148090
759.309	0.0146985
759.387	0.0145990
759.465	0.0144704
759.543	0.0144698
759.621	0.0143911
759.700	0.0143631
759.778	0.0141837
759.856	0.0143545
759.934	0.0143357
760.012	0.0143082
760.090	0.0143121
760.168	0.0140731
760.246	0.0142677
760.325	0.0142900
760.403	0.0143465
760.481	0.0143387
760.559	0.0144812
760.637	0.0144358
760.715	0.0144836
760.793	0.0144460
760.871	0.0145017
760.950	0.0145898
761.028	0.0147264
761.106	0.0147879
761.184	0.0147256
761.262	0.0148730
761.340	0.0148346
761.418	0.0149229
761.496	0.0147546
761.575	0.0147246
761.653	0.0147415
761.731	0.0146590
761.809	0.0145455
761.887	0.0145488
761.965	0.0145275
762.043	0.0144282
762.121	0.0144653
762.200	0.0143233
762.278	0.0142817
762.356	0.0142949
762.434	0.0142285
762.512	0.0141242
762.590	0.0141421
762.668	0.0142056
762.746	0.0140979
762.825	0.0141760
762.903	0.0141237
762.981	0.0142609
763.059	0.0144481
763.137	0.0145140
763.215	0.0144262
763.293	0.0145218
763.371	0.0144559
763.450	0.0145882
763.528	0.0147305
763.606	0.0146854
763.684	0.0147734
763.762	0.0148584
763.840	0.0148279
763.918	0.0146042
763.996	0.0147411
764.075	0.0147888
764.153	0.0146754
764.231	0.0146613
764.309	0.0147234
764.387	0.0147115
764.465	0.0146097
764.543	0.0145525
764.621	0.0145572
764.700	0.0145007
