05/04/2022	21:06:27	Ver.	4.1	UNKNOWN
Optical Delay	678.996401	Delta X		0.078125	Sweeps	1	Scan Rate	0/0
Coordinates	Axis 1	NaN	Axis 2	NaN	Axis 3	NaN	Axis 4	NaN	Axis 5	NaN	Axis 6	0.000000
TX Power	0.000000	RX Power	0.000000

678.996	0.0149545
679.075	0.0148778
679.153	0.0148485
679.231	0.0150614
679.309	0.0149436
679.387	0.0148602
679.465	0.0148786
679.543	0.0148689
679.621	0.0150411
679.700	0.0149984
679.778	0.0149973
679.856	0.0149191
679.934	0.0149825
680.012	0.0148577
680.090	0.0148331
680.168	0.0150006
680.246	0.0148169
680.325	0.0148270
680.403	0.0148535
680.481	0.0149889
680.559	0.0148967
680.637	0.0148523
680.715	0.0149856
680.793	0.0147974
680.871	0.0149412
680.950	0.0149055
681.028	0.0149376
681.106	0.0148985
681.184	0.0149834
681.262	0.0150869
681.340	0.0150117
681.418	0.0149467
681.496	0.0149004
681.575	0.0150494
681.653	0.0149838
681.731	0.0151151
681.809	0.0149390
681.887	0.0149918
681.965	0.0149793
682.043	0.0148501
682.121	0.0149926
682.200	0.0149565
682.278	0.0148577
682.356	0.0150141
682.434	0.0149814
682.512	0.0148145
682.590	0.0149256
682.668	0.0149693
682.746	0.0149471
682.825	0.0149052
682.903	0.0149953
682.981	0.0149102
683.059	0.0148806
683.137	0.0149120
683.215	0.0150190
683.293	0.0149866
683.371	0.0149281
683.450	0.0148859
683.528	0.0149842
683.606	0.0148784
683.684	0.0149332
683.762	0.0148409
683.840	0.0150053
683.918	0.0148765
683.996	0.0149860
684.075	0.0149052
684.153	0.0148919
684.231	0.0148261
684.309	0.0149638
684.387	0.0149708
684.465	0.0148425
684.543	0.0148690
684.621	0.0149719
684.700	0.0148775
684.778	0.0149857
684.856	0.0150300
684.934	0.0149867
685.012	0.0149176
685.090	0.0149641
685.168	0.0149130
685.246	0.0149102
685.325	0.0149204
685.403	0.0150227
685.481	0.0149725
685.559	0.0148837
685.637	0.0148485
685.715	0.0148914
685.793	0.0149516
685.871	0.0149249
685.950	0.0149400
686.028	0.0147468
686.106	0.0149073
686.184	0.0149737
686.262	0.0149449
686.340	0.0149165
686.418	0.0148356
686.496	0.0148549
686.575	0.0148392
686.653	0.0150012
686.731	0.0148933
686.809	0.0148645
686.887	0.0150683
686.965	0.0149326
687.043	0.0149390
687.121	0.0148717
687.200	0.0149052
687.278	0.0149794
687.356	0.0149132
687.434	0.0148901
687.512	0.0148282
687.590	0.0148849
687.668	0.0150261
687.746	0.0148298
687.825	0.0150055
687.903	0.0149413
687.981	0.0149779
688.059	0.0149542
688.137	0.0149242
688.215	0.0148701
688.293	0.0150357
688.371	0.0149328
688.450	0.0149248
688.528	0.0149483
688.606	0.0149590
688.684	0.0148611
688.762	0.0149461
688.840	0.0149612
688.918	0.0150197
688.996	0.0149601
689.075	0.0148725
689.153	0.0149068
689.231	0.0149556
689.309	0.0149701
689.387	0.0149472
689.465	0.0148397
689.543	0.0148833
689.621	0.0150151
689.700	0.0150365
689.778	0.0150256
689.856	0.0148933
689.934	0.0149189
690.012	0.0149533
690.090	0.0149910
690.168	0.0150595
690.246	0.0149686
690.325	0.0149068
690.403	0.0147594
690.481	0.0149516
690.559	0.0150183
690.637	0.0150212
690.715	0.0149155
690.793	0.0148669
690.871	0.0149079
690.950	0.0149703
691.028	0.0149135
691.106	0.0147857
691.184	0.0150156
691.262	0.0149105
691.340	0.0148857
691.418	0.0150198
691.496	0.0149195
691.575	0.0149097
691.653	0.0147382
691.731	0.0149976
691.809	0.0148418
691.887	0.0147978
691.965	0.0150063
692.043	0.0149795
692.121	0.0149408
692.200	0.0148079
692.278	0.0149728
692.356	0.0149792
692.434	0.0149816
692.512	0.0148927
692.590	0.0147293
692.668	0.0148931
692.746	0.0149797
692.825	0.0149281
692.903	0.0149163
692.981	0.0149598
693.059	0.0147591
693.137	0.0148072
693.215	0.0148272
693.293	0.0148608
693.371	0.0147707
693.450	0.0148470
693.528	0.0149942
693.606	0.0149150
693.684	0.0149641
693.762	0.0148734
693.840	0.0148841
693.918	0.0149805
693.996	0.0149403
694.075	0.0150443
694.153	0.0149487
694.231	0.0149184
694.309	0.0148798
694.387	0.0148033
694.465	0.0148176
694.543	0.0149476
694.621	0.0150034
694.700	0.0150026
694.778	0.0149062
694.856	0.0147879
694.934	0.0148814
695.012	0.0150053
695.090	0.0149541
695.168	0.0149124
695.246	0.0149030
695.325	0.0148841
695.403	0.0148273
695.481	0.0149176
695.559	0.0148969
695.637	0.0149192
695.715	0.0148248
695.793	0.0148919
695.871	0.0148420
695.950	0.0149889
696.028	0.0150191
696.106	0.0149706
696.184	0.0149129
696.262	0.0149994
696.340	0.0150203
696.418	0.0151245
696.496	0.0149171
696.575	0.0149483
696.653	0.0149667
696.731	0.0150230
696.809	0.0149622
696.887	0.0148856
696.965	0.0148366
697.043	0.0149377
697.121	0.0148540
697.200	0.0148595
697.278	0.0149254
697.356	0.0148679
697.434	0.0149015
697.512	0.0148649
697.590	0.0148702
697.668	0.0147524
697.746	0.0149197
697.825	0.0147424
697.903	0.0149052
697.981	0.0148920
698.059	0.0149191
698.137	0.0149007
698.215	0.0150320
698.293	0.0149685
698.371	0.0147642
698.450	0.0150385
698.528	0.0149966
698.606	0.0149191
698.684	0.0150045
698.762	0.0150643
698.840	0.0149832
698.918	0.0150435
698.996	0.0151769
699.075	0.0150159
699.153	0.0149689
699.231	0.0149693
699.309	0.0150307
699.387	0.0150669
699.465	0.0147984
699.543	0.0148466
699.621	0.0148224
699.700	0.0146204
699.778	0.0147257
699.856	0.0147949
699.934	0.0147076
700.012	0.0146112
700.090	0.0145612
700.168	0.0146341
700.246	0.0146480
700.325	0.0147251
700.403	0.0145789
700.481	0.0146783
700.559	0.0148512
700.637	0.0148801
700.715	0.0148560
700.793	0.0149802
700.871	0.0149789
700.950	0.0149429
701.028	0.0149352
701.106	0.0148671
701.184	0.0150197
701.262	0.0151710
701.340	0.0151371
701.418	0.0150408
701.496	0.0150230
701.575	0.0151381
701.653	0.0151000
701.731	0.0149371
701.809	0.0149670
701.887	0.0150690
701.965	0.0149429
702.043	0.0149240
702.121	0.0149350
702.200	0.0147768
702.278	0.0148837
702.356	0.0149317
702.434	0.0148819
702.512	0.0148418
702.590	0.0150391
702.668	0.0149793
702.746	0.0148871
702.825	0.0148405
702.903	0.0149036
702.981	0.0147954
703.059	0.0149393
703.137	0.0149104
703.215	0.0149667
703.293	0.0148225
703.371	0.0149626
703.450	0.0149169
703.528	0.0148862
703.606	0.0149437
703.684	0.0150735
703.762	0.0150339
703.840	0.0150365
703.918	0.0151191
703.996	0.0151872
704.075	0.0151031
704.153	0.0152454
704.231	0.0154070
704.309	0.0153106
704.387	0.0152663
704.465	0.0152536
704.543	0.0150297
704.621	0.0147791
704.700	0.0147576
704.778	0.0145390
704.856	0.0143957
704.934	0.0142436
705.012	0.0142789
705.090	0.0141938
705.168	0.0142575
705.246	0.0141471
705.325	0.0144737
705.403	0.0145884
705.481	0.0147121
705.559	0.0149463
705.637	0.0150144
705.715	0.0150604
705.793	0.0153515
705.871	0.0154175
705.950	0.0154641
706.028	0.0154494
706.106	0.0155405
706.184	0.0153661
706.262	0.0156384
706.340	0.0156707
706.418	0.0155354
706.496	0.0156373
706.575	0.0156516
706.653	0.0153219
706.731	0.0151182
706.809	0.0148112
706.887	0.0146548
706.965	0.0141545
707.043	0.0139103
707.121	0.0136396
707.200	0.0136368
707.278	0.0137959
707.356	0.0139171
707.434	0.0140049
707.512	0.0142348
707.590	0.0142313
707.668	0.0141256
707.746	0.0144455
707.825	0.0144419
707.903	0.0144627
707.981	0.0146161
708.059	0.0146683
708.137	0.0150587
708.215	0.0152362
708.293	0.0156344
708.371	0.0157482
708.450	0.0158860
708.528	0.0160564
708.606	0.0162435
708.684	0.0162148
708.762	0.0161500
708.840	0.0162540
708.918	0.0161165
708.996	0.0160899
709.075	0.0159698
709.153	0.0157867
709.231	0.0155417
709.309	0.0151487
709.387	0.0148062
709.465	0.0144657
709.543	0.0141789
709.621	0.0137717
709.700	0.0135146
709.778	0.0132818
709.856	0.0132265
709.934	0.0130402
710.012	0.0128844
710.090	0.0130549
710.168	0.0130794
710.246	0.0131123
710.325	0.0135794
710.403	0.0140248
710.481	0.0145873
710.559	0.0152312
710.637	0.0157200
710.715	0.0163270
710.793	0.0165894
710.871	0.0169916
710.950	0.0171126
711.028	0.0170232
711.106	0.0166705
711.184	0.0166346
711.262	0.0164845
711.340	0.0162175
711.418	0.0159272
711.496	0.0156796
711.575	0.0154843
711.653	0.0152740
711.731	0.0151221
711.809	0.0149823
711.887	0.0148741
711.965	0.0148732
712.043	0.0145908
712.121	0.0142867
712.200	0.0141496
712.278	0.0139122
712.356	0.0138220
712.434	0.0134856
712.512	0.0132932
712.590	0.0132021
712.668	0.0130890
712.746	0.0131265
712.825	0.0131447
712.903	0.0133591
712.981	0.0136969
713.059	0.0138538
713.137	0.0140965
713.215	0.0145901
713.293	0.0152201
713.371	0.0156076
713.450	0.0159133
713.528	0.0162012
713.606	0.0167489
713.684	0.0169003
713.762	0.0170660
713.840	0.0171217
713.918	0.0170983
713.996	0.0168625
714.075	0.0167867
714.153	0.0165629
714.231	0.0160144
714.309	0.0155968
714.387	0.0151325
714.465	0.0148755
714.543	0.0149098
714.621	0.0146092
714.700	0.0144975
714.778	0.0145392
714.856	0.0145159
714.934	0.0142507
715.012	0.0141366
715.090	0.0140343
715.168	0.0139008
715.246	0.0137054
715.325	0.0134149
715.403	0.0132896
715.481	0.0131875
715.559	0.0132243
715.637	0.0132544
715.715	0.0133295
715.793	0.0137065
715.871	0.0140498
715.950	0.0145995
716.028	0.0149817
716.106	0.0155295
716.184	0.0161035
716.262	0.0165100
716.340	0.0167963
716.418	0.0168259
716.496	0.0169092
716.575	0.0166196
716.653	0.0163191
716.731	0.0160751
716.809	0.0159390
716.887	0.0156507
716.965	0.0152580
717.043	0.0150361
717.121	0.0150185
717.200	0.0148380
717.278	0.0147512
717.356	0.0145475
717.434	0.0144574
717.512	0.0143099
717.590	0.0141823
717.668	0.0140249
717.746	0.0140360
717.825	0.0140931
717.903	0.0140675
717.981	0.0142026
718.059	0.0142348
718.137	0.0143545
718.215	0.0144701
718.293	0.0146576
718.371	0.0147073
718.450	0.0146979
718.528	0.0147633
718.606	0.0146912
718.684	0.0147846
718.762	0.0150068
718.840	0.0149442
718.918	0.0151259
718.996	0.0152461
719.075	0.0153438
719.153	0.0153931
719.231	0.0153520
719.309	0.0154855
719.387	0.0155003
719.465	0.0154889
719.543	0.0152160
719.621	0.0149158
719.700	0.0149803
719.778	0.0148127
719.856	0.0147192
719.934	0.0146569
720.012	0.0142913
720.090	0.0141598
720.168	0.0141362
720.246	0.0142304
720.325	0.0143261
720.403	0.0143397
720.481	0.0144321
720.559	0.0146568
720.637	0.0149612
720.715	0.0150683
720.793	0.0150751
720.871	0.0152668
720.950	0.0153876
721.028	0.0155692
721.106	0.0156438
721.184	0.0155635
721.262	0.0155057
721.340	0.0152758
721.418	0.0153862
721.496	0.0151527
721.575	0.0149986
721.653	0.0147450
721.731	0.0147253
721.809	0.0147593
721.887	0.0147918
721.965	0.0146830
722.043	0.0148794
722.121	0.0148655
722.200	0.0150834
722.278	0.0151915
722.356	0.0153593
722.434	0.0153556
722.512	0.0153368
722.590	0.0151838
722.668	0.0150263
722.746	0.0150852
722.825	0.0150666
722.903	0.0148981
722.981	0.0147860
723.059	0.0146798
723.137	0.0146403
723.215	0.0145292
723.293	0.0146935
723.371	0.0147360
723.450	0.0145501
723.528	0.0147819
723.606	0.0146938
723.684	0.0147095
723.762	0.0144834
723.840	0.0145731
723.918	0.0145856
723.996	0.0145520
724.075	0.0145431
724.153	0.0146352
724.231	0.0146742
724.309	0.0147705
724.387	0.0147913
724.465	0.0149005
724.543	0.0149288
724.621	0.0150529
724.700	0.0151862
724.778	0.0153098
724.856	0.0154417
724.934	0.0155353
725.012	0.0157382
725.090	0.0159946
725.168	0.0159373
725.246	0.0159608
725.325	0.0161372
725.403	0.0161089
725.481	0.0158768
725.559	0.0157342
725.637	0.0157542
725.715	0.0155252
725.793	0.0154612
725.871	0.0151132
725.950	0.0148130
726.028	0.0146452
726.106	0.0142531
726.184	0.0140467
726.262	0.0137579
726.340	0.0136246
726.418	0.0134819
726.496	0.0133729
726.575	0.0134795
726.653	0.0135864
726.731	0.0136979
726.809	0.0137228
726.887	0.0140632
726.965	0.0142456
727.043	0.0145828
727.121	0.0145741
727.200	0.0148798
727.278	0.0151690
727.356	0.0153381
727.434	0.0155443
727.512	0.0157755
727.590	0.0157784
727.668	0.0160503
727.746	0.0160644
727.825	0.0161155
727.903	0.0160705
727.981	0.0160046
728.059	0.0161301
728.137	0.0159860
728.215	0.0158481
728.293	0.0157629
728.371	0.0156107
728.450	0.0155407
728.528	0.0154465
728.606	0.0151278
728.684	0.0150942
728.762	0.0149809
728.840	0.0147987
728.918	0.0143898
728.996	0.0142524
729.075	0.0140476
729.153	0.0138843
729.231	0.0136486
729.309	0.0135606
729.387	0.0136101
729.465	0.0135583
729.543	0.0136141
729.621	0.0139806
729.700	0.0140604
729.778	0.0142891
729.856	0.0145753
729.934	0.0148545
730.012	0.0152927
730.090	0.0153600
730.168	0.0156012
730.246	0.0155902
730.325	0.0157464
730.403	0.0157793
730.481	0.0157228
730.559	0.0155509
730.637	0.0156663
730.715	0.0152856
730.793	0.0152387
730.871	0.0151731
730.950	0.0150504
731.028	0.0150064
731.106	0.0148798
731.184	0.0148216
731.262	0.0147598
731.340	0.0148272
731.418	0.0149261
731.496	0.0145809
731.575	0.0148695
731.653	0.0148590
731.731	0.0148592
731.809	0.0148769
731.887	0.0150451
731.965	0.0147789
732.043	0.0147585
732.121	0.0148753
732.200	0.0148701
732.278	0.0149542
732.356	0.0148540
732.434	0.0149258
732.512	0.0150072
732.590	0.0150780
732.668	0.0149997
732.746	0.0151001
732.825	0.0151429
732.903	0.0152953
732.981	0.0151977
733.059	0.0152591
733.137	0.0152468
733.215	0.0153036
733.293	0.0152012
733.371	0.0149806
733.450	0.0148735
733.528	0.0147610
733.606	0.0146345
733.684	0.0144586
733.762	0.0145171
733.840	0.0143854
733.918	0.0143079
733.996	0.0142338
734.075	0.0144068
734.153	0.0144785
734.231	0.0146344
734.309	0.0146269
734.387	0.0147725
734.465	0.0150149
734.543	0.0151141
734.621	0.0153174
734.700	0.0153535
734.778	0.0156607
734.856	0.0156475
734.934	0.0157047
735.012	0.0158115
735.090	0.0159080
735.168	0.0159286
735.246	0.0158661
735.325	0.0157248
735.403	0.0156181
735.481	0.0155212
735.559	0.0153020
735.637	0.0148528
735.715	0.0147707
735.793	0.0146679
735.871	0.0142982
735.950	0.0143176
736.028	0.0142189
736.106	0.0141287
736.184	0.0142091
736.262	0.0142221
736.340	0.0142637
736.418	0.0143752
736.496	0.0144272
736.575	0.0145657
736.653	0.0146814
736.731	0.0148060
736.809	0.0148657
736.887	0.0151432
736.965	0.0153001
737.043	0.0154140
737.121	0.0154893
737.200	0.0154977
737.278	0.0156915
737.356	0.0156274
737.434	0.0156166
737.512	0.0157998
737.590	0.0157367
737.668	0.0155985
737.746	0.0155318
737.825	0.0154898
737.903	0.0153563
737.981	0.0154180
738.059	0.0152757
738.137	0.0149411
738.215	0.0148186
738.293	0.0147334
738.371	0.0145143
738.450	0.0144170
738.528	0.0141527
738.606	0.0140543
738.684	0.0138654
738.762	0.0138888
738.840	0.0139708
738.918	0.0140218
738.996	0.0139613
739.075	0.0139723
739.153	0.0143926
739.231	0.0143903
739.309	0.0146921
739.387	0.0147302
739.465	0.0151476
739.543	0.0152094
739.621	0.0154514
739.700	0.0155523
739.778	0.0156945
739.856	0.0158611
739.934	0.0158169
740.012	0.0159173
740.090	0.0159607
740.168	0.0157890
740.246	0.0158875
740.325	0.0156236
740.403	0.0155498
740.481	0.0154899
740.559	0.0152197
740.637	0.0152008
740.715	0.0151219
740.793	0.0148251
740.871	0.0147547
740.950	0.0146587
741.028	0.0144730
741.106	0.0141959
741.184	0.0141585
741.262	0.0140019
741.340	0.0141605
741.418	0.0141573
741.496	0.0141309
741.575	0.0141070
741.653	0.0141464
741.731	0.0142931
741.809	0.0143829
741.887	0.0145335
741.965	0.0146739
742.043	0.0146674
742.121	0.0149529
742.200	0.0150959
742.278	0.0151309
742.356	0.0151538
742.434	0.0153184
742.512	0.0153066
742.590	0.0154084
742.668	0.0154568
742.746	0.0155475
742.825	0.0155863
742.903	0.0154393
742.981	0.0154169
743.059	0.0153088
743.137	0.0151217
743.215	0.0152545
743.293	0.0150959
743.371	0.0148029
743.450	0.0148569
743.528	0.0146181
743.606	0.0146130
743.684	0.0144952
743.762	0.0142575
743.840	0.0143572
743.918	0.0143011
743.996	0.0141600
744.075	0.0143612
744.153	0.0145143
744.231	0.0144617
744.309	0.0146293
744.387	0.0145869
744.465	0.0149804
744.543	0.0149368
744.621	0.0152612
744.700	0.0153101
744.778	0.0153795
744.856	0.0155101
744.934	0.0154623
745.012	0.0155886
745.090	0.0154416
745.168	0.0153865
745.246	0.0154517
745.325	0.0154085
745.403	0.0154084
745.481	0.0150992
745.559	0.0149611
745.637	0.0151055
745.715	0.0148827
745.793	0.0148161
745.871	0.0146961
745.950	0.0147079
746.028	0.0146466
746.106	0.0146115
746.184	0.0145274
746.262	0.0144981
746.340	0.0144884
746.418	0.0146329
746.496	0.0145904
746.575	0.0145734
746.653	0.0145988
746.731	0.0146745
746.809	0.0147041
746.887	0.0149429
746.965	0.0149072
747.043	0.0150613
747.121	0.0151301
747.200	0.0152093
747.278	0.0153201
747.356	0.0153405
747.434	0.0152907
747.512	0.0153142
747.590	0.0154263
747.668	0.0154408
747.746	0.0154416
747.825	0.0153599
747.903	0.0152676
747.981	0.0151453
748.059	0.0150379
748.137	0.0150041
748.215	0.0148147
748.293	0.0147340
748.371	0.0147271
748.450	0.0146938
748.528	0.0148462
748.606	0.0147101
748.684	0.0146061
748.762	0.0146321
748.840	0.0146179
748.918	0.0145779
748.996	0.0147662
749.075	0.0147230
749.153	0.0148421
749.231	0.0149567
749.309	0.0149628
749.387	0.0150774
749.465	0.0148927
749.543	0.0149877
749.621	0.0149848
749.700	0.0150256
749.778	0.0151528
749.856	0.0152043
749.934	0.0152555
750.012	0.0151934
750.090	0.0151948
750.168	0.0152213
750.246	0.0151459
750.325	0.0151421
750.403	0.0151025
750.481	0.0150996
750.559	0.0151424
750.637	0.0150700
750.715	0.0149757
750.793	0.0149873
750.871	0.0149674
750.950	0.0148070
751.028	0.0145229
751.106	0.0145733
751.184	0.0147955
751.262	0.0146128
751.340	0.0146365
751.418	0.0145018
751.496	0.0145415
751.575	0.0146047
751.653	0.0145897
751.731	0.0146902
751.809	0.0148090
751.887	0.0149020
751.965	0.0148920
752.043	0.0148631
752.121	0.0151118
752.200	0.0150054
752.278	0.0150896
752.356	0.0150521
752.434	0.0152386
752.512	0.0151999
752.590	0.0153600
752.668	0.0153066
752.746	0.0153278
752.825	0.0152711
752.903	0.0153316
752.981	0.0151347
753.059	0.0150902
753.137	0.0149955
753.215	0.0150477
753.293	0.0149195
753.371	0.0148846
753.450	0.0147342
753.528	0.0146070
753.606	0.0146033
753.684	0.0146163
753.762	0.0145862
753.840	0.0145738
753.918	0.0144936
753.996	0.0145311
754.075	0.0145403
754.153	0.0146554
754.231	0.0145988
754.309	0.0146493
754.387	0.0147050
754.465	0.0148765
754.543	0.0148423
754.621	0.0149680
754.700	0.0149711
754.778	0.0151492
754.856	0.0151273
754.934	0.0150850
755.012	0.0152597
755.090	0.0153018
755.168	0.0153635
755.246	0.0153835
755.325	0.0153503
755.403	0.0151006
755.481	0.0151609
755.559	0.0151743
755.637	0.0151537
755.715	0.0150617
755.793	0.0149615
755.871	0.0148570
755.950	0.0147749
756.028	0.0149030
756.106	0.0147520
756.184	0.0146756
756.262	0.0146788
756.340	0.0146687
756.418	0.0146504
756.496	0.0145711
756.575	0.0147780
756.653	0.0147936
756.731	0.0148495
756.809	0.0148322
756.887	0.0147861
756.965	0.0148316
757.043	0.0149066
757.121	0.0148497
757.200	0.0149097
757.278	0.0149713
757.356	0.0151112
757.434	0.0150984
757.512	0.0151199
757.590	0.0151013
757.668	0.0151691
757.746	0.0150175
757.825	0.0151612
757.903	0.0150650
757.981	0.0150169
758.059	0.0151452
758.137	0.0149300
758.215	0.0149296
758.293	0.0149694
758.371	0.0150368
758.450	0.0150422
758.528	0.0151186
758.606	0.0150261
758.684	0.0150448
758.762	0.0149745
758.840	0.0148880
758.918	0.0148407
758.996	0.0149002
759.075	0.0148556
759.153	0.0150611
759.231	0.0150177
759.309	0.0148766
759.387	0.0149689
759.465	0.0150768
759.543	0.0149813
759.621	0.0149018
759.700	0.0150909
759.778	0.0151911
759.856	0.0150376
759.934	0.0149797
760.012	0.0150361
760.090	0.0149640
760.168	0.0151086
760.246	0.0150496
760.325	0.0149821
760.403	0.0148567
760.481	0.0150423
760.559	0.0149231
760.637	0.0149751
760.715	0.0149358
760.793	0.0149393
760.871	0.0149471
760.950	0.0149321
761.028	0.0148483
761.106	0.0147242
761.184	0.0146439
761.262	0.0147753
761.340	0.0146333
761.418	0.0145866
761.496	0.0146616
761.575	0.0147958
761.653	0.0147089
761.731	0.0147001
761.809	0.0146789
761.887	0.0148429
761.965	0.0147838
762.043	0.0147918
762.121	0.0148553
762.200	0.0148686
762.278	0.0148077
762.356	0.0149059
762.434	0.0150179
762.512	0.0150084
762.590	0.0150538
762.668	0.0151588
762.746	0.0152361
762.825	0.0152355
762.903	0.0152412
762.981	0.0153442
763.059	0.0153050
763.137	0.0152649
763.215	0.0152798
763.293	0.0151778
763.371	0.0152509
763.450	0.0150941
763.528	0.0150122
763.606	0.0151390
763.684	0.0148547
763.762	0.0148005
763.840	0.0146073
763.918	0.0146843
763.996	0.0146180
764.075	0.0146163
764.153	0.0146175
764.231	0.0147771
764.309	0.0146538
764.387	0.0146639
764.465	0.0146671
764.543	0.0145854
764.621	0.0148239
764.700	0.0146982
