05/04/2022	21:07:02	Ver.	4.1	UNKNOWN
Optical Delay	678.996401	Delta X		0.078125	Sweeps	1	Scan Rate	0/0
Coordinates	Axis 1	NaN	Axis 2	NaN	Axis 3	NaN	Axis 4	NaN	Axis 5	NaN	Axis 6	0.000000
TX Power	0.000000	RX Power	0.000000

678.996	0.0143929
679.075	0.0143548
679.153	0.0143275
679.231	0.0142837
679.309	0.0144498
679.387	0.0143803
679.465	0.0142773
679.543	0.0143930
679.621	0.0143931
679.700	0.0144684
679.778	0.0142961
679.856	0.0143477
679.934	0.0144416
680.012	0.0143833
680.090	0.0143980
680.168	0.0143287
680.246	0.0143845
680.325	0.0143359
680.403	0.0144511
680.481	0.0144648
680.559	0.0143920
680.637	0.0144630
680.715	0.0144537
680.793	0.0145522
680.871	0.0143353
680.950	0.0143761
681.028	0.0143896
681.106	0.0143956
681.184	0.0144461
681.262	0.0144820
681.340	0.0144943
681.418	0.0143797
681.496	0.0143598
681.575	0.0144850
681.653	0.0143884
681.731	0.0145202
681.809	0.0143924
681.887	0.0143407
681.965	0.0144577
682.043	0.0145174
682.121	0.0144584
682.200	0.0142934
682.278	0.0144302
682.356	0.0143686
682.434	0.0145071
682.512	0.0143546
682.590	0.0143727
682.668	0.0144419
682.746	0.0143881
682.825	0.0144804
682.903	0.0144936
682.981	0.0143176
683.059	0.0143996
683.137	0.0144486
683.215	0.0144389
683.293	0.0145229
683.371	0.0144932
683.450	0.0145007
683.528	0.0143549
683.606	0.0142764
683.684	0.0144743
683.762	0.0144516
683.840	0.0144286
683.918	0.0142871
683.996	0.0144302
684.075	0.0144898
684.153	0.0144784
684.231	0.0144257
684.309	0.0142744
684.387	0.0143843
684.465	0.0143906
684.543	0.0145267
684.621	0.0143600
684.700	0.0143881
684.778	0.0144315
684.856	0.0144376
684.934	0.0142960
685.012	0.0144360
685.090	0.0145670
685.168	0.0143462
685.246	0.0144339
685.325	0.0144193
685.403	0.0143717
685.481	0.0144617
685.559	0.0143616
685.637	0.0143298
685.715	0.0144166
685.793	0.0144054
685.871	0.0144811
685.950	0.0145302
686.028	0.0143154
686.106	0.0144283
686.184	0.0146292
686.262	0.0143076
686.340	0.0144736
686.418	0.0144720
686.496	0.0143659
686.575	0.0143722
686.653	0.0144006
686.731	0.0145015
686.809	0.0144160
686.887	0.0144405
686.965	0.0143971
687.043	0.0145513
687.121	0.0145136
687.200	0.0143859
687.278	0.0144210
687.356	0.0144077
687.434	0.0144480
687.512	0.0144446
687.590	0.0145504
687.668	0.0143845
687.746	0.0144141
687.825	0.0144750
687.903	0.0144244
687.981	0.0143010
688.059	0.0145406
688.137	0.0144019
688.215	0.0144395
688.293	0.0144168
688.371	0.0142805
688.450	0.0144065
688.528	0.0143582
688.606	0.0144431
688.684	0.0143221
688.762	0.0142933
688.840	0.0144141
688.918	0.0144222
688.996	0.0143781
689.075	0.0145341
689.153	0.0143965
689.231	0.0143758
689.309	0.0143865
689.387	0.0144699
689.465	0.0144224
689.543	0.0143654
689.621	0.0144227
689.700	0.0144305
689.778	0.0143566
689.856	0.0143970
689.934	0.0144620
690.012	0.0143846
690.090	0.0145084
690.168	0.0144779
690.246	0.0143698
690.325	0.0143649
690.403	0.0143420
690.481	0.0143683
690.559	0.0143707
690.637	0.0143969
690.715	0.0144325
690.793	0.0143700
690.871	0.0143050
690.950	0.0143120
691.028	0.0143462
691.106	0.0144337
691.184	0.0143131
691.262	0.0142325
691.340	0.0143012
691.418	0.0143996
691.496	0.0144273
691.575	0.0143881
691.653	0.0144008
691.731	0.0144141
691.809	0.0143560
691.887	0.0143879
691.965	0.0142381
692.043	0.0143390
692.121	0.0144863
692.200	0.0143425
692.278	0.0144027
692.356	0.0144656
692.434	0.0143690
692.512	0.0143378
692.590	0.0144028
692.668	0.0144157
692.746	0.0143144
692.825	0.0143423
692.903	0.0143324
692.981	0.0143561
693.059	0.0143698
693.137	0.0143743
693.215	0.0144568
693.293	0.0143005
693.371	0.0143563
693.450	0.0144036
693.528	0.0143612
693.606	0.0142911
693.684	0.0143671
693.762	0.0144154
693.840	0.0143095
693.918	0.0142175
693.996	0.0143214
694.075	0.0145562
694.153	0.0144309
694.231	0.0144540
694.309	0.0143716
694.387	0.0144353
694.465	0.0143113
694.543	0.0144872
694.621	0.0144119
694.700	0.0144682
694.778	0.0143880
694.856	0.0143876
694.934	0.0143359
695.012	0.0142827
695.090	0.0143581
695.168	0.0143436
695.246	0.0142795
695.325	0.0144386
695.403	0.0145168
695.481	0.0144878
695.559	0.0144511
695.637	0.0143287
695.715	0.0144688
695.793	0.0143506
695.871	0.0144025
695.950	0.0145261
696.028	0.0144923
696.106	0.0144083
696.184	0.0143141
696.262	0.0143883
696.340	0.0145391
696.418	0.0144754
696.496	0.0143836
696.575	0.0144316
696.653	0.0143459
696.731	0.0143226
696.809	0.0144691
696.887	0.0144179
696.965	0.0143901
697.043	0.0144061
697.121	0.0143282
697.200	0.0143429
697.278	0.0143500
697.356	0.0144259
697.434	0.0143632
697.512	0.0144165
697.590	0.0144623
697.668	0.0144167
697.746	0.0144461
697.825	0.0143317
697.903	0.0146815
697.981	0.0145739
698.059	0.0144173
698.137	0.0144947
698.215	0.0146526
698.293	0.0144005
698.371	0.0144756
698.450	0.0146020
698.528	0.0143553
698.606	0.0144831
698.684	0.0144203
698.762	0.0145177
698.840	0.0142646
698.918	0.0143102
698.996	0.0142879
699.075	0.0142169
699.153	0.0140864
699.231	0.0142689
699.309	0.0140733
699.387	0.0141866
699.465	0.0143230
699.543	0.0141683
699.621	0.0141667
699.700	0.0143048
699.778	0.0143694
699.856	0.0142203
699.934	0.0142514
700.012	0.0143959
700.090	0.0142873
700.168	0.0144035
700.246	0.0144232
700.325	0.0144038
700.403	0.0144490
700.481	0.0144363
700.559	0.0145161
700.637	0.0145808
700.715	0.0147885
700.793	0.0145793
700.871	0.0144585
700.950	0.0147159
701.028	0.0145886
701.106	0.0145013
701.184	0.0146352
701.262	0.0145981
701.340	0.0144092
701.418	0.0143627
701.496	0.0144396
701.575	0.0143613
701.653	0.0143336
701.731	0.0141473
701.809	0.0142348
701.887	0.0143548
701.965	0.0142728
702.043	0.0142714
702.121	0.0143483
702.200	0.0142907
702.278	0.0143628
702.356	0.0145032
702.434	0.0143781
702.512	0.0143951
702.590	0.0145034
702.668	0.0145019
702.746	0.0144506
702.825	0.0144125
702.903	0.0143920
702.981	0.0144376
703.059	0.0145176
703.137	0.0144596
703.215	0.0143978
703.293	0.0143275
703.371	0.0143004
703.450	0.0142812
703.528	0.0143866
703.606	0.0142876
703.684	0.0143861
703.762	0.0143267
703.840	0.0146336
703.918	0.0146135
703.996	0.0145613
704.075	0.0145785
704.153	0.0147395
704.231	0.0145358
704.309	0.0145894
704.387	0.0144070
704.465	0.0142173
704.543	0.0139915
704.621	0.0138985
704.700	0.0138870
704.778	0.0137999
704.856	0.0137617
704.934	0.0137538
705.012	0.0136700
705.090	0.0138057
705.168	0.0140323
705.246	0.0141333
705.325	0.0141551
705.403	0.0143822
705.481	0.0143690
705.559	0.0146200
705.637	0.0148098
705.715	0.0148239
705.793	0.0150961
705.871	0.0150759
705.950	0.0150163
706.028	0.0150417
706.106	0.0149946
706.184	0.0149312
706.262	0.0149406
706.340	0.0148780
706.418	0.0147900
706.496	0.0147816
706.575	0.0146618
706.653	0.0145581
706.731	0.0145697
706.809	0.0143323
706.887	0.0141099
706.965	0.0137793
707.043	0.0135367
707.121	0.0132835
707.200	0.0133573
707.278	0.0133090
707.356	0.0133864
707.434	0.0134399
707.512	0.0137616
707.590	0.0135869
707.668	0.0139016
707.746	0.0140463
707.825	0.0142131
707.903	0.0144430
707.981	0.0144902
708.059	0.0145979
708.137	0.0149030
708.215	0.0150314
708.293	0.0150925
708.371	0.0153565
708.450	0.0153310
708.528	0.0154276
708.606	0.0152760
708.684	0.0154396
708.762	0.0154158
708.840	0.0154513
708.918	0.0154967
708.996	0.0154136
709.075	0.0152354
709.153	0.0150446
709.231	0.0147903
709.309	0.0144151
709.387	0.0138745
709.465	0.0135409
709.543	0.0134647
709.621	0.0131981
709.700	0.0131306
709.778	0.0129627
709.856	0.0128600
709.934	0.0128669
710.012	0.0128124
710.090	0.0127264
710.168	0.0129290
710.246	0.0129806
710.325	0.0133288
710.403	0.0136961
710.481	0.0139333
710.559	0.0145368
710.637	0.0152666
710.715	0.0156508
710.793	0.0160004
710.871	0.0161800
710.950	0.0162997
711.028	0.0162446
711.106	0.0162537
711.184	0.0159294
711.262	0.0155591
711.340	0.0153282
711.418	0.0150531
711.496	0.0147158
711.575	0.0145650
711.653	0.0144870
711.731	0.0144297
711.809	0.0144643
711.887	0.0144350
711.965	0.0144301
712.043	0.0142735
712.121	0.0142360
712.200	0.0140419
712.278	0.0138092
712.356	0.0135745
712.434	0.0133049
712.512	0.0129754
712.590	0.0128328
712.668	0.0126425
712.746	0.0126240
712.825	0.0126566
712.903	0.0127951
712.981	0.0130325
713.059	0.0132627
713.137	0.0136166
713.215	0.0140308
713.293	0.0144657
713.371	0.0149317
713.450	0.0153992
713.528	0.0158681
713.606	0.0161533
713.684	0.0161895
713.762	0.0163338
713.840	0.0162543
713.918	0.0162115
713.996	0.0159687
714.075	0.0156741
714.153	0.0152409
714.231	0.0151440
714.309	0.0148704
714.387	0.0147626
714.465	0.0144846
714.543	0.0144256
714.621	0.0142817
714.700	0.0142356
714.778	0.0142191
714.856	0.0139912
714.934	0.0139891
715.012	0.0138585
715.090	0.0136129
715.168	0.0132757
715.246	0.0131750
715.325	0.0130463
715.403	0.0129279
715.481	0.0127563
715.559	0.0126943
715.637	0.0126107
715.715	0.0126543
715.793	0.0129541
715.871	0.0132413
715.950	0.0137414
716.028	0.0141084
716.106	0.0147465
716.184	0.0150448
716.262	0.0154501
716.340	0.0160051
716.418	0.0162322
716.496	0.0162725
716.575	0.0162971
716.653	0.0162421
716.731	0.0159946
716.809	0.0154570
716.887	0.0151920
716.965	0.0147712
717.043	0.0144759
717.121	0.0142810
717.200	0.0139965
717.278	0.0140019
717.356	0.0138978
717.434	0.0138602
717.512	0.0137565
717.590	0.0138551
717.668	0.0137273
717.746	0.0138194
717.825	0.0138638
717.903	0.0137152
717.981	0.0138066
718.059	0.0139371
718.137	0.0137579
718.215	0.0138702
718.293	0.0138681
718.371	0.0138961
718.450	0.0139674
718.528	0.0137634
718.606	0.0138516
718.684	0.0138435
718.762	0.0139185
718.840	0.0140918
718.918	0.0142925
718.996	0.0144926
719.075	0.0146888
719.153	0.0147181
719.231	0.0149056
719.309	0.0149815
719.387	0.0150938
719.465	0.0151372
719.543	0.0151782
719.621	0.0150784
719.700	0.0148103
719.778	0.0146183
719.856	0.0144262
719.934	0.0141913
720.012	0.0137946
720.090	0.0137825
720.168	0.0134933
720.246	0.0134297
720.325	0.0135730
720.403	0.0135784
720.481	0.0138879
720.559	0.0142248
720.637	0.0142776
720.715	0.0144436
720.793	0.0147285
720.871	0.0148920
720.950	0.0148476
721.028	0.0148877
721.106	0.0149940
721.184	0.0149318
721.262	0.0148340
721.340	0.0147335
721.418	0.0145697
721.496	0.0144476
721.575	0.0143102
721.653	0.0142713
721.731	0.0140820
721.809	0.0140990
721.887	0.0141454
721.965	0.0144067
722.043	0.0142659
722.121	0.0142357
722.200	0.0145520
722.278	0.0147038
722.356	0.0149424
722.434	0.0148722
722.512	0.0149825
722.590	0.0148402
722.668	0.0147520
722.746	0.0145646
722.825	0.0144018
722.903	0.0142796
722.981	0.0142448
723.059	0.0141531
723.137	0.0139853
723.215	0.0138961
723.293	0.0139149
723.371	0.0137802
723.450	0.0138609
723.528	0.0139540
723.606	0.0139579
723.684	0.0137619
723.762	0.0138187
723.840	0.0141583
723.918	0.0140452
723.996	0.0140085
724.075	0.0143484
724.153	0.0142920
724.231	0.0143433
724.309	0.0144654
724.387	0.0144418
724.465	0.0145787
724.543	0.0145809
724.621	0.0146366
724.700	0.0146931
724.778	0.0146952
724.856	0.0149245
724.934	0.0149248
725.012	0.0151144
725.090	0.0151538
725.168	0.0152758
725.246	0.0151966
725.325	0.0151271
725.403	0.0152594
725.481	0.0153386
725.559	0.0149624
725.637	0.0149834
725.715	0.0150079
725.793	0.0148568
725.871	0.0146444
725.950	0.0144648
726.028	0.0141956
726.106	0.0137590
726.184	0.0135374
726.262	0.0133888
726.340	0.0129825
726.418	0.0129293
726.496	0.0128146
726.575	0.0127933
726.653	0.0129317
726.731	0.0131292
726.809	0.0131288
726.887	0.0134462
726.965	0.0137968
727.043	0.0141107
727.121	0.0142479
727.200	0.0145196
727.278	0.0147204
727.356	0.0149581
727.434	0.0151427
727.512	0.0150926
727.590	0.0151606
727.668	0.0153819
727.746	0.0153555
727.825	0.0151682
727.903	0.0151071
727.981	0.0151797
728.059	0.0151705
728.137	0.0150094
728.215	0.0150002
728.293	0.0149198
728.371	0.0149246
728.450	0.0149106
728.528	0.0147543
728.606	0.0148835
728.684	0.0146904
728.762	0.0144820
728.840	0.0144216
728.918	0.0141912
728.996	0.0139129
729.075	0.0138972
729.153	0.0137225
729.231	0.0134822
729.309	0.0134531
729.387	0.0133047
729.465	0.0133555
729.543	0.0133149
729.621	0.0134055
729.700	0.0134939
729.778	0.0135910
729.856	0.0137520
729.934	0.0140107
730.012	0.0143576
730.090	0.0146238
730.168	0.0146568
730.246	0.0148782
730.325	0.0149799
730.403	0.0149937
730.481	0.0150340
730.559	0.0149728
730.637	0.0147633
730.715	0.0147262
730.793	0.0145895
730.871	0.0145255
730.950	0.0144360
731.028	0.0143908
731.106	0.0143551
731.184	0.0143615
731.262	0.0144624
731.340	0.0143317
731.418	0.0143612
731.496	0.0145314
731.575	0.0146219
731.653	0.0143985
731.731	0.0146293
731.809	0.0143990
731.887	0.0145230
731.965	0.0145170
732.043	0.0143969
732.121	0.0144073
732.200	0.0143455
732.278	0.0142973
732.356	0.0144040
732.434	0.0143591
732.512	0.0144851
732.590	0.0141962
732.668	0.0144482
732.746	0.0142970
732.825	0.0142591
732.903	0.0144234
732.981	0.0143082
733.059	0.0143927
733.137	0.0143864
733.215	0.0142956
733.293	0.0142562
733.371	0.0142649
733.450	0.0143046
733.528	0.0141714
733.606	0.0141049
733.684	0.0141045
733.762	0.0141357
733.840	0.0139565
733.918	0.0139282
733.996	0.0141061
734.075	0.0139069
734.153	0.0140396
734.231	0.0140782
734.309	0.0142263
734.387	0.0145148
734.465	0.0145939
734.543	0.0145464
734.621	0.0145179
734.700	0.0147531
734.778	0.0147918
734.856	0.0150720
734.934	0.0151727
735.012	0.0150440
735.090	0.0151802
735.168	0.0152592
735.246	0.0151025
735.325	0.0150661
735.403	0.0149977
735.481	0.0149166
735.559	0.0146272
735.637	0.0144524
735.715	0.0143774
735.793	0.0143633
735.871	0.0140010
735.950	0.0138071
736.028	0.0137674
736.106	0.0136945
736.184	0.0136273
736.262	0.0136639
736.340	0.0138014
736.418	0.0137802
736.496	0.0140060
736.575	0.0140731
736.653	0.0141153
736.731	0.0143583
736.809	0.0143566
736.887	0.0144853
736.965	0.0148244
737.043	0.0148169
737.121	0.0149446
737.200	0.0149557
737.278	0.0150983
737.356	0.0150220
737.434	0.0150770
737.512	0.0150783
737.590	0.0149817
737.668	0.0151295
737.746	0.0149754
737.825	0.0149058
737.903	0.0148119
737.981	0.0146124
738.059	0.0145086
738.137	0.0144576
738.215	0.0143800
738.293	0.0143287
738.371	0.0140988
738.450	0.0139764
738.528	0.0140266
738.606	0.0137625
738.684	0.0137022
738.762	0.0135321
738.840	0.0133518
738.918	0.0134303
738.996	0.0135887
739.075	0.0137398
739.153	0.0135889
739.231	0.0138100
739.309	0.0138963
739.387	0.0141617
739.465	0.0144227
739.543	0.0144065
739.621	0.0146243
739.700	0.0146793
739.778	0.0149937
739.856	0.0150349
739.934	0.0151601
740.012	0.0152179
740.090	0.0152709
740.168	0.0153262
740.246	0.0152535
740.325	0.0150918
740.403	0.0150960
740.481	0.0149261
740.559	0.0147277
740.637	0.0145567
740.715	0.0146666
740.793	0.0144111
740.871	0.0143692
740.950	0.0141833
741.028	0.0139638
741.106	0.0139034
741.184	0.0138262
741.262	0.0137672
741.340	0.0136572
741.418	0.0135969
741.496	0.0136405
741.575	0.0136912
741.653	0.0137269
741.731	0.0137443
741.809	0.0138918
741.887	0.0140337
741.965	0.0140979
742.043	0.0142131
742.121	0.0142705
742.200	0.0144340
742.278	0.0144506
742.356	0.0147015
742.434	0.0148909
742.512	0.0146340
742.590	0.0147271
742.668	0.0146862
742.746	0.0150000
742.825	0.0148899
742.903	0.0148744
742.981	0.0147932
743.059	0.0146947
743.137	0.0147475
743.215	0.0145962
743.293	0.0144597
743.371	0.0144051
743.450	0.0143975
743.528	0.0141708
743.606	0.0141990
743.684	0.0140550
743.762	0.0141129
743.840	0.0139935
743.918	0.0138425
743.996	0.0139000
744.075	0.0140022
744.153	0.0140606
744.231	0.0140712
744.309	0.0141126
744.387	0.0142528
744.465	0.0143818
744.543	0.0144655
744.621	0.0146538
744.700	0.0145596
744.778	0.0146032
744.856	0.0147687
744.934	0.0147739
745.012	0.0148354
745.090	0.0149691
745.168	0.0150002
745.246	0.0147952
745.325	0.0148129
745.403	0.0147652
745.481	0.0145707
745.559	0.0145058
745.637	0.0145274
745.715	0.0143137
745.793	0.0142183
745.871	0.0141418
745.950	0.0140820
746.028	0.0140112
746.106	0.0139841
746.184	0.0140639
746.262	0.0141295
746.340	0.0140860
746.418	0.0140051
746.496	0.0140601
746.575	0.0140525
746.653	0.0140896
746.731	0.0140930
746.809	0.0142289
746.887	0.0144621
746.965	0.0144176
747.043	0.0146011
747.121	0.0145752
747.200	0.0146011
747.278	0.0144985
747.356	0.0146173
747.434	0.0147762
747.512	0.0147186
747.590	0.0147990
747.668	0.0147879
747.746	0.0147829
747.825	0.0147932
747.903	0.0147780
747.981	0.0146243
748.059	0.0145338
748.137	0.0144917
748.215	0.0144411
748.293	0.0142290
748.371	0.0143188
748.450	0.0142116
748.528	0.0141237
748.606	0.0142411
748.684	0.0142103
748.762	0.0141637
748.840	0.0142210
748.918	0.0141518
748.996	0.0142755
749.075	0.0141795
749.153	0.0144151
749.231	0.0144329
749.309	0.0145368
749.387	0.0144536
749.465	0.0143489
749.543	0.0143273
749.621	0.0143929
749.700	0.0144998
749.778	0.0144379
749.856	0.0145477
749.934	0.0145631
750.012	0.0146564
750.090	0.0146175
750.168	0.0146915
750.246	0.0146021
750.325	0.0146143
750.403	0.0145369
750.481	0.0145657
750.559	0.0146259
750.637	0.0143507
750.715	0.0141056
750.793	0.0142093
750.871	0.0143479
750.950	0.0141894
751.028	0.0141789
751.106	0.0141830
751.184	0.0142329
751.262	0.0140430
751.340	0.0138708
751.418	0.0140040
751.496	0.0140517
751.575	0.0140668
751.653	0.0141052
751.731	0.0142509
751.809	0.0142271
751.887	0.0141848
751.965	0.0143037
752.043	0.0143243
752.121	0.0142920
752.200	0.0143809
752.278	0.0146040
752.356	0.0145588
752.434	0.0146639
752.512	0.0145545
752.590	0.0146491
752.668	0.0145912
752.746	0.0146469
752.825	0.0147874
752.903	0.0146890
752.981	0.0147086
753.059	0.0144105
753.137	0.0146108
753.215	0.0144547
753.293	0.0142832
753.371	0.0143124
753.450	0.0142359
753.528	0.0142532
753.606	0.0141042
753.684	0.0139565
753.762	0.0139714
753.840	0.0140298
753.918	0.0140246
753.996	0.0141585
754.075	0.0140981
754.153	0.0141207
754.231	0.0141475
754.309	0.0140471
754.387	0.0142705
754.465	0.0143000
754.543	0.0142878
754.621	0.0142776
754.700	0.0142612
754.778	0.0143347
754.856	0.0146236
754.934	0.0145784
755.012	0.0145685
755.090	0.0145883
755.168	0.0145586
755.246	0.0145185
755.325	0.0145841
755.403	0.0146192
755.481	0.0144750
755.559	0.0144505
755.637	0.0144645
755.715	0.0144579
755.793	0.0145223
755.871	0.0143369
755.950	0.0143741
756.028	0.0142335
756.106	0.0142520
756.184	0.0143168
756.262	0.0142358
756.340	0.0142364
756.418	0.0142883
756.496	0.0141894
756.575	0.0142852
756.653	0.0143764
756.731	0.0143571
756.809	0.0143014
756.887	0.0143918
756.965	0.0144315
757.043	0.0143625
757.121	0.0143289
757.200	0.0143707
757.278	0.0145209
757.356	0.0145147
757.434	0.0143217
757.512	0.0142933
757.590	0.0144183
757.668	0.0145174
757.746	0.0144533
757.825	0.0142981
757.903	0.0143498
757.981	0.0145556
758.059	0.0145022
758.137	0.0143807
758.215	0.0143465
758.293	0.0144838
758.371	0.0142913
758.450	0.0143817
758.528	0.0143064
758.606	0.0145265
758.684	0.0144402
758.762	0.0143457
758.840	0.0143604
758.918	0.0145432
758.996	0.0146482
759.075	0.0145274
759.153	0.0144846
759.231	0.0144759
759.309	0.0144081
759.387	0.0144618
759.465	0.0143426
759.543	0.0142879
759.621	0.0143801
759.700	0.0144790
759.778	0.0144804
759.856	0.0145531
759.934	0.0146265
760.012	0.0144574
760.090	0.0144845
760.168	0.0145795
760.246	0.0144813
760.325	0.0144733
760.403	0.0144067
760.481	0.0143964
760.559	0.0144603
760.637	0.0143989
760.715	0.0143472
760.793	0.0143284
760.871	0.0143333
760.950	0.0142395
761.028	0.0143063
761.106	0.0143095
761.184	0.0140701
761.262	0.0141875
761.340	0.0141136
761.418	0.0141167
761.496	0.0139756
761.575	0.0139854
761.653	0.0141348
761.731	0.0141586
761.809	0.0141141
761.887	0.0141176
761.965	0.0140699
762.043	0.0142134
762.121	0.0141138
762.200	0.0141064
762.278	0.0143394
762.356	0.0143865
762.434	0.0142973
762.512	0.0143840
762.590	0.0143265
762.668	0.0146085
762.746	0.0147040
762.825	0.0146473
762.903	0.0146327
762.981	0.0147525
763.059	0.0147318
763.137	0.0148164
763.215	0.0147899
763.293	0.0146885
763.371	0.0146393
763.450	0.0146333
763.528	0.0145972
763.606	0.0145019
763.684	0.0143420
763.762	0.0143113
763.840	0.0142188
763.918	0.0142626
763.996	0.0141914
764.075	0.0141915
764.153	0.0140778
764.231	0.0139500
764.309	0.0140958
764.387	0.0141438
764.465	0.0142006
764.543	0.0139953
764.621	0.0142397
764.700	0.0143214
