05/04/2022	21:08:22	Ver.	4.1	UNKNOWN
Optical Delay	678.996401	Delta X		0.078125	Sweeps	1	Scan Rate	0/0
Coordinates	Axis 1	NaN	Axis 2	NaN	Axis 3	NaN	Axis 4	NaN	Axis 5	NaN	Axis 6	0.000000
TX Power	0.000000	RX Power	0.000000

678.996	0.0145541
679.075	0.0145227
679.153	0.0146152
679.231	0.0145572
679.309	0.0145287
679.387	0.0145599
679.465	0.0145191
679.543	0.0145986
679.621	0.0143411
679.700	0.0144825
679.778	0.0146857
679.856	0.0146355
679.934	0.0145215
680.012	0.0145702
680.090	0.0146317
680.168	0.0144884
680.246	0.0145984
680.325	0.0146479
680.403	0.0145376
680.481	0.0147156
680.559	0.0144953
680.637	0.0145350
680.715	0.0147229
680.793	0.0145667
680.871	0.0146094
680.950	0.0146025
681.028	0.0144719
681.106	0.0145435
681.184	0.0144965
681.262	0.0145116
681.340	0.0145419
681.418	0.0145308
681.496	0.0145705
681.575	0.0146181
681.653	0.0144428
681.731	0.0144998
681.809	0.0144899
681.887	0.0145443
681.965	0.0146328
682.043	0.0144844
682.121	0.0146120
682.200	0.0146359
682.278	0.0146471
682.356	0.0146291
682.434	0.0145584
682.512	0.0145000
682.590	0.0146053
682.668	0.0145313
682.746	0.0145864
682.825	0.0147211
682.903	0.0144825
682.981	0.0145768
683.059	0.0146120
683.137	0.0145390
683.215	0.0146106
683.293	0.0145140
683.371	0.0144910
683.450	0.0144282
683.528	0.0145063
683.606	0.0144578
683.684	0.0145895
683.762	0.0146271
683.840	0.0145234
683.918	0.0145234
683.996	0.0145449
684.075	0.0145650
684.153	0.0147031
684.231	0.0146527
684.309	0.0144804
684.387	0.0146356
684.465	0.0147346
684.543	0.0145786
684.621	0.0146179
684.700	0.0146555
684.778	0.0147125
684.856	0.0145786
684.934	0.0146285
685.012	0.0146606
685.090	0.0146619
685.168	0.0147123
685.246	0.0146297
685.325	0.0145991
685.403	0.0145325
685.481	0.0144707
685.559	0.0147137
685.637	0.0146461
685.715	0.0145319
685.793	0.0145116
685.871	0.0145358
685.950	0.0146453
686.028	0.0146554
686.106	0.0145292
686.184	0.0145747
686.262	0.0146376
686.340	0.0144997
686.418	0.0144842
686.496	0.0145813
686.575	0.0144607
686.653	0.0145773
686.731	0.0145841
686.809	0.0146750
686.887	0.0146948
686.965	0.0146962
687.043	0.0146555
687.121	0.0145772
687.200	0.0144618
687.278	0.0146268
687.356	0.0147445
687.434	0.0144807
687.512	0.0145328
687.590	0.0144482
687.668	0.0145893
687.746	0.0145737
687.825	0.0144769
687.903	0.0145544
687.981	0.0145207
688.059	0.0145176
688.137	0.0145066
688.215	0.0146676
688.293	0.0146723
688.371	0.0145410
688.450	0.0144875
688.528	0.0144503
688.606	0.0146422
688.684	0.0146127
688.762	0.0145817
688.840	0.0145740
688.918	0.0145897
688.996	0.0144515
689.075	0.0145319
689.153	0.0145982
689.231	0.0146457
689.309	0.0144876
689.387	0.0145792
689.465	0.0145395
689.543	0.0145337
689.621	0.0146379
689.700	0.0144699
689.778	0.0146185
689.856	0.0144630
689.934	0.0146149
690.012	0.0145858
690.090	0.0146410
690.168	0.0145573
690.246	0.0145805
690.325	0.0145926
690.403	0.0146100
690.481	0.0145325
690.559	0.0146288
690.637	0.0146891
690.715	0.0145258
690.793	0.0147099
690.871	0.0145827
690.950	0.0146957
691.028	0.0145627
691.106	0.0146337
691.184	0.0146446
691.262	0.0146467
691.340	0.0145889
691.418	0.0144872
691.496	0.0146529
691.575	0.0146435
691.653	0.0146014
691.731	0.0146029
691.809	0.0146102
691.887	0.0146710
691.965	0.0146655
692.043	0.0145538
692.121	0.0145822
692.200	0.0145750
692.278	0.0145166
692.356	0.0145408
692.434	0.0145718
692.512	0.0145959
692.590	0.0146426
692.668	0.0145193
692.746	0.0145706
692.825	0.0144813
692.903	0.0145578
692.981	0.0146361
693.059	0.0144966
693.137	0.0144598
693.215	0.0143888
693.293	0.0144936
693.371	0.0145690
693.450	0.0143408
693.528	0.0143826
693.606	0.0143332
693.684	0.0143686
693.762	0.0143404
693.840	0.0143958
693.918	0.0143433
693.996	0.0142397
694.075	0.0145678
694.153	0.0144508
694.231	0.0144293
694.309	0.0144943
694.387	0.0146614
694.465	0.0143874
694.543	0.0146403
694.621	0.0146432
694.700	0.0146505
694.778	0.0148150
694.856	0.0147122
694.934	0.0146249
695.012	0.0148116
695.090	0.0147306
695.168	0.0148486
695.246	0.0147416
695.325	0.0146270
695.403	0.0146866
695.481	0.0146605
695.559	0.0145702
695.637	0.0146114
695.715	0.0145771
695.793	0.0145065
695.871	0.0143905
695.950	0.0144043
696.028	0.0144987
696.106	0.0144788
696.184	0.0143337
696.262	0.0143176
696.340	0.0145586
696.418	0.0145601
696.496	0.0145102
696.575	0.0143289
696.653	0.0145230
696.731	0.0145305
696.809	0.0146440
696.887	0.0147592
696.965	0.0146506
697.043	0.0146380
697.121	0.0146728
697.200	0.0147463
697.278	0.0148163
697.356	0.0145382
697.434	0.0146415
697.512	0.0147039
697.590	0.0146216
697.668	0.0145294
697.746	0.0146233
697.825	0.0146236
697.903	0.0145837
697.981	0.0144496
698.059	0.0146327
698.137	0.0147456
698.215	0.0144115
698.293	0.0143903
698.371	0.0144551
698.450	0.0144680
698.528	0.0144408
698.606	0.0145409
698.684	0.0145544
698.762	0.0145222
698.840	0.0145540
698.918	0.0144793
698.996	0.0144977
699.075	0.0144835
699.153	0.0145274
699.231	0.0146068
699.309	0.0145872
699.387	0.0144278
699.465	0.0144192
699.543	0.0145914
699.621	0.0144488
699.700	0.0145145
699.778	0.0144298
699.856	0.0145531
699.934	0.0146432
700.012	0.0144991
700.090	0.0145936
700.168	0.0145290
700.246	0.0144891
700.325	0.0145496
700.403	0.0146522
700.481	0.0147429
700.559	0.0147097
700.637	0.0147472
700.715	0.0147269
700.793	0.0147073
700.871	0.0148306
700.950	0.0148051
701.028	0.0148034
701.106	0.0146877
701.184	0.0145490
701.262	0.0146880
701.340	0.0146042
701.418	0.0144812
701.496	0.0144643
701.575	0.0144510
701.653	0.0144984
701.731	0.0143976
701.809	0.0144264
701.887	0.0144385
701.965	0.0144517
702.043	0.0144349
702.121	0.0144752
702.200	0.0143860
702.278	0.0144827
702.356	0.0145896
702.434	0.0144989
702.512	0.0146172
702.590	0.0145710
702.668	0.0146905
702.746	0.0147491
702.825	0.0145528
702.903	0.0145904
702.981	0.0145934
703.059	0.0145479
703.137	0.0144696
703.215	0.0146505
703.293	0.0144608
703.371	0.0146426
703.450	0.0146846
703.528	0.0145857
703.606	0.0144000
703.684	0.0144398
703.762	0.0144196
703.840	0.0142438
703.918	0.0143179
703.996	0.0145611
704.075	0.0145233
704.153	0.0146745
704.231	0.0145775
704.309	0.0147331
704.387	0.0149388
704.465	0.0146645
704.543	0.0145991
704.621	0.0145950
704.700	0.0144942
704.778	0.0145451
704.856	0.0146055
704.934	0.0145915
705.012	0.0146620
705.090	0.0148385
705.168	0.0148338
705.246	0.0149070
705.325	0.0147247
705.403	0.0146421
705.481	0.0146429
705.559	0.0143822
705.637	0.0142750
705.715	0.0139905
705.793	0.0140116
705.871	0.0138999
705.950	0.0137939
706.028	0.0138412
706.106	0.0137367
706.184	0.0140179
706.262	0.0143089
706.340	0.0144675
706.418	0.0145948
706.496	0.0146539
706.575	0.0147495
706.653	0.0147713
706.731	0.0147130
706.809	0.0146530
706.887	0.0148171
706.965	0.0148244
707.043	0.0150905
707.121	0.0150982
707.200	0.0151530
707.278	0.0151437
707.356	0.0152073
707.434	0.0152049
707.512	0.0151438
707.590	0.0149905
707.668	0.0149061
707.746	0.0149702
707.825	0.0149174
707.903	0.0147864
707.981	0.0148008
708.059	0.0146193
708.137	0.0146396
708.215	0.0145210
708.293	0.0142873
708.371	0.0140723
708.450	0.0137904
708.528	0.0135739
708.606	0.0134521
708.684	0.0132133
708.762	0.0132244
708.840	0.0132439
708.918	0.0133709
708.996	0.0136982
709.075	0.0137691
709.153	0.0142010
709.231	0.0145792
709.309	0.0149281
709.387	0.0153228
709.465	0.0157926
709.543	0.0159899
709.621	0.0160389
709.700	0.0159537
709.778	0.0158583
709.856	0.0155546
709.934	0.0153202
710.012	0.0149878
710.090	0.0148560
710.168	0.0146242
710.246	0.0145286
710.325	0.0144558
710.403	0.0142817
710.481	0.0145094
710.559	0.0147330
710.637	0.0148851
710.715	0.0150175
710.793	0.0151969
710.871	0.0153754
710.950	0.0153577
711.028	0.0149532
711.106	0.0146449
711.184	0.0144976
711.262	0.0141394
711.340	0.0135904
711.418	0.0130566
711.496	0.0131464
711.575	0.0129412
711.653	0.0128822
711.731	0.0130923
711.809	0.0130204
711.887	0.0132987
711.965	0.0135926
712.043	0.0139732
712.121	0.0145697
712.200	0.0147675
712.278	0.0153210
712.356	0.0157418
712.434	0.0160471
712.512	0.0160202
712.590	0.0160926
712.668	0.0158691
712.746	0.0158474
712.825	0.0157282
712.903	0.0154173
712.981	0.0151764
713.059	0.0149170
713.137	0.0144524
713.215	0.0144394
713.293	0.0143326
713.371	0.0143353
713.450	0.0143884
713.528	0.0146240
713.606	0.0149337
713.684	0.0150867
713.762	0.0152649
713.840	0.0153510
713.918	0.0152989
713.996	0.0148943
714.075	0.0146912
714.153	0.0141402
714.231	0.0136772
714.309	0.0133808
714.387	0.0130277
714.465	0.0128229
714.543	0.0126139
714.621	0.0127168
714.700	0.0127361
714.778	0.0129100
714.856	0.0133009
714.934	0.0136603
715.012	0.0141801
715.090	0.0146687
715.168	0.0150393
715.246	0.0155005
715.325	0.0158613
715.403	0.0160371
715.481	0.0161568
715.559	0.0161530
715.637	0.0160027
715.715	0.0159487
715.793	0.0156642
715.871	0.0151149
715.950	0.0148166
716.028	0.0145751
716.106	0.0143929
716.184	0.0142113
716.262	0.0140972
716.340	0.0141035
716.418	0.0141947
716.496	0.0142580
716.575	0.0145570
716.653	0.0147750
716.731	0.0148032
716.809	0.0150455
716.887	0.0148025
716.965	0.0147354
717.043	0.0146162
717.121	0.0144848
717.200	0.0142428
717.278	0.0140905
717.356	0.0137061
717.434	0.0136108
717.512	0.0134937
717.590	0.0134202
717.668	0.0135901
717.746	0.0134999
717.825	0.0136185
717.903	0.0137561
717.981	0.0138954
718.059	0.0141257
718.137	0.0145303
718.215	0.0148496
718.293	0.0151308
718.371	0.0152984
718.450	0.0155070
718.528	0.0155488
718.606	0.0156417
718.684	0.0155358
718.762	0.0153000
718.840	0.0151463
718.918	0.0147206
718.996	0.0145760
719.075	0.0143785
719.153	0.0142518
719.231	0.0141585
719.309	0.0141388
719.387	0.0142131
719.465	0.0142898
719.543	0.0144400
719.621	0.0146104
719.700	0.0148615
719.778	0.0148418
719.856	0.0149165
719.934	0.0150382
720.012	0.0149895
720.090	0.0149554
720.168	0.0148080
720.246	0.0148559
720.325	0.0146912
720.403	0.0144867
720.481	0.0144296
720.559	0.0142831
720.637	0.0140824
720.715	0.0141235
720.793	0.0139066
720.871	0.0141288
720.950	0.0139871
721.028	0.0141050
721.106	0.0142006
721.184	0.0142648
721.262	0.0145274
721.340	0.0148706
721.418	0.0149747
721.496	0.0149533
721.575	0.0151028
721.653	0.0152381
721.731	0.0149673
721.809	0.0149586
721.887	0.0149237
721.965	0.0147801
722.043	0.0145978
722.121	0.0144979
722.200	0.0143929
722.278	0.0140401
722.356	0.0139831
722.434	0.0138127
722.512	0.0137299
722.590	0.0137374
722.668	0.0136694
722.746	0.0137355
722.825	0.0137414
722.903	0.0140455
722.981	0.0143734
723.059	0.0147324
723.137	0.0148977
723.215	0.0151344
723.293	0.0151818
723.371	0.0151932
723.450	0.0152717
723.528	0.0153107
723.606	0.0152818
723.684	0.0151241
723.762	0.0149090
723.840	0.0149389
723.918	0.0149124
723.996	0.0148333
724.075	0.0145766
724.153	0.0146362
724.231	0.0147428
724.309	0.0145483
724.387	0.0146648
724.465	0.0148269
724.543	0.0149500
724.621	0.0148862
724.700	0.0149742
724.778	0.0149547
724.856	0.0148273
724.934	0.0147971
725.012	0.0146638
725.090	0.0143407
725.168	0.0141567
725.246	0.0139822
725.325	0.0136954
725.403	0.0135539
725.481	0.0135036
725.559	0.0132510
725.637	0.0131975
725.715	0.0133012
725.793	0.0134779
725.871	0.0135979
725.950	0.0138308
726.028	0.0142085
726.106	0.0144911
726.184	0.0145013
726.262	0.0147511
726.340	0.0150732
726.418	0.0152789
726.496	0.0153689
726.575	0.0153878
726.653	0.0153658
726.731	0.0154999
726.809	0.0153996
726.887	0.0153775
726.965	0.0153089
727.043	0.0151221
727.121	0.0149439
727.200	0.0148385
727.278	0.0147997
727.356	0.0145843
727.434	0.0146401
727.512	0.0144633
727.590	0.0146558
727.668	0.0146039
727.746	0.0146124
727.825	0.0147934
727.903	0.0148592
727.981	0.0149060
728.059	0.0147718
728.137	0.0147469
728.215	0.0145967
728.293	0.0147143
728.371	0.0145816
728.450	0.0142621
728.528	0.0142205
728.606	0.0141948
728.684	0.0138126
728.762	0.0138075
728.840	0.0138396
728.918	0.0137238
728.996	0.0136134
729.075	0.0137050
729.153	0.0138390
729.231	0.0140223
729.309	0.0141507
729.387	0.0142148
729.465	0.0144284
729.543	0.0145953
729.621	0.0148182
729.700	0.0149474
729.778	0.0150084
729.856	0.0151479
729.934	0.0151141
730.012	0.0150507
730.090	0.0151785
730.168	0.0150232
730.246	0.0149082
730.325	0.0148797
730.403	0.0149071
730.481	0.0148714
730.559	0.0146722
730.637	0.0147385
730.715	0.0147411
730.793	0.0147603
730.871	0.0147440
730.950	0.0148450
731.028	0.0149820
731.106	0.0149435
731.184	0.0149525
731.262	0.0149166
731.340	0.0151044
731.418	0.0148697
731.496	0.0149331
731.575	0.0148560
731.653	0.0146483
731.731	0.0145102
731.809	0.0144045
731.887	0.0142696
731.965	0.0141624
732.043	0.0140588
732.121	0.0140535
732.200	0.0139922
732.278	0.0139680
732.356	0.0140638
732.434	0.0140269
732.512	0.0141595
732.590	0.0141214
732.668	0.0142077
732.746	0.0144211
732.825	0.0146994
732.903	0.0146326
732.981	0.0146806
733.059	0.0146652
733.137	0.0148454
733.215	0.0147739
733.293	0.0148335
733.371	0.0149398
733.450	0.0148705
733.528	0.0146707
733.606	0.0148438
733.684	0.0148346
733.762	0.0146970
733.840	0.0147470
733.918	0.0147801
733.996	0.0148006
734.075	0.0148663
734.153	0.0148614
734.231	0.0148895
734.309	0.0148191
734.387	0.0147323
734.465	0.0146610
734.543	0.0145905
734.621	0.0146170
734.700	0.0145601
734.778	0.0145018
734.856	0.0144430
734.934	0.0143853
735.012	0.0144231
735.090	0.0142597
735.168	0.0143557
735.246	0.0144737
735.325	0.0143472
735.403	0.0142509
735.481	0.0142797
735.559	0.0144590
735.637	0.0145288
735.715	0.0144337
735.793	0.0145283
735.871	0.0144961
735.950	0.0146362
736.028	0.0148067
736.106	0.0145899
736.184	0.0146847
736.262	0.0148141
736.340	0.0148598
736.418	0.0149990
736.496	0.0147740
736.575	0.0148914
736.653	0.0149820
736.731	0.0148952
736.809	0.0149889
736.887	0.0148686
736.965	0.0148286
737.043	0.0147423
737.121	0.0147337
737.200	0.0144279
737.278	0.0143077
737.356	0.0144611
737.434	0.0144655
737.512	0.0143009
737.590	0.0141855
737.668	0.0141973
737.746	0.0141104
737.825	0.0140497
737.903	0.0141407
737.981	0.0141528
738.059	0.0142851
738.137	0.0144146
738.215	0.0145703
738.293	0.0145924
738.371	0.0145572
738.450	0.0148078
738.528	0.0147164
738.606	0.0146378
738.684	0.0147282
738.762	0.0146243
738.840	0.0147349
738.918	0.0147307
738.996	0.0146816
739.075	0.0146020
739.153	0.0147587
739.231	0.0146173
739.309	0.0148348
739.387	0.0147668
739.465	0.0147116
739.543	0.0148898
739.621	0.0149243
739.700	0.0148979
739.778	0.0147115
739.856	0.0148946
739.934	0.0147493
740.012	0.0145795
740.090	0.0146214
740.168	0.0145636
740.246	0.0144523
740.325	0.0143983
740.403	0.0144030
740.481	0.0143201
740.559	0.0142417
740.637	0.0144153
740.715	0.0142412
740.793	0.0142213
740.871	0.0141746
740.950	0.0142732
741.028	0.0143213
741.106	0.0143078
741.184	0.0142391
741.262	0.0144890
741.340	0.0146717
741.418	0.0146046
741.496	0.0144321
741.575	0.0145998
741.653	0.0148853
741.731	0.0144955
741.809	0.0146197
741.887	0.0146648
741.965	0.0145467
742.043	0.0145910
742.121	0.0146611
742.200	0.0146069
742.278	0.0147627
742.356	0.0145902
742.434	0.0146433
742.512	0.0146523
742.590	0.0145773
742.668	0.0145805
742.746	0.0146666
742.825	0.0145293
742.903	0.0145872
742.981	0.0147376
743.059	0.0145827
743.137	0.0145422
743.215	0.0146801
743.293	0.0147422
743.371	0.0148096
743.450	0.0147827
743.528	0.0146642
743.606	0.0147194
743.684	0.0146524
743.762	0.0146661
743.840	0.0146165
743.918	0.0145917
743.996	0.0147919
744.075	0.0144970
744.153	0.0144830
744.231	0.0144829
744.309	0.0144891
744.387	0.0145792
744.465	0.0145089
744.543	0.0144007
744.621	0.0144553
744.700	0.0144505
744.778	0.0145306
744.856	0.0145037
744.934	0.0146310
745.012	0.0146051
745.090	0.0144201
745.168	0.0144044
745.246	0.0145996
745.325	0.0145444
745.403	0.0145866
745.481	0.0144882
745.559	0.0145176
745.637	0.0144200
745.715	0.0144005
745.793	0.0145509
745.871	0.0144981
745.950	0.0146127
746.028	0.0146630
746.106	0.0145583
746.184	0.0146420
746.262	0.0146718
746.340	0.0147047
746.418	0.0148145
746.496	0.0148251
746.575	0.0146848
746.653	0.0146902
746.731	0.0148167
746.809	0.0147215
746.887	0.0146349
746.965	0.0147453
747.043	0.0146791
747.121	0.0147632
747.200	0.0145897
747.278	0.0145972
747.356	0.0145992
747.434	0.0146854
747.512	0.0145251
747.590	0.0144993
747.668	0.0145750
747.746	0.0145995
747.825	0.0144867
747.903	0.0144814
747.981	0.0145346
748.059	0.0145409
748.137	0.0145044
748.215	0.0146130
748.293	0.0144456
748.371	0.0144009
748.450	0.0144376
748.528	0.0144380
748.606	0.0144955
748.684	0.0145130
748.762	0.0144881
748.840	0.0146042
748.918	0.0146453
748.996	0.0146809
749.075	0.0147330
749.153	0.0145484
749.231	0.0147125
749.309	0.0147163
749.387	0.0147240
749.465	0.0145611
749.543	0.0146598
749.621	0.0146462
749.700	0.0144734
749.778	0.0144737
749.856	0.0145715
749.934	0.0145831
750.012	0.0145660
750.090	0.0145248
750.168	0.0144522
750.246	0.0144634
750.325	0.0144737
750.403	0.0144966
750.481	0.0146095
750.559	0.0145125
750.637	0.0144824
750.715	0.0146036
750.793	0.0146046
750.871	0.0143466
750.950	0.0142905
751.028	0.0142726
751.106	0.0144099
751.184	0.0144007
751.262	0.0143907
751.340	0.0143446
751.418	0.0143407
751.496	0.0144263
751.575	0.0145652
751.653	0.0145416
751.731	0.0146464
751.809	0.0146477
751.887	0.0147784
751.965	0.0148767
752.043	0.0148287
752.121	0.0147938
752.200	0.0148884
752.278	0.0147691
752.356	0.0148447
752.434	0.0147514
752.512	0.0147469
752.590	0.0148608
752.668	0.0147058
752.746	0.0146471
752.825	0.0145262
752.903	0.0145831
752.981	0.0144186
753.059	0.0144312
753.137	0.0144650
753.215	0.0144419
753.293	0.0145192
753.371	0.0145300
753.450	0.0144231
753.528	0.0145313
753.606	0.0144339
753.684	0.0144895
753.762	0.0144572
753.840	0.0145956
753.918	0.0144950
753.996	0.0144623
754.075	0.0144646
754.153	0.0145037
754.231	0.0144893
754.309	0.0145227
754.387	0.0144085
754.465	0.0145043
754.543	0.0144532
754.621	0.0144361
754.700	0.0146136
754.778	0.0144581
754.856	0.0145758
754.934	0.0145703
755.012	0.0144710
755.090	0.0144965
755.168	0.0146458
755.246	0.0145492
755.325	0.0146452
755.403	0.0145837
755.481	0.0146474
755.559	0.0147163
755.637	0.0145803
755.715	0.0146352
755.793	0.0147307
755.871	0.0146675
755.950	0.0146361
756.028	0.0144904
756.106	0.0146530
756.184	0.0145711
756.262	0.0146413
756.340	0.0145638
756.418	0.0146207
756.496	0.0146687
756.575	0.0146651
756.653	0.0145236
756.731	0.0145251
756.809	0.0145097
756.887	0.0147105
756.965	0.0145382
757.043	0.0144459
757.121	0.0145552
757.200	0.0145271
757.278	0.0144238
757.356	0.0145837
757.434	0.0146481
757.512	0.0144590
757.590	0.0145372
757.668	0.0144417
757.746	0.0143390
757.825	0.0144263
757.903	0.0145335
757.981	0.0144543
758.059	0.0144382
758.137	0.0145870
758.215	0.0145502
758.293	0.0145060
758.371	0.0145113
758.450	0.0144777
758.528	0.0144794
758.606	0.0145638
758.684	0.0146636
758.762	0.0146205
758.840	0.0147137
758.918	0.0146753
758.996	0.0146629
759.075	0.0146751
759.153	0.0147238
759.231	0.0147392
759.309	0.0147708
759.387	0.0149138
759.465	0.0149517
759.543	0.0147543
759.621	0.0148220
759.700	0.0147553
759.778	0.0147288
759.856	0.0147486
759.934	0.0147526
760.012	0.0147630
760.090	0.0147259
760.168	0.0145782
760.246	0.0145349
760.325	0.0145549
760.403	0.0144550
760.481	0.0144312
760.559	0.0144716
760.637	0.0143801
760.715	0.0142407
760.793	0.0143976
760.871	0.0144219
760.950	0.0143196
761.028	0.0142583
761.106	0.0142992
761.184	0.0143152
761.262	0.0144347
761.340	0.0144947
761.418	0.0142319
761.496	0.0143240
761.575	0.0145504
761.653	0.0145530
761.731	0.0146670
761.809	0.0146385
761.887	0.0146669
761.965	0.0146411
762.043	0.0146527
762.121	0.0147639
762.200	0.0147083
762.278	0.0146721
762.356	0.0145972
762.434	0.0146979
762.512	0.0148450
762.590	0.0147191
762.668	0.0145848
762.746	0.0147227
762.825	0.0147772
762.903	0.0147505
762.981	0.0145458
763.059	0.0147543
763.137	0.0147253
763.215	0.0145345
763.293	0.0145358
763.371	0.0147655
763.450	0.0145659
763.528	0.0146286
763.606	0.0145339
763.684	0.0144975
763.762	0.0143880
763.840	0.0144566
763.918	0.0146794
763.996	0.0145288
764.075	0.0144861
764.153	0.0144137
764.231	0.0145578
764.309	0.0145239
764.387	0.0144857
764.465	0.0144534
764.543	0.0145278
764.621	0.0144784
764.700	0.0144017
