05/04/2022	20:48:16	Ver.	4.1	UNKNOWN
Optical Delay	679.003072	Delta X		0.078125	Sweeps	1	Scan Rate	0/0
Coordinates	Axis 1	NaN	Axis 2	NaN	Axis 3	NaN	Axis 4	NaN	Axis 5	NaN	Axis 6	0.000000
TX Power	0.000000	RX Power	0.000000

679.003	0.0141834
679.081	0.0140671
679.159	0.0140458
679.237	0.0141184
679.316	0.0142469
679.394	0.0142525
679.472	0.0141029
679.550	0.0141936
679.628	0.0141520
679.706	0.0140630
679.784	0.0141306
679.862	0.0141147
679.941	0.0141361
680.019	0.0140576
680.097	0.0141325
680.175	0.0141831
680.253	0.0140714
680.331	0.0141625
680.409	0.0142075
680.487	0.0141912
680.566	0.0141318
680.644	0.0141274
680.722	0.0141660
680.800	0.0143654
680.878	0.0141261
680.956	0.0141508
681.034	0.0141501
681.112	0.0141426
681.191	0.0141310
681.269	0.0141081
681.347	0.0142353
681.425	0.0140699
681.503	0.0140967
681.581	0.0141762
681.659	0.0142220
681.737	0.0141640
681.816	0.0140951
681.894	0.0142130
681.972	0.0141741
682.050	0.0142216
682.128	0.0141679
682.206	0.0140816
682.284	0.0141390
682.362	0.0141199
682.441	0.0141564
682.519	0.0141249
682.597	0.0141792
682.675	0.0141802
682.753	0.0139463
682.831	0.0140388
682.909	0.0142373
682.987	0.0141707
683.066	0.0142300
683.144	0.0141339
683.222	0.0141370
683.300	0.0140816
683.378	0.0142402
683.456	0.0140310
683.534	0.0141998
683.612	0.0141433
683.691	0.0141935
683.769	0.0141774
683.847	0.0142011
683.925	0.0142263
684.003	0.0141560
684.081	0.0141073
684.159	0.0140186
684.237	0.0140658
684.316	0.0141322
684.394	0.0142599
684.472	0.0140656
684.550	0.0139994
684.628	0.0141704
684.706	0.0142352
684.784	0.0141611
684.862	0.0141331
684.941	0.0141143
685.019	0.0140991
685.097	0.0141849
685.175	0.0142619
685.253	0.0141434
685.331	0.0141570
685.409	0.0141590
685.487	0.0141164
685.566	0.0141821
685.644	0.0141913
685.722	0.0141421
685.800	0.0141316
685.878	0.0142340
685.956	0.0141393
686.034	0.0141888
686.112	0.0140822
686.191	0.0141967
686.269	0.0142434
686.347	0.0142112
686.425	0.0142063
686.503	0.0141286
686.581	0.0141692
686.659	0.0141466
686.737	0.0140585
686.816	0.0141049
686.894	0.0142703
686.972	0.0141802
687.050	0.0142097
687.128	0.0143863
687.206	0.0141468
687.284	0.0140902
687.362	0.0142612
687.441	0.0141460
687.519	0.0141606
687.597	0.0141660
687.675	0.0141399
687.753	0.0141279
687.831	0.0142545
687.909	0.0140997
687.987	0.0141574
688.066	0.0142133
688.144	0.0141345
688.222	0.0141645
688.300	0.0141871
688.378	0.0142438
688.456	0.0141393
688.534	0.0141285
688.612	0.0142065
688.691	0.0141981
688.769	0.0141075
688.847	0.0143461
688.925	0.0141678
689.003	0.0140995
689.081	0.0141030
689.159	0.0140931
689.237	0.0141812
689.316	0.0141727
689.394	0.0142602
689.472	0.0142686
689.550	0.0141965
689.628	0.0142424
689.706	0.0141677
689.784	0.0142250
689.862	0.0142180
689.941	0.0143168
690.019	0.0142484
690.097	0.0142356
690.175	0.0142101
690.253	0.0141684
690.331	0.0140877
690.409	0.0141477
690.487	0.0141880
690.566	0.0141966
690.644	0.0141502
690.722	0.0141797
690.800	0.0141697
690.878	0.0141257
690.956	0.0141498
691.034	0.0141836
691.112	0.0142730
691.191	0.0142685
691.269	0.0142892
691.347	0.0141852
691.425	0.0142594
691.503	0.0141526
691.581	0.0142445
691.659	0.0143105
691.737	0.0141006
691.816	0.0139557
691.894	0.0142786
691.972	0.0141905
692.050	0.0141180
692.128	0.0141808
692.206	0.0140340
692.284	0.0142729
692.362	0.0140776
692.441	0.0141068
692.519	0.0142183
692.597	0.0142269
692.675	0.0141398
692.753	0.0141814
692.831	0.0142069
692.909	0.0142567
692.987	0.0141332
693.066	0.0141790
693.144	0.0143057
693.222	0.0143266
693.300	0.0142450
693.378	0.0141312
693.456	0.0142495
693.534	0.0141754
693.612	0.0141177
693.691	0.0142385
693.769	0.0143004
693.847	0.0141780
693.925	0.0141552
694.003	0.0141646
694.081	0.0142859
694.159	0.0142918
694.237	0.0143213
694.316	0.0140944
694.394	0.0141743
694.472	0.0141764
694.550	0.0142882
694.628	0.0142067
694.706	0.0142044
694.784	0.0141643
694.862	0.0142493
694.941	0.0141557
695.019	0.0141684
695.097	0.0142532
695.175	0.0142516
695.253	0.0141631
695.331	0.0141193
695.409	0.0141017
695.487	0.0142377
695.566	0.0142472
695.644	0.0141002
695.722	0.0141196
695.800	0.0141946
695.878	0.0142132
695.956	0.0141179
696.034	0.0141393
696.112	0.0141489
696.191	0.0142691
696.269	0.0141658
696.347	0.0142227
696.425	0.0142413
696.503	0.0140845
696.581	0.0141536
696.659	0.0140833
696.737	0.0141964
696.816	0.0142484
696.894	0.0140945
696.972	0.0142632
697.050	0.0141723
697.128	0.0141127
697.206	0.0141719
697.284	0.0142796
697.362	0.0141676
697.441	0.0143475
697.519	0.0141444
697.597	0.0140677
697.675	0.0142336
697.753	0.0142506
697.831	0.0141873
697.909	0.0142527
697.987	0.0141924
698.066	0.0141241
698.144	0.0141628
698.222	0.0142175
698.300	0.0141772
698.378	0.0141914
698.456	0.0141117
698.534	0.0141978
698.612	0.0142268
698.691	0.0141234
698.769	0.0142605
698.847	0.0142450
698.925	0.0140386
699.003	0.0142435
699.081	0.0143153
699.159	0.0141479
699.237	0.0142261
699.316	0.0140983
699.394	0.0141185
699.472	0.0141586
699.550	0.0140768
699.628	0.0141602
699.706	0.0143228
699.784	0.0141343
699.862	0.0141611
699.941	0.0141521
700.019	0.0141451
700.097	0.0141682
700.175	0.0142112
700.253	0.0140740
700.331	0.0142152
700.409	0.0140875
700.487	0.0141217
700.566	0.0141545
700.644	0.0142663
700.722	0.0141648
700.800	0.0139568
700.878	0.0142645
700.956	0.0141792
701.034	0.0141613
701.112	0.0141698
701.191	0.0142309
701.269	0.0141663
701.347	0.0141988
701.425	0.0141879
701.503	0.0142383
701.581	0.0141079
701.659	0.0141222
701.737	0.0141693
701.816	0.0141705
701.894	0.0141737
701.972	0.0142989
702.050	0.0141949
702.128	0.0140913
702.206	0.0141920
702.284	0.0140557
702.362	0.0141973
702.441	0.0140975
702.519	0.0140662
702.597	0.0142777
702.675	0.0142151
702.753	0.0142153
702.831	0.0142461
702.909	0.0141911
702.987	0.0142995
703.066	0.0141940
703.144	0.0142683
703.222	0.0142167
703.300	0.0140989
703.378	0.0142062
703.456	0.0142097
703.534	0.0141662
703.612	0.0141665
703.691	0.0142039
703.769	0.0142565
703.847	0.0141960
703.925	0.0142476
704.003	0.0142373
704.081	0.0141531
704.159	0.0140614
704.237	0.0142535
704.316	0.0142052
704.394	0.0141460
704.472	0.0142603
704.550	0.0143007
704.628	0.0142554
704.706	0.0141737
704.784	0.0141180
704.862	0.0143006
704.941	0.0142442
705.019	0.0141850
705.097	0.0141963
705.175	0.0141565
705.253	0.0141612
705.331	0.0141294
705.409	0.0140817
705.487	0.0141199
705.566	0.0141650
705.644	0.0142672
705.722	0.0141357
705.800	0.0142571
705.878	0.0140842
705.956	0.0142329
706.034	0.0140518
706.112	0.0141271
706.191	0.0142531
706.269	0.0142647
706.347	0.0142326
706.425	0.0141727
706.503	0.0141990
706.581	0.0141111
706.659	0.0141936
706.737	0.0140901
706.816	0.0142959
706.894	0.0141676
706.972	0.0140877
707.050	0.0141286
707.128	0.0141422
707.206	0.0141360
707.284	0.0142188
707.362	0.0142251
707.441	0.0143014
707.519	0.0141119
707.597	0.0141436
707.675	0.0141928
707.753	0.0141179
707.831	0.0142047
707.909	0.0142953
707.987	0.0142417
708.066	0.0140517
708.144	0.0141208
708.222	0.0142108
708.300	0.0142854
708.378	0.0141802
708.456	0.0140164
708.534	0.0142236
708.612	0.0141992
708.691	0.0140798
708.769	0.0141004
708.847	0.0141116
708.925	0.0141315
709.003	0.0141328
709.081	0.0141750
709.159	0.0140272
709.237	0.0140228
709.316	0.0141865
709.394	0.0142223
709.472	0.0143039
709.550	0.0141846
709.628	0.0141520
709.706	0.0140143
709.784	0.0142390
709.862	0.0141991
709.941	0.0141643
710.019	0.0141076
710.097	0.0140569
710.175	0.0142597
710.253	0.0141487
710.331	0.0142178
710.409	0.0140161
710.487	0.0142530
710.566	0.0141949
710.644	0.0142653
710.722	0.0141388
710.800	0.0142549
710.878	0.0142776
710.956	0.0141451
711.034	0.0141470
711.112	0.0141928
711.191	0.0142199
711.269	0.0142981
711.347	0.0141547
711.425	0.0142960
711.503	0.0142352
711.581	0.0140759
711.659	0.0140508
711.737	0.0142151
711.816	0.0142353
711.894	0.0142029
711.972	0.0140627
712.050	0.0142740
712.128	0.0140731
712.206	0.0140739
712.284	0.0142193
712.362	0.0141431
712.441	0.0142000
712.519	0.0142848
712.597	0.0140869
712.675	0.0140952
712.753	0.0142568
712.831	0.0141300
712.909	0.0142752
712.987	0.0141753
713.066	0.0141424
713.144	0.0141588
713.222	0.0142564
713.300	0.0141892
713.378	0.0142827
713.456	0.0143649
713.534	0.0141489
713.612	0.0141463
713.691	0.0142597
713.769	0.0143272
713.847	0.0143050
713.925	0.0142117
714.003	0.0142278
714.081	0.0142398
714.159	0.0141785
714.237	0.0142676
714.316	0.0140029
714.394	0.0140942
714.472	0.0141406
714.550	0.0142437
714.628	0.0143330
714.706	0.0142947
714.784	0.0142540
714.862	0.0143780
714.941	0.0143310
715.019	0.0142973
715.097	0.0143112
715.175	0.0143076
715.253	0.0141582
715.331	0.0142461
715.409	0.0141378
715.487	0.0142141
715.566	0.0142065
715.644	0.0141879
715.722	0.0139837
715.800	0.0141310
715.878	0.0141924
715.956	0.0140878
716.034	0.0140427
716.112	0.0140490
716.191	0.0140562
716.269	0.0141441
716.347	0.0141739
716.425	0.0140739
716.503	0.0140491
716.581	0.0141200
716.659	0.0141397
716.737	0.0141125
716.816	0.0140347
716.894	0.0141797
716.972	0.0142345
717.050	0.0140738
717.128	0.0140018
717.206	0.0139855
717.284	0.0140251
717.362	0.0139948
717.441	0.0139921
717.519	0.0140713
717.597	0.0140816
717.675	0.0141301
717.753	0.0141479
717.831	0.0142985
717.909	0.0141959
717.987	0.0140531
718.066	0.0141866
718.144	0.0141339
718.222	0.0141590
718.300	0.0139658
718.378	0.0139495
718.456	0.0140753
718.534	0.0140382
718.612	0.0140430
718.691	0.0139259
718.769	0.0140819
718.847	0.0139649
718.925	0.0141183
719.003	0.0141157
719.081	0.0141560
719.159	0.0141203
719.237	0.0142271
719.316	0.0141722
719.394	0.0141503
719.472	0.0142208
719.550	0.0142133
719.628	0.0143553
719.706	0.0142651
719.784	0.0143632
719.862	0.0142923
719.941	0.0143518
720.019	0.0145593
720.097	0.0141676
720.175	0.0143465
720.253	0.0143185
720.331	0.0142955
720.409	0.0142176
720.487	0.0142325
720.566	0.0143515
720.644	0.0141911
720.722	0.0141611
720.800	0.0143708
720.878	0.0143073
720.956	0.0143261
721.034	0.0142071
721.112	0.0142136
721.191	0.0142999
721.269	0.0141603
721.347	0.0140263
721.425	0.0141213
721.503	0.0140601
721.581	0.0139492
721.659	0.0138267
721.737	0.0139726
721.816	0.0138981
721.894	0.0137889
721.972	0.0137744
722.050	0.0138821
722.128	0.0140224
722.206	0.0138982
722.284	0.0140634
722.362	0.0140588
722.441	0.0140533
722.519	0.0142561
722.597	0.0141509
722.675	0.0141779
722.753	0.0142260
722.831	0.0140887
722.909	0.0141335
722.987	0.0140923
723.066	0.0139843
723.144	0.0140767
723.222	0.0141866
723.300	0.0142500
723.378	0.0141732
723.456	0.0142096
723.534	0.0140904
723.612	0.0142818
723.691	0.0143689
723.769	0.0142327
723.847	0.0141541
723.925	0.0142403
724.003	0.0141557
724.081	0.0141668
724.159	0.0142358
724.237	0.0142494
724.316	0.0141947
724.394	0.0141864
724.472	0.0142204
724.550	0.0142892
724.628	0.0142641
724.706	0.0142545
724.784	0.0141801
724.862	0.0140959
724.941	0.0142432
725.019	0.0140977
725.097	0.0141296
725.175	0.0141772
725.253	0.0142437
725.331	0.0142541
725.409	0.0142906
725.487	0.0143089
725.566	0.0142233
725.644	0.0142908
725.722	0.0143861
725.800	0.0142744
725.878	0.0142036
725.956	0.0144154
726.034	0.0143374
726.112	0.0142890
726.191	0.0142385
726.269	0.0142337
726.347	0.0141705
726.425	0.0142126
726.503	0.0142340
726.581	0.0142814
726.659	0.0141580
726.737	0.0140714
726.816	0.0142574
726.894	0.0142014
726.972	0.0142065
727.050	0.0141035
727.128	0.0140074
727.206	0.0139488
727.284	0.0139674
727.362	0.0140445
727.441	0.0139495
727.519	0.0138786
727.597	0.0139444
727.675	0.0140849
727.753	0.0140580
727.831	0.0139857
727.909	0.0139401
727.987	0.0140498
728.066	0.0140857
728.144	0.0142367
728.222	0.0141461
728.300	0.0141262
728.378	0.0141625
728.456	0.0141999
728.534	0.0144073
728.612	0.0142335
728.691	0.0142351
728.769	0.0142574
728.847	0.0142696
728.925	0.0141550
729.003	0.0142004
729.081	0.0143024
729.159	0.0142615
729.237	0.0142300
729.316	0.0142363
729.394	0.0143353
729.472	0.0141389
729.550	0.0140319
729.628	0.0140047
729.706	0.0142787
729.784	0.0140363
729.862	0.0140979
729.941	0.0142245
730.019	0.0140578
730.097	0.0141105
730.175	0.0141447
730.253	0.0142690
730.331	0.0142626
730.409	0.0142268
730.487	0.0142811
730.566	0.0142483
730.644	0.0143682
730.722	0.0143430
730.800	0.0143317
730.878	0.0142941
730.956	0.0142770
731.034	0.0141737
731.112	0.0141755
731.191	0.0143068
731.269	0.0142216
731.347	0.0141965
731.425	0.0141194
731.503	0.0140007
731.581	0.0139388
731.659	0.0141365
731.737	0.0141404
731.816	0.0140062
731.894	0.0140045
731.972	0.0139978
732.050	0.0140276
732.128	0.0140434
732.206	0.0139201
732.284	0.0141776
732.362	0.0140012
732.441	0.0140654
732.519	0.0139540
732.597	0.0141029
732.675	0.0140428
732.753	0.0141493
732.831	0.0140464
732.909	0.0138643
732.987	0.0140308
733.066	0.0138328
733.144	0.0139253
733.222	0.0139601
733.300	0.0137671
733.378	0.0138354
733.456	0.0138240
733.534	0.0137899
733.612	0.0139129
733.691	0.0139449
733.769	0.0138533
733.847	0.0138616
733.925	0.0139233
734.003	0.0139668
734.081	0.0142116
734.159	0.0140987
734.237	0.0143112
734.316	0.0142204
734.394	0.0141930
734.472	0.0144083
734.550	0.0142421
734.628	0.0143341
734.706	0.0143494
734.784	0.0144193
734.862	0.0143266
734.941	0.0142177
735.019	0.0142767
735.097	0.0143873
735.175	0.0143832
735.253	0.0143687
735.331	0.0142445
735.409	0.0142154
735.487	0.0142738
735.566	0.0140855
735.644	0.0140461
735.722	0.0143812
735.800	0.0142465
735.878	0.0142746
735.956	0.0141496
736.034	0.0143301
736.112	0.0142466
736.191	0.0141879
736.269	0.0142779
736.347	0.0143472
736.425	0.0143414
736.503	0.0143816
736.581	0.0144502
736.659	0.0144098
736.737	0.0144491
736.816	0.0144250
736.894	0.0143884
736.972	0.0143102
737.050	0.0143459
737.128	0.0142188
737.206	0.0142255
737.284	0.0143657
737.362	0.0143513
737.441	0.0142012
737.519	0.0140795
737.597	0.0140780
737.675	0.0140170
737.753	0.0141614
737.831	0.0141776
737.909	0.0140731
737.987	0.0140175
738.066	0.0141822
738.144	0.0140875
738.222	0.0141516
738.300	0.0142300
738.378	0.0141229
738.456	0.0140951
738.534	0.0142928
738.612	0.0140970
738.691	0.0141137
738.769	0.0141276
738.847	0.0140228
738.925	0.0141537
739.003	0.0141579
739.081	0.0142266
739.159	0.0141174
739.237	0.0141465
739.316	0.0141133
739.394	0.0140633
739.472	0.0142681
739.550	0.0141401
739.628	0.0141966
739.706	0.0141508
739.784	0.0141171
739.862	0.0141521
739.941	0.0139811
740.019	0.0141504
740.097	0.0142469
740.175	0.0142003
740.253	0.0142595
740.331	0.0141425
740.409	0.0142399
740.487	0.0142630
740.566	0.0142279
740.644	0.0142753
740.722	0.0142027
740.800	0.0142953
740.878	0.0142032
740.956	0.0143391
741.034	0.0143655
741.112	0.0143013
741.191	0.0142557
741.269	0.0143335
741.347	0.0143109
741.425	0.0142320
741.503	0.0141402
741.581	0.0143073
741.659	0.0141096
741.737	0.0141190
741.816	0.0141156
741.894	0.0141915
741.972	0.0140476
742.050	0.0139304
742.128	0.0140681
742.206	0.0139042
742.284	0.0140662
742.362	0.0140345
742.441	0.0139777
742.519	0.0139702
742.597	0.0141212
742.675	0.0140250
742.753	0.0141393
742.831	0.0140767
742.909	0.0141454
742.987	0.0140752
743.066	0.0141123
743.144	0.0141750
743.222	0.0142294
743.300	0.0140790
743.378	0.0141502
743.456	0.0141122
743.534	0.0141996
743.612	0.0142138
743.691	0.0141959
743.769	0.0140974
743.847	0.0142896
743.925	0.0141356
744.003	0.0141821
744.081	0.0142245
744.159	0.0141026
744.237	0.0141898
744.316	0.0142088
744.394	0.0143265
744.472	0.0141713
744.550	0.0139913
744.628	0.0140811
744.706	0.0142535
744.784	0.0141763
744.862	0.0142244
744.941	0.0142184
745.019	0.0141363
745.097	0.0142344
745.175	0.0142940
745.253	0.0141465
745.331	0.0142493
745.409	0.0142006
745.487	0.0142587
745.566	0.0141045
745.644	0.0141499
745.722	0.0140917
745.800	0.0141129
745.878	0.0141194
745.956	0.0141985
746.034	0.0141540
746.112	0.0140372
746.191	0.0141044
746.269	0.0141760
746.347	0.0142055
746.425	0.0141485
746.503	0.0141513
746.581	0.0142429
746.659	0.0141949
746.737	0.0143327
746.816	0.0141990
746.894	0.0141122
746.972	0.0142712
747.050	0.0143349
747.128	0.0142659
747.206	0.0143357
747.284	0.0143125
747.362	0.0141522
747.441	0.0142369
747.519	0.0143645
747.597	0.0142822
747.675	0.0142101
747.753	0.0143409
747.831	0.0143449
747.909	0.0141425
747.987	0.0142451
748.066	0.0141385
748.144	0.0141495
748.222	0.0140663
748.300	0.0141513
748.378	0.0140944
748.456	0.0141168
748.534	0.0141141
748.612	0.0140235
748.691	0.0142288
748.769	0.0142473
748.847	0.0141582
748.925	0.0142020
749.003	0.0143163
749.081	0.0144580
749.159	0.0142953
749.237	0.0143185
749.316	0.0142950
749.394	0.0144215
749.472	0.0143169
749.550	0.0142230
749.628	0.0142861
749.706	0.0143510
749.784	0.0142907
749.862	0.0143333
749.941	0.0143543
750.019	0.0141205
750.097	0.0141224
750.175	0.0141309
750.253	0.0143159
750.331	0.0141615
750.409	0.0140352
750.487	0.0140729
750.566	0.0140385
750.644	0.0140815
750.722	0.0141296
750.800	0.0140891
750.878	0.0140790
750.956	0.0141993
751.034	0.0141989
751.112	0.0143201
751.191	0.0143896
751.269	0.0142226
751.347	0.0141786
751.425	0.0141750
751.503	0.0141924
751.581	0.0142876
751.659	0.0141718
751.737	0.0143206
751.816	0.0141817
751.894	0.0141460
751.972	0.0141663
752.050	0.0140408
752.128	0.0141430
752.206	0.0141634
752.284	0.0140952
752.362	0.0142325
752.441	0.0140510
752.519	0.0140337
752.597	0.0141236
752.675	0.0142094
752.753	0.0140648
752.831	0.0141412
752.909	0.0141528
752.987	0.0140574
753.066	0.0141817
753.144	0.0141792
753.222	0.0143151
753.300	0.0143829
753.378	0.0143056
753.456	0.0143640
753.534	0.0141832
753.612	0.0143186
753.691	0.0142471
753.769	0.0143616
753.847	0.0143484
753.925	0.0143203
754.003	0.0141978
754.081	0.0142383
754.159	0.0141157
754.237	0.0142492
754.316	0.0142255
754.394	0.0142125
754.472	0.0141651
754.550	0.0141801
754.628	0.0142011
754.706	0.0142131
754.784	0.0141444
754.862	0.0142175
754.941	0.0142973
755.019	0.0141362
755.097	0.0140536
755.175	0.0142713
755.253	0.0142896
755.331	0.0141618
755.409	0.0140273
755.487	0.0139830
755.566	0.0141483
755.644	0.0141984
755.722	0.0141459
755.800	0.0141613
755.878	0.0141371
755.956	0.0141922
756.034	0.0142152
756.112	0.0140941
756.191	0.0141914
756.269	0.0140079
756.347	0.0139890
756.425	0.0142110
756.503	0.0142341
756.581	0.0141246
756.659	0.0140840
756.737	0.0142422
756.816	0.0142058
756.894	0.0142284
756.972	0.0142475
757.050	0.0142350
757.128	0.0142224
757.206	0.0142867
757.284	0.0143931
757.362	0.0141654
757.441	0.0142962
757.519	0.0142003
757.597	0.0142923
757.675	0.0141481
757.753	0.0141817
757.831	0.0142284
757.909	0.0142792
757.987	0.0142950
758.066	0.0143221
758.144	0.0141382
758.222	0.0142072
758.300	0.0141683
758.378	0.0142059
758.456	0.0141694
758.534	0.0142240
758.612	0.0141301
758.691	0.0142572
758.769	0.0142385
758.847	0.0142239
758.925	0.0142491
759.003	0.0143798
759.081	0.0142319
759.159	0.0143218
759.237	0.0142484
759.316	0.0142346
759.394	0.0142839
759.472	0.0143407
759.550	0.0140637
759.628	0.0141461
759.706	0.0142321
759.784	0.0140537
759.862	0.0141543
759.941	0.0142154
760.019	0.0140604
760.097	0.0140522
760.175	0.0140036
760.253	0.0140594
760.331	0.0141374
760.409	0.0141115
760.487	0.0139928
760.566	0.0140007
760.644	0.0141656
760.722	0.0141532
760.800	0.0143681
760.878	0.0141488
760.956	0.0141819
761.034	0.0142724
761.112	0.0142794
761.191	0.0142055
761.269	0.0143525
761.347	0.0142919
761.425	0.0143365
761.503	0.0142316
761.581	0.0140921
761.659	0.0141483
761.737	0.0141462
761.816	0.0141177
761.894	0.0141578
761.972	0.0141591
762.050	0.0141748
762.128	0.0142656
762.206	0.0142799
762.284	0.0142590
762.362	0.0141071
762.441	0.0140482
762.519	0.0142031
762.597	0.0141947
762.675	0.0144189
762.753	0.0141009
762.831	0.0142422
762.909	0.0142262
762.987	0.0142821
763.066	0.0142121
763.144	0.0141558
763.222	0.0141824
763.300	0.0142004
763.378	0.0142613
763.456	0.0142607
763.534	0.0142135
763.612	0.0142601
763.691	0.0143417
763.769	0.0142924
763.847	0.0141961
763.925	0.0143011
764.003	0.0142023
764.081	0.0141448
764.159	0.0142747
764.237	0.0142994
764.316	0.0142603
764.394	0.0141963
764.472	0.0142628
764.550	0.0142264
764.628	0.0142440
764.706	0.0142732
