05/04/2022	21:08:57	Ver.	4.1	UNKNOWN
Optical Delay	678.996401	Delta X		0.078125	Sweeps	1	Scan Rate	0/0
Coordinates	Axis 1	NaN	Axis 2	NaN	Axis 3	NaN	Axis 4	NaN	Axis 5	NaN	Axis 6	0.000000
TX Power	0.000000	RX Power	0.000000

678.996	0.0145653
679.075	0.0145999
679.153	0.0145808
679.231	0.0145946
679.309	0.0144672
679.387	0.0145115
679.465	0.0146082
679.543	0.0146093
679.621	0.0145925
679.700	0.0145244
679.778	0.0144725
679.856	0.0146558
679.934	0.0145863
680.012	0.0145201
680.090	0.0145667
680.168	0.0146800
680.246	0.0144664
680.325	0.0145634
680.403	0.0145582
680.481	0.0146231
680.559	0.0144658
680.637	0.0145371
680.715	0.0145201
680.793	0.0144383
680.871	0.0145333
680.950	0.0145398
681.028	0.0146308
681.106	0.0144625
681.184	0.0145837
681.262	0.0145268
681.340	0.0145911
681.418	0.0145120
681.496	0.0146075
681.575	0.0146731
681.653	0.0146406
681.731	0.0145540
681.809	0.0146034
681.887	0.0144756
681.965	0.0145749
682.043	0.0145927
682.121	0.0145319
682.200	0.0144884
682.278	0.0144909
682.356	0.0146254
682.434	0.0145428
682.512	0.0145657
682.590	0.0146449
682.668	0.0146258
682.746	0.0145267
682.825	0.0145964
682.903	0.0146783
682.981	0.0144685
683.059	0.0145295
683.137	0.0145319
683.215	0.0145048
683.293	0.0145665
683.371	0.0145271
683.450	0.0145531
683.528	0.0145835
683.606	0.0145114
683.684	0.0145644
683.762	0.0145592
683.840	0.0145129
683.918	0.0145715
683.996	0.0146054
684.075	0.0145223
684.153	0.0143536
684.231	0.0145270
684.309	0.0145228
684.387	0.0144213
684.465	0.0146172
684.543	0.0146500
684.621	0.0146699
684.700	0.0145589
684.778	0.0145937
684.856	0.0146498
684.934	0.0147071
685.012	0.0146017
685.090	0.0145192
685.168	0.0145494
685.246	0.0145364
685.325	0.0145884
685.403	0.0146701
685.481	0.0147529
685.559	0.0146471
685.637	0.0143705
685.715	0.0144311
685.793	0.0146137
685.871	0.0145829
685.950	0.0145752
686.028	0.0145615
686.106	0.0145410
686.184	0.0145162
686.262	0.0144679
686.340	0.0145872
686.418	0.0145435
686.496	0.0145827
686.575	0.0144957
686.653	0.0145867
686.731	0.0146410
686.809	0.0145979
686.887	0.0145531
686.965	0.0145490
687.043	0.0144644
687.121	0.0144312
687.200	0.0145399
687.278	0.0144536
687.356	0.0145767
687.434	0.0145528
687.512	0.0146704
687.590	0.0146851
687.668	0.0146212
687.746	0.0144981
687.825	0.0145162
687.903	0.0146314
687.981	0.0146625
688.059	0.0146915
688.137	0.0145005
688.215	0.0145013
688.293	0.0145919
688.371	0.0146742
688.450	0.0146239
688.528	0.0145597
688.606	0.0145390
688.684	0.0144510
688.762	0.0144037
688.840	0.0145769
688.918	0.0144779
688.996	0.0146080
689.075	0.0145296
689.153	0.0145638
689.231	0.0144080
689.309	0.0145123
689.387	0.0144691
689.465	0.0144403
689.543	0.0144350
689.621	0.0144673
689.700	0.0144663
689.778	0.0143839
689.856	0.0144360
689.934	0.0144060
690.012	0.0144240
690.090	0.0144028
690.168	0.0143371
690.246	0.0145425
690.325	0.0144430
690.403	0.0145143
690.481	0.0144107
690.559	0.0145553
690.637	0.0145140
690.715	0.0144627
690.793	0.0143291
690.871	0.0146620
690.950	0.0146222
691.028	0.0144806
691.106	0.0145023
691.184	0.0145193
691.262	0.0144118
691.340	0.0143378
691.418	0.0144025
691.496	0.0144315
691.575	0.0144221
691.653	0.0144757
691.731	0.0145952
691.809	0.0144509
691.887	0.0145665
691.965	0.0144818
692.043	0.0144189
692.121	0.0145695
692.200	0.0146324
692.278	0.0144656
692.356	0.0145580
692.434	0.0148203
692.512	0.0146879
692.590	0.0146568
692.668	0.0146664
692.746	0.0146268
692.825	0.0146142
692.903	0.0148548
692.981	0.0146837
693.059	0.0148170
693.137	0.0146938
693.215	0.0145911
693.293	0.0146133
693.371	0.0145789
693.450	0.0146002
693.528	0.0145563
693.606	0.0143296
693.684	0.0145079
693.762	0.0144468
693.840	0.0142093
693.918	0.0143317
693.996	0.0144781
694.075	0.0144689
694.153	0.0143137
694.231	0.0144574
694.309	0.0143554
694.387	0.0144821
694.465	0.0145200
694.543	0.0145458
694.621	0.0145724
694.700	0.0144684
694.778	0.0145322
694.856	0.0145501
694.934	0.0145958
695.012	0.0147266
695.090	0.0146104
695.168	0.0146573
695.246	0.0145200
695.325	0.0145284
695.403	0.0146001
695.481	0.0145354
695.559	0.0144120
695.637	0.0145438
695.715	0.0145721
695.793	0.0145116
695.871	0.0145328
695.950	0.0145347
696.028	0.0145005
696.106	0.0146071
696.184	0.0145461
696.262	0.0142626
696.340	0.0143879
696.418	0.0145248
696.496	0.0142962
696.575	0.0144097
696.653	0.0144580
696.731	0.0145216
696.809	0.0145515
696.887	0.0144741
696.965	0.0146164
697.043	0.0146073
697.121	0.0145808
697.200	0.0146146
697.278	0.0144936
697.356	0.0145840
697.434	0.0146885
697.512	0.0145210
697.590	0.0145525
697.668	0.0145341
697.746	0.0145036
697.825	0.0146864
697.903	0.0145509
697.981	0.0146009
698.059	0.0146326
698.137	0.0146637
698.215	0.0146313
698.293	0.0147626
698.371	0.0146751
698.450	0.0147398
698.528	0.0147684
698.606	0.0147952
698.684	0.0147067
698.762	0.0147097
698.840	0.0146739
698.918	0.0146234
698.996	0.0146320
699.075	0.0146017
699.153	0.0144165
699.231	0.0143845
699.309	0.0144309
699.387	0.0144035
699.465	0.0144602
699.543	0.0143991
699.621	0.0144411
699.700	0.0144586
699.778	0.0145275
699.856	0.0145837
699.934	0.0145747
700.012	0.0147458
700.090	0.0147730
700.168	0.0146596
700.246	0.0144903
700.325	0.0146496
700.403	0.0145974
700.481	0.0146022
700.559	0.0145554
700.637	0.0145029
700.715	0.0144814
700.793	0.0145055
700.871	0.0145522
700.950	0.0146320
701.028	0.0145226
701.106	0.0143861
701.184	0.0145384
701.262	0.0143924
701.340	0.0143717
701.418	0.0142740
701.496	0.0144089
701.575	0.0144439
701.653	0.0143717
701.731	0.0144561
701.809	0.0145210
701.887	0.0145996
701.965	0.0145364
702.043	0.0146879
702.121	0.0144932
702.200	0.0146522
702.278	0.0144550
702.356	0.0146072
702.434	0.0145129
702.512	0.0146417
702.590	0.0146893
702.668	0.0147574
702.746	0.0148716
702.825	0.0148192
702.903	0.0147849
702.981	0.0147682
703.059	0.0147193
703.137	0.0145245
703.215	0.0144900
703.293	0.0144316
703.371	0.0144556
703.450	0.0144317
703.528	0.0144204
703.606	0.0145020
703.684	0.0146202
703.762	0.0145553
703.840	0.0146382
703.918	0.0148334
703.996	0.0147863
704.075	0.0146892
704.153	0.0146073
704.231	0.0146321
704.309	0.0146062
704.387	0.0145355
704.465	0.0144479
704.543	0.0145415
704.621	0.0146236
704.700	0.0145503
704.778	0.0144621
704.856	0.0144864
704.934	0.0144088
705.012	0.0144070
705.090	0.0143382
705.168	0.0141411
705.246	0.0141046
705.325	0.0142284
705.403	0.0141463
705.481	0.0143082
705.559	0.0144747
705.637	0.0145647
705.715	0.0147668
705.793	0.0147150
705.871	0.0150273
705.950	0.0151427
706.028	0.0150505
706.106	0.0150340
706.184	0.0148689
706.262	0.0147878
706.340	0.0146785
706.418	0.0146241
706.496	0.0146054
706.575	0.0145951
706.653	0.0147164
706.731	0.0148616
706.809	0.0148161
706.887	0.0148181
706.965	0.0150498
707.043	0.0149912
707.121	0.0148234
707.200	0.0148219
707.278	0.0146623
707.356	0.0145011
707.434	0.0143893
707.512	0.0141630
707.590	0.0140476
707.668	0.0138399
707.746	0.0136961
707.825	0.0138898
707.903	0.0138995
707.981	0.0139215
708.059	0.0137543
708.137	0.0138869
708.215	0.0139756
708.293	0.0140334
708.371	0.0141618
708.450	0.0143092
708.528	0.0146310
708.606	0.0149509
708.684	0.0153291
708.762	0.0153271
708.840	0.0157285
708.918	0.0159892
708.996	0.0160119
709.075	0.0157767
709.153	0.0156591
709.231	0.0153239
709.309	0.0150062
709.387	0.0147645
709.465	0.0145364
709.543	0.0143205
709.621	0.0142547
709.700	0.0141712
709.778	0.0144382
709.856	0.0145393
709.934	0.0146054
710.012	0.0147053
710.090	0.0147793
710.168	0.0148278
710.246	0.0148135
710.325	0.0146690
710.403	0.0144249
710.481	0.0143232
710.559	0.0142305
710.637	0.0138770
710.715	0.0137948
710.793	0.0136086
710.871	0.0135844
710.950	0.0135845
711.028	0.0135096
711.106	0.0134254
711.184	0.0136509
711.262	0.0139570
711.340	0.0139762
711.418	0.0144286
711.496	0.0148844
711.575	0.0151692
711.653	0.0154429
711.731	0.0156826
711.809	0.0158369
711.887	0.0159682
711.965	0.0159056
712.043	0.0160872
712.121	0.0158858
712.200	0.0155360
712.278	0.0151923
712.356	0.0149226
712.434	0.0147433
712.512	0.0144222
712.590	0.0141774
712.668	0.0141582
712.746	0.0140752
712.825	0.0143604
712.903	0.0143625
712.981	0.0142070
713.059	0.0143415
713.137	0.0143391
713.215	0.0142249
713.293	0.0143079
713.371	0.0143572
713.450	0.0143938
713.528	0.0142864
713.606	0.0140860
713.684	0.0140717
713.762	0.0138892
713.840	0.0137704
713.918	0.0137665
713.996	0.0136939
714.075	0.0136196
714.153	0.0138150
714.231	0.0138605
714.309	0.0140466
714.387	0.0143135
714.465	0.0145696
714.543	0.0147593
714.621	0.0151240
714.700	0.0153059
714.778	0.0156316
714.856	0.0157239
714.934	0.0157511
715.012	0.0157088
715.090	0.0154996
715.168	0.0153716
715.246	0.0149339
715.325	0.0145481
715.403	0.0143887
715.481	0.0142236
715.559	0.0141750
715.637	0.0141100
715.715	0.0142645
715.793	0.0143188
715.871	0.0143568
715.950	0.0147234
716.028	0.0149045
716.106	0.0149387
716.184	0.0149364
716.262	0.0147039
716.340	0.0148293
716.418	0.0145805
716.496	0.0144589
716.575	0.0143393
716.653	0.0140716
716.731	0.0139600
716.809	0.0138774
716.887	0.0138071
716.965	0.0137077
717.043	0.0135705
717.121	0.0136349
717.200	0.0136180
717.278	0.0137295
717.356	0.0139633
717.434	0.0142089
717.512	0.0144015
717.590	0.0145793
717.668	0.0149784
717.746	0.0151591
717.825	0.0153220
717.903	0.0152451
717.981	0.0151884
718.059	0.0151285
718.137	0.0148933
718.215	0.0148711
718.293	0.0147401
718.371	0.0144798
718.450	0.0144043
718.528	0.0143692
718.606	0.0143660
718.684	0.0143700
718.762	0.0145181
718.840	0.0146906
718.918	0.0148055
718.996	0.0149559
719.075	0.0149358
719.153	0.0149220
719.231	0.0151405
719.309	0.0150774
719.387	0.0149754
719.465	0.0149552
719.543	0.0146536
719.621	0.0144572
719.700	0.0144244
719.778	0.0141021
719.856	0.0139508
719.934	0.0137349
720.012	0.0137962
720.090	0.0138249
720.168	0.0139253
720.246	0.0137674
720.325	0.0138226
720.403	0.0142030
720.481	0.0143420
720.559	0.0145357
720.637	0.0146553
720.715	0.0146884
720.793	0.0149547
720.871	0.0149578
720.950	0.0150432
721.028	0.0149706
721.106	0.0149091
721.184	0.0146603
721.262	0.0146949
721.340	0.0145257
721.418	0.0143755
721.496	0.0141693
721.575	0.0140747
721.653	0.0140917
721.731	0.0140529
721.809	0.0139447
721.887	0.0141138
721.965	0.0142655
722.043	0.0142920
722.121	0.0143996
722.200	0.0146283
722.278	0.0146783
722.356	0.0149460
722.434	0.0149645
722.512	0.0150244
722.590	0.0151352
722.668	0.0150872
722.746	0.0149877
722.825	0.0149821
722.903	0.0149920
722.981	0.0147625
723.059	0.0146906
723.137	0.0145160
723.215	0.0145052
723.293	0.0145526
723.371	0.0144900
723.450	0.0145596
723.528	0.0145371
723.606	0.0145274
723.684	0.0146690
723.762	0.0148429
723.840	0.0149020
723.918	0.0148386
723.996	0.0149894
724.075	0.0147832
724.153	0.0147833
724.231	0.0146682
724.309	0.0145429
724.387	0.0142852
724.465	0.0142212
724.543	0.0140002
724.621	0.0138077
724.700	0.0137245
724.778	0.0135722
724.856	0.0136327
724.934	0.0133869
725.012	0.0136430
725.090	0.0136857
725.168	0.0135779
725.246	0.0140529
725.325	0.0141805
725.403	0.0144997
725.481	0.0146999
725.559	0.0147781
725.637	0.0150743
725.715	0.0152566
725.793	0.0154225
725.871	0.0154811
725.950	0.0153905
726.028	0.0152789
726.106	0.0152302
726.184	0.0151706
726.262	0.0150171
726.340	0.0148270
726.418	0.0147230
726.496	0.0146663
726.575	0.0146116
726.653	0.0147960
726.731	0.0147404
726.809	0.0147055
726.887	0.0146738
726.965	0.0147543
727.043	0.0146554
727.121	0.0146892
727.200	0.0148038
727.278	0.0145393
727.356	0.0145118
727.434	0.0146303
727.512	0.0145016
727.590	0.0143589
727.668	0.0141962
727.746	0.0142227
727.825	0.0141138
727.903	0.0140221
727.981	0.0139720
728.059	0.0139037
728.137	0.0141298
728.215	0.0140759
728.293	0.0140060
728.371	0.0142014
728.450	0.0141575
728.528	0.0142127
728.606	0.0144411
728.684	0.0143916
728.762	0.0144046
728.840	0.0145956
728.918	0.0145877
728.996	0.0145761
729.075	0.0148052
729.153	0.0148269
729.231	0.0149051
729.309	0.0147633
729.387	0.0149673
729.465	0.0150885
729.543	0.0149886
729.621	0.0148794
729.700	0.0149966
729.778	0.0149631
729.856	0.0148224
729.934	0.0147672
730.012	0.0145473
730.090	0.0146885
730.168	0.0148710
730.246	0.0148378
730.325	0.0145879
730.403	0.0147411
730.481	0.0148777
730.559	0.0146544
730.637	0.0146864
730.715	0.0149019
730.793	0.0146521
730.871	0.0147314
730.950	0.0146690
731.028	0.0145496
731.106	0.0144347
731.184	0.0144867
731.262	0.0142419
731.340	0.0142467
731.418	0.0140926
731.496	0.0140441
731.575	0.0141260
731.653	0.0141084
731.731	0.0140631
731.809	0.0139505
731.887	0.0141149
731.965	0.0143510
732.043	0.0143845
732.121	0.0144347
732.200	0.0145699
732.278	0.0145019
732.356	0.0146004
732.434	0.0148682
732.512	0.0149068
732.590	0.0149597
732.668	0.0149943
732.746	0.0149787
732.825	0.0147282
732.903	0.0147234
732.981	0.0147896
733.059	0.0147258
733.137	0.0146574
733.215	0.0144878
733.293	0.0144860
733.371	0.0144957
733.450	0.0143917
733.528	0.0145301
733.606	0.0146108
733.684	0.0147007
733.762	0.0145750
733.840	0.0146191
733.918	0.0146074
733.996	0.0145232
734.075	0.0146059
734.153	0.0146546
734.231	0.0146611
734.309	0.0144485
734.387	0.0145222
734.465	0.0144103
734.543	0.0143800
734.621	0.0145522
734.700	0.0144291
734.778	0.0144800
734.856	0.0142664
734.934	0.0142886
735.012	0.0144290
735.090	0.0144991
735.168	0.0143784
735.246	0.0146080
735.325	0.0146061
735.403	0.0146999
735.481	0.0147381
735.559	0.0147697
735.637	0.0148133
735.715	0.0147797
735.793	0.0149415
735.871	0.0148876
735.950	0.0147234
736.028	0.0145863
736.106	0.0146572
736.184	0.0145895
736.262	0.0144691
736.340	0.0145452
736.418	0.0144646
736.496	0.0144476
736.575	0.0143460
736.653	0.0143503
736.731	0.0141819
736.809	0.0143503
736.887	0.0143556
736.965	0.0143908
737.043	0.0143298
737.121	0.0143659
737.200	0.0144275
737.278	0.0144213
737.356	0.0143140
737.434	0.0144470
737.512	0.0145482
737.590	0.0144601
737.668	0.0145186
737.746	0.0144672
737.825	0.0145254
737.903	0.0145383
737.981	0.0145650
738.059	0.0146650
738.137	0.0146189
738.215	0.0146960
738.293	0.0147034
738.371	0.0147858
738.450	0.0146500
738.528	0.0148390
738.606	0.0146744
738.684	0.0146471
738.762	0.0147037
738.840	0.0146793
738.918	0.0146929
738.996	0.0146616
739.075	0.0147755
739.153	0.0146220
739.231	0.0144856
739.309	0.0144171
739.387	0.0144765
739.465	0.0144064
739.543	0.0144710
739.621	0.0144844
739.700	0.0144238
739.778	0.0143277
739.856	0.0144671
739.934	0.0144575
740.012	0.0144881
740.090	0.0143851
740.168	0.0142662
740.246	0.0145092
740.325	0.0142882
740.403	0.0142651
740.481	0.0144025
740.559	0.0143361
740.637	0.0144057
740.715	0.0143107
740.793	0.0142656
740.871	0.0143295
740.950	0.0144245
741.028	0.0144190
741.106	0.0145175
741.184	0.0145608
741.262	0.0145763
741.340	0.0147320
741.418	0.0145206
741.496	0.0144568
741.575	0.0145987
741.653	0.0146603
741.731	0.0147395
741.809	0.0146912
741.887	0.0146742
741.965	0.0147322
742.043	0.0147018
742.121	0.0147877
742.200	0.0148119
742.278	0.0148520
742.356	0.0148068
742.434	0.0147202
742.512	0.0147562
742.590	0.0146217
742.668	0.0146841
742.746	0.0146973
742.825	0.0145264
742.903	0.0146337
742.981	0.0145319
743.059	0.0147144
743.137	0.0146116
743.215	0.0147213
743.293	0.0144176
743.371	0.0144650
743.450	0.0145286
743.528	0.0145836
743.606	0.0144336
743.684	0.0143465
743.762	0.0142484
743.840	0.0142958
743.918	0.0143051
743.996	0.0141826
744.075	0.0142308
744.153	0.0143296
744.231	0.0143108
744.309	0.0143830
744.387	0.0143720
744.465	0.0144817
744.543	0.0145393
744.621	0.0146155
744.700	0.0144791
744.778	0.0144957
744.856	0.0145530
744.934	0.0145590
745.012	0.0145767
745.090	0.0145779
745.168	0.0147128
745.246	0.0146398
745.325	0.0145541
745.403	0.0146406
745.481	0.0147034
745.559	0.0146471
745.637	0.0146994
745.715	0.0147190
745.793	0.0146305
745.871	0.0148078
745.950	0.0147508
746.028	0.0147778
746.106	0.0147209
746.184	0.0147018
746.262	0.0146142
746.340	0.0144570
746.418	0.0145891
746.496	0.0144513
746.575	0.0144499
746.653	0.0143538
746.731	0.0143847
746.809	0.0143924
746.887	0.0143675
746.965	0.0144202
747.043	0.0144906
747.121	0.0142987
747.200	0.0145148
747.278	0.0145144
747.356	0.0145285
747.434	0.0145706
747.512	0.0144888
747.590	0.0145290
747.668	0.0146152
747.746	0.0146428
747.825	0.0145816
747.903	0.0146925
747.981	0.0148627
748.059	0.0146082
748.137	0.0145666
748.215	0.0145565
748.293	0.0147258
748.371	0.0145132
748.450	0.0145417
748.528	0.0148542
748.606	0.0147739
748.684	0.0146613
748.762	0.0144651
748.840	0.0148348
748.918	0.0146214
748.996	0.0146687
749.075	0.0146215
749.153	0.0146004
749.231	0.0145583
749.309	0.0145506
749.387	0.0144529
749.465	0.0143801
749.543	0.0144957
749.621	0.0145334
749.700	0.0145620
749.778	0.0145534
749.856	0.0145701
749.934	0.0145281
750.012	0.0144048
750.090	0.0144470
750.168	0.0145705
750.246	0.0144172
750.325	0.0144014
750.403	0.0144160
750.481	0.0143849
750.559	0.0143221
750.637	0.0143077
750.715	0.0144277
750.793	0.0144253
750.871	0.0143668
750.950	0.0143221
751.028	0.0145309
751.106	0.0144959
751.184	0.0145099
751.262	0.0146407
751.340	0.0145943
751.418	0.0146632
751.496	0.0146933
751.575	0.0146964
751.653	0.0147358
751.731	0.0147572
751.809	0.0146691
751.887	0.0147207
751.965	0.0146505
752.043	0.0147706
752.121	0.0147933
752.200	0.0148003
752.278	0.0146935
752.356	0.0147518
752.434	0.0146160
752.512	0.0145914
752.590	0.0146182
752.668	0.0146486
752.746	0.0145219
752.825	0.0146519
752.903	0.0144142
752.981	0.0144495
753.059	0.0144400
753.137	0.0142716
753.215	0.0144306
753.293	0.0144237
753.371	0.0142992
753.450	0.0143736
753.528	0.0144028
753.606	0.0143370
753.684	0.0143985
753.762	0.0143227
753.840	0.0142509
753.918	0.0143628
753.996	0.0143468
754.075	0.0143095
754.153	0.0143335
754.231	0.0144120
754.309	0.0145196
754.387	0.0143990
754.465	0.0145314
754.543	0.0144904
754.621	0.0144766
754.700	0.0144636
754.778	0.0145127
754.856	0.0146000
754.934	0.0147509
755.012	0.0146442
755.090	0.0146838
755.168	0.0146998
755.246	0.0147584
755.325	0.0146341
755.403	0.0146499
755.481	0.0147957
755.559	0.0149347
755.637	0.0146925
755.715	0.0147241
755.793	0.0148644
755.871	0.0146399
755.950	0.0146079
756.028	0.0144523
756.106	0.0145943
756.184	0.0146217
756.262	0.0143768
756.340	0.0145454
756.418	0.0143597
756.496	0.0144541
756.575	0.0145860
756.653	0.0144625
756.731	0.0144871
756.809	0.0143812
756.887	0.0143736
756.965	0.0145901
757.043	0.0143801
757.121	0.0143861
757.200	0.0144179
757.278	0.0144789
757.356	0.0143433
757.434	0.0143855
757.512	0.0144128
757.590	0.0144774
757.668	0.0145856
757.746	0.0144993
757.825	0.0144476
757.903	0.0144999
757.981	0.0145431
758.059	0.0145794
758.137	0.0146181
758.215	0.0146110
758.293	0.0145209
758.371	0.0146124
758.450	0.0144633
758.528	0.0145155
758.606	0.0146924
758.684	0.0147763
758.762	0.0145945
758.840	0.0147022
758.918	0.0146427
758.996	0.0146551
759.075	0.0147815
759.153	0.0148091
759.231	0.0147483
759.309	0.0146748
759.387	0.0146342
759.465	0.0146122
759.543	0.0147758
759.621	0.0145366
759.700	0.0146858
759.778	0.0146084
759.856	0.0145055
759.934	0.0147408
760.012	0.0146708
760.090	0.0145638
760.168	0.0144030
760.246	0.0144569
760.325	0.0143826
760.403	0.0144247
760.481	0.0144495
760.559	0.0143227
760.637	0.0142987
760.715	0.0143884
760.793	0.0143232
760.871	0.0144189
760.950	0.0144350
761.028	0.0143800
761.106	0.0143826
761.184	0.0144169
761.262	0.0143871
761.340	0.0145207
761.418	0.0144883
761.496	0.0144880
761.575	0.0143555
761.653	0.0146081
761.731	0.0146983
761.809	0.0146473
761.887	0.0144757
761.965	0.0145768
762.043	0.0147680
762.121	0.0146203
762.200	0.0146696
762.278	0.0147312
762.356	0.0146687
762.434	0.0146019
762.512	0.0145928
762.590	0.0147553
762.668	0.0145870
762.746	0.0146828
762.825	0.0146268
762.903	0.0147226
762.981	0.0146306
763.059	0.0146113
763.137	0.0146374
763.215	0.0146238
763.293	0.0145646
763.371	0.0145892
763.450	0.0145169
763.528	0.0144087
763.606	0.0143890
763.684	0.0144735
763.762	0.0144430
763.840	0.0143369
763.918	0.0145367
763.996	0.0143909
764.075	0.0144418
764.153	0.0143319
764.231	0.0145766
764.309	0.0143198
764.387	0.0143804
764.465	0.0142963
764.543	0.0144379
764.621	0.0145355
764.700	0.0145457
