05/04/2022	21:09:22	Ver.	4.1	UNKNOWN
Optical Delay	678.996401	Delta X		0.078125	Sweeps	1	Scan Rate	0/0
Coordinates	Axis 1	NaN	Axis 2	NaN	Axis 3	NaN	Axis 4	NaN	Axis 5	NaN	Axis 6	0.000000
TX Power	0.000000	RX Power	0.000000

678.996	0.0143029
679.075	0.0141016
679.153	0.0142481
679.231	0.0143474
679.309	0.0142262
679.387	0.0144196
679.465	0.0143793
679.543	0.0143492
679.621	0.0143702
679.700	0.0143126
679.778	0.0141798
679.856	0.0143534
679.934	0.0143319
680.012	0.0143027
680.090	0.0142379
680.168	0.0143066
680.246	0.0142673
680.325	0.0142419
680.403	0.0142946
680.481	0.0143430
680.559	0.0142851
680.637	0.0142483
680.715	0.0143840
680.793	0.0143613
680.871	0.0142278
680.950	0.0142326
681.028	0.0142741
681.106	0.0143270
681.184	0.0143256
681.262	0.0142473
681.340	0.0143736
681.418	0.0143233
681.496	0.0143650
681.575	0.0141711
681.653	0.0142082
681.731	0.0141672
681.809	0.0142229
681.887	0.0142631
681.965	0.0144466
682.043	0.0143532
682.121	0.0142968
682.200	0.0142685
682.278	0.0142136
682.356	0.0142828
682.434	0.0143230
682.512	0.0142753
682.590	0.0141770
682.668	0.0143325
682.746	0.0143082
682.825	0.0142158
682.903	0.0141026
682.981	0.0141086
683.059	0.0142558
683.137	0.0143537
683.215	0.0142632
683.293	0.0143496
683.371	0.0144390
683.450	0.0142528
683.528	0.0142093
683.606	0.0144196
683.684	0.0142436
683.762	0.0142079
683.840	0.0142501
683.918	0.0142381
683.996	0.0143195
684.075	0.0143597
684.153	0.0144205
684.231	0.0143093
684.309	0.0143063
684.387	0.0143104
684.465	0.0143659
684.543	0.0142265
684.621	0.0143877
684.700	0.0143652
684.778	0.0143537
684.856	0.0142535
684.934	0.0144046
685.012	0.0143380
685.090	0.0143067
685.168	0.0143662
685.246	0.0142146
685.325	0.0142604
685.403	0.0143584
685.481	0.0143985
685.559	0.0142403
685.637	0.0144005
685.715	0.0142464
685.793	0.0140423
685.871	0.0143957
685.950	0.0142935
686.028	0.0144299
686.106	0.0143968
686.184	0.0143857
686.262	0.0142566
686.340	0.0142936
686.418	0.0143916
686.496	0.0142794
686.575	0.0143711
686.653	0.0143767
686.731	0.0145412
686.809	0.0144620
686.887	0.0144857
686.965	0.0143723
687.043	0.0142696
687.121	0.0144447
687.200	0.0144275
687.278	0.0143594
687.356	0.0143931
687.434	0.0143616
687.512	0.0142666
687.590	0.0142833
687.668	0.0143105
687.746	0.0143011
687.825	0.0141871
687.903	0.0142764
687.981	0.0142537
688.059	0.0141525
688.137	0.0142848
688.215	0.0140800
688.293	0.0142271
688.371	0.0141484
688.450	0.0141334
688.528	0.0140594
688.606	0.0142167
688.684	0.0141580
688.762	0.0140985
688.840	0.0141528
688.918	0.0141846
688.996	0.0141003
689.075	0.0140784
689.153	0.0142799
689.231	0.0142458
689.309	0.0143760
689.387	0.0144054
689.465	0.0142639
689.543	0.0142440
689.621	0.0142805
689.700	0.0143740
689.778	0.0144774
689.856	0.0144906
689.934	0.0143306
690.012	0.0143871
690.090	0.0143346
690.168	0.0143130
690.246	0.0143040
690.325	0.0145288
690.403	0.0142847
690.481	0.0142970
690.559	0.0143112
690.637	0.0142296
690.715	0.0142930
690.793	0.0143050
690.871	0.0142442
690.950	0.0142071
691.028	0.0142018
691.106	0.0141730
691.184	0.0143240
691.262	0.0143621
691.340	0.0142339
691.418	0.0143205
691.496	0.0143785
691.575	0.0143868
691.653	0.0142560
691.731	0.0144067
691.809	0.0145794
691.887	0.0143597
691.965	0.0142531
692.043	0.0145214
692.121	0.0143467
692.200	0.0143229
692.278	0.0143882
692.356	0.0143642
692.434	0.0143301
692.512	0.0143890
692.590	0.0142206
692.668	0.0142469
692.746	0.0142691
692.825	0.0141047
692.903	0.0141757
692.981	0.0142481
693.059	0.0141290
693.137	0.0141135
693.215	0.0140754
693.293	0.0141447
693.371	0.0139748
693.450	0.0142175
693.528	0.0142015
693.606	0.0140533
693.684	0.0141158
693.762	0.0142731
693.840	0.0142162
693.918	0.0142484
693.996	0.0142162
694.075	0.0143123
694.153	0.0143787
694.231	0.0142925
694.309	0.0144330
694.387	0.0144350
694.465	0.0142855
694.543	0.0143821
694.621	0.0143620
694.700	0.0142986
694.778	0.0143071
694.856	0.0144921
694.934	0.0144437
695.012	0.0144008
695.090	0.0141339
695.168	0.0141802
695.246	0.0143605
695.325	0.0143657
695.403	0.0141882
695.481	0.0142991
695.559	0.0141671
695.637	0.0141789
695.715	0.0142258
695.793	0.0142468
695.871	0.0142785
695.950	0.0143497
696.028	0.0143011
696.106	0.0144229
696.184	0.0143479
696.262	0.0144289
696.340	0.0143235
696.418	0.0142795
696.496	0.0142793
696.575	0.0141663
696.653	0.0142836
696.731	0.0144492
696.809	0.0142587
696.887	0.0143835
696.965	0.0144269
697.043	0.0143108
697.121	0.0144371
697.200	0.0144910
697.278	0.0143132
697.356	0.0142753
697.434	0.0144528
697.512	0.0145606
697.590	0.0144437
697.668	0.0145703
697.746	0.0144935
697.825	0.0144749
697.903	0.0142722
697.981	0.0142237
698.059	0.0143486
698.137	0.0142082
698.215	0.0143156
698.293	0.0141320
698.371	0.0141441
698.450	0.0141759
698.528	0.0141463
698.606	0.0140636
698.684	0.0140496
698.762	0.0141245
698.840	0.0142770
698.918	0.0139494
698.996	0.0142303
699.075	0.0142551
699.153	0.0143046
699.231	0.0142583
699.309	0.0143037
699.387	0.0144163
699.465	0.0143708
699.543	0.0144682
699.621	0.0144718
699.700	0.0144512
699.778	0.0144684
699.856	0.0144382
699.934	0.0142852
700.012	0.0143664
700.090	0.0144143
700.168	0.0143085
700.246	0.0143505
700.325	0.0142339
700.403	0.0141830
700.481	0.0140015
700.559	0.0143097
700.637	0.0143299
700.715	0.0141824
700.793	0.0141642
700.871	0.0142770
700.950	0.0141827
701.028	0.0140501
701.106	0.0140873
701.184	0.0140564
701.262	0.0142599
701.340	0.0141493
701.418	0.0141255
701.496	0.0142896
701.575	0.0143954
701.653	0.0144072
701.731	0.0145869
701.809	0.0146796
701.887	0.0145488
701.965	0.0144375
702.043	0.0145253
702.121	0.0143462
702.200	0.0142937
702.278	0.0142320
702.356	0.0143031
702.434	0.0143452
702.512	0.0144011
702.590	0.0144591
702.668	0.0145747
702.746	0.0143198
702.825	0.0143447
702.903	0.0142686
702.981	0.0142032
703.059	0.0140464
703.137	0.0140430
703.215	0.0139833
703.293	0.0139843
703.371	0.0141591
703.450	0.0143005
703.528	0.0144340
703.606	0.0144068
703.684	0.0146033
703.762	0.0146355
703.840	0.0147102
703.918	0.0145428
703.996	0.0145073
704.075	0.0143889
704.153	0.0144378
704.231	0.0142901
704.309	0.0141636
704.387	0.0139963
704.465	0.0140412
704.543	0.0138688
704.621	0.0139267
704.700	0.0140763
704.778	0.0141669
704.856	0.0141273
704.934	0.0141970
705.012	0.0140810
705.090	0.0140031
705.168	0.0141348
705.246	0.0141485
705.325	0.0141707
705.403	0.0141187
705.481	0.0142757
705.559	0.0144753
705.637	0.0145161
705.715	0.0146598
705.793	0.0148883
705.871	0.0147823
705.950	0.0147411
706.028	0.0147485
706.106	0.0145219
706.184	0.0144666
706.262	0.0144273
706.340	0.0143982
706.418	0.0144083
706.496	0.0144612
706.575	0.0146205
706.653	0.0145818
706.731	0.0146819
706.809	0.0147613
706.887	0.0146364
706.965	0.0145186
707.043	0.0144878
707.121	0.0141850
707.200	0.0138532
707.278	0.0136582
707.356	0.0136546
707.434	0.0133548
707.512	0.0133968
707.590	0.0132431
707.668	0.0133881
707.746	0.0136121
707.825	0.0138696
707.903	0.0140780
707.981	0.0142680
708.059	0.0143632
708.137	0.0144228
708.215	0.0144466
708.293	0.0146536
708.371	0.0145406
708.450	0.0146205
708.528	0.0146446
708.606	0.0147710
708.684	0.0149661
708.762	0.0149997
708.840	0.0150356
708.918	0.0152236
708.996	0.0150969
709.075	0.0149969
709.153	0.0147926
709.231	0.0145485
709.309	0.0144913
709.387	0.0144334
709.465	0.0143478
709.543	0.0143444
709.621	0.0143173
709.700	0.0144759
709.778	0.0144995
709.856	0.0143881
709.934	0.0143823
710.012	0.0142198
710.090	0.0141140
710.168	0.0137494
710.246	0.0137305
710.325	0.0135478
710.403	0.0135419
710.481	0.0134185
710.559	0.0134083
710.637	0.0134840
710.715	0.0135863
710.793	0.0138026
710.871	0.0139749
710.950	0.0140517
711.028	0.0142334
711.106	0.0143423
711.184	0.0146153
711.262	0.0145490
711.340	0.0147827
711.418	0.0147480
711.496	0.0147927
711.575	0.0147807
711.653	0.0148128
711.731	0.0149055
711.809	0.0150835
711.887	0.0151373
711.965	0.0149940
712.043	0.0149438
712.121	0.0149985
712.200	0.0148654
712.278	0.0146751
712.356	0.0146795
712.434	0.0148067
712.512	0.0146792
712.590	0.0145827
712.668	0.0145821
712.746	0.0144397
712.825	0.0144910
712.903	0.0141324
712.981	0.0137048
713.059	0.0137701
713.137	0.0136060
713.215	0.0134308
713.293	0.0133599
713.371	0.0134055
713.450	0.0133800
713.528	0.0136045
713.606	0.0137138
713.684	0.0137434
713.762	0.0138747
713.840	0.0140976
713.918	0.0141045
713.996	0.0141428
714.075	0.0143026
714.153	0.0144199
714.231	0.0144360
714.309	0.0145251
714.387	0.0145831
714.465	0.0147002
714.543	0.0146784
714.621	0.0146087
714.700	0.0146340
714.778	0.0145773
714.856	0.0146033
714.934	0.0146548
715.012	0.0147013
715.090	0.0147240
715.168	0.0146275
715.246	0.0145538
715.325	0.0144789
715.403	0.0144886
715.481	0.0146459
715.559	0.0144697
715.637	0.0146426
715.715	0.0146866
715.793	0.0148063
715.871	0.0147161
715.950	0.0147436
716.028	0.0145029
716.106	0.0142740
716.184	0.0142637
716.262	0.0140018
716.340	0.0136577
716.418	0.0135645
716.496	0.0133424
716.575	0.0134736
716.653	0.0135261
716.731	0.0133434
716.809	0.0133459
716.887	0.0134514
716.965	0.0135196
717.043	0.0137383
717.121	0.0138541
717.200	0.0142294
717.278	0.0143879
717.356	0.0145257
717.434	0.0146439
717.512	0.0148032
717.590	0.0148806
717.668	0.0148772
717.746	0.0148503
717.825	0.0147613
717.903	0.0146107
717.981	0.0145324
718.059	0.0144419
718.137	0.0144128
718.215	0.0141914
718.293	0.0140878
718.371	0.0142859
718.450	0.0141385
718.528	0.0144286
718.606	0.0144798
718.684	0.0146271
718.762	0.0146726
718.840	0.0148118
718.918	0.0147124
718.996	0.0147658
719.075	0.0147722
719.153	0.0148804
719.231	0.0149033
719.309	0.0147505
719.387	0.0144717
719.465	0.0142743
719.543	0.0140373
719.621	0.0138606
719.700	0.0136826
719.778	0.0135980
719.856	0.0135299
719.934	0.0133967
720.012	0.0135130
720.090	0.0134912
720.168	0.0134927
720.246	0.0137238
720.325	0.0139346
720.403	0.0141330
720.481	0.0145107
720.559	0.0146361
720.637	0.0147600
720.715	0.0149181
720.793	0.0150025
720.871	0.0148350
720.950	0.0145785
721.028	0.0145014
721.106	0.0143999
721.184	0.0143503
721.262	0.0140678
721.340	0.0138994
721.418	0.0138440
721.496	0.0137801
721.575	0.0137968
721.653	0.0137406
721.731	0.0138262
721.809	0.0139096
721.887	0.0141290
721.965	0.0143488
722.043	0.0144241
722.121	0.0146607
722.200	0.0147751
722.278	0.0148829
722.356	0.0148472
722.434	0.0150577
722.512	0.0149372
722.590	0.0149015
722.668	0.0147704
722.746	0.0147154
722.825	0.0146036
722.903	0.0142931
722.981	0.0141904
723.059	0.0140202
723.137	0.0141418
723.215	0.0142720
723.293	0.0141044
723.371	0.0141769
723.450	0.0142864
723.528	0.0144376
723.606	0.0145118
723.684	0.0146037
723.762	0.0146305
723.840	0.0146607
723.918	0.0147513
723.996	0.0147099
724.075	0.0145817
724.153	0.0143484
724.231	0.0141282
724.309	0.0140836
724.387	0.0138807
724.465	0.0137396
724.543	0.0134570
724.621	0.0135458
724.700	0.0134990
724.778	0.0133241
724.856	0.0132528
724.934	0.0133655
725.012	0.0134534
725.090	0.0137136
725.168	0.0139190
725.246	0.0143436
725.325	0.0144728
725.403	0.0147428
725.481	0.0150280
725.559	0.0150851
725.637	0.0151218
725.715	0.0153462
725.793	0.0153159
725.871	0.0153403
725.950	0.0152817
726.028	0.0151667
726.106	0.0147501
726.184	0.0145295
726.262	0.0144847
726.340	0.0142916
726.418	0.0142130
726.496	0.0142620
726.575	0.0141003
726.653	0.0142766
726.731	0.0141129
726.809	0.0142355
726.887	0.0144431
726.965	0.0143298
727.043	0.0143424
727.121	0.0144486
727.200	0.0144334
727.278	0.0142855
727.356	0.0141119
727.434	0.0139601
727.512	0.0140603
727.590	0.0141389
727.668	0.0138203
727.746	0.0138612
727.825	0.0136307
727.903	0.0134946
727.981	0.0135549
728.059	0.0135507
728.137	0.0137760
728.215	0.0137482
728.293	0.0139642
728.371	0.0139646
728.450	0.0140334
728.528	0.0142638
728.606	0.0144224
728.684	0.0144510
728.762	0.0144578
728.840	0.0146757
728.918	0.0146291
728.996	0.0143314
729.075	0.0145164
729.153	0.0145819
729.231	0.0145712
729.309	0.0144556
729.387	0.0146085
729.465	0.0146819
729.543	0.0146896
729.621	0.0144728
729.700	0.0144500
729.778	0.0145392
729.856	0.0144166
729.934	0.0143625
730.012	0.0145004
730.090	0.0144788
730.168	0.0144642
730.246	0.0144159
730.325	0.0145783
730.403	0.0144682
730.481	0.0146152
730.559	0.0144840
730.637	0.0144211
730.715	0.0144908
730.793	0.0144653
730.871	0.0144279
730.950	0.0143486
731.028	0.0142744
731.106	0.0142075
731.184	0.0139169
731.262	0.0139011
731.340	0.0139749
731.418	0.0137380
731.496	0.0138047
731.575	0.0137739
731.653	0.0137654
731.731	0.0137180
731.809	0.0139081
731.887	0.0139985
731.965	0.0139573
732.043	0.0141073
732.121	0.0141344
732.200	0.0143360
732.278	0.0144141
732.356	0.0144297
732.434	0.0146515
732.512	0.0146282
732.590	0.0148228
732.668	0.0147956
732.746	0.0145612
732.825	0.0148479
732.903	0.0146156
732.981	0.0144533
733.059	0.0143905
733.137	0.0142821
733.215	0.0142198
733.293	0.0140318
733.371	0.0140495
733.450	0.0140913
733.528	0.0141380
733.606	0.0141698
733.684	0.0141246
733.762	0.0142757
733.840	0.0142290
733.918	0.0143044
733.996	0.0143054
734.075	0.0144022
734.153	0.0143639
734.231	0.0144522
734.309	0.0143258
734.387	0.0143290
734.465	0.0142355
734.543	0.0143761
734.621	0.0143847
734.700	0.0143594
734.778	0.0141945
734.856	0.0141155
734.934	0.0140594
735.012	0.0142418
735.090	0.0142615
735.168	0.0142470
735.246	0.0142162
735.325	0.0142194
735.403	0.0144599
735.481	0.0145430
735.559	0.0145313
735.637	0.0147009
735.715	0.0146693
735.793	0.0147536
735.871	0.0145847
735.950	0.0146333
736.028	0.0144650
736.106	0.0144126
736.184	0.0142136
736.262	0.0140639
736.340	0.0142010
736.418	0.0140956
736.496	0.0139911
736.575	0.0138902
736.653	0.0139558
736.731	0.0139752
736.809	0.0139959
736.887	0.0141359
736.965	0.0140038
737.043	0.0140656
737.121	0.0140677
737.200	0.0141100
737.278	0.0141891
737.356	0.0141504
737.434	0.0141129
737.512	0.0142422
737.590	0.0141477
737.668	0.0141766
737.746	0.0143223
737.825	0.0144675
737.903	0.0144627
737.981	0.0144168
738.059	0.0145506
738.137	0.0144543
738.215	0.0145341
738.293	0.0145393
738.371	0.0144492
738.450	0.0145475
738.528	0.0145570
738.606	0.0143352
738.684	0.0144588
738.762	0.0143858
738.840	0.0143472
738.918	0.0143838
738.996	0.0142487
739.075	0.0143053
739.153	0.0141475
739.231	0.0141575
739.309	0.0141106
739.387	0.0141457
739.465	0.0141000
739.543	0.0142332
739.621	0.0141815
739.700	0.0140952
739.778	0.0142002
739.856	0.0141521
739.934	0.0142167
740.012	0.0140952
740.090	0.0142046
740.168	0.0139999
740.246	0.0141167
740.325	0.0141072
740.403	0.0138966
740.481	0.0141786
740.559	0.0139642
740.637	0.0140185
740.715	0.0140939
740.793	0.0143207
740.871	0.0142330
740.950	0.0141045
741.028	0.0142048
741.106	0.0142164
741.184	0.0142063
741.262	0.0144276
741.340	0.0142005
741.418	0.0144044
741.496	0.0144398
741.575	0.0144200
741.653	0.0143913
741.731	0.0145774
741.809	0.0145472
741.887	0.0146135
741.965	0.0144115
742.043	0.0145084
742.121	0.0145923
742.200	0.0144343
742.278	0.0145001
742.356	0.0144692
742.434	0.0146712
742.512	0.0144147
742.590	0.0143094
742.668	0.0144273
742.746	0.0143997
742.825	0.0143629
742.903	0.0142846
742.981	0.0142657
743.059	0.0142695
743.137	0.0143070
743.215	0.0142464
743.293	0.0142439
743.371	0.0142166
743.450	0.0143758
743.528	0.0142268
743.606	0.0141101
743.684	0.0142112
743.762	0.0142146
743.840	0.0141418
743.918	0.0141663
743.996	0.0138519
744.075	0.0139899
744.153	0.0141685
744.231	0.0140075
744.309	0.0140885
744.387	0.0141568
744.465	0.0141638
744.543	0.0142632
744.621	0.0142289
744.700	0.0141071
744.778	0.0144463
744.856	0.0144176
744.934	0.0143134
745.012	0.0144669
745.090	0.0143895
745.168	0.0144357
745.246	0.0144753
745.325	0.0144708
745.403	0.0145842
745.481	0.0145261
745.559	0.0144054
745.637	0.0143039
745.715	0.0144621
745.793	0.0144448
745.871	0.0144569
745.950	0.0145586
746.028	0.0144936
746.106	0.0143634
746.184	0.0143021
746.262	0.0143653
746.340	0.0144484
746.418	0.0142397
746.496	0.0143655
746.575	0.0143806
746.653	0.0142657
746.731	0.0142844
746.809	0.0143159
746.887	0.0142602
746.965	0.0140452
747.043	0.0143705
747.121	0.0141800
747.200	0.0141376
747.278	0.0142576
747.356	0.0141145
747.434	0.0142939
747.512	0.0142591
747.590	0.0143755
747.668	0.0144879
747.746	0.0144855
747.825	0.0145171
747.903	0.0145221
747.981	0.0144707
748.059	0.0143725
748.137	0.0143005
748.215	0.0144424
748.293	0.0143574
748.371	0.0142463
748.450	0.0142752
748.528	0.0143476
748.606	0.0143613
748.684	0.0143089
748.762	0.0143373
748.840	0.0142764
748.918	0.0144521
748.996	0.0142924
749.075	0.0141774
749.153	0.0144948
749.231	0.0144022
749.309	0.0143561
749.387	0.0143172
749.465	0.0143507
749.543	0.0143481
749.621	0.0143622
749.700	0.0144110
749.778	0.0142703
749.856	0.0143520
749.934	0.0144431
750.012	0.0143406
750.090	0.0143382
750.168	0.0141493
750.246	0.0142261
750.325	0.0141611
750.403	0.0142543
750.481	0.0142414
750.559	0.0142361
750.637	0.0140836
750.715	0.0141129
750.793	0.0140395
750.871	0.0141003
750.950	0.0142310
751.028	0.0141728
751.106	0.0142227
751.184	0.0144083
751.262	0.0142426
751.340	0.0144316
751.418	0.0145069
751.496	0.0144538
751.575	0.0145399
751.653	0.0145660
751.731	0.0145318
751.809	0.0146345
751.887	0.0145040
751.965	0.0146834
752.043	0.0146147
752.121	0.0145422
752.200	0.0144531
752.278	0.0145808
752.356	0.0145118
752.434	0.0144569
752.512	0.0143661
752.590	0.0143104
752.668	0.0143564
752.746	0.0142600
752.825	0.0141539
752.903	0.0141897
752.981	0.0142033
753.059	0.0143021
753.137	0.0140936
753.215	0.0141412
753.293	0.0142447
753.371	0.0141180
753.450	0.0140401
753.528	0.0140941
753.606	0.0141554
753.684	0.0139983
753.762	0.0139816
753.840	0.0141535
753.918	0.0142078
753.996	0.0141407
754.075	0.0141196
754.153	0.0141799
754.231	0.0141712
754.309	0.0140813
754.387	0.0142365
754.465	0.0143276
754.543	0.0141472
754.621	0.0142725
754.700	0.0143246
754.778	0.0143040
754.856	0.0144183
754.934	0.0144534
755.012	0.0143919
755.090	0.0143667
755.168	0.0143899
755.246	0.0145042
755.325	0.0145496
755.403	0.0145459
755.481	0.0145014
755.559	0.0145319
755.637	0.0145291
755.715	0.0146034
755.793	0.0144983
755.871	0.0143932
755.950	0.0144692
756.028	0.0144667
756.106	0.0144021
756.184	0.0142412
756.262	0.0142313
756.340	0.0142437
756.418	0.0142841
756.496	0.0142995
756.575	0.0142619
756.653	0.0143869
756.731	0.0143206
756.809	0.0141287
756.887	0.0141334
756.965	0.0142577
757.043	0.0140869
757.121	0.0141496
757.200	0.0141183
757.278	0.0141471
757.356	0.0141463
757.434	0.0140020
757.512	0.0140104
757.590	0.0141086
757.668	0.0141713
757.746	0.0142168
757.825	0.0141393
757.903	0.0141524
757.981	0.0143015
758.059	0.0143539
758.137	0.0141785
758.215	0.0142744
758.293	0.0142864
758.371	0.0142953
758.450	0.0143331
758.528	0.0143958
758.606	0.0143018
758.684	0.0144003
758.762	0.0142847
758.840	0.0143853
758.918	0.0145025
758.996	0.0143893
759.075	0.0144933
759.153	0.0143615
759.231	0.0144746
759.309	0.0145369
759.387	0.0144931
759.465	0.0144849
759.543	0.0145003
759.621	0.0142527
759.700	0.0143573
759.778	0.0143394
759.856	0.0144456
759.934	0.0142953
760.012	0.0144409
760.090	0.0142348
760.168	0.0141939
760.246	0.0141850
760.325	0.0141370
760.403	0.0142591
760.481	0.0140545
760.559	0.0140108
760.637	0.0141629
760.715	0.0140174
760.793	0.0141569
760.871	0.0140701
760.950	0.0140507
761.028	0.0140596
761.106	0.0142337
761.184	0.0141467
761.262	0.0143140
761.340	0.0142947
761.418	0.0142648
761.496	0.0141680
761.575	0.0143604
761.653	0.0143051
761.731	0.0143962
761.809	0.0143101
761.887	0.0143641
761.965	0.0143537
762.043	0.0143178
762.121	0.0143774
762.200	0.0143433
762.278	0.0144476
762.356	0.0144197
762.434	0.0143593
762.512	0.0143646
762.590	0.0144035
762.668	0.0142638
762.746	0.0143805
762.825	0.0144017
762.903	0.0143955
762.981	0.0143650
763.059	0.0144175
763.137	0.0143672
763.215	0.0142459
763.293	0.0142371
763.371	0.0143710
763.450	0.0143226
763.528	0.0143460
763.606	0.0141888
763.684	0.0142377
763.762	0.0142410
763.840	0.0142108
763.918	0.0142096
763.996	0.0142451
764.075	0.0141738
764.153	0.0144067
764.231	0.0142909
764.309	0.0141632
764.387	0.0143275
764.465	0.0142819
764.543	0.0142818
764.621	0.0143484
764.700	0.0143397
