05/04/2022	21:09:47	Ver.	4.1	UNKNOWN
Optical Delay	678.996401	Delta X		0.078125	Sweeps	1	Scan Rate	0/0
Coordinates	Axis 1	NaN	Axis 2	NaN	Axis 3	NaN	Axis 4	NaN	Axis 5	NaN	Axis 6	0.000000
TX Power	0.000000	RX Power	0.000000

678.996	0.0142686
679.075	0.0142377
679.153	0.0142329
679.231	0.0141698
679.309	0.0143158
679.387	0.0141770
679.465	0.0142596
679.543	0.0142809
679.621	0.0142795
679.700	0.0141757
679.778	0.0142631
679.856	0.0142094
679.934	0.0142389
680.012	0.0143138
680.090	0.0142462
680.168	0.0142801
680.246	0.0142406
680.325	0.0142527
680.403	0.0143786
680.481	0.0142676
680.559	0.0143007
680.637	0.0142774
680.715	0.0143678
680.793	0.0143600
680.871	0.0143250
680.950	0.0142571
681.028	0.0143513
681.106	0.0141553
681.184	0.0142383
681.262	0.0143730
681.340	0.0141948
681.418	0.0141297
681.496	0.0142727
681.575	0.0142717
681.653	0.0142685
681.731	0.0143546
681.809	0.0143189
681.887	0.0142426
681.965	0.0143740
682.043	0.0142831
682.121	0.0142834
682.200	0.0142520
682.278	0.0144067
682.356	0.0142731
682.434	0.0143132
682.512	0.0142889
682.590	0.0143340
682.668	0.0142744
682.746	0.0143904
682.825	0.0145036
682.903	0.0141872
682.981	0.0142528
683.059	0.0142252
683.137	0.0143507
683.215	0.0142602
683.293	0.0142381
683.371	0.0141602
683.450	0.0143222
683.528	0.0143312
683.606	0.0144254
683.684	0.0143007
683.762	0.0143156
683.840	0.0142521
683.918	0.0143056
683.996	0.0143285
684.075	0.0143129
684.153	0.0144157
684.231	0.0142140
684.309	0.0144009
684.387	0.0142902
684.465	0.0142680
684.543	0.0143667
684.621	0.0143385
684.700	0.0144436
684.778	0.0143192
684.856	0.0143755
684.934	0.0144458
685.012	0.0143020
685.090	0.0144478
685.168	0.0143626
685.246	0.0143456
685.325	0.0143629
685.403	0.0143185
685.481	0.0143902
685.559	0.0143038
685.637	0.0144095
685.715	0.0143105
685.793	0.0143865
685.871	0.0142413
685.950	0.0142442
686.028	0.0141742
686.106	0.0143194
686.184	0.0142484
686.262	0.0142480
686.340	0.0142661
686.418	0.0142835
686.496	0.0142649
686.575	0.0142072
686.653	0.0142006
686.731	0.0141724
686.809	0.0141940
686.887	0.0140881
686.965	0.0141699
687.043	0.0141776
687.121	0.0141251
687.200	0.0141102
687.278	0.0140922
687.356	0.0142783
687.434	0.0141947
687.512	0.0141417
687.590	0.0142287
687.668	0.0141554
687.746	0.0140098
687.825	0.0142813
687.903	0.0142743
687.981	0.0142583
688.059	0.0142412
688.137	0.0142770
688.215	0.0141800
688.293	0.0143199
688.371	0.0143396
688.450	0.0144065
688.528	0.0144469
688.606	0.0145129
688.684	0.0145391
688.762	0.0144353
688.840	0.0143047
688.918	0.0142917
688.996	0.0143797
689.075	0.0143597
689.153	0.0144382
689.231	0.0143739
689.309	0.0144176
689.387	0.0143863
689.465	0.0142419
689.543	0.0142542
689.621	0.0142257
689.700	0.0142625
689.778	0.0142188
689.856	0.0141667
689.934	0.0142529
690.012	0.0142531
690.090	0.0142092
690.168	0.0142808
690.246	0.0143703
690.325	0.0142809
690.403	0.0142924
690.481	0.0143556
690.559	0.0144048
690.637	0.0144405
690.715	0.0144334
690.793	0.0143587
690.871	0.0144594
690.950	0.0145274
691.028	0.0144935
691.106	0.0145303
691.184	0.0145146
691.262	0.0144920
691.340	0.0143300
691.418	0.0145333
691.496	0.0145218
691.575	0.0142792
691.653	0.0141530
691.731	0.0141946
691.809	0.0141703
691.887	0.0141718
691.965	0.0142407
692.043	0.0141976
692.121	0.0140381
692.200	0.0142125
692.278	0.0141168
692.356	0.0140180
692.434	0.0139706
692.512	0.0142130
692.590	0.0143806
692.668	0.0140952
692.746	0.0142128
692.825	0.0142506
692.903	0.0142458
692.981	0.0142485
693.059	0.0141767
693.137	0.0142801
693.215	0.0143805
693.293	0.0143623
693.371	0.0143010
693.450	0.0143796
693.528	0.0143359
693.606	0.0143729
693.684	0.0143367
693.762	0.0143630
693.840	0.0143999
693.918	0.0141999
693.996	0.0144325
694.075	0.0142154
694.153	0.0142406
694.231	0.0142000
694.309	0.0144151
694.387	0.0142850
694.465	0.0142990
694.543	0.0143029
694.621	0.0142464
694.700	0.0141995
694.778	0.0142615
694.856	0.0143489
694.934	0.0142850
695.012	0.0141953
695.090	0.0143909
695.168	0.0144160
695.246	0.0141959
695.325	0.0142675
695.403	0.0143407
695.481	0.0142188
695.559	0.0142314
695.637	0.0143120
695.715	0.0143685
695.793	0.0143292
695.871	0.0142923
695.950	0.0143254
696.028	0.0143384
696.106	0.0142987
696.184	0.0143681
696.262	0.0145258
696.340	0.0144466
696.418	0.0144243
696.496	0.0145004
696.575	0.0144757
696.653	0.0145243
696.731	0.0144135
696.809	0.0144269
696.887	0.0145599
696.965	0.0143209
697.043	0.0143307
697.121	0.0141450
697.200	0.0143488
697.278	0.0142316
697.356	0.0140680
697.434	0.0142467
697.512	0.0142734
697.590	0.0141309
697.668	0.0140847
697.746	0.0142037
697.825	0.0142771
697.903	0.0142942
697.981	0.0142151
698.059	0.0141817
698.137	0.0142097
698.215	0.0143584
698.293	0.0143894
698.371	0.0142939
698.450	0.0142906
698.528	0.0144627
698.606	0.0144234
698.684	0.0143602
698.762	0.0144367
698.840	0.0143745
698.918	0.0144070
698.996	0.0144106
699.075	0.0142924
699.153	0.0144781
699.231	0.0144614
699.309	0.0144644
699.387	0.0144638
699.465	0.0143407
699.543	0.0142569
699.621	0.0142752
699.700	0.0143427
699.778	0.0142732
699.856	0.0141593
699.934	0.0141537
700.012	0.0142317
700.090	0.0142310
700.168	0.0142393
700.246	0.0142397
700.325	0.0142760
700.403	0.0141772
700.481	0.0141394
700.559	0.0142592
700.637	0.0143453
700.715	0.0142096
700.793	0.0143305
700.871	0.0143490
700.950	0.0142912
701.028	0.0143804
701.106	0.0143659
701.184	0.0143307
701.262	0.0145004
701.340	0.0145470
701.418	0.0146692
701.496	0.0144830
701.575	0.0143108
701.653	0.0143294
701.731	0.0142561
701.809	0.0141244
701.887	0.0141869
701.965	0.0141505
702.043	0.0142153
702.121	0.0143572
702.200	0.0143352
702.278	0.0143448
702.356	0.0143816
702.434	0.0144128
702.512	0.0142986
702.590	0.0142448
702.668	0.0139948
702.746	0.0141599
702.825	0.0141757
702.903	0.0142089
702.981	0.0141663
703.059	0.0142670
703.137	0.0142977
703.215	0.0145770
703.293	0.0143193
703.371	0.0144345
703.450	0.0146725
703.528	0.0146464
703.606	0.0145162
703.684	0.0144612
703.762	0.0143510
703.840	0.0141343
703.918	0.0140753
703.996	0.0139034
704.075	0.0138587
704.153	0.0138960
704.231	0.0138400
704.309	0.0139546
704.387	0.0141705
704.465	0.0140961
704.543	0.0141699
704.621	0.0143661
704.700	0.0143972
704.778	0.0144263
704.856	0.0142668
704.934	0.0142576
705.012	0.0142211
705.090	0.0143961
705.168	0.0143793
705.246	0.0146413
705.325	0.0146099
705.403	0.0147813
705.481	0.0147423
705.559	0.0147973
705.637	0.0145464
705.715	0.0143970
705.793	0.0144360
705.871	0.0143853
705.950	0.0143114
706.028	0.0143782
706.106	0.0141909
706.184	0.0143559
706.262	0.0144573
706.340	0.0144807
706.418	0.0145899
706.496	0.0147794
706.575	0.0144782
706.653	0.0143259
706.731	0.0142208
706.809	0.0139879
706.887	0.0137562
706.965	0.0133825
707.043	0.0133323
707.121	0.0132143
707.200	0.0133612
707.278	0.0136975
707.356	0.0136658
707.434	0.0138443
707.512	0.0141455
707.590	0.0143698
707.668	0.0147020
707.746	0.0148647
707.825	0.0148313
707.903	0.0148300
707.981	0.0149026
708.059	0.0149527
708.137	0.0146898
708.215	0.0146362
708.293	0.0145339
708.371	0.0147406
708.450	0.0146059
708.528	0.0144313
708.606	0.0145834
708.684	0.0144981
708.762	0.0144994
708.840	0.0145089
708.918	0.0145706
708.996	0.0144698
709.075	0.0145242
709.153	0.0146351
709.231	0.0147903
709.309	0.0147559
709.387	0.0147693
709.465	0.0146379
709.543	0.0144095
709.621	0.0143667
709.700	0.0139687
709.778	0.0136529
709.856	0.0134653
709.934	0.0131387
710.012	0.0130206
710.090	0.0131190
710.168	0.0132963
710.246	0.0131359
710.325	0.0133948
710.403	0.0138655
710.481	0.0139651
710.559	0.0143218
710.637	0.0146039
710.715	0.0148621
710.793	0.0150080
710.871	0.0151142
710.950	0.0151834
711.028	0.0152686
711.106	0.0150479
711.184	0.0148634
711.262	0.0146828
711.340	0.0143932
711.418	0.0144245
711.496	0.0142989
711.575	0.0143310
711.653	0.0142637
711.731	0.0145616
711.809	0.0145444
711.887	0.0146632
711.965	0.0147286
712.043	0.0148948
712.121	0.0149574
712.200	0.0150629
712.278	0.0150106
712.356	0.0149864
712.434	0.0149545
712.512	0.0145573
712.590	0.0142693
712.668	0.0137019
712.746	0.0134391
712.825	0.0131179
712.903	0.0130550
712.981	0.0129646
713.059	0.0127605
713.137	0.0130058
713.215	0.0131753
713.293	0.0133943
713.371	0.0138601
713.450	0.0139373
713.528	0.0141613
713.606	0.0144675
713.684	0.0147502
713.762	0.0149375
713.840	0.0151445
713.918	0.0151234
713.996	0.0150159
714.075	0.0150126
714.153	0.0150008
714.231	0.0148539
714.309	0.0144193
714.387	0.0143119
714.465	0.0142294
714.543	0.0139728
714.621	0.0138743
714.700	0.0138155
714.778	0.0140772
714.856	0.0141812
714.934	0.0143108
715.012	0.0145090
715.090	0.0145107
715.168	0.0147506
715.246	0.0149400
715.325	0.0150933
715.403	0.0150961
715.481	0.0149900
715.559	0.0150717
715.637	0.0148876
715.715	0.0145229
715.793	0.0143567
715.871	0.0140662
715.950	0.0136705
716.028	0.0133585
716.106	0.0131276
716.184	0.0130505
716.262	0.0130405
716.340	0.0130053
716.418	0.0130000
716.496	0.0133852
716.575	0.0134116
716.653	0.0136944
716.731	0.0139637
716.809	0.0142561
716.887	0.0145631
716.965	0.0147453
717.043	0.0149093
717.121	0.0150988
717.200	0.0151003
717.278	0.0151093
717.356	0.0150550
717.434	0.0149232
717.512	0.0147865
717.590	0.0145543
717.668	0.0143235
717.746	0.0141910
717.825	0.0139392
717.903	0.0140739
717.981	0.0142290
718.059	0.0140701
718.137	0.0140907
718.215	0.0144243
718.293	0.0144943
718.371	0.0146342
718.450	0.0147515
718.528	0.0148684
718.606	0.0150333
718.684	0.0149746
718.762	0.0150248
718.840	0.0150510
718.918	0.0147622
718.996	0.0147161
719.075	0.0145337
719.153	0.0142340
719.231	0.0139481
719.309	0.0137534
719.387	0.0135606
719.465	0.0135157
719.543	0.0134496
719.621	0.0133336
719.700	0.0133631
719.778	0.0134969
719.856	0.0136147
719.934	0.0137884
720.012	0.0139127
720.090	0.0142887
720.168	0.0143913
720.246	0.0147823
720.325	0.0148453
720.403	0.0148863
720.481	0.0148120
720.559	0.0148258
720.637	0.0146598
720.715	0.0144040
720.793	0.0143125
720.871	0.0140891
720.950	0.0138938
721.028	0.0137714
721.106	0.0137434
721.184	0.0135711
721.262	0.0136448
721.340	0.0137148
721.418	0.0139763
721.496	0.0139510
721.575	0.0139763
721.653	0.0144279
721.731	0.0145281
721.809	0.0147505
721.887	0.0149838
721.965	0.0151228
722.043	0.0152027
722.121	0.0151065
722.200	0.0150215
722.278	0.0151597
722.356	0.0148486
722.434	0.0146091
722.512	0.0146519
722.590	0.0143448
722.668	0.0140644
722.746	0.0140538
722.825	0.0139811
722.903	0.0138376
722.981	0.0138176
723.059	0.0137772
723.137	0.0139915
723.215	0.0141000
723.293	0.0141196
723.371	0.0142744
723.450	0.0144948
723.528	0.0145035
723.606	0.0145808
723.684	0.0145538
723.762	0.0143931
723.840	0.0143875
723.918	0.0142841
723.996	0.0141479
724.075	0.0139237
724.153	0.0137524
724.231	0.0137861
724.309	0.0137135
724.387	0.0134957
724.465	0.0135033
724.543	0.0134956
724.621	0.0136466
724.700	0.0136272
724.778	0.0138046
724.856	0.0139735
724.934	0.0143182
725.012	0.0146664
725.090	0.0148211
725.168	0.0148163
725.246	0.0150719
725.325	0.0151806
725.403	0.0151767
725.481	0.0151830
725.559	0.0152518
725.637	0.0150596
725.715	0.0149867
725.793	0.0148576
725.871	0.0146441
725.950	0.0144497
726.028	0.0143590
726.106	0.0143429
726.184	0.0142577
726.262	0.0141384
726.340	0.0141017
726.418	0.0140369
726.496	0.0141751
726.575	0.0142471
726.653	0.0142776
726.731	0.0142694
726.809	0.0142156
726.887	0.0142679
726.965	0.0142169
727.043	0.0143542
727.121	0.0143128
727.200	0.0141496
727.278	0.0139075
727.356	0.0139338
727.434	0.0138164
727.512	0.0138339
727.590	0.0136887
727.668	0.0137210
727.746	0.0137930
727.825	0.0136864
727.903	0.0137851
727.981	0.0137455
728.059	0.0138178
728.137	0.0140611
728.215	0.0141882
728.293	0.0142785
728.371	0.0144016
728.450	0.0146477
728.528	0.0145309
728.606	0.0146819
728.684	0.0147227
728.762	0.0146582
728.840	0.0145911
728.918	0.0146464
728.996	0.0145493
729.075	0.0144882
729.153	0.0145646
729.231	0.0144266
729.309	0.0145598
729.387	0.0144291
729.465	0.0145094
729.543	0.0144089
729.621	0.0145453
729.700	0.0145280
729.778	0.0144128
729.856	0.0144407
729.934	0.0145365
730.012	0.0144679
730.090	0.0146974
730.168	0.0144438
730.246	0.0142559
730.325	0.0144174
730.403	0.0144358
730.481	0.0141577
730.559	0.0141174
730.637	0.0141132
730.715	0.0141248
730.793	0.0140070
730.871	0.0140095
730.950	0.0140633
731.028	0.0140418
731.106	0.0139684
731.184	0.0139356
731.262	0.0139612
731.340	0.0139448
731.418	0.0139117
731.496	0.0138954
731.575	0.0138918
731.653	0.0142142
731.731	0.0141358
731.809	0.0142883
731.887	0.0143353
731.965	0.0144942
732.043	0.0146053
732.121	0.0145757
732.200	0.0146400
732.278	0.0146371
732.356	0.0147741
732.434	0.0146932
732.512	0.0147305
732.590	0.0146941
732.668	0.0145472
732.746	0.0144131
732.825	0.0142418
732.903	0.0141708
732.981	0.0141452
733.059	0.0140630
733.137	0.0138732
733.215	0.0140874
733.293	0.0141544
733.371	0.0140193
733.450	0.0140115
733.528	0.0142387
733.606	0.0141464
733.684	0.0142017
733.762	0.0142693
733.840	0.0142418
733.918	0.0143877
733.996	0.0144764
734.075	0.0146095
734.153	0.0144513
734.231	0.0145126
734.309	0.0144952
734.387	0.0143237
734.465	0.0142939
734.543	0.0142628
734.621	0.0142619
734.700	0.0141841
734.778	0.0142274
734.856	0.0142990
734.934	0.0143757
735.012	0.0144270
735.090	0.0144607
735.168	0.0145650
735.246	0.0146696
735.325	0.0145676
735.403	0.0143798
735.481	0.0145106
735.559	0.0144630
735.637	0.0143008
735.715	0.0144198
735.793	0.0143500
735.871	0.0141250
735.950	0.0141293
736.028	0.0140512
736.106	0.0139689
736.184	0.0139114
736.262	0.0137863
736.340	0.0138772
736.418	0.0140562
736.496	0.0139838
736.575	0.0140382
736.653	0.0142033
736.731	0.0141301
736.809	0.0141624
736.887	0.0142537
736.965	0.0142769
737.043	0.0142538
737.121	0.0143178
737.200	0.0143637
737.278	0.0144450
737.356	0.0143932
737.434	0.0143674
737.512	0.0144108
737.590	0.0142928
737.668	0.0144889
737.746	0.0145079
737.825	0.0144276
737.903	0.0143615
737.981	0.0145026
738.059	0.0145452
738.137	0.0144476
738.215	0.0144276
738.293	0.0145325
738.371	0.0144698
738.450	0.0143013
738.528	0.0143381
738.606	0.0143092
738.684	0.0141508
738.762	0.0142934
738.840	0.0142883
738.918	0.0138784
738.996	0.0142094
739.075	0.0141714
739.153	0.0141144
739.231	0.0140374
739.309	0.0142436
739.387	0.0142852
739.465	0.0141181
739.543	0.0141259
739.621	0.0140345
739.700	0.0141298
739.778	0.0140960
739.856	0.0140372
739.934	0.0140661
740.012	0.0140772
740.090	0.0140352
740.168	0.0140475
740.246	0.0139314
740.325	0.0140925
740.403	0.0141226
740.481	0.0140776
740.559	0.0141443
740.637	0.0142713
740.715	0.0142386
740.793	0.0141251
740.871	0.0143307
740.950	0.0143390
741.028	0.0144283
741.106	0.0143417
741.184	0.0143760
741.262	0.0143589
741.340	0.0144782
741.418	0.0144644
741.496	0.0144272
741.575	0.0144537
741.653	0.0144495
741.731	0.0144329
741.809	0.0143793
741.887	0.0145495
741.965	0.0146304
742.043	0.0145013
742.121	0.0144183
742.200	0.0144689
742.278	0.0143699
742.356	0.0144654
742.434	0.0142486
742.512	0.0142770
742.590	0.0142716
742.668	0.0144057
742.746	0.0142704
742.825	0.0144075
742.903	0.0143011
742.981	0.0141833
743.059	0.0143099
743.137	0.0143793
743.215	0.0141602
743.293	0.0142188
743.371	0.0142851
743.450	0.0142123
743.528	0.0141988
743.606	0.0141559
743.684	0.0139468
743.762	0.0138758
743.840	0.0139116
743.918	0.0140184
743.996	0.0139169
744.075	0.0140560
744.153	0.0141479
744.231	0.0139596
744.309	0.0143669
744.387	0.0142995
744.465	0.0143774
744.543	0.0143672
744.621	0.0145980
744.700	0.0145779
744.778	0.0145367
744.856	0.0146770
744.934	0.0145782
745.012	0.0144878
745.090	0.0145850
745.168	0.0144652
745.246	0.0144830
745.325	0.0145588
745.403	0.0145259
745.481	0.0146544
745.559	0.0145289
745.637	0.0143906
745.715	0.0144376
745.793	0.0143354
745.871	0.0143494
745.950	0.0144262
746.028	0.0144251
746.106	0.0143697
746.184	0.0144073
746.262	0.0143635
746.340	0.0142669
746.418	0.0142875
746.496	0.0142393
746.575	0.0140739
746.653	0.0142567
746.731	0.0140415
746.809	0.0140551
746.887	0.0141042
746.965	0.0141394
747.043	0.0140804
747.121	0.0141920
747.200	0.0141684
747.278	0.0142611
747.356	0.0143742
747.434	0.0145023
747.512	0.0145256
747.590	0.0145734
747.668	0.0145100
747.746	0.0144632
747.825	0.0145235
747.903	0.0144932
747.981	0.0144965
748.059	0.0145667
748.137	0.0143228
748.215	0.0141646
748.293	0.0142283
748.371	0.0143754
748.450	0.0143567
748.528	0.0144152
748.606	0.0142960
748.684	0.0142513
748.762	0.0142234
748.840	0.0144275
748.918	0.0143286
748.996	0.0143833
749.075	0.0143167
749.153	0.0143378
749.231	0.0143947
749.309	0.0144165
749.387	0.0144090
749.465	0.0144583
749.543	0.0144120
749.621	0.0143296
749.700	0.0142957
749.778	0.0143548
749.856	0.0143383
749.934	0.0142275
750.012	0.0141024
750.090	0.0141539
750.168	0.0140715
750.246	0.0140582
750.325	0.0140099
750.403	0.0141073
750.481	0.0141650
750.559	0.0139706
750.637	0.0141393
750.715	0.0142578
750.793	0.0141631
750.871	0.0142337
750.950	0.0142744
751.028	0.0141517
751.106	0.0143750
751.184	0.0142988
751.262	0.0143143
751.340	0.0146194
751.418	0.0144981
751.496	0.0145064
751.575	0.0145236
751.653	0.0145236
751.731	0.0146633
751.809	0.0146865
751.887	0.0144511
751.965	0.0144675
752.043	0.0144495
752.121	0.0144728
752.200	0.0145985
752.278	0.0143458
752.356	0.0144030
752.434	0.0143222
752.512	0.0142857
752.590	0.0141978
752.668	0.0142027
752.746	0.0143257
752.825	0.0141734
752.903	0.0139922
752.981	0.0141307
753.059	0.0142480
753.137	0.0140488
753.215	0.0139458
753.293	0.0141289
753.371	0.0140567
753.450	0.0140849
753.528	0.0141721
753.606	0.0141171
753.684	0.0140151
753.762	0.0141537
753.840	0.0140578
753.918	0.0140981
753.996	0.0141271
754.075	0.0141961
754.153	0.0141050
754.231	0.0142619
754.309	0.0142804
754.387	0.0143119
754.465	0.0142034
754.543	0.0143919
754.621	0.0143699
754.700	0.0144428
754.778	0.0143524
754.856	0.0143501
754.934	0.0144476
755.012	0.0144893
755.090	0.0145808
755.168	0.0146539
755.246	0.0146153
755.325	0.0147086
755.403	0.0144965
755.481	0.0145043
755.559	0.0145117
755.637	0.0145033
755.715	0.0143891
755.793	0.0145043
755.871	0.0144920
755.950	0.0144005
756.028	0.0143486
756.106	0.0142455
756.184	0.0142319
756.262	0.0142709
756.340	0.0142574
756.418	0.0142278
756.496	0.0141705
756.575	0.0141700
756.653	0.0142245
756.731	0.0141647
756.809	0.0142168
756.887	0.0142104
756.965	0.0139130
757.043	0.0140810
757.121	0.0140955
757.200	0.0140495
757.278	0.0141409
757.356	0.0142446
757.434	0.0141479
757.512	0.0141515
757.590	0.0142594
757.668	0.0142868
757.746	0.0141135
757.825	0.0141280
757.903	0.0142896
757.981	0.0143005
758.059	0.0142015
758.137	0.0143794
758.215	0.0143814
758.293	0.0144207
758.371	0.0143257
758.450	0.0144388
758.528	0.0143910
758.606	0.0143530
758.684	0.0143044
758.762	0.0143956
758.840	0.0143764
758.918	0.0143621
758.996	0.0143462
759.075	0.0145251
759.153	0.0144020
759.231	0.0143994
759.309	0.0144569
759.387	0.0144145
759.465	0.0144675
759.543	0.0143497
759.621	0.0143974
759.700	0.0143056
759.778	0.0143098
759.856	0.0143416
759.934	0.0143478
760.012	0.0143058
760.090	0.0142844
760.168	0.0140710
760.246	0.0141140
760.325	0.0141548
760.403	0.0142085
760.481	0.0141679
760.559	0.0141083
760.637	0.0140978
760.715	0.0141412
760.793	0.0140957
760.871	0.0142039
760.950	0.0141827
761.028	0.0142630
761.106	0.0142194
761.184	0.0142015
761.262	0.0141137
761.340	0.0142677
761.418	0.0141915
761.496	0.0143660
761.575	0.0142038
761.653	0.0142888
761.731	0.0143111
761.809	0.0143565
761.887	0.0143395
761.965	0.0143625
762.043	0.0142420
762.121	0.0143909
762.200	0.0144395
762.278	0.0142837
762.356	0.0143293
762.434	0.0142810
762.512	0.0143891
762.590	0.0143668
762.668	0.0143668
762.746	0.0144512
762.825	0.0143460
762.903	0.0143501
762.981	0.0145477
763.059	0.0145614
763.137	0.0143769
763.215	0.0142610
763.293	0.0141671
763.371	0.0144309
763.450	0.0144618
763.528	0.0143764
763.606	0.0142624
763.684	0.0143363
763.762	0.0142254
763.840	0.0142523
763.918	0.0142365
763.996	0.0143922
764.075	0.0141740
764.153	0.0141503
764.231	0.0142526
764.309	0.0141937
764.387	0.0141858
764.465	0.0142006
764.543	0.0141450
764.621	0.0141167
764.700	0.0142659
