05/04/2022	21:10:02	Ver.	4.1	UNKNOWN
Optical Delay	678.996401	Delta X		0.078125	Sweeps	1	Scan Rate	0/0
Coordinates	Axis 1	NaN	Axis 2	NaN	Axis 3	NaN	Axis 4	NaN	Axis 5	NaN	Axis 6	0.000000
TX Power	0.000000	RX Power	0.000000

678.996	0.0139748
679.075	0.0138568
679.153	0.0141096
679.231	0.0138630
679.309	0.0139892
679.387	0.0140296
679.465	0.0140232
679.543	0.0139999
679.621	0.0139162
679.700	0.0138831
679.778	0.0139506
679.856	0.0139923
679.934	0.0140059
680.012	0.0139484
680.090	0.0139124
680.168	0.0140994
680.246	0.0140268
680.325	0.0139266
680.403	0.0138648
680.481	0.0139612
680.559	0.0139159
680.637	0.0139929
680.715	0.0139797
680.793	0.0139659
680.871	0.0140054
680.950	0.0140124
681.028	0.0140102
681.106	0.0140034
681.184	0.0139790
681.262	0.0140640
681.340	0.0140587
681.418	0.0139712
681.496	0.0139501
681.575	0.0140041
681.653	0.0139528
681.731	0.0140649
681.809	0.0139793
681.887	0.0140434
681.965	0.0140073
682.043	0.0139577
682.121	0.0140633
682.200	0.0140537
682.278	0.0139687
682.356	0.0139153
682.434	0.0139719
682.512	0.0140398
682.590	0.0139510
682.668	0.0140080
682.746	0.0139165
682.825	0.0139790
682.903	0.0140312
682.981	0.0139947
683.059	0.0138768
683.137	0.0140208
683.215	0.0139885
683.293	0.0140922
683.371	0.0140066
683.450	0.0139664
683.528	0.0139236
683.606	0.0140179
683.684	0.0139934
683.762	0.0139973
683.840	0.0141659
683.918	0.0139240
683.996	0.0140689
684.075	0.0141281
684.153	0.0140289
684.231	0.0140604
684.309	0.0139925
684.387	0.0138812
684.465	0.0140044
684.543	0.0138718
684.621	0.0140826
684.700	0.0137753
684.778	0.0138634
684.856	0.0139925
684.934	0.0139094
685.012	0.0138274
685.090	0.0138840
685.168	0.0139069
685.246	0.0138574
685.325	0.0139281
685.403	0.0138635
685.481	0.0140752
685.559	0.0137812
685.637	0.0136653
685.715	0.0138197
685.793	0.0139318
685.871	0.0138447
685.950	0.0138398
686.028	0.0139355
686.106	0.0138818
686.184	0.0138846
686.262	0.0139332
686.340	0.0138485
686.418	0.0138631
686.496	0.0139323
686.575	0.0139676
686.653	0.0140463
686.731	0.0141201
686.809	0.0140914
686.887	0.0140549
686.965	0.0140265
687.043	0.0140048
687.121	0.0140444
687.200	0.0142035
687.278	0.0141045
687.356	0.0141294
687.434	0.0141238
687.512	0.0140021
687.590	0.0140520
687.668	0.0140294
687.746	0.0140143
687.825	0.0140537
687.903	0.0139939
687.981	0.0140110
688.059	0.0140675
688.137	0.0139998
688.215	0.0140312
688.293	0.0139036
688.371	0.0139806
688.450	0.0138438
688.528	0.0139237
688.606	0.0139363
688.684	0.0139566
688.762	0.0139354
688.840	0.0138982
688.918	0.0138572
688.996	0.0139027
689.075	0.0139612
689.153	0.0139754
689.231	0.0138166
689.309	0.0140082
689.387	0.0140283
689.465	0.0140980
689.543	0.0140876
689.621	0.0140466
689.700	0.0140675
689.778	0.0141824
689.856	0.0140371
689.934	0.0142297
690.012	0.0141987
690.090	0.0140925
690.168	0.0140109
690.246	0.0140218
690.325	0.0139902
690.403	0.0141022
690.481	0.0139182
690.559	0.0138900
690.637	0.0137920
690.715	0.0137364
690.793	0.0138099
690.871	0.0138030
690.950	0.0138674
691.028	0.0138690
691.106	0.0137621
691.184	0.0137155
691.262	0.0137779
691.340	0.0138232
691.418	0.0138845
691.496	0.0137970
691.575	0.0139520
691.653	0.0138871
691.731	0.0139678
691.809	0.0139712
691.887	0.0138872
691.965	0.0140629
692.043	0.0140701
692.121	0.0139760
692.200	0.0140211
692.278	0.0141534
692.356	0.0140578
692.434	0.0140465
692.512	0.0140082
692.590	0.0139601
692.668	0.0141238
692.746	0.0139536
692.825	0.0141938
692.903	0.0141595
692.981	0.0140216
693.059	0.0139490
693.137	0.0140034
693.215	0.0140197
693.293	0.0141000
693.371	0.0140383
693.450	0.0138139
693.528	0.0138280
693.606	0.0139730
693.684	0.0140788
693.762	0.0139147
693.840	0.0139815
693.918	0.0140107
693.996	0.0140326
694.075	0.0139787
694.153	0.0139819
694.231	0.0139731
694.309	0.0139373
694.387	0.0138205
694.465	0.0139758
694.543	0.0140157
694.621	0.0139246
694.700	0.0138785
694.778	0.0139632
694.856	0.0140413
694.934	0.0139761
695.012	0.0139967
695.090	0.0140144
695.168	0.0140189
695.246	0.0140281
695.325	0.0142283
695.403	0.0141328
695.481	0.0141573
695.559	0.0141319
695.637	0.0140633
695.715	0.0141621
695.793	0.0140524
695.871	0.0139985
695.950	0.0140108
696.028	0.0139375
696.106	0.0139590
696.184	0.0137386
696.262	0.0138793
696.340	0.0137900
696.418	0.0138446
696.496	0.0138141
696.575	0.0138786
696.653	0.0138364
696.731	0.0137611
696.809	0.0136687
696.887	0.0139500
696.965	0.0139845
697.043	0.0139404
697.121	0.0139316
697.200	0.0140194
697.278	0.0139570
697.356	0.0139741
697.434	0.0140061
697.512	0.0140007
697.590	0.0141480
697.668	0.0139220
697.746	0.0139860
697.825	0.0140960
697.903	0.0139991
697.981	0.0140613
698.059	0.0139603
698.137	0.0140748
698.215	0.0139279
698.293	0.0139831
698.371	0.0139474
698.450	0.0140740
698.528	0.0140172
698.606	0.0139373
698.684	0.0138066
698.762	0.0139178
698.840	0.0139730
698.918	0.0139145
698.996	0.0138982
699.075	0.0137762
699.153	0.0138593
699.231	0.0140797
699.309	0.0138615
699.387	0.0139578
699.465	0.0139056
699.543	0.0138953
699.621	0.0138489
699.700	0.0139597
699.778	0.0139344
699.856	0.0139502
699.934	0.0139605
700.012	0.0139103
700.090	0.0138275
700.168	0.0139274
700.246	0.0139177
700.325	0.0139864
700.403	0.0139368
700.481	0.0139082
700.559	0.0139461
700.637	0.0138972
700.715	0.0139645
700.793	0.0141318
700.871	0.0140687
700.950	0.0141615
701.028	0.0141111
701.106	0.0141106
701.184	0.0141830
701.262	0.0143137
701.340	0.0141080
701.418	0.0139332
701.496	0.0139304
701.575	0.0139047
701.653	0.0138612
701.731	0.0139843
701.809	0.0140833
701.887	0.0139546
701.965	0.0141763
702.043	0.0142147
702.121	0.0141723
702.200	0.0140260
702.278	0.0139547
702.356	0.0138321
702.434	0.0139137
702.512	0.0136625
702.590	0.0137074
702.668	0.0138747
702.746	0.0139484
702.825	0.0138200
702.903	0.0139075
702.981	0.0141068
703.059	0.0141350
703.137	0.0140144
703.215	0.0141605
703.293	0.0140835
703.371	0.0140060
703.450	0.0139360
703.528	0.0138998
703.606	0.0138950
703.684	0.0138140
703.762	0.0137361
703.840	0.0136548
703.918	0.0137111
703.996	0.0138160
704.075	0.0138767
704.153	0.0140574
704.231	0.0139756
704.309	0.0141547
704.387	0.0141161
704.465	0.0140890
704.543	0.0141217
704.621	0.0140170
704.700	0.0139762
704.778	0.0138441
704.856	0.0140111
704.934	0.0141116
705.012	0.0140016
705.090	0.0140427
705.168	0.0140179
705.246	0.0141369
705.325	0.0140628
705.403	0.0140661
705.481	0.0140240
705.559	0.0139784
705.637	0.0139238
705.715	0.0139182
705.793	0.0140539
705.871	0.0140671
705.950	0.0140368
706.028	0.0139684
706.106	0.0141775
706.184	0.0141782
706.262	0.0140800
706.340	0.0140247
706.418	0.0138026
706.496	0.0136103
706.575	0.0135247
706.653	0.0131502
706.731	0.0131075
706.809	0.0132109
706.887	0.0131281
706.965	0.0132108
707.043	0.0134166
707.121	0.0137100
707.200	0.0139729
707.278	0.0143173
707.356	0.0145538
707.434	0.0147220
707.512	0.0147253
707.590	0.0149096
707.668	0.0149319
707.746	0.0145022
707.825	0.0143443
707.903	0.0142046
707.981	0.0140424
708.059	0.0139060
708.137	0.0138989
708.215	0.0139557
708.293	0.0139656
708.371	0.0139626
708.450	0.0140042
708.528	0.0140424
708.606	0.0142400
708.684	0.0140977
708.762	0.0142159
708.840	0.0143166
708.918	0.0144555
708.996	0.0146345
709.075	0.0145366
709.153	0.0144097
709.231	0.0141572
709.309	0.0139164
709.387	0.0134132
709.465	0.0132996
709.543	0.0130841
709.621	0.0129176
709.700	0.0126244
709.778	0.0126694
709.856	0.0126208
709.934	0.0127817
710.012	0.0130374
710.090	0.0133974
710.168	0.0138157
710.246	0.0142215
710.325	0.0146173
710.403	0.0149220
710.481	0.0153062
710.559	0.0154002
710.637	0.0154504
710.715	0.0152938
710.793	0.0152586
710.871	0.0147339
710.950	0.0144730
711.028	0.0140913
711.106	0.0137473
711.184	0.0134675
711.262	0.0133085
711.340	0.0134161
711.418	0.0135050
711.496	0.0137735
711.575	0.0139925
711.653	0.0142574
711.731	0.0143628
711.809	0.0145605
711.887	0.0147757
711.965	0.0150172
712.043	0.0149165
712.121	0.0147411
712.200	0.0144980
712.278	0.0141683
712.356	0.0137118
712.434	0.0133675
712.512	0.0130102
712.590	0.0125300
712.668	0.0123637
712.746	0.0122451
712.825	0.0124059
712.903	0.0125551
712.981	0.0127463
713.059	0.0130734
713.137	0.0135600
713.215	0.0139690
713.293	0.0141091
713.371	0.0145638
713.450	0.0149652
713.528	0.0152209
713.606	0.0151780
713.684	0.0152641
713.762	0.0151107
713.840	0.0149219
713.918	0.0145332
713.996	0.0143208
714.075	0.0139572
714.153	0.0135383
714.231	0.0133370
714.309	0.0131868
714.387	0.0131664
714.465	0.0130994
714.543	0.0132619
714.621	0.0134972
714.700	0.0138496
714.778	0.0141524
714.856	0.0144032
714.934	0.0144514
715.012	0.0149364
715.090	0.0150612
715.168	0.0150278
715.246	0.0149403
715.325	0.0147938
715.403	0.0144787
715.481	0.0142555
715.559	0.0138420
715.637	0.0134103
715.715	0.0129051
715.793	0.0127928
715.871	0.0126340
715.950	0.0125739
716.028	0.0125540
716.106	0.0127058
716.184	0.0125558
716.262	0.0129542
716.340	0.0131443
716.418	0.0136400
716.496	0.0138224
716.575	0.0142857
716.653	0.0147006
716.731	0.0148634
716.809	0.0149294
716.887	0.0148874
716.965	0.0149111
717.043	0.0147835
717.121	0.0145573
717.200	0.0143105
717.278	0.0140562
717.356	0.0138312
717.434	0.0136861
717.512	0.0136289
717.590	0.0136973
717.668	0.0136953
717.746	0.0136607
717.825	0.0138811
717.903	0.0139515
717.981	0.0141406
718.059	0.0143016
718.137	0.0143924
718.215	0.0144751
718.293	0.0145390
718.371	0.0146481
718.450	0.0146635
718.528	0.0146871
718.606	0.0145480
718.684	0.0144033
718.762	0.0142789
718.840	0.0139551
718.918	0.0137041
718.996	0.0134088
719.075	0.0132368
719.153	0.0130840
719.231	0.0131149
719.309	0.0130441
719.387	0.0129596
719.465	0.0131691
719.543	0.0133331
719.621	0.0132425
719.700	0.0135883
719.778	0.0138070
719.856	0.0139171
719.934	0.0141091
720.012	0.0143404
720.090	0.0143260
720.168	0.0144768
720.246	0.0144102
720.325	0.0142818
720.403	0.0141924
720.481	0.0140764
720.559	0.0138485
720.637	0.0137002
720.715	0.0138258
720.793	0.0136127
720.871	0.0136470
720.950	0.0136046
721.028	0.0136212
721.106	0.0137040
721.184	0.0137093
721.262	0.0139460
721.340	0.0141274
721.418	0.0142668
721.496	0.0143773
721.575	0.0145840
721.653	0.0146549
721.731	0.0146484
721.809	0.0146766
721.887	0.0144238
721.965	0.0147107
722.043	0.0145074
722.121	0.0144454
722.200	0.0143329
722.278	0.0142078
722.356	0.0139867
722.434	0.0137245
722.512	0.0137518
722.590	0.0135785
722.668	0.0134525
722.746	0.0134628
722.825	0.0134316
722.903	0.0133741
722.981	0.0135984
723.059	0.0135987
723.137	0.0138387
723.215	0.0139741
723.293	0.0139774
723.371	0.0141182
723.450	0.0140628
723.528	0.0140098
723.606	0.0140082
723.684	0.0139989
723.762	0.0138754
723.840	0.0136752
723.918	0.0136881
723.996	0.0135748
724.075	0.0135581
724.153	0.0135165
724.231	0.0135760
724.309	0.0136589
724.387	0.0136225
724.465	0.0138533
724.543	0.0139481
724.621	0.0139545
724.700	0.0143180
724.778	0.0143836
724.856	0.0145530
724.934	0.0146268
725.012	0.0146988
725.090	0.0147124
725.168	0.0148313
725.246	0.0146891
725.325	0.0147481
725.403	0.0145951
725.481	0.0145176
725.559	0.0143256
725.637	0.0142039
725.715	0.0141212
725.793	0.0140354
725.871	0.0138445
725.950	0.0138449
726.028	0.0138197
726.106	0.0137852
726.184	0.0136770
726.262	0.0138207
726.340	0.0139050
726.418	0.0136381
726.496	0.0137478
726.575	0.0137516
726.653	0.0138170
726.731	0.0138752
726.809	0.0136420
726.887	0.0136607
726.965	0.0138529
727.043	0.0135963
727.121	0.0134708
727.200	0.0135944
727.278	0.0135334
727.356	0.0135139
727.434	0.0135931
727.512	0.0135745
727.590	0.0136496
727.668	0.0135439
727.746	0.0137317
727.825	0.0139704
727.903	0.0138847
727.981	0.0140201
728.059	0.0141632
728.137	0.0142517
728.215	0.0142553
728.293	0.0142906
728.371	0.0143329
728.450	0.0142741
728.528	0.0142159
728.606	0.0142035
728.684	0.0143037
728.762	0.0142716
728.840	0.0140668
728.918	0.0141803
728.996	0.0141577
729.075	0.0141568
729.153	0.0140787
729.231	0.0141876
729.309	0.0142493
729.387	0.0142950
729.465	0.0143171
729.543	0.0141579
729.621	0.0141164
729.700	0.0141844
729.778	0.0140279
729.856	0.0140180
729.934	0.0139831
730.012	0.0138708
730.090	0.0138954
730.168	0.0137870
730.246	0.0137347
730.325	0.0136418
730.403	0.0135393
730.481	0.0136196
730.559	0.0137364
730.637	0.0136300
730.715	0.0137115
730.793	0.0137821
730.871	0.0137825
730.950	0.0139038
731.028	0.0138749
731.106	0.0138524
731.184	0.0138601
731.262	0.0138467
731.340	0.0138224
731.418	0.0138622
731.496	0.0138486
731.575	0.0139126
731.653	0.0140975
731.731	0.0139922
731.809	0.0141841
731.887	0.0141472
731.965	0.0141148
732.043	0.0140805
732.121	0.0142457
732.200	0.0143778
732.278	0.0141545
732.356	0.0140490
732.434	0.0141437
732.512	0.0138857
732.590	0.0137824
732.668	0.0138927
732.746	0.0138548
732.825	0.0137454
732.903	0.0137379
732.981	0.0137196
733.059	0.0136073
733.137	0.0137772
733.215	0.0136227
733.293	0.0137801
733.371	0.0138847
733.450	0.0139970
733.528	0.0140201
733.606	0.0142141
733.684	0.0141404
733.762	0.0142597
733.840	0.0141949
733.918	0.0141904
733.996	0.0143046
734.075	0.0141799
734.153	0.0141732
734.231	0.0139585
734.309	0.0139423
734.387	0.0139461
734.465	0.0138123
734.543	0.0138116
734.621	0.0138609
734.700	0.0138699
734.778	0.0137709
734.856	0.0139230
734.934	0.0139980
735.012	0.0141043
735.090	0.0141058
735.168	0.0139590
735.246	0.0140388
735.325	0.0140867
735.403	0.0140941
735.481	0.0141116
735.559	0.0139546
735.637	0.0137596
735.715	0.0138075
735.793	0.0139082
735.871	0.0138825
735.950	0.0135912
736.028	0.0136250
736.106	0.0136211
736.184	0.0137067
736.262	0.0137566
736.340	0.0137369
736.418	0.0138068
736.496	0.0138802
736.575	0.0138682
736.653	0.0137628
736.731	0.0138717
736.809	0.0139185
736.887	0.0139613
736.965	0.0141804
737.043	0.0139497
737.121	0.0140696
737.200	0.0140387
737.278	0.0139529
737.356	0.0140653
737.434	0.0140237
737.512	0.0139176
737.590	0.0140287
737.668	0.0140761
737.746	0.0142285
737.825	0.0141895
737.903	0.0140829
737.981	0.0142126
738.059	0.0140337
738.137	0.0142149
738.215	0.0142085
738.293	0.0141209
738.371	0.0139890
738.450	0.0140972
738.528	0.0138588
738.606	0.0139011
738.684	0.0138285
738.762	0.0139633
738.840	0.0140052
738.918	0.0137888
738.996	0.0138454
739.075	0.0138425
739.153	0.0138393
739.231	0.0136581
739.309	0.0137434
739.387	0.0138737
739.465	0.0138115
739.543	0.0137069
739.621	0.0138233
739.700	0.0138213
739.778	0.0137598
739.856	0.0138023
739.934	0.0136789
740.012	0.0136404
740.090	0.0135873
740.168	0.0136380
740.246	0.0135686
740.325	0.0137295
740.403	0.0137650
740.481	0.0136761
740.559	0.0139030
740.637	0.0140001
740.715	0.0139927
740.793	0.0140263
740.871	0.0141533
740.950	0.0141206
741.028	0.0141375
741.106	0.0142258
741.184	0.0143911
741.262	0.0142363
741.340	0.0143021
741.418	0.0141783
741.496	0.0142172
741.575	0.0143316
741.653	0.0142436
741.731	0.0141466
741.809	0.0140499
741.887	0.0141090
741.965	0.0140765
742.043	0.0140363
742.121	0.0141062
742.200	0.0140231
742.278	0.0139561
742.356	0.0138774
742.434	0.0138992
742.512	0.0139750
742.590	0.0139240
742.668	0.0137865
742.746	0.0138629
742.825	0.0139815
742.903	0.0139960
742.981	0.0139082
743.059	0.0138286
743.137	0.0139236
743.215	0.0137513
743.293	0.0137343
743.371	0.0136600
743.450	0.0135442
743.528	0.0135746
743.606	0.0136165
743.684	0.0135640
743.762	0.0137166
743.840	0.0137741
743.918	0.0136922
743.996	0.0137696
744.075	0.0140381
744.153	0.0140143
744.231	0.0139543
744.309	0.0142430
744.387	0.0142089
744.465	0.0142007
744.543	0.0142857
744.621	0.0142786
744.700	0.0142671
744.778	0.0141549
744.856	0.0142727
744.934	0.0143829
745.012	0.0142076
745.090	0.0142764
745.168	0.0142233
745.246	0.0141685
745.325	0.0142123
745.403	0.0141936
745.481	0.0141339
745.559	0.0140157
745.637	0.0139576
745.715	0.0139678
745.793	0.0139440
745.871	0.0139658
745.950	0.0139880
746.028	0.0139588
746.106	0.0139650
746.184	0.0137775
746.262	0.0138124
746.340	0.0138161
746.418	0.0138103
746.496	0.0136743
746.575	0.0139362
746.653	0.0138274
746.731	0.0137296
746.809	0.0137935
746.887	0.0139603
746.965	0.0139022
747.043	0.0139586
747.121	0.0140741
747.200	0.0141815
747.278	0.0141170
747.356	0.0142206
747.434	0.0141421
747.512	0.0141069
747.590	0.0142213
747.668	0.0140539
747.746	0.0140727
747.825	0.0139162
747.903	0.0138761
747.981	0.0139742
748.059	0.0139222
748.137	0.0139668
748.215	0.0138902
748.293	0.0140281
748.371	0.0140630
748.450	0.0141320
748.528	0.0141698
748.606	0.0141265
748.684	0.0140198
748.762	0.0141200
748.840	0.0142155
748.918	0.0140173
748.996	0.0141419
749.075	0.0140748
749.153	0.0139979
749.231	0.0140635
749.309	0.0139624
749.387	0.0137840
749.465	0.0139204
749.543	0.0139362
749.621	0.0140099
749.700	0.0138675
749.778	0.0137535
749.856	0.0137424
749.934	0.0137194
750.012	0.0136974
750.090	0.0138175
750.168	0.0138368
750.246	0.0138358
750.325	0.0138354
750.403	0.0138914
750.481	0.0139563
750.559	0.0139336
750.637	0.0141255
750.715	0.0141310
750.793	0.0140405
750.871	0.0139967
750.950	0.0140822
751.028	0.0142030
751.106	0.0141168
751.184	0.0140041
751.262	0.0140343
751.340	0.0141084
751.418	0.0142385
751.496	0.0141520
751.575	0.0143214
751.653	0.0142500
751.731	0.0140750
751.809	0.0142390
751.887	0.0141722
751.965	0.0141048
752.043	0.0140970
752.121	0.0140810
752.200	0.0139922
752.278	0.0141125
752.356	0.0139406
752.434	0.0138921
752.512	0.0139539
752.590	0.0138918
752.668	0.0136913
752.746	0.0136824
752.825	0.0136745
752.903	0.0136732
752.981	0.0138215
753.059	0.0137312
753.137	0.0138342
753.215	0.0136853
753.293	0.0136803
753.371	0.0138133
753.450	0.0138804
753.528	0.0138874
753.606	0.0138570
753.684	0.0137639
753.762	0.0137741
753.840	0.0138083
753.918	0.0139853
753.996	0.0137508
754.075	0.0139543
754.153	0.0139621
754.231	0.0141518
754.309	0.0140271
754.387	0.0139024
754.465	0.0139558
754.543	0.0141483
754.621	0.0140829
754.700	0.0140874
754.778	0.0142741
754.856	0.0141699
754.934	0.0142138
755.012	0.0143090
755.090	0.0141899
755.168	0.0143431
755.246	0.0142411
755.325	0.0141231
755.403	0.0141887
755.481	0.0141031
755.559	0.0140629
755.637	0.0140494
755.715	0.0139502
755.793	0.0139610
755.871	0.0138942
755.950	0.0139296
756.028	0.0138139
756.106	0.0139064
756.184	0.0138945
756.262	0.0138647
756.340	0.0138605
756.418	0.0138195
756.496	0.0137453
756.575	0.0137224
756.653	0.0138842
756.731	0.0138663
756.809	0.0137769
756.887	0.0137888
756.965	0.0138214
757.043	0.0138316
757.121	0.0138830
757.200	0.0139422
757.278	0.0139050
757.356	0.0138150
757.434	0.0138966
757.512	0.0139787
757.590	0.0138071
757.668	0.0138393
757.746	0.0137921
757.825	0.0138387
757.903	0.0139564
757.981	0.0139243
758.059	0.0140811
758.137	0.0140559
758.215	0.0139788
758.293	0.0140838
758.371	0.0140116
758.450	0.0140570
758.528	0.0141570
758.606	0.0142482
758.684	0.0142941
758.762	0.0141679
758.840	0.0141944
758.918	0.0142541
758.996	0.0141239
759.075	0.0141325
759.153	0.0139774
759.231	0.0141051
759.309	0.0141005
759.387	0.0142491
759.465	0.0142610
759.543	0.0140245
759.621	0.0140203
759.700	0.0140617
759.778	0.0140361
759.856	0.0140505
759.934	0.0139002
760.012	0.0138184
760.090	0.0140656
760.168	0.0139074
760.246	0.0139127
760.325	0.0138942
760.403	0.0138008
760.481	0.0136746
760.559	0.0138438
760.637	0.0137525
760.715	0.0137440
760.793	0.0137590
760.871	0.0137856
760.950	0.0139573
761.028	0.0138284
761.106	0.0138241
761.184	0.0138627
761.262	0.0139496
761.340	0.0140244
761.418	0.0140051
761.496	0.0139957
761.575	0.0139951
761.653	0.0140956
761.731	0.0141148
761.809	0.0140168
761.887	0.0139877
761.965	0.0140755
762.043	0.0138918
762.121	0.0139983
762.200	0.0141308
762.278	0.0141720
762.356	0.0139765
762.434	0.0140417
762.512	0.0140710
762.590	0.0140674
762.668	0.0140946
762.746	0.0140752
762.825	0.0140305
762.903	0.0140131
762.981	0.0141532
763.059	0.0141411
763.137	0.0140073
763.215	0.0140643
763.293	0.0140726
763.371	0.0141198
763.450	0.0139958
763.528	0.0138485
763.606	0.0139495
763.684	0.0137521
763.762	0.0139236
763.840	0.0139274
763.918	0.0138142
763.996	0.0138132
764.075	0.0139745
764.153	0.0138645
764.231	0.0137508
764.309	0.0138692
764.387	0.0139104
764.465	0.0138300
764.543	0.0138741
764.621	0.0138773
764.700	0.0138712
