05/04/2022	21:10:52	Ver.	4.1	UNKNOWN
Optical Delay	678.996401	Delta X		0.078125	Sweeps	1	Scan Rate	0/0
Coordinates	Axis 1	NaN	Axis 2	NaN	Axis 3	NaN	Axis 4	NaN	Axis 5	NaN	Axis 6	0.000000
TX Power	0.000000	RX Power	0.000000

678.996	0.0144504
679.075	0.0143472
679.153	0.0144447
679.231	0.0142835
679.309	0.0143937
679.387	0.0143966
679.465	0.0144419
679.543	0.0145409
679.621	0.0143565
679.700	0.0144147
679.778	0.0144143
679.856	0.0143389
679.934	0.0145010
680.012	0.0144395
680.090	0.0145589
680.168	0.0144171
680.246	0.0144711
680.325	0.0144665
680.403	0.0144260
680.481	0.0144318
680.559	0.0144317
680.637	0.0145426
680.715	0.0145033
680.793	0.0144005
680.871	0.0144218
680.950	0.0144553
681.028	0.0143070
681.106	0.0142509
681.184	0.0143523
681.262	0.0145273
681.340	0.0143401
681.418	0.0142899
681.496	0.0144762
681.575	0.0144569
681.653	0.0144228
681.731	0.0143282
681.809	0.0143607
681.887	0.0142310
681.965	0.0143854
682.043	0.0144732
682.121	0.0142561
682.200	0.0144008
682.278	0.0143035
682.356	0.0144185
682.434	0.0143999
682.512	0.0142471
682.590	0.0143051
682.668	0.0144108
682.746	0.0144102
682.825	0.0143243
682.903	0.0141733
682.981	0.0143093
683.059	0.0143580
683.137	0.0142068
683.215	0.0142832
683.293	0.0143808
683.371	0.0143085
683.450	0.0142917
683.528	0.0144833
683.606	0.0144085
683.684	0.0143835
683.762	0.0143626
683.840	0.0142766
683.918	0.0143147
683.996	0.0144713
684.075	0.0144121
684.153	0.0143665
684.231	0.0143508
684.309	0.0144591
684.387	0.0144839
684.465	0.0144324
684.543	0.0142969
684.621	0.0144258
684.700	0.0144130
684.778	0.0143297
684.856	0.0143377
684.934	0.0143769
685.012	0.0144294
685.090	0.0143336
685.168	0.0143955
685.246	0.0144278
685.325	0.0143998
685.403	0.0143811
685.481	0.0144788
685.559	0.0146323
685.637	0.0143871
685.715	0.0143009
685.793	0.0143044
685.871	0.0144567
685.950	0.0144833
686.028	0.0143803
686.106	0.0144079
686.184	0.0144831
686.262	0.0144878
686.340	0.0143453
686.418	0.0144275
686.496	0.0145503
686.575	0.0144592
686.653	0.0142817
686.731	0.0142334
686.809	0.0143249
686.887	0.0143932
686.965	0.0143816
687.043	0.0143665
687.121	0.0143216
687.200	0.0143652
687.278	0.0143237
687.356	0.0143505
687.434	0.0144285
687.512	0.0143206
687.590	0.0143666
687.668	0.0143554
687.746	0.0144543
687.825	0.0142995
687.903	0.0144128
687.981	0.0144634
688.059	0.0143916
688.137	0.0146020
688.215	0.0144109
688.293	0.0143817
688.371	0.0145288
688.450	0.0144424
688.528	0.0144212
688.606	0.0145016
688.684	0.0144762
688.762	0.0145838
688.840	0.0144740
688.918	0.0143145
688.996	0.0143866
689.075	0.0143604
689.153	0.0144344
689.231	0.0142443
689.309	0.0142792
689.387	0.0142183
689.465	0.0141081
689.543	0.0143013
689.621	0.0141605
689.700	0.0143111
689.778	0.0142446
689.856	0.0143900
689.934	0.0141623
690.012	0.0143481
690.090	0.0145547
690.168	0.0142873
690.246	0.0144695
690.325	0.0143877
690.403	0.0143150
690.481	0.0144347
690.559	0.0144175
690.637	0.0145898
690.715	0.0145885
690.793	0.0145456
690.871	0.0145478
690.950	0.0145867
691.028	0.0145835
691.106	0.0143349
691.184	0.0144779
691.262	0.0144682
691.340	0.0143497
691.418	0.0144547
691.496	0.0142767
691.575	0.0143154
691.653	0.0144426
691.731	0.0142296
691.809	0.0142027
691.887	0.0142201
691.965	0.0143682
692.043	0.0142763
692.121	0.0144393
692.200	0.0142422
692.278	0.0142992
692.356	0.0142477
692.434	0.0142272
692.512	0.0143948
692.590	0.0144601
692.668	0.0144166
692.746	0.0144537
692.825	0.0142964
692.903	0.0143539
692.981	0.0145155
693.059	0.0143365
693.137	0.0143774
693.215	0.0143833
693.293	0.0143507
693.371	0.0143816
693.450	0.0144728
693.528	0.0145615
693.606	0.0144256
693.684	0.0143649
693.762	0.0142725
693.840	0.0144542
693.918	0.0145132
693.996	0.0145907
694.075	0.0144930
694.153	0.0144617
694.231	0.0144281
694.309	0.0145697
694.387	0.0144542
694.465	0.0145007
694.543	0.0145698
694.621	0.0143956
694.700	0.0142664
694.778	0.0143283
694.856	0.0144382
694.934	0.0143022
695.012	0.0142480
695.090	0.0143278
695.168	0.0143097
695.246	0.0144238
695.325	0.0143660
695.403	0.0144443
695.481	0.0144438
695.559	0.0142941
695.637	0.0144560
695.715	0.0144542
695.793	0.0144901
695.871	0.0146060
695.950	0.0143749
696.028	0.0145426
696.106	0.0146454
696.184	0.0145177
696.262	0.0143693
696.340	0.0143933
696.418	0.0144910
696.496	0.0144347
696.575	0.0144633
696.653	0.0144427
696.731	0.0143967
696.809	0.0144891
696.887	0.0142834
696.965	0.0144781
697.043	0.0144687
697.121	0.0142976
697.200	0.0143680
697.278	0.0144428
697.356	0.0144223
697.434	0.0144108
697.512	0.0144307
697.590	0.0143803
697.668	0.0144001
697.746	0.0143633
697.825	0.0143854
697.903	0.0143164
697.981	0.0145993
698.059	0.0145663
698.137	0.0143754
698.215	0.0144572
698.293	0.0144201
698.371	0.0145696
698.450	0.0144184
698.528	0.0144415
698.606	0.0143228
698.684	0.0143797
698.762	0.0144054
698.840	0.0142245
698.918	0.0144436
698.996	0.0143969
699.075	0.0143939
699.153	0.0142920
699.231	0.0142273
699.309	0.0143694
699.387	0.0144752
699.465	0.0142400
699.543	0.0142912
699.621	0.0143690
699.700	0.0143993
699.778	0.0145123
699.856	0.0145358
699.934	0.0144485
700.012	0.0145075
700.090	0.0146552
700.168	0.0146941
700.246	0.0146095
700.325	0.0144810
700.403	0.0145571
700.481	0.0146382
700.559	0.0144736
700.637	0.0143393
700.715	0.0145348
700.793	0.0144326
700.871	0.0143734
700.950	0.0145086
701.028	0.0144874
701.106	0.0145828
701.184	0.0144663
701.262	0.0144003
701.340	0.0145229
701.418	0.0143716
701.496	0.0142839
701.575	0.0141682
701.653	0.0141416
701.731	0.0143290
701.809	0.0144736
701.887	0.0142862
701.965	0.0142533
702.043	0.0143577
702.121	0.0145004
702.200	0.0143413
702.278	0.0143935
702.356	0.0144051
702.434	0.0145197
702.512	0.0144730
702.590	0.0143506
702.668	0.0142724
702.746	0.0144263
702.825	0.0143675
702.903	0.0143565
702.981	0.0143577
703.059	0.0145065
703.137	0.0145708
703.215	0.0147117
703.293	0.0146614
703.371	0.0145791
703.450	0.0147334
703.528	0.0147352
703.606	0.0143678
703.684	0.0142091
703.762	0.0141953
703.840	0.0140720
703.918	0.0141755
703.996	0.0140276
704.075	0.0142911
704.153	0.0143053
704.231	0.0143649
704.309	0.0144388
704.387	0.0144288
704.465	0.0145281
704.543	0.0145651
704.621	0.0144449
704.700	0.0144865
704.778	0.0145390
704.856	0.0146135
704.934	0.0145787
705.012	0.0147531
705.090	0.0146804
705.168	0.0146370
705.246	0.0145873
705.325	0.0145706
705.403	0.0144601
705.481	0.0146061
705.559	0.0143507
705.637	0.0142457
705.715	0.0141031
705.793	0.0142733
705.871	0.0142682
705.950	0.0141927
706.028	0.0142152
706.106	0.0142550
706.184	0.0143891
706.262	0.0145418
706.340	0.0145456
706.418	0.0144869
706.496	0.0144688
706.575	0.0143813
706.653	0.0143201
706.731	0.0143468
706.809	0.0141328
706.887	0.0141219
706.965	0.0139511
707.043	0.0141107
707.121	0.0142699
707.200	0.0141562
707.278	0.0143784
707.356	0.0147959
707.434	0.0148324
707.512	0.0149018
707.590	0.0151164
707.668	0.0150478
707.746	0.0150776
707.825	0.0148936
707.903	0.0149043
707.981	0.0146859
708.059	0.0145058
708.137	0.0143531
708.215	0.0143407
708.293	0.0141985
708.371	0.0141663
708.450	0.0140970
708.528	0.0141617
708.606	0.0141249
708.684	0.0141245
708.762	0.0141866
708.840	0.0142127
708.918	0.0141373
708.996	0.0141618
709.075	0.0142403
709.153	0.0142568
709.231	0.0143536
709.309	0.0143991
709.387	0.0146687
709.465	0.0144574
709.543	0.0144069
709.621	0.0142553
709.700	0.0142854
709.778	0.0140995
709.856	0.0139542
709.934	0.0137401
710.012	0.0136887
710.090	0.0138516
710.168	0.0139027
710.246	0.0141941
710.325	0.0141196
710.403	0.0146898
710.481	0.0147847
710.559	0.0151455
710.637	0.0155458
710.715	0.0154551
710.793	0.0154737
710.871	0.0154961
710.950	0.0152197
711.028	0.0148850
711.106	0.0147427
711.184	0.0145298
711.262	0.0143311
711.340	0.0140226
711.418	0.0140778
711.496	0.0139044
711.575	0.0138850
711.653	0.0139426
711.731	0.0142014
711.809	0.0141615
711.887	0.0142030
711.965	0.0142355
712.043	0.0143780
712.121	0.0143799
712.200	0.0145082
712.278	0.0144150
712.356	0.0143018
712.434	0.0142383
712.512	0.0142184
712.590	0.0140610
712.668	0.0139220
712.746	0.0136729
712.825	0.0136209
712.903	0.0136374
712.981	0.0136095
713.059	0.0136939
713.137	0.0138009
713.215	0.0140047
713.293	0.0140825
713.371	0.0141869
713.450	0.0145639
713.528	0.0149094
713.606	0.0149349
713.684	0.0150761
713.762	0.0151186
713.840	0.0151868
713.918	0.0152288
713.996	0.0150397
714.075	0.0147164
714.153	0.0147321
714.231	0.0145563
714.309	0.0144613
714.387	0.0142648
714.465	0.0141669
714.543	0.0141716
714.621	0.0140688
714.700	0.0140881
714.778	0.0141818
714.856	0.0143797
714.934	0.0142876
715.012	0.0145131
715.090	0.0145122
715.168	0.0146408
715.246	0.0146339
715.325	0.0146437
715.403	0.0146222
715.481	0.0145231
715.559	0.0143849
715.637	0.0142651
715.715	0.0140036
715.793	0.0139477
715.871	0.0138361
715.950	0.0138834
716.028	0.0138215
716.106	0.0137003
716.184	0.0137211
716.262	0.0137650
716.340	0.0137864
716.418	0.0140089
716.496	0.0141080
716.575	0.0143777
716.653	0.0144941
716.731	0.0146317
716.809	0.0148659
716.887	0.0147164
716.965	0.0148715
717.043	0.0148274
717.121	0.0147964
717.200	0.0146986
717.278	0.0146774
717.356	0.0147146
717.434	0.0146780
717.512	0.0146549
717.590	0.0147571
717.668	0.0144970
717.746	0.0145827
717.825	0.0148206
717.903	0.0145243
717.981	0.0145951
718.059	0.0146668
718.137	0.0147027
718.215	0.0145740
718.293	0.0145206
718.371	0.0143687
718.450	0.0143030
718.528	0.0141580
718.606	0.0141228
718.684	0.0141606
718.762	0.0140979
718.840	0.0140292
718.918	0.0140429
718.996	0.0140405
719.075	0.0141202
719.153	0.0140457
719.231	0.0140878
719.309	0.0138890
719.387	0.0141195
719.465	0.0140897
719.543	0.0141199
719.621	0.0142786
719.700	0.0142891
719.778	0.0143550
719.856	0.0142977
719.934	0.0143296
720.012	0.0142942
720.090	0.0144204
720.168	0.0145146
720.246	0.0143660
720.325	0.0143459
720.403	0.0143401
720.481	0.0143105
720.559	0.0144209
720.637	0.0143790
720.715	0.0144962
720.793	0.0145112
720.871	0.0145512
720.950	0.0147234
721.028	0.0148744
721.106	0.0149097
721.184	0.0148920
721.262	0.0150227
721.340	0.0148329
721.418	0.0147062
721.496	0.0148386
721.575	0.0146434
721.653	0.0145673
721.731	0.0145068
721.809	0.0143632
721.887	0.0144483
721.965	0.0143703
722.043	0.0142328
722.121	0.0142877
722.200	0.0143704
722.278	0.0143143
722.356	0.0143417
722.434	0.0144344
722.512	0.0144429
722.590	0.0143961
722.668	0.0145093
722.746	0.0143092
722.825	0.0142962
722.903	0.0142101
722.981	0.0142179
723.059	0.0142107
723.137	0.0139565
723.215	0.0138540
723.293	0.0139957
723.371	0.0139545
723.450	0.0140242
723.528	0.0140518
723.606	0.0141512
723.684	0.0142960
723.762	0.0144041
723.840	0.0143853
723.918	0.0144186
723.996	0.0144903
724.075	0.0145737
724.153	0.0147113
724.231	0.0145689
724.309	0.0146659
724.387	0.0149573
724.465	0.0150034
724.543	0.0148940
724.621	0.0149210
724.700	0.0147068
724.778	0.0148119
724.856	0.0147352
724.934	0.0148328
725.012	0.0147625
725.090	0.0147198
725.168	0.0146932
725.246	0.0145116
725.325	0.0145182
725.403	0.0146203
725.481	0.0146161
725.559	0.0144564
725.637	0.0145776
725.715	0.0144302
725.793	0.0143943
725.871	0.0142161
725.950	0.0143287
726.028	0.0142616
726.106	0.0142093
726.184	0.0141388
726.262	0.0143449
726.340	0.0142716
726.418	0.0141685
726.496	0.0142348
726.575	0.0141022
726.653	0.0142189
726.731	0.0140585
726.809	0.0140701
726.887	0.0139597
726.965	0.0138728
727.043	0.0140242
727.121	0.0141990
727.200	0.0141222
727.278	0.0141489
727.356	0.0140895
727.434	0.0142412
727.512	0.0142227
727.590	0.0141920
727.668	0.0143588
727.746	0.0145527
727.825	0.0146606
727.903	0.0144494
727.981	0.0143986
728.059	0.0145417
728.137	0.0146729
728.215	0.0147336
728.293	0.0145909
728.371	0.0146181
728.450	0.0145889
728.528	0.0145675
728.606	0.0145869
728.684	0.0146955
728.762	0.0147407
728.840	0.0145943
728.918	0.0146445
728.996	0.0145566
729.075	0.0144328
729.153	0.0147116
729.231	0.0146045
729.309	0.0145995
729.387	0.0145640
729.465	0.0146341
729.543	0.0146616
729.621	0.0145977
729.700	0.0145745
729.778	0.0145756
729.856	0.0145535
729.934	0.0143078
730.012	0.0143547
730.090	0.0143232
730.168	0.0141951
730.246	0.0141354
730.325	0.0141528
730.403	0.0141908
730.481	0.0141875
730.559	0.0141731
730.637	0.0140762
730.715	0.0143015
730.793	0.0142538
730.871	0.0142257
730.950	0.0144039
731.028	0.0144263
731.106	0.0145812
731.184	0.0145300
731.262	0.0146496
731.340	0.0145217
731.418	0.0145364
731.496	0.0146323
731.575	0.0146464
731.653	0.0144554
731.731	0.0145242
731.809	0.0145129
731.887	0.0144253
731.965	0.0143376
732.043	0.0143851
732.121	0.0144676
732.200	0.0144773
732.278	0.0144260
732.356	0.0144512
732.434	0.0143520
732.512	0.0144673
732.590	0.0144727
732.668	0.0143627
732.746	0.0143166
732.825	0.0142972
732.903	0.0143056
732.981	0.0141541
733.059	0.0141802
733.137	0.0143044
733.215	0.0141888
733.293	0.0140860
733.371	0.0141676
733.450	0.0140971
733.528	0.0142163
733.606	0.0143883
733.684	0.0144088
733.762	0.0146640
733.840	0.0146175
733.918	0.0145502
733.996	0.0145979
734.075	0.0147624
734.153	0.0147385
734.231	0.0147820
734.309	0.0148227
734.387	0.0147999
734.465	0.0147282
734.543	0.0145341
734.621	0.0145108
734.700	0.0145741
734.778	0.0145000
734.856	0.0144696
734.934	0.0144056
735.012	0.0143745
735.090	0.0145079
735.168	0.0142948
735.246	0.0144170
735.325	0.0144328
735.403	0.0142989
735.481	0.0141601
735.559	0.0142105
735.637	0.0143677
735.715	0.0142988
735.793	0.0141310
735.871	0.0141106
735.950	0.0140911
736.028	0.0141455
736.106	0.0142502
736.184	0.0140854
736.262	0.0140282
736.340	0.0142183
736.418	0.0141930
736.496	0.0143084
736.575	0.0142548
736.653	0.0143661
736.731	0.0144170
736.809	0.0143983
736.887	0.0142953
736.965	0.0144924
737.043	0.0145243
737.121	0.0147139
737.200	0.0146737
737.278	0.0145544
737.356	0.0146655
737.434	0.0145847
737.512	0.0145627
737.590	0.0145248
737.668	0.0145843
737.746	0.0145856
737.825	0.0146799
737.903	0.0145204
737.981	0.0146046
738.059	0.0147080
738.137	0.0144722
738.215	0.0144670
738.293	0.0145883
738.371	0.0144296
738.450	0.0145435
738.528	0.0144377
738.606	0.0145365
738.684	0.0144463
738.762	0.0143955
738.840	0.0141705
738.918	0.0142568
738.996	0.0143136
739.075	0.0142490
739.153	0.0140149
739.231	0.0142815
739.309	0.0142249
739.387	0.0141630
739.465	0.0141315
739.543	0.0140636
739.621	0.0141518
739.700	0.0141240
739.778	0.0141640
739.856	0.0141805
739.934	0.0141495
740.012	0.0141631
740.090	0.0142353
740.168	0.0141253
740.246	0.0139608
740.325	0.0141909
740.403	0.0142888
740.481	0.0141779
740.559	0.0140585
740.637	0.0143237
740.715	0.0143414
740.793	0.0144254
740.871	0.0145522
740.950	0.0146980
741.028	0.0146147
741.106	0.0144459
741.184	0.0148311
741.262	0.0148766
741.340	0.0149052
741.418	0.0148398
741.496	0.0148364
741.575	0.0147971
741.653	0.0148766
741.731	0.0146651
741.809	0.0145995
741.887	0.0145341
741.965	0.0143842
742.043	0.0144454
742.121	0.0144170
742.200	0.0144061
742.278	0.0142086
742.356	0.0141206
742.434	0.0143191
742.512	0.0142019
742.590	0.0140901
742.668	0.0141599
742.746	0.0142135
742.825	0.0142505
742.903	0.0141836
742.981	0.0143306
743.059	0.0142780
743.137	0.0143593
743.215	0.0141949
743.293	0.0142139
743.371	0.0142296
743.450	0.0142117
743.528	0.0141906
743.606	0.0141167
743.684	0.0141969
743.762	0.0141064
743.840	0.0140889
743.918	0.0141520
743.996	0.0142339
744.075	0.0142181
744.153	0.0142374
744.231	0.0143266
744.309	0.0143846
744.387	0.0144923
744.465	0.0146063
744.543	0.0146980
744.621	0.0146785
744.700	0.0146146
744.778	0.0146963
744.856	0.0148686
744.934	0.0148240
745.012	0.0147009
745.090	0.0148464
745.168	0.0146162
745.246	0.0146447
745.325	0.0146595
745.403	0.0146472
745.481	0.0144455
745.559	0.0144599
745.637	0.0144907
745.715	0.0144250
745.793	0.0143591
745.871	0.0143137
745.950	0.0144546
746.028	0.0143690
746.106	0.0144014
746.184	0.0143607
746.262	0.0141701
746.340	0.0143387
746.418	0.0143150
746.496	0.0141961
746.575	0.0142741
746.653	0.0141711
746.731	0.0141564
746.809	0.0142542
746.887	0.0141236
746.965	0.0142150
747.043	0.0143437
747.121	0.0143626
747.200	0.0143340
747.278	0.0143353
747.356	0.0142728
747.434	0.0142960
747.512	0.0143661
747.590	0.0143758
747.668	0.0143864
747.746	0.0144827
747.825	0.0143402
747.903	0.0143900
747.981	0.0144917
748.059	0.0145345
748.137	0.0143628
748.215	0.0142727
748.293	0.0144913
748.371	0.0143950
748.450	0.0145354
748.528	0.0144727
748.606	0.0145414
748.684	0.0146931
748.762	0.0145888
748.840	0.0145728
748.918	0.0145096
748.996	0.0145303
749.075	0.0145248
749.153	0.0144688
749.231	0.0144226
749.309	0.0143521
749.387	0.0144627
749.465	0.0144141
749.543	0.0143873
749.621	0.0142681
749.700	0.0141029
749.778	0.0141313
749.856	0.0142261
749.934	0.0141200
750.012	0.0141547
750.090	0.0141203
750.168	0.0139302
750.246	0.0141583
750.325	0.0142975
750.403	0.0142824
750.481	0.0142259
750.559	0.0143124
750.637	0.0144273
750.715	0.0145205
750.793	0.0144843
750.871	0.0144272
750.950	0.0144677
751.028	0.0145289
751.106	0.0145893
751.184	0.0146104
751.262	0.0146458
751.340	0.0145261
751.418	0.0143377
751.496	0.0145610
751.575	0.0145106
751.653	0.0145561
751.731	0.0145332
751.809	0.0145298
751.887	0.0144052
751.965	0.0143733
752.043	0.0145758
752.121	0.0146172
752.200	0.0144922
752.278	0.0147488
752.356	0.0146091
752.434	0.0144701
752.512	0.0145235
752.590	0.0142965
752.668	0.0143951
752.746	0.0142874
752.825	0.0143214
752.903	0.0143253
752.981	0.0143179
753.059	0.0143235
753.137	0.0142487
753.215	0.0143668
753.293	0.0141595
753.371	0.0141055
753.450	0.0140659
753.528	0.0142146
753.606	0.0142850
753.684	0.0141483
753.762	0.0142251
753.840	0.0143494
753.918	0.0145020
753.996	0.0142788
754.075	0.0142673
754.153	0.0142751
754.231	0.0143669
754.309	0.0143445
754.387	0.0144035
754.465	0.0143428
754.543	0.0144197
754.621	0.0143528
754.700	0.0144695
754.778	0.0145113
754.856	0.0146453
754.934	0.0145832
755.012	0.0146868
755.090	0.0146864
755.168	0.0147277
755.246	0.0146758
755.325	0.0147836
755.403	0.0146250
755.481	0.0147750
755.559	0.0146763
755.637	0.0146635
755.715	0.0145857
755.793	0.0144918
755.871	0.0145384
755.950	0.0144966
756.028	0.0144569
756.106	0.0144090
756.184	0.0145122
756.262	0.0142825
756.340	0.0142879
756.418	0.0143629
756.496	0.0142480
756.575	0.0141209
756.653	0.0141892
756.731	0.0142615
756.809	0.0142626
756.887	0.0142069
756.965	0.0143010
757.043	0.0142744
757.121	0.0141688
757.200	0.0142900
757.278	0.0143639
757.356	0.0142232
757.434	0.0143534
757.512	0.0141483
757.590	0.0143103
757.668	0.0143566
757.746	0.0143459
757.825	0.0142890
757.903	0.0143931
757.981	0.0144331
758.059	0.0144340
758.137	0.0143671
758.215	0.0144034
758.293	0.0144740
758.371	0.0144563
758.450	0.0144770
758.528	0.0145525
758.606	0.0145384
758.684	0.0146843
758.762	0.0145464
758.840	0.0147671
758.918	0.0146538
758.996	0.0147598
759.075	0.0145823
759.153	0.0144234
759.231	0.0145168
759.309	0.0145371
759.387	0.0145121
759.465	0.0145157
759.543	0.0145544
759.621	0.0145355
759.700	0.0144423
759.778	0.0144456
759.856	0.0144501
759.934	0.0144370
760.012	0.0144447
760.090	0.0144645
760.168	0.0143683
760.246	0.0142764
760.325	0.0142977
760.403	0.0144132
760.481	0.0142296
760.559	0.0141901
760.637	0.0142650
760.715	0.0141830
760.793	0.0142262
760.871	0.0142277
760.950	0.0142096
761.028	0.0142172
761.106	0.0142822
761.184	0.0141373
761.262	0.0142994
761.340	0.0143026
761.418	0.0141642
761.496	0.0143193
761.575	0.0143470
761.653	0.0144051
761.731	0.0142539
761.809	0.0143802
761.887	0.0143648
761.965	0.0144729
762.043	0.0143475
762.121	0.0142667
762.200	0.0143047
762.278	0.0144762
762.356	0.0143846
762.434	0.0142654
762.512	0.0143841
762.590	0.0146226
762.668	0.0145177
762.746	0.0145473
762.825	0.0144152
762.903	0.0146684
762.981	0.0145622
763.059	0.0144267
763.137	0.0144202
763.215	0.0145339
763.293	0.0145567
763.371	0.0145127
763.450	0.0143214
763.528	0.0143040
763.606	0.0142249
763.684	0.0144534
763.762	0.0144386
763.840	0.0144363
763.918	0.0142102
763.996	0.0142167
764.075	0.0140884
764.153	0.0141376
764.231	0.0141351
764.309	0.0142731
764.387	0.0143181
764.465	0.0141539
764.543	0.0142253
764.621	0.0143542
764.700	0.0142531
