05/04/2022	20:48:36	Ver.	4.1	UNKNOWN
Optical Delay	678.996401	Delta X		0.078125	Sweeps	1	Scan Rate	0/0
Coordinates	Axis 1	NaN	Axis 2	NaN	Axis 3	NaN	Axis 4	NaN	Axis 5	NaN	Axis 6	0.000000
TX Power	0.000000	RX Power	0.000000

678.996	0.0139675
679.075	0.0140780
679.153	0.0137727
679.231	0.0139675
679.309	0.0139020
679.387	0.0140076
679.465	0.0139642
679.543	0.0139185
679.621	0.0140108
679.700	0.0139878
679.778	0.0139178
679.856	0.0138820
679.934	0.0139634
680.012	0.0140082
680.090	0.0138615
680.168	0.0138649
680.246	0.0140204
680.325	0.0139142
680.403	0.0139787
680.481	0.0140604
680.559	0.0139836
680.637	0.0139047
680.715	0.0139153
680.793	0.0140157
680.871	0.0138270
680.950	0.0138831
681.028	0.0139636
681.106	0.0140016
681.184	0.0137333
681.262	0.0139681
681.340	0.0140608
681.418	0.0138452
681.496	0.0139085
681.575	0.0139346
681.653	0.0140826
681.731	0.0140703
681.809	0.0139684
681.887	0.0139201
681.965	0.0138908
682.043	0.0139211
682.121	0.0140808
682.200	0.0138592
682.278	0.0139487
682.356	0.0139342
682.434	0.0138393
682.512	0.0139104
682.590	0.0139718
682.668	0.0138881
682.746	0.0139157
682.825	0.0140202
682.903	0.0137791
682.981	0.0138773
683.059	0.0140110
683.137	0.0139157
683.215	0.0139496
683.293	0.0138406
683.371	0.0139086
683.450	0.0140760
683.528	0.0139565
683.606	0.0138021
683.684	0.0139585
683.762	0.0139495
683.840	0.0140258
683.918	0.0139697
683.996	0.0139831
684.075	0.0138608
684.153	0.0140470
684.231	0.0138814
684.309	0.0137280
684.387	0.0139198
684.465	0.0139198
684.543	0.0138960
684.621	0.0139038
684.700	0.0139006
684.778	0.0139555
684.856	0.0139953
684.934	0.0139903
685.012	0.0139013
685.090	0.0138472
685.168	0.0139951
685.246	0.0139632
685.325	0.0140054
685.403	0.0139485
685.481	0.0139349
685.559	0.0137667
685.637	0.0139704
685.715	0.0139771
685.793	0.0138767
685.871	0.0139228
685.950	0.0140262
686.028	0.0140940
686.106	0.0140022
686.184	0.0139404
686.262	0.0137646
686.340	0.0139269
686.418	0.0139056
686.496	0.0139619
686.575	0.0138360
686.653	0.0138196
686.731	0.0138319
686.809	0.0139384
686.887	0.0141539
686.965	0.0139993
687.043	0.0139223
687.121	0.0138217
687.200	0.0140365
687.278	0.0140343
687.356	0.0140088
687.434	0.0139347
687.512	0.0140164
687.590	0.0139867
687.668	0.0139008
687.746	0.0138214
687.825	0.0139304
687.903	0.0139565
687.981	0.0140299
688.059	0.0139457
688.137	0.0140031
688.215	0.0139243
688.293	0.0139645
688.371	0.0140445
688.450	0.0140041
688.528	0.0139021
688.606	0.0139338
688.684	0.0139994
688.762	0.0139893
688.840	0.0139999
688.918	0.0139928
688.996	0.0139514
689.075	0.0138870
689.153	0.0139942
689.231	0.0139351
689.309	0.0138748
689.387	0.0140412
689.465	0.0139989
689.543	0.0139280
689.621	0.0139967
689.700	0.0138963
689.778	0.0138763
689.856	0.0139001
689.934	0.0140654
690.012	0.0140551
690.090	0.0140068
690.168	0.0139889
690.246	0.0139584
690.325	0.0139233
690.403	0.0139660
690.481	0.0139821
690.559	0.0140116
690.637	0.0140746
690.715	0.0141103
690.793	0.0140586
690.871	0.0139104
690.950	0.0139825
691.028	0.0139235
691.106	0.0140042
691.184	0.0139243
691.262	0.0139043
691.340	0.0139038
691.418	0.0138290
691.496	0.0139614
691.575	0.0139697
691.653	0.0140538
691.731	0.0139694
691.809	0.0138267
691.887	0.0139165
691.965	0.0138177
692.043	0.0139096
692.121	0.0140569
692.200	0.0140470
692.278	0.0140028
692.356	0.0140208
692.434	0.0137477
692.512	0.0138710
692.590	0.0139346
692.668	0.0141048
692.746	0.0139676
692.825	0.0138479
692.903	0.0139218
692.981	0.0139078
693.059	0.0138026
693.137	0.0138743
693.215	0.0139552
693.293	0.0138380
693.371	0.0139471
693.450	0.0140120
693.528	0.0139306
693.606	0.0140074
693.684	0.0139330
693.762	0.0139935
693.840	0.0138791
693.918	0.0140615
693.996	0.0140173
694.075	0.0138673
694.153	0.0139013
694.231	0.0139305
694.309	0.0138628
694.387	0.0138880
694.465	0.0138560
694.543	0.0140125
694.621	0.0140592
694.700	0.0139625
694.778	0.0139466
694.856	0.0138943
694.934	0.0139411
695.012	0.0138267
695.090	0.0139623
695.168	0.0138898
695.246	0.0139561
695.325	0.0140322
695.403	0.0139677
695.481	0.0139240
695.559	0.0139075
695.637	0.0139612
695.715	0.0139815
695.793	0.0138565
695.871	0.0138332
695.950	0.0138547
696.028	0.0138824
696.106	0.0140382
696.184	0.0139678
696.262	0.0139410
696.340	0.0138575
696.418	0.0138309
696.496	0.0140221
696.575	0.0139645
696.653	0.0139848
696.731	0.0139825
696.809	0.0139851
696.887	0.0139275
696.965	0.0140110
697.043	0.0140205
697.121	0.0138939
697.200	0.0139113
697.278	0.0139788
697.356	0.0138401
697.434	0.0138866
697.512	0.0139553
697.590	0.0140920
697.668	0.0140302
697.746	0.0139077
697.825	0.0139362
697.903	0.0139886
697.981	0.0139252
698.059	0.0140015
698.137	0.0139044
698.215	0.0140304
698.293	0.0139444
698.371	0.0140072
698.450	0.0139823
698.528	0.0138163
698.606	0.0139591
698.684	0.0139427
698.762	0.0140013
698.840	0.0139108
698.918	0.0139194
698.996	0.0141576
699.075	0.0140588
699.153	0.0138331
699.231	0.0139214
699.309	0.0139414
699.387	0.0139254
699.465	0.0139485
699.543	0.0139895
699.621	0.0140900
699.700	0.0138783
699.778	0.0139017
699.856	0.0140324
699.934	0.0140594
700.012	0.0140334
700.090	0.0138522
700.168	0.0138651
700.246	0.0140323
700.325	0.0140659
700.403	0.0139870
700.481	0.0139818
700.559	0.0138990
700.637	0.0140031
700.715	0.0139994
700.793	0.0138962
700.871	0.0138174
700.950	0.0139404
701.028	0.0140347
701.106	0.0139582
701.184	0.0138522
701.262	0.0140671
701.340	0.0140402
701.418	0.0139520
701.496	0.0140153
701.575	0.0139976
701.653	0.0140800
701.731	0.0140026
701.809	0.0138960
701.887	0.0139046
701.965	0.0140295
702.043	0.0138309
702.121	0.0140291
702.200	0.0140115
702.278	0.0139373
702.356	0.0140034
702.434	0.0139793
702.512	0.0140760
702.590	0.0140091
702.668	0.0141678
702.746	0.0139099
702.825	0.0139052
702.903	0.0140527
702.981	0.0140057
703.059	0.0140057
703.137	0.0138428
703.215	0.0139288
703.293	0.0139976
703.371	0.0138673
703.450	0.0139262
703.528	0.0138238
703.606	0.0140670
703.684	0.0139773
703.762	0.0138518
703.840	0.0139672
703.918	0.0139478
703.996	0.0139658
704.075	0.0141357
704.153	0.0139369
704.231	0.0139007
704.309	0.0139547
704.387	0.0138345
704.465	0.0139619
704.543	0.0139219
704.621	0.0138904
704.700	0.0139261
704.778	0.0140016
704.856	0.0139808
704.934	0.0138228
705.012	0.0138145
705.090	0.0139848
705.168	0.0139467
705.246	0.0139590
705.325	0.0139342
705.403	0.0138873
705.481	0.0138963
705.559	0.0139683
705.637	0.0139537
705.715	0.0138731
705.793	0.0140199
705.871	0.0139339
705.950	0.0140504
706.028	0.0138953
706.106	0.0138702
706.184	0.0138942
706.262	0.0139301
706.340	0.0140201
706.418	0.0139002
706.496	0.0138895
706.575	0.0140207
706.653	0.0139795
706.731	0.0139977
706.809	0.0139707
706.887	0.0140508
706.965	0.0139069
707.043	0.0140338
707.121	0.0139757
707.200	0.0140992
707.278	0.0139674
707.356	0.0137522
707.434	0.0138120
707.512	0.0140471
707.590	0.0140034
707.668	0.0140370
707.746	0.0140569
707.825	0.0139124
707.903	0.0138223
707.981	0.0139295
708.059	0.0140032
708.137	0.0139056
708.215	0.0138162
708.293	0.0138362
708.371	0.0139636
708.450	0.0139561
708.528	0.0137708
708.606	0.0139219
708.684	0.0138936
708.762	0.0138150
708.840	0.0139191
708.918	0.0138931
708.996	0.0139145
709.075	0.0139410
709.153	0.0138562
709.231	0.0140202
709.309	0.0139568
709.387	0.0140299
709.465	0.0139295
709.543	0.0137872
709.621	0.0138847
709.700	0.0140849
709.778	0.0139458
709.856	0.0138875
709.934	0.0139790
710.012	0.0140018
710.090	0.0140107
710.168	0.0139856
710.246	0.0138609
710.325	0.0140318
710.403	0.0139890
710.481	0.0140709
710.559	0.0140087
710.637	0.0139696
710.715	0.0139942
710.793	0.0139252
710.871	0.0139522
710.950	0.0138954
711.028	0.0138821
711.106	0.0139902
711.184	0.0139663
711.262	0.0138769
711.340	0.0140401
711.418	0.0140376
711.496	0.0139877
711.575	0.0141280
711.653	0.0140437
711.731	0.0140295
711.809	0.0140284
711.887	0.0138621
711.965	0.0139122
712.043	0.0140787
712.121	0.0140179
712.200	0.0139146
712.278	0.0139423
712.356	0.0139811
712.434	0.0141621
712.512	0.0142238
712.590	0.0139760
712.668	0.0140449
712.746	0.0141352
712.825	0.0140388
712.903	0.0141051
712.981	0.0140540
713.059	0.0140744
713.137	0.0140333
713.215	0.0141971
713.293	0.0141551
713.371	0.0140909
713.450	0.0141231
713.528	0.0141220
713.606	0.0140146
713.684	0.0140742
713.762	0.0140453
713.840	0.0141281
713.918	0.0140980
713.996	0.0138840
714.075	0.0139265
714.153	0.0140809
714.231	0.0141170
714.309	0.0140911
714.387	0.0141963
714.465	0.0141264
714.543	0.0141262
714.621	0.0140917
714.700	0.0141075
714.778	0.0140908
714.856	0.0139249
714.934	0.0141214
715.012	0.0140511
715.090	0.0139075
715.168	0.0137691
715.246	0.0139668
715.325	0.0137251
715.403	0.0137524
715.481	0.0137254
715.559	0.0136803
715.637	0.0137749
715.715	0.0138541
715.793	0.0139114
715.871	0.0137938
715.950	0.0139251
716.028	0.0141025
716.106	0.0139136
716.184	0.0139163
716.262	0.0139517
716.340	0.0139809
716.418	0.0140590
716.496	0.0140459
716.575	0.0139559
716.653	0.0138639
716.731	0.0140012
716.809	0.0137727
716.887	0.0138358
716.965	0.0137885
717.043	0.0136813
717.121	0.0136973
717.200	0.0136559
717.278	0.0138238
717.356	0.0138256
717.434	0.0139442
717.512	0.0140328
717.590	0.0139653
717.668	0.0139459
717.746	0.0140004
717.825	0.0140041
717.903	0.0139957
717.981	0.0139450
718.059	0.0139734
718.137	0.0139725
718.215	0.0138470
718.293	0.0139806
718.371	0.0136465
718.450	0.0137747
718.528	0.0138097
718.606	0.0138010
718.684	0.0137726
718.762	0.0139242
718.840	0.0140847
718.918	0.0140118
718.996	0.0140041
719.075	0.0142702
719.153	0.0142637
719.231	0.0143073
719.309	0.0142900
719.387	0.0143526
719.465	0.0143294
719.543	0.0142882
719.621	0.0142532
719.700	0.0141781
719.778	0.0140674
719.856	0.0141945
719.934	0.0140466
720.012	0.0139748
720.090	0.0140022
720.168	0.0139079
720.246	0.0138266
720.325	0.0138052
720.403	0.0138934
720.481	0.0138968
720.559	0.0138480
720.637	0.0140105
720.715	0.0139610
720.793	0.0140253
720.871	0.0140213
720.950	0.0140920
721.028	0.0139292
721.106	0.0138287
721.184	0.0138855
721.262	0.0136713
721.340	0.0137745
721.418	0.0138159
721.496	0.0136515
721.575	0.0136742
721.653	0.0136154
721.731	0.0136372
721.809	0.0137169
721.887	0.0138628
721.965	0.0139052
722.043	0.0141096
722.121	0.0139472
722.200	0.0141338
722.278	0.0141862
722.356	0.0140941
722.434	0.0140568
722.512	0.0141196
722.590	0.0142147
722.668	0.0141220
722.746	0.0140799
722.825	0.0141306
722.903	0.0140248
722.981	0.0140752
723.059	0.0140443
723.137	0.0139609
723.215	0.0139538
723.293	0.0139776
723.371	0.0139889
723.450	0.0140088
723.528	0.0138978
723.606	0.0140319
723.684	0.0140418
723.762	0.0140482
723.840	0.0140386
723.918	0.0138863
723.996	0.0141073
724.075	0.0141531
724.153	0.0140505
724.231	0.0140420
724.309	0.0142295
724.387	0.0142076
724.465	0.0141125
724.543	0.0143268
724.621	0.0141499
724.700	0.0141274
724.778	0.0141011
724.856	0.0140359
724.934	0.0140948
725.012	0.0140216
725.090	0.0141347
725.168	0.0141288
725.246	0.0140179
725.325	0.0141093
725.403	0.0139720
725.481	0.0141444
725.559	0.0141521
725.637	0.0140510
725.715	0.0140578
725.793	0.0141521
725.871	0.0141243
725.950	0.0141196
726.028	0.0141384
726.106	0.0141378
726.184	0.0139357
726.262	0.0140048
726.340	0.0139243
726.418	0.0139243
726.496	0.0137908
726.575	0.0137079
726.653	0.0137548
726.731	0.0136882
726.809	0.0136543
726.887	0.0138209
726.965	0.0137798
727.043	0.0136179
727.121	0.0137450
727.200	0.0138352
727.278	0.0138525
727.356	0.0138776
727.434	0.0138737
727.512	0.0140052
727.590	0.0139307
727.668	0.0140172
727.746	0.0141303
727.825	0.0140723
727.903	0.0139835
727.981	0.0140552
728.059	0.0140761
728.137	0.0141837
728.215	0.0142100
728.293	0.0141048
728.371	0.0140723
728.450	0.0140864
728.528	0.0140588
728.606	0.0139671
728.684	0.0138693
728.762	0.0139656
728.840	0.0140864
728.918	0.0138862
728.996	0.0139718
729.075	0.0140456
729.153	0.0138605
729.231	0.0140298
729.309	0.0140649
729.387	0.0140080
729.465	0.0141430
729.543	0.0139881
729.621	0.0141413
729.700	0.0138573
729.778	0.0139500
729.856	0.0142312
729.934	0.0139914
730.012	0.0138385
730.090	0.0139787
730.168	0.0140117
730.246	0.0140600
730.325	0.0139783
730.403	0.0140965
730.481	0.0141371
730.559	0.0141216
730.637	0.0141357
730.715	0.0139240
730.793	0.0140774
730.871	0.0141777
730.950	0.0141177
731.028	0.0140150
731.106	0.0139791
731.184	0.0140356
731.262	0.0140748
731.340	0.0138712
731.418	0.0139568
731.496	0.0138422
731.575	0.0137193
731.653	0.0138598
731.731	0.0139148
731.809	0.0138879
731.887	0.0139846
731.965	0.0138657
732.043	0.0138374
732.121	0.0138561
732.200	0.0136640
732.278	0.0139367
732.356	0.0139200
732.434	0.0139167
732.512	0.0138217
732.590	0.0138254
732.668	0.0138851
732.746	0.0138564
732.825	0.0137395
732.903	0.0138121
732.981	0.0137875
733.059	0.0137882
733.137	0.0136037
733.215	0.0137466
733.293	0.0137186
733.371	0.0136706
733.450	0.0137424
733.528	0.0137278
733.606	0.0139748
733.684	0.0138101
733.762	0.0139471
733.840	0.0139501
733.918	0.0140188
733.996	0.0140031
734.075	0.0140849
734.153	0.0142394
734.231	0.0142395
734.309	0.0142096
734.387	0.0139660
734.465	0.0141836
734.543	0.0142515
734.621	0.0141190
734.700	0.0140453
734.778	0.0140206
734.856	0.0140813
734.934	0.0139610
735.012	0.0140155
735.090	0.0139732
735.168	0.0139466
735.246	0.0141521
735.325	0.0139780
735.403	0.0138821
735.481	0.0139066
735.559	0.0140025
735.637	0.0138680
735.715	0.0139781
735.793	0.0139386
735.871	0.0140818
735.950	0.0141503
736.028	0.0140547
736.106	0.0140957
736.184	0.0141026
736.262	0.0140482
736.340	0.0141327
736.418	0.0141763
736.496	0.0141287
736.575	0.0140887
736.653	0.0140877
736.731	0.0141247
736.809	0.0139534
736.887	0.0140561
736.965	0.0139697
737.043	0.0138992
737.121	0.0139787
737.200	0.0138755
737.278	0.0138526
737.356	0.0138084
737.434	0.0137968
737.512	0.0138100
737.590	0.0138979
737.668	0.0137700
737.746	0.0137313
737.825	0.0138235
737.903	0.0137493
737.981	0.0138842
738.059	0.0140768
738.137	0.0139731
738.215	0.0138860
738.293	0.0139557
738.371	0.0140056
738.450	0.0138992
738.528	0.0138615
738.606	0.0139101
738.684	0.0139439
738.762	0.0140051
738.840	0.0140542
738.918	0.0139154
738.996	0.0138922
739.075	0.0140306
739.153	0.0138473
739.231	0.0139436
739.309	0.0138974
739.387	0.0139243
739.465	0.0139602
739.543	0.0140099
739.621	0.0139581
739.700	0.0140537
739.778	0.0139842
739.856	0.0139540
739.934	0.0138688
740.012	0.0140185
740.090	0.0140836
740.168	0.0141496
740.246	0.0139558
740.325	0.0138995
740.403	0.0140469
740.481	0.0140992
740.559	0.0140555
740.637	0.0141515
740.715	0.0139716
740.793	0.0141900
740.871	0.0140989
740.950	0.0142012
741.028	0.0140804
741.106	0.0139867
741.184	0.0140652
741.262	0.0139121
741.340	0.0139494
741.418	0.0138850
741.496	0.0139024
741.575	0.0139319
741.653	0.0137696
741.731	0.0137543
741.809	0.0137943
741.887	0.0136832
741.965	0.0137174
742.043	0.0137301
742.121	0.0137121
742.200	0.0138152
742.278	0.0138409
742.356	0.0139600
742.434	0.0137709
742.512	0.0139390
742.590	0.0139839
742.668	0.0139200
742.746	0.0139848
742.825	0.0139817
742.903	0.0139423
742.981	0.0140330
743.059	0.0142432
743.137	0.0141019
743.215	0.0140666
743.293	0.0139410
743.371	0.0140597
743.450	0.0140061
743.528	0.0139268
743.606	0.0138517
743.684	0.0140496
743.762	0.0140755
743.840	0.0139546
743.918	0.0140454
743.996	0.0139846
744.075	0.0139851
744.153	0.0140182
744.231	0.0140510
744.309	0.0138442
744.387	0.0138400
744.465	0.0138619
744.543	0.0139214
744.621	0.0140034
744.700	0.0138963
744.778	0.0138689
744.856	0.0139320
744.934	0.0139308
745.012	0.0138457
745.090	0.0138210
745.168	0.0140519
745.246	0.0140276
745.325	0.0140877
745.403	0.0140643
745.481	0.0139523
745.559	0.0139003
745.637	0.0139378
745.715	0.0140136
745.793	0.0139323
745.871	0.0138813
745.950	0.0139048
746.028	0.0140381
746.106	0.0139491
746.184	0.0139252
746.262	0.0140060
746.340	0.0140659
746.418	0.0141647
746.496	0.0140656
746.575	0.0140977
746.653	0.0141503
746.731	0.0142874
746.809	0.0141536
746.887	0.0141763
746.965	0.0140453
747.043	0.0141389
747.121	0.0140716
747.200	0.0140620
747.278	0.0141038
747.356	0.0140376
747.434	0.0140515
747.512	0.0139736
747.590	0.0138884
747.668	0.0140176
747.746	0.0138712
747.825	0.0139082
747.903	0.0138576
747.981	0.0138444
748.059	0.0139392
748.137	0.0139804
748.215	0.0140230
748.293	0.0140306
748.371	0.0139720
748.450	0.0139661
748.528	0.0139305
748.606	0.0140369
748.684	0.0141026
748.762	0.0141533
748.840	0.0140624
748.918	0.0139628
748.996	0.0141386
749.075	0.0141946
749.153	0.0141865
749.231	0.0141593
749.309	0.0140195
749.387	0.0141872
749.465	0.0140985
749.543	0.0140751
749.621	0.0139594
749.700	0.0139826
749.778	0.0140506
749.856	0.0139752
749.934	0.0140079
750.012	0.0140781
750.090	0.0139780
750.168	0.0138916
750.246	0.0138133
750.325	0.0140186
750.403	0.0138219
750.481	0.0138367
750.559	0.0138354
750.637	0.0138786
750.715	0.0138876
750.793	0.0140048
750.871	0.0140411
750.950	0.0140406
751.028	0.0140936
751.106	0.0139763
751.184	0.0140502
751.262	0.0140044
751.340	0.0139549
751.418	0.0139722
751.496	0.0139870
751.575	0.0139638
751.653	0.0139766
751.731	0.0139012
751.809	0.0139430
751.887	0.0139849
751.965	0.0138975
752.043	0.0138284
752.121	0.0137727
752.200	0.0138134
752.278	0.0137971
752.356	0.0138947
752.434	0.0139618
752.512	0.0138501
752.590	0.0137323
752.668	0.0138725
752.746	0.0139384
752.825	0.0139339
752.903	0.0139237
752.981	0.0139603
753.059	0.0139240
753.137	0.0142262
753.215	0.0141388
753.293	0.0141143
753.371	0.0140228
753.450	0.0140705
753.528	0.0140202
753.606	0.0140638
753.684	0.0141006
753.762	0.0140721
753.840	0.0140096
753.918	0.0140778
753.996	0.0139481
754.075	0.0138506
754.153	0.0139776
754.231	0.0140904
754.309	0.0140417
754.387	0.0139565
754.465	0.0140524
754.543	0.0139519
754.621	0.0140704
754.700	0.0139571
754.778	0.0140068
754.856	0.0141479
754.934	0.0140489
755.012	0.0141418
755.090	0.0142068
755.168	0.0140993
755.246	0.0139056
755.325	0.0140267
755.403	0.0140775
755.481	0.0139085
755.559	0.0139876
755.637	0.0139960
755.715	0.0139803
755.793	0.0139667
755.871	0.0140406
755.950	0.0141057
756.028	0.0140910
756.106	0.0139001
756.184	0.0139351
756.262	0.0137318
756.340	0.0138648
756.418	0.0139719
756.496	0.0139736
756.575	0.0139283
756.653	0.0138729
756.731	0.0138705
756.809	0.0140163
756.887	0.0139214
756.965	0.0139172
757.043	0.0139886
757.121	0.0138273
757.200	0.0139035
757.278	0.0138201
757.356	0.0138030
757.434	0.0138893
757.512	0.0138786
757.590	0.0139147
757.668	0.0138946
757.746	0.0138555
757.825	0.0140898
757.903	0.0140437
757.981	0.0139212
758.059	0.0140681
758.137	0.0140471
758.215	0.0141141
758.293	0.0140936
758.371	0.0140205
758.450	0.0141605
758.528	0.0140749
758.606	0.0140649
758.684	0.0140962
758.762	0.0140117
758.840	0.0139051
758.918	0.0140641
758.996	0.0141781
759.075	0.0140995
759.153	0.0141962
759.231	0.0139482
759.309	0.0138732
759.387	0.0139543
759.465	0.0139877
759.543	0.0140923
759.621	0.0139744
759.700	0.0138126
759.778	0.0140742
759.856	0.0139972
759.934	0.0139686
760.012	0.0138831
760.090	0.0139987
760.168	0.0139162
760.246	0.0140797
760.325	0.0140222
760.403	0.0140643
760.481	0.0141462
760.559	0.0139590
760.637	0.0139963
760.715	0.0139404
760.793	0.0140813
760.871	0.0140226
760.950	0.0140984
761.028	0.0139401
761.106	0.0139182
761.184	0.0139782
761.262	0.0139719
761.340	0.0140032
761.418	0.0140145
761.496	0.0137981
761.575	0.0137166
761.653	0.0137486
761.731	0.0138014
761.809	0.0138127
761.887	0.0137242
761.965	0.0138546
762.043	0.0139379
762.121	0.0138103
762.200	0.0138795
762.278	0.0138544
762.356	0.0138868
762.434	0.0138264
762.512	0.0140667
762.590	0.0139651
762.668	0.0139611
762.746	0.0139403
762.825	0.0140067
762.903	0.0139848
762.981	0.0139027
763.059	0.0141611
763.137	0.0139796
763.215	0.0139333
763.293	0.0141064
763.371	0.0139980
763.450	0.0141066
763.528	0.0141308
763.606	0.0139182
763.684	0.0140051
763.762	0.0139773
763.840	0.0139639
763.918	0.0138828
763.996	0.0138811
764.075	0.0139753
764.153	0.0139452
764.231	0.0138572
764.309	0.0139594
764.387	0.0139831
764.465	0.0140401
764.543	0.0139857
764.621	0.0139260
764.700	0.0141177
