05/04/2022	21:17:28	Ver.	4.1	UNKNOWN
Optical Delay	678.996401	Delta X		0.078125	Sweeps	1	Scan Rate	0/0
Coordinates	Axis 1	NaN	Axis 2	NaN	Axis 3	NaN	Axis 4	NaN	Axis 5	NaN	Axis 6	0.000000
TX Power	0.000000	RX Power	0.000000

678.996	0.0147075
679.075	0.0145366
679.153	0.0145316
679.231	0.0145081
679.309	0.0146525
679.387	0.0146123
679.465	0.0146268
679.543	0.0146220
679.621	0.0146957
679.700	0.0145341
679.778	0.0146915
679.856	0.0147192
679.934	0.0147601
680.012	0.0150014
680.090	0.0148790
680.168	0.0149591
680.246	0.0149288
680.325	0.0149580
680.403	0.0149715
680.481	0.0149562
680.559	0.0148834
680.637	0.0148598
680.715	0.0149039
680.793	0.0146767
680.871	0.0146562
680.950	0.0146962
681.028	0.0146090
681.106	0.0146859
681.184	0.0145715
681.262	0.0146634
681.340	0.0145791
681.418	0.0145477
681.496	0.0146342
681.575	0.0145526
681.653	0.0146099
681.731	0.0145397
681.809	0.0145654
681.887	0.0144318
681.965	0.0145608
682.043	0.0147285
682.121	0.0147489
682.200	0.0148862
682.278	0.0147686
682.356	0.0146770
682.434	0.0147312
682.512	0.0147237
682.590	0.0149290
682.668	0.0148679
682.746	0.0148266
682.825	0.0147505
682.903	0.0147640
682.981	0.0148453
683.059	0.0149298
683.137	0.0146886
683.215	0.0147139
683.293	0.0147247
683.371	0.0147320
683.450	0.0146052
683.528	0.0145518
683.606	0.0146628
683.684	0.0144991
683.762	0.0147539
683.840	0.0145501
683.918	0.0147008
683.996	0.0145632
684.075	0.0145941
684.153	0.0146212
684.231	0.0145287
684.309	0.0146498
684.387	0.0146181
684.465	0.0147003
684.543	0.0147198
684.621	0.0147392
684.700	0.0147141
684.778	0.0147150
684.856	0.0146563
684.934	0.0146475
685.012	0.0147952
685.090	0.0145525
685.168	0.0146960
685.246	0.0147086
685.325	0.0147809
685.403	0.0146543
685.481	0.0147879
685.559	0.0148331
685.637	0.0148347
685.715	0.0148315
685.793	0.0149265
685.871	0.0149745
685.950	0.0148357
686.028	0.0149400
686.106	0.0149618
686.184	0.0148652
686.262	0.0147894
686.340	0.0146542
686.418	0.0148115
686.496	0.0148389
686.575	0.0146638
686.653	0.0145515
686.731	0.0145712
686.809	0.0146387
686.887	0.0144254
686.965	0.0145180
687.043	0.0145474
687.121	0.0145572
687.200	0.0146094
687.278	0.0145381
687.356	0.0147253
687.434	0.0148744
687.512	0.0146915
687.590	0.0147381
687.668	0.0146896
687.746	0.0148270
687.825	0.0148196
687.903	0.0147958
687.981	0.0149043
688.059	0.0149061
688.137	0.0148409
688.215	0.0148906
688.293	0.0147817
688.371	0.0148066
688.450	0.0149319
688.528	0.0148016
688.606	0.0147880
688.684	0.0148884
688.762	0.0147256
688.840	0.0145567
688.918	0.0146521
688.996	0.0145408
689.075	0.0145592
689.153	0.0146980
689.231	0.0145392
689.309	0.0145299
689.387	0.0147009
689.465	0.0148264
689.543	0.0145203
689.621	0.0145588
689.700	0.0146444
689.778	0.0145264
689.856	0.0146838
689.934	0.0148728
690.012	0.0147388
690.090	0.0148053
690.168	0.0147634
690.246	0.0149496
690.325	0.0148022
690.403	0.0148097
690.481	0.0146468
690.559	0.0148945
690.637	0.0147871
690.715	0.0146973
690.793	0.0146911
690.871	0.0147428
690.950	0.0146433
691.028	0.0145706
691.106	0.0146129
691.184	0.0145905
691.262	0.0145367
691.340	0.0146591
691.418	0.0146257
691.496	0.0147368
691.575	0.0147469
691.653	0.0145943
691.731	0.0147619
691.809	0.0148142
691.887	0.0147404
691.965	0.0147620
692.043	0.0147730
692.121	0.0147931
692.200	0.0149899
692.278	0.0149124
692.356	0.0147285
692.434	0.0147077
692.512	0.0148032
692.590	0.0147839
692.668	0.0148324
692.746	0.0147905
692.825	0.0147084
692.903	0.0147056
692.981	0.0147021
693.059	0.0146840
693.137	0.0146990
693.215	0.0146609
693.293	0.0146915
693.371	0.0146297
693.450	0.0146059
693.528	0.0144406
693.606	0.0147009
693.684	0.0146463
693.762	0.0146111
693.840	0.0146665
693.918	0.0147252
693.996	0.0147025
694.075	0.0146362
694.153	0.0146903
694.231	0.0145599
694.309	0.0147541
694.387	0.0147904
694.465	0.0147352
694.543	0.0147073
694.621	0.0147089
694.700	0.0148897
694.778	0.0149181
694.856	0.0148566
694.934	0.0147803
695.012	0.0148846
695.090	0.0147053
695.168	0.0147407
695.246	0.0147803
695.325	0.0148058
695.403	0.0147220
695.481	0.0145312
695.559	0.0145265
695.637	0.0144400
695.715	0.0145921
695.793	0.0145995
695.871	0.0145403
695.950	0.0147772
696.028	0.0146661
696.106	0.0147397
696.184	0.0147619
696.262	0.0146418
696.340	0.0146280
696.418	0.0145839
696.496	0.0145962
696.575	0.0146056
696.653	0.0145122
696.731	0.0147255
696.809	0.0147167
696.887	0.0148913
696.965	0.0148678
697.043	0.0148298
697.121	0.0147952
697.200	0.0147356
697.278	0.0146927
697.356	0.0144525
697.434	0.0143743
697.512	0.0145405
697.590	0.0145064
697.668	0.0144084
697.746	0.0143955
697.825	0.0146967
697.903	0.0146935
697.981	0.0147717
698.059	0.0149546
698.137	0.0148112
698.215	0.0147862
698.293	0.0148898
698.371	0.0147797
698.450	0.0146809
698.528	0.0146080
698.606	0.0145582
698.684	0.0146596
698.762	0.0145942
698.840	0.0148063
698.918	0.0147951
698.996	0.0146973
699.075	0.0147683
699.153	0.0146862
699.231	0.0145512
699.309	0.0145992
699.387	0.0145818
699.465	0.0146944
699.543	0.0145360
699.621	0.0147510
699.700	0.0147066
699.778	0.0148679
699.856	0.0148801
699.934	0.0149888
700.012	0.0147417
700.090	0.0147820
700.168	0.0148002
700.246	0.0147245
700.325	0.0144868
700.403	0.0142993
700.481	0.0144897
700.559	0.0142619
700.637	0.0142670
700.715	0.0143388
700.793	0.0144382
700.871	0.0145605
700.950	0.0147430
701.028	0.0149019
701.106	0.0149231
701.184	0.0151102
701.262	0.0151381
701.340	0.0151495
701.418	0.0152124
701.496	0.0151918
701.575	0.0151508
701.653	0.0150458
701.731	0.0149629
701.809	0.0148509
701.887	0.0145261
701.965	0.0143294
702.043	0.0142601
702.121	0.0140709
702.200	0.0138435
702.278	0.0140521
702.356	0.0141768
702.434	0.0142330
702.512	0.0145158
702.590	0.0147198
702.668	0.0150101
702.746	0.0152380
702.825	0.0152194
702.903	0.0151657
702.981	0.0154147
703.059	0.0155145
703.137	0.0151503
703.215	0.0148919
703.293	0.0148347
703.371	0.0146291
703.450	0.0143000
703.528	0.0141199
703.606	0.0138935
703.684	0.0138919
703.762	0.0138284
703.840	0.0140375
703.918	0.0143098
703.996	0.0145292
704.075	0.0146931
704.153	0.0149326
704.231	0.0151306
704.309	0.0150803
704.387	0.0153245
704.465	0.0153663
704.543	0.0152939
704.621	0.0154608
704.700	0.0155506
704.778	0.0152119
704.856	0.0150159
704.934	0.0147298
705.012	0.0142872
705.090	0.0139333
705.168	0.0137354
705.246	0.0134718
705.325	0.0132872
705.403	0.0134563
705.481	0.0136997
705.559	0.0139925
705.637	0.0143539
705.715	0.0148174
705.793	0.0152325
705.871	0.0154804
705.950	0.0156460
706.028	0.0156373
706.106	0.0154913
706.184	0.0153774
706.262	0.0153520
706.340	0.0151230
706.418	0.0147427
706.496	0.0145408
706.575	0.0142860
706.653	0.0140971
706.731	0.0142577
706.809	0.0142235
706.887	0.0142855
706.965	0.0143819
707.043	0.0144260
707.121	0.0147408
707.200	0.0150901
707.278	0.0151517
707.356	0.0152884
707.434	0.0154901
707.512	0.0154585
707.590	0.0155582
707.668	0.0155396
707.746	0.0152967
707.825	0.0151376
707.903	0.0151175
707.981	0.0149465
708.059	0.0146037
708.137	0.0142527
708.215	0.0141671
708.293	0.0140038
708.371	0.0139246
708.450	0.0139503
708.528	0.0140437
708.606	0.0139833
708.684	0.0141253
708.762	0.0143099
708.840	0.0145580
708.918	0.0145971
708.996	0.0148874
709.075	0.0149526
709.153	0.0151496
709.231	0.0150873
709.309	0.0152204
709.387	0.0151575
709.465	0.0150050
709.543	0.0150371
709.621	0.0148275
709.700	0.0147823
709.778	0.0146585
709.856	0.0145188
709.934	0.0144270
710.012	0.0145340
710.090	0.0146117
710.168	0.0147234
710.246	0.0148424
710.325	0.0147491
710.403	0.0147907
710.481	0.0148047
710.559	0.0148603
710.637	0.0148070
710.715	0.0148579
710.793	0.0149245
710.871	0.0149448
710.950	0.0149130
711.028	0.0148917
711.106	0.0150054
711.184	0.0148578
711.262	0.0149519
711.340	0.0147552
711.418	0.0147716
711.496	0.0145745
711.575	0.0146290
711.653	0.0145414
711.731	0.0144212
711.809	0.0143845
711.887	0.0143680
711.965	0.0142386
712.043	0.0143609
712.121	0.0144273
712.200	0.0144268
712.278	0.0146152
712.356	0.0145670
712.434	0.0145963
712.512	0.0145187
712.590	0.0145844
712.668	0.0145267
712.746	0.0147071
712.825	0.0147438
712.903	0.0146015
712.981	0.0146888
713.059	0.0145934
713.137	0.0146520
713.215	0.0146686
713.293	0.0144802
713.371	0.0142882
713.450	0.0143666
713.528	0.0142314
713.606	0.0143571
713.684	0.0144106
713.762	0.0144703
713.840	0.0148318
713.918	0.0150570
713.996	0.0152082
714.075	0.0153402
714.153	0.0155546
714.231	0.0157021
714.309	0.0158553
714.387	0.0158322
714.465	0.0156029
714.543	0.0156210
714.621	0.0153993
714.700	0.0151727
714.778	0.0150250
714.856	0.0146564
714.934	0.0143982
715.012	0.0141056
715.090	0.0138982
715.168	0.0137406
715.246	0.0137543
715.325	0.0137550
715.403	0.0138686
715.481	0.0139530
715.559	0.0142276
715.637	0.0142406
715.715	0.0145013
715.793	0.0146913
715.871	0.0146624
715.950	0.0146896
716.028	0.0149054
716.106	0.0150749
716.184	0.0150537
716.262	0.0149117
716.340	0.0150539
716.418	0.0149574
716.496	0.0149029
716.575	0.0148040
716.653	0.0148229
716.731	0.0145999
716.809	0.0146007
716.887	0.0144911
716.965	0.0144923
717.043	0.0144118
717.121	0.0144835
717.200	0.0143506
717.278	0.0143266
717.356	0.0143469
717.434	0.0145346
717.512	0.0145753
717.590	0.0147084
717.668	0.0148383
717.746	0.0149995
717.825	0.0151020
717.903	0.0152348
717.981	0.0152415
718.059	0.0153454
718.137	0.0153667
718.215	0.0154432
718.293	0.0152961
718.371	0.0152074
718.450	0.0151170
718.528	0.0148804
718.606	0.0146145
718.684	0.0144662
718.762	0.0144847
718.840	0.0144823
718.918	0.0142562
718.996	0.0142228
719.075	0.0142300
719.153	0.0142341
719.231	0.0143636
719.309	0.0142897
719.387	0.0144531
719.465	0.0143958
719.543	0.0144917
719.621	0.0148434
719.700	0.0148364
719.778	0.0149540
719.856	0.0148907
719.934	0.0148543
720.012	0.0147108
720.090	0.0147584
720.168	0.0146494
720.246	0.0144802
720.325	0.0145142
720.403	0.0144090
720.481	0.0144088
720.559	0.0144792
720.637	0.0146461
720.715	0.0146247
720.793	0.0145428
720.871	0.0146367
720.950	0.0146811
721.028	0.0147653
721.106	0.0148650
721.184	0.0148205
721.262	0.0147600
721.340	0.0148521
721.418	0.0150774
721.496	0.0152421
721.575	0.0151456
721.653	0.0150906
721.731	0.0153352
721.809	0.0153355
721.887	0.0152776
721.965	0.0150555
722.043	0.0151010
722.121	0.0150100
722.200	0.0148363
722.278	0.0147720
722.356	0.0145598
722.434	0.0145129
722.512	0.0143925
722.590	0.0143938
722.668	0.0145029
722.746	0.0145358
722.825	0.0144321
722.903	0.0143726
722.981	0.0145512
723.059	0.0143771
723.137	0.0143474
723.215	0.0144919
723.293	0.0144199
723.371	0.0147302
723.450	0.0146439
723.528	0.0146369
723.606	0.0146999
723.684	0.0146014
723.762	0.0146273
723.840	0.0147063
723.918	0.0146500
723.996	0.0146619
724.075	0.0148269
724.153	0.0147471
724.231	0.0150575
724.309	0.0149883
724.387	0.0149831
724.465	0.0152326
724.543	0.0152208
724.621	0.0151154
724.700	0.0150323
724.778	0.0150124
724.856	0.0149765
724.934	0.0149931
725.012	0.0148211
725.090	0.0145860
725.168	0.0146424
725.246	0.0146652
725.325	0.0145914
725.403	0.0145609
725.481	0.0144701
725.559	0.0144683
725.637	0.0145428
725.715	0.0146429
725.793	0.0146011
725.871	0.0147395
725.950	0.0147102
726.028	0.0148000
726.106	0.0149596
726.184	0.0150140
726.262	0.0149088
726.340	0.0148622
726.418	0.0149848
726.496	0.0148461
726.575	0.0147158
726.653	0.0146070
726.731	0.0145453
726.809	0.0145840
726.887	0.0145333
726.965	0.0143874
727.043	0.0144392
727.121	0.0142574
727.200	0.0141508
727.278	0.0141962
727.356	0.0142821
727.434	0.0144154
727.512	0.0145805
727.590	0.0146879
727.668	0.0146751
727.746	0.0149062
727.825	0.0148862
727.903	0.0149512
727.981	0.0150237
728.059	0.0149625
728.137	0.0149001
728.215	0.0151135
728.293	0.0150241
728.371	0.0149026
728.450	0.0149527
728.528	0.0149498
728.606	0.0149401
728.684	0.0151006
728.762	0.0149779
728.840	0.0150017
728.918	0.0149787
728.996	0.0149293
729.075	0.0149807
729.153	0.0148067
729.231	0.0147387
729.309	0.0147248
729.387	0.0146769
729.465	0.0145173
729.543	0.0144355
729.621	0.0142865
729.700	0.0141843
729.778	0.0142544
729.856	0.0143111
729.934	0.0143053
730.012	0.0143655
730.090	0.0144984
730.168	0.0146504
730.246	0.0146722
730.325	0.0148914
730.403	0.0149753
730.481	0.0149648
730.559	0.0149837
730.637	0.0149236
730.715	0.0149342
730.793	0.0150352
730.871	0.0150645
730.950	0.0150999
731.028	0.0149857
731.106	0.0148200
731.184	0.0150211
731.262	0.0148489
731.340	0.0148820
731.418	0.0148337
731.496	0.0146921
731.575	0.0148131
731.653	0.0147195
731.731	0.0146518
731.809	0.0146806
731.887	0.0147649
731.965	0.0146946
732.043	0.0148048
732.121	0.0147209
732.200	0.0146976
732.278	0.0147424
732.356	0.0146843
732.434	0.0144941
732.512	0.0145094
732.590	0.0145343
732.668	0.0144980
732.746	0.0144598
732.825	0.0145027
732.903	0.0145737
732.981	0.0145100
733.059	0.0146546
733.137	0.0146618
733.215	0.0147109
733.293	0.0147545
733.371	0.0147006
733.450	0.0149342
733.528	0.0148986
733.606	0.0147166
733.684	0.0147801
733.762	0.0147571
733.840	0.0147021
733.918	0.0147018
733.996	0.0144990
734.075	0.0145612
734.153	0.0144066
734.231	0.0143130
734.309	0.0144601
734.387	0.0145379
734.465	0.0144994
734.543	0.0145425
734.621	0.0146933
734.700	0.0149684
734.778	0.0148216
734.856	0.0149331
734.934	0.0150796
735.012	0.0151524
735.090	0.0153193
735.168	0.0151322
735.246	0.0153118
735.325	0.0153329
735.403	0.0152628
735.481	0.0151537
735.559	0.0150144
735.637	0.0149011
735.715	0.0148775
735.793	0.0147755
735.871	0.0147276
735.950	0.0145356
736.028	0.0143150
736.106	0.0143181
736.184	0.0143027
736.262	0.0142870
736.340	0.0144009
736.418	0.0144693
736.496	0.0144736
736.575	0.0144759
736.653	0.0145580
736.731	0.0144666
736.809	0.0145326
736.887	0.0146156
736.965	0.0145140
737.043	0.0145888
737.121	0.0146011
737.200	0.0146148
737.278	0.0144643
737.356	0.0144556
737.434	0.0144392
737.512	0.0145004
737.590	0.0145219
737.668	0.0144785
737.746	0.0145897
737.825	0.0146023
737.903	0.0148573
737.981	0.0146694
738.059	0.0148356
738.137	0.0148920
738.215	0.0151419
738.293	0.0149726
738.371	0.0149556
738.450	0.0152110
738.528	0.0149696
738.606	0.0149765
738.684	0.0151447
738.762	0.0150597
738.840	0.0148429
738.918	0.0148707
738.996	0.0147585
739.075	0.0147424
739.153	0.0148328
739.231	0.0145997
739.309	0.0145296
739.387	0.0145747
739.465	0.0146107
739.543	0.0145456
739.621	0.0145058
739.700	0.0146706
739.778	0.0146690
739.856	0.0145816
739.934	0.0146190
740.012	0.0147585
740.090	0.0147834
740.168	0.0145876
740.246	0.0146359
740.325	0.0144685
740.403	0.0146636
740.481	0.0145526
740.559	0.0145244
740.637	0.0146619
740.715	0.0145023
740.793	0.0145942
740.871	0.0145553
740.950	0.0145149
741.028	0.0144301
741.106	0.0145061
741.184	0.0145022
741.262	0.0145989
741.340	0.0144849
741.418	0.0145585
741.496	0.0144691
741.575	0.0145623
741.653	0.0145666
741.731	0.0144645
741.809	0.0144384
741.887	0.0145517
741.965	0.0146086
742.043	0.0147057
742.121	0.0147137
742.200	0.0147311
742.278	0.0146993
742.356	0.0149471
742.434	0.0150343
742.512	0.0150384
742.590	0.0150083
742.668	0.0152206
742.746	0.0152020
742.825	0.0151140
742.903	0.0151866
742.981	0.0153065
743.059	0.0151401
743.137	0.0150907
743.215	0.0149999
743.293	0.0149879
743.371	0.0149529
743.450	0.0148759
743.528	0.0146091
743.606	0.0145055
743.684	0.0143959
743.762	0.0145323
743.840	0.0144897
743.918	0.0144828
743.996	0.0145039
744.075	0.0146605
744.153	0.0146893
744.231	0.0146276
744.309	0.0144553
744.387	0.0145815
744.465	0.0146349
744.543	0.0146457
744.621	0.0147412
744.700	0.0146004
744.778	0.0145730
744.856	0.0146407
744.934	0.0145122
745.012	0.0146299
745.090	0.0146918
745.168	0.0146637
745.246	0.0147404
745.325	0.0146033
745.403	0.0145347
745.481	0.0147149
745.559	0.0145834
745.637	0.0145830
745.715	0.0148026
745.793	0.0148349
745.871	0.0147797
745.950	0.0148499
746.028	0.0148244
746.106	0.0147692
746.184	0.0147614
746.262	0.0148585
746.340	0.0147476
746.418	0.0146923
746.496	0.0147515
746.575	0.0147653
746.653	0.0147112
746.731	0.0146623
746.809	0.0147135
746.887	0.0147164
746.965	0.0146897
747.043	0.0145867
747.121	0.0146391
747.200	0.0148372
747.278	0.0146784
747.356	0.0147401
747.434	0.0146872
747.512	0.0148744
747.590	0.0148065
747.668	0.0147570
747.746	0.0146773
747.825	0.0148929
747.903	0.0148539
747.981	0.0148624
748.059	0.0147455
748.137	0.0148499
748.215	0.0146337
748.293	0.0147651
748.371	0.0146329
748.450	0.0147494
748.528	0.0146924
748.606	0.0147590
748.684	0.0148186
748.762	0.0148164
748.840	0.0146267
748.918	0.0147537
748.996	0.0148231
749.075	0.0147496
749.153	0.0147124
749.231	0.0146912
749.309	0.0145760
749.387	0.0146706
749.465	0.0146851
749.543	0.0146198
749.621	0.0145816
749.700	0.0146579
749.778	0.0145084
749.856	0.0145239
749.934	0.0146707
750.012	0.0145776
750.090	0.0146690
750.168	0.0148773
750.246	0.0149966
750.325	0.0147943
750.403	0.0149181
750.481	0.0148603
750.559	0.0148682
750.637	0.0149256
750.715	0.0150046
750.793	0.0148714
750.871	0.0149397
750.950	0.0148102
751.028	0.0147781
751.106	0.0147710
751.184	0.0146152
751.262	0.0146431
751.340	0.0147134
751.418	0.0147012
751.496	0.0146376
751.575	0.0146107
751.653	0.0146520
751.731	0.0145369
751.809	0.0145928
751.887	0.0146898
751.965	0.0147144
752.043	0.0148530
752.121	0.0148075
752.200	0.0147467
752.278	0.0150407
752.356	0.0148306
752.434	0.0147194
752.512	0.0148129
752.590	0.0148927
752.668	0.0148657
752.746	0.0148479
752.825	0.0147773
752.903	0.0147484
752.981	0.0146999
753.059	0.0148405
753.137	0.0147318
753.215	0.0148678
753.293	0.0145338
753.371	0.0145921
753.450	0.0147998
753.528	0.0147434
753.606	0.0145021
753.684	0.0145779
753.762	0.0147018
753.840	0.0146036
753.918	0.0145070
753.996	0.0145014
754.075	0.0146194
754.153	0.0145026
754.231	0.0145820
754.309	0.0144946
754.387	0.0146928
754.465	0.0146933
754.543	0.0146105
754.621	0.0145306
754.700	0.0147713
754.778	0.0147911
754.856	0.0148338
754.934	0.0148295
755.012	0.0148003
755.090	0.0148569
755.168	0.0147678
755.246	0.0147998
755.325	0.0149865
755.403	0.0147974
755.481	0.0146241
755.559	0.0147424
755.637	0.0147663
755.715	0.0146014
755.793	0.0146325
755.871	0.0148207
755.950	0.0147231
756.028	0.0146262
756.106	0.0145354
756.184	0.0145835
756.262	0.0146368
756.340	0.0145889
756.418	0.0148577
756.496	0.0147583
756.575	0.0146552
756.653	0.0147326
756.731	0.0148173
756.809	0.0146584
756.887	0.0147135
756.965	0.0146513
757.043	0.0146317
757.121	0.0147222
757.200	0.0146752
757.278	0.0146908
757.356	0.0147211
757.434	0.0145633
757.512	0.0144920
757.590	0.0144588
757.668	0.0146046
757.746	0.0146506
757.825	0.0144196
757.903	0.0145601
757.981	0.0146819
758.059	0.0146386
758.137	0.0145863
758.215	0.0146931
758.293	0.0147274
758.371	0.0147752
758.450	0.0148452
758.528	0.0147712
758.606	0.0147863
758.684	0.0146446
758.762	0.0146887
758.840	0.0147055
758.918	0.0146236
758.996	0.0148235
759.075	0.0145608
759.153	0.0145205
759.231	0.0146408
759.309	0.0148171
759.387	0.0146961
759.465	0.0146456
759.543	0.0146968
759.621	0.0145158
759.700	0.0145765
759.778	0.0146775
759.856	0.0146394
759.934	0.0148042
760.012	0.0148085
760.090	0.0145534
760.168	0.0148107
760.246	0.0148769
760.325	0.0147591
760.403	0.0148333
760.481	0.0148174
760.559	0.0148310
760.637	0.0148177
760.715	0.0147076
760.793	0.0146862
760.871	0.0146534
760.950	0.0147623
761.028	0.0147953
761.106	0.0146440
761.184	0.0146370
761.262	0.0146896
761.340	0.0146015
761.418	0.0145057
761.496	0.0146255
761.575	0.0146160
761.653	0.0145019
761.731	0.0145467
761.809	0.0146645
761.887	0.0145934
761.965	0.0144884
762.043	0.0146057
762.121	0.0144629
762.200	0.0144673
762.278	0.0146007
762.356	0.0146823
762.434	0.0148209
762.512	0.0147763
762.590	0.0147272
762.668	0.0147813
762.746	0.0148013
762.825	0.0148099
762.903	0.0146394
762.981	0.0148933
763.059	0.0148913
763.137	0.0148064
763.215	0.0147846
763.293	0.0147830
763.371	0.0148685
763.450	0.0148534
763.528	0.0147522
763.606	0.0147469
763.684	0.0148956
763.762	0.0147529
763.840	0.0148191
763.918	0.0148046
763.996	0.0147333
764.075	0.0147214
764.153	0.0148898
764.231	0.0147647
764.309	0.0146571
764.387	0.0147932
764.465	0.0148162
764.543	0.0145628
764.621	0.0145129
764.700	0.0146627
