05/04/2022	21:17:48	Ver.	4.1	UNKNOWN
Optical Delay	678.996401	Delta X		0.078125	Sweeps	1	Scan Rate	0/0
Coordinates	Axis 1	NaN	Axis 2	NaN	Axis 3	NaN	Axis 4	NaN	Axis 5	NaN	Axis 6	0.000000
TX Power	0.000000	RX Power	0.000000

678.996	0.0140891
679.075	0.0141437
679.153	0.0142233
679.231	0.0141539
679.309	0.0143053
679.387	0.0143110
679.465	0.0141929
679.543	0.0142910
679.621	0.0143553
679.700	0.0144149
679.778	0.0142647
679.856	0.0142381
679.934	0.0142732
680.012	0.0142971
680.090	0.0141061
680.168	0.0141211
680.246	0.0141828
680.325	0.0139561
680.403	0.0141518
680.481	0.0138223
680.559	0.0139439
680.637	0.0140578
680.715	0.0140553
680.793	0.0138268
680.871	0.0139047
680.950	0.0139539
681.028	0.0139554
681.106	0.0140070
681.184	0.0139921
681.262	0.0141409
681.340	0.0141547
681.418	0.0142347
681.496	0.0139996
681.575	0.0140947
681.653	0.0142384
681.731	0.0143446
681.809	0.0142881
681.887	0.0143005
681.965	0.0143294
682.043	0.0143597
682.121	0.0143172
682.200	0.0143563
682.278	0.0142533
682.356	0.0142028
682.434	0.0140380
682.512	0.0140349
682.590	0.0140361
682.668	0.0141631
682.746	0.0140730
682.825	0.0140222
682.903	0.0139813
682.981	0.0140596
683.059	0.0139706
683.137	0.0140757
683.215	0.0139793
683.293	0.0140746
683.371	0.0140059
683.450	0.0140209
683.528	0.0139690
683.606	0.0141882
683.684	0.0142696
683.762	0.0141717
683.840	0.0141441
683.918	0.0142099
683.996	0.0142081
684.075	0.0139802
684.153	0.0140533
684.231	0.0140791
684.309	0.0140498
684.387	0.0141789
684.465	0.0141794
684.543	0.0141788
684.621	0.0139346
684.700	0.0141467
684.778	0.0142628
684.856	0.0143114
684.934	0.0142309
685.012	0.0144058
685.090	0.0143696
685.168	0.0143549
685.246	0.0144229
685.325	0.0144531
685.403	0.0143865
685.481	0.0141482
685.559	0.0142972
685.637	0.0141753
685.715	0.0141064
685.793	0.0140685
685.871	0.0140791
685.950	0.0140502
686.028	0.0138065
686.106	0.0140153
686.184	0.0139960
686.262	0.0138506
686.340	0.0139016
686.418	0.0139256
686.496	0.0139816
686.575	0.0140582
686.653	0.0139394
686.731	0.0140855
686.809	0.0142072
686.887	0.0142216
686.965	0.0141801
687.043	0.0142883
687.121	0.0142725
687.200	0.0141100
687.278	0.0142406
687.356	0.0142757
687.434	0.0143548
687.512	0.0141676
687.590	0.0143191
687.668	0.0142962
687.746	0.0142537
687.825	0.0142190
687.903	0.0140607
687.981	0.0142520
688.059	0.0141428
688.137	0.0140212
688.215	0.0140951
688.293	0.0140496
688.371	0.0140233
688.450	0.0140990
688.528	0.0139692
688.606	0.0143120
688.684	0.0140244
688.762	0.0140574
688.840	0.0140044
688.918	0.0141629
688.996	0.0140555
689.075	0.0141165
689.153	0.0141843
689.231	0.0141748
689.309	0.0141764
689.387	0.0142824
689.465	0.0141990
689.543	0.0142394
689.621	0.0141487
689.700	0.0142374
689.778	0.0142017
689.856	0.0142966
689.934	0.0142248
690.012	0.0140272
690.090	0.0139923
690.168	0.0141319
690.246	0.0141335
690.325	0.0140193
690.403	0.0140246
690.481	0.0139713
690.559	0.0141740
690.637	0.0140038
690.715	0.0140642
690.793	0.0141529
690.871	0.0141012
690.950	0.0139185
691.028	0.0140873
691.106	0.0142562
691.184	0.0141916
691.262	0.0142484
691.340	0.0143262
691.418	0.0141705
691.496	0.0142510
691.575	0.0142247
691.653	0.0142037
691.731	0.0142047
691.809	0.0141656
691.887	0.0141535
691.965	0.0144096
692.043	0.0141508
692.121	0.0140135
692.200	0.0142111
692.278	0.0141110
692.356	0.0140444
692.434	0.0141820
692.512	0.0140326
692.590	0.0139481
692.668	0.0140710
692.746	0.0140466
692.825	0.0138910
692.903	0.0139841
692.981	0.0141344
693.059	0.0141280
693.137	0.0140343
693.215	0.0141619
693.293	0.0141431
693.371	0.0141138
693.450	0.0140965
693.528	0.0140784
693.606	0.0142062
693.684	0.0143276
693.762	0.0142154
693.840	0.0142610
693.918	0.0141495
693.996	0.0140003
694.075	0.0142491
694.153	0.0142307
694.231	0.0142332
694.309	0.0141647
694.387	0.0140289
694.465	0.0142480
694.543	0.0141696
694.621	0.0144241
694.700	0.0141977
694.778	0.0140263
694.856	0.0139801
694.934	0.0141066
695.012	0.0139252
695.090	0.0138005
695.168	0.0140556
695.246	0.0139693
695.325	0.0138511
695.403	0.0139407
695.481	0.0140142
695.559	0.0140717
695.637	0.0141531
695.715	0.0142010
695.793	0.0142037
695.871	0.0142728
695.950	0.0141233
696.028	0.0143447
696.106	0.0140733
696.184	0.0141639
696.262	0.0140874
696.340	0.0141948
696.418	0.0140541
696.496	0.0140767
696.575	0.0140468
696.653	0.0143242
696.731	0.0141848
696.809	0.0142163
696.887	0.0140435
696.965	0.0141067
697.043	0.0139423
697.121	0.0138981
697.200	0.0137895
697.278	0.0137821
697.356	0.0139050
697.434	0.0140321
697.512	0.0142339
697.590	0.0141854
697.668	0.0141996
697.746	0.0141769
697.825	0.0142690
697.903	0.0143509
697.981	0.0142476
698.059	0.0141691
698.137	0.0141635
698.215	0.0141030
698.293	0.0140865
698.371	0.0141483
698.450	0.0142178
698.528	0.0142689
698.606	0.0142091
698.684	0.0141399
698.762	0.0141269
698.840	0.0140681
698.918	0.0140971
698.996	0.0140512
699.075	0.0139680
699.153	0.0139578
699.231	0.0138568
699.309	0.0139701
699.387	0.0140960
699.465	0.0139914
699.543	0.0140586
699.621	0.0143121
699.700	0.0143027
699.778	0.0144199
699.856	0.0144275
699.934	0.0144084
700.012	0.0139814
700.090	0.0139853
700.168	0.0139859
700.246	0.0138148
700.325	0.0138535
700.403	0.0138551
700.481	0.0139250
700.559	0.0139610
700.637	0.0141142
700.715	0.0140781
700.793	0.0142326
700.871	0.0143221
700.950	0.0142924
701.028	0.0143855
701.106	0.0144878
701.184	0.0145050
701.262	0.0145116
701.340	0.0143961
701.418	0.0143220
701.496	0.0142773
701.575	0.0142822
701.653	0.0139983
701.731	0.0139133
701.809	0.0136806
701.887	0.0133713
701.965	0.0133974
702.043	0.0134335
702.121	0.0134624
702.200	0.0137083
702.278	0.0139462
702.356	0.0140706
702.434	0.0143378
702.512	0.0146305
702.590	0.0148154
702.668	0.0150020
702.746	0.0150838
702.825	0.0149157
702.903	0.0148642
702.981	0.0145263
703.059	0.0143455
703.137	0.0141883
703.215	0.0139729
703.293	0.0136527
703.371	0.0135019
703.450	0.0133846
703.528	0.0133027
703.606	0.0133505
703.684	0.0135247
703.762	0.0136726
703.840	0.0139478
703.918	0.0141996
703.996	0.0143838
704.075	0.0145476
704.153	0.0145525
704.231	0.0146986
704.309	0.0149173
704.387	0.0149331
704.465	0.0148232
704.543	0.0147849
704.621	0.0146285
704.700	0.0143043
704.778	0.0140092
704.856	0.0135062
704.934	0.0131316
705.012	0.0129238
705.090	0.0128723
705.168	0.0128259
705.246	0.0130550
705.325	0.0130323
705.403	0.0136549
705.481	0.0140125
705.559	0.0144415
705.637	0.0148254
705.715	0.0150130
705.793	0.0151634
705.871	0.0152865
705.950	0.0150497
706.028	0.0148823
706.106	0.0147428
706.184	0.0144936
706.262	0.0142416
706.340	0.0140184
706.418	0.0138397
706.496	0.0137405
706.575	0.0135490
706.653	0.0135039
706.731	0.0135334
706.809	0.0136821
706.887	0.0138195
706.965	0.0139757
707.043	0.0141493
707.121	0.0143349
707.200	0.0144671
707.278	0.0146664
707.356	0.0147420
707.434	0.0147020
707.512	0.0147179
707.590	0.0148438
707.668	0.0146449
707.746	0.0144511
707.825	0.0142588
707.903	0.0140683
707.981	0.0138744
708.059	0.0137059
708.137	0.0134647
708.215	0.0135788
708.293	0.0134505
708.371	0.0134331
708.450	0.0135109
708.528	0.0135389
708.606	0.0138022
708.684	0.0139203
708.762	0.0141179
708.840	0.0143790
708.918	0.0143521
708.996	0.0143092
709.075	0.0146634
709.153	0.0146828
709.231	0.0144297
709.309	0.0144785
709.387	0.0143959
709.465	0.0142754
709.543	0.0141749
709.621	0.0139947
709.700	0.0139949
709.778	0.0139069
709.856	0.0138648
709.934	0.0139524
710.012	0.0140199
710.090	0.0140228
710.168	0.0141150
710.246	0.0142135
710.325	0.0142728
710.403	0.0141575
710.481	0.0142017
710.559	0.0143665
710.637	0.0143831
710.715	0.0144188
710.793	0.0145501
710.871	0.0144946
710.950	0.0144895
711.028	0.0144054
711.106	0.0143740
711.184	0.0143015
711.262	0.0142570
711.340	0.0141230
711.418	0.0138052
711.496	0.0138083
711.575	0.0136678
711.653	0.0134936
711.731	0.0134722
711.809	0.0135664
711.887	0.0136309
711.965	0.0135350
712.043	0.0137923
712.121	0.0139536
712.200	0.0140855
712.278	0.0141216
712.356	0.0140375
712.434	0.0143206
712.512	0.0143005
712.590	0.0143115
712.668	0.0143791
712.746	0.0145111
712.825	0.0144564
712.903	0.0143167
712.981	0.0141862
713.059	0.0140281
713.137	0.0137582
713.215	0.0138324
713.293	0.0137164
713.371	0.0136820
713.450	0.0135763
713.528	0.0136708
713.606	0.0137888
713.684	0.0141585
713.762	0.0142156
713.840	0.0144568
713.918	0.0146593
713.996	0.0148263
714.075	0.0149596
714.153	0.0151116
714.231	0.0151395
714.309	0.0149733
714.387	0.0149007
714.465	0.0148704
714.543	0.0147829
714.621	0.0144495
714.700	0.0140992
714.778	0.0137737
714.856	0.0135480
714.934	0.0134851
715.012	0.0131853
715.090	0.0132122
715.168	0.0131927
715.246	0.0131013
715.325	0.0133195
715.403	0.0135285
715.481	0.0137173
715.559	0.0139469
715.637	0.0138746
715.715	0.0141512
715.793	0.0142339
715.871	0.0144150
715.950	0.0143923
716.028	0.0142685
716.106	0.0143865
716.184	0.0144873
716.262	0.0143883
716.340	0.0143577
716.418	0.0143336
716.496	0.0142754
716.575	0.0142333
716.653	0.0140508
716.731	0.0140839
716.809	0.0140648
716.887	0.0139682
716.965	0.0138571
717.043	0.0137725
717.121	0.0137558
717.200	0.0138919
717.278	0.0139365
717.356	0.0137572
717.434	0.0141578
717.512	0.0141679
717.590	0.0140445
717.668	0.0143224
717.746	0.0144337
717.825	0.0146146
717.903	0.0146386
717.981	0.0145747
718.059	0.0145686
718.137	0.0145178
718.215	0.0145401
718.293	0.0144671
718.371	0.0143338
718.450	0.0143487
718.528	0.0142657
718.606	0.0139964
718.684	0.0138821
718.762	0.0138341
718.840	0.0138132
718.918	0.0137418
718.996	0.0137199
719.075	0.0136941
719.153	0.0137901
719.231	0.0136978
719.309	0.0136115
719.387	0.0136930
719.465	0.0139596
719.543	0.0139138
719.621	0.0141090
719.700	0.0140823
719.778	0.0141793
719.856	0.0141362
719.934	0.0139133
720.012	0.0137810
720.090	0.0139863
720.168	0.0140515
720.246	0.0139411
720.325	0.0140081
720.403	0.0140550
720.481	0.0141763
720.559	0.0141882
720.637	0.0143604
720.715	0.0144332
720.793	0.0143109
720.871	0.0142667
720.950	0.0143446
721.028	0.0143704
721.106	0.0142860
721.184	0.0142328
721.262	0.0143463
721.340	0.0144256
721.418	0.0145858
721.496	0.0147152
721.575	0.0147272
721.653	0.0145287
721.731	0.0144475
721.809	0.0144290
721.887	0.0145037
721.965	0.0140734
722.043	0.0139655
722.121	0.0139346
722.200	0.0139129
722.278	0.0137399
722.356	0.0138697
722.434	0.0137909
722.512	0.0137411
722.590	0.0137080
722.668	0.0138537
722.746	0.0138568
722.825	0.0137889
722.903	0.0139529
722.981	0.0139029
723.059	0.0139317
723.137	0.0140277
723.215	0.0140723
723.293	0.0142032
723.371	0.0141047
723.450	0.0141093
723.528	0.0141773
723.606	0.0140355
723.684	0.0140907
723.762	0.0141133
723.840	0.0141853
723.918	0.0141986
723.996	0.0144060
724.075	0.0144764
724.153	0.0145094
724.231	0.0144920
724.309	0.0145150
724.387	0.0145104
724.465	0.0145751
724.543	0.0144941
724.621	0.0144806
724.700	0.0144449
724.778	0.0143015
724.856	0.0141730
724.934	0.0140996
725.012	0.0139921
725.090	0.0139052
725.168	0.0138577
725.246	0.0138287
725.325	0.0137968
725.403	0.0136736
725.481	0.0138563
725.559	0.0138679
725.637	0.0139866
725.715	0.0140415
725.793	0.0141418
725.871	0.0143452
725.950	0.0142413
726.028	0.0143719
726.106	0.0144691
726.184	0.0143936
726.262	0.0143482
726.340	0.0143765
726.418	0.0141315
726.496	0.0142017
726.575	0.0139043
726.653	0.0141331
726.731	0.0139742
726.809	0.0140561
726.887	0.0138100
726.965	0.0137370
727.043	0.0139380
727.121	0.0138766
727.200	0.0139466
727.278	0.0139208
727.356	0.0139478
727.434	0.0140661
727.512	0.0140943
727.590	0.0142188
727.668	0.0143674
727.746	0.0142009
727.825	0.0143813
727.903	0.0142838
727.981	0.0141941
728.059	0.0143488
728.137	0.0141656
728.215	0.0142340
728.293	0.0143707
728.371	0.0144132
728.450	0.0144351
728.528	0.0143560
728.606	0.0144059
728.684	0.0143661
728.762	0.0145228
728.840	0.0144911
728.918	0.0142579
728.996	0.0143529
729.075	0.0142110
729.153	0.0141248
729.231	0.0140963
729.309	0.0139314
729.387	0.0138718
729.465	0.0137563
729.543	0.0137317
729.621	0.0135855
729.700	0.0137330
729.778	0.0136664
729.856	0.0137695
729.934	0.0136976
730.012	0.0140536
730.090	0.0139995
730.168	0.0141222
730.246	0.0142807
730.325	0.0142936
730.403	0.0143504
730.481	0.0143668
730.559	0.0144813
730.637	0.0144421
730.715	0.0143763
730.793	0.0144387
730.871	0.0143929
730.950	0.0144334
731.028	0.0142542
731.106	0.0142189
731.184	0.0142389
731.262	0.0142831
731.340	0.0142911
731.418	0.0142319
731.496	0.0140672
731.575	0.0141746
731.653	0.0140967
731.731	0.0140849
731.809	0.0139826
731.887	0.0140587
731.965	0.0139668
732.043	0.0140194
732.121	0.0140225
732.200	0.0139014
732.278	0.0140391
732.356	0.0139428
732.434	0.0139590
732.512	0.0138860
732.590	0.0138982
732.668	0.0139185
732.746	0.0139043
732.825	0.0139545
732.903	0.0139336
732.981	0.0140703
733.059	0.0142071
733.137	0.0143190
733.215	0.0143015
733.293	0.0143325
733.371	0.0141826
733.450	0.0142142
733.528	0.0141730
733.606	0.0143202
733.684	0.0140794
733.762	0.0140598
733.840	0.0140015
733.918	0.0137988
733.996	0.0138920
734.075	0.0138046
734.153	0.0137297
734.231	0.0138983
734.309	0.0139255
734.387	0.0138923
734.465	0.0139852
734.543	0.0142695
734.621	0.0142565
734.700	0.0143240
734.778	0.0143373
734.856	0.0144952
734.934	0.0145959
735.012	0.0147271
735.090	0.0147215
735.168	0.0145390
735.246	0.0147179
735.325	0.0146178
735.403	0.0145161
735.481	0.0144943
735.559	0.0142957
735.637	0.0140671
735.715	0.0139676
735.793	0.0138942
735.871	0.0137208
735.950	0.0137916
736.028	0.0135772
736.106	0.0136739
736.184	0.0136973
736.262	0.0137045
736.340	0.0137176
736.418	0.0139052
736.496	0.0137180
736.575	0.0138933
736.653	0.0140363
736.731	0.0138177
736.809	0.0138972
736.887	0.0139375
736.965	0.0138618
737.043	0.0139257
737.121	0.0138879
737.200	0.0138580
737.278	0.0139782
737.356	0.0139485
737.434	0.0139584
737.512	0.0139523
737.590	0.0139789
737.668	0.0140520
737.746	0.0142583
737.825	0.0143014
737.903	0.0141317
737.981	0.0143108
738.059	0.0143327
738.137	0.0144209
738.215	0.0144278
738.293	0.0144486
738.371	0.0144514
738.450	0.0143320
738.528	0.0144212
738.606	0.0144118
738.684	0.0143575
738.762	0.0142834
738.840	0.0142675
738.918	0.0141586
738.996	0.0141903
739.075	0.0140987
739.153	0.0141238
739.231	0.0141110
739.309	0.0139132
739.387	0.0140388
739.465	0.0140660
739.543	0.0140132
739.621	0.0141473
739.700	0.0140168
739.778	0.0139674
739.856	0.0141145
739.934	0.0140319
740.012	0.0141962
740.090	0.0141178
740.168	0.0140953
740.246	0.0139523
740.325	0.0139654
740.403	0.0139955
740.481	0.0139209
740.559	0.0139560
740.637	0.0141949
740.715	0.0140878
740.793	0.0140455
740.871	0.0138854
740.950	0.0141003
741.028	0.0139552
741.106	0.0138908
741.184	0.0138569
741.262	0.0139432
741.340	0.0139517
741.418	0.0137842
741.496	0.0138156
741.575	0.0139748
741.653	0.0139506
741.731	0.0139128
741.809	0.0139511
741.887	0.0139515
741.965	0.0140399
742.043	0.0141336
742.121	0.0141763
742.200	0.0142616
742.278	0.0143073
742.356	0.0144308
742.434	0.0145612
742.512	0.0144856
742.590	0.0146308
742.668	0.0144860
742.746	0.0146294
742.825	0.0145296
742.903	0.0145335
742.981	0.0146014
743.059	0.0143948
743.137	0.0143621
743.215	0.0142532
743.293	0.0142450
743.371	0.0141823
743.450	0.0140600
743.528	0.0139354
743.606	0.0139947
743.684	0.0140000
743.762	0.0139921
743.840	0.0139503
743.918	0.0138812
743.996	0.0138551
744.075	0.0139066
744.153	0.0139796
744.231	0.0140860
744.309	0.0140296
744.387	0.0139432
744.465	0.0142052
744.543	0.0140836
744.621	0.0140144
744.700	0.0140693
744.778	0.0141766
744.856	0.0140572
744.934	0.0140248
745.012	0.0140287
745.090	0.0138984
745.168	0.0141479
745.246	0.0141032
745.325	0.0140993
745.403	0.0141753
745.481	0.0142742
745.559	0.0143507
745.637	0.0142648
745.715	0.0142509
745.793	0.0142039
745.871	0.0141810
745.950	0.0141911
746.028	0.0141813
746.106	0.0142055
746.184	0.0141088
746.262	0.0141308
746.340	0.0141174
746.418	0.0142280
746.496	0.0140969
746.575	0.0141340
746.653	0.0140987
746.731	0.0139590
746.809	0.0140888
746.887	0.0141699
746.965	0.0140989
747.043	0.0142101
747.121	0.0141120
747.200	0.0140947
747.278	0.0142731
747.356	0.0142149
747.434	0.0142761
747.512	0.0142680
747.590	0.0142245
747.668	0.0143629
747.746	0.0143412
747.825	0.0141282
747.903	0.0140844
747.981	0.0142086
748.059	0.0141494
748.137	0.0141814
748.215	0.0142469
748.293	0.0141476
748.371	0.0140475
748.450	0.0140733
748.528	0.0139646
748.606	0.0140501
748.684	0.0140572
748.762	0.0140886
748.840	0.0140163
748.918	0.0140701
748.996	0.0140469
749.075	0.0138586
749.153	0.0139545
749.231	0.0139903
749.309	0.0139397
749.387	0.0139194
749.465	0.0140022
749.543	0.0139643
749.621	0.0140795
749.700	0.0141071
749.778	0.0141921
749.856	0.0140269
749.934	0.0141698
750.012	0.0142165
750.090	0.0141029
750.168	0.0140965
750.246	0.0142294
750.325	0.0142546
750.403	0.0142538
750.481	0.0142550
750.559	0.0141562
750.637	0.0142707
750.715	0.0142437
750.793	0.0142628
750.871	0.0142800
750.950	0.0140849
751.028	0.0140406
751.106	0.0142006
751.184	0.0141184
751.262	0.0140462
751.340	0.0138712
751.418	0.0138459
751.496	0.0140867
751.575	0.0141248
751.653	0.0141348
751.731	0.0140849
751.809	0.0140901
751.887	0.0142686
751.965	0.0141801
752.043	0.0142167
752.121	0.0141151
752.200	0.0141599
752.278	0.0142343
752.356	0.0143600
752.434	0.0143196
752.512	0.0143407
752.590	0.0141527
752.668	0.0143457
752.746	0.0141299
752.825	0.0142145
752.903	0.0141362
752.981	0.0141120
753.059	0.0141198
753.137	0.0142155
753.215	0.0142359
753.293	0.0140092
753.371	0.0139993
753.450	0.0139415
753.528	0.0141663
753.606	0.0140166
753.684	0.0139273
753.762	0.0140732
753.840	0.0138614
753.918	0.0138962
753.996	0.0139605
754.075	0.0140810
754.153	0.0139726
754.231	0.0139785
754.309	0.0140320
754.387	0.0140492
754.465	0.0141461
754.543	0.0143215
754.621	0.0142372
754.700	0.0142073
754.778	0.0142393
754.856	0.0141881
754.934	0.0141993
755.012	0.0142936
755.090	0.0143130
755.168	0.0142645
755.246	0.0142095
755.325	0.0141649
755.403	0.0142284
755.481	0.0142327
755.559	0.0140804
755.637	0.0140751
755.715	0.0140150
755.793	0.0140300
755.871	0.0140368
755.950	0.0139748
756.028	0.0139979
756.106	0.0141077
756.184	0.0140416
756.262	0.0139973
756.340	0.0140306
756.418	0.0142052
756.496	0.0141866
756.575	0.0141519
756.653	0.0141559
756.731	0.0141887
756.809	0.0141013
756.887	0.0141776
756.965	0.0141103
757.043	0.0140679
757.121	0.0140295
757.200	0.0141603
757.278	0.0141348
757.356	0.0140646
757.434	0.0138529
757.512	0.0139415
757.590	0.0140411
757.668	0.0140135
757.746	0.0140672
757.825	0.0139619
757.903	0.0141574
757.981	0.0141091
758.059	0.0140575
758.137	0.0141587
758.215	0.0141781
758.293	0.0140791
758.371	0.0141969
758.450	0.0141432
758.528	0.0141878
758.606	0.0141404
758.684	0.0141003
758.762	0.0141761
758.840	0.0141072
758.918	0.0141364
758.996	0.0142012
759.075	0.0140952
759.153	0.0139904
759.231	0.0140621
759.309	0.0141370
759.387	0.0142056
759.465	0.0140987
759.543	0.0140851
759.621	0.0141089
759.700	0.0142793
759.778	0.0141357
759.856	0.0142272
759.934	0.0143125
760.012	0.0142407
760.090	0.0142833
760.168	0.0141621
760.246	0.0141259
760.325	0.0141444
760.403	0.0141160
760.481	0.0141128
760.559	0.0141374
760.637	0.0142244
760.715	0.0141636
760.793	0.0140111
760.871	0.0141153
760.950	0.0140608
761.028	0.0140395
761.106	0.0141116
761.184	0.0140270
761.262	0.0139721
761.340	0.0140403
761.418	0.0140727
761.496	0.0140205
761.575	0.0141403
761.653	0.0139993
761.731	0.0138960
761.809	0.0139563
761.887	0.0140778
761.965	0.0140742
762.043	0.0140961
762.121	0.0141296
762.200	0.0141519
762.278	0.0139999
762.356	0.0141161
762.434	0.0140936
762.512	0.0142561
762.590	0.0141264
762.668	0.0142493
762.746	0.0142982
762.825	0.0142898
762.903	0.0142844
762.981	0.0143169
763.059	0.0142587
763.137	0.0142401
763.215	0.0143055
763.293	0.0142770
763.371	0.0141239
763.450	0.0142747
763.528	0.0142904
763.606	0.0142142
763.684	0.0141581
763.762	0.0143017
763.840	0.0142180
763.918	0.0141380
763.996	0.0142741
764.075	0.0141487
764.153	0.0141374
764.231	0.0140884
764.309	0.0140748
764.387	0.0141085
764.465	0.0141315
764.543	0.0141904
764.621	0.0141457
764.700	0.0141312
