05/04/2022	21:19:08	Ver.	4.1	UNKNOWN
Optical Delay	678.996401	Delta X		0.078125	Sweeps	1	Scan Rate	0/0
Coordinates	Axis 1	NaN	Axis 2	NaN	Axis 3	NaN	Axis 4	NaN	Axis 5	NaN	Axis 6	0.000000
TX Power	0.000000	RX Power	0.000000

678.996	0.0144128
679.075	0.0146172
679.153	0.0146753
679.231	0.0147068
679.309	0.0145547
679.387	0.0145900
679.465	0.0146021
679.543	0.0144307
679.621	0.0145688
679.700	0.0145502
679.778	0.0145386
679.856	0.0143304
679.934	0.0143904
680.012	0.0142075
680.090	0.0143342
680.168	0.0142802
680.246	0.0141753
680.325	0.0142163
680.403	0.0144518
680.481	0.0144134
680.559	0.0144216
680.637	0.0144417
680.715	0.0143591
680.793	0.0143906
680.871	0.0144050
680.950	0.0144830
681.028	0.0144653
681.106	0.0144843
681.184	0.0144933
681.262	0.0143906
681.340	0.0144290
681.418	0.0144348
681.496	0.0143300
681.575	0.0143818
681.653	0.0143542
681.731	0.0144563
681.809	0.0144289
681.887	0.0144191
681.965	0.0143681
682.043	0.0144096
682.121	0.0144794
682.200	0.0147475
682.278	0.0147114
682.356	0.0147557
682.434	0.0146860
682.512	0.0146006
682.590	0.0146587
682.668	0.0146602
682.746	0.0145561
682.825	0.0145547
682.903	0.0146531
682.981	0.0144812
683.059	0.0143623
683.137	0.0142585
683.215	0.0140928
683.293	0.0142545
683.371	0.0142246
683.450	0.0141367
683.528	0.0143275
683.606	0.0142719
683.684	0.0143227
683.762	0.0143730
683.840	0.0144434
683.918	0.0144704
683.996	0.0145345
684.075	0.0145681
684.153	0.0146980
684.231	0.0145690
684.309	0.0147647
684.387	0.0146385
684.465	0.0146715
684.543	0.0145007
684.621	0.0147215
684.700	0.0146457
684.778	0.0145453
684.856	0.0145396
684.934	0.0146594
685.012	0.0144302
685.090	0.0143829
685.168	0.0144612
685.246	0.0144214
685.325	0.0143926
685.403	0.0143539
685.481	0.0142117
685.559	0.0144044
685.637	0.0142664
685.715	0.0143024
685.793	0.0143459
685.871	0.0144795
685.950	0.0143895
686.028	0.0144005
686.106	0.0144125
686.184	0.0145592
686.262	0.0145725
686.340	0.0144878
686.418	0.0144637
686.496	0.0147362
686.575	0.0145961
686.653	0.0145855
686.731	0.0146405
686.809	0.0144197
686.887	0.0146300
686.965	0.0144926
687.043	0.0145024
687.121	0.0144440
687.200	0.0143732
687.278	0.0144433
687.356	0.0143222
687.434	0.0144389
687.512	0.0144596
687.590	0.0143568
687.668	0.0143246
687.746	0.0142879
687.825	0.0143500
687.903	0.0144747
687.981	0.0144253
688.059	0.0144444
688.137	0.0145068
688.215	0.0144585
688.293	0.0144122
688.371	0.0145499
688.450	0.0146218
688.528	0.0146113
688.606	0.0145866
688.684	0.0145255
688.762	0.0144497
688.840	0.0144508
688.918	0.0144273
688.996	0.0143142
689.075	0.0144467
689.153	0.0145287
689.231	0.0143581
689.309	0.0144780
689.387	0.0143247
689.465	0.0144521
689.543	0.0142979
689.621	0.0143972
689.700	0.0144044
689.778	0.0143327
689.856	0.0143553
689.934	0.0142796
690.012	0.0144936
690.090	0.0143163
690.168	0.0143442
690.246	0.0145559
690.325	0.0144343
690.403	0.0143780
690.481	0.0144175
690.559	0.0145445
690.637	0.0145166
690.715	0.0145434
690.793	0.0146951
690.871	0.0146163
690.950	0.0145824
691.028	0.0146748
691.106	0.0146154
691.184	0.0145255
691.262	0.0145840
691.340	0.0144411
691.418	0.0145885
691.496	0.0145068
691.575	0.0144041
691.653	0.0143369
691.731	0.0144283
691.809	0.0143501
691.887	0.0143996
691.965	0.0142432
692.043	0.0143350
692.121	0.0142129
692.200	0.0143600
692.278	0.0143716
692.356	0.0144296
692.434	0.0144764
692.512	0.0144374
692.590	0.0143116
692.668	0.0143296
692.746	0.0144476
692.825	0.0145240
692.903	0.0143806
692.981	0.0145479
693.059	0.0145120
693.137	0.0144668
693.215	0.0144968
693.293	0.0143056
693.371	0.0145542
693.450	0.0144888
693.528	0.0143850
693.606	0.0145541
693.684	0.0144840
693.762	0.0144328
693.840	0.0144919
693.918	0.0144479
693.996	0.0143184
694.075	0.0143668
694.153	0.0144526
694.231	0.0144595
694.309	0.0143747
694.387	0.0143452
694.465	0.0143427
694.543	0.0143993
694.621	0.0144144
694.700	0.0144260
694.778	0.0144157
694.856	0.0142854
694.934	0.0142139
695.012	0.0142991
695.090	0.0141012
695.168	0.0141891
695.246	0.0142466
695.325	0.0142990
695.403	0.0143948
695.481	0.0143008
695.559	0.0142946
695.637	0.0143196
695.715	0.0145290
695.793	0.0145518
695.871	0.0145243
695.950	0.0145241
696.028	0.0145103
696.106	0.0144939
696.184	0.0144822
696.262	0.0144464
696.340	0.0143868
696.418	0.0143320
696.496	0.0142704
696.575	0.0142537
696.653	0.0142466
696.731	0.0142046
696.809	0.0140579
696.887	0.0142602
696.965	0.0142676
697.043	0.0143471
697.121	0.0142980
697.200	0.0142081
697.278	0.0143347
697.356	0.0145315
697.434	0.0144918
697.512	0.0146341
697.590	0.0147017
697.668	0.0146284
697.746	0.0148167
697.825	0.0146234
697.903	0.0144876
697.981	0.0143407
698.059	0.0143740
698.137	0.0141251
698.215	0.0141936
698.293	0.0141499
698.371	0.0141560
698.450	0.0141501
698.528	0.0143577
698.606	0.0145404
698.684	0.0146327
698.762	0.0147511
698.840	0.0147462
698.918	0.0147433
698.996	0.0145544
699.075	0.0145216
699.153	0.0144456
699.231	0.0141623
699.309	0.0140950
699.387	0.0140662
699.465	0.0138150
699.543	0.0138301
699.621	0.0139613
699.700	0.0139984
699.778	0.0141930
699.856	0.0142530
699.934	0.0144450
700.012	0.0143942
700.090	0.0145792
700.168	0.0146809
700.246	0.0147123
700.325	0.0146941
700.403	0.0149216
700.481	0.0148912
700.559	0.0150279
700.637	0.0149683
700.715	0.0148110
700.793	0.0145405
700.871	0.0145891
700.950	0.0142217
701.028	0.0139237
701.106	0.0137845
701.184	0.0136115
701.262	0.0134755
701.340	0.0135979
701.418	0.0139042
701.496	0.0143721
701.575	0.0146181
701.653	0.0147279
701.731	0.0149309
701.809	0.0152437
701.887	0.0153593
701.965	0.0151138
702.043	0.0148569
702.121	0.0146872
702.200	0.0144027
702.278	0.0139581
702.356	0.0137844
702.434	0.0136961
702.512	0.0135172
702.590	0.0135509
702.668	0.0137224
702.746	0.0137941
702.825	0.0139191
702.903	0.0143162
702.981	0.0145329
703.059	0.0149004
703.137	0.0151263
703.215	0.0153761
703.293	0.0155441
703.371	0.0154839
703.450	0.0152312
703.528	0.0152396
703.606	0.0150330
703.684	0.0146723
703.762	0.0144605
703.840	0.0141386
703.918	0.0140127
703.996	0.0138770
704.075	0.0135881
704.153	0.0134172
704.231	0.0133035
704.309	0.0135142
704.387	0.0136816
704.465	0.0137646
704.543	0.0142146
704.621	0.0148177
704.700	0.0149481
704.778	0.0153422
704.856	0.0154826
704.934	0.0154687
705.012	0.0154086
705.090	0.0152668
705.168	0.0150054
705.246	0.0147585
705.325	0.0146160
705.403	0.0143535
705.481	0.0139712
705.559	0.0139194
705.637	0.0138969
705.715	0.0138040
705.793	0.0138577
705.871	0.0140116
705.950	0.0141088
706.028	0.0142751
706.106	0.0144445
706.184	0.0146008
706.262	0.0145798
706.340	0.0145921
706.418	0.0146954
706.496	0.0147653
706.575	0.0148705
706.653	0.0149759
706.731	0.0148853
706.809	0.0148333
706.887	0.0147543
706.965	0.0144738
707.043	0.0144019
707.121	0.0143750
707.200	0.0142827
707.278	0.0141481
707.356	0.0140329
707.434	0.0141404
707.512	0.0141761
707.590	0.0143328
707.668	0.0144083
707.746	0.0145001
707.825	0.0146745
707.903	0.0146334
707.981	0.0147684
708.059	0.0148130
708.137	0.0148508
708.215	0.0146486
708.293	0.0145514
708.371	0.0146569
708.450	0.0144892
708.528	0.0144228
708.606	0.0142587
708.684	0.0142016
708.762	0.0141699
708.840	0.0141221
708.918	0.0140660
708.996	0.0140403
709.075	0.0141717
709.153	0.0142928
709.231	0.0143459
709.309	0.0144182
709.387	0.0145524
709.465	0.0145438
709.543	0.0147529
709.621	0.0149480
709.700	0.0149152
709.778	0.0149294
709.856	0.0150624
709.934	0.0149950
710.012	0.0149174
710.090	0.0148385
710.168	0.0148755
710.246	0.0147635
710.325	0.0145657
710.403	0.0142346
710.481	0.0142415
710.559	0.0140946
710.637	0.0139802
710.715	0.0138544
710.793	0.0138124
710.871	0.0136939
710.950	0.0136191
711.028	0.0138037
711.106	0.0140623
711.184	0.0141460
711.262	0.0143005
711.340	0.0146459
711.418	0.0147350
711.496	0.0149107
711.575	0.0151135
711.653	0.0150957
711.731	0.0150980
711.809	0.0149075
711.887	0.0147073
711.965	0.0145500
712.043	0.0144301
712.121	0.0143884
712.200	0.0139453
712.278	0.0139351
712.356	0.0139578
712.434	0.0137751
712.512	0.0137272
712.590	0.0137502
712.668	0.0138544
712.746	0.0139053
712.825	0.0140810
712.903	0.0141723
712.981	0.0142948
713.059	0.0143195
713.137	0.0145950
713.215	0.0148798
713.293	0.0150281
713.371	0.0153051
713.450	0.0154137
713.528	0.0154778
713.606	0.0154626
713.684	0.0154660
713.762	0.0151979
713.840	0.0151279
713.918	0.0147292
713.996	0.0144432
714.075	0.0142663
714.153	0.0139167
714.231	0.0136293
714.309	0.0134100
714.387	0.0132804
714.465	0.0133820
714.543	0.0134650
714.621	0.0135778
714.700	0.0139403
714.778	0.0141642
714.856	0.0142846
714.934	0.0146802
715.012	0.0150073
715.090	0.0150653
715.168	0.0151147
715.246	0.0151160
715.325	0.0152832
715.403	0.0152205
715.481	0.0150762
715.559	0.0149485
715.637	0.0146567
715.715	0.0144405
715.793	0.0141956
715.871	0.0140954
715.950	0.0136990
716.028	0.0137428
716.106	0.0136574
716.184	0.0135054
716.262	0.0136753
716.340	0.0137628
716.418	0.0138050
716.496	0.0137838
716.575	0.0141326
716.653	0.0141183
716.731	0.0141911
716.809	0.0143266
716.887	0.0144381
716.965	0.0144323
717.043	0.0144803
717.121	0.0147175
717.200	0.0147466
717.278	0.0147764
717.356	0.0149198
717.434	0.0150116
717.512	0.0150353
717.590	0.0151750
717.668	0.0152522
717.746	0.0151897
717.825	0.0149613
717.903	0.0148678
717.981	0.0145801
718.059	0.0147321
718.137	0.0144103
718.215	0.0143327
718.293	0.0141180
718.371	0.0140353
718.450	0.0138924
718.528	0.0137337
718.606	0.0138846
718.684	0.0138337
718.762	0.0138789
718.840	0.0140089
718.918	0.0141081
718.996	0.0142277
719.075	0.0142176
719.153	0.0142554
719.231	0.0144109
719.309	0.0144298
719.387	0.0145825
719.465	0.0146753
719.543	0.0148248
719.621	0.0147916
719.700	0.0146933
719.778	0.0144458
719.856	0.0143743
719.934	0.0143290
720.012	0.0142743
720.090	0.0142065
720.168	0.0140735
720.246	0.0141690
720.325	0.0142114
720.403	0.0142560
720.481	0.0140662
720.559	0.0143110
720.637	0.0143922
720.715	0.0144927
720.793	0.0145354
720.871	0.0145805
720.950	0.0148010
721.028	0.0147570
721.106	0.0147190
721.184	0.0147550
721.262	0.0148798
721.340	0.0147633
721.418	0.0146887
721.496	0.0147969
721.575	0.0148100
721.653	0.0146915
721.731	0.0146287
721.809	0.0146279
721.887	0.0145649
721.965	0.0144478
722.043	0.0146272
722.121	0.0145487
722.200	0.0145887
722.278	0.0143343
722.356	0.0143117
722.434	0.0141471
722.512	0.0140623
722.590	0.0139273
722.668	0.0138528
722.746	0.0138032
722.825	0.0137743
722.903	0.0137012
722.981	0.0137383
723.059	0.0138702
723.137	0.0138474
723.215	0.0139767
723.293	0.0142491
723.371	0.0143483
723.450	0.0145640
723.528	0.0147658
723.606	0.0147762
723.684	0.0151585
723.762	0.0149226
723.840	0.0149950
723.918	0.0149997
723.996	0.0149112
724.075	0.0148444
724.153	0.0146471
724.231	0.0145610
724.309	0.0143922
724.387	0.0142119
724.465	0.0141591
724.543	0.0142915
724.621	0.0141211
724.700	0.0141277
724.778	0.0142224
724.856	0.0141400
724.934	0.0142802
725.012	0.0145899
725.090	0.0146753
725.168	0.0148013
725.246	0.0148196
725.325	0.0147517
725.403	0.0148013
725.481	0.0147064
725.559	0.0147063
725.637	0.0146377
725.715	0.0144741
725.793	0.0145268
725.871	0.0145065
725.950	0.0144873
726.028	0.0142824
726.106	0.0142947
726.184	0.0142290
726.262	0.0143497
726.340	0.0143267
726.418	0.0143456
726.496	0.0143250
726.575	0.0143214
726.653	0.0144375
726.731	0.0144216
726.809	0.0144155
726.887	0.0143780
726.965	0.0143140
727.043	0.0143742
727.121	0.0142970
727.200	0.0142070
727.278	0.0143189
727.356	0.0143487
727.434	0.0145010
727.512	0.0142844
727.590	0.0144017
727.668	0.0146442
727.746	0.0145329
727.825	0.0144747
727.903	0.0145560
727.981	0.0145754
728.059	0.0146297
728.137	0.0145918
728.215	0.0145757
728.293	0.0146535
728.371	0.0145976
728.450	0.0145947
728.528	0.0145430
728.606	0.0144612
728.684	0.0142950
728.762	0.0143244
728.840	0.0143357
728.918	0.0144681
728.996	0.0143307
729.075	0.0143346
729.153	0.0144818
729.231	0.0143098
729.309	0.0144475
729.387	0.0144341
729.465	0.0144006
729.543	0.0143774
729.621	0.0143977
729.700	0.0143693
729.778	0.0143919
729.856	0.0144514
729.934	0.0143591
730.012	0.0145524
730.090	0.0145145
730.168	0.0145448
730.246	0.0145740
730.325	0.0146201
730.403	0.0146288
730.481	0.0145430
730.559	0.0146499
730.637	0.0145948
730.715	0.0145258
730.793	0.0144773
730.871	0.0143328
730.950	0.0143732
731.028	0.0143832
731.106	0.0140628
731.184	0.0142191
731.262	0.0144672
731.340	0.0143328
731.418	0.0143121
731.496	0.0145609
731.575	0.0145343
731.653	0.0146273
731.731	0.0145170
731.809	0.0146776
731.887	0.0146809
731.965	0.0147812
732.043	0.0147784
732.121	0.0147728
732.200	0.0147195
732.278	0.0147261
732.356	0.0146716
732.434	0.0145120
732.512	0.0144054
732.590	0.0143962
732.668	0.0143558
732.746	0.0144464
732.825	0.0143421
732.903	0.0143106
732.981	0.0140858
733.059	0.0140137
733.137	0.0141711
733.215	0.0143021
733.293	0.0141267
733.371	0.0140482
733.450	0.0143220
733.528	0.0143865
733.606	0.0142555
733.684	0.0142649
733.762	0.0143778
733.840	0.0143662
733.918	0.0145131
733.996	0.0146400
734.075	0.0148489
734.153	0.0147745
734.231	0.0146002
734.309	0.0146890
734.387	0.0147794
734.465	0.0147536
734.543	0.0148144
734.621	0.0148148
734.700	0.0146964
734.778	0.0146072
734.856	0.0144926
734.934	0.0144147
735.012	0.0142468
735.090	0.0140942
735.168	0.0141375
735.246	0.0142081
735.325	0.0141333
735.403	0.0141227
735.481	0.0143343
735.559	0.0144637
735.637	0.0145787
735.715	0.0145193
735.793	0.0146294
735.871	0.0146198
735.950	0.0145996
736.028	0.0146416
736.106	0.0147712
736.184	0.0146647
736.262	0.0145437
736.340	0.0144645
736.418	0.0144077
736.496	0.0144329
736.575	0.0143452
736.653	0.0144016
736.731	0.0142973
736.809	0.0142373
736.887	0.0140289
736.965	0.0141174
737.043	0.0141956
737.121	0.0139141
737.200	0.0138680
737.278	0.0140533
737.356	0.0139347
737.434	0.0141842
737.512	0.0141668
737.590	0.0142129
737.668	0.0142076
737.746	0.0142789
737.825	0.0143194
737.903	0.0145901
737.981	0.0144258
738.059	0.0145568
738.137	0.0147840
738.215	0.0146261
738.293	0.0145165
738.371	0.0147071
738.450	0.0147800
738.528	0.0145770
738.606	0.0146220
738.684	0.0148064
738.762	0.0147572
738.840	0.0146948
738.918	0.0146355
738.996	0.0146442
739.075	0.0145413
739.153	0.0146183
739.231	0.0145332
739.309	0.0147138
739.387	0.0145646
739.465	0.0144162
739.543	0.0145234
739.621	0.0145951
739.700	0.0145133
739.778	0.0144179
739.856	0.0143071
739.934	0.0144372
740.012	0.0145380
740.090	0.0142892
740.168	0.0141547
740.246	0.0143130
740.325	0.0143559
740.403	0.0143094
740.481	0.0142087
740.559	0.0141630
740.637	0.0142358
740.715	0.0141180
740.793	0.0141618
740.871	0.0142099
740.950	0.0142544
741.028	0.0142001
741.106	0.0142510
741.184	0.0143488
741.262	0.0144090
741.340	0.0144969
741.418	0.0144250
741.496	0.0143983
741.575	0.0145206
741.653	0.0145098
741.731	0.0144125
741.809	0.0144282
741.887	0.0144765
741.965	0.0144991
742.043	0.0144176
742.121	0.0143058
742.200	0.0143769
742.278	0.0143552
742.356	0.0144376
742.434	0.0143076
742.512	0.0143134
742.590	0.0142757
742.668	0.0143498
742.746	0.0143232
742.825	0.0143444
742.903	0.0142543
742.981	0.0144188
743.059	0.0145707
743.137	0.0146243
743.215	0.0146915
743.293	0.0147963
743.371	0.0147530
743.450	0.0149030
743.528	0.0148826
743.606	0.0148544
743.684	0.0147826
743.762	0.0146871
743.840	0.0147771
743.918	0.0146525
743.996	0.0147089
744.075	0.0146008
744.153	0.0145039
744.231	0.0145529
744.309	0.0145628
744.387	0.0144860
744.465	0.0143891
744.543	0.0143241
744.621	0.0143369
744.700	0.0142721
744.778	0.0144078
744.856	0.0143228
744.934	0.0142232
745.012	0.0140300
745.090	0.0141525
745.168	0.0141141
745.246	0.0141582
745.325	0.0142550
745.403	0.0142552
745.481	0.0143734
745.559	0.0143398
745.637	0.0143459
745.715	0.0144211
745.793	0.0143993
745.871	0.0143505
745.950	0.0144582
746.028	0.0144830
746.106	0.0145109
746.184	0.0147253
746.262	0.0145465
746.340	0.0146322
746.418	0.0144724
746.496	0.0146697
746.575	0.0148225
746.653	0.0144151
746.731	0.0144641
746.809	0.0146004
746.887	0.0145058
746.965	0.0143812
747.043	0.0144745
747.121	0.0143176
747.200	0.0143580
747.278	0.0142527
747.356	0.0143768
747.434	0.0145860
747.512	0.0144775
747.590	0.0145890
747.668	0.0145717
747.746	0.0145162
747.825	0.0145963
747.903	0.0145950
747.981	0.0147418
748.059	0.0146027
748.137	0.0146044
748.215	0.0145968
748.293	0.0147294
748.371	0.0146407
748.450	0.0146584
748.528	0.0146619
748.606	0.0144733
748.684	0.0146005
748.762	0.0147079
748.840	0.0145408
748.918	0.0143856
748.996	0.0144705
749.075	0.0145783
749.153	0.0143542
749.231	0.0143450
749.309	0.0142320
749.387	0.0142748
749.465	0.0142168
749.543	0.0141937
749.621	0.0141972
749.700	0.0143694
749.778	0.0142161
749.856	0.0142271
749.934	0.0141032
750.012	0.0143713
750.090	0.0144123
750.168	0.0142689
750.246	0.0143218
750.325	0.0144291
750.403	0.0144521
750.481	0.0145213
750.559	0.0145323
750.637	0.0145467
750.715	0.0144560
750.793	0.0145502
750.871	0.0146904
750.950	0.0146458
751.028	0.0145287
751.106	0.0145864
751.184	0.0146278
751.262	0.0146069
751.340	0.0144736
751.418	0.0144374
751.496	0.0145261
751.575	0.0145871
751.653	0.0145632
751.731	0.0144374
751.809	0.0144579
751.887	0.0145151
751.965	0.0145444
752.043	0.0144515
752.121	0.0143791
752.200	0.0145010
752.278	0.0144636
752.356	0.0145167
752.434	0.0144207
752.512	0.0143416
752.590	0.0143761
752.668	0.0141393
752.746	0.0141868
752.825	0.0143487
752.903	0.0143001
752.981	0.0142648
753.059	0.0143320
753.137	0.0142026
753.215	0.0141946
753.293	0.0143608
753.371	0.0143310
753.450	0.0143099
753.528	0.0141693
753.606	0.0141875
753.684	0.0144008
753.762	0.0143470
753.840	0.0141500
753.918	0.0144070
753.996	0.0143188
754.075	0.0143700
754.153	0.0144193
754.231	0.0142902
754.309	0.0144994
754.387	0.0143915
754.465	0.0144979
754.543	0.0144522
754.621	0.0142650
754.700	0.0143292
754.778	0.0143734
754.856	0.0143970
754.934	0.0145171
755.012	0.0145042
755.090	0.0145321
755.168	0.0145099
755.246	0.0143737
755.325	0.0146004
755.403	0.0145818
755.481	0.0146264
755.559	0.0145664
755.637	0.0145945
755.715	0.0146256
755.793	0.0147213
755.871	0.0147283
755.950	0.0145847
756.028	0.0145284
756.106	0.0144677
756.184	0.0145001
756.262	0.0144905
756.340	0.0144639
756.418	0.0144061
756.496	0.0143190
756.575	0.0142923
756.653	0.0142271
756.731	0.0143374
756.809	0.0143257
756.887	0.0143520
756.965	0.0143040
757.043	0.0141928
757.121	0.0142740
757.200	0.0143137
757.278	0.0142490
757.356	0.0141689
757.434	0.0141853
757.512	0.0142075
757.590	0.0142738
757.668	0.0142990
757.746	0.0143164
757.825	0.0144019
757.903	0.0142694
757.981	0.0142361
758.059	0.0142797
758.137	0.0143502
758.215	0.0142015
758.293	0.0143438
758.371	0.0143771
758.450	0.0145412
758.528	0.0144862
758.606	0.0143414
758.684	0.0143378
758.762	0.0144405
758.840	0.0145232
758.918	0.0145336
758.996	0.0143726
759.075	0.0146136
759.153	0.0145281
759.231	0.0146569
759.309	0.0145168
759.387	0.0146587
759.465	0.0145139
759.543	0.0143660
759.621	0.0144232
759.700	0.0146413
759.778	0.0144975
759.856	0.0144585
759.934	0.0144545
760.012	0.0144680
760.090	0.0144202
760.168	0.0145335
760.246	0.0143992
760.325	0.0143440
760.403	0.0143629
760.481	0.0145455
760.559	0.0143903
760.637	0.0145051
760.715	0.0144192
760.793	0.0142760
760.871	0.0143710
760.950	0.0143641
761.028	0.0143884
761.106	0.0144819
761.184	0.0144198
761.262	0.0144312
761.340	0.0143665
761.418	0.0142910
761.496	0.0143568
761.575	0.0144509
761.653	0.0141795
761.731	0.0143004
761.809	0.0143548
761.887	0.0142947
761.965	0.0144456
762.043	0.0143069
762.121	0.0143784
762.200	0.0143398
762.278	0.0144502
762.356	0.0144183
762.434	0.0143941
762.512	0.0145413
762.590	0.0145882
762.668	0.0145998
762.746	0.0145586
762.825	0.0145110
762.903	0.0145620
762.981	0.0144849
763.059	0.0147118
763.137	0.0146226
763.215	0.0144778
763.293	0.0145626
763.371	0.0147163
763.450	0.0146872
763.528	0.0147348
763.606	0.0145273
763.684	0.0144736
763.762	0.0145274
763.840	0.0143994
763.918	0.0145829
763.996	0.0145845
764.075	0.0146474
764.153	0.0145395
764.231	0.0144628
764.309	0.0146049
764.387	0.0145430
764.465	0.0143773
764.543	0.0144476
764.621	0.0143958
764.700	0.0143663
