05/04/2022	21:19:43	Ver.	4.1	UNKNOWN
Optical Delay	678.996401	Delta X		0.078125	Sweeps	1	Scan Rate	0/0
Coordinates	Axis 1	NaN	Axis 2	NaN	Axis 3	NaN	Axis 4	NaN	Axis 5	NaN	Axis 6	0.000000
TX Power	0.000000	RX Power	0.000000

678.996	0.0145257
679.075	0.0144744
679.153	0.0144402
679.231	0.0144868
679.309	0.0143613
679.387	0.0145071
679.465	0.0144407
679.543	0.0145500
679.621	0.0144550
679.700	0.0146031
679.778	0.0146410
679.856	0.0146463
679.934	0.0146822
680.012	0.0146593
680.090	0.0146375
680.168	0.0147705
680.246	0.0147271
680.325	0.0146784
680.403	0.0146626
680.481	0.0145569
680.559	0.0145054
680.637	0.0145879
680.715	0.0144143
680.793	0.0143500
680.871	0.0143906
680.950	0.0143572
681.028	0.0142103
681.106	0.0142202
681.184	0.0143932
681.262	0.0143201
681.340	0.0143642
681.418	0.0145419
681.496	0.0145114
681.575	0.0145782
681.653	0.0145638
681.731	0.0145689
681.809	0.0145975
681.887	0.0146909
681.965	0.0147017
682.043	0.0147025
682.121	0.0146487
682.200	0.0147346
682.278	0.0147935
682.356	0.0146601
682.434	0.0145260
682.512	0.0146424
682.590	0.0146101
682.668	0.0144699
682.746	0.0145808
682.825	0.0144862
682.903	0.0143463
682.981	0.0143288
683.059	0.0143533
683.137	0.0144186
683.215	0.0143410
683.293	0.0142873
683.371	0.0144204
683.450	0.0143864
683.528	0.0144448
683.606	0.0143887
683.684	0.0143585
683.762	0.0144514
683.840	0.0144308
683.918	0.0144305
683.996	0.0145521
684.075	0.0145499
684.153	0.0145243
684.231	0.0145967
684.309	0.0144865
684.387	0.0145570
684.465	0.0144163
684.543	0.0144200
684.621	0.0144205
684.700	0.0145843
684.778	0.0144029
684.856	0.0144696
684.934	0.0144669
685.012	0.0144023
685.090	0.0144539
685.168	0.0143894
685.246	0.0143382
685.325	0.0144616
685.403	0.0143204
685.481	0.0144451
685.559	0.0145990
685.637	0.0145018
685.715	0.0145432
685.793	0.0144978
685.871	0.0145596
685.950	0.0145905
686.028	0.0146033
686.106	0.0146275
686.184	0.0145506
686.262	0.0146999
686.340	0.0145397
686.418	0.0145871
686.496	0.0144180
686.575	0.0145730
686.653	0.0145710
686.731	0.0146140
686.809	0.0145763
686.887	0.0145078
686.965	0.0143922
687.043	0.0144846
687.121	0.0144066
687.200	0.0145190
687.278	0.0144638
687.356	0.0144692
687.434	0.0144769
687.512	0.0143756
687.590	0.0142535
687.668	0.0143663
687.746	0.0144385
687.825	0.0144044
687.903	0.0144499
687.981	0.0146201
688.059	0.0146046
688.137	0.0146130
688.215	0.0147032
688.293	0.0146732
688.371	0.0145856
688.450	0.0146244
688.528	0.0146645
688.606	0.0147869
688.684	0.0147716
688.762	0.0147539
688.840	0.0146414
688.918	0.0145732
688.996	0.0146431
689.075	0.0145424
689.153	0.0145683
689.231	0.0145421
689.309	0.0145515
689.387	0.0145518
689.465	0.0144120
689.543	0.0144496
689.621	0.0143444
689.700	0.0143025
689.778	0.0142487
689.856	0.0143679
689.934	0.0143551
690.012	0.0143971
690.090	0.0144167
690.168	0.0144050
690.246	0.0144601
690.325	0.0144816
690.403	0.0144069
690.481	0.0142749
690.559	0.0144519
690.637	0.0145433
690.715	0.0143129
690.793	0.0144250
690.871	0.0146010
690.950	0.0145407
691.028	0.0145245
691.106	0.0145612
691.184	0.0144073
691.262	0.0144674
691.340	0.0146347
691.418	0.0144879
691.496	0.0145233
691.575	0.0145390
691.653	0.0144479
691.731	0.0145435
691.809	0.0144241
691.887	0.0144556
691.965	0.0143897
692.043	0.0143442
692.121	0.0144132
692.200	0.0144688
692.278	0.0144411
692.356	0.0144622
692.434	0.0142919
692.512	0.0143428
692.590	0.0144523
692.668	0.0144380
692.746	0.0145039
692.825	0.0144148
692.903	0.0144774
692.981	0.0144217
693.059	0.0145536
693.137	0.0143878
693.215	0.0144471
693.293	0.0145822
693.371	0.0146362
693.450	0.0144504
693.528	0.0146317
693.606	0.0146667
693.684	0.0147735
693.762	0.0145739
693.840	0.0146442
693.918	0.0146680
693.996	0.0147022
694.075	0.0146323
694.153	0.0146043
694.231	0.0144477
694.309	0.0142953
694.387	0.0143053
694.465	0.0142364
694.543	0.0143402
694.621	0.0142982
694.700	0.0143090
694.778	0.0143834
694.856	0.0144283
694.934	0.0144876
695.012	0.0144489
695.090	0.0146070
695.168	0.0146651
695.246	0.0147289
695.325	0.0147489
695.403	0.0148191
695.481	0.0148038
695.559	0.0147488
695.637	0.0147018
695.715	0.0146996
695.793	0.0144942
695.871	0.0144686
695.950	0.0144697
696.028	0.0141946
696.106	0.0141621
696.184	0.0142085
696.262	0.0140070
696.340	0.0141164
696.418	0.0143302
696.496	0.0142731
696.575	0.0143495
696.653	0.0145637
696.731	0.0147909
696.809	0.0148788
696.887	0.0148740
696.965	0.0147221
697.043	0.0149055
697.121	0.0147886
697.200	0.0144711
697.278	0.0144871
697.356	0.0141670
697.434	0.0141986
697.512	0.0140758
697.590	0.0141415
697.668	0.0140283
697.746	0.0142324
697.825	0.0142605
697.903	0.0144577
697.981	0.0145160
698.059	0.0147440
698.137	0.0149786
698.215	0.0149972
698.293	0.0149155
698.371	0.0148569
698.450	0.0146921
698.528	0.0145300
698.606	0.0143764
698.684	0.0141628
698.762	0.0141500
698.840	0.0139452
698.918	0.0140130
698.996	0.0140247
699.075	0.0140519
699.153	0.0141045
699.231	0.0141446
699.309	0.0142928
699.387	0.0143926
699.465	0.0145560
699.543	0.0146472
699.621	0.0147577
699.700	0.0149863
699.778	0.0152229
699.856	0.0153563
699.934	0.0153526
700.012	0.0152677
700.090	0.0152367
700.168	0.0149520
700.246	0.0146493
700.325	0.0143140
700.403	0.0141153
700.481	0.0137607
700.559	0.0136455
700.637	0.0135467
700.715	0.0134375
700.793	0.0136597
700.871	0.0139855
700.950	0.0142985
701.028	0.0145240
701.106	0.0150157
701.184	0.0152887
701.262	0.0154507
701.340	0.0153960
701.418	0.0152750
701.496	0.0152258
701.575	0.0150735
701.653	0.0147919
701.731	0.0144383
701.809	0.0142671
701.887	0.0139233
701.965	0.0137530
702.043	0.0135879
702.121	0.0137139
702.200	0.0137048
702.278	0.0138563
702.356	0.0139301
702.434	0.0142506
702.512	0.0144350
702.590	0.0147350
702.668	0.0150264
702.746	0.0151447
702.825	0.0152708
702.903	0.0153192
702.981	0.0151807
703.059	0.0151067
703.137	0.0150182
703.215	0.0148954
703.293	0.0146996
703.371	0.0146961
703.450	0.0144179
703.528	0.0142311
703.606	0.0138480
703.684	0.0139288
703.762	0.0138706
703.840	0.0137740
703.918	0.0138229
703.996	0.0139442
704.075	0.0144249
704.153	0.0145532
704.231	0.0148333
704.309	0.0149625
704.387	0.0151317
704.465	0.0151866
704.543	0.0151033
704.621	0.0149522
704.700	0.0147536
704.778	0.0145542
704.856	0.0144810
704.934	0.0142239
705.012	0.0140621
705.090	0.0140549
705.168	0.0140018
705.246	0.0141634
705.325	0.0141586
705.403	0.0143676
705.481	0.0143956
705.559	0.0143916
705.637	0.0145145
705.715	0.0145557
705.793	0.0144928
705.871	0.0143365
705.950	0.0145731
706.028	0.0146405
706.106	0.0146989
706.184	0.0147526
706.262	0.0148052
706.340	0.0148859
706.418	0.0147739
706.496	0.0146913
706.575	0.0144029
706.653	0.0145044
706.731	0.0143481
706.809	0.0140556
706.887	0.0140929
706.965	0.0141565
707.043	0.0142891
707.121	0.0143399
707.200	0.0145737
707.278	0.0146609
707.356	0.0147343
707.434	0.0148594
707.512	0.0148529
707.590	0.0149622
707.668	0.0148097
707.746	0.0145998
707.825	0.0144059
707.903	0.0143416
707.981	0.0143550
708.059	0.0142919
708.137	0.0142799
708.215	0.0141785
708.293	0.0143368
708.371	0.0142776
708.450	0.0143225
708.528	0.0141896
708.606	0.0142097
708.684	0.0141805
708.762	0.0140031
708.840	0.0141963
708.918	0.0142544
708.996	0.0142850
709.075	0.0143842
709.153	0.0146729
709.231	0.0147171
709.309	0.0149686
709.387	0.0150678
709.465	0.0151693
709.543	0.0153997
709.621	0.0153910
709.700	0.0151656
709.778	0.0148605
709.856	0.0146764
709.934	0.0145258
710.012	0.0144278
710.090	0.0140804
710.168	0.0138514
710.246	0.0137817
710.325	0.0136704
710.403	0.0136232
710.481	0.0135598
710.559	0.0135594
710.637	0.0136063
710.715	0.0136800
710.793	0.0138733
710.871	0.0141501
710.950	0.0143066
711.028	0.0144424
711.106	0.0147854
711.184	0.0148564
711.262	0.0150074
711.340	0.0150748
711.418	0.0151717
711.496	0.0151189
711.575	0.0150262
711.653	0.0149696
711.731	0.0148213
711.809	0.0146338
711.887	0.0144436
711.965	0.0142712
712.043	0.0142102
712.121	0.0141945
712.200	0.0138892
712.278	0.0139254
712.356	0.0137344
712.434	0.0138165
712.512	0.0138574
712.590	0.0137532
712.668	0.0138538
712.746	0.0140151
712.825	0.0142590
712.903	0.0145485
712.981	0.0149109
713.059	0.0151402
713.137	0.0153417
713.215	0.0155643
713.293	0.0156270
713.371	0.0156089
713.450	0.0154584
713.528	0.0154448
713.606	0.0150237
713.684	0.0146577
713.762	0.0143898
713.840	0.0141321
713.918	0.0139652
713.996	0.0138400
714.075	0.0136947
714.153	0.0137221
714.231	0.0135854
714.309	0.0138133
714.387	0.0139389
714.465	0.0140086
714.543	0.0140606
714.621	0.0141942
714.700	0.0144294
714.778	0.0146481
714.856	0.0148042
714.934	0.0148138
715.012	0.0149711
715.090	0.0150304
715.168	0.0146948
715.246	0.0149323
715.325	0.0148608
715.403	0.0147465
715.481	0.0146830
715.559	0.0146293
715.637	0.0145975
715.715	0.0145261
715.793	0.0144305
715.871	0.0144660
715.950	0.0143765
716.028	0.0145499
716.106	0.0145286
716.184	0.0143420
716.262	0.0141975
716.340	0.0141997
716.418	0.0143762
716.496	0.0142017
716.575	0.0141599
716.653	0.0143052
716.731	0.0145305
716.809	0.0144846
716.887	0.0145435
716.965	0.0146078
717.043	0.0148314
717.121	0.0147586
717.200	0.0148999
717.278	0.0148205
717.356	0.0148011
717.434	0.0148840
717.512	0.0148141
717.590	0.0147467
717.668	0.0146716
717.746	0.0145883
717.825	0.0145589
717.903	0.0146157
717.981	0.0143635
718.059	0.0144156
718.137	0.0143655
718.215	0.0141766
718.293	0.0140781
718.371	0.0140529
718.450	0.0141936
718.528	0.0143761
718.606	0.0144260
718.684	0.0143565
718.762	0.0142537
718.840	0.0143616
718.918	0.0144707
718.996	0.0144404
719.075	0.0144313
719.153	0.0145303
719.231	0.0146060
719.309	0.0146307
719.387	0.0146790
719.465	0.0146067
719.543	0.0145297
719.621	0.0145322
719.700	0.0144386
719.778	0.0144763
719.856	0.0145660
719.934	0.0145619
720.012	0.0145402
720.090	0.0144490
720.168	0.0146023
720.246	0.0145302
720.325	0.0146529
720.403	0.0146130
720.481	0.0145812
720.559	0.0146172
720.637	0.0146095
720.715	0.0145623
720.793	0.0145895
720.871	0.0145733
720.950	0.0146268
721.028	0.0145910
721.106	0.0147691
721.184	0.0146694
721.262	0.0147325
721.340	0.0146436
721.418	0.0147838
721.496	0.0147186
721.575	0.0147297
721.653	0.0147613
721.731	0.0146525
721.809	0.0146200
721.887	0.0144714
721.965	0.0143005
722.043	0.0142926
722.121	0.0142068
722.200	0.0139457
722.278	0.0139230
722.356	0.0139297
722.434	0.0138802
722.512	0.0136741
722.590	0.0137027
722.668	0.0136028
722.746	0.0138365
722.825	0.0138245
722.903	0.0141076
722.981	0.0144897
723.059	0.0145722
723.137	0.0148092
723.215	0.0150345
723.293	0.0152034
723.371	0.0151968
723.450	0.0151434
723.528	0.0153052
723.606	0.0150369
723.684	0.0149511
723.762	0.0148714
723.840	0.0146880
723.918	0.0147700
723.996	0.0145393
724.075	0.0145440
724.153	0.0145360
724.231	0.0145103
724.309	0.0145628
724.387	0.0143975
724.465	0.0144517
724.543	0.0145256
724.621	0.0144241
724.700	0.0143196
724.778	0.0144123
724.856	0.0144063
724.934	0.0143731
725.012	0.0144930
725.090	0.0144206
725.168	0.0144010
725.246	0.0145088
725.325	0.0143816
725.403	0.0143867
725.481	0.0144967
725.559	0.0145287
725.637	0.0145812
725.715	0.0146638
725.793	0.0145583
725.871	0.0146461
725.950	0.0145739
726.028	0.0145413
726.106	0.0145066
726.184	0.0145164
726.262	0.0144170
726.340	0.0143266
726.418	0.0143223
726.496	0.0141576
726.575	0.0141586
726.653	0.0140575
726.731	0.0141031
726.809	0.0140525
726.887	0.0140742
726.965	0.0140863
727.043	0.0142274
727.121	0.0144466
727.200	0.0144525
727.278	0.0145316
727.356	0.0146622
727.434	0.0146703
727.512	0.0146877
727.590	0.0147601
727.668	0.0148241
727.746	0.0148478
727.825	0.0147562
727.903	0.0145289
727.981	0.0147138
728.059	0.0146726
728.137	0.0145720
728.215	0.0146648
728.293	0.0144656
728.371	0.0144965
728.450	0.0145783
728.528	0.0144254
728.606	0.0144125
728.684	0.0142785
728.762	0.0143608
728.840	0.0142947
728.918	0.0141233
728.996	0.0141310
729.075	0.0142170
729.153	0.0141167
729.231	0.0140624
729.309	0.0141598
729.387	0.0141872
729.465	0.0142579
729.543	0.0142780
729.621	0.0144781
729.700	0.0145248
729.778	0.0145131
729.856	0.0147177
729.934	0.0147791
730.012	0.0146874
730.090	0.0148795
730.168	0.0149409
730.246	0.0149923
730.325	0.0148756
730.403	0.0148781
730.481	0.0147189
730.559	0.0147432
730.637	0.0146167
730.715	0.0145000
730.793	0.0144447
730.871	0.0142912
730.950	0.0142680
731.028	0.0142748
731.106	0.0141297
731.184	0.0140537
731.262	0.0141228
731.340	0.0143237
731.418	0.0143056
731.496	0.0143396
731.575	0.0143877
731.653	0.0144937
731.731	0.0146043
731.809	0.0146706
731.887	0.0147381
731.965	0.0148435
732.043	0.0148597
732.121	0.0147299
732.200	0.0148090
732.278	0.0146609
732.356	0.0145303
732.434	0.0143049
732.512	0.0143574
732.590	0.0143338
732.668	0.0141573
732.746	0.0141143
732.825	0.0141932
732.903	0.0141705
732.981	0.0141373
733.059	0.0141325
733.137	0.0141557
733.215	0.0142319
733.293	0.0142088
733.371	0.0141910
733.450	0.0143460
733.528	0.0144632
733.606	0.0145040
733.684	0.0147575
733.762	0.0147026
733.840	0.0145517
733.918	0.0147064
733.996	0.0147674
734.075	0.0146851
734.153	0.0148517
734.231	0.0149024
734.309	0.0146964
734.387	0.0146685
734.465	0.0146516
734.543	0.0146289
734.621	0.0146047
734.700	0.0145510
734.778	0.0144769
734.856	0.0144663
734.934	0.0144326
735.012	0.0146457
735.090	0.0146209
735.168	0.0145627
735.246	0.0143930
735.325	0.0146235
735.403	0.0146279
735.481	0.0146019
735.559	0.0146547
735.637	0.0147314
735.715	0.0144780
735.793	0.0145091
735.871	0.0144707
735.950	0.0145721
736.028	0.0144058
736.106	0.0144971
736.184	0.0145753
736.262	0.0145796
736.340	0.0145435
736.418	0.0145373
736.496	0.0143659
736.575	0.0144366
736.653	0.0143449
736.731	0.0143755
736.809	0.0143636
736.887	0.0144649
736.965	0.0142852
737.043	0.0144338
737.121	0.0143840
737.200	0.0144691
737.278	0.0143824
737.356	0.0143599
737.434	0.0144036
737.512	0.0145875
737.590	0.0146191
737.668	0.0145768
737.746	0.0147861
737.825	0.0147257
737.903	0.0148460
737.981	0.0147215
738.059	0.0147980
738.137	0.0148267
738.215	0.0147729
738.293	0.0147221
738.371	0.0148004
738.450	0.0147215
738.528	0.0146537
738.606	0.0144665
738.684	0.0145635
738.762	0.0145544
738.840	0.0146364
738.918	0.0144217
738.996	0.0143986
739.075	0.0145826
739.153	0.0146301
739.231	0.0143743
739.309	0.0145764
739.387	0.0145659
739.465	0.0145132
739.543	0.0145804
739.621	0.0145174
739.700	0.0145285
739.778	0.0144667
739.856	0.0144955
739.934	0.0144745
740.012	0.0144293
740.090	0.0144180
740.168	0.0143828
740.246	0.0144546
740.325	0.0144020
740.403	0.0144411
740.481	0.0143640
740.559	0.0142395
740.637	0.0142269
740.715	0.0143317
740.793	0.0143700
740.871	0.0144310
740.950	0.0144316
741.028	0.0141779
741.106	0.0143803
741.184	0.0143463
741.262	0.0144550
741.340	0.0144942
741.418	0.0145958
741.496	0.0144094
741.575	0.0146215
741.653	0.0146143
741.731	0.0145935
741.809	0.0146007
741.887	0.0145147
741.965	0.0145934
742.043	0.0145471
742.121	0.0145473
742.200	0.0144376
742.278	0.0144303
742.356	0.0144160
742.434	0.0143586
742.512	0.0145255
742.590	0.0146266
742.668	0.0145506
742.746	0.0144736
742.825	0.0144699
742.903	0.0145776
742.981	0.0145026
743.059	0.0146402
743.137	0.0146706
743.215	0.0146100
743.293	0.0146061
743.371	0.0144485
743.450	0.0144503
743.528	0.0145689
743.606	0.0146561
743.684	0.0145002
743.762	0.0144090
743.840	0.0143933
743.918	0.0144603
743.996	0.0145348
744.075	0.0143153
744.153	0.0144025
744.231	0.0144431
744.309	0.0143861
744.387	0.0143443
744.465	0.0144865
744.543	0.0144792
744.621	0.0143167
744.700	0.0141991
744.778	0.0142249
744.856	0.0143420
744.934	0.0142884
745.012	0.0143136
745.090	0.0143185
745.168	0.0143163
745.246	0.0143934
745.325	0.0142455
745.403	0.0143547
745.481	0.0143475
745.559	0.0143817
745.637	0.0144552
745.715	0.0143784
745.793	0.0144864
745.871	0.0145542
745.950	0.0145297
746.028	0.0147079
746.106	0.0146352
746.184	0.0145941
746.262	0.0147531
746.340	0.0145966
746.418	0.0146489
746.496	0.0147736
746.575	0.0144957
746.653	0.0144013
746.731	0.0145283
746.809	0.0144984
746.887	0.0145100
746.965	0.0144757
747.043	0.0144478
747.121	0.0145086
747.200	0.0145297
747.278	0.0145834
747.356	0.0145548
747.434	0.0145762
747.512	0.0144863
747.590	0.0144827
747.668	0.0144716
747.746	0.0144017
747.825	0.0145610
747.903	0.0145348
747.981	0.0144812
748.059	0.0144776
748.137	0.0144604
748.215	0.0144408
748.293	0.0144208
748.371	0.0144232
748.450	0.0143419
748.528	0.0144130
748.606	0.0141768
748.684	0.0142879
748.762	0.0142359
748.840	0.0141581
748.918	0.0140595
748.996	0.0142488
749.075	0.0141256
749.153	0.0142873
749.231	0.0142793
749.309	0.0142723
749.387	0.0143036
749.465	0.0142151
749.543	0.0142310
749.621	0.0143969
749.700	0.0143448
749.778	0.0143330
749.856	0.0143874
749.934	0.0144585
750.012	0.0143014
750.090	0.0144522
750.168	0.0147053
750.246	0.0145824
750.325	0.0144887
750.403	0.0146023
750.481	0.0145358
750.559	0.0145587
750.637	0.0147057
750.715	0.0146500
750.793	0.0146252
750.871	0.0145609
750.950	0.0145552
751.028	0.0146321
751.106	0.0146822
751.184	0.0146712
751.262	0.0146802
751.340	0.0147020
751.418	0.0145756
751.496	0.0144924
751.575	0.0146893
751.653	0.0147533
751.731	0.0145821
751.809	0.0146227
751.887	0.0146645
751.965	0.0145837
752.043	0.0144140
752.121	0.0145439
752.200	0.0146525
752.278	0.0145347
752.356	0.0144409
752.434	0.0144544
752.512	0.0143696
752.590	0.0144257
752.668	0.0143674
752.746	0.0144176
752.825	0.0143092
752.903	0.0142781
752.981	0.0143745
753.059	0.0142477
753.137	0.0144035
753.215	0.0142667
753.293	0.0142926
753.371	0.0144762
753.450	0.0142637
753.528	0.0143166
753.606	0.0144385
753.684	0.0143625
753.762	0.0144183
753.840	0.0143212
753.918	0.0145107
753.996	0.0145953
754.075	0.0143886
754.153	0.0145831
754.231	0.0144445
754.309	0.0145601
754.387	0.0144860
754.465	0.0143894
754.543	0.0145007
754.621	0.0145485
754.700	0.0144770
754.778	0.0145814
754.856	0.0145696
754.934	0.0145698
755.012	0.0145355
755.090	0.0145057
755.168	0.0147031
755.246	0.0145479
755.325	0.0146124
755.403	0.0147256
755.481	0.0146930
755.559	0.0146532
755.637	0.0145773
755.715	0.0145039
755.793	0.0145817
755.871	0.0145058
755.950	0.0145502
756.028	0.0144962
756.106	0.0143502
756.184	0.0144633
756.262	0.0144489
756.340	0.0142872
756.418	0.0142056
756.496	0.0143837
756.575	0.0144469
756.653	0.0144311
756.731	0.0144506
756.809	0.0143722
756.887	0.0143678
756.965	0.0145065
757.043	0.0143153
757.121	0.0143791
757.200	0.0143095
757.278	0.0144505
757.356	0.0143456
757.434	0.0143031
757.512	0.0144855
757.590	0.0144081
757.668	0.0144637
757.746	0.0146025
757.825	0.0144698
757.903	0.0143833
757.981	0.0145449
758.059	0.0147566
758.137	0.0147021
758.215	0.0145279
758.293	0.0145825
758.371	0.0145538
758.450	0.0146685
758.528	0.0147669
758.606	0.0147337
758.684	0.0148047
758.762	0.0147682
758.840	0.0146549
758.918	0.0146423
758.996	0.0147152
759.075	0.0147301
759.153	0.0144856
759.231	0.0146329
759.309	0.0146404
759.387	0.0146548
759.465	0.0147011
759.543	0.0145789
759.621	0.0145863
759.700	0.0145413
759.778	0.0146057
759.856	0.0146086
759.934	0.0145307
760.012	0.0144128
760.090	0.0145064
760.168	0.0143539
760.246	0.0143836
760.325	0.0144427
760.403	0.0142966
760.481	0.0144558
760.559	0.0144633
760.637	0.0142899
760.715	0.0144041
760.793	0.0143893
760.871	0.0142702
760.950	0.0145148
761.028	0.0142796
761.106	0.0143180
761.184	0.0145579
761.262	0.0142628
761.340	0.0143991
761.418	0.0143227
761.496	0.0144030
761.575	0.0142783
761.653	0.0144112
761.731	0.0144478
761.809	0.0144086
761.887	0.0146143
761.965	0.0144151
762.043	0.0144338
762.121	0.0143780
762.200	0.0145274
762.278	0.0146455
762.356	0.0146609
762.434	0.0145678
762.512	0.0145492
762.590	0.0146918
762.668	0.0146260
762.746	0.0146343
762.825	0.0145902
762.903	0.0146911
762.981	0.0147659
763.059	0.0147341
763.137	0.0146792
763.215	0.0146855
763.293	0.0146255
763.371	0.0146521
763.450	0.0145481
763.528	0.0145906
763.606	0.0145484
763.684	0.0145658
763.762	0.0144351
763.840	0.0144707
763.918	0.0144226
763.996	0.0144830
764.075	0.0145244
764.153	0.0142477
764.231	0.0144494
764.309	0.0142355
764.387	0.0142955
764.465	0.0142993
764.543	0.0142880
764.621	0.0143448
764.700	0.0142255
