05/04/2022	21:21:23	Ver.	4.1	UNKNOWN
Optical Delay	678.996401	Delta X		0.078125	Sweeps	1	Scan Rate	0/0
Coordinates	Axis 1	NaN	Axis 2	NaN	Axis 3	NaN	Axis 4	NaN	Axis 5	NaN	Axis 6	0.000000
TX Power	0.000000	RX Power	0.000000

678.996	0.0143123
679.075	0.0142159
679.153	0.0143661
679.231	0.0144064
679.309	0.0141978
679.387	0.0141456
679.465	0.0141385
679.543	0.0143253
679.621	0.0142757
679.700	0.0141601
679.778	0.0142207
679.856	0.0141766
679.934	0.0140318
680.012	0.0141241
680.090	0.0142437
680.168	0.0143813
680.246	0.0142570
680.325	0.0143340
680.403	0.0143497
680.481	0.0143221
680.559	0.0144691
680.637	0.0142868
680.715	0.0145839
680.793	0.0143889
680.871	0.0145004
680.950	0.0142869
681.028	0.0143717
681.106	0.0145866
681.184	0.0143666
681.262	0.0143008
681.340	0.0142715
681.418	0.0142435
681.496	0.0142588
681.575	0.0143572
681.653	0.0142181
681.731	0.0142756
681.809	0.0142321
681.887	0.0141677
681.965	0.0142350
682.043	0.0141837
682.121	0.0142822
682.200	0.0142741
682.278	0.0143341
682.356	0.0144126
682.434	0.0142691
682.512	0.0143090
682.590	0.0143108
682.668	0.0142916
682.746	0.0145383
682.825	0.0144512
682.903	0.0144384
682.981	0.0144486
683.059	0.0145186
683.137	0.0143275
683.215	0.0143507
683.293	0.0144350
683.371	0.0143549
683.450	0.0144219
683.528	0.0143774
683.606	0.0143231
683.684	0.0143587
683.762	0.0142744
683.840	0.0143153
683.918	0.0143572
683.996	0.0143079
684.075	0.0143183
684.153	0.0141673
684.231	0.0141122
684.309	0.0141488
684.387	0.0142097
684.465	0.0140968
684.543	0.0141811
684.621	0.0141839
684.700	0.0141533
684.778	0.0140876
684.856	0.0141716
684.934	0.0141671
685.012	0.0142219
685.090	0.0143549
685.168	0.0143906
685.246	0.0143713
685.325	0.0142220
685.403	0.0144201
685.481	0.0142844
685.559	0.0143857
685.637	0.0143339
685.715	0.0144573
685.793	0.0143142
685.871	0.0143887
685.950	0.0143307
686.028	0.0143246
686.106	0.0142629
686.184	0.0142478
686.262	0.0142197
686.340	0.0142928
686.418	0.0140364
686.496	0.0140982
686.575	0.0140616
686.653	0.0141328
686.731	0.0141563
686.809	0.0141270
686.887	0.0140465
686.965	0.0142535
687.043	0.0142765
687.121	0.0142458
687.200	0.0140965
687.278	0.0141589
687.356	0.0142738
687.434	0.0143378
687.512	0.0143654
687.590	0.0143995
687.668	0.0142417
687.746	0.0143272
687.825	0.0143539
687.903	0.0142351
687.981	0.0144075
688.059	0.0143753
688.137	0.0141859
688.215	0.0142641
688.293	0.0141199
688.371	0.0142693
688.450	0.0142587
688.528	0.0141821
688.606	0.0141102
688.684	0.0142892
688.762	0.0141953
688.840	0.0142206
688.918	0.0142242
688.996	0.0140914
689.075	0.0142422
689.153	0.0142449
689.231	0.0141329
689.309	0.0141891
689.387	0.0142780
689.465	0.0141987
689.543	0.0142224
689.621	0.0142500
689.700	0.0143730
689.778	0.0143258
689.856	0.0142471
689.934	0.0143076
690.012	0.0144257
690.090	0.0141741
690.168	0.0141930
690.246	0.0143302
690.325	0.0142612
690.403	0.0142873
690.481	0.0143574
690.559	0.0141974
690.637	0.0141579
690.715	0.0142429
690.793	0.0142070
690.871	0.0140485
690.950	0.0140487
691.028	0.0141749
691.106	0.0141929
691.184	0.0141950
691.262	0.0140975
691.340	0.0141009
691.418	0.0143320
691.496	0.0142438
691.575	0.0142884
691.653	0.0144193
691.731	0.0142643
691.809	0.0143353
691.887	0.0143077
691.965	0.0142757
692.043	0.0143472
692.121	0.0142793
692.200	0.0142451
692.278	0.0141574
692.356	0.0142200
692.434	0.0143091
692.512	0.0142899
692.590	0.0141651
692.668	0.0141597
692.746	0.0142542
692.825	0.0141806
692.903	0.0143003
692.981	0.0145200
693.059	0.0145011
693.137	0.0143811
693.215	0.0145224
693.293	0.0145670
693.371	0.0145493
693.450	0.0145559
693.528	0.0144565
693.606	0.0142978
693.684	0.0141923
693.762	0.0143290
693.840	0.0140765
693.918	0.0139695
693.996	0.0139751
694.075	0.0139764
694.153	0.0138512
694.231	0.0138663
694.309	0.0139477
694.387	0.0140939
694.465	0.0141214
694.543	0.0143136
694.621	0.0145993
694.700	0.0146837
694.778	0.0147372
694.856	0.0147982
694.934	0.0149738
695.012	0.0149197
695.090	0.0147768
695.168	0.0146815
695.246	0.0145676
695.325	0.0142727
695.403	0.0142422
695.481	0.0141252
695.559	0.0140216
695.637	0.0138280
695.715	0.0137112
695.793	0.0137266
695.871	0.0137008
695.950	0.0139211
696.028	0.0140612
696.106	0.0141156
696.184	0.0142928
696.262	0.0144804
696.340	0.0145116
696.418	0.0147124
696.496	0.0148157
696.575	0.0147571
696.653	0.0146959
696.731	0.0146699
696.809	0.0147323
696.887	0.0144600
696.965	0.0142607
697.043	0.0140381
697.121	0.0140192
697.200	0.0138074
697.278	0.0137498
697.356	0.0136825
697.434	0.0138432
697.512	0.0139988
697.590	0.0140076
697.668	0.0143409
697.746	0.0146771
697.825	0.0146898
697.903	0.0150578
697.981	0.0150741
698.059	0.0150979
698.137	0.0151530
698.215	0.0151346
698.293	0.0151180
698.371	0.0149516
698.450	0.0148091
698.528	0.0145643
698.606	0.0140543
698.684	0.0137655
698.762	0.0135111
698.840	0.0133040
698.918	0.0131554
698.996	0.0130217
699.075	0.0132085
699.153	0.0134719
699.231	0.0136586
699.309	0.0138362
699.387	0.0143893
699.465	0.0146721
699.543	0.0148829
699.621	0.0152213
699.700	0.0154214
699.778	0.0154690
699.856	0.0153816
699.934	0.0152373
700.012	0.0151021
700.090	0.0148528
700.168	0.0144057
700.246	0.0140623
700.325	0.0138181
700.403	0.0136884
700.481	0.0136586
700.559	0.0134529
700.637	0.0133862
700.715	0.0137100
700.793	0.0138076
700.871	0.0141097
700.950	0.0142387
701.028	0.0145080
701.106	0.0145173
701.184	0.0148051
701.262	0.0149840
701.340	0.0149920
701.418	0.0150641
701.496	0.0149519
701.575	0.0148858
701.653	0.0147446
701.731	0.0144186
701.809	0.0141352
701.887	0.0139320
701.965	0.0137161
702.043	0.0135316
702.121	0.0134685
702.200	0.0134230
702.278	0.0136195
702.356	0.0136400
702.434	0.0140067
702.512	0.0142252
702.590	0.0144567
702.668	0.0146365
702.746	0.0148503
702.825	0.0148472
702.903	0.0149356
702.981	0.0147281
703.059	0.0147507
703.137	0.0147157
703.215	0.0145337
703.293	0.0142620
703.371	0.0142245
703.450	0.0140311
703.528	0.0139085
703.606	0.0137267
703.684	0.0137674
703.762	0.0137222
703.840	0.0139744
703.918	0.0139767
703.996	0.0141883
704.075	0.0143882
704.153	0.0145658
704.231	0.0146233
704.309	0.0148288
704.387	0.0149108
704.465	0.0149663
704.543	0.0149068
704.621	0.0149235
704.700	0.0147939
704.778	0.0146635
704.856	0.0145163
704.934	0.0142457
705.012	0.0141938
705.090	0.0139909
705.168	0.0136282
705.246	0.0136269
705.325	0.0135374
705.403	0.0133607
705.481	0.0135172
705.559	0.0135172
705.637	0.0136000
705.715	0.0138947
705.793	0.0138737
705.871	0.0139323
705.950	0.0142634
706.028	0.0145319
706.106	0.0148481
706.184	0.0149735
706.262	0.0151283
706.340	0.0151917
706.418	0.0153049
706.496	0.0153793
706.575	0.0153128
706.653	0.0150417
706.731	0.0147798
706.809	0.0142632
706.887	0.0140301
706.965	0.0136868
707.043	0.0132815
707.121	0.0132018
707.200	0.0129937
707.278	0.0130479
707.356	0.0129882
707.434	0.0132169
707.512	0.0133766
707.590	0.0137805
707.668	0.0139538
707.746	0.0143130
707.825	0.0146485
707.903	0.0149095
707.981	0.0149619
708.059	0.0150964
708.137	0.0151553
708.215	0.0152676
708.293	0.0151260
708.371	0.0149741
708.450	0.0146960
708.528	0.0145358
708.606	0.0143635
708.684	0.0140002
708.762	0.0138689
708.840	0.0137605
708.918	0.0135966
708.996	0.0135847
709.075	0.0136127
709.153	0.0134489
709.231	0.0135189
709.309	0.0134451
709.387	0.0137139
709.465	0.0137713
709.543	0.0138244
709.621	0.0139351
709.700	0.0140411
709.778	0.0141868
709.856	0.0144571
709.934	0.0145817
710.012	0.0148657
710.090	0.0149040
710.168	0.0149913
710.246	0.0151615
710.325	0.0152325
710.403	0.0150311
710.481	0.0148717
710.559	0.0148814
710.637	0.0146228
710.715	0.0142470
710.793	0.0139599
710.871	0.0138818
710.950	0.0137168
711.028	0.0135012
711.106	0.0135162
711.184	0.0135658
711.262	0.0136986
711.340	0.0137811
711.418	0.0138511
711.496	0.0138939
711.575	0.0140202
711.653	0.0140650
711.731	0.0142568
711.809	0.0141920
711.887	0.0142123
711.965	0.0143064
712.043	0.0144024
712.121	0.0143120
712.200	0.0143504
712.278	0.0143738
712.356	0.0144440
712.434	0.0144960
712.512	0.0144636
712.590	0.0143576
712.668	0.0145150
712.746	0.0144001
712.825	0.0144813
712.903	0.0144334
712.981	0.0144060
713.059	0.0142796
713.137	0.0142416
713.215	0.0140683
713.293	0.0140209
713.371	0.0141513
713.450	0.0141829
713.528	0.0140574
713.606	0.0142065
713.684	0.0141902
713.762	0.0141519
713.840	0.0144151
713.918	0.0143243
713.996	0.0144538
714.075	0.0146115
714.153	0.0146133
714.231	0.0146512
714.309	0.0146844
714.387	0.0146710
714.465	0.0146363
714.543	0.0145965
714.621	0.0144324
714.700	0.0143395
714.778	0.0142857
714.856	0.0142422
714.934	0.0140362
715.012	0.0140553
715.090	0.0141845
715.168	0.0141520
715.246	0.0140489
715.325	0.0141030
715.403	0.0141222
715.481	0.0142668
715.559	0.0141235
715.637	0.0140829
715.715	0.0140572
715.793	0.0141413
715.871	0.0140468
715.950	0.0141634
716.028	0.0143804
716.106	0.0141412
716.184	0.0144283
716.262	0.0144657
716.340	0.0145316
716.418	0.0145649
716.496	0.0145646
716.575	0.0144866
716.653	0.0145199
716.731	0.0144408
716.809	0.0143678
716.887	0.0144061
716.965	0.0142830
717.043	0.0140970
717.121	0.0139444
717.200	0.0139449
717.278	0.0138270
717.356	0.0137243
717.434	0.0138155
717.512	0.0138757
717.590	0.0140501
717.668	0.0140741
717.746	0.0141456
717.825	0.0143978
717.903	0.0144489
717.981	0.0146735
718.059	0.0146452
718.137	0.0150008
718.215	0.0150551
718.293	0.0150121
718.371	0.0148882
718.450	0.0148116
718.528	0.0148151
718.606	0.0147633
718.684	0.0146260
718.762	0.0145681
718.840	0.0145103
718.918	0.0144415
718.996	0.0141671
719.075	0.0141448
719.153	0.0141483
719.231	0.0139744
719.309	0.0137159
719.387	0.0136340
719.465	0.0137290
719.543	0.0137691
719.621	0.0139034
719.700	0.0139157
719.778	0.0140373
719.856	0.0141222
719.934	0.0142332
720.012	0.0143738
720.090	0.0143756
720.168	0.0144720
720.246	0.0145752
720.325	0.0145589
720.403	0.0145670
720.481	0.0145568
720.559	0.0146141
720.637	0.0144305
720.715	0.0142218
720.793	0.0141345
720.871	0.0142463
720.950	0.0140510
721.028	0.0140119
721.106	0.0140284
721.184	0.0140118
721.262	0.0139153
721.340	0.0139936
721.418	0.0139467
721.496	0.0139471
721.575	0.0138811
721.653	0.0140481
721.731	0.0139323
721.809	0.0139709
721.887	0.0140556
721.965	0.0138763
722.043	0.0139532
722.121	0.0138622
722.200	0.0140790
722.278	0.0142851
722.356	0.0142469
722.434	0.0143941
722.512	0.0143436
722.590	0.0145119
722.668	0.0146523
722.746	0.0147436
722.825	0.0148106
722.903	0.0148899
722.981	0.0149284
723.059	0.0147534
723.137	0.0148512
723.215	0.0146655
723.293	0.0146426
723.371	0.0144130
723.450	0.0143748
723.528	0.0141112
723.606	0.0139944
723.684	0.0137788
723.762	0.0138017
723.840	0.0137399
723.918	0.0137665
723.996	0.0138071
724.075	0.0138404
724.153	0.0137865
724.231	0.0140257
724.309	0.0140637
724.387	0.0143961
724.465	0.0143853
724.543	0.0143593
724.621	0.0144738
724.700	0.0145509
724.778	0.0145075
724.856	0.0144195
724.934	0.0146098
725.012	0.0146191
725.090	0.0144854
725.168	0.0144770
725.246	0.0145307
725.325	0.0143948
725.403	0.0143949
725.481	0.0144921
725.559	0.0144080
725.637	0.0143472
725.715	0.0144267
725.793	0.0142815
725.871	0.0142744
725.950	0.0139964
726.028	0.0141801
726.106	0.0141523
726.184	0.0140770
726.262	0.0139088
726.340	0.0139126
726.418	0.0140105
726.496	0.0140131
726.575	0.0140645
726.653	0.0141348
726.731	0.0141705
726.809	0.0143054
726.887	0.0142342
726.965	0.0144305
727.043	0.0144861
727.121	0.0145220
727.200	0.0146104
727.278	0.0145930
727.356	0.0145621
727.434	0.0145439
727.512	0.0144636
727.590	0.0143838
727.668	0.0142976
727.746	0.0141924
727.825	0.0140443
727.903	0.0139529
727.981	0.0137859
728.059	0.0138255
728.137	0.0136902
728.215	0.0136804
728.293	0.0136950
728.371	0.0137936
728.450	0.0138765
728.528	0.0140565
728.606	0.0141707
728.684	0.0141824
728.762	0.0143373
728.840	0.0143867
728.918	0.0144216
728.996	0.0144633
729.075	0.0146264
729.153	0.0145039
729.231	0.0145953
729.309	0.0145473
729.387	0.0145705
729.465	0.0145728
729.543	0.0143348
729.621	0.0144666
729.700	0.0143723
729.778	0.0142828
729.856	0.0142092
729.934	0.0143658
730.012	0.0142345
730.090	0.0141705
730.168	0.0141888
730.246	0.0142778
730.325	0.0142464
730.403	0.0143471
730.481	0.0142550
730.559	0.0141410
730.637	0.0144534
730.715	0.0143889
730.793	0.0142448
730.871	0.0143341
730.950	0.0144472
731.028	0.0144232
731.106	0.0142785
731.184	0.0142063
731.262	0.0143516
731.340	0.0142826
731.418	0.0142931
731.496	0.0142869
731.575	0.0143634
731.653	0.0141824
731.731	0.0142971
731.809	0.0142387
731.887	0.0143706
731.965	0.0143038
732.043	0.0142367
732.121	0.0143551
732.200	0.0142941
732.278	0.0143637
732.356	0.0143034
732.434	0.0143063
732.512	0.0144278
732.590	0.0144199
732.668	0.0143563
732.746	0.0143156
732.825	0.0143416
732.903	0.0143683
732.981	0.0143309
733.059	0.0140993
733.137	0.0141048
733.215	0.0142968
733.293	0.0142022
733.371	0.0142305
733.450	0.0141872
733.528	0.0140592
733.606	0.0140683
733.684	0.0141950
733.762	0.0139982
733.840	0.0141004
733.918	0.0142264
733.996	0.0141656
734.075	0.0143501
734.153	0.0143137
734.231	0.0142896
734.309	0.0143001
734.387	0.0144798
734.465	0.0143342
734.543	0.0144746
734.621	0.0144216
734.700	0.0143482
734.778	0.0144328
734.856	0.0145122
734.934	0.0144430
735.012	0.0144073
735.090	0.0142892
735.168	0.0143540
735.246	0.0142931
735.325	0.0140797
735.403	0.0140557
735.481	0.0141199
735.559	0.0140022
735.637	0.0140005
735.715	0.0140028
735.793	0.0139716
735.871	0.0140168
735.950	0.0141357
736.028	0.0141817
736.106	0.0141914
736.184	0.0144324
736.262	0.0144582
736.340	0.0143222
736.418	0.0144936
736.496	0.0146466
736.575	0.0147639
736.653	0.0148660
736.731	0.0147197
736.809	0.0147031
736.887	0.0146186
736.965	0.0147004
737.043	0.0146506
737.121	0.0146049
737.200	0.0144598
737.278	0.0144822
737.356	0.0144001
737.434	0.0143314
737.512	0.0141819
737.590	0.0141685
737.668	0.0140955
737.746	0.0141019
737.825	0.0142306
737.903	0.0141422
737.981	0.0141330
738.059	0.0139804
738.137	0.0140888
738.215	0.0141669
738.293	0.0140805
738.371	0.0140012
738.450	0.0141097
738.528	0.0142233
738.606	0.0142393
738.684	0.0143416
738.762	0.0141940
738.840	0.0141935
738.918	0.0142789
738.996	0.0144079
739.075	0.0143475
739.153	0.0143225
739.231	0.0143601
739.309	0.0143800
739.387	0.0143041
739.465	0.0143480
739.543	0.0142789
739.621	0.0142366
739.700	0.0142188
739.778	0.0143606
739.856	0.0140842
739.934	0.0141174
740.012	0.0141509
740.090	0.0140762
740.168	0.0140841
740.246	0.0140761
740.325	0.0140261
740.403	0.0139218
740.481	0.0140556
740.559	0.0141096
740.637	0.0142913
740.715	0.0141737
740.793	0.0143099
740.871	0.0144106
740.950	0.0144104
741.028	0.0145842
741.106	0.0145373
741.184	0.0144398
741.262	0.0144116
741.340	0.0145960
741.418	0.0146752
741.496	0.0144800
741.575	0.0144361
741.653	0.0144508
741.731	0.0143058
741.809	0.0143031
741.887	0.0141877
741.965	0.0142332
742.043	0.0142884
742.121	0.0141768
742.200	0.0141707
742.278	0.0141271
742.356	0.0142160
742.434	0.0140987
742.512	0.0140950
742.590	0.0141720
742.668	0.0140958
742.746	0.0142461
742.825	0.0141351
742.903	0.0141191
742.981	0.0140450
743.059	0.0140355
743.137	0.0140953
743.215	0.0139856
743.293	0.0141045
743.371	0.0140615
743.450	0.0142133
743.528	0.0141182
743.606	0.0141345
743.684	0.0141539
743.762	0.0143397
743.840	0.0144100
743.918	0.0145264
743.996	0.0144153
744.075	0.0144093
744.153	0.0145387
744.231	0.0145441
744.309	0.0144566
744.387	0.0145027
744.465	0.0145230
744.543	0.0144611
744.621	0.0144188
744.700	0.0144647
744.778	0.0143880
744.856	0.0144613
744.934	0.0142879
745.012	0.0143227
745.090	0.0141593
745.168	0.0142589
745.246	0.0141884
745.325	0.0141517
745.403	0.0142574
745.481	0.0142780
745.559	0.0143314
745.637	0.0143196
745.715	0.0143275
745.793	0.0142458
745.871	0.0142186
745.950	0.0142468
746.028	0.0142415
746.106	0.0143039
746.184	0.0142983
746.262	0.0143108
746.340	0.0142810
746.418	0.0142998
746.496	0.0142612
746.575	0.0144172
746.653	0.0143166
746.731	0.0144545
746.809	0.0144022
746.887	0.0144878
746.965	0.0144223
747.043	0.0143284
747.121	0.0142191
747.200	0.0141695
747.278	0.0142176
747.356	0.0142727
747.434	0.0141061
747.512	0.0139795
747.590	0.0139276
747.668	0.0140218
747.746	0.0139104
747.825	0.0138527
747.903	0.0138620
747.981	0.0138707
748.059	0.0139822
748.137	0.0140131
748.215	0.0139813
748.293	0.0141280
748.371	0.0143468
748.450	0.0143964
748.528	0.0143323
748.606	0.0143577
748.684	0.0144813
748.762	0.0145018
748.840	0.0145596
748.918	0.0145382
748.996	0.0145474
749.075	0.0145126
749.153	0.0145290
749.231	0.0144141
749.309	0.0143452
749.387	0.0144591
749.465	0.0143654
749.543	0.0143871
749.621	0.0143759
749.700	0.0142006
749.778	0.0142513
749.856	0.0141640
749.934	0.0141495
750.012	0.0142001
750.090	0.0143017
750.168	0.0142258
750.246	0.0141582
750.325	0.0142851
750.403	0.0141864
750.481	0.0143721
750.559	0.0143515
750.637	0.0143818
750.715	0.0143115
750.793	0.0142648
750.871	0.0144016
750.950	0.0142866
751.028	0.0142912
751.106	0.0143354
751.184	0.0145056
751.262	0.0143874
751.340	0.0143731
751.418	0.0143922
751.496	0.0143037
751.575	0.0143666
751.653	0.0143021
751.731	0.0143764
751.809	0.0143121
751.887	0.0142765
751.965	0.0142499
752.043	0.0142471
752.121	0.0142505
752.200	0.0141519
752.278	0.0143179
752.356	0.0144694
752.434	0.0142702
752.512	0.0142874
752.590	0.0143544
752.668	0.0143353
752.746	0.0144571
752.825	0.0143382
752.903	0.0144679
752.981	0.0144475
753.059	0.0143584
753.137	0.0145350
753.215	0.0145592
753.293	0.0144982
753.371	0.0145625
753.450	0.0147163
753.528	0.0144188
753.606	0.0144947
753.684	0.0143937
753.762	0.0145107
753.840	0.0144807
753.918	0.0144382
753.996	0.0144391
754.075	0.0143464
754.153	0.0142891
754.231	0.0143678
754.309	0.0142689
754.387	0.0142411
754.465	0.0141247
754.543	0.0143422
754.621	0.0143416
754.700	0.0140946
754.778	0.0143317
754.856	0.0142373
754.934	0.0141153
755.012	0.0141458
755.090	0.0142422
755.168	0.0141226
755.246	0.0140100
755.325	0.0140748
755.403	0.0141265
755.481	0.0141368
755.559	0.0141223
755.637	0.0141104
755.715	0.0141113
755.793	0.0140768
755.871	0.0140640
755.950	0.0142675
756.028	0.0142051
756.106	0.0141572
756.184	0.0139983
756.262	0.0141674
756.340	0.0142506
756.418	0.0141903
756.496	0.0142683
756.575	0.0143652
756.653	0.0142570
756.731	0.0142628
756.809	0.0141933
756.887	0.0141509
756.965	0.0141603
757.043	0.0142395
757.121	0.0142979
757.200	0.0142777
757.278	0.0143581
757.356	0.0143399
757.434	0.0143575
757.512	0.0142844
757.590	0.0142680
757.668	0.0141690
757.746	0.0142947
757.825	0.0143567
757.903	0.0143615
757.981	0.0142660
758.059	0.0142955
758.137	0.0141515
758.215	0.0142139
758.293	0.0142760
758.371	0.0143425
758.450	0.0142809
758.528	0.0142039
758.606	0.0141930
758.684	0.0143291
758.762	0.0141327
758.840	0.0142103
758.918	0.0142045
758.996	0.0141862
759.075	0.0142181
759.153	0.0142867
759.231	0.0141457
759.309	0.0141288
759.387	0.0142271
759.465	0.0142043
759.543	0.0141055
759.621	0.0141747
759.700	0.0141509
759.778	0.0142934
759.856	0.0142786
759.934	0.0141723
760.012	0.0141922
760.090	0.0142210
760.168	0.0141291
760.246	0.0141443
760.325	0.0142509
760.403	0.0143066
760.481	0.0143804
760.559	0.0142710
760.637	0.0142886
760.715	0.0142767
760.793	0.0143124
760.871	0.0143876
760.950	0.0143616
761.028	0.0144280
761.106	0.0144321
761.184	0.0143729
761.262	0.0144115
761.340	0.0144592
761.418	0.0144309
761.496	0.0146526
761.575	0.0145177
761.653	0.0144336
761.731	0.0144216
761.809	0.0143822
761.887	0.0144165
761.965	0.0143900
762.043	0.0144157
762.121	0.0142257
762.200	0.0141698
762.278	0.0142404
762.356	0.0143521
762.434	0.0143990
762.512	0.0141807
762.590	0.0141920
762.668	0.0142944
762.746	0.0143296
762.825	0.0143356
762.903	0.0141782
762.981	0.0143097
763.059	0.0141061
763.137	0.0141577
763.215	0.0142141
763.293	0.0142316
763.371	0.0142743
763.450	0.0141915
763.528	0.0140012
763.606	0.0142456
763.684	0.0140736
763.762	0.0142441
763.840	0.0142147
763.918	0.0140931
763.996	0.0140563
764.075	0.0142561
764.153	0.0142035
764.231	0.0141494
764.309	0.0141904
764.387	0.0141019
764.465	0.0142937
764.543	0.0142488
764.621	0.0141779
764.700	0.0142886
