05/04/2022	21:22:23	Ver.	4.1	UNKNOWN
Optical Delay	678.996401	Delta X		0.078125	Sweeps	1	Scan Rate	0/0
Coordinates	Axis 1	NaN	Axis 2	NaN	Axis 3	NaN	Axis 4	NaN	Axis 5	NaN	Axis 6	0.000000
TX Power	0.000000	RX Power	0.000000

678.996	0.0146986
679.075	0.0146295
679.153	0.0148359
679.231	0.0147696
679.309	0.0147134
679.387	0.0147533
679.465	0.0147507
679.543	0.0148618
679.621	0.0147308
679.700	0.0148833
679.778	0.0148093
679.856	0.0147410
679.934	0.0148392
680.012	0.0148438
680.090	0.0147929
680.168	0.0149072
680.246	0.0147649
680.325	0.0148364
680.403	0.0148495
680.481	0.0147054
680.559	0.0148177
680.637	0.0146817
680.715	0.0146669
680.793	0.0145956
680.871	0.0147660
680.950	0.0147197
681.028	0.0147049
681.106	0.0145467
681.184	0.0146236
681.262	0.0146034
681.340	0.0147560
681.418	0.0147746
681.496	0.0147202
681.575	0.0146441
681.653	0.0147538
681.731	0.0146654
681.809	0.0146565
681.887	0.0147852
681.965	0.0148763
682.043	0.0149098
682.121	0.0149110
682.200	0.0148302
682.278	0.0148260
682.356	0.0148296
682.434	0.0148065
682.512	0.0146980
682.590	0.0146718
682.668	0.0147850
682.746	0.0148125
682.825	0.0146047
682.903	0.0145724
682.981	0.0146755
683.059	0.0144501
683.137	0.0144987
683.215	0.0147299
683.293	0.0144782
683.371	0.0144849
683.450	0.0145580
683.528	0.0144957
683.606	0.0145339
683.684	0.0146814
683.762	0.0146494
683.840	0.0145927
683.918	0.0146416
683.996	0.0147770
684.075	0.0146338
684.153	0.0147215
684.231	0.0145994
684.309	0.0146053
684.387	0.0147068
684.465	0.0147739
684.543	0.0146680
684.621	0.0148289
684.700	0.0148944
684.778	0.0146821
684.856	0.0148476
684.934	0.0147376
685.012	0.0146939
685.090	0.0146307
685.168	0.0145947
685.246	0.0145583
685.325	0.0145534
685.403	0.0145688
685.481	0.0145629
685.559	0.0146276
685.637	0.0146221
685.715	0.0145536
685.793	0.0145911
685.871	0.0147088
685.950	0.0145537
686.028	0.0146445
686.106	0.0147566
686.184	0.0147981
686.262	0.0147082
686.340	0.0147411
686.418	0.0147703
686.496	0.0148049
686.575	0.0148099
686.653	0.0148226
686.731	0.0147324
686.809	0.0148615
686.887	0.0146283
686.965	0.0145616
687.043	0.0146762
687.121	0.0146413
687.200	0.0146765
687.278	0.0146895
687.356	0.0145578
687.434	0.0146866
687.512	0.0144992
687.590	0.0145638
687.668	0.0145538
687.746	0.0144657
687.825	0.0146953
687.903	0.0146380
687.981	0.0144624
688.059	0.0146777
688.137	0.0147230
688.215	0.0147617
688.293	0.0145746
688.371	0.0145148
688.450	0.0145907
688.528	0.0147296
688.606	0.0147828
688.684	0.0145734
688.762	0.0146042
688.840	0.0145876
688.918	0.0146105
688.996	0.0146281
689.075	0.0145113
689.153	0.0146978
689.231	0.0145915
689.309	0.0146347
689.387	0.0146078
689.465	0.0145648
689.543	0.0146513
689.621	0.0145591
689.700	0.0147778
689.778	0.0145667
689.856	0.0146433
689.934	0.0144992
690.012	0.0145847
690.090	0.0146015
690.168	0.0145538
690.246	0.0144504
690.325	0.0144299
690.403	0.0145058
690.481	0.0144321
690.559	0.0145767
690.637	0.0145424
690.715	0.0144672
690.793	0.0145979
690.871	0.0146905
690.950	0.0147129
691.028	0.0147205
691.106	0.0146514
691.184	0.0145956
691.262	0.0146938
691.340	0.0145051
691.418	0.0145874
691.496	0.0147110
691.575	0.0145954
691.653	0.0146239
691.731	0.0146096
691.809	0.0145409
691.887	0.0146214
691.965	0.0146702
692.043	0.0148055
692.121	0.0147973
692.200	0.0147836
692.278	0.0149095
692.356	0.0148189
692.434	0.0150088
692.512	0.0148549
692.590	0.0147195
692.668	0.0149754
692.746	0.0149193
692.825	0.0147929
692.903	0.0147665
692.981	0.0148295
693.059	0.0145158
693.137	0.0144183
693.215	0.0142917
693.293	0.0143544
693.371	0.0142549
693.450	0.0142753
693.528	0.0142548
693.606	0.0143098
693.684	0.0144192
693.762	0.0146118
693.840	0.0147137
693.918	0.0148863
693.996	0.0148431
694.075	0.0150423
694.153	0.0152447
694.231	0.0151705
694.309	0.0151746
694.387	0.0153625
694.465	0.0152979
694.543	0.0152397
694.621	0.0151109
694.700	0.0150314
694.778	0.0148907
694.856	0.0147662
694.934	0.0145531
695.012	0.0142931
695.090	0.0143109
695.168	0.0142422
695.246	0.0141092
695.325	0.0141529
695.403	0.0141692
695.481	0.0143085
695.559	0.0144215
695.637	0.0146187
695.715	0.0147070
695.793	0.0147180
695.871	0.0148784
695.950	0.0149449
696.028	0.0150462
696.106	0.0151374
696.184	0.0151298
696.262	0.0150648
696.340	0.0150738
696.418	0.0149541
696.496	0.0150212
696.575	0.0148163
696.653	0.0147340
696.731	0.0145084
696.809	0.0143819
696.887	0.0143737
696.965	0.0143249
697.043	0.0142965
697.121	0.0142984
697.200	0.0145749
697.278	0.0146114
697.356	0.0147871
697.434	0.0149620
697.512	0.0150171
697.590	0.0150828
697.668	0.0151815
697.746	0.0152842
697.825	0.0151423
697.903	0.0150200
697.981	0.0148719
698.059	0.0148777
698.137	0.0145940
698.215	0.0144154
698.293	0.0143262
698.371	0.0140869
698.450	0.0139419
698.528	0.0141232
698.606	0.0139724
698.684	0.0141038
698.762	0.0145001
698.840	0.0145200
698.918	0.0148647
698.996	0.0152591
699.075	0.0154311
699.153	0.0153809
699.231	0.0155183
699.309	0.0154691
699.387	0.0156983
699.465	0.0155143
699.543	0.0153831
699.621	0.0150208
699.700	0.0147368
699.778	0.0146181
699.856	0.0142673
699.934	0.0142219
700.012	0.0140266
700.090	0.0138939
700.168	0.0141251
700.246	0.0140986
700.325	0.0143248
700.403	0.0144521
700.481	0.0147511
700.559	0.0150552
700.637	0.0151690
700.715	0.0153513
700.793	0.0154216
700.871	0.0153970
700.950	0.0153424
701.028	0.0153306
701.106	0.0150729
701.184	0.0146558
701.262	0.0144043
701.340	0.0141855
701.418	0.0140421
701.496	0.0139095
701.575	0.0139487
701.653	0.0138598
701.731	0.0141669
701.809	0.0143949
701.887	0.0145739
701.965	0.0147385
702.043	0.0150995
702.121	0.0151512
702.200	0.0152319
702.278	0.0153107
702.356	0.0151653
702.434	0.0151888
702.512	0.0151592
702.590	0.0149888
702.668	0.0147679
702.746	0.0146904
702.825	0.0144669
702.903	0.0144160
702.981	0.0141520
703.059	0.0141687
703.137	0.0141705
703.215	0.0140504
703.293	0.0140540
703.371	0.0140284
703.450	0.0142512
703.528	0.0143800
703.606	0.0145054
703.684	0.0147331
703.762	0.0149220
703.840	0.0150710
703.918	0.0153581
703.996	0.0154151
704.075	0.0154558
704.153	0.0154121
704.231	0.0155202
704.309	0.0155955
704.387	0.0154641
704.465	0.0154225
704.543	0.0153593
704.621	0.0151270
704.700	0.0147729
704.778	0.0146509
704.856	0.0144864
704.934	0.0140978
705.012	0.0139597
705.090	0.0137565
705.168	0.0135018
705.246	0.0132439
705.325	0.0131474
705.403	0.0132444
705.481	0.0134809
705.559	0.0135408
705.637	0.0138743
705.715	0.0143867
705.793	0.0148547
705.871	0.0154027
705.950	0.0159570
706.028	0.0162392
706.106	0.0164182
706.184	0.0163519
706.262	0.0162271
706.340	0.0158829
706.418	0.0157700
706.496	0.0154808
706.575	0.0150857
706.653	0.0146629
706.731	0.0143461
706.809	0.0140327
706.887	0.0139747
706.965	0.0138191
707.043	0.0136639
707.121	0.0135771
707.200	0.0135338
707.278	0.0136608
707.356	0.0137646
707.434	0.0138712
707.512	0.0141462
707.590	0.0143882
707.668	0.0144968
707.746	0.0147485
707.825	0.0149083
707.903	0.0150407
707.981	0.0151807
708.059	0.0151778
708.137	0.0152934
708.215	0.0153833
708.293	0.0153458
708.371	0.0154206
708.450	0.0152034
708.528	0.0151598
708.606	0.0149998
708.684	0.0147954
708.762	0.0147415
708.840	0.0146030
708.918	0.0145624
708.996	0.0142844
709.075	0.0143053
709.153	0.0140804
709.231	0.0141310
709.309	0.0140583
709.387	0.0139987
709.465	0.0141670
709.543	0.0141627
709.621	0.0143021
709.700	0.0145674
709.778	0.0147691
709.856	0.0148730
709.934	0.0149053
710.012	0.0150085
710.090	0.0149133
710.168	0.0149799
710.246	0.0149422
710.325	0.0148490
710.403	0.0146687
710.481	0.0146521
710.559	0.0146217
710.637	0.0145882
710.715	0.0144484
710.793	0.0145454
710.871	0.0147179
710.950	0.0144955
711.028	0.0142014
711.106	0.0144717
711.184	0.0144758
711.262	0.0144783
711.340	0.0145026
711.418	0.0143079
711.496	0.0144202
711.575	0.0144311
711.653	0.0144727
711.731	0.0143508
711.809	0.0142301
711.887	0.0143504
711.965	0.0142751
712.043	0.0143253
712.121	0.0143163
712.200	0.0142931
712.278	0.0142982
712.356	0.0144048
712.434	0.0145374
712.512	0.0146295
712.590	0.0146304
712.668	0.0146201
712.746	0.0146215
712.825	0.0147831
712.903	0.0148373
712.981	0.0147205
713.059	0.0147704
713.137	0.0148286
713.215	0.0147399
713.293	0.0146203
713.371	0.0147110
713.450	0.0146320
713.528	0.0146817
713.606	0.0146507
713.684	0.0146667
713.762	0.0148747
713.840	0.0146384
713.918	0.0146445
713.996	0.0150450
714.075	0.0148553
714.153	0.0148441
714.231	0.0148618
714.309	0.0150182
714.387	0.0148958
714.465	0.0149157
714.543	0.0147208
714.621	0.0146610
714.700	0.0145875
714.778	0.0143550
714.856	0.0142956
714.934	0.0142348
715.012	0.0142833
715.090	0.0142343
715.168	0.0140469
715.246	0.0142075
715.325	0.0142606
715.403	0.0144207
715.481	0.0145275
715.559	0.0148017
715.637	0.0149375
715.715	0.0150152
715.793	0.0151985
715.871	0.0152467
715.950	0.0154293
716.028	0.0154871
716.106	0.0154456
716.184	0.0153908
716.262	0.0154579
716.340	0.0150928
716.418	0.0150777
716.496	0.0150184
716.575	0.0147723
716.653	0.0149541
716.731	0.0146603
716.809	0.0146678
716.887	0.0143694
716.965	0.0143092
717.043	0.0143877
717.121	0.0143219
717.200	0.0142503
717.278	0.0142073
717.356	0.0142413
717.434	0.0141051
717.512	0.0141836
717.590	0.0142306
717.668	0.0143570
717.746	0.0144453
717.825	0.0144292
717.903	0.0147367
717.981	0.0148006
718.059	0.0150777
718.137	0.0152584
718.215	0.0153058
718.293	0.0153136
718.371	0.0154587
718.450	0.0154466
718.528	0.0153875
718.606	0.0152323
718.684	0.0151419
718.762	0.0150049
718.840	0.0147911
718.918	0.0146756
718.996	0.0144144
719.075	0.0143018
719.153	0.0141906
719.231	0.0139328
719.309	0.0138470
719.387	0.0138436
719.465	0.0138785
719.543	0.0138593
719.621	0.0139797
719.700	0.0141464
719.778	0.0143642
719.856	0.0144118
719.934	0.0146439
720.012	0.0149320
720.090	0.0149206
720.168	0.0151424
720.246	0.0151689
720.325	0.0150867
720.403	0.0151925
720.481	0.0151940
720.559	0.0150939
720.637	0.0151777
720.715	0.0150385
720.793	0.0150055
720.871	0.0148672
720.950	0.0147947
721.028	0.0147623
721.106	0.0146407
721.184	0.0147124
721.262	0.0146951
721.340	0.0147181
721.418	0.0145347
721.496	0.0144272
721.575	0.0144424
721.653	0.0142556
721.731	0.0142213
721.809	0.0141858
721.887	0.0141014
721.965	0.0139112
722.043	0.0141615
722.121	0.0142321
722.200	0.0141389
722.278	0.0143614
722.356	0.0144739
722.434	0.0145496
722.512	0.0149058
722.590	0.0151131
722.668	0.0153070
722.746	0.0154199
722.825	0.0154883
722.903	0.0155753
722.981	0.0156419
723.059	0.0155163
723.137	0.0154375
723.215	0.0153861
723.293	0.0151461
723.371	0.0149967
723.450	0.0148702
723.528	0.0145509
723.606	0.0144972
723.684	0.0143620
723.762	0.0141635
723.840	0.0142397
723.918	0.0140923
723.996	0.0139075
724.075	0.0142259
724.153	0.0140195
724.231	0.0141919
724.309	0.0141876
724.387	0.0141982
724.465	0.0145125
724.543	0.0146684
724.621	0.0146742
724.700	0.0147809
724.778	0.0149167
724.856	0.0149538
724.934	0.0150574
725.012	0.0150927
725.090	0.0152981
725.168	0.0151724
725.246	0.0151351
725.325	0.0152306
725.403	0.0151894
725.481	0.0148833
725.559	0.0148199
725.637	0.0148180
725.715	0.0146745
725.793	0.0144052
725.871	0.0144262
725.950	0.0143826
726.028	0.0142513
726.106	0.0141378
726.184	0.0141415
726.262	0.0142281
726.340	0.0142128
726.418	0.0141924
726.496	0.0144559
726.575	0.0144095
726.653	0.0146093
726.731	0.0148111
726.809	0.0148217
726.887	0.0148370
726.965	0.0149975
727.043	0.0150421
727.121	0.0149496
727.200	0.0150120
727.278	0.0149452
727.356	0.0150719
727.434	0.0150117
727.512	0.0148758
727.590	0.0147547
727.668	0.0147591
727.746	0.0147085
727.825	0.0146909
727.903	0.0145836
727.981	0.0145222
728.059	0.0146615
728.137	0.0145544
728.215	0.0143999
728.293	0.0145970
728.371	0.0144414
728.450	0.0145085
728.528	0.0144989
728.606	0.0145168
728.684	0.0143707
728.762	0.0144036
728.840	0.0146008
728.918	0.0146851
728.996	0.0146403
729.075	0.0144972
729.153	0.0146937
729.231	0.0145683
729.309	0.0147397
729.387	0.0147335
729.465	0.0147616
729.543	0.0148151
729.621	0.0148343
729.700	0.0148170
729.778	0.0148202
729.856	0.0148664
729.934	0.0148811
730.012	0.0149670
730.090	0.0150801
730.168	0.0149791
730.246	0.0149937
730.325	0.0150539
730.403	0.0149775
730.481	0.0148328
730.559	0.0149483
730.637	0.0148814
730.715	0.0146825
730.793	0.0147386
730.871	0.0145685
730.950	0.0145104
731.028	0.0145264
731.106	0.0143449
731.184	0.0142781
731.262	0.0142686
731.340	0.0141599
731.418	0.0140589
731.496	0.0143488
731.575	0.0143460
731.653	0.0143613
731.731	0.0143825
731.809	0.0144825
731.887	0.0145631
731.965	0.0146806
732.043	0.0146262
732.121	0.0146338
732.200	0.0148033
732.278	0.0147496
732.356	0.0148236
732.434	0.0148015
732.512	0.0149316
732.590	0.0149072
732.668	0.0147121
732.746	0.0147775
732.825	0.0148249
732.903	0.0146330
732.981	0.0147099
733.059	0.0147778
733.137	0.0145144
733.215	0.0145229
733.293	0.0145187
733.371	0.0144096
733.450	0.0143288
733.528	0.0143147
733.606	0.0144550
733.684	0.0143249
733.762	0.0143754
733.840	0.0142760
733.918	0.0142666
733.996	0.0144207
734.075	0.0144544
734.153	0.0145396
734.231	0.0145293
734.309	0.0147878
734.387	0.0149512
734.465	0.0149818
734.543	0.0149443
734.621	0.0150189
734.700	0.0151369
734.778	0.0152229
734.856	0.0151311
734.934	0.0150326
735.012	0.0150858
735.090	0.0150753
735.168	0.0148566
735.246	0.0148653
735.325	0.0147618
735.403	0.0145817
735.481	0.0146047
735.559	0.0146264
735.637	0.0143742
735.715	0.0144912
735.793	0.0145020
735.871	0.0145228
735.950	0.0143928
736.028	0.0145721
736.106	0.0144588
736.184	0.0145703
736.262	0.0146453
736.340	0.0147547
736.418	0.0147711
736.496	0.0147559
736.575	0.0146912
736.653	0.0149234
736.731	0.0149696
736.809	0.0149991
736.887	0.0150848
736.965	0.0150140
737.043	0.0151999
737.121	0.0151030
737.200	0.0149886
737.278	0.0151340
737.356	0.0151704
737.434	0.0151095
737.512	0.0149896
737.590	0.0150506
737.668	0.0149244
737.746	0.0147415
737.825	0.0147927
737.903	0.0147029
737.981	0.0144746
738.059	0.0145715
738.137	0.0145546
738.215	0.0144255
738.293	0.0143946
738.371	0.0144247
738.450	0.0143997
738.528	0.0144553
738.606	0.0143894
738.684	0.0142757
738.762	0.0144714
738.840	0.0145035
738.918	0.0145922
738.996	0.0146500
739.075	0.0146658
739.153	0.0147633
739.231	0.0146497
739.309	0.0147719
739.387	0.0147996
739.465	0.0148446
739.543	0.0148057
739.621	0.0149742
739.700	0.0150253
739.778	0.0149464
739.856	0.0149281
739.934	0.0149250
740.012	0.0148302
740.090	0.0148598
740.168	0.0149861
740.246	0.0147065
740.325	0.0148863
740.403	0.0147304
740.481	0.0146805
740.559	0.0147340
740.637	0.0146758
740.715	0.0145894
740.793	0.0145075
740.871	0.0144279
740.950	0.0144073
741.028	0.0145175
741.106	0.0145811
741.184	0.0145142
741.262	0.0144134
741.340	0.0145504
741.418	0.0145119
741.496	0.0144484
741.575	0.0146236
741.653	0.0146294
741.731	0.0146472
741.809	0.0146503
741.887	0.0147373
741.965	0.0145557
742.043	0.0145884
742.121	0.0146824
742.200	0.0146693
742.278	0.0146770
742.356	0.0147326
742.434	0.0148719
742.512	0.0147270
742.590	0.0145901
742.668	0.0146671
742.746	0.0146731
742.825	0.0146264
742.903	0.0144668
742.981	0.0145183
743.059	0.0145509
743.137	0.0144295
743.215	0.0144291
743.293	0.0144482
743.371	0.0143008
743.450	0.0144357
743.528	0.0143910
743.606	0.0144310
743.684	0.0147174
743.762	0.0146961
743.840	0.0146964
743.918	0.0148126
743.996	0.0148836
744.075	0.0149087
744.153	0.0151404
744.231	0.0150887
744.309	0.0149502
744.387	0.0150862
744.465	0.0150690
744.543	0.0151420
744.621	0.0149515
744.700	0.0149128
744.778	0.0148946
744.856	0.0149490
744.934	0.0150422
745.012	0.0148579
745.090	0.0146267
745.168	0.0146429
745.246	0.0146697
745.325	0.0145586
745.403	0.0144823
745.481	0.0145461
745.559	0.0144968
745.637	0.0145522
745.715	0.0144091
745.793	0.0144445
745.871	0.0145196
745.950	0.0144514
746.028	0.0146007
746.106	0.0146169
746.184	0.0144759
746.262	0.0146171
746.340	0.0146829
746.418	0.0147412
746.496	0.0147868
746.575	0.0149797
746.653	0.0148096
746.731	0.0149841
746.809	0.0151344
746.887	0.0149810
746.965	0.0148845
747.043	0.0148551
747.121	0.0150025
747.200	0.0148198
747.278	0.0146533
747.356	0.0146128
747.434	0.0146581
747.512	0.0145341
747.590	0.0145306
747.668	0.0144408
747.746	0.0144135
747.825	0.0144575
747.903	0.0145965
747.981	0.0144470
748.059	0.0146692
748.137	0.0145661
748.215	0.0145392
748.293	0.0146425
748.371	0.0146486
748.450	0.0146764
748.528	0.0148501
748.606	0.0148256
748.684	0.0146437
748.762	0.0148557
748.840	0.0147636
748.918	0.0148306
748.996	0.0147234
749.075	0.0147782
749.153	0.0149274
749.231	0.0147802
749.309	0.0147958
749.387	0.0148138
749.465	0.0145242
749.543	0.0145567
749.621	0.0146051
749.700	0.0146193
749.778	0.0146458
749.856	0.0146531
749.934	0.0145823
750.012	0.0146316
750.090	0.0146333
750.168	0.0145819
750.246	0.0144916
750.325	0.0144644
750.403	0.0146361
750.481	0.0143792
750.559	0.0145090
750.637	0.0148057
750.715	0.0146182
750.793	0.0146105
750.871	0.0146425
750.950	0.0145884
751.028	0.0145734
751.106	0.0146867
751.184	0.0147775
751.262	0.0147816
751.340	0.0147263
751.418	0.0146712
751.496	0.0147453
751.575	0.0147337
751.653	0.0146812
751.731	0.0149123
751.809	0.0147584
751.887	0.0147849
751.965	0.0148305
752.043	0.0148111
752.121	0.0147271
752.200	0.0146708
752.278	0.0145756
752.356	0.0146165
752.434	0.0146148
752.512	0.0146997
752.590	0.0147134
752.668	0.0146861
752.746	0.0146056
752.825	0.0147574
752.903	0.0146494
752.981	0.0146408
753.059	0.0145426
753.137	0.0146836
753.215	0.0146856
753.293	0.0146403
753.371	0.0145966
753.450	0.0145786
753.528	0.0145966
753.606	0.0145784
753.684	0.0146652
753.762	0.0146465
753.840	0.0144558
753.918	0.0144527
753.996	0.0146234
754.075	0.0145927
754.153	0.0146208
754.231	0.0146165
754.309	0.0145190
754.387	0.0146365
754.465	0.0146346
754.543	0.0146040
754.621	0.0145803
754.700	0.0145037
754.778	0.0147122
754.856	0.0145739
754.934	0.0145744
755.012	0.0146167
755.090	0.0146519
755.168	0.0146194
755.246	0.0145628
755.325	0.0147055
755.403	0.0144883
755.481	0.0146291
755.559	0.0146985
755.637	0.0146693
755.715	0.0146442
755.793	0.0145612
755.871	0.0146194
755.950	0.0145697
756.028	0.0146109
756.106	0.0146774
756.184	0.0147680
756.262	0.0147948
756.340	0.0147001
756.418	0.0146255
756.496	0.0146688
756.575	0.0146284
756.653	0.0147871
756.731	0.0147346
756.809	0.0148213
756.887	0.0148148
756.965	0.0148895
757.043	0.0148350
757.121	0.0147591
757.200	0.0150056
757.278	0.0149152
757.356	0.0147904
757.434	0.0148009
757.512	0.0147687
757.590	0.0148615
757.668	0.0146593
757.746	0.0147389
757.825	0.0147077
757.903	0.0146735
757.981	0.0148123
758.059	0.0146425
758.137	0.0146975
758.215	0.0147551
758.293	0.0146528
758.371	0.0147266
758.450	0.0146871
758.528	0.0146301
758.606	0.0147533
758.684	0.0147004
758.762	0.0146286
758.840	0.0146541
758.918	0.0148347
758.996	0.0148059
759.075	0.0147311
759.153	0.0146861
759.231	0.0147741
759.309	0.0147529
759.387	0.0146841
759.465	0.0147996
759.543	0.0147433
759.621	0.0147140
759.700	0.0148199
759.778	0.0147303
759.856	0.0146745
759.934	0.0145901
760.012	0.0145744
760.090	0.0147546
760.168	0.0148132
760.246	0.0147225
760.325	0.0146268
760.403	0.0147318
760.481	0.0147498
760.559	0.0146949
760.637	0.0145834
760.715	0.0147028
760.793	0.0148836
760.871	0.0149308
760.950	0.0148523
761.028	0.0147084
761.106	0.0149854
761.184	0.0148141
761.262	0.0148119
761.340	0.0146879
761.418	0.0147823
761.496	0.0148419
761.575	0.0148566
761.653	0.0147886
761.731	0.0147334
761.809	0.0147397
761.887	0.0147070
761.965	0.0147220
762.043	0.0147397
762.121	0.0146107
762.200	0.0146470
762.278	0.0146398
762.356	0.0146280
762.434	0.0145855
762.512	0.0147948
762.590	0.0146241
762.668	0.0146552
762.746	0.0147162
762.825	0.0146028
762.903	0.0145882
762.981	0.0146980
763.059	0.0147012
763.137	0.0145572
763.215	0.0146478
763.293	0.0145493
763.371	0.0146205
763.450	0.0146201
763.528	0.0147186
763.606	0.0145947
763.684	0.0145726
763.762	0.0146252
763.840	0.0146330
763.918	0.0146896
763.996	0.0146093
764.075	0.0145679
764.153	0.0146532
764.231	0.0148759
764.309	0.0147189
764.387	0.0146818
764.465	0.0145734
764.543	0.0146670
764.621	0.0146152
764.700	0.0145576
