05/04/2022	21:22:38	Ver.	4.1	UNKNOWN
Optical Delay	678.996401	Delta X		0.078125	Sweeps	1	Scan Rate	0/0
Coordinates	Axis 1	NaN	Axis 2	NaN	Axis 3	NaN	Axis 4	NaN	Axis 5	NaN	Axis 6	0.000000
TX Power	0.000000	RX Power	0.000000

678.996	0.0148528
679.075	0.0149169
679.153	0.0147489
679.231	0.0147652
679.309	0.0147874
679.387	0.0148348
679.465	0.0146964
679.543	0.0146684
679.621	0.0146542
679.700	0.0147618
679.778	0.0146490
679.856	0.0144468
679.934	0.0144877
680.012	0.0144798
680.090	0.0146862
680.168	0.0145561
680.246	0.0145475
680.325	0.0146591
680.403	0.0146689
680.481	0.0147226
680.559	0.0148106
680.637	0.0148479
680.715	0.0147928
680.793	0.0147322
680.871	0.0148857
680.950	0.0148709
681.028	0.0150150
681.106	0.0148297
681.184	0.0148610
681.262	0.0148904
681.340	0.0147361
681.418	0.0147551
681.496	0.0147243
681.575	0.0147199
681.653	0.0147659
681.731	0.0146929
681.809	0.0145493
681.887	0.0146346
681.965	0.0147303
682.043	0.0146329
682.121	0.0145788
682.200	0.0146782
682.278	0.0146417
682.356	0.0146307
682.434	0.0146434
682.512	0.0147711
682.590	0.0148092
682.668	0.0146593
682.746	0.0147512
682.825	0.0149161
682.903	0.0148910
682.981	0.0146750
683.059	0.0148623
683.137	0.0149250
683.215	0.0147981
683.293	0.0148988
683.371	0.0148434
683.450	0.0148617
683.528	0.0149500
683.606	0.0150336
683.684	0.0149796
683.762	0.0148088
683.840	0.0149251
683.918	0.0147100
683.996	0.0147092
684.075	0.0147082
684.153	0.0146172
684.231	0.0146151
684.309	0.0147655
684.387	0.0146978
684.465	0.0145608
684.543	0.0145489
684.621	0.0146616
684.700	0.0146324
684.778	0.0146465
684.856	0.0145087
684.934	0.0147339
685.012	0.0146718
685.090	0.0147235
685.168	0.0147775
685.246	0.0147535
685.325	0.0146623
685.403	0.0146620
685.481	0.0146286
685.559	0.0146079
685.637	0.0148083
685.715	0.0147272
685.793	0.0146855
685.871	0.0146632
685.950	0.0146233
686.028	0.0146864
686.106	0.0146278
686.184	0.0148524
686.262	0.0146456
686.340	0.0147018
686.418	0.0146561
686.496	0.0145482
686.575	0.0145126
686.653	0.0146291
686.731	0.0145432
686.809	0.0146156
686.887	0.0146909
686.965	0.0145433
687.043	0.0146310
687.121	0.0146163
687.200	0.0147012
687.278	0.0145665
687.356	0.0146907
687.434	0.0146519
687.512	0.0147200
687.590	0.0146762
687.668	0.0147614
687.746	0.0147582
687.825	0.0147287
687.903	0.0147522
687.981	0.0147725
688.059	0.0148541
688.137	0.0147852
688.215	0.0148228
688.293	0.0150822
688.371	0.0148717
688.450	0.0147371
688.528	0.0147827
688.606	0.0149171
688.684	0.0146564
688.762	0.0148567
688.840	0.0146828
688.918	0.0146815
688.996	0.0146512
689.075	0.0146880
689.153	0.0146425
689.231	0.0147359
689.309	0.0147204
689.387	0.0145818
689.465	0.0146553
689.543	0.0146354
689.621	0.0147698
689.700	0.0146718
689.778	0.0146638
689.856	0.0147074
689.934	0.0147993
690.012	0.0147815
690.090	0.0147565
690.168	0.0147653
690.246	0.0148111
690.325	0.0147757
690.403	0.0149057
690.481	0.0150159
690.559	0.0148129
690.637	0.0150169
690.715	0.0147871
690.793	0.0148014
690.871	0.0148793
690.950	0.0148966
691.028	0.0147527
691.106	0.0147433
691.184	0.0147875
691.262	0.0148588
691.340	0.0145895
691.418	0.0147205
691.496	0.0145733
691.575	0.0146710
691.653	0.0145577
691.731	0.0148091
691.809	0.0148058
691.887	0.0147172
691.965	0.0147643
692.043	0.0148286
692.121	0.0147973
692.200	0.0147307
692.278	0.0148754
692.356	0.0149777
692.434	0.0150430
692.512	0.0150091
692.590	0.0148729
692.668	0.0148614
692.746	0.0147735
692.825	0.0146271
692.903	0.0146647
692.981	0.0146569
693.059	0.0145132
693.137	0.0145202
693.215	0.0145809
693.293	0.0144707
693.371	0.0146870
693.450	0.0148051
693.528	0.0147572
693.606	0.0150555
693.684	0.0151824
693.762	0.0151198
693.840	0.0153838
693.918	0.0155470
693.996	0.0154868
694.075	0.0152625
694.153	0.0151505
694.231	0.0152994
694.309	0.0153161
694.387	0.0152488
694.465	0.0148734
694.543	0.0149062
694.621	0.0146874
694.700	0.0144857
694.778	0.0141702
694.856	0.0141418
694.934	0.0142453
695.012	0.0140968
695.090	0.0141104
695.168	0.0143077
695.246	0.0147437
695.325	0.0147646
695.403	0.0148975
695.481	0.0150437
695.559	0.0150684
695.637	0.0152813
695.715	0.0153033
695.793	0.0153152
695.871	0.0154479
695.950	0.0154496
696.028	0.0154067
696.106	0.0153660
696.184	0.0149704
696.262	0.0149636
696.340	0.0149333
696.418	0.0147131
696.496	0.0147226
696.575	0.0144673
696.653	0.0142909
696.731	0.0144101
696.809	0.0141914
696.887	0.0142449
696.965	0.0144759
697.043	0.0145008
697.121	0.0147301
697.200	0.0148340
697.278	0.0149494
697.356	0.0150703
697.434	0.0152800
697.512	0.0152383
697.590	0.0151588
697.668	0.0151069
697.746	0.0150560
697.825	0.0148540
697.903	0.0147027
697.981	0.0145347
698.059	0.0146222
698.137	0.0144432
698.215	0.0142830
698.293	0.0142822
698.371	0.0143517
698.450	0.0145801
698.528	0.0147584
698.606	0.0147998
698.684	0.0149623
698.762	0.0150323
698.840	0.0151647
698.918	0.0153309
698.996	0.0154612
699.075	0.0154636
699.153	0.0153478
699.231	0.0151035
699.309	0.0148425
699.387	0.0148161
699.465	0.0146735
699.543	0.0145741
699.621	0.0142649
699.700	0.0141994
699.778	0.0141519
699.856	0.0142307
699.934	0.0142737
700.012	0.0143370
700.090	0.0146391
700.168	0.0149046
700.246	0.0150538
700.325	0.0151847
700.403	0.0154683
700.481	0.0155842
700.559	0.0155204
700.637	0.0153117
700.715	0.0152056
700.793	0.0149705
700.871	0.0147116
700.950	0.0143800
701.028	0.0142797
701.106	0.0141072
701.184	0.0137836
701.262	0.0138860
701.340	0.0139891
701.418	0.0140995
701.496	0.0143291
701.575	0.0146537
701.653	0.0149981
701.731	0.0151885
701.809	0.0154353
701.887	0.0155470
701.965	0.0157043
702.043	0.0156152
702.121	0.0155086
702.200	0.0154495
702.278	0.0151832
702.356	0.0149079
702.434	0.0147621
702.512	0.0145345
702.590	0.0144894
702.668	0.0142648
702.746	0.0141396
702.825	0.0139271
702.903	0.0140603
702.981	0.0141406
703.059	0.0140903
703.137	0.0141794
703.215	0.0142839
703.293	0.0143506
703.371	0.0145232
703.450	0.0147221
703.528	0.0149635
703.606	0.0150682
703.684	0.0152979
703.762	0.0155463
703.840	0.0154336
703.918	0.0155942
703.996	0.0156009
704.075	0.0155511
704.153	0.0156490
704.231	0.0154846
704.309	0.0153698
704.387	0.0152303
704.465	0.0150488
704.543	0.0149376
704.621	0.0146474
704.700	0.0144069
704.778	0.0141766
704.856	0.0138335
704.934	0.0136131
705.012	0.0134026
705.090	0.0133085
705.168	0.0133348
705.246	0.0133947
705.325	0.0135396
705.403	0.0139398
705.481	0.0143516
705.559	0.0148103
705.637	0.0152162
705.715	0.0157171
705.793	0.0161858
705.871	0.0163759
705.950	0.0164382
706.028	0.0162908
706.106	0.0163580
706.184	0.0160906
706.262	0.0155687
706.340	0.0152412
706.418	0.0149259
706.496	0.0146626
706.575	0.0143310
706.653	0.0140132
706.731	0.0138205
706.809	0.0136362
706.887	0.0135867
706.965	0.0134992
707.043	0.0134441
707.121	0.0135397
707.200	0.0136750
707.278	0.0138902
707.356	0.0140095
707.434	0.0143357
707.512	0.0146298
707.590	0.0148658
707.668	0.0150317
707.746	0.0152081
707.825	0.0153573
707.903	0.0155797
707.981	0.0154553
708.059	0.0153917
708.137	0.0153989
708.215	0.0153827
708.293	0.0152998
708.371	0.0150317
708.450	0.0149444
708.528	0.0148796
708.606	0.0147902
708.684	0.0146201
708.762	0.0143983
708.840	0.0143760
708.918	0.0142480
708.996	0.0141043
709.075	0.0141395
709.153	0.0142853
709.231	0.0141707
709.309	0.0140981
709.387	0.0143021
709.465	0.0142600
709.543	0.0144999
709.621	0.0146412
709.700	0.0148276
709.778	0.0149124
709.856	0.0149153
709.934	0.0150123
710.012	0.0150937
710.090	0.0150659
710.168	0.0150970
710.246	0.0150307
710.325	0.0150132
710.403	0.0150132
710.481	0.0149332
710.559	0.0148695
710.637	0.0148712
710.715	0.0148526
710.793	0.0149375
710.871	0.0148077
710.950	0.0147580
711.028	0.0147488
711.106	0.0146397
711.184	0.0147495
711.262	0.0147170
711.340	0.0146553
711.418	0.0146856
711.496	0.0146199
711.575	0.0146516
711.653	0.0146474
711.731	0.0145094
711.809	0.0145146
711.887	0.0146087
711.965	0.0147174
712.043	0.0146842
712.121	0.0147527
712.200	0.0147098
712.278	0.0148776
712.356	0.0147724
712.434	0.0148587
712.512	0.0148798
712.590	0.0148340
712.668	0.0148602
712.746	0.0148798
712.825	0.0148844
712.903	0.0149509
712.981	0.0151098
713.059	0.0149036
713.137	0.0148546
713.215	0.0149400
713.293	0.0149419
713.371	0.0149200
713.450	0.0148441
713.528	0.0148064
713.606	0.0148902
713.684	0.0150414
713.762	0.0150773
713.840	0.0151150
713.918	0.0150887
713.996	0.0152459
714.075	0.0151531
714.153	0.0151164
714.231	0.0150388
714.309	0.0151679
714.387	0.0149075
714.465	0.0147107
714.543	0.0144878
714.621	0.0143858
714.700	0.0142507
714.778	0.0142582
714.856	0.0140328
714.934	0.0141241
715.012	0.0137412
715.090	0.0140192
715.168	0.0141785
715.246	0.0143600
715.325	0.0144832
715.403	0.0146609
715.481	0.0148724
715.559	0.0150643
715.637	0.0151704
715.715	0.0152454
715.793	0.0154346
715.871	0.0155209
715.950	0.0155292
716.028	0.0155254
716.106	0.0154244
716.184	0.0153133
716.262	0.0153536
716.340	0.0151075
716.418	0.0150854
716.496	0.0149657
716.575	0.0148378
716.653	0.0148235
716.731	0.0146822
716.809	0.0146484
716.887	0.0146339
716.965	0.0145206
717.043	0.0144803
717.121	0.0143172
717.200	0.0142307
717.278	0.0140848
717.356	0.0142571
717.434	0.0143962
717.512	0.0142312
717.590	0.0143324
717.668	0.0143587
717.746	0.0144335
717.825	0.0146473
717.903	0.0148357
717.981	0.0150710
718.059	0.0153886
718.137	0.0153162
718.215	0.0153841
718.293	0.0156013
718.371	0.0157096
718.450	0.0155020
718.528	0.0155872
718.606	0.0154491
718.684	0.0152884
718.762	0.0150533
718.840	0.0148717
718.918	0.0145554
718.996	0.0144464
719.075	0.0144216
719.153	0.0142947
719.231	0.0141062
719.309	0.0142652
719.387	0.0141734
719.465	0.0142859
719.543	0.0143297
719.621	0.0144965
719.700	0.0146198
719.778	0.0146221
719.856	0.0147084
719.934	0.0150191
720.012	0.0149728
720.090	0.0150658
720.168	0.0150827
720.246	0.0150529
720.325	0.0151652
720.403	0.0151849
720.481	0.0150857
720.559	0.0151155
720.637	0.0151968
720.715	0.0149700
720.793	0.0149345
720.871	0.0148979
720.950	0.0150711
721.028	0.0149399
721.106	0.0148896
721.184	0.0146883
721.262	0.0146262
721.340	0.0145174
721.418	0.0143516
721.496	0.0144645
721.575	0.0141354
721.653	0.0141528
721.731	0.0140102
721.809	0.0140378
721.887	0.0140755
721.965	0.0140991
722.043	0.0140539
722.121	0.0142277
722.200	0.0144905
722.278	0.0145861
722.356	0.0149365
722.434	0.0149088
722.512	0.0152349
722.590	0.0153187
722.668	0.0155386
722.746	0.0155543
722.825	0.0155032
722.903	0.0156566
722.981	0.0155592
723.059	0.0153897
723.137	0.0152617
723.215	0.0150986
723.293	0.0151414
723.371	0.0147100
723.450	0.0147180
723.528	0.0144796
723.606	0.0142374
723.684	0.0141448
723.762	0.0143224
723.840	0.0140882
723.918	0.0139524
723.996	0.0141901
724.075	0.0141406
724.153	0.0144006
724.231	0.0143981
724.309	0.0145258
724.387	0.0148237
724.465	0.0149316
724.543	0.0149818
724.621	0.0151131
724.700	0.0152271
724.778	0.0153619
724.856	0.0154295
724.934	0.0155412
725.012	0.0156234
725.090	0.0155425
725.168	0.0153807
725.246	0.0153692
725.325	0.0150761
725.403	0.0149379
725.481	0.0148967
725.559	0.0149410
725.637	0.0145826
725.715	0.0144439
725.793	0.0144274
725.871	0.0144791
725.950	0.0144258
726.028	0.0143748
726.106	0.0143930
726.184	0.0143436
726.262	0.0145641
726.340	0.0145787
726.418	0.0148022
726.496	0.0149075
726.575	0.0149257
726.653	0.0150494
726.731	0.0150127
726.809	0.0150729
726.887	0.0151554
726.965	0.0152438
727.043	0.0152503
727.121	0.0151832
727.200	0.0149400
727.278	0.0148771
727.356	0.0148425
727.434	0.0147675
727.512	0.0148838
727.590	0.0147958
727.668	0.0146626
727.746	0.0146762
727.825	0.0146311
727.903	0.0146502
727.981	0.0145368
728.059	0.0146079
728.137	0.0145724
728.215	0.0144796
728.293	0.0144262
728.371	0.0143839
728.450	0.0144034
728.528	0.0145112
728.606	0.0144406
728.684	0.0144244
728.762	0.0145249
728.840	0.0145536
728.918	0.0146774
728.996	0.0144282
729.075	0.0145731
729.153	0.0147564
729.231	0.0147233
729.309	0.0145426
729.387	0.0148521
729.465	0.0146590
729.543	0.0147177
729.621	0.0148974
729.700	0.0148484
729.778	0.0149161
729.856	0.0150052
729.934	0.0150201
730.012	0.0149827
730.090	0.0149928
730.168	0.0150974
730.246	0.0150517
730.325	0.0149706
730.403	0.0150616
730.481	0.0149829
730.559	0.0149332
730.637	0.0149640
730.715	0.0148262
730.793	0.0147306
730.871	0.0145540
730.950	0.0144920
731.028	0.0145753
731.106	0.0144048
731.184	0.0143593
731.262	0.0143412
731.340	0.0144361
731.418	0.0144489
731.496	0.0145178
731.575	0.0147018
731.653	0.0145123
731.731	0.0149046
731.809	0.0147548
731.887	0.0148016
731.965	0.0149673
732.043	0.0149039
732.121	0.0149828
732.200	0.0150378
732.278	0.0151240
732.356	0.0151807
732.434	0.0152434
732.512	0.0152177
732.590	0.0150756
732.668	0.0150574
732.746	0.0149800
732.825	0.0151315
732.903	0.0149158
732.981	0.0148943
733.059	0.0148241
733.137	0.0147209
733.215	0.0147688
733.293	0.0147623
733.371	0.0145535
733.450	0.0145888
733.528	0.0145110
733.606	0.0144176
733.684	0.0146124
733.762	0.0145846
733.840	0.0145235
733.918	0.0146424
733.996	0.0148225
734.075	0.0148016
734.153	0.0149094
734.231	0.0150643
734.309	0.0152205
734.387	0.0151591
734.465	0.0152564
734.543	0.0150573
734.621	0.0151612
734.700	0.0152732
734.778	0.0152137
734.856	0.0150970
734.934	0.0150954
735.012	0.0148383
735.090	0.0147623
735.168	0.0148605
735.246	0.0148360
735.325	0.0145493
735.403	0.0144625
735.481	0.0146066
735.559	0.0145293
735.637	0.0144545
735.715	0.0145271
735.793	0.0144512
735.871	0.0143778
735.950	0.0144292
736.028	0.0145003
736.106	0.0144983
736.184	0.0145231
736.262	0.0145533
736.340	0.0147009
736.418	0.0146050
736.496	0.0147555
736.575	0.0147465
736.653	0.0149564
736.731	0.0149297
736.809	0.0149043
736.887	0.0149786
736.965	0.0150820
737.043	0.0151655
737.121	0.0150356
737.200	0.0149908
737.278	0.0149667
737.356	0.0150455
737.434	0.0149038
737.512	0.0149128
737.590	0.0148592
737.668	0.0146980
737.746	0.0147588
737.825	0.0146107
737.903	0.0145074
737.981	0.0144222
738.059	0.0143963
738.137	0.0143273
738.215	0.0143701
738.293	0.0142592
738.371	0.0144381
738.450	0.0144695
738.528	0.0143225
738.606	0.0144147
738.684	0.0145374
738.762	0.0145906
738.840	0.0145702
738.918	0.0146696
738.996	0.0147491
739.075	0.0147147
739.153	0.0149160
739.231	0.0148893
739.309	0.0148569
739.387	0.0149192
739.465	0.0150558
739.543	0.0151231
739.621	0.0151418
739.700	0.0150729
739.778	0.0150520
739.856	0.0150467
739.934	0.0152115
740.012	0.0150530
740.090	0.0149774
740.168	0.0150020
740.246	0.0148602
740.325	0.0148093
740.403	0.0147535
740.481	0.0146627
740.559	0.0147580
740.637	0.0147753
740.715	0.0147042
740.793	0.0146498
740.871	0.0145924
740.950	0.0143879
741.028	0.0146179
741.106	0.0144978
741.184	0.0145082
741.262	0.0144907
741.340	0.0148212
741.418	0.0148205
741.496	0.0146149
741.575	0.0147768
741.653	0.0148398
741.731	0.0147761
741.809	0.0147773
741.887	0.0148888
741.965	0.0149092
742.043	0.0149072
742.121	0.0150342
742.200	0.0149577
742.278	0.0149062
742.356	0.0150404
742.434	0.0150336
742.512	0.0148843
742.590	0.0148322
742.668	0.0147551
742.746	0.0147297
742.825	0.0146486
742.903	0.0147534
742.981	0.0147095
743.059	0.0146365
743.137	0.0144418
743.215	0.0144490
743.293	0.0144011
743.371	0.0145570
743.450	0.0146169
743.528	0.0145405
743.606	0.0144942
743.684	0.0146329
743.762	0.0146774
743.840	0.0148949
743.918	0.0149754
743.996	0.0149706
744.075	0.0149609
744.153	0.0151104
744.231	0.0152598
744.309	0.0150753
744.387	0.0152095
744.465	0.0150892
744.543	0.0150171
744.621	0.0151078
744.700	0.0151311
744.778	0.0150612
744.856	0.0148413
744.934	0.0147717
745.012	0.0147739
745.090	0.0145404
745.168	0.0145080
745.246	0.0145994
745.325	0.0144289
745.403	0.0144449
745.481	0.0144265
745.559	0.0144274
745.637	0.0142750
745.715	0.0143789
745.793	0.0143671
745.871	0.0144019
745.950	0.0145784
746.028	0.0145739
746.106	0.0145417
746.184	0.0146553
746.262	0.0145961
746.340	0.0148056
746.418	0.0149539
746.496	0.0148684
746.575	0.0149580
746.653	0.0150241
746.731	0.0150446
746.809	0.0148914
746.887	0.0148799
746.965	0.0149409
747.043	0.0149573
747.121	0.0148471
747.200	0.0147949
747.278	0.0149145
747.356	0.0146394
747.434	0.0146654
747.512	0.0147045
747.590	0.0146774
747.668	0.0147195
747.746	0.0148071
747.825	0.0146381
747.903	0.0148206
747.981	0.0148679
748.059	0.0146285
748.137	0.0147153
748.215	0.0146803
748.293	0.0148901
748.371	0.0149519
748.450	0.0148521
748.528	0.0148519
748.606	0.0148189
748.684	0.0149670
748.762	0.0147488
748.840	0.0148519
748.918	0.0147941
748.996	0.0146040
749.075	0.0148925
749.153	0.0147565
749.231	0.0147126
749.309	0.0146900
749.387	0.0147860
749.465	0.0147411
749.543	0.0146843
749.621	0.0146947
749.700	0.0146301
749.778	0.0147207
749.856	0.0146661
749.934	0.0147694
750.012	0.0146912
750.090	0.0145778
750.168	0.0145136
750.246	0.0146243
750.325	0.0145350
750.403	0.0145832
750.481	0.0146510
750.559	0.0146226
750.637	0.0146572
750.715	0.0145119
750.793	0.0146703
750.871	0.0147123
750.950	0.0147379
751.028	0.0147940
751.106	0.0146921
751.184	0.0148124
751.262	0.0148436
751.340	0.0147544
751.418	0.0149034
751.496	0.0148248
751.575	0.0149151
751.653	0.0148450
751.731	0.0147672
751.809	0.0148546
751.887	0.0148675
751.965	0.0149072
752.043	0.0148564
752.121	0.0149081
752.200	0.0148410
752.278	0.0148108
752.356	0.0147319
752.434	0.0147976
752.512	0.0148112
752.590	0.0147936
752.668	0.0147852
752.746	0.0147327
752.825	0.0148155
752.903	0.0147934
752.981	0.0147559
753.059	0.0148645
753.137	0.0147332
753.215	0.0147582
753.293	0.0147323
753.371	0.0147608
753.450	0.0148029
753.528	0.0147447
753.606	0.0148144
753.684	0.0148275
753.762	0.0146362
753.840	0.0147973
753.918	0.0147447
753.996	0.0148354
754.075	0.0148277
754.153	0.0148120
754.231	0.0149190
754.309	0.0148031
754.387	0.0149119
754.465	0.0147693
754.543	0.0148174
754.621	0.0148163
754.700	0.0148734
754.778	0.0148454
754.856	0.0149066
754.934	0.0148551
755.012	0.0147960
755.090	0.0149571
755.168	0.0148446
755.246	0.0148621
755.325	0.0148650
755.403	0.0149203
755.481	0.0148425
755.559	0.0148882
755.637	0.0148184
755.715	0.0148484
755.793	0.0147562
755.871	0.0148266
755.950	0.0147567
756.028	0.0148306
756.106	0.0149078
756.184	0.0148094
756.262	0.0145875
756.340	0.0147933
756.418	0.0146825
756.496	0.0147834
756.575	0.0146288
756.653	0.0147012
756.731	0.0148650
756.809	0.0150446
756.887	0.0150005
756.965	0.0150050
757.043	0.0149541
757.121	0.0148573
757.200	0.0148910
757.278	0.0148682
757.356	0.0148349
757.434	0.0148003
757.512	0.0147983
757.590	0.0147232
757.668	0.0146980
757.746	0.0146664
757.825	0.0148054
757.903	0.0146105
757.981	0.0146397
758.059	0.0145316
758.137	0.0146307
758.215	0.0146264
758.293	0.0146881
758.371	0.0148155
758.450	0.0145164
758.528	0.0147191
758.606	0.0148132
758.684	0.0146294
758.762	0.0146649
758.840	0.0148093
758.918	0.0147624
758.996	0.0147697
759.075	0.0148232
759.153	0.0148183
759.231	0.0147193
759.309	0.0147285
759.387	0.0148727
759.465	0.0149038
759.543	0.0147668
759.621	0.0148247
759.700	0.0148041
759.778	0.0148560
759.856	0.0147626
759.934	0.0147585
760.012	0.0145873
760.090	0.0146819
760.168	0.0147549
760.246	0.0147258
760.325	0.0147589
760.403	0.0146545
760.481	0.0147535
760.559	0.0149197
760.637	0.0147202
760.715	0.0147411
760.793	0.0147718
760.871	0.0147344
760.950	0.0147645
761.028	0.0147836
761.106	0.0147392
761.184	0.0149107
761.262	0.0148058
761.340	0.0147073
761.418	0.0145457
761.496	0.0146548
761.575	0.0148050
761.653	0.0147655
761.731	0.0148425
761.809	0.0147501
761.887	0.0148152
761.965	0.0147749
762.043	0.0145998
762.121	0.0147784
762.200	0.0148533
762.278	0.0147594
762.356	0.0148669
762.434	0.0147404
762.512	0.0146619
762.590	0.0146337
762.668	0.0145718
762.746	0.0147629
762.825	0.0147794
762.903	0.0146228
762.981	0.0146563
763.059	0.0145914
763.137	0.0145336
763.215	0.0145710
763.293	0.0144675
763.371	0.0146217
763.450	0.0145255
763.528	0.0144208
763.606	0.0145453
763.684	0.0145300
763.762	0.0145876
763.840	0.0146081
763.918	0.0146922
763.996	0.0147039
764.075	0.0145231
764.153	0.0146815
764.231	0.0146582
764.309	0.0146219
764.387	0.0146464
764.465	0.0148611
764.543	0.0148606
764.621	0.0146832
764.700	0.0148300
