05/04/2022	21:22:53	Ver.	4.1	UNKNOWN
Optical Delay	678.996401	Delta X		0.078125	Sweeps	1	Scan Rate	0/0
Coordinates	Axis 1	NaN	Axis 2	NaN	Axis 3	NaN	Axis 4	NaN	Axis 5	NaN	Axis 6	0.000000
TX Power	0.000000	RX Power	0.000000

678.996	0.0143774
679.075	0.0143256
679.153	0.0144003
679.231	0.0143728
679.309	0.0143905
679.387	0.0144712
679.465	0.0145355
679.543	0.0145611
679.621	0.0144523
679.700	0.0145261
679.778	0.0144672
679.856	0.0145184
679.934	0.0145506
680.012	0.0144373
680.090	0.0143673
680.168	0.0145835
680.246	0.0144775
680.325	0.0143989
680.403	0.0143376
680.481	0.0144080
680.559	0.0142362
680.637	0.0142563
680.715	0.0143291
680.793	0.0143021
680.871	0.0141683
680.950	0.0142070
681.028	0.0142249
681.106	0.0142616
681.184	0.0142791
681.262	0.0142866
681.340	0.0142182
681.418	0.0142104
681.496	0.0142194
681.575	0.0142661
681.653	0.0142480
681.731	0.0143248
681.809	0.0143000
681.887	0.0143510
681.965	0.0143663
682.043	0.0142886
682.121	0.0144296
682.200	0.0144384
682.278	0.0144027
682.356	0.0145376
682.434	0.0145063
682.512	0.0144315
682.590	0.0144329
682.668	0.0143801
682.746	0.0144622
682.825	0.0143066
682.903	0.0144936
682.981	0.0142425
683.059	0.0141987
683.137	0.0144031
683.215	0.0143311
683.293	0.0140611
683.371	0.0142250
683.450	0.0142862
683.528	0.0142916
683.606	0.0142803
683.684	0.0141443
683.762	0.0142088
683.840	0.0143248
683.918	0.0143222
683.996	0.0142738
684.075	0.0144583
684.153	0.0143893
684.231	0.0144817
684.309	0.0143343
684.387	0.0144212
684.465	0.0144386
684.543	0.0145790
684.621	0.0144482
684.700	0.0146194
684.778	0.0144947
684.856	0.0142919
684.934	0.0143889
685.012	0.0145410
685.090	0.0144688
685.168	0.0143659
685.246	0.0142963
685.325	0.0143084
685.403	0.0144082
685.481	0.0142384
685.559	0.0142438
685.637	0.0142756
685.715	0.0143858
685.793	0.0142274
685.871	0.0143175
685.950	0.0142397
686.028	0.0144418
686.106	0.0142946
686.184	0.0142641
686.262	0.0143803
686.340	0.0144485
686.418	0.0143469
686.496	0.0143793
686.575	0.0144088
686.653	0.0143996
686.731	0.0145609
686.809	0.0143544
686.887	0.0143772
686.965	0.0144460
687.043	0.0143938
687.121	0.0143788
687.200	0.0143554
687.278	0.0143198
687.356	0.0144177
687.434	0.0145498
687.512	0.0142968
687.590	0.0143354
687.668	0.0143884
687.746	0.0144253
687.825	0.0143712
687.903	0.0141846
687.981	0.0142134
688.059	0.0142941
688.137	0.0142979
688.215	0.0142695
688.293	0.0142474
688.371	0.0142570
688.450	0.0142273
688.528	0.0143106
688.606	0.0144250
688.684	0.0144710
688.762	0.0143696
688.840	0.0144537
688.918	0.0145354
688.996	0.0145161
689.075	0.0145145
689.153	0.0143903
689.231	0.0145084
689.309	0.0145692
689.387	0.0145570
689.465	0.0146176
689.543	0.0145891
689.621	0.0146041
689.700	0.0144482
689.778	0.0145984
689.856	0.0144859
689.934	0.0144092
690.012	0.0145722
690.090	0.0145217
690.168	0.0144926
690.246	0.0146041
690.325	0.0145877
690.403	0.0145106
690.481	0.0145504
690.559	0.0146081
690.637	0.0144511
690.715	0.0144379
690.793	0.0143228
690.871	0.0144924
690.950	0.0144512
691.028	0.0143295
691.106	0.0142144
691.184	0.0144170
691.262	0.0144045
691.340	0.0144163
691.418	0.0144624
691.496	0.0145744
691.575	0.0145821
691.653	0.0145578
691.731	0.0145808
691.809	0.0147755
691.887	0.0147597
691.965	0.0147217
692.043	0.0148320
692.121	0.0146661
692.200	0.0147299
692.278	0.0147357
692.356	0.0146856
692.434	0.0145929
692.512	0.0144347
692.590	0.0142454
692.668	0.0141042
692.746	0.0140947
692.825	0.0141708
692.903	0.0140443
692.981	0.0140667
693.059	0.0142448
693.137	0.0143449
693.215	0.0144329
693.293	0.0146593
693.371	0.0145054
693.450	0.0146564
693.528	0.0147131
693.606	0.0146333
693.684	0.0147466
693.762	0.0148655
693.840	0.0149181
693.918	0.0147530
693.996	0.0145791
694.075	0.0145906
694.153	0.0144453
694.231	0.0144917
694.309	0.0141612
694.387	0.0140466
694.465	0.0140686
694.543	0.0140590
694.621	0.0138846
694.700	0.0139613
694.778	0.0139639
694.856	0.0139590
694.934	0.0141666
695.012	0.0143274
695.090	0.0144152
695.168	0.0143974
695.246	0.0146787
695.325	0.0147316
695.403	0.0147816
695.481	0.0147615
695.559	0.0148366
695.637	0.0149363
695.715	0.0148256
695.793	0.0146374
695.871	0.0147526
695.950	0.0145348
696.028	0.0144317
696.106	0.0143581
696.184	0.0142513
696.262	0.0141491
696.340	0.0139277
696.418	0.0140252
696.496	0.0139594
696.575	0.0138886
696.653	0.0141187
696.731	0.0140929
696.809	0.0140972
696.887	0.0144128
696.965	0.0145225
697.043	0.0145881
697.121	0.0147074
697.200	0.0147459
697.278	0.0148257
697.356	0.0147032
697.434	0.0145408
697.512	0.0144736
697.590	0.0143869
697.668	0.0142622
697.746	0.0141531
697.825	0.0140506
697.903	0.0140140
697.981	0.0142470
698.059	0.0141190
698.137	0.0141653
698.215	0.0142398
698.293	0.0143637
698.371	0.0146497
698.450	0.0147552
698.528	0.0147015
698.606	0.0148062
698.684	0.0148268
698.762	0.0149310
698.840	0.0148190
698.918	0.0146066
698.996	0.0145878
699.075	0.0144270
699.153	0.0142494
699.231	0.0141360
699.309	0.0140049
699.387	0.0139172
699.465	0.0138737
699.543	0.0138504
699.621	0.0140073
699.700	0.0141010
699.778	0.0141927
699.856	0.0145092
699.934	0.0145359
700.012	0.0147979
700.090	0.0149563
700.168	0.0149818
700.246	0.0150503
700.325	0.0147617
700.403	0.0147499
700.481	0.0146497
700.559	0.0143557
700.637	0.0140283
700.715	0.0139072
700.793	0.0138065
700.871	0.0134489
700.950	0.0134849
701.028	0.0136087
701.106	0.0137558
701.184	0.0140009
701.262	0.0142528
701.340	0.0144841
701.418	0.0147426
701.496	0.0150037
701.575	0.0151940
701.653	0.0151521
701.731	0.0152219
701.809	0.0151241
701.887	0.0150273
701.965	0.0149248
702.043	0.0147404
702.121	0.0142956
702.200	0.0142424
702.278	0.0139807
702.356	0.0138605
702.434	0.0136749
702.512	0.0135927
702.590	0.0136203
702.668	0.0136889
702.746	0.0135733
702.825	0.0136596
702.903	0.0136253
702.981	0.0137022
703.059	0.0139762
703.137	0.0140137
703.215	0.0140722
703.293	0.0143201
703.371	0.0146389
703.450	0.0146962
703.528	0.0148350
703.606	0.0151000
703.684	0.0150578
703.762	0.0149879
703.840	0.0152663
703.918	0.0151749
703.996	0.0149586
704.075	0.0149404
704.153	0.0147910
704.231	0.0145913
704.309	0.0143749
704.387	0.0139984
704.465	0.0138826
704.543	0.0137240
704.621	0.0131972
704.700	0.0129492
704.778	0.0127917
704.856	0.0128568
704.934	0.0127979
705.012	0.0129290
705.090	0.0132551
705.168	0.0135574
705.246	0.0139378
705.325	0.0144974
705.403	0.0148232
705.481	0.0153271
705.559	0.0154955
705.637	0.0159801
705.715	0.0161236
705.793	0.0160305
705.871	0.0157627
705.950	0.0157029
706.028	0.0153570
706.106	0.0150871
706.184	0.0147411
706.262	0.0143963
706.340	0.0140771
706.418	0.0137483
706.496	0.0136702
706.575	0.0134449
706.653	0.0133483
706.731	0.0132150
706.809	0.0133633
706.887	0.0136330
706.965	0.0135061
707.043	0.0135695
707.121	0.0139637
707.200	0.0141383
707.278	0.0142573
707.356	0.0145613
707.434	0.0148745
707.512	0.0148772
707.590	0.0150439
707.668	0.0151716
707.746	0.0149988
707.825	0.0150220
707.903	0.0149801
707.981	0.0147817
708.059	0.0147104
708.137	0.0148367
708.215	0.0145378
708.293	0.0145174
708.371	0.0142313
708.450	0.0141273
708.528	0.0142298
708.606	0.0140418
708.684	0.0140205
708.762	0.0138016
708.840	0.0138607
708.918	0.0137988
708.996	0.0139785
709.075	0.0141203
709.153	0.0140517
709.231	0.0141020
709.309	0.0142221
709.387	0.0141853
709.465	0.0143391
709.543	0.0144432
709.621	0.0144324
709.700	0.0145389
709.778	0.0146631
709.856	0.0145827
709.934	0.0146098
710.012	0.0146450
710.090	0.0145656
710.168	0.0145947
710.246	0.0145055
710.325	0.0144550
710.403	0.0144151
710.481	0.0143723
710.559	0.0142797
710.637	0.0143839
710.715	0.0142607
710.793	0.0142602
710.871	0.0142051
710.950	0.0143432
711.028	0.0143213
711.106	0.0142776
711.184	0.0142592
711.262	0.0143162
711.340	0.0142551
711.418	0.0143765
711.496	0.0141991
711.575	0.0142357
711.653	0.0143200
711.731	0.0144034
711.809	0.0143447
711.887	0.0143531
711.965	0.0144708
712.043	0.0145654
712.121	0.0143624
712.200	0.0143951
712.278	0.0145422
712.356	0.0144425
712.434	0.0144898
712.512	0.0144308
712.590	0.0144179
712.668	0.0144846
712.746	0.0145197
712.825	0.0146077
712.903	0.0144963
712.981	0.0144210
713.059	0.0146019
713.137	0.0144329
713.215	0.0146259
713.293	0.0147030
713.371	0.0146046
713.450	0.0146674
713.528	0.0146775
713.606	0.0148296
713.684	0.0146560
713.762	0.0146931
713.840	0.0147977
713.918	0.0147486
713.996	0.0146455
714.075	0.0145269
714.153	0.0145542
714.231	0.0143158
714.309	0.0142467
714.387	0.0141841
714.465	0.0139153
714.543	0.0137547
714.621	0.0136828
714.700	0.0135417
714.778	0.0137126
714.856	0.0138760
714.934	0.0137815
715.012	0.0138020
715.090	0.0140752
715.168	0.0143098
715.246	0.0146233
715.325	0.0146880
715.403	0.0149660
715.481	0.0150544
715.559	0.0149930
715.637	0.0149795
715.715	0.0150106
715.793	0.0151025
715.871	0.0149430
715.950	0.0150002
716.028	0.0148770
716.106	0.0148016
716.184	0.0148222
716.262	0.0145997
716.340	0.0145690
716.418	0.0145189
716.496	0.0143489
716.575	0.0141790
716.653	0.0142103
716.731	0.0139936
716.809	0.0139504
716.887	0.0138457
716.965	0.0139185
717.043	0.0136412
717.121	0.0137466
717.200	0.0138145
717.278	0.0138484
717.356	0.0137030
717.434	0.0138590
717.512	0.0140169
717.590	0.0139642
717.668	0.0142121
717.746	0.0145461
717.825	0.0146098
717.903	0.0148565
717.981	0.0150563
718.059	0.0152274
718.137	0.0152492
718.215	0.0151611
718.293	0.0152218
718.371	0.0149609
718.450	0.0148894
718.528	0.0148641
718.606	0.0145331
718.684	0.0143624
718.762	0.0142174
718.840	0.0140794
718.918	0.0138192
718.996	0.0138456
719.075	0.0136757
719.153	0.0136395
719.231	0.0139121
719.309	0.0139700
719.387	0.0139915
719.465	0.0141652
719.543	0.0143556
719.621	0.0143966
719.700	0.0145494
719.778	0.0146582
719.856	0.0145444
719.934	0.0148148
720.012	0.0146703
720.090	0.0148804
720.168	0.0148009
720.246	0.0148236
720.325	0.0148846
720.403	0.0148826
720.481	0.0147604
720.559	0.0147244
720.637	0.0148038
720.715	0.0146924
720.793	0.0146302
720.871	0.0147142
720.950	0.0146194
721.028	0.0144253
721.106	0.0143015
721.184	0.0141487
721.262	0.0140818
721.340	0.0140566
721.418	0.0139144
721.496	0.0138033
721.575	0.0137537
721.653	0.0138554
721.731	0.0138223
721.809	0.0138187
721.887	0.0139173
721.965	0.0141161
722.043	0.0141566
722.121	0.0145069
722.200	0.0144942
722.278	0.0147680
722.356	0.0149697
722.434	0.0149524
722.512	0.0151534
722.590	0.0154244
722.668	0.0151878
722.746	0.0151006
722.825	0.0149934
722.903	0.0150243
722.981	0.0147429
723.059	0.0145376
723.137	0.0144128
723.215	0.0142381
723.293	0.0141353
723.371	0.0140092
723.450	0.0137902
723.528	0.0136893
723.606	0.0136047
723.684	0.0136673
723.762	0.0135960
723.840	0.0137141
723.918	0.0137260
723.996	0.0140045
724.075	0.0140973
724.153	0.0141602
724.231	0.0142194
724.309	0.0143068
724.387	0.0145887
724.465	0.0147134
724.543	0.0148063
724.621	0.0149745
724.700	0.0149250
724.778	0.0148177
724.856	0.0148341
724.934	0.0148334
725.012	0.0147176
725.090	0.0145750
725.168	0.0145164
725.246	0.0143854
725.325	0.0142477
725.403	0.0140598
725.481	0.0140705
725.559	0.0140142
725.637	0.0139764
725.715	0.0140471
725.793	0.0141745
725.871	0.0139655
725.950	0.0141059
726.028	0.0142386
726.106	0.0142968
726.184	0.0143993
726.262	0.0143684
726.340	0.0144370
726.418	0.0145429
726.496	0.0146526
726.575	0.0146155
726.653	0.0146880
726.731	0.0146839
726.809	0.0146861
726.887	0.0147578
726.965	0.0147636
727.043	0.0146297
727.121	0.0146460
727.200	0.0145495
727.278	0.0144726
727.356	0.0144499
727.434	0.0146094
727.512	0.0144157
727.590	0.0145575
727.668	0.0146250
727.746	0.0145407
727.825	0.0146079
727.903	0.0143724
727.981	0.0143314
728.059	0.0143667
728.137	0.0144986
728.215	0.0142765
728.293	0.0142696
728.371	0.0141196
728.450	0.0141016
728.528	0.0140351
728.606	0.0141389
728.684	0.0143452
728.762	0.0141727
728.840	0.0142732
728.918	0.0142679
728.996	0.0143030
729.075	0.0143542
729.153	0.0143455
729.231	0.0144772
729.309	0.0146588
729.387	0.0147090
729.465	0.0146412
729.543	0.0147339
729.621	0.0147701
729.700	0.0147350
729.778	0.0147812
729.856	0.0149607
729.934	0.0149587
730.012	0.0147498
730.090	0.0147012
730.168	0.0148820
730.246	0.0148029
730.325	0.0147034
730.403	0.0145596
730.481	0.0144671
730.559	0.0143977
730.637	0.0142020
730.715	0.0141437
730.793	0.0141807
730.871	0.0140118
730.950	0.0139026
731.028	0.0139953
731.106	0.0139861
731.184	0.0139249
731.262	0.0139708
731.340	0.0139174
731.418	0.0141413
731.496	0.0141850
731.575	0.0141832
731.653	0.0143876
731.731	0.0144331
731.809	0.0145039
731.887	0.0145668
731.965	0.0146165
732.043	0.0145949
732.121	0.0146593
732.200	0.0146084
732.278	0.0146301
732.356	0.0147755
732.434	0.0145298
732.512	0.0145975
732.590	0.0146276
732.668	0.0143467
732.746	0.0143418
732.825	0.0143507
732.903	0.0142749
732.981	0.0142545
733.059	0.0140489
733.137	0.0141586
733.215	0.0139890
733.293	0.0140027
733.371	0.0140234
733.450	0.0139378
733.528	0.0138976
733.606	0.0140645
733.684	0.0141840
733.762	0.0141160
733.840	0.0141286
733.918	0.0143661
733.996	0.0144873
734.075	0.0143427
734.153	0.0146976
734.231	0.0147315
734.309	0.0146757
734.387	0.0146730
734.465	0.0148219
734.543	0.0146683
734.621	0.0145712
734.700	0.0145502
734.778	0.0145457
734.856	0.0145992
734.934	0.0143513
735.012	0.0144356
735.090	0.0144576
735.168	0.0143401
735.246	0.0143450
735.325	0.0144264
735.403	0.0143053
735.481	0.0141454
735.559	0.0140216
735.637	0.0141905
735.715	0.0142069
735.793	0.0141596
735.871	0.0141673
735.950	0.0141367
736.028	0.0142307
736.106	0.0141668
736.184	0.0142840
736.262	0.0143284
736.340	0.0144250
736.418	0.0144948
736.496	0.0144433
736.575	0.0146188
736.653	0.0146083
736.731	0.0146323
736.809	0.0147091
736.887	0.0147342
736.965	0.0147315
737.043	0.0147070
737.121	0.0146834
737.200	0.0148032
737.278	0.0147679
737.356	0.0146141
737.434	0.0146265
737.512	0.0143735
737.590	0.0146478
737.668	0.0143354
737.746	0.0141285
737.825	0.0142386
737.903	0.0141940
737.981	0.0141827
738.059	0.0141202
738.137	0.0140314
738.215	0.0140345
738.293	0.0142570
738.371	0.0140185
738.450	0.0141655
738.528	0.0141529
738.606	0.0141903
738.684	0.0141245
738.762	0.0143636
738.840	0.0143854
738.918	0.0144244
738.996	0.0144092
739.075	0.0144418
739.153	0.0144266
739.231	0.0145414
739.309	0.0145657
739.387	0.0146950
739.465	0.0146147
739.543	0.0146804
739.621	0.0146660
739.700	0.0145488
739.778	0.0146059
739.856	0.0145415
739.934	0.0146387
740.012	0.0145783
740.090	0.0145812
740.168	0.0145281
740.246	0.0144247
740.325	0.0143674
740.403	0.0142717
740.481	0.0143156
740.559	0.0142097
740.637	0.0142159
740.715	0.0140929
740.793	0.0140132
740.871	0.0141789
740.950	0.0139951
741.028	0.0140827
741.106	0.0140784
741.184	0.0141305
741.262	0.0143439
741.340	0.0142582
741.418	0.0143432
741.496	0.0142168
741.575	0.0144182
741.653	0.0145564
741.731	0.0144297
741.809	0.0145334
741.887	0.0144587
741.965	0.0145880
742.043	0.0145535
742.121	0.0145584
742.200	0.0146509
742.278	0.0144111
742.356	0.0145417
742.434	0.0144609
742.512	0.0144469
742.590	0.0143469
742.668	0.0144450
742.746	0.0143140
742.825	0.0144106
742.903	0.0142650
742.981	0.0140546
743.059	0.0141964
743.137	0.0142283
743.215	0.0141399
743.293	0.0141624
743.371	0.0142055
743.450	0.0142513
743.528	0.0143319
743.606	0.0143697
743.684	0.0145892
743.762	0.0145772
743.840	0.0145854
743.918	0.0146638
743.996	0.0145728
744.075	0.0147766
744.153	0.0148811
744.231	0.0149023
744.309	0.0147954
744.387	0.0147355
744.465	0.0145730
744.543	0.0145804
744.621	0.0145436
744.700	0.0145723
744.778	0.0144771
744.856	0.0144257
744.934	0.0143999
745.012	0.0143310
745.090	0.0140764
745.168	0.0139857
745.246	0.0141618
745.325	0.0139935
745.403	0.0140606
745.481	0.0140493
745.559	0.0140353
745.637	0.0139439
745.715	0.0141145
745.793	0.0142232
745.871	0.0140891
745.950	0.0141080
746.028	0.0142641
746.106	0.0143278
746.184	0.0144555
746.262	0.0145641
746.340	0.0146442
746.418	0.0146458
746.496	0.0146648
746.575	0.0146481
746.653	0.0145738
746.731	0.0146909
746.809	0.0145476
746.887	0.0145616
746.965	0.0144807
747.043	0.0144811
747.121	0.0144282
747.200	0.0143764
747.278	0.0145871
747.356	0.0145226
747.434	0.0144527
747.512	0.0145263
747.590	0.0144379
747.668	0.0143681
747.746	0.0144092
747.825	0.0142639
747.903	0.0144932
747.981	0.0144858
748.059	0.0144628
748.137	0.0143925
748.215	0.0143136
748.293	0.0146015
748.371	0.0145855
748.450	0.0143578
748.528	0.0144485
748.606	0.0144691
748.684	0.0144035
748.762	0.0145536
748.840	0.0147031
748.918	0.0145649
748.996	0.0144234
749.075	0.0143867
749.153	0.0145059
749.231	0.0145946
749.309	0.0144986
749.387	0.0144816
749.465	0.0143298
749.543	0.0144179
749.621	0.0144531
749.700	0.0142986
749.778	0.0144260
749.856	0.0145364
749.934	0.0142411
750.012	0.0143346
750.090	0.0144350
750.168	0.0143654
750.246	0.0144031
750.325	0.0143212
750.403	0.0143587
750.481	0.0142412
750.559	0.0144276
750.637	0.0145229
750.715	0.0143941
750.793	0.0144940
750.871	0.0143310
750.950	0.0145284
751.028	0.0145434
751.106	0.0145721
751.184	0.0146177
751.262	0.0145229
751.340	0.0145975
751.418	0.0147511
751.496	0.0146369
751.575	0.0146555
751.653	0.0144953
751.731	0.0146890
751.809	0.0146613
751.887	0.0146274
751.965	0.0145055
752.043	0.0147055
752.121	0.0146622
752.200	0.0144736
752.278	0.0145818
752.356	0.0146081
752.434	0.0145791
752.512	0.0144569
752.590	0.0143760
752.668	0.0144051
752.746	0.0145112
752.825	0.0144135
752.903	0.0144646
752.981	0.0143254
753.059	0.0144846
753.137	0.0142767
753.215	0.0143977
753.293	0.0143278
753.371	0.0142669
753.450	0.0141447
753.528	0.0142427
753.606	0.0143980
753.684	0.0144345
753.762	0.0144280
753.840	0.0144505
753.918	0.0144852
753.996	0.0144172
754.075	0.0144684
754.153	0.0144111
754.231	0.0144649
754.309	0.0144849
754.387	0.0143684
754.465	0.0144716
754.543	0.0145244
754.621	0.0146468
754.700	0.0145861
754.778	0.0143632
754.856	0.0144698
754.934	0.0144147
755.012	0.0143140
755.090	0.0141899
755.168	0.0144476
755.246	0.0143895
755.325	0.0144947
755.403	0.0144482
755.481	0.0144003
755.559	0.0143923
755.637	0.0144250
755.715	0.0143639
755.793	0.0143968
755.871	0.0143864
755.950	0.0144451
756.028	0.0143011
756.106	0.0143075
756.184	0.0143962
756.262	0.0142971
756.340	0.0143369
756.418	0.0144311
756.496	0.0143559
756.575	0.0144076
756.653	0.0144576
756.731	0.0145703
756.809	0.0146090
756.887	0.0145055
756.965	0.0145713
757.043	0.0144836
757.121	0.0146879
757.200	0.0146161
757.278	0.0144245
757.356	0.0144277
757.434	0.0143291
757.512	0.0143870
757.590	0.0141129
757.668	0.0142805
757.746	0.0142196
757.825	0.0142722
757.903	0.0143008
757.981	0.0142016
758.059	0.0142764
758.137	0.0142091
758.215	0.0143599
758.293	0.0142839
758.371	0.0143472
758.450	0.0142574
758.528	0.0143172
758.606	0.0142477
758.684	0.0144503
758.762	0.0142574
758.840	0.0143713
758.918	0.0143333
758.996	0.0144093
759.075	0.0143333
759.153	0.0143931
759.231	0.0143149
759.309	0.0142352
759.387	0.0142968
759.465	0.0142667
759.543	0.0141415
759.621	0.0142852
759.700	0.0142690
759.778	0.0142873
759.856	0.0141938
759.934	0.0143240
760.012	0.0141792
760.090	0.0142219
760.168	0.0140782
760.246	0.0141618
760.325	0.0142561
760.403	0.0141968
760.481	0.0144004
760.559	0.0143083
760.637	0.0141538
760.715	0.0142136
760.793	0.0143161
760.871	0.0142982
760.950	0.0143466
761.028	0.0142690
761.106	0.0143569
761.184	0.0144241
761.262	0.0143835
761.340	0.0143771
761.418	0.0143792
761.496	0.0144595
761.575	0.0143956
761.653	0.0143887
761.731	0.0144456
761.809	0.0143793
761.887	0.0144326
761.965	0.0145621
762.043	0.0144604
762.121	0.0143874
762.200	0.0144015
762.278	0.0143404
762.356	0.0144324
762.434	0.0142740
762.512	0.0143316
762.590	0.0144661
762.668	0.0142448
762.746	0.0143247
762.825	0.0143424
762.903	0.0143283
762.981	0.0143501
763.059	0.0144241
763.137	0.0144550
763.215	0.0143972
763.293	0.0145092
763.371	0.0145223
763.450	0.0144247
763.528	0.0145277
763.606	0.0144974
763.684	0.0143684
763.762	0.0144917
763.840	0.0145078
763.918	0.0145195
763.996	0.0145450
764.075	0.0144916
764.153	0.0145466
764.231	0.0144655
764.309	0.0146163
764.387	0.0145883
764.465	0.0145876
764.543	0.0145216
764.621	0.0145712
764.700	0.0145564
