05/04/2022	21:24:18	Ver.	4.1	UNKNOWN
Optical Delay	678.996401	Delta X		0.078125	Sweeps	1	Scan Rate	0/0
Coordinates	Axis 1	NaN	Axis 2	NaN	Axis 3	NaN	Axis 4	NaN	Axis 5	NaN	Axis 6	0.000000
TX Power	0.000000	RX Power	0.000000

678.996	0.0147170
679.075	0.0147322
679.153	0.0145972
679.231	0.0146729
679.309	0.0146606
679.387	0.0146290
679.465	0.0146588
679.543	0.0147112
679.621	0.0146530
679.700	0.0144838
679.778	0.0146238
679.856	0.0145512
679.934	0.0145801
680.012	0.0146791
680.090	0.0146395
680.168	0.0145977
680.246	0.0146530
680.325	0.0148248
680.403	0.0147233
680.481	0.0147068
680.559	0.0148679
680.637	0.0148336
680.715	0.0146437
680.793	0.0147348
680.871	0.0148074
680.950	0.0147361
681.028	0.0146220
681.106	0.0146302
681.184	0.0146439
681.262	0.0145618
681.340	0.0147112
681.418	0.0146228
681.496	0.0145488
681.575	0.0145316
681.653	0.0145290
681.731	0.0146249
681.809	0.0145757
681.887	0.0146657
681.965	0.0145718
682.043	0.0145894
682.121	0.0147010
682.200	0.0147511
682.278	0.0146873
682.356	0.0146210
682.434	0.0146056
682.512	0.0146286
682.590	0.0146288
682.668	0.0146516
682.746	0.0145576
682.825	0.0146321
682.903	0.0147130
682.981	0.0146529
683.059	0.0148719
683.137	0.0146518
683.215	0.0147391
683.293	0.0148958
683.371	0.0148263
683.450	0.0147662
683.528	0.0147731
683.606	0.0147411
683.684	0.0146978
683.762	0.0146205
683.840	0.0146763
683.918	0.0146554
683.996	0.0147016
684.075	0.0146908
684.153	0.0145470
684.231	0.0145570
684.309	0.0145483
684.387	0.0146577
684.465	0.0144515
684.543	0.0146056
684.621	0.0146283
684.700	0.0146216
684.778	0.0145290
684.856	0.0146277
684.934	0.0145319
685.012	0.0146322
685.090	0.0146784
685.168	0.0146188
685.246	0.0145786
685.325	0.0147257
685.403	0.0147666
685.481	0.0146016
685.559	0.0148003
685.637	0.0145647
685.715	0.0146609
685.793	0.0147464
685.871	0.0147358
685.950	0.0148637
686.028	0.0147969
686.106	0.0147633
686.184	0.0147257
686.262	0.0146829
686.340	0.0147142
686.418	0.0146386
686.496	0.0147229
686.575	0.0145822
686.653	0.0145893
686.731	0.0145997
686.809	0.0145608
686.887	0.0144440
686.965	0.0145512
687.043	0.0144135
687.121	0.0144633
687.200	0.0145287
687.278	0.0145660
687.356	0.0145309
687.434	0.0145485
687.512	0.0146716
687.590	0.0147397
687.668	0.0147383
687.746	0.0148136
687.825	0.0147691
687.903	0.0148421
687.981	0.0147202
688.059	0.0147140
688.137	0.0147630
688.215	0.0148215
688.293	0.0147886
688.371	0.0147356
688.450	0.0148549
688.528	0.0147688
688.606	0.0146429
688.684	0.0147228
688.762	0.0146545
688.840	0.0147943
688.918	0.0149032
688.996	0.0148383
689.075	0.0146052
689.153	0.0147298
689.231	0.0147251
689.309	0.0148689
689.387	0.0147287
689.465	0.0147726
689.543	0.0148330
689.621	0.0146159
689.700	0.0146075
689.778	0.0144937
689.856	0.0145602
689.934	0.0144289
690.012	0.0144689
690.090	0.0145502
690.168	0.0145788
690.246	0.0146045
690.325	0.0147852
690.403	0.0147151
690.481	0.0147145
690.559	0.0147893
690.637	0.0148286
690.715	0.0148324
690.793	0.0148827
690.871	0.0149772
690.950	0.0150516
691.028	0.0150174
691.106	0.0149754
691.184	0.0149846
691.262	0.0148811
691.340	0.0148530
691.418	0.0148094
691.496	0.0147928
691.575	0.0146587
691.653	0.0145877
691.731	0.0144151
691.809	0.0142631
691.887	0.0144067
691.965	0.0143034
692.043	0.0142102
692.121	0.0143204
692.200	0.0144466
692.278	0.0145999
692.356	0.0145657
692.434	0.0145731
692.512	0.0146506
692.590	0.0148147
692.668	0.0149785
692.746	0.0150150
692.825	0.0150870
692.903	0.0150082
692.981	0.0151350
693.059	0.0150842
693.137	0.0151363
693.215	0.0151208
693.293	0.0148445
693.371	0.0149299
693.450	0.0147289
693.528	0.0146886
693.606	0.0145814
693.684	0.0144485
693.762	0.0144165
693.840	0.0142406
693.918	0.0141593
693.996	0.0141152
694.075	0.0142324
694.153	0.0142598
694.231	0.0144356
694.309	0.0143890
694.387	0.0145434
694.465	0.0147816
694.543	0.0148112
694.621	0.0148321
694.700	0.0151271
694.778	0.0150405
694.856	0.0150485
694.934	0.0151276
695.012	0.0151628
695.090	0.0151210
695.168	0.0151118
695.246	0.0151333
695.325	0.0152211
695.403	0.0149791
695.481	0.0148120
695.559	0.0146941
695.637	0.0146024
695.715	0.0145182
695.793	0.0143829
695.871	0.0141411
695.950	0.0141098
696.028	0.0142005
696.106	0.0141700
696.184	0.0142692
696.262	0.0143644
696.340	0.0144438
696.418	0.0145513
696.496	0.0146373
696.575	0.0146283
696.653	0.0146387
696.731	0.0146886
696.809	0.0148437
696.887	0.0147877
696.965	0.0148314
697.043	0.0148002
697.121	0.0150671
697.200	0.0150889
697.278	0.0150117
697.356	0.0150443
697.434	0.0151651
697.512	0.0152660
697.590	0.0152255
697.668	0.0151639
697.746	0.0151152
697.825	0.0149316
697.903	0.0147125
697.981	0.0146964
698.059	0.0147425
698.137	0.0143575
698.215	0.0142223
698.293	0.0143120
698.371	0.0141777
698.450	0.0140299
698.528	0.0141866
698.606	0.0140726
698.684	0.0142071
698.762	0.0141945
698.840	0.0144373
698.918	0.0145872
698.996	0.0148147
699.075	0.0148877
699.153	0.0152289
699.231	0.0152377
699.309	0.0153827
699.387	0.0154353
699.465	0.0154283
699.543	0.0153306
699.621	0.0150626
699.700	0.0150038
699.778	0.0145889
699.856	0.0143540
699.934	0.0142418
700.012	0.0140967
700.090	0.0139483
700.168	0.0138594
700.246	0.0140062
700.325	0.0140149
700.403	0.0140013
700.481	0.0142230
700.559	0.0143993
700.637	0.0146840
700.715	0.0147353
700.793	0.0149359
700.871	0.0149368
700.950	0.0151764
701.028	0.0153207
701.106	0.0153022
701.184	0.0153728
701.262	0.0152718
701.340	0.0151854
701.418	0.0150887
701.496	0.0149277
701.575	0.0148023
701.653	0.0148247
701.731	0.0146798
701.809	0.0144986
701.887	0.0145113
701.965	0.0141624
702.043	0.0139771
702.121	0.0138382
702.200	0.0138113
702.278	0.0138455
702.356	0.0138545
702.434	0.0137816
702.512	0.0138585
702.590	0.0140227
702.668	0.0142657
702.746	0.0144749
702.825	0.0146899
702.903	0.0149334
702.981	0.0150049
703.059	0.0153443
703.137	0.0155226
703.215	0.0157529
703.293	0.0158370
703.371	0.0158963
703.450	0.0159452
703.528	0.0156598
703.606	0.0155527
703.684	0.0154893
703.762	0.0152387
703.840	0.0149874
703.918	0.0145766
703.996	0.0142112
704.075	0.0139487
704.153	0.0137820
704.231	0.0135688
704.309	0.0135213
704.387	0.0134254
704.465	0.0135630
704.543	0.0138042
704.621	0.0140657
704.700	0.0141472
704.778	0.0143925
704.856	0.0147634
704.934	0.0151762
705.012	0.0152097
705.090	0.0153447
705.168	0.0157016
705.246	0.0156889
705.325	0.0157677
705.403	0.0157304
705.481	0.0155814
705.559	0.0154966
705.637	0.0152680
705.715	0.0150938
705.793	0.0149648
705.871	0.0148629
705.950	0.0144910
706.028	0.0141280
706.106	0.0141776
706.184	0.0140293
706.262	0.0137756
706.340	0.0137794
706.418	0.0138657
706.496	0.0138451
706.575	0.0141279
706.653	0.0140548
706.731	0.0139557
706.809	0.0143277
706.887	0.0146090
706.965	0.0147102
707.043	0.0147607
707.121	0.0148109
707.200	0.0148965
707.278	0.0149770
707.356	0.0149255
707.434	0.0150671
707.512	0.0148499
707.590	0.0148051
707.668	0.0148634
707.746	0.0147598
707.825	0.0147571
707.903	0.0145670
707.981	0.0145928
708.059	0.0144463
708.137	0.0143080
708.215	0.0144673
708.293	0.0144410
708.371	0.0143856
708.450	0.0144414
708.528	0.0147213
708.606	0.0146210
708.684	0.0146815
708.762	0.0145570
708.840	0.0148035
708.918	0.0149177
708.996	0.0148968
709.075	0.0147901
709.153	0.0147768
709.231	0.0149110
709.309	0.0147839
709.387	0.0148287
709.465	0.0148271
709.543	0.0147865
709.621	0.0147896
709.700	0.0148647
709.778	0.0147215
709.856	0.0146312
709.934	0.0145414
710.012	0.0146526
710.090	0.0144987
710.168	0.0143100
710.246	0.0144064
710.325	0.0141949
710.403	0.0142198
710.481	0.0142367
710.559	0.0142011
710.637	0.0142904
710.715	0.0144118
710.793	0.0145763
710.871	0.0145969
710.950	0.0147110
711.028	0.0151012
711.106	0.0151743
711.184	0.0152504
711.262	0.0154886
711.340	0.0155306
711.418	0.0155922
711.496	0.0156217
711.575	0.0156776
711.653	0.0153379
711.731	0.0152917
711.809	0.0150362
711.887	0.0148434
711.965	0.0148143
712.043	0.0143514
712.121	0.0141072
712.200	0.0141747
712.278	0.0141080
712.356	0.0140609
712.434	0.0138510
712.512	0.0139162
712.590	0.0140685
712.668	0.0142447
712.746	0.0145098
712.825	0.0145269
712.903	0.0147392
712.981	0.0149742
713.059	0.0152178
713.137	0.0151196
713.215	0.0152940
713.293	0.0154416
713.371	0.0154196
713.450	0.0154706
713.528	0.0153538
713.606	0.0152363
713.684	0.0153218
713.762	0.0148713
713.840	0.0150865
713.918	0.0147568
713.996	0.0145851
714.075	0.0145104
714.153	0.0146051
714.231	0.0144655
714.309	0.0143688
714.387	0.0143639
714.465	0.0143349
714.543	0.0142100
714.621	0.0142031
714.700	0.0142752
714.778	0.0142493
714.856	0.0141426
714.934	0.0142221
715.012	0.0141315
715.090	0.0142236
715.168	0.0144110
715.246	0.0143713
715.325	0.0144884
715.403	0.0145409
715.481	0.0147724
715.559	0.0148386
715.637	0.0149158
715.715	0.0150476
715.793	0.0152574
715.871	0.0153327
715.950	0.0154355
716.028	0.0155807
716.106	0.0154469
716.184	0.0152695
716.262	0.0153060
716.340	0.0150421
716.418	0.0148260
716.496	0.0146365
716.575	0.0144228
716.653	0.0143211
716.731	0.0140855
716.809	0.0139385
716.887	0.0139262
716.965	0.0138326
717.043	0.0137889
717.121	0.0137363
717.200	0.0139278
717.278	0.0140452
717.356	0.0142960
717.434	0.0143406
717.512	0.0144596
717.590	0.0147373
717.668	0.0147656
717.746	0.0148564
717.825	0.0150421
717.903	0.0152635
717.981	0.0151424
718.059	0.0151135
718.137	0.0151762
718.215	0.0151279
718.293	0.0149912
718.371	0.0149342
718.450	0.0148643
718.528	0.0148911
718.606	0.0147290
718.684	0.0147268
718.762	0.0146324
718.840	0.0146774
718.918	0.0145896
718.996	0.0146146
719.075	0.0144938
719.153	0.0145287
719.231	0.0146613
719.309	0.0147233
719.387	0.0144072
719.465	0.0145774
719.543	0.0145420
719.621	0.0145721
719.700	0.0145454
719.778	0.0147408
719.856	0.0146143
719.934	0.0147121
720.012	0.0147591
720.090	0.0150022
720.168	0.0149644
720.246	0.0148650
720.325	0.0149081
720.403	0.0149081
720.481	0.0148415
720.559	0.0146670
720.637	0.0145852
720.715	0.0145990
720.793	0.0144749
720.871	0.0145581
720.950	0.0144259
721.028	0.0143210
721.106	0.0143610
721.184	0.0143204
721.262	0.0143284
721.340	0.0143478
721.418	0.0143492
721.496	0.0144468
721.575	0.0146251
721.653	0.0146503
721.731	0.0147740
721.809	0.0148812
721.887	0.0149867
721.965	0.0148574
722.043	0.0150833
722.121	0.0150993
722.200	0.0150164
722.278	0.0151677
722.356	0.0151712
722.434	0.0150227
722.512	0.0149964
722.590	0.0148918
722.668	0.0148732
722.746	0.0149002
722.825	0.0147971
722.903	0.0145799
722.981	0.0145196
723.059	0.0144140
723.137	0.0144967
723.215	0.0143974
723.293	0.0142908
723.371	0.0142587
723.450	0.0142618
723.528	0.0143839
723.606	0.0145900
723.684	0.0144989
723.762	0.0144247
723.840	0.0146594
723.918	0.0147269
723.996	0.0146992
724.075	0.0147390
724.153	0.0148795
724.231	0.0149423
724.309	0.0150093
724.387	0.0149269
724.465	0.0148245
724.543	0.0147520
724.621	0.0147973
724.700	0.0147075
724.778	0.0146502
724.856	0.0144855
724.934	0.0145655
725.012	0.0144748
725.090	0.0143778
725.168	0.0143823
725.246	0.0142960
725.325	0.0143115
725.403	0.0146581
725.481	0.0146893
725.559	0.0146210
725.637	0.0146423
725.715	0.0146956
725.793	0.0148389
725.871	0.0148338
725.950	0.0147127
726.028	0.0148923
726.106	0.0148867
726.184	0.0148075
726.262	0.0146921
726.340	0.0147654
726.418	0.0148015
726.496	0.0145985
726.575	0.0146356
726.653	0.0147376
726.731	0.0145834
726.809	0.0147897
726.887	0.0145948
726.965	0.0146371
727.043	0.0146469
727.121	0.0146480
727.200	0.0147533
727.278	0.0147935
727.356	0.0147552
727.434	0.0147654
727.512	0.0149033
727.590	0.0147656
727.668	0.0146378
727.746	0.0147505
727.825	0.0147821
727.903	0.0147184
727.981	0.0146851
728.059	0.0145927
728.137	0.0146244
728.215	0.0146438
728.293	0.0144205
728.371	0.0143556
728.450	0.0143676
728.528	0.0143315
728.606	0.0142997
728.684	0.0143639
728.762	0.0144572
728.840	0.0143827
728.918	0.0145311
728.996	0.0145028
729.075	0.0145944
729.153	0.0147217
729.231	0.0146779
729.309	0.0147829
729.387	0.0150079
729.465	0.0149490
729.543	0.0150967
729.621	0.0150855
729.700	0.0152083
729.778	0.0151304
729.856	0.0152486
729.934	0.0150934
730.012	0.0150475
730.090	0.0149603
730.168	0.0149506
730.246	0.0149093
730.325	0.0149194
730.403	0.0147137
730.481	0.0146976
730.559	0.0145949
730.637	0.0146201
730.715	0.0145817
730.793	0.0143668
730.871	0.0142770
730.950	0.0143304
731.028	0.0143238
731.106	0.0143991
731.184	0.0143507
731.262	0.0143612
731.340	0.0144145
731.418	0.0144942
731.496	0.0147166
731.575	0.0146712
731.653	0.0147528
731.731	0.0147957
731.809	0.0148156
731.887	0.0148157
731.965	0.0146876
732.043	0.0147009
732.121	0.0148737
732.200	0.0146973
732.278	0.0146706
732.356	0.0148318
732.434	0.0149522
732.512	0.0148877
732.590	0.0149184
732.668	0.0148060
732.746	0.0147839
732.825	0.0147734
732.903	0.0147236
732.981	0.0146735
733.059	0.0147381
733.137	0.0147369
733.215	0.0146180
733.293	0.0146460
733.371	0.0146762
733.450	0.0145866
733.528	0.0146449
733.606	0.0146433
733.684	0.0146650
733.762	0.0147158
733.840	0.0146189
733.918	0.0147057
733.996	0.0148441
734.075	0.0147435
734.153	0.0148238
734.231	0.0147708
734.309	0.0149620
734.387	0.0148205
734.465	0.0150542
734.543	0.0149458
734.621	0.0148893
734.700	0.0149792
734.778	0.0150121
734.856	0.0148553
734.934	0.0149223
735.012	0.0148915
735.090	0.0147357
735.168	0.0146851
735.246	0.0148456
735.325	0.0146327
735.403	0.0146105
735.481	0.0146207
735.559	0.0145352
735.637	0.0145690
735.715	0.0148027
735.793	0.0145965
735.871	0.0144272
735.950	0.0146758
736.028	0.0146751
736.106	0.0145666
736.184	0.0146714
736.262	0.0146036
736.340	0.0146073
736.418	0.0148035
736.496	0.0146547
736.575	0.0147191
736.653	0.0148647
736.731	0.0148082
736.809	0.0147668
736.887	0.0149529
736.965	0.0149368
737.043	0.0149610
737.121	0.0150615
737.200	0.0150178
737.278	0.0150787
737.356	0.0151003
737.434	0.0151632
737.512	0.0149661
737.590	0.0149158
737.668	0.0149809
737.746	0.0147851
737.825	0.0147558
737.903	0.0147588
737.981	0.0145959
738.059	0.0145664
738.137	0.0143584
738.215	0.0144324
738.293	0.0144034
738.371	0.0144393
738.450	0.0143815
738.528	0.0145696
738.606	0.0143660
738.684	0.0143746
738.762	0.0144530
738.840	0.0144468
738.918	0.0145699
738.996	0.0146970
739.075	0.0146606
739.153	0.0147845
739.231	0.0148617
739.309	0.0148296
739.387	0.0149378
739.465	0.0149828
739.543	0.0149669
739.621	0.0149206
739.700	0.0149238
739.778	0.0150250
739.856	0.0150600
739.934	0.0149341
740.012	0.0148478
740.090	0.0147311
740.168	0.0147343
740.246	0.0148148
740.325	0.0146266
740.403	0.0144533
740.481	0.0145101
740.559	0.0144708
740.637	0.0144035
740.715	0.0143603
740.793	0.0143195
740.871	0.0142829
740.950	0.0143176
741.028	0.0143123
741.106	0.0143083
741.184	0.0144074
741.262	0.0144997
741.340	0.0145245
741.418	0.0145412
741.496	0.0145665
741.575	0.0146053
741.653	0.0146720
741.731	0.0146542
741.809	0.0146513
741.887	0.0147481
741.965	0.0147436
742.043	0.0147804
742.121	0.0148797
742.200	0.0149122
742.278	0.0147755
742.356	0.0147110
742.434	0.0147388
742.512	0.0144781
742.590	0.0146668
742.668	0.0146441
742.746	0.0144149
742.825	0.0143764
742.903	0.0143748
742.981	0.0143296
743.059	0.0143097
743.137	0.0144079
743.215	0.0142410
743.293	0.0142978
743.371	0.0144248
743.450	0.0145316
743.528	0.0144182
743.606	0.0145258
743.684	0.0146413
743.762	0.0146898
743.840	0.0146615
743.918	0.0147361
743.996	0.0147758
744.075	0.0148650
744.153	0.0147227
744.231	0.0148231
744.309	0.0148238
744.387	0.0148218
744.465	0.0146729
744.543	0.0147456
744.621	0.0146645
744.700	0.0146147
744.778	0.0146992
744.856	0.0145486
744.934	0.0147305
745.012	0.0147124
745.090	0.0145663
745.168	0.0145679
745.246	0.0145750
745.325	0.0145438
745.403	0.0145219
745.481	0.0144127
745.559	0.0145399
745.637	0.0144683
745.715	0.0144749
745.793	0.0146146
745.871	0.0145542
745.950	0.0144451
746.028	0.0145662
746.106	0.0147219
746.184	0.0146774
746.262	0.0147339
746.340	0.0146819
746.418	0.0147136
746.496	0.0148809
746.575	0.0148502
746.653	0.0148766
746.731	0.0149075
746.809	0.0149779
746.887	0.0150450
746.965	0.0150433
747.043	0.0149581
747.121	0.0150309
747.200	0.0150520
747.278	0.0148507
747.356	0.0149182
747.434	0.0150196
747.512	0.0148668
747.590	0.0147551
747.668	0.0147086
747.746	0.0147285
747.825	0.0146165
747.903	0.0146087
747.981	0.0145937
748.059	0.0144235
748.137	0.0144364
748.215	0.0145018
748.293	0.0145115
748.371	0.0144091
748.450	0.0143874
748.528	0.0144808
748.606	0.0144972
748.684	0.0146103
748.762	0.0145072
748.840	0.0144843
748.918	0.0145683
748.996	0.0146162
749.075	0.0146320
749.153	0.0146862
749.231	0.0146843
749.309	0.0147900
749.387	0.0148373
749.465	0.0149279
749.543	0.0147517
749.621	0.0147642
749.700	0.0148057
749.778	0.0146391
749.856	0.0147427
749.934	0.0149553
750.012	0.0147714
750.090	0.0146296
750.168	0.0146404
750.246	0.0147545
750.325	0.0146555
750.403	0.0146880
750.481	0.0147343
750.559	0.0146462
750.637	0.0145462
750.715	0.0145245
750.793	0.0145039
750.871	0.0146128
750.950	0.0146044
751.028	0.0145984
751.106	0.0144930
751.184	0.0145614
751.262	0.0146395
751.340	0.0148032
751.418	0.0146906
751.496	0.0149146
751.575	0.0149356
751.653	0.0147522
751.731	0.0147811
751.809	0.0148378
751.887	0.0148591
751.965	0.0149831
752.043	0.0150006
752.121	0.0150175
752.200	0.0147427
752.278	0.0148450
752.356	0.0149481
752.434	0.0147002
752.512	0.0147141
752.590	0.0146481
752.668	0.0145973
752.746	0.0146894
752.825	0.0145962
752.903	0.0145679
752.981	0.0145580
753.059	0.0144995
753.137	0.0145151
753.215	0.0146187
753.293	0.0146348
753.371	0.0147258
753.450	0.0146563
753.528	0.0146950
753.606	0.0147177
753.684	0.0145402
753.762	0.0146925
753.840	0.0145818
753.918	0.0145858
753.996	0.0148473
754.075	0.0147376
754.153	0.0148003
754.231	0.0147987
754.309	0.0148758
754.387	0.0149249
754.465	0.0148717
754.543	0.0151279
754.621	0.0151112
754.700	0.0148737
754.778	0.0150481
754.856	0.0150514
754.934	0.0148585
755.012	0.0148302
755.090	0.0148594
755.168	0.0148087
755.246	0.0148728
755.325	0.0147359
755.403	0.0148443
755.481	0.0147746
755.559	0.0147843
755.637	0.0148191
755.715	0.0148508
755.793	0.0146324
755.871	0.0146345
755.950	0.0145911
756.028	0.0147383
756.106	0.0147406
756.184	0.0146182
756.262	0.0146535
756.340	0.0146950
756.418	0.0146873
756.496	0.0146670
756.575	0.0146075
756.653	0.0146168
756.731	0.0147120
756.809	0.0147288
756.887	0.0147326
756.965	0.0147024
757.043	0.0146528
757.121	0.0148804
757.200	0.0148336
757.278	0.0148099
757.356	0.0149091
757.434	0.0147893
757.512	0.0146865
757.590	0.0148861
757.668	0.0148721
757.746	0.0147816
757.825	0.0146716
757.903	0.0147261
757.981	0.0147173
758.059	0.0146793
758.137	0.0146869
758.215	0.0146509
758.293	0.0146448
758.371	0.0146643
758.450	0.0144943
758.528	0.0146311
758.606	0.0145389
758.684	0.0146001
758.762	0.0146959
758.840	0.0145967
758.918	0.0145747
758.996	0.0146079
759.075	0.0147408
759.153	0.0146579
759.231	0.0147672
759.309	0.0149679
759.387	0.0147623
759.465	0.0147688
759.543	0.0147819
759.621	0.0147075
759.700	0.0148196
759.778	0.0148447
759.856	0.0149178
759.934	0.0148215
760.012	0.0147935
760.090	0.0147608
760.168	0.0148008
760.246	0.0145876
760.325	0.0145162
760.403	0.0145741
760.481	0.0146990
760.559	0.0147066
760.637	0.0146594
760.715	0.0145960
760.793	0.0145329
760.871	0.0146190
760.950	0.0146659
761.028	0.0146266
761.106	0.0146310
761.184	0.0144238
761.262	0.0146274
761.340	0.0146899
761.418	0.0145874
761.496	0.0146243
761.575	0.0147558
761.653	0.0146494
761.731	0.0146221
761.809	0.0146447
761.887	0.0148217
761.965	0.0146754
762.043	0.0146590
762.121	0.0147143
762.200	0.0147439
762.278	0.0146658
762.356	0.0147157
762.434	0.0147262
762.512	0.0147981
762.590	0.0147417
762.668	0.0145889
762.746	0.0145941
762.825	0.0146906
762.903	0.0147189
762.981	0.0147762
763.059	0.0145295
763.137	0.0146146
763.215	0.0146217
763.293	0.0145740
763.371	0.0145926
763.450	0.0146234
763.528	0.0146311
763.606	0.0145307
763.684	0.0145483
763.762	0.0146085
763.840	0.0146540
763.918	0.0146384
763.996	0.0146092
764.075	0.0146987
764.153	0.0147374
764.231	0.0147536
764.309	0.0147253
764.387	0.0146173
764.465	0.0146410
764.543	0.0148307
764.621	0.0148162
764.700	0.0147948
