05/04/2022	21:24:43	Ver.	4.1	UNKNOWN
Optical Delay	678.996401	Delta X		0.078125	Sweeps	1	Scan Rate	0/0
Coordinates	Axis 1	NaN	Axis 2	NaN	Axis 3	NaN	Axis 4	NaN	Axis 5	NaN	Axis 6	0.000000
TX Power	0.000000	RX Power	0.000000

678.996	0.0147370
679.075	0.0147029
679.153	0.0148380
679.231	0.0147811
679.309	0.0145985
679.387	0.0148305
679.465	0.0146096
679.543	0.0146365
679.621	0.0145446
679.700	0.0146159
679.778	0.0146081
679.856	0.0145784
679.934	0.0146018
680.012	0.0145433
680.090	0.0145549
680.168	0.0145577
680.246	0.0143475
680.325	0.0146329
680.403	0.0144928
680.481	0.0144777
680.559	0.0146189
680.637	0.0145424
680.715	0.0145525
680.793	0.0144941
680.871	0.0145373
680.950	0.0145949
681.028	0.0147445
681.106	0.0147391
681.184	0.0145937
681.262	0.0147500
681.340	0.0146841
681.418	0.0147450
681.496	0.0146339
681.575	0.0147524
681.653	0.0149116
681.731	0.0147062
681.809	0.0146873
681.887	0.0146603
681.965	0.0147139
682.043	0.0146653
682.121	0.0146733
682.200	0.0144943
682.278	0.0145579
682.356	0.0145111
682.434	0.0146319
682.512	0.0144454
682.590	0.0144976
682.668	0.0144975
682.746	0.0146557
682.825	0.0145061
682.903	0.0146133
682.981	0.0146942
683.059	0.0146117
683.137	0.0146498
683.215	0.0147628
683.293	0.0146471
683.371	0.0145648
683.450	0.0146383
683.528	0.0147365
683.606	0.0148611
683.684	0.0147118
683.762	0.0147829
683.840	0.0146877
683.918	0.0147860
683.996	0.0148186
684.075	0.0148582
684.153	0.0148537
684.231	0.0148250
684.309	0.0147395
684.387	0.0147513
684.465	0.0147889
684.543	0.0147588
684.621	0.0146278
684.700	0.0146626
684.778	0.0145960
684.856	0.0148294
684.934	0.0146628
685.012	0.0146361
685.090	0.0146056
685.168	0.0146304
685.246	0.0146092
685.325	0.0145820
685.403	0.0145726
685.481	0.0145412
685.559	0.0146158
685.637	0.0147312
685.715	0.0147086
685.793	0.0147886
685.871	0.0147775
685.950	0.0147160
686.028	0.0147182
686.106	0.0146647
686.184	0.0147392
686.262	0.0148020
686.340	0.0148808
686.418	0.0148357
686.496	0.0148645
686.575	0.0148442
686.653	0.0146286
686.731	0.0148192
686.809	0.0147982
686.887	0.0146518
686.965	0.0148553
687.043	0.0148380
687.121	0.0146980
687.200	0.0146827
687.278	0.0148047
687.356	0.0147838
687.434	0.0146185
687.512	0.0147702
687.590	0.0147121
687.668	0.0145811
687.746	0.0148341
687.825	0.0147810
687.903	0.0145921
687.981	0.0145796
688.059	0.0146981
688.137	0.0145679
688.215	0.0146870
688.293	0.0146978
688.371	0.0147394
688.450	0.0147581
688.528	0.0148699
688.606	0.0148228
688.684	0.0149087
688.762	0.0147352
688.840	0.0147712
688.918	0.0148508
688.996	0.0146869
689.075	0.0148646
689.153	0.0147483
689.231	0.0145849
689.309	0.0147613
689.387	0.0146819
689.465	0.0146786
689.543	0.0147175
689.621	0.0147927
689.700	0.0146187
689.778	0.0147110
689.856	0.0148117
689.934	0.0147217
690.012	0.0148454
690.090	0.0149358
690.168	0.0147042
690.246	0.0149548
690.325	0.0149153
690.403	0.0147641
690.481	0.0146254
690.559	0.0146701
690.637	0.0148450
690.715	0.0143861
690.793	0.0144196
690.871	0.0146436
690.950	0.0143694
691.028	0.0143606
691.106	0.0144669
691.184	0.0144173
691.262	0.0145168
691.340	0.0145025
691.418	0.0144686
691.496	0.0146379
691.575	0.0148846
691.653	0.0148882
691.731	0.0147283
691.809	0.0150388
691.887	0.0151953
691.965	0.0150690
692.043	0.0150066
692.121	0.0151411
692.200	0.0150169
692.278	0.0149252
692.356	0.0149320
692.434	0.0148677
692.512	0.0149233
692.590	0.0147482
692.668	0.0147977
692.746	0.0146825
692.825	0.0143170
692.903	0.0142721
692.981	0.0143409
693.059	0.0141859
693.137	0.0141399
693.215	0.0141833
693.293	0.0140710
693.371	0.0142184
693.450	0.0144537
693.528	0.0145777
693.606	0.0145763
693.684	0.0148221
693.762	0.0148691
693.840	0.0148640
693.918	0.0149755
693.996	0.0150488
694.075	0.0149485
694.153	0.0149966
694.231	0.0150526
694.309	0.0151275
694.387	0.0151005
694.465	0.0150811
694.543	0.0149520
694.621	0.0148502
694.700	0.0146154
694.778	0.0146542
694.856	0.0144749
694.934	0.0143938
695.012	0.0141605
695.090	0.0141862
695.168	0.0141685
695.246	0.0141374
695.325	0.0141758
695.403	0.0142142
695.481	0.0142455
695.559	0.0142966
695.637	0.0144700
695.715	0.0144737
695.793	0.0146089
695.871	0.0145092
695.950	0.0144492
696.028	0.0145274
696.106	0.0145216
696.184	0.0147466
696.262	0.0148189
696.340	0.0147701
696.418	0.0150446
696.496	0.0149689
696.575	0.0150281
696.653	0.0151177
696.731	0.0151396
696.809	0.0151450
696.887	0.0149820
696.965	0.0148179
697.043	0.0148090
697.121	0.0145504
697.200	0.0144617
697.278	0.0141669
697.356	0.0140468
697.434	0.0139822
697.512	0.0138515
697.590	0.0138936
697.668	0.0138464
697.746	0.0139323
697.825	0.0139537
697.903	0.0140763
697.981	0.0142992
698.059	0.0145688
698.137	0.0147465
698.215	0.0149004
698.293	0.0150368
698.371	0.0154897
698.450	0.0155811
698.528	0.0154773
698.606	0.0154030
698.684	0.0154020
698.762	0.0150915
698.840	0.0150113
698.918	0.0147897
698.996	0.0145235
699.075	0.0144037
699.153	0.0141289
699.231	0.0140067
699.309	0.0139906
699.387	0.0140490
699.465	0.0141805
699.543	0.0141081
699.621	0.0143546
699.700	0.0143552
699.778	0.0145280
699.856	0.0147789
699.934	0.0149467
700.012	0.0149458
700.090	0.0150340
700.168	0.0151515
700.246	0.0152489
700.325	0.0152908
700.403	0.0152563
700.481	0.0152157
700.559	0.0152140
700.637	0.0150685
700.715	0.0150380
700.793	0.0148817
700.871	0.0147713
700.950	0.0148195
701.028	0.0145705
701.106	0.0144387
701.184	0.0142064
701.262	0.0141279
701.340	0.0140768
701.418	0.0139648
701.496	0.0139098
701.575	0.0137335
701.653	0.0138536
701.731	0.0138148
701.809	0.0138548
701.887	0.0138467
701.965	0.0141446
702.043	0.0144129
702.121	0.0147663
702.200	0.0150162
702.278	0.0152828
702.356	0.0155878
702.434	0.0156231
702.512	0.0158382
702.590	0.0157207
702.668	0.0156799
702.746	0.0155816
702.825	0.0155643
702.903	0.0151605
702.981	0.0148357
703.059	0.0147300
703.137	0.0144250
703.215	0.0140882
703.293	0.0138177
703.371	0.0136306
703.450	0.0136044
703.528	0.0133812
703.606	0.0132953
703.684	0.0134988
703.762	0.0137963
703.840	0.0138687
703.918	0.0142651
703.996	0.0144944
704.075	0.0148436
704.153	0.0151799
704.231	0.0153790
704.309	0.0155648
704.387	0.0157533
704.465	0.0155925
704.543	0.0158945
704.621	0.0157833
704.700	0.0155566
704.778	0.0152585
704.856	0.0150938
704.934	0.0149435
705.012	0.0146596
705.090	0.0144418
705.168	0.0144884
705.246	0.0141988
705.325	0.0141130
705.403	0.0141292
705.481	0.0138913
705.559	0.0139544
705.637	0.0141376
705.715	0.0140404
705.793	0.0141454
705.871	0.0142306
705.950	0.0144900
706.028	0.0145068
706.106	0.0147094
706.184	0.0150269
706.262	0.0150715
706.340	0.0151962
706.418	0.0151971
706.496	0.0152951
706.575	0.0152193
706.653	0.0152006
706.731	0.0152000
706.809	0.0150873
706.887	0.0148569
706.965	0.0148837
707.043	0.0148499
707.121	0.0147663
707.200	0.0145461
707.278	0.0146809
707.356	0.0145892
707.434	0.0145773
707.512	0.0147209
707.590	0.0147104
707.668	0.0146340
707.746	0.0146803
707.825	0.0147134
707.903	0.0147900
707.981	0.0149191
708.059	0.0148800
708.137	0.0148929
708.215	0.0149207
708.293	0.0148713
708.371	0.0149961
708.450	0.0149916
708.528	0.0149506
708.606	0.0149239
708.684	0.0148656
708.762	0.0147793
708.840	0.0147034
708.918	0.0146366
708.996	0.0148963
709.075	0.0146918
709.153	0.0145390
709.231	0.0145715
709.309	0.0144394
709.387	0.0141850
709.465	0.0142218
709.543	0.0140530
709.621	0.0141581
709.700	0.0140163
709.778	0.0141360
709.856	0.0140519
709.934	0.0142247
710.012	0.0144037
710.090	0.0145592
710.168	0.0147282
710.246	0.0149503
710.325	0.0152493
710.403	0.0152848
710.481	0.0155447
710.559	0.0157433
710.637	0.0155793
710.715	0.0155976
710.793	0.0155116
710.871	0.0153795
710.950	0.0151206
711.028	0.0149292
711.106	0.0145068
711.184	0.0142831
711.262	0.0141692
711.340	0.0139706
711.418	0.0137149
711.496	0.0136615
711.575	0.0135363
711.653	0.0135542
711.731	0.0135523
711.809	0.0135995
711.887	0.0139323
711.965	0.0141389
712.043	0.0143121
712.121	0.0145527
712.200	0.0148156
712.278	0.0150214
712.356	0.0152682
712.434	0.0153369
712.512	0.0154015
712.590	0.0155061
712.668	0.0154525
712.746	0.0152902
712.825	0.0152570
712.903	0.0153028
712.981	0.0150399
713.059	0.0147959
713.137	0.0147641
713.215	0.0147916
713.293	0.0146841
713.371	0.0144977
713.450	0.0144028
713.528	0.0143692
713.606	0.0143631
713.684	0.0141640
713.762	0.0142218
713.840	0.0142360
713.918	0.0140282
713.996	0.0141512
714.075	0.0140854
714.153	0.0142712
714.231	0.0141965
714.309	0.0141617
714.387	0.0143100
714.465	0.0143330
714.543	0.0145247
714.621	0.0146077
714.700	0.0147980
714.778	0.0149280
714.856	0.0149583
714.934	0.0150364
715.012	0.0153703
715.090	0.0155376
715.168	0.0154647
715.246	0.0155542
715.325	0.0155422
715.403	0.0155045
715.481	0.0154213
715.559	0.0153545
715.637	0.0150932
715.715	0.0148381
715.793	0.0146396
715.871	0.0143962
715.950	0.0141532
716.028	0.0140469
716.106	0.0139661
716.184	0.0139037
716.262	0.0137476
716.340	0.0138210
716.418	0.0140079
716.496	0.0140592
716.575	0.0140306
716.653	0.0143333
716.731	0.0144907
716.809	0.0145516
716.887	0.0145520
716.965	0.0148620
717.043	0.0150526
717.121	0.0152228
717.200	0.0151108
717.278	0.0151665
717.356	0.0152555
717.434	0.0150155
717.512	0.0150439
717.590	0.0150298
717.668	0.0149053
717.746	0.0147017
717.825	0.0147678
717.903	0.0146111
717.981	0.0146201
718.059	0.0145877
718.137	0.0145310
718.215	0.0144781
718.293	0.0145697
718.371	0.0145148
718.450	0.0145763
718.528	0.0145026
718.606	0.0145709
718.684	0.0144794
718.762	0.0144341
718.840	0.0146060
718.918	0.0145905
718.996	0.0146439
719.075	0.0147837
719.153	0.0146395
719.231	0.0147225
719.309	0.0147652
719.387	0.0147079
719.465	0.0146483
719.543	0.0145809
719.621	0.0146494
719.700	0.0147475
719.778	0.0144653
719.856	0.0145022
719.934	0.0145638
720.012	0.0145770
720.090	0.0143959
720.168	0.0143985
720.246	0.0142749
720.325	0.0143193
720.403	0.0143516
720.481	0.0142658
720.559	0.0144823
720.637	0.0145791
720.715	0.0146262
720.793	0.0144389
720.871	0.0145718
720.950	0.0146474
721.028	0.0147153
721.106	0.0148272
721.184	0.0148357
721.262	0.0150239
721.340	0.0150827
721.418	0.0151283
721.496	0.0149653
721.575	0.0151025
721.653	0.0151044
721.731	0.0148521
721.809	0.0149516
721.887	0.0150124
721.965	0.0148724
722.043	0.0147811
722.121	0.0145903
722.200	0.0144717
722.278	0.0145599
722.356	0.0145206
722.434	0.0145712
722.512	0.0144446
722.590	0.0144863
722.668	0.0143832
722.746	0.0144093
722.825	0.0145450
722.903	0.0144373
722.981	0.0144556
723.059	0.0145981
723.137	0.0146562
723.215	0.0147031
723.293	0.0148479
723.371	0.0147180
723.450	0.0148232
723.528	0.0147208
723.606	0.0146918
723.684	0.0147802
723.762	0.0148231
723.840	0.0148022
723.918	0.0147438
723.996	0.0148004
724.075	0.0146368
724.153	0.0146446
724.231	0.0145944
724.309	0.0144830
724.387	0.0146454
724.465	0.0146683
724.543	0.0145299
724.621	0.0146384
724.700	0.0147485
724.778	0.0146748
724.856	0.0146700
724.934	0.0147514
725.012	0.0148820
725.090	0.0148877
725.168	0.0149334
725.246	0.0148245
725.325	0.0149002
725.403	0.0149459
725.481	0.0147884
725.559	0.0147233
725.637	0.0146929
725.715	0.0147988
725.793	0.0145130
725.871	0.0146460
725.950	0.0145074
726.028	0.0144733
726.106	0.0143678
726.184	0.0145171
726.262	0.0143435
726.340	0.0145668
726.418	0.0145929
726.496	0.0146318
726.575	0.0147395
726.653	0.0146944
726.731	0.0148303
726.809	0.0148003
726.887	0.0149257
726.965	0.0149496
727.043	0.0150565
727.121	0.0147077
727.200	0.0148923
727.278	0.0148702
727.356	0.0146971
727.434	0.0145712
727.512	0.0144703
727.590	0.0145007
727.668	0.0143436
727.746	0.0144178
727.825	0.0144605
727.903	0.0144444
727.981	0.0143669
728.059	0.0144547
728.137	0.0144511
728.215	0.0144449
728.293	0.0145438
728.371	0.0146818
728.450	0.0147995
728.528	0.0146770
728.606	0.0148196
728.684	0.0148814
728.762	0.0148529
728.840	0.0148949
728.918	0.0150497
728.996	0.0151061
729.075	0.0151685
729.153	0.0151063
729.231	0.0151795
729.309	0.0152306
729.387	0.0151286
729.465	0.0150600
729.543	0.0149369
729.621	0.0148767
729.700	0.0149577
729.778	0.0147789
729.856	0.0147794
729.934	0.0147262
730.012	0.0146409
730.090	0.0145445
730.168	0.0145648
730.246	0.0145462
730.325	0.0145450
730.403	0.0143911
730.481	0.0146146
730.559	0.0146053
730.637	0.0144637
730.715	0.0146896
730.793	0.0145686
730.871	0.0145640
730.950	0.0146455
731.028	0.0148823
731.106	0.0146561
731.184	0.0145717
731.262	0.0147279
731.340	0.0147190
731.418	0.0147947
731.496	0.0148812
731.575	0.0147217
731.653	0.0146771
731.731	0.0148219
731.809	0.0147847
731.887	0.0148412
731.965	0.0148203
732.043	0.0148367
732.121	0.0149057
732.200	0.0148732
732.278	0.0149514
732.356	0.0148466
732.434	0.0146092
732.512	0.0148816
732.590	0.0147968
732.668	0.0146135
732.746	0.0146718
732.825	0.0146194
732.903	0.0146513
732.981	0.0146429
733.059	0.0146945
733.137	0.0147188
733.215	0.0147327
733.293	0.0147403
733.371	0.0147308
733.450	0.0147849
733.528	0.0148240
733.606	0.0148688
733.684	0.0148145
733.762	0.0149339
733.840	0.0149207
733.918	0.0147161
733.996	0.0147771
734.075	0.0147812
734.153	0.0146213
734.231	0.0147478
734.309	0.0145969
734.387	0.0146824
734.465	0.0145703
734.543	0.0145217
734.621	0.0146402
734.700	0.0144366
734.778	0.0143181
734.856	0.0144594
734.934	0.0144187
735.012	0.0144009
735.090	0.0147416
735.168	0.0146259
735.246	0.0144671
735.325	0.0144412
735.403	0.0145527
735.481	0.0145602
735.559	0.0144921
735.637	0.0144117
735.715	0.0145885
735.793	0.0144899
735.871	0.0145713
735.950	0.0145917
736.028	0.0145756
736.106	0.0146252
736.184	0.0147418
736.262	0.0148050
736.340	0.0148059
736.418	0.0149389
736.496	0.0150340
736.575	0.0149612
736.653	0.0149367
736.731	0.0148306
736.809	0.0148952
736.887	0.0148183
736.965	0.0147882
737.043	0.0146294
737.121	0.0145107
737.200	0.0146113
737.278	0.0144077
737.356	0.0142999
737.434	0.0142157
737.512	0.0142976
737.590	0.0143149
737.668	0.0141606
737.746	0.0141495
737.825	0.0141252
737.903	0.0142383
737.981	0.0142793
738.059	0.0143598
738.137	0.0144614
738.215	0.0145921
738.293	0.0145905
738.371	0.0146076
738.450	0.0147333
738.528	0.0146832
738.606	0.0146412
738.684	0.0148094
738.762	0.0149329
738.840	0.0148505
738.918	0.0148027
738.996	0.0149020
739.075	0.0148080
739.153	0.0148815
739.231	0.0147979
739.309	0.0148980
739.387	0.0147769
739.465	0.0145064
739.543	0.0145049
739.621	0.0145472
739.700	0.0144725
739.778	0.0143119
739.856	0.0143697
739.934	0.0142950
740.012	0.0143689
740.090	0.0142591
740.168	0.0144250
740.246	0.0143002
740.325	0.0142796
740.403	0.0144869
740.481	0.0144350
740.559	0.0144846
740.637	0.0143702
740.715	0.0146068
740.793	0.0146655
740.871	0.0147760
740.950	0.0148874
741.028	0.0148460
741.106	0.0150809
741.184	0.0150377
741.262	0.0151225
741.340	0.0149899
741.418	0.0149660
741.496	0.0149875
741.575	0.0149722
741.653	0.0148904
741.731	0.0148792
741.809	0.0148015
741.887	0.0147937
741.965	0.0147376
742.043	0.0146572
742.121	0.0147232
742.200	0.0145158
742.278	0.0144866
742.356	0.0144720
742.434	0.0145515
742.512	0.0144753
742.590	0.0145681
742.668	0.0145532
742.746	0.0144965
742.825	0.0146216
742.903	0.0146811
742.981	0.0146854
743.059	0.0148317
743.137	0.0147766
743.215	0.0149030
743.293	0.0148325
743.371	0.0148936
743.450	0.0149438
743.528	0.0148674
743.606	0.0148656
743.684	0.0149841
743.762	0.0146876
743.840	0.0147845
743.918	0.0147576
743.996	0.0148727
744.075	0.0146829
744.153	0.0146904
744.231	0.0145581
744.309	0.0147451
744.387	0.0147497
744.465	0.0145789
744.543	0.0145597
744.621	0.0144572
744.700	0.0145300
744.778	0.0144519
744.856	0.0144570
744.934	0.0144080
745.012	0.0144785
745.090	0.0143980
745.168	0.0143697
745.246	0.0144152
745.325	0.0143978
745.403	0.0145771
745.481	0.0145159
745.559	0.0145904
745.637	0.0145131
745.715	0.0147129
745.793	0.0147030
745.871	0.0147463
745.950	0.0148725
746.028	0.0149641
746.106	0.0149940
746.184	0.0148809
746.262	0.0148865
746.340	0.0149323
746.418	0.0149399
746.496	0.0149760
746.575	0.0150367
746.653	0.0148988
746.731	0.0148154
746.809	0.0148501
746.887	0.0148239
746.965	0.0148915
747.043	0.0147552
747.121	0.0147325
747.200	0.0146030
747.278	0.0146385
747.356	0.0145827
747.434	0.0145876
747.512	0.0144652
747.590	0.0145309
747.668	0.0144977
747.746	0.0145847
747.825	0.0145999
747.903	0.0145023
747.981	0.0146227
748.059	0.0146029
748.137	0.0146511
748.215	0.0145757
748.293	0.0147176
748.371	0.0148120
748.450	0.0148512
748.528	0.0146807
748.606	0.0147552
748.684	0.0148092
748.762	0.0148685
748.840	0.0148403
748.918	0.0147700
748.996	0.0147988
749.075	0.0147972
749.153	0.0149378
749.231	0.0147761
749.309	0.0147821
749.387	0.0148769
749.465	0.0149837
749.543	0.0147572
749.621	0.0147823
749.700	0.0147060
749.778	0.0146902
749.856	0.0146260
749.934	0.0146090
750.012	0.0146214
750.090	0.0147530
750.168	0.0146379
750.246	0.0147292
750.325	0.0147933
750.403	0.0147986
750.481	0.0149021
750.559	0.0150405
750.637	0.0149895
750.715	0.0148948
750.793	0.0148772
750.871	0.0149024
750.950	0.0148613
751.028	0.0148402
751.106	0.0149176
751.184	0.0150415
751.262	0.0149456
751.340	0.0147630
751.418	0.0147966
751.496	0.0147778
751.575	0.0147083
751.653	0.0147510
751.731	0.0146907
751.809	0.0146912
751.887	0.0145838
751.965	0.0146009
752.043	0.0145848
752.121	0.0144931
752.200	0.0145773
752.278	0.0146114
752.356	0.0144793
752.434	0.0145181
752.512	0.0147678
752.590	0.0145402
752.668	0.0143984
752.746	0.0145728
752.825	0.0145901
752.903	0.0146704
752.981	0.0145860
753.059	0.0146172
753.137	0.0147484
753.215	0.0147371
753.293	0.0146873
753.371	0.0147519
753.450	0.0148634
753.528	0.0147408
753.606	0.0148489
753.684	0.0149610
753.762	0.0148106
753.840	0.0149548
753.918	0.0150307
753.996	0.0148111
754.075	0.0148115
754.153	0.0148817
754.231	0.0148315
754.309	0.0146449
754.387	0.0146915
754.465	0.0147540
754.543	0.0147592
754.621	0.0146436
754.700	0.0146742
754.778	0.0145991
754.856	0.0146732
754.934	0.0146609
755.012	0.0146246
755.090	0.0145232
755.168	0.0148196
755.246	0.0146751
755.325	0.0145359
755.403	0.0146163
755.481	0.0147593
755.559	0.0147083
755.637	0.0146093
755.715	0.0147163
755.793	0.0146669
755.871	0.0146661
755.950	0.0146941
756.028	0.0145908
756.106	0.0146049
756.184	0.0148273
756.262	0.0146787
756.340	0.0147476
756.418	0.0145584
756.496	0.0146532
756.575	0.0146437
756.653	0.0145523
756.731	0.0146165
756.809	0.0146567
756.887	0.0145580
756.965	0.0145955
757.043	0.0145322
757.121	0.0145744
757.200	0.0145396
757.278	0.0146210
757.356	0.0146428
757.434	0.0147010
757.512	0.0146057
757.590	0.0146122
757.668	0.0145639
757.746	0.0145867
757.825	0.0146185
757.903	0.0147426
757.981	0.0146341
758.059	0.0145952
758.137	0.0146411
758.215	0.0147289
758.293	0.0147272
758.371	0.0147029
758.450	0.0146295
758.528	0.0146394
758.606	0.0148112
758.684	0.0145761
758.762	0.0148533
758.840	0.0147201
758.918	0.0146102
758.996	0.0146895
759.075	0.0147549
759.153	0.0145762
759.231	0.0147062
759.309	0.0147339
759.387	0.0145477
759.465	0.0146509
759.543	0.0145486
759.621	0.0145663
759.700	0.0145871
759.778	0.0145316
759.856	0.0145011
759.934	0.0145604
760.012	0.0146206
760.090	0.0145934
760.168	0.0145512
760.246	0.0145009
760.325	0.0146114
760.403	0.0145550
760.481	0.0144151
760.559	0.0144761
760.637	0.0146259
760.715	0.0145628
760.793	0.0146294
760.871	0.0145609
760.950	0.0146643
761.028	0.0147339
761.106	0.0147806
761.184	0.0147100
761.262	0.0146401
761.340	0.0146928
761.418	0.0146883
761.496	0.0145864
761.575	0.0147697
761.653	0.0147201
761.731	0.0146894
761.809	0.0147650
761.887	0.0146712
761.965	0.0146181
762.043	0.0147859
762.121	0.0146497
762.200	0.0146745
762.278	0.0146094
762.356	0.0147572
762.434	0.0146465
762.512	0.0147636
762.590	0.0147481
762.668	0.0147295
762.746	0.0146769
762.825	0.0146584
762.903	0.0148050
762.981	0.0147662
763.059	0.0146803
763.137	0.0146601
763.215	0.0145903
763.293	0.0146680
763.371	0.0148012
763.450	0.0146500
763.528	0.0147902
763.606	0.0147457
763.684	0.0147163
763.762	0.0146165
763.840	0.0146837
763.918	0.0147383
763.996	0.0147747
764.075	0.0146629
764.153	0.0148135
764.231	0.0147072
764.309	0.0147353
764.387	0.0147586
764.465	0.0147160
764.543	0.0147942
764.621	0.0147700
764.700	0.0146495
