05/04/2022	21:25:33	Ver.	4.1	UNKNOWN
Optical Delay	678.996401	Delta X		0.078125	Sweeps	1	Scan Rate	0/0
Coordinates	Axis 1	NaN	Axis 2	NaN	Axis 3	NaN	Axis 4	NaN	Axis 5	NaN	Axis 6	0.000000
TX Power	0.000000	RX Power	0.000000

678.996	0.0144648
679.075	0.0143192
679.153	0.0144230
679.231	0.0145956
679.309	0.0144865
679.387	0.0143750
679.465	0.0144101
679.543	0.0145393
679.621	0.0144605
679.700	0.0145329
679.778	0.0142904
679.856	0.0144803
679.934	0.0144688
680.012	0.0144970
680.090	0.0145326
680.168	0.0145637
680.246	0.0145003
680.325	0.0143365
680.403	0.0144508
680.481	0.0145601
680.559	0.0145605
680.637	0.0145544
680.715	0.0146202
680.793	0.0145071
680.871	0.0145322
680.950	0.0143747
681.028	0.0144894
681.106	0.0146790
681.184	0.0146555
681.262	0.0145560
681.340	0.0145670
681.418	0.0145928
681.496	0.0144434
681.575	0.0145349
681.653	0.0144125
681.731	0.0143743
681.809	0.0144913
681.887	0.0144963
681.965	0.0144017
682.043	0.0144200
682.121	0.0144261
682.200	0.0143463
682.278	0.0142474
682.356	0.0142786
682.434	0.0143652
682.512	0.0141827
682.590	0.0141326
682.668	0.0143438
682.746	0.0144022
682.825	0.0143962
682.903	0.0144669
682.981	0.0144287
683.059	0.0143980
683.137	0.0144536
683.215	0.0145694
683.293	0.0144982
683.371	0.0144405
683.450	0.0144985
683.528	0.0144173
683.606	0.0144004
683.684	0.0143328
683.762	0.0144307
683.840	0.0144307
683.918	0.0143945
683.996	0.0144415
684.075	0.0145147
684.153	0.0145013
684.231	0.0144980
684.309	0.0144238
684.387	0.0143284
684.465	0.0144118
684.543	0.0144847
684.621	0.0144963
684.700	0.0144135
684.778	0.0144090
684.856	0.0144196
684.934	0.0144275
685.012	0.0142662
685.090	0.0143079
685.168	0.0143411
685.246	0.0143652
685.325	0.0142835
685.403	0.0142480
685.481	0.0143134
685.559	0.0144331
685.637	0.0143642
685.715	0.0142863
685.793	0.0144489
685.871	0.0143777
685.950	0.0145319
686.028	0.0145419
686.106	0.0144560
686.184	0.0145418
686.262	0.0144308
686.340	0.0145746
686.418	0.0146477
686.496	0.0145728
686.575	0.0145520
686.653	0.0145851
686.731	0.0145340
686.809	0.0146274
686.887	0.0145238
686.965	0.0144629
687.043	0.0142606
687.121	0.0144860
687.200	0.0144133
687.278	0.0143958
687.356	0.0145386
687.434	0.0142956
687.512	0.0142838
687.590	0.0144252
687.668	0.0145477
687.746	0.0143523
687.825	0.0143337
687.903	0.0144112
687.981	0.0144193
688.059	0.0144613
688.137	0.0143475
688.215	0.0143108
688.293	0.0144798
688.371	0.0144116
688.450	0.0143587
688.528	0.0144225
688.606	0.0144112
688.684	0.0145498
688.762	0.0145847
688.840	0.0145193
688.918	0.0146050
688.996	0.0147277
689.075	0.0146621
689.153	0.0144254
689.231	0.0145930
689.309	0.0145570
689.387	0.0145998
689.465	0.0146920
689.543	0.0145450
689.621	0.0143974
689.700	0.0143890
689.778	0.0143458
689.856	0.0141116
689.934	0.0141177
690.012	0.0140535
690.090	0.0139304
690.168	0.0141084
690.246	0.0141088
690.325	0.0142377
690.403	0.0142284
690.481	0.0142719
690.559	0.0145258
690.637	0.0145208
690.715	0.0143205
690.793	0.0146294
690.871	0.0145589
690.950	0.0146177
691.028	0.0146633
691.106	0.0146550
691.184	0.0145049
691.262	0.0147555
691.340	0.0145129
691.418	0.0145142
691.496	0.0145769
691.575	0.0143190
691.653	0.0144299
691.731	0.0143486
691.809	0.0142248
691.887	0.0142899
691.965	0.0140686
692.043	0.0140936
692.121	0.0140887
692.200	0.0139134
692.278	0.0138573
692.356	0.0139304
692.434	0.0140224
692.512	0.0140281
692.590	0.0141234
692.668	0.0144226
692.746	0.0144372
692.825	0.0146658
692.903	0.0146375
692.981	0.0147301
693.059	0.0147241
693.137	0.0148692
693.215	0.0147803
693.293	0.0147525
693.371	0.0148102
693.450	0.0149510
693.528	0.0148666
693.606	0.0148670
693.684	0.0147661
693.762	0.0146660
693.840	0.0145012
693.918	0.0145116
693.996	0.0143704
694.075	0.0142711
694.153	0.0141157
694.231	0.0138935
694.309	0.0139074
694.387	0.0139455
694.465	0.0141011
694.543	0.0140450
694.621	0.0140359
694.700	0.0142680
694.778	0.0142308
694.856	0.0143045
694.934	0.0144494
695.012	0.0144366
695.090	0.0145153
695.168	0.0145428
695.246	0.0147740
695.325	0.0149075
695.403	0.0149583
695.481	0.0150986
695.559	0.0153042
695.637	0.0152367
695.715	0.0152661
695.793	0.0153416
695.871	0.0151778
695.950	0.0150023
696.028	0.0148244
696.106	0.0148170
696.184	0.0146964
696.262	0.0144333
696.340	0.0142181
696.418	0.0139967
696.496	0.0138567
696.575	0.0138586
696.653	0.0138074
696.731	0.0136386
696.809	0.0136074
696.887	0.0136724
696.965	0.0137379
697.043	0.0139003
697.121	0.0143045
697.200	0.0144212
697.278	0.0147123
697.356	0.0149882
697.434	0.0152277
697.512	0.0154472
697.590	0.0155843
697.668	0.0156093
697.746	0.0154972
697.825	0.0154284
697.903	0.0151652
697.981	0.0149323
698.059	0.0146726
698.137	0.0142679
698.215	0.0141592
698.293	0.0139326
698.371	0.0138576
698.450	0.0138599
698.528	0.0138521
698.606	0.0138948
698.684	0.0141064
698.762	0.0141585
698.840	0.0143505
698.918	0.0143334
698.996	0.0144365
699.075	0.0146233
699.153	0.0146626
699.231	0.0146745
699.309	0.0147339
699.387	0.0148288
699.465	0.0148479
699.543	0.0148158
699.621	0.0148056
699.700	0.0149332
699.778	0.0148158
699.856	0.0146408
699.934	0.0145959
700.012	0.0145045
700.090	0.0143783
700.168	0.0143585
700.246	0.0143166
700.325	0.0141444
700.403	0.0141208
700.481	0.0141528
700.559	0.0140704
700.637	0.0140469
700.715	0.0138700
700.793	0.0138582
700.871	0.0137258
700.950	0.0136486
701.028	0.0138218
701.106	0.0137090
701.184	0.0137785
701.262	0.0140889
701.340	0.0143005
701.418	0.0144705
701.496	0.0149912
701.575	0.0150892
701.653	0.0154527
701.731	0.0155820
701.809	0.0156966
701.887	0.0155386
701.965	0.0152793
702.043	0.0152055
702.121	0.0149471
702.200	0.0147468
702.278	0.0146163
702.356	0.0143325
702.434	0.0140695
702.512	0.0138525
702.590	0.0137183
702.668	0.0137219
702.746	0.0135340
702.825	0.0135516
702.903	0.0136530
702.981	0.0137643
703.059	0.0140115
703.137	0.0140343
703.215	0.0142150
703.293	0.0144357
703.371	0.0146565
703.450	0.0148093
703.528	0.0150797
703.606	0.0150141
703.684	0.0151909
703.762	0.0151653
703.840	0.0151205
703.918	0.0150027
703.996	0.0148656
704.075	0.0146301
704.153	0.0144731
704.231	0.0143048
704.309	0.0142821
704.387	0.0142025
704.465	0.0140597
704.543	0.0140472
704.621	0.0139543
704.700	0.0140163
704.778	0.0140810
704.856	0.0141293
704.934	0.0143572
705.012	0.0145476
705.090	0.0144158
705.168	0.0145376
705.246	0.0143294
705.325	0.0146187
705.403	0.0146650
705.481	0.0145497
705.559	0.0146397
705.637	0.0146480
705.715	0.0146064
705.793	0.0147078
705.871	0.0147975
705.950	0.0147349
706.028	0.0146191
706.106	0.0145405
706.184	0.0144493
706.262	0.0144061
706.340	0.0143563
706.418	0.0141772
706.496	0.0141643
706.575	0.0142513
706.653	0.0139703
706.731	0.0139497
706.809	0.0142132
706.887	0.0142781
706.965	0.0142545
707.043	0.0144270
707.121	0.0144867
707.200	0.0146117
707.278	0.0147922
707.356	0.0147863
707.434	0.0146707
707.512	0.0148210
707.590	0.0147736
707.668	0.0148911
707.746	0.0148877
707.825	0.0147478
707.903	0.0148309
707.981	0.0147469
708.059	0.0146416
708.137	0.0143343
708.215	0.0143200
708.293	0.0142577
708.371	0.0142762
708.450	0.0139960
708.528	0.0138210
708.606	0.0137792
708.684	0.0136075
708.762	0.0135428
708.840	0.0134652
708.918	0.0133879
708.996	0.0135278
709.075	0.0136697
709.153	0.0138898
709.231	0.0140356
709.309	0.0140935
709.387	0.0144347
709.465	0.0147895
709.543	0.0150287
709.621	0.0152454
709.700	0.0155994
709.778	0.0157408
709.856	0.0158680
709.934	0.0157124
710.012	0.0157525
710.090	0.0157220
710.168	0.0155385
710.246	0.0152108
710.325	0.0149023
710.403	0.0145948
710.481	0.0143656
710.559	0.0139529
710.637	0.0137172
710.715	0.0136920
710.793	0.0133298
710.871	0.0131248
710.950	0.0130756
711.028	0.0131946
711.106	0.0132299
711.184	0.0133646
711.262	0.0137461
711.340	0.0139485
711.418	0.0141528
711.496	0.0143485
711.575	0.0145796
711.653	0.0148289
711.731	0.0151041
711.809	0.0150739
711.887	0.0151744
711.965	0.0152177
712.043	0.0154082
712.121	0.0152986
712.200	0.0152198
712.278	0.0150000
712.356	0.0149503
712.434	0.0148907
712.512	0.0147687
712.590	0.0146941
712.668	0.0143750
712.746	0.0144032
712.825	0.0141608
712.903	0.0141596
712.981	0.0140022
713.059	0.0140699
713.137	0.0139363
713.215	0.0138541
713.293	0.0136990
713.371	0.0136309
713.450	0.0136337
713.528	0.0139062
713.606	0.0138013
713.684	0.0138081
713.762	0.0138612
713.840	0.0140689
713.918	0.0142651
713.996	0.0143985
714.075	0.0146322
714.153	0.0147671
714.231	0.0149284
714.309	0.0149419
714.387	0.0151984
714.465	0.0150253
714.543	0.0151497
714.621	0.0149624
714.700	0.0150266
714.778	0.0149691
714.856	0.0148863
714.934	0.0147563
715.012	0.0145409
715.090	0.0143267
715.168	0.0142748
715.246	0.0140655
715.325	0.0139424
715.403	0.0139149
715.481	0.0138998
715.559	0.0139378
715.637	0.0139873
715.715	0.0140504
715.793	0.0140009
715.871	0.0141008
715.950	0.0143073
716.028	0.0143968
716.106	0.0145213
716.184	0.0145232
716.262	0.0145941
716.340	0.0146400
716.418	0.0147887
716.496	0.0148825
716.575	0.0148910
716.653	0.0150128
716.731	0.0148251
716.809	0.0146823
716.887	0.0146000
716.965	0.0146318
717.043	0.0146384
717.121	0.0143967
717.200	0.0142519
717.278	0.0143009
717.356	0.0143864
717.434	0.0143303
717.512	0.0142542
717.590	0.0143362
717.668	0.0143975
717.746	0.0145306
717.825	0.0147211
717.903	0.0146158
717.981	0.0147404
718.059	0.0147036
718.137	0.0148233
718.215	0.0147053
718.293	0.0146883
718.371	0.0146973
718.450	0.0147058
718.528	0.0145567
718.606	0.0147221
718.684	0.0145735
718.762	0.0145208
718.840	0.0144006
718.918	0.0145644
718.996	0.0144601
719.075	0.0143815
719.153	0.0142899
719.231	0.0144739
719.309	0.0143388
719.387	0.0143273
719.465	0.0142715
719.543	0.0143133
719.621	0.0143761
719.700	0.0143939
719.778	0.0143010
719.856	0.0143132
719.934	0.0143678
720.012	0.0144492
720.090	0.0144448
720.168	0.0145106
720.246	0.0147246
720.325	0.0147124
720.403	0.0146626
720.481	0.0145721
720.559	0.0147226
720.637	0.0148547
720.715	0.0147302
720.793	0.0148815
720.871	0.0147092
720.950	0.0147467
721.028	0.0148074
721.106	0.0147157
721.184	0.0146854
721.262	0.0147102
721.340	0.0146635
721.418	0.0146512
721.496	0.0145013
721.575	0.0143578
721.653	0.0144283
721.731	0.0143066
721.809	0.0144424
721.887	0.0144194
721.965	0.0144360
722.043	0.0143499
722.121	0.0143166
722.200	0.0144099
722.278	0.0144224
722.356	0.0143845
722.434	0.0145108
722.512	0.0144145
722.590	0.0143736
722.668	0.0144135
722.746	0.0143823
722.825	0.0143896
722.903	0.0142391
722.981	0.0142237
723.059	0.0143427
723.137	0.0143748
723.215	0.0141808
723.293	0.0142645
723.371	0.0143526
723.450	0.0143559
723.528	0.0144823
723.606	0.0145395
723.684	0.0146466
723.762	0.0145583
723.840	0.0145150
723.918	0.0147269
723.996	0.0147953
724.075	0.0147012
724.153	0.0147279
724.231	0.0147990
724.309	0.0146782
724.387	0.0145238
724.465	0.0146096
724.543	0.0147601
724.621	0.0145762
724.700	0.0145708
724.778	0.0146001
724.856	0.0145259
724.934	0.0142771
725.012	0.0143764
725.090	0.0143984
725.168	0.0142683
725.246	0.0141492
725.325	0.0140967
725.403	0.0138559
725.481	0.0139254
725.559	0.0140294
725.637	0.0138911
725.715	0.0139511
725.793	0.0140343
725.871	0.0140666
725.950	0.0141338
726.028	0.0141727
726.106	0.0143331
726.184	0.0143683
726.262	0.0146172
726.340	0.0145857
726.418	0.0146602
726.496	0.0146314
726.575	0.0145814
726.653	0.0146191
726.731	0.0146812
726.809	0.0144068
726.887	0.0144761
726.965	0.0141812
727.043	0.0141293
727.121	0.0142062
727.200	0.0141466
727.278	0.0139029
727.356	0.0140349
727.434	0.0141679
727.512	0.0141658
727.590	0.0140560
727.668	0.0141707
727.746	0.0142056
727.825	0.0140922
727.903	0.0142310
727.981	0.0144193
728.059	0.0143956
728.137	0.0144464
728.215	0.0146064
728.293	0.0146449
728.371	0.0145541
728.450	0.0145935
728.528	0.0147820
728.606	0.0146165
728.684	0.0146789
728.762	0.0147636
728.840	0.0145591
728.918	0.0145277
728.996	0.0148041
729.075	0.0145253
729.153	0.0146582
729.231	0.0144797
729.309	0.0143578
729.387	0.0143911
729.465	0.0144362
729.543	0.0143984
729.621	0.0141816
729.700	0.0141669
729.778	0.0142159
729.856	0.0141631
729.934	0.0141975
730.012	0.0141212
730.090	0.0140681
730.168	0.0141046
730.246	0.0140713
730.325	0.0141936
730.403	0.0141362
730.481	0.0142304
730.559	0.0143613
730.637	0.0143404
730.715	0.0142142
730.793	0.0141695
730.871	0.0142616
730.950	0.0143631
731.028	0.0144761
731.106	0.0144911
731.184	0.0144589
731.262	0.0144415
731.340	0.0145380
731.418	0.0145683
731.496	0.0145459
731.575	0.0146876
731.653	0.0147256
731.731	0.0146912
731.809	0.0146282
731.887	0.0145278
731.965	0.0145389
732.043	0.0146174
732.121	0.0146589
732.200	0.0145049
732.278	0.0145821
732.356	0.0146257
732.434	0.0145426
732.512	0.0142351
732.590	0.0143125
732.668	0.0144341
732.746	0.0146131
732.825	0.0144281
732.903	0.0143438
732.981	0.0144471
733.059	0.0145044
733.137	0.0145583
733.215	0.0144226
733.293	0.0144858
733.371	0.0144382
733.450	0.0144979
733.528	0.0146838
733.606	0.0144572
733.684	0.0145667
733.762	0.0143222
733.840	0.0145670
733.918	0.0144690
733.996	0.0145683
734.075	0.0144965
734.153	0.0144468
734.231	0.0144951
734.309	0.0143553
734.387	0.0143918
734.465	0.0144256
734.543	0.0143258
734.621	0.0143782
734.700	0.0142000
734.778	0.0142956
734.856	0.0142107
734.934	0.0141292
735.012	0.0142416
735.090	0.0143189
735.168	0.0143816
735.246	0.0141982
735.325	0.0143894
735.403	0.0143823
735.481	0.0145249
735.559	0.0145942
735.637	0.0146196
735.715	0.0145349
735.793	0.0146465
735.871	0.0148071
735.950	0.0148850
736.028	0.0147825
736.106	0.0147749
736.184	0.0148741
736.262	0.0148662
736.340	0.0148857
736.418	0.0147868
736.496	0.0148059
736.575	0.0146869
736.653	0.0145276
736.731	0.0143933
736.809	0.0144841
736.887	0.0142432
736.965	0.0142375
737.043	0.0142236
737.121	0.0142562
737.200	0.0141078
737.278	0.0140758
737.356	0.0140366
737.434	0.0142007
737.512	0.0142503
737.590	0.0142097
737.668	0.0141673
737.746	0.0143597
737.825	0.0144891
737.903	0.0145399
737.981	0.0145925
738.059	0.0146435
738.137	0.0147605
738.215	0.0147950
738.293	0.0147826
738.371	0.0149422
738.450	0.0148740
738.528	0.0148362
738.606	0.0148792
738.684	0.0147417
738.762	0.0148136
738.840	0.0147330
738.918	0.0147066
738.996	0.0144859
739.075	0.0145574
739.153	0.0143741
739.231	0.0144286
739.309	0.0143273
739.387	0.0144081
739.465	0.0143195
739.543	0.0142675
739.621	0.0142881
739.700	0.0141907
739.778	0.0141988
739.856	0.0143182
739.934	0.0143462
740.012	0.0143559
740.090	0.0143964
740.168	0.0144783
740.246	0.0145518
740.325	0.0147370
740.403	0.0147056
740.481	0.0146424
740.559	0.0148663
740.637	0.0148527
740.715	0.0147527
740.793	0.0148745
740.871	0.0147993
740.950	0.0148239
741.028	0.0148530
741.106	0.0148028
741.184	0.0146223
741.262	0.0146558
741.340	0.0147204
741.418	0.0145491
741.496	0.0144057
741.575	0.0145024
741.653	0.0143285
741.731	0.0143608
741.809	0.0142818
741.887	0.0143686
741.965	0.0144452
742.043	0.0144470
742.121	0.0143600
742.200	0.0144340
742.278	0.0143745
742.356	0.0142756
742.434	0.0143880
742.512	0.0143804
742.590	0.0144254
742.668	0.0145562
742.746	0.0144205
742.825	0.0145722
742.903	0.0145758
742.981	0.0145059
743.059	0.0144655
743.137	0.0147170
743.215	0.0145485
743.293	0.0144897
743.371	0.0145985
743.450	0.0145483
743.528	0.0145296
743.606	0.0145728
743.684	0.0147431
743.762	0.0144629
743.840	0.0144674
743.918	0.0145654
743.996	0.0144708
744.075	0.0143495
744.153	0.0143793
744.231	0.0145000
744.309	0.0143460
744.387	0.0142325
744.465	0.0142735
744.543	0.0141985
744.621	0.0142972
744.700	0.0144653
744.778	0.0142662
744.856	0.0142110
744.934	0.0141602
745.012	0.0143919
745.090	0.0144530
745.168	0.0144588
745.246	0.0145714
745.325	0.0145518
745.403	0.0144992
745.481	0.0145469
745.559	0.0146685
745.637	0.0146873
745.715	0.0147026
745.793	0.0148466
745.871	0.0147010
745.950	0.0146823
746.028	0.0146371
746.106	0.0146178
746.184	0.0146369
746.262	0.0145685
746.340	0.0145488
746.418	0.0142807
746.496	0.0144073
746.575	0.0143839
746.653	0.0141725
746.731	0.0142141
746.809	0.0142614
746.887	0.0142762
746.965	0.0143382
747.043	0.0141306
747.121	0.0141086
747.200	0.0142900
747.278	0.0141222
747.356	0.0141185
747.434	0.0141644
747.512	0.0142670
747.590	0.0143362
747.668	0.0142317
747.746	0.0143492
747.825	0.0145222
747.903	0.0143806
747.981	0.0145605
748.059	0.0145304
748.137	0.0144831
748.215	0.0146672
748.293	0.0145693
748.371	0.0146902
748.450	0.0146474
748.528	0.0145028
748.606	0.0145797
748.684	0.0144922
748.762	0.0144782
748.840	0.0145284
748.918	0.0144350
748.996	0.0144325
749.075	0.0143111
749.153	0.0143603
749.231	0.0143643
749.309	0.0144630
749.387	0.0142401
749.465	0.0142517
749.543	0.0142354
749.621	0.0142778
749.700	0.0142840
749.778	0.0144004
749.856	0.0142736
749.934	0.0143170
750.012	0.0144596
750.090	0.0144583
750.168	0.0144782
750.246	0.0144437
750.325	0.0146446
750.403	0.0145448
750.481	0.0145931
750.559	0.0144411
750.637	0.0146326
750.715	0.0146155
750.793	0.0145183
750.871	0.0144908
750.950	0.0144780
751.028	0.0144469
751.106	0.0144665
751.184	0.0146148
751.262	0.0144277
751.340	0.0143433
751.418	0.0143471
751.496	0.0143541
751.575	0.0143009
751.653	0.0142848
751.731	0.0142484
751.809	0.0141016
751.887	0.0141823
751.965	0.0142747
752.043	0.0142604
752.121	0.0143211
752.200	0.0143382
752.278	0.0143706
752.356	0.0144384
752.434	0.0144628
752.512	0.0144218
752.590	0.0144022
752.668	0.0145852
752.746	0.0145222
752.825	0.0145963
752.903	0.0146729
752.981	0.0146998
753.059	0.0146143
753.137	0.0146903
753.215	0.0146581
753.293	0.0146664
753.371	0.0147611
753.450	0.0144503
753.528	0.0146288
753.606	0.0145363
753.684	0.0145547
753.762	0.0144924
753.840	0.0143850
753.918	0.0145336
753.996	0.0144176
754.075	0.0143960
754.153	0.0144274
754.231	0.0144365
754.309	0.0144137
754.387	0.0144491
754.465	0.0144058
754.543	0.0144115
754.621	0.0145121
754.700	0.0145407
754.778	0.0144151
754.856	0.0143903
754.934	0.0145153
755.012	0.0143672
755.090	0.0144125
755.168	0.0145906
755.246	0.0144495
755.325	0.0144112
755.403	0.0145741
755.481	0.0144454
755.559	0.0145187
755.637	0.0143936
755.715	0.0144511
755.793	0.0146860
755.871	0.0145911
755.950	0.0144496
756.028	0.0145609
756.106	0.0146674
756.184	0.0145940
756.262	0.0145155
756.340	0.0144721
756.418	0.0145558
756.496	0.0146125
756.575	0.0145005
756.653	0.0144674
756.731	0.0144952
756.809	0.0144207
756.887	0.0144234
756.965	0.0144969
757.043	0.0145905
757.121	0.0146626
757.200	0.0144103
757.278	0.0144563
757.356	0.0144164
757.434	0.0144749
757.512	0.0145251
757.590	0.0145683
757.668	0.0146091
757.746	0.0146027
757.825	0.0146759
757.903	0.0145328
757.981	0.0145487
758.059	0.0145129
758.137	0.0147054
758.215	0.0146518
758.293	0.0147414
758.371	0.0144625
758.450	0.0145116
758.528	0.0146124
758.606	0.0147054
758.684	0.0146376
758.762	0.0144625
758.840	0.0144142
758.918	0.0145413
758.996	0.0144538
759.075	0.0144800
759.153	0.0145561
759.231	0.0144818
759.309	0.0143896
759.387	0.0144846
759.465	0.0142935
759.543	0.0143639
759.621	0.0142474
759.700	0.0144547
759.778	0.0145147
759.856	0.0144258
759.934	0.0145233
760.012	0.0143594
760.090	0.0144135
760.168	0.0145011
760.246	0.0144035
760.325	0.0146250
760.403	0.0144557
760.481	0.0145778
760.559	0.0146104
760.637	0.0144974
760.715	0.0145997
760.793	0.0144884
760.871	0.0144753
760.950	0.0146561
761.028	0.0145704
761.106	0.0145639
761.184	0.0145955
761.262	0.0146480
761.340	0.0147118
761.418	0.0146664
761.496	0.0146499
761.575	0.0146412
761.653	0.0145601
761.731	0.0145654
761.809	0.0146273
761.887	0.0145888
761.965	0.0146030
762.043	0.0146030
762.121	0.0145772
762.200	0.0144920
762.278	0.0145203
762.356	0.0145892
762.434	0.0145824
762.512	0.0145291
762.590	0.0144815
762.668	0.0144888
762.746	0.0144863
762.825	0.0144556
762.903	0.0146120
762.981	0.0144942
763.059	0.0145212
763.137	0.0145528
763.215	0.0144524
763.293	0.0145077
763.371	0.0145255
763.450	0.0145270
763.528	0.0145113
763.606	0.0145589
763.684	0.0144415
763.762	0.0144923
763.840	0.0144753
763.918	0.0145248
763.996	0.0144779
764.075	0.0144427
764.153	0.0145089
764.231	0.0144221
764.309	0.0145343
764.387	0.0145422
764.465	0.0143287
764.543	0.0144028
764.621	0.0143521
764.700	0.0144834
