05/04/2022	21:26:53	Ver.	4.1	UNKNOWN
Optical Delay	678.996401	Delta X		0.078125	Sweeps	1	Scan Rate	0/0
Coordinates	Axis 1	NaN	Axis 2	NaN	Axis 3	NaN	Axis 4	NaN	Axis 5	NaN	Axis 6	0.000000
TX Power	0.000000	RX Power	0.000000

678.996	0.0139814
679.075	0.0139938
679.153	0.0139379
679.231	0.0137958
679.309	0.0137312
679.387	0.0136864
679.465	0.0139864
679.543	0.0139419
679.621	0.0138686
679.700	0.0138602
679.778	0.0138137
679.856	0.0139460
679.934	0.0138697
680.012	0.0139317
680.090	0.0140524
680.168	0.0140208
680.246	0.0139117
680.325	0.0139859
680.403	0.0140254
680.481	0.0140057
680.559	0.0140083
680.637	0.0139123
680.715	0.0141824
680.793	0.0140424
680.871	0.0140489
680.950	0.0141576
681.028	0.0139751
681.106	0.0139481
681.184	0.0140789
681.262	0.0140259
681.340	0.0139845
681.418	0.0139984
681.496	0.0138648
681.575	0.0139825
681.653	0.0140131
681.731	0.0139727
681.809	0.0138643
681.887	0.0139124
681.965	0.0139571
682.043	0.0138592
682.121	0.0139590
682.200	0.0138815
682.278	0.0137318
682.356	0.0139109
682.434	0.0140633
682.512	0.0139931
682.590	0.0139070
682.668	0.0141102
682.746	0.0139805
682.825	0.0140512
682.903	0.0139787
682.981	0.0139975
683.059	0.0140763
683.137	0.0140841
683.215	0.0139619
683.293	0.0139622
683.371	0.0139988
683.450	0.0139754
683.528	0.0139862
683.606	0.0139462
683.684	0.0140242
683.762	0.0139386
683.840	0.0139877
683.918	0.0140131
683.996	0.0140955
684.075	0.0139568
684.153	0.0139676
684.231	0.0140530
684.309	0.0138793
684.387	0.0140336
684.465	0.0140077
684.543	0.0138597
684.621	0.0140103
684.700	0.0139186
684.778	0.0139464
684.856	0.0138680
684.934	0.0138314
685.012	0.0140517
685.090	0.0140907
685.168	0.0139802
685.246	0.0138784
685.325	0.0139233
685.403	0.0138268
685.481	0.0141128
685.559	0.0140071
685.637	0.0137847
685.715	0.0139186
685.793	0.0139779
685.871	0.0138621
685.950	0.0140351
686.028	0.0139569
686.106	0.0137624
686.184	0.0138921
686.262	0.0140092
686.340	0.0138657
686.418	0.0139278
686.496	0.0139134
686.575	0.0138899
686.653	0.0140253
686.731	0.0139388
686.809	0.0139874
686.887	0.0139382
686.965	0.0140416
687.043	0.0140289
687.121	0.0140945
687.200	0.0140543
687.278	0.0141237
687.356	0.0141553
687.434	0.0139342
687.512	0.0141754
687.590	0.0140860
687.668	0.0139667
687.746	0.0138594
687.825	0.0139838
687.903	0.0139138
687.981	0.0137955
688.059	0.0138484
688.137	0.0138673
688.215	0.0139164
688.293	0.0138509
688.371	0.0138621
688.450	0.0138460
688.528	0.0139681
688.606	0.0140034
688.684	0.0140718
688.762	0.0140028
688.840	0.0140233
688.918	0.0141184
688.996	0.0141524
689.075	0.0140844
689.153	0.0140122
689.231	0.0141320
689.309	0.0142672
689.387	0.0140392
689.465	0.0141500
689.543	0.0141396
689.621	0.0140051
689.700	0.0140630
689.778	0.0141527
689.856	0.0140715
689.934	0.0139967
690.012	0.0139458
690.090	0.0139676
690.168	0.0136578
690.246	0.0137232
690.325	0.0136319
690.403	0.0136178
690.481	0.0136065
690.559	0.0136427
690.637	0.0134843
690.715	0.0136067
690.793	0.0137340
690.871	0.0137495
690.950	0.0137823
691.028	0.0139210
691.106	0.0139838
691.184	0.0140823
691.262	0.0141074
691.340	0.0142450
691.418	0.0144405
691.496	0.0145100
691.575	0.0144780
691.653	0.0144461
691.731	0.0142934
691.809	0.0144179
691.887	0.0144627
691.965	0.0143696
692.043	0.0143716
692.121	0.0141335
692.200	0.0140886
692.278	0.0140895
692.356	0.0137457
692.434	0.0137858
692.512	0.0136008
692.590	0.0134164
692.668	0.0133775
692.746	0.0134566
692.825	0.0133662
692.903	0.0133592
692.981	0.0132894
693.059	0.0133108
693.137	0.0134527
693.215	0.0135750
693.293	0.0137373
693.371	0.0138540
693.450	0.0139017
693.528	0.0139641
693.606	0.0140858
693.684	0.0143715
693.762	0.0144559
693.840	0.0145889
693.918	0.0147657
693.996	0.0147932
694.075	0.0148982
694.153	0.0149850
694.231	0.0147481
694.309	0.0147009
694.387	0.0145432
694.465	0.0141798
694.543	0.0139638
694.621	0.0137049
694.700	0.0135052
694.778	0.0134138
694.856	0.0133495
694.934	0.0133030
695.012	0.0132343
695.090	0.0131868
695.168	0.0132240
695.246	0.0134188
695.325	0.0133459
695.403	0.0134373
695.481	0.0136524
695.559	0.0136393
695.637	0.0138131
695.715	0.0139614
695.793	0.0140097
695.871	0.0143903
695.950	0.0143149
696.028	0.0144955
696.106	0.0145048
696.184	0.0147165
696.262	0.0145375
696.340	0.0146082
696.418	0.0147063
696.496	0.0146362
696.575	0.0145313
696.653	0.0145109
696.731	0.0143016
696.809	0.0143125
696.887	0.0142262
696.965	0.0139922
697.043	0.0139351
697.121	0.0138744
697.200	0.0136467
697.278	0.0135158
697.356	0.0134054
697.434	0.0132916
697.512	0.0135398
697.590	0.0135849
697.668	0.0134641
697.746	0.0136267
697.825	0.0137637
697.903	0.0138085
697.981	0.0139272
698.059	0.0141036
698.137	0.0141735
698.215	0.0142089
698.293	0.0144457
698.371	0.0143742
698.450	0.0144666
698.528	0.0144054
698.606	0.0144156
698.684	0.0143903
698.762	0.0141872
698.840	0.0142284
698.918	0.0141099
698.996	0.0140188
699.075	0.0139194
699.153	0.0140447
699.231	0.0139755
699.309	0.0139758
699.387	0.0139651
699.465	0.0138172
699.543	0.0139714
699.621	0.0139297
699.700	0.0139542
699.778	0.0138306
699.856	0.0137242
699.934	0.0138816
700.012	0.0139381
700.090	0.0137317
700.168	0.0137798
700.246	0.0138995
700.325	0.0137276
700.403	0.0138595
700.481	0.0138853
700.559	0.0138686
700.637	0.0140520
700.715	0.0140280
700.793	0.0139457
700.871	0.0141592
700.950	0.0141753
701.028	0.0141325
701.106	0.0141662
701.184	0.0141637
701.262	0.0140910
701.340	0.0139540
701.418	0.0141069
701.496	0.0139347
701.575	0.0140165
701.653	0.0139504
701.731	0.0141197
701.809	0.0139772
701.887	0.0141299
701.965	0.0139971
702.043	0.0138895
702.121	0.0139674
702.200	0.0140820
702.278	0.0139979
702.356	0.0138605
702.434	0.0136275
702.512	0.0136595
702.590	0.0137835
702.668	0.0135387
702.746	0.0134187
702.825	0.0133622
702.903	0.0135335
702.981	0.0136766
703.059	0.0137300
703.137	0.0136927
703.215	0.0137533
703.293	0.0138678
703.371	0.0140290
703.450	0.0139171
703.528	0.0141569
703.606	0.0143303
703.684	0.0143481
703.762	0.0143053
703.840	0.0143176
703.918	0.0142709
703.996	0.0141943
704.075	0.0140916
704.153	0.0141495
704.231	0.0140482
704.309	0.0142142
704.387	0.0140987
704.465	0.0141120
704.543	0.0141377
704.621	0.0141586
704.700	0.0141002
704.778	0.0141206
704.856	0.0139606
704.934	0.0138876
705.012	0.0140125
705.090	0.0138433
705.168	0.0136566
705.246	0.0134319
705.325	0.0135171
705.403	0.0133453
705.481	0.0132156
705.559	0.0131876
705.637	0.0133910
705.715	0.0131950
705.793	0.0132774
705.871	0.0134407
705.950	0.0136404
706.028	0.0139467
706.106	0.0140094
706.184	0.0144389
706.262	0.0146586
706.340	0.0146980
706.418	0.0147525
706.496	0.0148431
706.575	0.0148224
706.653	0.0147237
706.731	0.0147188
706.809	0.0144980
706.887	0.0143147
706.965	0.0140124
707.043	0.0137343
707.121	0.0135439
707.200	0.0133737
707.278	0.0132566
707.356	0.0129800
707.434	0.0130548
707.512	0.0131585
707.590	0.0131896
707.668	0.0132226
707.746	0.0132364
707.825	0.0133550
707.903	0.0136565
707.981	0.0139548
708.059	0.0140335
708.137	0.0142602
708.215	0.0144294
708.293	0.0147045
708.371	0.0147218
708.450	0.0147201
708.528	0.0147310
708.606	0.0146701
708.684	0.0146347
708.762	0.0145448
708.840	0.0142439
708.918	0.0142013
708.996	0.0141611
709.075	0.0139422
709.153	0.0139137
709.231	0.0137817
709.309	0.0136615
709.387	0.0137578
709.465	0.0135616
709.543	0.0135579
709.621	0.0136160
709.700	0.0136234
709.778	0.0137276
709.856	0.0137850
709.934	0.0136741
710.012	0.0136774
710.090	0.0137120
710.168	0.0137843
710.246	0.0137950
710.325	0.0138656
710.403	0.0137633
710.481	0.0137990
710.559	0.0140653
710.637	0.0138969
710.715	0.0138378
710.793	0.0140513
710.871	0.0142520
710.950	0.0141309
711.028	0.0143879
711.106	0.0142451
711.184	0.0141288
711.262	0.0142485
711.340	0.0142213
711.418	0.0143315
711.496	0.0140629
711.575	0.0141855
711.653	0.0140935
711.731	0.0140730
711.809	0.0138992
711.887	0.0138199
711.965	0.0137291
712.043	0.0137194
712.121	0.0136321
712.200	0.0136848
712.278	0.0137526
712.356	0.0135754
712.434	0.0136102
712.512	0.0135992
712.590	0.0137289
712.668	0.0140411
712.746	0.0141491
712.825	0.0141787
712.903	0.0144471
712.981	0.0144299
713.059	0.0144666
713.137	0.0145367
713.215	0.0144509
713.293	0.0143956
713.371	0.0143767
713.450	0.0141950
713.528	0.0141652
713.606	0.0141113
713.684	0.0139060
713.762	0.0137307
713.840	0.0136774
713.918	0.0135564
713.996	0.0133447
714.075	0.0133823
714.153	0.0132764
714.231	0.0133313
714.309	0.0133868
714.387	0.0135362
714.465	0.0136859
714.543	0.0139229
714.621	0.0140440
714.700	0.0142505
714.778	0.0144051
714.856	0.0145865
714.934	0.0146452
715.012	0.0146239
715.090	0.0147435
715.168	0.0145588
715.246	0.0144733
715.325	0.0146571
715.403	0.0144122
715.481	0.0142574
715.559	0.0141384
715.637	0.0139412
715.715	0.0138288
715.793	0.0136823
715.871	0.0135916
715.950	0.0136337
716.028	0.0137055
716.106	0.0135426
716.184	0.0137962
716.262	0.0138493
716.340	0.0138856
716.418	0.0138004
716.496	0.0138129
716.575	0.0139668
716.653	0.0139702
716.731	0.0139690
716.809	0.0138825
716.887	0.0141822
716.965	0.0141998
717.043	0.0141977
717.121	0.0143567
717.200	0.0142294
717.278	0.0142593
717.356	0.0143253
717.434	0.0144132
717.512	0.0143989
717.590	0.0141220
717.668	0.0142578
717.746	0.0143018
717.825	0.0143791
717.903	0.0143145
717.981	0.0142136
718.059	0.0140320
718.137	0.0140144
718.215	0.0140115
718.293	0.0139400
718.371	0.0139613
718.450	0.0138262
718.528	0.0136861
718.606	0.0136135
718.684	0.0136840
718.762	0.0135828
718.840	0.0134431
718.918	0.0135652
718.996	0.0136400
719.075	0.0135945
719.153	0.0138139
719.231	0.0137688
719.309	0.0139988
719.387	0.0139401
719.465	0.0139835
719.543	0.0142222
719.621	0.0142626
719.700	0.0142824
719.778	0.0144379
719.856	0.0142734
719.934	0.0144800
720.012	0.0143165
720.090	0.0144366
720.168	0.0144204
720.246	0.0143603
720.325	0.0142516
720.403	0.0143144
720.481	0.0141885
720.559	0.0140644
720.637	0.0142294
720.715	0.0140813
720.793	0.0140401
720.871	0.0142314
720.950	0.0141021
721.028	0.0139668
721.106	0.0140511
721.184	0.0139317
721.262	0.0139548
721.340	0.0138985
721.418	0.0137873
721.496	0.0137887
721.575	0.0137402
721.653	0.0138504
721.731	0.0137451
721.809	0.0137184
721.887	0.0138986
721.965	0.0136675
722.043	0.0137700
722.121	0.0139433
722.200	0.0139638
722.278	0.0139931
722.356	0.0139995
722.434	0.0141537
722.512	0.0140549
722.590	0.0142339
722.668	0.0142917
722.746	0.0142533
722.825	0.0142856
722.903	0.0142091
722.981	0.0141302
723.059	0.0142505
723.137	0.0142841
723.215	0.0142784
723.293	0.0140489
723.371	0.0141620
723.450	0.0140350
723.528	0.0141743
723.606	0.0140794
723.684	0.0140559
723.762	0.0140549
723.840	0.0138391
723.918	0.0136759
723.996	0.0138090
724.075	0.0137461
724.153	0.0136843
724.231	0.0136008
724.309	0.0136531
724.387	0.0136413
724.465	0.0136850
724.543	0.0136707
724.621	0.0135827
724.700	0.0136597
724.778	0.0136891
724.856	0.0139235
724.934	0.0139042
725.012	0.0140628
725.090	0.0140805
725.168	0.0142119
725.246	0.0142137
725.325	0.0141391
725.403	0.0142458
725.481	0.0141757
725.559	0.0141169
725.637	0.0141271
725.715	0.0140572
725.793	0.0139444
725.871	0.0138431
725.950	0.0139827
726.028	0.0138178
726.106	0.0138197
726.184	0.0135983
726.262	0.0137074
726.340	0.0136762
726.418	0.0136272
726.496	0.0137322
726.575	0.0136402
726.653	0.0137737
726.731	0.0136497
726.809	0.0137842
726.887	0.0137440
726.965	0.0139240
727.043	0.0138578
727.121	0.0139666
727.200	0.0139634
727.278	0.0141080
727.356	0.0140060
727.434	0.0140954
727.512	0.0140233
727.590	0.0140947
727.668	0.0140707
727.746	0.0140189
727.825	0.0142381
727.903	0.0142230
727.981	0.0141906
728.059	0.0141302
728.137	0.0140934
728.215	0.0141385
728.293	0.0140781
728.371	0.0140193
728.450	0.0139851
728.528	0.0139753
728.606	0.0138346
728.684	0.0137346
728.762	0.0138054
728.840	0.0137292
728.918	0.0137038
728.996	0.0136403
729.075	0.0137080
729.153	0.0136627
729.231	0.0137383
729.309	0.0135840
729.387	0.0136875
729.465	0.0137608
729.543	0.0137643
729.621	0.0137691
729.700	0.0137418
729.778	0.0139863
729.856	0.0140440
729.934	0.0140700
730.012	0.0140840
730.090	0.0140604
730.168	0.0142338
730.246	0.0141349
730.325	0.0142285
730.403	0.0141428
730.481	0.0142453
730.559	0.0142229
730.637	0.0140965
730.715	0.0140997
730.793	0.0140674
730.871	0.0140343
730.950	0.0140791
731.028	0.0139782
731.106	0.0138318
731.184	0.0138685
731.262	0.0140244
731.340	0.0137360
731.418	0.0138936
731.496	0.0138891
731.575	0.0137665
731.653	0.0139540
731.731	0.0139403
731.809	0.0138689
731.887	0.0139494
731.965	0.0140091
732.043	0.0140880
732.121	0.0141548
732.200	0.0141470
732.278	0.0142193
732.356	0.0141183
732.434	0.0141171
732.512	0.0142764
732.590	0.0141703
732.668	0.0142177
732.746	0.0140708
732.825	0.0140084
732.903	0.0141125
732.981	0.0142294
733.059	0.0140086
733.137	0.0140867
733.215	0.0139321
733.293	0.0139233
733.371	0.0138641
733.450	0.0138216
733.528	0.0136922
733.606	0.0137096
733.684	0.0136961
733.762	0.0136761
733.840	0.0136331
733.918	0.0137309
733.996	0.0138129
734.075	0.0136836
734.153	0.0137959
734.231	0.0138898
734.309	0.0139420
734.387	0.0141171
734.465	0.0141111
734.543	0.0143281
734.621	0.0142436
734.700	0.0143212
734.778	0.0144720
734.856	0.0143864
734.934	0.0142837
735.012	0.0145209
735.090	0.0143510
735.168	0.0143657
735.246	0.0144041
735.325	0.0142855
735.403	0.0140804
735.481	0.0141200
735.559	0.0140951
735.637	0.0139374
735.715	0.0139958
735.793	0.0137941
735.871	0.0138197
735.950	0.0138754
736.028	0.0137539
736.106	0.0137833
736.184	0.0136633
736.262	0.0136050
736.340	0.0135364
736.418	0.0135980
736.496	0.0138131
736.575	0.0137328
736.653	0.0137639
736.731	0.0137389
736.809	0.0138853
736.887	0.0139986
736.965	0.0139952
737.043	0.0139041
737.121	0.0141566
737.200	0.0141921
737.278	0.0142680
737.356	0.0143015
737.434	0.0143053
737.512	0.0142433
737.590	0.0141977
737.668	0.0143371
737.746	0.0141908
737.825	0.0142712
737.903	0.0142062
737.981	0.0141757
738.059	0.0141252
738.137	0.0141032
738.215	0.0141083
738.293	0.0139780
738.371	0.0138193
738.450	0.0138366
738.528	0.0138346
738.606	0.0138448
738.684	0.0139284
738.762	0.0138126
738.840	0.0137486
738.918	0.0139224
738.996	0.0138488
739.075	0.0138869
739.153	0.0138787
739.231	0.0138567
739.309	0.0139211
739.387	0.0140502
739.465	0.0140627
739.543	0.0142095
739.621	0.0142185
739.700	0.0142222
739.778	0.0142804
739.856	0.0141882
739.934	0.0144291
740.012	0.0141884
740.090	0.0142715
740.168	0.0142087
740.246	0.0140702
740.325	0.0139539
740.403	0.0141598
740.481	0.0139880
740.559	0.0140244
740.637	0.0139734
740.715	0.0138592
740.793	0.0139008
740.871	0.0137403
740.950	0.0140023
741.028	0.0139037
741.106	0.0136466
741.184	0.0138841
741.262	0.0137767
741.340	0.0138400
741.418	0.0138132
741.496	0.0137070
741.575	0.0138730
741.653	0.0140231
741.731	0.0140265
741.809	0.0138485
741.887	0.0138834
741.965	0.0139833
742.043	0.0140617
742.121	0.0141040
742.200	0.0141750
742.278	0.0141411
742.356	0.0140158
742.434	0.0140498
742.512	0.0142014
742.590	0.0139639
742.668	0.0140033
742.746	0.0141158
742.825	0.0141412
742.903	0.0141250
742.981	0.0139803
743.059	0.0140672
743.137	0.0140246
743.215	0.0138204
743.293	0.0139356
743.371	0.0139112
743.450	0.0137549
743.528	0.0138395
743.606	0.0139175
743.684	0.0137288
743.762	0.0137283
743.840	0.0138579
743.918	0.0137309
743.996	0.0137607
744.075	0.0139803
744.153	0.0138512
744.231	0.0139268
744.309	0.0140501
744.387	0.0141753
744.465	0.0140906
744.543	0.0141658
744.621	0.0142001
744.700	0.0141866
744.778	0.0140860
744.856	0.0141593
744.934	0.0142309
745.012	0.0141696
745.090	0.0140033
745.168	0.0141310
745.246	0.0140205
745.325	0.0141167
745.403	0.0142665
745.481	0.0140511
745.559	0.0140216
745.637	0.0138935
745.715	0.0138027
745.793	0.0137629
745.871	0.0138932
745.950	0.0137585
746.028	0.0137704
746.106	0.0137780
746.184	0.0137296
746.262	0.0136895
746.340	0.0139008
746.418	0.0137713
746.496	0.0137817
746.575	0.0138483
746.653	0.0138101
746.731	0.0138200
746.809	0.0138469
746.887	0.0141254
746.965	0.0141673
747.043	0.0140275
747.121	0.0140201
747.200	0.0140484
747.278	0.0142067
747.356	0.0141228
747.434	0.0140637
747.512	0.0140513
747.590	0.0141194
747.668	0.0141376
747.746	0.0140426
747.825	0.0140276
747.903	0.0138741
747.981	0.0138934
748.059	0.0138345
748.137	0.0139204
748.215	0.0139136
748.293	0.0139646
748.371	0.0139558
748.450	0.0140752
748.528	0.0138172
748.606	0.0138297
748.684	0.0137527
748.762	0.0140116
748.840	0.0139696
748.918	0.0138300
748.996	0.0139368
749.075	0.0139677
749.153	0.0141467
749.231	0.0139692
749.309	0.0138718
749.387	0.0139850
749.465	0.0139009
749.543	0.0137752
749.621	0.0140935
749.700	0.0139447
749.778	0.0139873
749.856	0.0139548
749.934	0.0139117
750.012	0.0139945
750.090	0.0139569
750.168	0.0139797
750.246	0.0139777
750.325	0.0140145
750.403	0.0139679
750.481	0.0138787
750.559	0.0139590
750.637	0.0138965
750.715	0.0139529
750.793	0.0138482
750.871	0.0137673
750.950	0.0139228
751.028	0.0139193
751.106	0.0138196
751.184	0.0138400
751.262	0.0137192
751.340	0.0138331
751.418	0.0139741
751.496	0.0138906
751.575	0.0139423
751.653	0.0137758
751.731	0.0138523
751.809	0.0139297
751.887	0.0139602
751.965	0.0139215
752.043	0.0138754
752.121	0.0140391
752.200	0.0138843
752.278	0.0140407
752.356	0.0138995
752.434	0.0141161
752.512	0.0139570
752.590	0.0138661
752.668	0.0139905
752.746	0.0141682
752.825	0.0141287
752.903	0.0140926
752.981	0.0138949
753.059	0.0139906
753.137	0.0139556
753.215	0.0140591
753.293	0.0138921
753.371	0.0137872
753.450	0.0139084
753.528	0.0139034
753.606	0.0139684
753.684	0.0138076
753.762	0.0137690
753.840	0.0137952
753.918	0.0137550
753.996	0.0137686
754.075	0.0137297
754.153	0.0139014
754.231	0.0139923
754.309	0.0138183
754.387	0.0138564
754.465	0.0138855
754.543	0.0139423
754.621	0.0140822
754.700	0.0140573
754.778	0.0139228
754.856	0.0139637
754.934	0.0140250
755.012	0.0141284
755.090	0.0139194
755.168	0.0139819
755.246	0.0140263
755.325	0.0141573
755.403	0.0142043
755.481	0.0140072
755.559	0.0139509
755.637	0.0140508
755.715	0.0141479
755.793	0.0141193
755.871	0.0140573
755.950	0.0139774
756.028	0.0139510
756.106	0.0141009
756.184	0.0139658
756.262	0.0140805
756.340	0.0140809
756.418	0.0140743
756.496	0.0140445
756.575	0.0139341
756.653	0.0140683
756.731	0.0141131
756.809	0.0139053
756.887	0.0140717
756.965	0.0141254
757.043	0.0140124
757.121	0.0140008
757.200	0.0140233
757.278	0.0140668
757.356	0.0141202
757.434	0.0139647
757.512	0.0139034
757.590	0.0141262
757.668	0.0141139
757.746	0.0141487
757.825	0.0139406
757.903	0.0139056
757.981	0.0139308
758.059	0.0138033
758.137	0.0138281
758.215	0.0141171
758.293	0.0139253
758.371	0.0140373
758.450	0.0139828
758.528	0.0140349
758.606	0.0141017
758.684	0.0139998
758.762	0.0139223
758.840	0.0141586
758.918	0.0140306
758.996	0.0138732
759.075	0.0140399
759.153	0.0139518
759.231	0.0138756
759.309	0.0139425
759.387	0.0139980
759.465	0.0139209
759.543	0.0140390
759.621	0.0139236
759.700	0.0140425
759.778	0.0140804
759.856	0.0138719
759.934	0.0140580
760.012	0.0141159
760.090	0.0139796
760.168	0.0140456
760.246	0.0139693
760.325	0.0141158
760.403	0.0141315
760.481	0.0141708
760.559	0.0140516
760.637	0.0140810
760.715	0.0140858
760.793	0.0140493
760.871	0.0141205
760.950	0.0140934
761.028	0.0141306
761.106	0.0141074
761.184	0.0140852
761.262	0.0140327
761.340	0.0139973
761.418	0.0140086
761.496	0.0139201
761.575	0.0140570
761.653	0.0140225
761.731	0.0139178
761.809	0.0140180
761.887	0.0139292
761.965	0.0139013
762.043	0.0139054
762.121	0.0138611
762.200	0.0139789
762.278	0.0139828
762.356	0.0138989
762.434	0.0138954
762.512	0.0138969
762.590	0.0138878
762.668	0.0139722
762.746	0.0140688
762.825	0.0140350
762.903	0.0141038
762.981	0.0140111
763.059	0.0141203
763.137	0.0139851
763.215	0.0141178
763.293	0.0139944
763.371	0.0140550
763.450	0.0141129
763.528	0.0140623
763.606	0.0138565
763.684	0.0140888
763.762	0.0140339
763.840	0.0140530
763.918	0.0140280
763.996	0.0140267
764.075	0.0140143
764.153	0.0139832
764.231	0.0139232
764.309	0.0139152
764.387	0.0140818
764.465	0.0140018
764.543	0.0139489
764.621	0.0139724
764.700	0.0140551
