05/04/2022	21:27:13	Ver.	4.1	UNKNOWN
Optical Delay	678.996401	Delta X		0.078125	Sweeps	1	Scan Rate	0/0
Coordinates	Axis 1	NaN	Axis 2	NaN	Axis 3	NaN	Axis 4	NaN	Axis 5	NaN	Axis 6	0.000000
TX Power	0.000000	RX Power	0.000000

678.996	0.0146436
679.075	0.0144700
679.153	0.0144924
679.231	0.0145156
679.309	0.0146162
679.387	0.0145614
679.465	0.0145147
679.543	0.0145802
679.621	0.0145722
679.700	0.0145592
679.778	0.0146989
679.856	0.0145177
679.934	0.0145853
680.012	0.0147618
680.090	0.0148064
680.168	0.0147182
680.246	0.0147702
680.325	0.0147710
680.403	0.0147945
680.481	0.0146264
680.559	0.0145384
680.637	0.0145203
680.715	0.0145429
680.793	0.0145628
680.871	0.0143651
680.950	0.0145948
681.028	0.0145866
681.106	0.0144247
681.184	0.0144561
681.262	0.0143404
681.340	0.0144061
681.418	0.0144112
681.496	0.0144377
681.575	0.0144748
681.653	0.0144775
681.731	0.0146841
681.809	0.0146673
681.887	0.0145541
681.965	0.0145500
682.043	0.0146212
682.121	0.0147062
682.200	0.0145583
682.278	0.0147269
682.356	0.0146605
682.434	0.0146711
682.512	0.0146375
682.590	0.0146283
682.668	0.0146132
682.746	0.0146096
682.825	0.0146494
682.903	0.0147672
682.981	0.0146346
683.059	0.0146245
683.137	0.0146618
683.215	0.0146936
683.293	0.0147506
683.371	0.0145614
683.450	0.0147242
683.528	0.0145873
683.606	0.0147276
683.684	0.0146732
683.762	0.0145943
683.840	0.0145898
683.918	0.0147330
683.996	0.0146474
684.075	0.0147579
684.153	0.0145627
684.231	0.0145884
684.309	0.0146307
684.387	0.0146442
684.465	0.0147772
684.543	0.0145213
684.621	0.0145557
684.700	0.0146488
684.778	0.0146468
684.856	0.0145810
684.934	0.0146774
685.012	0.0146545
685.090	0.0147123
685.168	0.0146848
685.246	0.0146719
685.325	0.0143731
685.403	0.0146277
685.481	0.0147187
685.559	0.0146941
685.637	0.0147150
685.715	0.0146455
685.793	0.0145552
685.871	0.0148337
685.950	0.0147274
686.028	0.0148287
686.106	0.0147005
686.184	0.0147053
686.262	0.0146041
686.340	0.0147402
686.418	0.0147263
686.496	0.0146809
686.575	0.0145308
686.653	0.0144804
686.731	0.0145029
686.809	0.0143890
686.887	0.0144138
686.965	0.0144762
687.043	0.0144056
687.121	0.0144923
687.200	0.0143525
687.278	0.0144859
687.356	0.0145921
687.434	0.0146550
687.512	0.0146838
687.590	0.0147205
687.668	0.0148508
687.746	0.0147335
687.825	0.0147988
687.903	0.0148956
687.981	0.0147705
688.059	0.0148579
688.137	0.0146921
688.215	0.0146967
688.293	0.0145982
688.371	0.0145705
688.450	0.0144483
688.528	0.0145457
688.606	0.0145379
688.684	0.0143841
688.762	0.0143256
688.840	0.0143266
688.918	0.0144688
688.996	0.0144365
689.075	0.0144807
689.153	0.0145992
689.231	0.0145452
689.309	0.0145985
689.387	0.0148554
689.465	0.0147192
689.543	0.0147353
689.621	0.0149253
689.700	0.0149116
689.778	0.0148665
689.856	0.0148723
689.934	0.0149696
690.012	0.0149710
690.090	0.0148356
690.168	0.0149210
690.246	0.0149131
690.325	0.0149497
690.403	0.0149097
690.481	0.0146007
690.559	0.0146600
690.637	0.0146136
690.715	0.0145950
690.793	0.0144059
690.871	0.0142095
690.950	0.0143205
691.028	0.0141844
691.106	0.0141985
691.184	0.0142235
691.262	0.0142439
691.340	0.0143537
691.418	0.0144647
691.496	0.0144943
691.575	0.0147057
691.653	0.0148479
691.731	0.0148619
691.809	0.0148929
691.887	0.0150382
691.965	0.0151422
692.043	0.0151122
692.121	0.0152478
692.200	0.0152837
692.278	0.0151888
692.356	0.0152309
692.434	0.0153018
692.512	0.0152260
692.590	0.0149783
692.668	0.0147838
692.746	0.0147018
692.825	0.0147442
692.903	0.0145405
692.981	0.0144576
693.059	0.0144478
693.137	0.0142648
693.215	0.0141616
693.293	0.0141512
693.371	0.0140681
693.450	0.0141086
693.528	0.0139320
693.606	0.0141006
693.684	0.0141284
693.762	0.0141786
693.840	0.0143189
693.918	0.0143640
693.996	0.0146641
694.075	0.0147318
694.153	0.0149134
694.231	0.0150584
694.309	0.0151652
694.387	0.0152737
694.465	0.0155849
694.543	0.0156954
694.621	0.0156775
694.700	0.0157208
694.778	0.0155277
694.856	0.0154910
694.934	0.0153709
695.012	0.0150750
695.090	0.0147300
695.168	0.0145866
695.246	0.0144054
695.325	0.0141536
695.403	0.0139352
695.481	0.0140104
695.559	0.0137988
695.637	0.0138064
695.715	0.0138905
695.793	0.0139967
695.871	0.0140915
695.950	0.0141468
696.028	0.0142295
696.106	0.0142412
696.184	0.0143552
696.262	0.0144849
696.340	0.0143946
696.418	0.0145068
696.496	0.0146182
696.575	0.0148497
696.653	0.0147546
696.731	0.0149785
696.809	0.0150999
696.887	0.0151560
696.965	0.0151349
697.043	0.0151994
697.121	0.0153943
697.200	0.0154070
697.278	0.0152043
697.356	0.0151958
697.434	0.0151478
697.512	0.0150204
697.590	0.0149130
697.668	0.0149133
697.746	0.0147845
697.825	0.0145953
697.903	0.0144540
697.981	0.0141624
698.059	0.0138324
698.137	0.0138477
698.215	0.0139639
698.293	0.0138686
698.371	0.0139424
698.450	0.0140755
698.528	0.0143090
698.606	0.0143556
698.684	0.0146611
698.762	0.0146872
698.840	0.0148215
698.918	0.0149601
698.996	0.0150997
699.075	0.0151144
699.153	0.0149511
699.231	0.0149001
699.309	0.0146968
699.387	0.0146087
699.465	0.0145663
699.543	0.0146200
699.621	0.0144753
699.700	0.0146043
699.778	0.0145487
699.856	0.0146309
699.934	0.0146480
700.012	0.0147160
700.090	0.0147574
700.168	0.0147188
700.246	0.0147742
700.325	0.0148169
700.403	0.0146555
700.481	0.0145775
700.559	0.0147882
700.637	0.0146333
700.715	0.0146446
700.793	0.0144756
700.871	0.0145364
700.950	0.0146090
701.028	0.0144683
701.106	0.0143230
701.184	0.0144769
701.262	0.0143326
701.340	0.0143185
701.418	0.0143575
701.496	0.0143019
701.575	0.0145017
701.653	0.0146973
701.731	0.0148044
701.809	0.0148753
701.887	0.0149325
701.965	0.0148508
702.043	0.0147798
702.121	0.0148376
702.200	0.0148493
702.278	0.0147192
702.356	0.0146243
702.434	0.0146564
702.512	0.0146864
702.590	0.0146369
702.668	0.0145044
702.746	0.0146881
702.825	0.0146305
702.903	0.0147565
702.981	0.0146728
703.059	0.0144654
703.137	0.0144239
703.215	0.0143871
703.293	0.0143555
703.371	0.0143344
703.450	0.0143102
703.528	0.0143154
703.606	0.0144161
703.684	0.0143988
703.762	0.0145331
703.840	0.0146326
703.918	0.0147466
703.996	0.0148864
704.075	0.0149282
704.153	0.0148129
704.231	0.0150180
704.309	0.0149707
704.387	0.0147590
704.465	0.0149300
704.543	0.0150431
704.621	0.0149090
704.700	0.0147932
704.778	0.0147765
704.856	0.0148822
704.934	0.0148524
705.012	0.0149685
705.090	0.0149112
705.168	0.0149324
705.246	0.0149368
705.325	0.0148609
705.403	0.0148196
705.481	0.0148257
705.559	0.0148810
705.637	0.0147006
705.715	0.0146642
705.793	0.0145334
705.871	0.0143810
705.950	0.0142142
706.028	0.0143409
706.106	0.0140958
706.184	0.0139549
706.262	0.0139787
706.340	0.0139906
706.418	0.0140497
706.496	0.0142094
706.575	0.0143629
706.653	0.0145321
706.731	0.0146779
706.809	0.0147745
706.887	0.0149193
706.965	0.0151833
707.043	0.0154271
707.121	0.0153065
707.200	0.0153143
707.278	0.0153889
707.356	0.0153893
707.434	0.0152384
707.512	0.0150484
707.590	0.0148803
707.668	0.0146819
707.746	0.0146251
707.825	0.0143380
707.903	0.0142355
707.981	0.0141017
708.059	0.0138452
708.137	0.0139220
708.215	0.0139472
708.293	0.0139606
708.371	0.0142042
708.450	0.0142871
708.528	0.0143332
708.606	0.0144232
708.684	0.0146566
708.762	0.0148692
708.840	0.0150047
708.918	0.0151596
708.996	0.0152473
709.075	0.0152666
709.153	0.0153221
709.231	0.0153386
709.309	0.0152071
709.387	0.0150227
709.465	0.0150043
709.543	0.0147893
709.621	0.0146160
709.700	0.0145557
709.778	0.0145258
709.856	0.0142326
709.934	0.0142399
710.012	0.0143093
710.090	0.0142415
710.168	0.0142400
710.246	0.0143414
710.325	0.0145056
710.403	0.0146715
710.481	0.0147842
710.559	0.0146754
710.637	0.0147073
710.715	0.0147006
710.793	0.0147298
710.871	0.0148949
710.950	0.0146771
711.028	0.0146333
711.106	0.0147334
711.184	0.0146975
711.262	0.0147462
711.340	0.0146172
711.418	0.0148532
711.496	0.0147577
711.575	0.0148163
711.653	0.0149448
711.731	0.0149891
711.809	0.0147659
711.887	0.0147617
711.965	0.0147431
712.043	0.0148418
712.121	0.0147042
712.200	0.0146456
712.278	0.0144380
712.356	0.0144477
712.434	0.0145969
712.512	0.0144208
712.590	0.0145322
712.668	0.0144077
712.746	0.0145779
712.825	0.0145058
712.903	0.0145290
712.981	0.0147172
713.059	0.0145901
713.137	0.0146056
713.215	0.0147816
713.293	0.0147774
713.371	0.0149450
713.450	0.0150916
713.528	0.0150906
713.606	0.0151457
713.684	0.0152632
713.762	0.0152193
713.840	0.0151304
713.918	0.0150015
713.996	0.0148779
714.075	0.0148856
714.153	0.0147856
714.231	0.0146735
714.309	0.0146208
714.387	0.0142595
714.465	0.0141857
714.543	0.0141142
714.621	0.0141190
714.700	0.0140384
714.778	0.0139558
714.856	0.0141009
714.934	0.0142587
715.012	0.0142387
715.090	0.0145200
715.168	0.0146217
715.246	0.0147407
715.325	0.0150172
715.403	0.0150120
715.481	0.0150949
715.559	0.0152743
715.637	0.0152286
715.715	0.0152654
715.793	0.0153511
715.871	0.0153160
715.950	0.0152137
716.028	0.0150256
716.106	0.0149657
716.184	0.0148910
716.262	0.0148109
716.340	0.0146655
716.418	0.0144938
716.496	0.0144223
716.575	0.0144852
716.653	0.0143999
716.731	0.0143178
716.809	0.0143779
716.887	0.0145067
716.965	0.0144493
717.043	0.0145290
717.121	0.0145016
717.200	0.0144519
717.278	0.0144801
717.356	0.0146279
717.434	0.0145479
717.512	0.0147137
717.590	0.0147560
717.668	0.0146246
717.746	0.0148112
717.825	0.0149902
717.903	0.0150287
717.981	0.0149044
718.059	0.0149185
718.137	0.0148454
718.215	0.0149463
718.293	0.0149550
718.371	0.0149458
718.450	0.0148715
718.528	0.0148811
718.606	0.0148621
718.684	0.0148867
718.762	0.0148492
718.840	0.0147231
718.918	0.0145589
718.996	0.0145184
719.075	0.0144886
719.153	0.0144817
719.231	0.0142233
719.309	0.0140811
719.387	0.0140740
719.465	0.0141351
719.543	0.0140493
719.621	0.0141417
719.700	0.0139193
719.778	0.0140823
719.856	0.0141622
719.934	0.0142635
720.012	0.0143329
720.090	0.0146227
720.168	0.0146024
720.246	0.0147444
720.325	0.0147879
720.403	0.0150334
720.481	0.0150221
720.559	0.0151123
720.637	0.0151306
720.715	0.0148956
720.793	0.0149603
720.871	0.0151933
720.950	0.0149703
721.028	0.0149546
721.106	0.0148562
721.184	0.0149086
721.262	0.0148765
721.340	0.0147857
721.418	0.0146291
721.496	0.0146182
721.575	0.0145782
721.653	0.0145000
721.731	0.0143671
721.809	0.0144741
721.887	0.0145502
721.965	0.0143233
722.043	0.0144009
722.121	0.0144368
722.200	0.0143019
722.278	0.0142637
722.356	0.0142280
722.434	0.0142682
722.512	0.0142071
722.590	0.0142984
722.668	0.0142364
722.746	0.0143533
722.825	0.0145380
722.903	0.0145932
722.981	0.0146432
723.059	0.0147187
723.137	0.0146616
723.215	0.0149142
723.293	0.0148067
723.371	0.0149431
723.450	0.0149053
723.528	0.0149772
723.606	0.0149326
723.684	0.0148615
723.762	0.0148806
723.840	0.0147435
723.918	0.0148830
723.996	0.0147771
724.075	0.0147111
724.153	0.0147498
724.231	0.0147423
724.309	0.0145695
724.387	0.0146774
724.465	0.0147392
724.543	0.0145378
724.621	0.0145763
724.700	0.0146127
724.778	0.0144100
724.856	0.0144566
724.934	0.0144907
725.012	0.0142654
725.090	0.0141772
725.168	0.0143374
725.246	0.0143017
725.325	0.0142342
725.403	0.0144330
725.481	0.0143623
725.559	0.0144864
725.637	0.0146185
725.715	0.0146428
725.793	0.0147812
725.871	0.0147704
725.950	0.0148397
726.028	0.0147371
726.106	0.0148790
726.184	0.0148798
726.262	0.0147392
726.340	0.0148703
726.418	0.0148772
726.496	0.0148507
726.575	0.0146887
726.653	0.0146093
726.731	0.0144669
726.809	0.0145102
726.887	0.0145006
726.965	0.0143015
727.043	0.0144462
727.121	0.0145592
727.200	0.0143755
727.278	0.0144939
727.356	0.0144389
727.434	0.0145682
727.512	0.0146540
727.590	0.0145536
727.668	0.0146198
727.746	0.0146188
727.825	0.0147810
727.903	0.0148158
727.981	0.0146939
728.059	0.0146371
728.137	0.0147816
728.215	0.0147019
728.293	0.0146684
728.371	0.0147257
728.450	0.0149313
728.528	0.0148919
728.606	0.0148435
728.684	0.0147445
728.762	0.0146700
728.840	0.0148029
728.918	0.0147952
728.996	0.0147105
729.075	0.0146355
729.153	0.0146764
729.231	0.0145313
729.309	0.0145804
729.387	0.0145486
729.465	0.0144251
729.543	0.0144568
729.621	0.0143967
729.700	0.0144690
729.778	0.0142852
729.856	0.0143643
729.934	0.0143552
730.012	0.0143022
730.090	0.0143476
730.168	0.0144492
730.246	0.0145248
730.325	0.0145654
730.403	0.0146431
730.481	0.0145611
730.559	0.0146796
730.637	0.0147728
730.715	0.0147822
730.793	0.0146566
730.871	0.0147203
730.950	0.0148442
731.028	0.0148914
731.106	0.0147601
731.184	0.0148598
731.262	0.0148029
731.340	0.0146856
731.418	0.0147476
731.496	0.0148385
731.575	0.0148104
731.653	0.0146295
731.731	0.0145219
731.809	0.0145744
731.887	0.0145367
731.965	0.0146626
732.043	0.0146108
732.121	0.0145309
732.200	0.0144228
732.278	0.0144522
732.356	0.0144532
732.434	0.0145917
732.512	0.0146554
732.590	0.0146571
732.668	0.0147802
732.746	0.0148370
732.825	0.0148444
732.903	0.0147549
732.981	0.0147436
733.059	0.0148473
733.137	0.0149179
733.215	0.0148954
733.293	0.0147652
733.371	0.0148230
733.450	0.0148610
733.528	0.0148157
733.606	0.0146982
733.684	0.0147390
733.762	0.0148433
733.840	0.0146395
733.918	0.0145933
733.996	0.0144091
734.075	0.0144749
734.153	0.0143665
734.231	0.0143445
734.309	0.0144221
734.387	0.0143562
734.465	0.0143508
734.543	0.0144398
734.621	0.0143993
734.700	0.0144530
734.778	0.0146269
734.856	0.0146246
734.934	0.0146165
735.012	0.0147036
735.090	0.0148045
735.168	0.0148350
735.246	0.0149496
735.325	0.0149651
735.403	0.0149623
735.481	0.0150272
735.559	0.0149773
735.637	0.0150215
735.715	0.0150073
735.793	0.0150372
735.871	0.0151128
735.950	0.0150700
736.028	0.0149303
736.106	0.0147975
736.184	0.0147063
736.262	0.0147686
736.340	0.0147636
736.418	0.0145172
736.496	0.0145615
736.575	0.0146238
736.653	0.0144561
736.731	0.0143291
736.809	0.0142844
736.887	0.0142384
736.965	0.0143198
737.043	0.0142580
737.121	0.0143269
737.200	0.0144152
737.278	0.0143349
737.356	0.0144164
737.434	0.0146018
737.512	0.0145386
737.590	0.0144479
737.668	0.0146387
737.746	0.0147511
737.825	0.0147004
737.903	0.0146986
737.981	0.0147485
738.059	0.0148550
738.137	0.0148375
738.215	0.0148496
738.293	0.0148207
738.371	0.0149036
738.450	0.0148950
738.528	0.0148554
738.606	0.0149561
738.684	0.0147816
738.762	0.0146420
738.840	0.0147345
738.918	0.0146142
738.996	0.0145428
739.075	0.0144257
739.153	0.0144936
739.231	0.0144077
739.309	0.0144862
739.387	0.0144505
739.465	0.0143857
739.543	0.0143442
739.621	0.0143928
739.700	0.0144661
739.778	0.0145261
739.856	0.0146408
739.934	0.0145367
740.012	0.0145586
740.090	0.0146359
740.168	0.0147678
740.246	0.0146585
740.325	0.0146468
740.403	0.0147816
740.481	0.0148132
740.559	0.0148894
740.637	0.0148698
740.715	0.0148452
740.793	0.0148702
740.871	0.0146819
740.950	0.0146749
741.028	0.0147914
741.106	0.0148119
741.184	0.0146162
741.262	0.0146514
741.340	0.0145196
741.418	0.0145438
741.496	0.0145321
741.575	0.0144189
741.653	0.0144469
741.731	0.0144668
741.809	0.0144518
741.887	0.0144611
741.965	0.0144451
742.043	0.0144977
742.121	0.0147047
742.200	0.0146067
742.278	0.0146291
742.356	0.0146239
742.434	0.0145839
742.512	0.0145684
742.590	0.0145420
742.668	0.0145921
742.746	0.0146318
742.825	0.0145995
742.903	0.0146928
742.981	0.0147639
743.059	0.0147129
743.137	0.0147550
743.215	0.0147562
743.293	0.0146094
743.371	0.0146414
743.450	0.0149486
743.528	0.0147128
743.606	0.0147167
743.684	0.0146969
743.762	0.0145414
743.840	0.0145898
743.918	0.0145020
743.996	0.0146380
744.075	0.0145971
744.153	0.0146342
744.231	0.0145502
744.309	0.0144152
744.387	0.0144899
744.465	0.0145979
744.543	0.0145556
744.621	0.0146424
744.700	0.0145781
744.778	0.0147137
744.856	0.0144511
744.934	0.0145294
745.012	0.0146739
745.090	0.0146791
745.168	0.0147270
745.246	0.0146259
745.325	0.0145636
745.403	0.0147218
745.481	0.0147041
745.559	0.0148540
745.637	0.0145992
745.715	0.0146373
745.793	0.0145679
745.871	0.0144350
745.950	0.0146021
746.028	0.0146454
746.106	0.0145377
746.184	0.0145397
746.262	0.0144550
746.340	0.0143597
746.418	0.0143530
746.496	0.0146534
746.575	0.0144810
746.653	0.0144643
746.731	0.0145541
746.809	0.0144238
746.887	0.0145785
746.965	0.0144889
747.043	0.0143813
747.121	0.0144267
747.200	0.0144318
747.278	0.0144427
747.356	0.0145528
747.434	0.0144843
747.512	0.0145229
747.590	0.0145338
747.668	0.0144300
747.746	0.0145228
747.825	0.0144755
747.903	0.0145112
747.981	0.0146306
748.059	0.0146416
748.137	0.0146738
748.215	0.0146905
748.293	0.0147200
748.371	0.0147319
748.450	0.0147546
748.528	0.0147797
748.606	0.0147845
748.684	0.0147354
748.762	0.0148203
748.840	0.0148413
748.918	0.0145722
748.996	0.0145116
749.075	0.0147325
749.153	0.0148082
749.231	0.0147382
749.309	0.0146555
749.387	0.0145919
749.465	0.0146845
749.543	0.0146804
749.621	0.0146954
749.700	0.0145454
749.778	0.0145747
749.856	0.0146808
749.934	0.0145596
750.012	0.0145401
750.090	0.0146766
750.168	0.0146678
750.246	0.0145329
750.325	0.0147255
750.403	0.0147296
750.481	0.0145430
750.559	0.0146127
750.637	0.0146365
750.715	0.0146527
750.793	0.0146594
750.871	0.0145943
750.950	0.0148561
751.028	0.0146870
751.106	0.0146197
751.184	0.0146890
751.262	0.0146196
751.340	0.0147787
751.418	0.0146236
751.496	0.0146857
751.575	0.0146661
751.653	0.0147276
751.731	0.0146295
751.809	0.0146369
751.887	0.0145797
751.965	0.0146781
752.043	0.0147241
752.121	0.0146586
752.200	0.0146560
752.278	0.0147774
752.356	0.0147349
752.434	0.0148444
752.512	0.0147517
752.590	0.0148601
752.668	0.0147138
752.746	0.0148309
752.825	0.0148354
752.903	0.0146964
752.981	0.0146822
753.059	0.0148382
753.137	0.0148221
753.215	0.0148191
753.293	0.0148491
753.371	0.0147990
753.450	0.0148608
753.528	0.0148109
753.606	0.0147523
753.684	0.0146900
753.762	0.0146610
753.840	0.0146156
753.918	0.0148546
753.996	0.0147478
754.075	0.0146152
754.153	0.0147978
754.231	0.0147619
754.309	0.0147341
754.387	0.0146101
754.465	0.0146677
754.543	0.0145361
754.621	0.0144654
754.700	0.0146229
754.778	0.0145139
754.856	0.0145345
754.934	0.0145149
755.012	0.0144855
755.090	0.0145314
755.168	0.0144779
755.246	0.0145889
755.325	0.0146338
755.403	0.0145066
755.481	0.0146421
755.559	0.0146889
755.637	0.0146197
755.715	0.0147711
755.793	0.0146163
755.871	0.0147076
755.950	0.0147729
756.028	0.0147902
756.106	0.0147508
756.184	0.0147871
756.262	0.0148689
756.340	0.0148735
756.418	0.0148801
756.496	0.0148349
756.575	0.0147630
756.653	0.0147569
756.731	0.0147769
756.809	0.0146873
756.887	0.0147268
756.965	0.0147213
757.043	0.0146594
757.121	0.0146480
757.200	0.0145923
757.278	0.0147095
757.356	0.0146206
757.434	0.0145940
757.512	0.0146082
757.590	0.0146391
757.668	0.0144782
757.746	0.0145499
757.825	0.0146082
757.903	0.0146429
757.981	0.0146732
758.059	0.0145368
758.137	0.0146122
758.215	0.0146681
758.293	0.0147587
758.371	0.0148044
758.450	0.0147103
758.528	0.0147485
758.606	0.0149523
758.684	0.0146713
758.762	0.0146310
758.840	0.0146706
758.918	0.0148891
758.996	0.0147017
759.075	0.0146517
759.153	0.0145485
759.231	0.0146277
759.309	0.0146728
759.387	0.0145513
759.465	0.0145509
759.543	0.0145283
759.621	0.0146702
759.700	0.0146283
759.778	0.0146741
759.856	0.0145733
759.934	0.0145661
760.012	0.0147021
760.090	0.0146175
760.168	0.0146503
760.246	0.0145621
760.325	0.0146664
760.403	0.0147524
760.481	0.0147059
760.559	0.0148257
760.637	0.0148304
760.715	0.0148100
760.793	0.0146920
760.871	0.0147920
760.950	0.0147444
761.028	0.0147082
761.106	0.0147704
761.184	0.0147551
761.262	0.0146848
761.340	0.0146342
761.418	0.0147105
761.496	0.0146308
761.575	0.0147287
761.653	0.0146773
761.731	0.0145077
761.809	0.0146804
761.887	0.0147442
761.965	0.0146461
762.043	0.0145293
762.121	0.0145198
762.200	0.0144771
762.278	0.0145193
762.356	0.0146071
762.434	0.0144981
762.512	0.0144467
762.590	0.0144930
762.668	0.0143968
762.746	0.0145706
762.825	0.0145446
762.903	0.0146162
762.981	0.0144629
763.059	0.0144781
763.137	0.0144140
763.215	0.0144878
763.293	0.0145664
763.371	0.0145779
763.450	0.0145676
763.528	0.0146228
763.606	0.0146708
763.684	0.0145390
763.762	0.0145400
763.840	0.0146426
763.918	0.0145325
763.996	0.0144668
764.075	0.0145345
764.153	0.0145450
764.231	0.0145119
764.309	0.0144607
764.387	0.0143858
764.465	0.0144448
764.543	0.0144730
764.621	0.0144802
764.700	0.0144444
