05/04/2022	21:27:38	Ver.	4.1	UNKNOWN
Optical Delay	678.996401	Delta X		0.078125	Sweeps	1	Scan Rate	0/0
Coordinates	Axis 1	NaN	Axis 2	NaN	Axis 3	NaN	Axis 4	NaN	Axis 5	NaN	Axis 6	0.000000
TX Power	0.000000	RX Power	0.000000

678.996	0.0144865
679.075	0.0143906
679.153	0.0143056
679.231	0.0145180
679.309	0.0145472
679.387	0.0145039
679.465	0.0144511
679.543	0.0145737
679.621	0.0145959
679.700	0.0145876
679.778	0.0146593
679.856	0.0145151
679.934	0.0145586
680.012	0.0145454
680.090	0.0145235
680.168	0.0145971
680.246	0.0146078
680.325	0.0146537
680.403	0.0145758
680.481	0.0145741
680.559	0.0146023
680.637	0.0145834
680.715	0.0145356
680.793	0.0145448
680.871	0.0145131
680.950	0.0146525
681.028	0.0147013
681.106	0.0145483
681.184	0.0145414
681.262	0.0145105
681.340	0.0145712
681.418	0.0143931
681.496	0.0144876
681.575	0.0145973
681.653	0.0146706
681.731	0.0145603
681.809	0.0145348
681.887	0.0144338
681.965	0.0145217
682.043	0.0145615
682.121	0.0144580
682.200	0.0144858
682.278	0.0145339
682.356	0.0146001
682.434	0.0147392
682.512	0.0146148
682.590	0.0144551
682.668	0.0144606
682.746	0.0144583
682.825	0.0144524
682.903	0.0144968
682.981	0.0144746
683.059	0.0144714
683.137	0.0145359
683.215	0.0144736
683.293	0.0144098
683.371	0.0146004
683.450	0.0145107
683.528	0.0145036
683.606	0.0145344
683.684	0.0145370
683.762	0.0145454
683.840	0.0145354
683.918	0.0144540
683.996	0.0145768
684.075	0.0145453
684.153	0.0146796
684.231	0.0145062
684.309	0.0144077
684.387	0.0145340
684.465	0.0144794
684.543	0.0144440
684.621	0.0143749
684.700	0.0144896
684.778	0.0144347
684.856	0.0143408
684.934	0.0144339
685.012	0.0144041
685.090	0.0144100
685.168	0.0144205
685.246	0.0144476
685.325	0.0144415
685.403	0.0144559
685.481	0.0145729
685.559	0.0146406
685.637	0.0145796
685.715	0.0146039
685.793	0.0146282
685.871	0.0146272
685.950	0.0147308
686.028	0.0147253
686.106	0.0148431
686.184	0.0148161
686.262	0.0147044
686.340	0.0147064
686.418	0.0147594
686.496	0.0145948
686.575	0.0147972
686.653	0.0144921
686.731	0.0146095
686.809	0.0145380
686.887	0.0143740
686.965	0.0144806
687.043	0.0143047
687.121	0.0143630
687.200	0.0143787
687.278	0.0143405
687.356	0.0145042
687.434	0.0145394
687.512	0.0144665
687.590	0.0144407
687.668	0.0145152
687.746	0.0146109
687.825	0.0145798
687.903	0.0147700
687.981	0.0148006
688.059	0.0146964
688.137	0.0147327
688.215	0.0147900
688.293	0.0146850
688.371	0.0147931
688.450	0.0147540
688.528	0.0147787
688.606	0.0147318
688.684	0.0147632
688.762	0.0146371
688.840	0.0146085
688.918	0.0146966
688.996	0.0146680
689.075	0.0145811
689.153	0.0145814
689.231	0.0145608
689.309	0.0143984
689.387	0.0143086
689.465	0.0141853
689.543	0.0141716
689.621	0.0140795
689.700	0.0141209
689.778	0.0141676
689.856	0.0141820
689.934	0.0142974
690.012	0.0145113
690.090	0.0145368
690.168	0.0147083
690.246	0.0148349
690.325	0.0147772
690.403	0.0149538
690.481	0.0149461
690.559	0.0150736
690.637	0.0148671
690.715	0.0149059
690.793	0.0150718
690.871	0.0148890
690.950	0.0147623
691.028	0.0149430
691.106	0.0148510
691.184	0.0146095
691.262	0.0146239
691.340	0.0143780
691.418	0.0144296
691.496	0.0142086
691.575	0.0142094
691.653	0.0140044
691.731	0.0139199
691.809	0.0139786
691.887	0.0138473
691.965	0.0138019
692.043	0.0139670
692.121	0.0138252
692.200	0.0139185
692.278	0.0140386
692.356	0.0141653
692.434	0.0141382
692.512	0.0143725
692.590	0.0145982
692.668	0.0147892
692.746	0.0148658
692.825	0.0149283
692.903	0.0151911
692.981	0.0152098
693.059	0.0153165
693.137	0.0154980
693.215	0.0154872
693.293	0.0153870
693.371	0.0152972
693.450	0.0151137
693.528	0.0150046
693.606	0.0147543
693.684	0.0144667
693.762	0.0142260
693.840	0.0138760
693.918	0.0138670
693.996	0.0137089
694.075	0.0135480
694.153	0.0136661
694.231	0.0135787
694.309	0.0136017
694.387	0.0137579
694.465	0.0139523
694.543	0.0140112
694.621	0.0140327
694.700	0.0141051
694.778	0.0142405
694.856	0.0142283
694.934	0.0143371
695.012	0.0143202
695.090	0.0145063
695.168	0.0145490
695.246	0.0147221
695.325	0.0148042
695.403	0.0149501
695.481	0.0150114
695.559	0.0150817
695.637	0.0151756
695.715	0.0152670
695.793	0.0152457
695.871	0.0151775
695.950	0.0149634
696.028	0.0150327
696.106	0.0148677
696.184	0.0148489
696.262	0.0147401
696.340	0.0144603
696.418	0.0142571
696.496	0.0140681
696.575	0.0138469
696.653	0.0137123
696.731	0.0136244
696.809	0.0135777
696.887	0.0135352
696.965	0.0136723
697.043	0.0136607
697.121	0.0139100
697.200	0.0142593
697.278	0.0142970
697.356	0.0145618
697.434	0.0147487
697.512	0.0146613
697.590	0.0148111
697.668	0.0148020
697.746	0.0148566
697.825	0.0147598
697.903	0.0147623
697.981	0.0147698
698.059	0.0147593
698.137	0.0146309
698.215	0.0145159
698.293	0.0146127
698.371	0.0146957
698.450	0.0148174
698.528	0.0146037
698.606	0.0147152
698.684	0.0146573
698.762	0.0147018
698.840	0.0146701
698.918	0.0145588
698.996	0.0145341
699.075	0.0143588
699.153	0.0143073
699.231	0.0144566
699.309	0.0142190
699.387	0.0142205
699.465	0.0140766
699.543	0.0140169
699.621	0.0140725
699.700	0.0140025
699.778	0.0140560
699.856	0.0139927
699.934	0.0141363
700.012	0.0142100
700.090	0.0141337
700.168	0.0144026
700.246	0.0145041
700.325	0.0146062
700.403	0.0148911
700.481	0.0150078
700.559	0.0148663
700.637	0.0149815
700.715	0.0148600
700.793	0.0149469
700.871	0.0149531
700.950	0.0147297
701.028	0.0145609
701.106	0.0145641
701.184	0.0146873
701.262	0.0144319
701.340	0.0144065
701.418	0.0144895
701.496	0.0146185
701.575	0.0144588
701.653	0.0144082
701.731	0.0142059
701.809	0.0141721
701.887	0.0142239
701.965	0.0141129
702.043	0.0139864
702.121	0.0140292
702.200	0.0139466
702.278	0.0140775
702.356	0.0143110
702.434	0.0144542
702.512	0.0145365
702.590	0.0147066
702.668	0.0149397
702.746	0.0148042
702.825	0.0148206
702.903	0.0148721
702.981	0.0149722
703.059	0.0149245
703.137	0.0148662
703.215	0.0148487
703.293	0.0148473
703.371	0.0148827
703.450	0.0148362
703.528	0.0146220
703.606	0.0146973
703.684	0.0146800
703.762	0.0147797
703.840	0.0146485
703.918	0.0146957
703.996	0.0147608
704.075	0.0147494
704.153	0.0146705
704.231	0.0146137
704.309	0.0144951
704.387	0.0144056
704.465	0.0142045
704.543	0.0141270
704.621	0.0141929
704.700	0.0140440
704.778	0.0139091
704.856	0.0140204
704.934	0.0139834
705.012	0.0140203
705.090	0.0139648
705.168	0.0142255
705.246	0.0144389
705.325	0.0144230
705.403	0.0145088
705.481	0.0147577
705.559	0.0148443
705.637	0.0148972
705.715	0.0149609
705.793	0.0150058
705.871	0.0151406
705.950	0.0150826
706.028	0.0150018
706.106	0.0150660
706.184	0.0148690
706.262	0.0146918
706.340	0.0145602
706.418	0.0144516
706.496	0.0142052
706.575	0.0141808
706.653	0.0140839
706.731	0.0141547
706.809	0.0140974
706.887	0.0141426
706.965	0.0141010
707.043	0.0142274
707.121	0.0140488
707.200	0.0144895
707.278	0.0145406
707.356	0.0146519
707.434	0.0147120
707.512	0.0147871
707.590	0.0149847
707.668	0.0150019
707.746	0.0149209
707.825	0.0151292
707.903	0.0151461
707.981	0.0149135
708.059	0.0146877
708.137	0.0147672
708.215	0.0145177
708.293	0.0144743
708.371	0.0143977
708.450	0.0143900
708.528	0.0141851
708.606	0.0143656
708.684	0.0142445
708.762	0.0143317
708.840	0.0145304
708.918	0.0145106
708.996	0.0146519
709.075	0.0147584
709.153	0.0148207
709.231	0.0147993
709.309	0.0146571
709.387	0.0148041
709.465	0.0147796
709.543	0.0148190
709.621	0.0146964
709.700	0.0145648
709.778	0.0145540
709.856	0.0145255
709.934	0.0146025
710.012	0.0146812
710.090	0.0146143
710.168	0.0146629
710.246	0.0146366
710.325	0.0147318
710.403	0.0145920
710.481	0.0144997
710.559	0.0146964
710.637	0.0146136
710.715	0.0143681
710.793	0.0145933
710.871	0.0144246
710.950	0.0144601
711.028	0.0144640
711.106	0.0142620
711.184	0.0143517
711.262	0.0143048
711.340	0.0142902
711.418	0.0143731
711.496	0.0146082
711.575	0.0143970
711.653	0.0143835
711.731	0.0144190
711.809	0.0145689
711.887	0.0146864
711.965	0.0147729
712.043	0.0148342
712.121	0.0148853
712.200	0.0148976
712.278	0.0148904
712.356	0.0149100
712.434	0.0150443
712.512	0.0149191
712.590	0.0147556
712.668	0.0147187
712.746	0.0145925
712.825	0.0144604
712.903	0.0145184
712.981	0.0142485
713.059	0.0141914
713.137	0.0140056
713.215	0.0140359
713.293	0.0139646
713.371	0.0138698
713.450	0.0138414
713.528	0.0140168
713.606	0.0140808
713.684	0.0142995
713.762	0.0142313
713.840	0.0144170
713.918	0.0146343
713.996	0.0146684
714.075	0.0146613
714.153	0.0148417
714.231	0.0148550
714.309	0.0148775
714.387	0.0148701
714.465	0.0148206
714.543	0.0148398
714.621	0.0150064
714.700	0.0149876
714.778	0.0148447
714.856	0.0146366
714.934	0.0144418
715.012	0.0145483
715.090	0.0143888
715.168	0.0143392
715.246	0.0143513
715.325	0.0141983
715.403	0.0142782
715.481	0.0141317
715.559	0.0142287
715.637	0.0142438
715.715	0.0142205
715.793	0.0142274
715.871	0.0141035
715.950	0.0142317
716.028	0.0143340
716.106	0.0142693
716.184	0.0144614
716.262	0.0144814
716.340	0.0144527
716.418	0.0146662
716.496	0.0146707
716.575	0.0145992
716.653	0.0148308
716.731	0.0147108
716.809	0.0147902
716.887	0.0147131
716.965	0.0148466
717.043	0.0147569
717.121	0.0146432
717.200	0.0146284
717.278	0.0147892
717.356	0.0147385
717.434	0.0145889
717.512	0.0144702
717.590	0.0144686
717.668	0.0144281
717.746	0.0141920
717.825	0.0141875
717.903	0.0142042
717.981	0.0140029
718.059	0.0140359
718.137	0.0141187
718.215	0.0138752
718.293	0.0139453
718.371	0.0140350
718.450	0.0140752
718.528	0.0141934
718.606	0.0142706
718.684	0.0145344
718.762	0.0146374
718.840	0.0146603
718.918	0.0147139
718.996	0.0147857
719.075	0.0148370
719.153	0.0148550
719.231	0.0149519
719.309	0.0148943
719.387	0.0148841
719.465	0.0148048
719.543	0.0148023
719.621	0.0147250
719.700	0.0146669
719.778	0.0146569
719.856	0.0145187
719.934	0.0144643
720.012	0.0145802
720.090	0.0146399
720.168	0.0144813
720.246	0.0143952
720.325	0.0144675
720.403	0.0145230
720.481	0.0143510
720.559	0.0142788
720.637	0.0144778
720.715	0.0143410
720.793	0.0142950
720.871	0.0142323
720.950	0.0141064
721.028	0.0141800
721.106	0.0143825
721.184	0.0142818
721.262	0.0143246
721.340	0.0143273
721.418	0.0145482
721.496	0.0145148
721.575	0.0144881
721.653	0.0145695
721.731	0.0146552
721.809	0.0148004
721.887	0.0147723
721.965	0.0148114
722.043	0.0148505
722.121	0.0148138
722.200	0.0146173
722.278	0.0146693
722.356	0.0146838
722.434	0.0147150
722.512	0.0146039
722.590	0.0146065
722.668	0.0144886
722.746	0.0144955
722.825	0.0145766
722.903	0.0144767
722.981	0.0145272
723.059	0.0145853
723.137	0.0145838
723.215	0.0144638
723.293	0.0144058
723.371	0.0144470
723.450	0.0144452
723.528	0.0144101
723.606	0.0143260
723.684	0.0142549
723.762	0.0142932
723.840	0.0141613
723.918	0.0141766
723.996	0.0143114
724.075	0.0142728
724.153	0.0143595
724.231	0.0144189
724.309	0.0144388
724.387	0.0144524
724.465	0.0146887
724.543	0.0146938
724.621	0.0147802
724.700	0.0147441
724.778	0.0147794
724.856	0.0147692
724.934	0.0147202
725.012	0.0147106
725.090	0.0144878
725.168	0.0143982
725.246	0.0144039
725.325	0.0144296
725.403	0.0143535
725.481	0.0142135
725.559	0.0142808
725.637	0.0142480
725.715	0.0143201
725.793	0.0142310
725.871	0.0142245
725.950	0.0143502
726.028	0.0144137
726.106	0.0144554
726.184	0.0144785
726.262	0.0145728
726.340	0.0146303
726.418	0.0146838
726.496	0.0146481
726.575	0.0146455
726.653	0.0148659
726.731	0.0148781
726.809	0.0147486
726.887	0.0147578
726.965	0.0149100
727.043	0.0147497
727.121	0.0148101
727.200	0.0147834
727.278	0.0147118
727.356	0.0147092
727.434	0.0147033
727.512	0.0146342
727.590	0.0144987
727.668	0.0145452
727.746	0.0146010
727.825	0.0145238
727.903	0.0143945
727.981	0.0144459
728.059	0.0143701
728.137	0.0142662
728.215	0.0142130
728.293	0.0141615
728.371	0.0143314
728.450	0.0144162
728.528	0.0143453
728.606	0.0144836
728.684	0.0143743
728.762	0.0142300
728.840	0.0144524
728.918	0.0143980
728.996	0.0144910
729.075	0.0144936
729.153	0.0146507
729.231	0.0146472
729.309	0.0146794
729.387	0.0145736
729.465	0.0147437
729.543	0.0148293
729.621	0.0147660
729.700	0.0147256
729.778	0.0146642
729.856	0.0147559
729.934	0.0148946
730.012	0.0146419
730.090	0.0145499
730.168	0.0146102
730.246	0.0146524
730.325	0.0144814
730.403	0.0144743
730.481	0.0143106
730.559	0.0144544
730.637	0.0142711
730.715	0.0144176
730.793	0.0143350
730.871	0.0145420
730.950	0.0144889
731.028	0.0143759
731.106	0.0143932
731.184	0.0145263
731.262	0.0146365
731.340	0.0147120
731.418	0.0148020
731.496	0.0147275
731.575	0.0147464
731.653	0.0147398
731.731	0.0146953
731.809	0.0147726
731.887	0.0147432
731.965	0.0148316
732.043	0.0148368
732.121	0.0147925
732.200	0.0146884
732.278	0.0145626
732.356	0.0146222
732.434	0.0144605
732.512	0.0144499
732.590	0.0144275
732.668	0.0142858
732.746	0.0143262
732.825	0.0141648
732.903	0.0141010
732.981	0.0140038
733.059	0.0141199
733.137	0.0142698
733.215	0.0141867
733.293	0.0142419
733.371	0.0142685
733.450	0.0143423
733.528	0.0142725
733.606	0.0144935
733.684	0.0144959
733.762	0.0146410
733.840	0.0148203
733.918	0.0148538
733.996	0.0148193
734.075	0.0146957
734.153	0.0149392
734.231	0.0148982
734.309	0.0149493
734.387	0.0149468
734.465	0.0149087
734.543	0.0147533
734.621	0.0147208
734.700	0.0147382
734.778	0.0145379
734.856	0.0144706
734.934	0.0145458
735.012	0.0143163
735.090	0.0143491
735.168	0.0144991
735.246	0.0143600
735.325	0.0142383
735.403	0.0142513
735.481	0.0140662
735.559	0.0140326
735.637	0.0141892
735.715	0.0141471
735.793	0.0141933
735.871	0.0142392
735.950	0.0141423
736.028	0.0142836
736.106	0.0142429
736.184	0.0144007
736.262	0.0144608
736.340	0.0144528
736.418	0.0146733
736.496	0.0147186
736.575	0.0148020
736.653	0.0146024
736.731	0.0146586
736.809	0.0146516
736.887	0.0147065
736.965	0.0147453
737.043	0.0145231
737.121	0.0146405
737.200	0.0146371
737.278	0.0146378
737.356	0.0146357
737.434	0.0144638
737.512	0.0145480
737.590	0.0144201
737.668	0.0143817
737.746	0.0143765
737.825	0.0143406
737.903	0.0143102
737.981	0.0142857
738.059	0.0142822
738.137	0.0142723
738.215	0.0144283
738.293	0.0144170
738.371	0.0144366
738.450	0.0143472
738.528	0.0145781
738.606	0.0142975
738.684	0.0144790
738.762	0.0145671
738.840	0.0145106
738.918	0.0146833
738.996	0.0146683
739.075	0.0146841
739.153	0.0146602
739.231	0.0145627
739.309	0.0145786
739.387	0.0147562
739.465	0.0146732
739.543	0.0146429
739.621	0.0145831
739.700	0.0145131
739.778	0.0145402
739.856	0.0143587
739.934	0.0142576
740.012	0.0143587
740.090	0.0141654
740.168	0.0142143
740.246	0.0143261
740.325	0.0142301
740.403	0.0142523
740.481	0.0144041
740.559	0.0142817
740.637	0.0142413
740.715	0.0141841
740.793	0.0143106
740.871	0.0143392
740.950	0.0144456
741.028	0.0144740
741.106	0.0142834
741.184	0.0143667
741.262	0.0145029
741.340	0.0143842
741.418	0.0145399
741.496	0.0145722
741.575	0.0145805
741.653	0.0146445
741.731	0.0146877
741.809	0.0146545
741.887	0.0146679
741.965	0.0146025
742.043	0.0146774
742.121	0.0146471
742.200	0.0146516
742.278	0.0145126
742.356	0.0144804
742.434	0.0144460
742.512	0.0144814
742.590	0.0143252
742.668	0.0143302
742.746	0.0144392
742.825	0.0142522
742.903	0.0143155
742.981	0.0142460
743.059	0.0141932
743.137	0.0143009
743.215	0.0143703
743.293	0.0144539
743.371	0.0143046
743.450	0.0143235
743.528	0.0142527
743.606	0.0144573
743.684	0.0144579
743.762	0.0144077
743.840	0.0145248
743.918	0.0147311
743.996	0.0146535
744.075	0.0146027
744.153	0.0146001
744.231	0.0146509
744.309	0.0146146
744.387	0.0146461
744.465	0.0146515
744.543	0.0147050
744.621	0.0145855
744.700	0.0146562
744.778	0.0146803
744.856	0.0144885
744.934	0.0144080
745.012	0.0144707
745.090	0.0144365
745.168	0.0144128
745.246	0.0144477
745.325	0.0142895
745.403	0.0143636
745.481	0.0143608
745.559	0.0143414
745.637	0.0142821
745.715	0.0143391
745.793	0.0143845
745.871	0.0143240
745.950	0.0144601
746.028	0.0144898
746.106	0.0145457
746.184	0.0146335
746.262	0.0145885
746.340	0.0145966
746.418	0.0147047
746.496	0.0148325
746.575	0.0147225
746.653	0.0146613
746.731	0.0147978
746.809	0.0148060
746.887	0.0148815
746.965	0.0147226
747.043	0.0147060
747.121	0.0147118
747.200	0.0147066
747.278	0.0145066
747.356	0.0145909
747.434	0.0145625
747.512	0.0145695
747.590	0.0143909
747.668	0.0143822
747.746	0.0146178
747.825	0.0145131
747.903	0.0144749
747.981	0.0143674
748.059	0.0145232
748.137	0.0145341
748.215	0.0144683
748.293	0.0145433
748.371	0.0144746
748.450	0.0144093
748.528	0.0144234
748.606	0.0145451
748.684	0.0146091
748.762	0.0144785
748.840	0.0146037
748.918	0.0144236
748.996	0.0144180
749.075	0.0143974
749.153	0.0144765
749.231	0.0145267
749.309	0.0146259
749.387	0.0145267
749.465	0.0145883
749.543	0.0147268
749.621	0.0147693
749.700	0.0145065
749.778	0.0145408
749.856	0.0146575
749.934	0.0146593
750.012	0.0145558
750.090	0.0144819
750.168	0.0144292
750.246	0.0145365
750.325	0.0144965
750.403	0.0143829
750.481	0.0146771
750.559	0.0145108
750.637	0.0145043
750.715	0.0144791
750.793	0.0144737
750.871	0.0146114
750.950	0.0144791
751.028	0.0146050
751.106	0.0145662
751.184	0.0144375
751.262	0.0145361
751.340	0.0146287
751.418	0.0146029
751.496	0.0145849
751.575	0.0146055
751.653	0.0146897
751.731	0.0146407
751.809	0.0147443
751.887	0.0146023
751.965	0.0147277
752.043	0.0145308
752.121	0.0147686
752.200	0.0145804
752.278	0.0145176
752.356	0.0145642
752.434	0.0146906
752.512	0.0146400
752.590	0.0146096
752.668	0.0143582
752.746	0.0145289
752.825	0.0144167
752.903	0.0144942
752.981	0.0145099
753.059	0.0144741
753.137	0.0143594
753.215	0.0143481
753.293	0.0144462
753.371	0.0143880
753.450	0.0144792
753.528	0.0144924
753.606	0.0143884
753.684	0.0144134
753.762	0.0145077
753.840	0.0144760
753.918	0.0146221
753.996	0.0146515
754.075	0.0145641
754.153	0.0145668
754.231	0.0146195
754.309	0.0145969
754.387	0.0145681
754.465	0.0145113
754.543	0.0146066
754.621	0.0146339
754.700	0.0145459
754.778	0.0147392
754.856	0.0146340
754.934	0.0145551
755.012	0.0145822
755.090	0.0145943
755.168	0.0146078
755.246	0.0147452
755.325	0.0146336
755.403	0.0145370
755.481	0.0145598
755.559	0.0145131
755.637	0.0144161
755.715	0.0146346
755.793	0.0144545
755.871	0.0144230
755.950	0.0144847
756.028	0.0145958
756.106	0.0146320
756.184	0.0145559
756.262	0.0145000
756.340	0.0144981
756.418	0.0144970
756.496	0.0144463
756.575	0.0145954
756.653	0.0144868
756.731	0.0142861
756.809	0.0143031
756.887	0.0145194
756.965	0.0144838
757.043	0.0144491
757.121	0.0144321
757.200	0.0144339
757.278	0.0144894
757.356	0.0143587
757.434	0.0143016
757.512	0.0144213
757.590	0.0144286
757.668	0.0144897
757.746	0.0143932
757.825	0.0144288
757.903	0.0141817
757.981	0.0144056
758.059	0.0146432
758.137	0.0143029
758.215	0.0144028
758.293	0.0144788
758.371	0.0143389
758.450	0.0143869
758.528	0.0146798
758.606	0.0146452
758.684	0.0144424
758.762	0.0144154
758.840	0.0144492
758.918	0.0145490
758.996	0.0144487
759.075	0.0145745
759.153	0.0144308
759.231	0.0144357
759.309	0.0145109
759.387	0.0145005
759.465	0.0143915
759.543	0.0144928
759.621	0.0144331
759.700	0.0145660
759.778	0.0144154
759.856	0.0143970
759.934	0.0143982
760.012	0.0144020
760.090	0.0144850
760.168	0.0143420
760.246	0.0143919
760.325	0.0143941
760.403	0.0144221
760.481	0.0144569
760.559	0.0143941
760.637	0.0143340
760.715	0.0145540
760.793	0.0143797
760.871	0.0144765
760.950	0.0145629
761.028	0.0143848
761.106	0.0143781
761.184	0.0144414
761.262	0.0142949
761.340	0.0144625
761.418	0.0144060
761.496	0.0143027
761.575	0.0143861
761.653	0.0142541
761.731	0.0143591
761.809	0.0143621
761.887	0.0143798
761.965	0.0143887
762.043	0.0144984
762.121	0.0144855
762.200	0.0142989
762.278	0.0143673
762.356	0.0144384
762.434	0.0143310
762.512	0.0144696
762.590	0.0143951
762.668	0.0143653
762.746	0.0142748
762.825	0.0144297
762.903	0.0145994
762.981	0.0144362
763.059	0.0144700
763.137	0.0145625
763.215	0.0144637
763.293	0.0145123
763.371	0.0144369
763.450	0.0143643
763.528	0.0143752
763.606	0.0145135
763.684	0.0145143
763.762	0.0143919
763.840	0.0144327
763.918	0.0145267
763.996	0.0142950
764.075	0.0143459
764.153	0.0144169
764.231	0.0145130
764.309	0.0144708
764.387	0.0143635
764.465	0.0145307
764.543	0.0144446
764.621	0.0146243
764.700	0.0145826
