05/04/2022	20:49:41	Ver.	4.1	UNKNOWN
Optical Delay	678.996401	Delta X		0.078125	Sweeps	1	Scan Rate	0/0
Coordinates	Axis 1	NaN	Axis 2	NaN	Axis 3	NaN	Axis 4	NaN	Axis 5	NaN	Axis 6	0.000000
TX Power	0.000000	RX Power	0.000000

678.996	0.0140996
679.075	0.0140823
679.153	0.0141131
679.231	0.0140174
679.309	0.0140469
679.387	0.0141301
679.465	0.0140566
679.543	0.0140379
679.621	0.0139397
679.700	0.0140751
679.778	0.0140300
679.856	0.0141804
679.934	0.0141011
680.012	0.0141650
680.090	0.0141460
680.168	0.0141895
680.246	0.0139877
680.325	0.0141170
680.403	0.0141658
680.481	0.0140227
680.559	0.0141115
680.637	0.0141639
680.715	0.0141441
680.793	0.0140556
680.871	0.0140698
680.950	0.0141692
681.028	0.0141189
681.106	0.0140159
681.184	0.0140900
681.262	0.0141406
681.340	0.0141410
681.418	0.0140363
681.496	0.0140563
681.575	0.0139960
681.653	0.0141412
681.731	0.0140603
681.809	0.0139904
681.887	0.0141560
681.965	0.0140897
682.043	0.0140894
682.121	0.0141202
682.200	0.0139601
682.278	0.0141142
682.356	0.0141354
682.434	0.0140776
682.512	0.0140736
682.590	0.0139999
682.668	0.0139967
682.746	0.0140376
682.825	0.0140820
682.903	0.0140115
682.981	0.0140957
683.059	0.0141525
683.137	0.0140979
683.215	0.0141162
683.293	0.0142173
683.371	0.0141216
683.450	0.0141045
683.528	0.0138937
683.606	0.0140900
683.684	0.0141671
683.762	0.0142342
683.840	0.0141930
683.918	0.0140070
683.996	0.0140204
684.075	0.0140572
684.153	0.0141518
684.231	0.0140625
684.309	0.0141872
684.387	0.0142019
684.465	0.0140679
684.543	0.0140398
684.621	0.0140308
684.700	0.0142054
684.778	0.0140830
684.856	0.0141695
684.934	0.0141024
685.012	0.0140728
685.090	0.0141061
685.168	0.0140881
685.246	0.0141646
685.325	0.0141084
685.403	0.0141717
685.481	0.0142825
685.559	0.0141968
685.637	0.0141348
685.715	0.0140855
685.793	0.0141813
685.871	0.0141996
685.950	0.0140787
686.028	0.0141130
686.106	0.0141925
686.184	0.0140424
686.262	0.0141457
686.340	0.0141238
686.418	0.0140792
686.496	0.0140772
686.575	0.0139905
686.653	0.0141830
686.731	0.0140249
686.809	0.0142341
686.887	0.0142896
686.965	0.0142229
687.043	0.0140737
687.121	0.0141989
687.200	0.0142213
687.278	0.0141279
687.356	0.0142551
687.434	0.0141452
687.512	0.0142287
687.590	0.0140768
687.668	0.0142076
687.746	0.0141394
687.825	0.0140472
687.903	0.0142067
687.981	0.0141929
688.059	0.0140160
688.137	0.0141790
688.215	0.0140945
688.293	0.0140906
688.371	0.0141515
688.450	0.0140994
688.528	0.0141909
688.606	0.0140438
688.684	0.0141551
688.762	0.0141489
688.840	0.0141340
688.918	0.0141176
688.996	0.0140699
689.075	0.0140473
689.153	0.0141209
689.231	0.0141850
689.309	0.0140855
689.387	0.0140221
689.465	0.0141090
689.543	0.0141473
689.621	0.0141020
689.700	0.0142058
689.778	0.0140590
689.856	0.0141148
689.934	0.0140515
690.012	0.0139697
690.090	0.0141929
690.168	0.0142262
690.246	0.0140393
690.325	0.0139839
690.403	0.0143221
690.481	0.0141609
690.559	0.0141613
690.637	0.0140279
690.715	0.0140305
690.793	0.0141821
690.871	0.0140448
690.950	0.0140716
691.028	0.0141467
691.106	0.0140983
691.184	0.0140845
691.262	0.0141740
691.340	0.0140044
691.418	0.0139576
691.496	0.0141040
691.575	0.0141005
691.653	0.0140760
691.731	0.0141504
691.809	0.0141338
691.887	0.0141315
691.965	0.0140954
692.043	0.0140899
692.121	0.0140969
692.200	0.0141232
692.278	0.0140820
692.356	0.0142632
692.434	0.0141478
692.512	0.0140571
692.590	0.0140402
692.668	0.0141174
692.746	0.0141918
692.825	0.0141143
692.903	0.0140542
692.981	0.0141051
693.059	0.0140483
693.137	0.0140681
693.215	0.0141642
693.293	0.0141515
693.371	0.0141581
693.450	0.0140604
693.528	0.0140347
693.606	0.0141354
693.684	0.0141502
693.762	0.0141534
693.840	0.0140109
693.918	0.0141273
693.996	0.0141292
694.075	0.0141801
694.153	0.0141921
694.231	0.0140082
694.309	0.0139944
694.387	0.0140633
694.465	0.0140248
694.543	0.0142114
694.621	0.0140689
694.700	0.0142193
694.778	0.0141648
694.856	0.0140459
694.934	0.0140753
695.012	0.0140672
695.090	0.0141441
695.168	0.0140762
695.246	0.0141083
695.325	0.0141137
695.403	0.0140561
695.481	0.0141862
695.559	0.0140285
695.637	0.0140680
695.715	0.0141311
695.793	0.0141679
695.871	0.0140774
695.950	0.0143087
696.028	0.0141363
696.106	0.0140774
696.184	0.0141036
696.262	0.0142058
696.340	0.0140663
696.418	0.0141547
696.496	0.0142020
696.575	0.0141243
696.653	0.0140463
696.731	0.0139783
696.809	0.0140782
696.887	0.0141541
696.965	0.0142104
697.043	0.0141342
697.121	0.0141185
697.200	0.0140557
697.278	0.0139966
697.356	0.0142119
697.434	0.0141930
697.512	0.0141279
697.590	0.0141123
697.668	0.0140855
697.746	0.0141624
697.825	0.0142121
697.903	0.0140951
697.981	0.0140665
698.059	0.0140906
698.137	0.0142673
698.215	0.0142947
698.293	0.0140707
698.371	0.0140283
698.450	0.0141357
698.528	0.0141068
698.606	0.0141279
698.684	0.0140958
698.762	0.0142194
698.840	0.0141752
698.918	0.0140872
698.996	0.0140653
699.075	0.0141028
699.153	0.0141662
699.231	0.0140679
699.309	0.0140072
699.387	0.0141850
699.465	0.0140907
699.543	0.0141225
699.621	0.0141147
699.700	0.0140321
699.778	0.0140128
699.856	0.0140997
699.934	0.0141930
700.012	0.0141122
700.090	0.0141873
700.168	0.0140655
700.246	0.0140719
700.325	0.0142058
700.403	0.0140272
700.481	0.0142763
700.559	0.0141338
700.637	0.0141455
700.715	0.0142823
700.793	0.0142145
700.871	0.0141531
700.950	0.0139217
701.028	0.0141380
701.106	0.0141547
701.184	0.0142317
701.262	0.0141176
701.340	0.0140990
701.418	0.0140600
701.496	0.0141791
701.575	0.0140523
701.653	0.0140660
701.731	0.0141533
701.809	0.0143465
701.887	0.0141820
701.965	0.0141428
702.043	0.0142307
702.121	0.0141367
702.200	0.0141886
702.278	0.0140579
702.356	0.0141286
702.434	0.0141947
702.512	0.0140754
702.590	0.0141449
702.668	0.0140649
702.746	0.0140428
702.825	0.0141409
702.903	0.0140481
702.981	0.0139614
703.059	0.0140393
703.137	0.0140801
703.215	0.0141083
703.293	0.0142148
703.371	0.0140601
703.450	0.0141184
703.528	0.0141927
703.606	0.0140965
703.684	0.0139983
703.762	0.0140076
703.840	0.0142842
703.918	0.0141774
703.996	0.0140911
704.075	0.0140006
704.153	0.0140681
704.231	0.0142664
704.309	0.0141653
704.387	0.0140462
704.465	0.0140613
704.543	0.0142631
704.621	0.0140994
704.700	0.0141711
704.778	0.0141637
704.856	0.0140405
704.934	0.0140639
705.012	0.0141647
705.090	0.0139771
705.168	0.0140111
705.246	0.0139896
705.325	0.0140955
705.403	0.0141806
705.481	0.0140737
705.559	0.0139385
705.637	0.0139485
705.715	0.0141068
705.793	0.0141485
705.871	0.0142660
705.950	0.0140649
706.028	0.0140597
706.106	0.0141312
706.184	0.0140293
706.262	0.0140861
706.340	0.0142738
706.418	0.0140331
706.496	0.0140456
706.575	0.0140716
706.653	0.0141412
706.731	0.0142287
706.809	0.0139935
706.887	0.0140914
706.965	0.0140872
707.043	0.0139054
707.121	0.0141385
707.200	0.0140127
707.278	0.0140368
707.356	0.0140676
707.434	0.0141524
707.512	0.0141305
707.590	0.0139801
707.668	0.0140063
707.746	0.0141448
707.825	0.0141280
707.903	0.0140935
707.981	0.0139743
708.059	0.0141071
708.137	0.0140195
708.215	0.0139644
708.293	0.0141331
708.371	0.0140433
708.450	0.0140997
708.528	0.0140688
708.606	0.0140187
708.684	0.0140749
708.762	0.0141523
708.840	0.0139902
708.918	0.0141302
708.996	0.0141170
709.075	0.0140305
709.153	0.0141759
709.231	0.0140289
709.309	0.0139257
709.387	0.0140970
709.465	0.0141725
709.543	0.0139767
709.621	0.0140372
709.700	0.0141631
709.778	0.0141031
709.856	0.0141142
709.934	0.0141650
710.012	0.0141238
710.090	0.0139611
710.168	0.0141475
710.246	0.0141468
710.325	0.0140853
710.403	0.0141428
710.481	0.0141544
710.559	0.0140913
710.637	0.0141810
710.715	0.0140342
710.793	0.0141709
710.871	0.0141632
710.950	0.0142368
711.028	0.0141006
711.106	0.0140955
711.184	0.0140160
711.262	0.0142197
711.340	0.0141582
711.418	0.0140374
711.496	0.0142685
711.575	0.0141732
711.653	0.0142779
711.731	0.0142315
711.809	0.0142079
711.887	0.0141882
711.965	0.0141108
712.043	0.0142063
712.121	0.0141613
712.200	0.0141352
712.278	0.0141476
712.356	0.0141020
712.434	0.0143263
712.512	0.0141962
712.590	0.0141959
712.668	0.0141315
712.746	0.0141058
712.825	0.0142582
712.903	0.0140556
712.981	0.0141599
713.059	0.0140675
713.137	0.0140971
713.215	0.0141847
713.293	0.0141755
713.371	0.0142455
713.450	0.0143053
713.528	0.0142844
713.606	0.0141615
713.684	0.0143085
713.762	0.0142979
713.840	0.0141246
713.918	0.0141127
713.996	0.0140196
714.075	0.0140689
714.153	0.0142379
714.231	0.0143081
714.309	0.0143417
714.387	0.0142220
714.465	0.0143889
714.543	0.0143779
714.621	0.0142911
714.700	0.0142773
714.778	0.0142606
714.856	0.0141985
714.934	0.0140839
715.012	0.0140881
715.090	0.0139409
715.168	0.0139690
715.246	0.0139443
715.325	0.0137412
715.403	0.0137202
715.481	0.0138083
715.559	0.0137411
715.637	0.0137735
715.715	0.0139500
715.793	0.0138297
715.871	0.0139146
715.950	0.0139632
716.028	0.0138993
716.106	0.0140858
716.184	0.0141994
716.262	0.0142799
716.340	0.0144814
716.418	0.0143417
716.496	0.0143343
716.575	0.0144110
716.653	0.0142654
716.731	0.0141567
716.809	0.0142456
716.887	0.0139985
716.965	0.0136725
717.043	0.0135497
717.121	0.0135670
717.200	0.0135313
717.278	0.0134913
717.356	0.0135588
717.434	0.0137166
717.512	0.0137191
717.590	0.0138781
717.668	0.0139671
717.746	0.0140282
717.825	0.0142422
717.903	0.0141875
717.981	0.0141561
718.059	0.0141229
718.137	0.0141241
718.215	0.0141112
718.293	0.0141859
718.371	0.0140915
718.450	0.0140216
718.528	0.0139389
718.606	0.0138786
718.684	0.0139973
718.762	0.0139916
718.840	0.0142210
718.918	0.0141993
718.996	0.0141003
719.075	0.0145235
719.153	0.0144939
719.231	0.0144998
719.309	0.0146420
719.387	0.0148251
719.465	0.0148372
719.543	0.0147649
719.621	0.0147918
719.700	0.0148012
719.778	0.0146160
719.856	0.0144840
719.934	0.0142567
720.012	0.0141519
720.090	0.0138914
720.168	0.0137135
720.246	0.0135577
720.325	0.0135621
720.403	0.0134660
720.481	0.0135649
720.559	0.0135072
720.637	0.0135573
720.715	0.0138242
720.793	0.0138316
720.871	0.0140838
720.950	0.0143234
721.028	0.0142587
721.106	0.0142684
721.184	0.0143238
721.262	0.0143890
721.340	0.0143224
721.418	0.0141709
721.496	0.0140772
721.575	0.0140135
721.653	0.0138308
721.731	0.0138347
721.809	0.0138002
721.887	0.0135316
721.965	0.0135870
722.043	0.0138782
722.121	0.0139742
722.200	0.0139903
722.278	0.0140009
722.356	0.0143095
722.434	0.0142463
722.512	0.0142805
722.590	0.0144505
722.668	0.0143932
722.746	0.0144778
722.825	0.0144310
722.903	0.0143586
722.981	0.0144465
723.059	0.0142400
723.137	0.0141163
723.215	0.0139982
723.293	0.0138914
723.371	0.0139528
723.450	0.0136264
723.528	0.0136636
723.606	0.0137865
723.684	0.0136271
723.762	0.0139984
723.840	0.0139860
723.918	0.0140434
723.996	0.0142103
724.075	0.0142401
724.153	0.0144072
724.231	0.0144812
724.309	0.0146565
724.387	0.0146973
724.465	0.0146263
724.543	0.0146272
724.621	0.0146654
724.700	0.0146370
724.778	0.0144695
724.856	0.0143530
724.934	0.0142361
725.012	0.0141431
725.090	0.0139868
725.168	0.0140613
725.246	0.0139776
725.325	0.0138857
725.403	0.0138032
725.481	0.0138894
725.559	0.0139227
725.637	0.0140710
725.715	0.0140607
725.793	0.0140351
725.871	0.0142805
725.950	0.0142217
726.028	0.0143011
726.106	0.0142882
726.184	0.0142332
726.262	0.0141496
726.340	0.0139973
726.418	0.0141361
726.496	0.0140512
726.575	0.0140666
726.653	0.0139628
726.731	0.0137338
726.809	0.0136074
726.887	0.0138097
726.965	0.0137842
727.043	0.0137123
727.121	0.0136413
727.200	0.0137071
727.278	0.0137326
727.356	0.0138494
727.434	0.0140199
727.512	0.0140374
727.590	0.0141695
727.668	0.0142222
727.746	0.0141432
727.825	0.0143526
727.903	0.0144824
727.981	0.0144639
728.059	0.0144146
728.137	0.0144135
728.215	0.0142925
728.293	0.0142151
728.371	0.0143598
728.450	0.0142895
728.528	0.0140456
728.606	0.0139410
728.684	0.0138786
728.762	0.0137857
728.840	0.0139043
728.918	0.0139329
728.996	0.0137306
729.075	0.0137811
729.153	0.0138921
729.231	0.0140189
729.309	0.0140665
729.387	0.0141308
729.465	0.0143213
729.543	0.0143256
729.621	0.0145097
729.700	0.0144633
729.778	0.0145319
729.856	0.0144044
729.934	0.0144391
730.012	0.0142854
730.090	0.0142152
730.168	0.0142611
730.246	0.0141660
730.325	0.0140862
730.403	0.0140950
730.481	0.0140636
730.559	0.0140453
730.637	0.0140266
730.715	0.0140499
730.793	0.0141004
730.871	0.0140977
730.950	0.0140058
731.028	0.0142033
731.106	0.0140592
731.184	0.0141544
731.262	0.0141692
731.340	0.0140491
731.418	0.0141676
731.496	0.0141901
731.575	0.0142355
731.653	0.0142417
731.731	0.0141304
731.809	0.0141201
731.887	0.0139231
731.965	0.0138812
732.043	0.0139854
732.121	0.0139309
732.200	0.0137531
732.278	0.0138261
732.356	0.0138285
732.434	0.0139262
732.512	0.0137869
732.590	0.0138675
732.668	0.0139251
732.746	0.0138794
732.825	0.0139631
732.903	0.0139182
732.981	0.0138976
733.059	0.0138400
733.137	0.0141872
733.215	0.0141205
733.293	0.0140836
733.371	0.0139832
733.450	0.0140640
733.528	0.0141120
733.606	0.0142496
733.684	0.0141543
733.762	0.0140916
733.840	0.0141312
733.918	0.0142979
733.996	0.0142601
734.075	0.0142281
734.153	0.0142329
734.231	0.0141460
734.309	0.0142905
734.387	0.0141357
734.465	0.0140998
734.543	0.0142332
734.621	0.0141927
734.700	0.0140874
734.778	0.0140434
734.856	0.0139888
734.934	0.0140845
735.012	0.0140543
735.090	0.0140401
735.168	0.0141346
735.246	0.0139781
735.325	0.0139589
735.403	0.0140557
735.481	0.0140921
735.559	0.0142015
735.637	0.0141105
735.715	0.0142949
735.793	0.0142167
735.871	0.0143544
735.950	0.0143088
736.028	0.0142815
736.106	0.0142395
736.184	0.0142337
736.262	0.0142356
736.340	0.0141701
736.418	0.0142455
736.496	0.0142884
736.575	0.0141627
736.653	0.0141463
736.731	0.0141605
736.809	0.0140263
736.887	0.0140582
736.965	0.0139030
737.043	0.0139251
737.121	0.0138696
737.200	0.0138717
737.278	0.0139831
737.356	0.0140178
737.434	0.0139548
737.512	0.0138416
737.590	0.0139527
737.668	0.0140944
737.746	0.0139514
737.825	0.0139581
737.903	0.0140136
737.981	0.0139744
738.059	0.0140408
738.137	0.0141293
738.215	0.0141457
738.293	0.0142068
738.371	0.0141484
738.450	0.0142371
738.528	0.0142347
738.606	0.0141839
738.684	0.0140854
738.762	0.0140077
738.840	0.0140199
738.918	0.0140276
738.996	0.0140443
739.075	0.0139553
739.153	0.0138680
739.231	0.0140106
739.309	0.0139804
739.387	0.0141602
739.465	0.0140228
739.543	0.0139288
739.621	0.0140794
739.700	0.0142353
739.778	0.0142669
739.856	0.0141433
739.934	0.0141872
740.012	0.0143630
740.090	0.0142451
740.168	0.0142896
740.246	0.0142671
740.325	0.0142773
740.403	0.0141811
740.481	0.0139426
740.559	0.0142281
740.637	0.0141713
740.715	0.0141325
740.793	0.0140497
740.871	0.0140859
740.950	0.0140449
741.028	0.0141180
741.106	0.0139738
741.184	0.0140084
741.262	0.0141615
741.340	0.0140028
741.418	0.0139470
741.496	0.0140192
741.575	0.0138672
741.653	0.0139143
741.731	0.0139330
741.809	0.0138808
741.887	0.0139184
741.965	0.0138040
742.043	0.0138988
742.121	0.0138884
742.200	0.0137934
742.278	0.0139226
742.356	0.0140463
742.434	0.0140423
742.512	0.0142289
742.590	0.0141669
742.668	0.0140797
742.746	0.0142856
742.825	0.0143016
742.903	0.0142487
742.981	0.0142152
743.059	0.0142081
743.137	0.0143302
743.215	0.0143247
743.293	0.0141624
743.371	0.0141472
743.450	0.0142152
743.528	0.0142236
743.606	0.0141374
743.684	0.0139675
743.762	0.0140867
743.840	0.0139910
743.918	0.0141084
743.996	0.0139806
744.075	0.0140627
744.153	0.0139515
744.231	0.0140414
744.309	0.0137864
744.387	0.0139683
744.465	0.0140543
744.543	0.0140714
744.621	0.0140769
744.700	0.0140785
744.778	0.0141936
744.856	0.0141454
744.934	0.0141962
745.012	0.0142138
745.090	0.0141735
745.168	0.0140697
745.246	0.0143068
745.325	0.0143073
745.403	0.0142822
745.481	0.0142033
745.559	0.0141387
745.637	0.0140849
745.715	0.0141409
745.793	0.0142711
745.871	0.0142069
745.950	0.0141257
746.028	0.0141190
746.106	0.0140665
746.184	0.0140414
746.262	0.0140901
746.340	0.0140870
746.418	0.0141244
746.496	0.0142542
746.575	0.0141206
746.653	0.0141707
746.731	0.0140169
746.809	0.0139655
746.887	0.0140486
746.965	0.0140203
747.043	0.0141850
747.121	0.0141480
747.200	0.0140721
747.278	0.0141499
747.356	0.0141016
747.434	0.0140388
747.512	0.0141210
747.590	0.0140475
747.668	0.0140469
747.746	0.0140874
747.825	0.0140374
747.903	0.0141159
747.981	0.0140156
748.059	0.0140102
748.137	0.0139619
748.215	0.0141341
748.293	0.0142364
748.371	0.0139474
748.450	0.0140379
748.528	0.0143037
748.606	0.0142979
748.684	0.0140610
748.762	0.0142309
748.840	0.0142443
748.918	0.0141124
748.996	0.0140687
749.075	0.0139643
749.153	0.0140559
749.231	0.0141048
749.309	0.0140752
749.387	0.0140517
749.465	0.0140418
749.543	0.0139725
749.621	0.0138588
749.700	0.0138940
749.778	0.0139923
749.856	0.0139968
749.934	0.0140038
750.012	0.0142270
750.090	0.0139412
750.168	0.0139651
750.246	0.0142789
750.325	0.0142185
750.403	0.0142920
750.481	0.0143948
750.559	0.0143198
750.637	0.0143540
750.715	0.0143950
750.793	0.0143510
750.871	0.0142497
750.950	0.0142706
751.028	0.0142230
751.106	0.0142232
751.184	0.0141026
751.262	0.0140623
751.340	0.0139981
751.418	0.0139579
751.496	0.0139655
751.575	0.0139066
751.653	0.0139630
751.731	0.0140619
751.809	0.0139274
751.887	0.0140175
751.965	0.0141421
752.043	0.0139905
752.121	0.0140835
752.200	0.0141239
752.278	0.0140975
752.356	0.0140592
752.434	0.0141716
752.512	0.0141425
752.590	0.0141471
752.668	0.0140847
752.746	0.0141011
752.825	0.0141159
752.903	0.0140912
752.981	0.0141588
753.059	0.0141170
753.137	0.0141532
753.215	0.0142191
753.293	0.0141505
753.371	0.0140556
753.450	0.0141761
753.528	0.0141808
753.606	0.0142426
753.684	0.0140622
753.762	0.0140175
753.840	0.0141265
753.918	0.0139905
753.996	0.0140185
754.075	0.0138361
754.153	0.0139714
754.231	0.0140828
754.309	0.0140208
754.387	0.0140426
754.465	0.0139871
754.543	0.0141225
754.621	0.0139974
754.700	0.0142080
754.778	0.0141661
754.856	0.0141610
754.934	0.0141709
755.012	0.0140594
755.090	0.0141030
755.168	0.0142816
755.246	0.0140414
755.325	0.0140493
755.403	0.0139063
755.481	0.0141867
755.559	0.0140343
755.637	0.0141131
755.715	0.0140881
755.793	0.0139871
755.871	0.0139942
755.950	0.0140846
756.028	0.0138863
756.106	0.0139496
756.184	0.0141640
756.262	0.0140176
756.340	0.0140814
756.418	0.0140913
756.496	0.0141316
756.575	0.0139670
756.653	0.0139925
756.731	0.0140782
756.809	0.0140162
756.887	0.0141173
756.965	0.0140120
757.043	0.0140933
757.121	0.0139883
757.200	0.0140488
757.278	0.0140301
757.356	0.0139722
757.434	0.0141401
757.512	0.0141201
757.590	0.0140563
757.668	0.0141869
757.746	0.0142523
757.825	0.0142172
757.903	0.0142442
757.981	0.0141331
758.059	0.0142241
758.137	0.0143180
758.215	0.0141701
758.293	0.0142205
758.371	0.0143831
758.450	0.0141430
758.528	0.0142513
758.606	0.0140873
758.684	0.0142091
758.762	0.0141045
758.840	0.0139745
758.918	0.0140932
758.996	0.0141005
759.075	0.0139567
759.153	0.0139994
759.231	0.0140625
759.309	0.0140341
759.387	0.0141043
759.465	0.0138585
759.543	0.0140919
759.621	0.0140369
759.700	0.0140714
759.778	0.0140447
759.856	0.0141108
759.934	0.0139285
760.012	0.0140025
760.090	0.0139488
760.168	0.0139102
760.246	0.0140353
760.325	0.0140792
760.403	0.0139615
760.481	0.0140765
760.559	0.0142089
760.637	0.0140353
760.715	0.0139171
760.793	0.0140572
760.871	0.0140237
760.950	0.0141332
761.028	0.0140565
761.106	0.0142033
761.184	0.0141068
761.262	0.0141041
761.340	0.0140878
761.418	0.0140057
761.496	0.0139875
761.575	0.0139143
761.653	0.0139833
761.731	0.0139890
761.809	0.0139031
761.887	0.0140730
761.965	0.0141090
762.043	0.0140617
762.121	0.0140132
762.200	0.0141245
762.278	0.0139848
762.356	0.0140878
762.434	0.0140858
762.512	0.0142536
762.590	0.0141627
762.668	0.0142654
762.746	0.0141327
762.825	0.0141699
762.903	0.0142582
762.981	0.0142763
763.059	0.0141949
763.137	0.0140872
763.215	0.0140657
763.293	0.0142864
763.371	0.0142130
763.450	0.0141617
763.528	0.0142184
763.606	0.0141576
763.684	0.0141840
763.762	0.0142074
763.840	0.0140726
763.918	0.0140701
763.996	0.0141387
764.075	0.0142826
764.153	0.0141448
764.231	0.0141405
764.309	0.0141273
764.387	0.0143065
764.465	0.0140991
764.543	0.0141193
764.621	0.0141238
764.700	0.0141792
