05/04/2022	21:27:58	Ver.	4.1	UNKNOWN
Optical Delay	678.996401	Delta X		0.078125	Sweeps	1	Scan Rate	0/0
Coordinates	Axis 1	NaN	Axis 2	NaN	Axis 3	NaN	Axis 4	NaN	Axis 5	NaN	Axis 6	0.000000
TX Power	0.000000	RX Power	0.000000

678.996	0.0148665
679.075	0.0149078
679.153	0.0149318
679.231	0.0150095
679.309	0.0149209
679.387	0.0149477
679.465	0.0148833
679.543	0.0149035
679.621	0.0148672
679.700	0.0149229
679.778	0.0149469
679.856	0.0149637
679.934	0.0149548
680.012	0.0148160
680.090	0.0150008
680.168	0.0150222
680.246	0.0151156
680.325	0.0148927
680.403	0.0148525
680.481	0.0149924
680.559	0.0148885
680.637	0.0148115
680.715	0.0148598
680.793	0.0149558
680.871	0.0148371
680.950	0.0148445
681.028	0.0149054
681.106	0.0149603
681.184	0.0149283
681.262	0.0147902
681.340	0.0148767
681.418	0.0147766
681.496	0.0149818
681.575	0.0148774
681.653	0.0148174
681.731	0.0147503
681.809	0.0148518
681.887	0.0148732
681.965	0.0147330
682.043	0.0149136
682.121	0.0149235
682.200	0.0149337
682.278	0.0149129
682.356	0.0147984
682.434	0.0148306
682.512	0.0149237
682.590	0.0148692
682.668	0.0148012
682.746	0.0149049
682.825	0.0149187
682.903	0.0150367
682.981	0.0149249
683.059	0.0149344
683.137	0.0149948
683.215	0.0149821
683.293	0.0148280
683.371	0.0149638
683.450	0.0147430
683.528	0.0149159
683.606	0.0150249
683.684	0.0147948
683.762	0.0148591
683.840	0.0147062
683.918	0.0147543
683.996	0.0147156
684.075	0.0147196
684.153	0.0147988
684.231	0.0148379
684.309	0.0148556
684.387	0.0148363
684.465	0.0148312
684.543	0.0147817
684.621	0.0149264
684.700	0.0150236
684.778	0.0149593
684.856	0.0149333
684.934	0.0149688
685.012	0.0150077
685.090	0.0148705
685.168	0.0148228
685.246	0.0148253
685.325	0.0148183
685.403	0.0148518
685.481	0.0148190
685.559	0.0147005
685.637	0.0147077
685.715	0.0146646
685.793	0.0147916
685.871	0.0148676
685.950	0.0147742
686.028	0.0147717
686.106	0.0147707
686.184	0.0148739
686.262	0.0149027
686.340	0.0149158
686.418	0.0148887
686.496	0.0149544
686.575	0.0149338
686.653	0.0150780
686.731	0.0149690
686.809	0.0150012
686.887	0.0150529
686.965	0.0149243
687.043	0.0149281
687.121	0.0148052
687.200	0.0148125
687.278	0.0147794
687.356	0.0147095
687.434	0.0147346
687.512	0.0145743
687.590	0.0145796
687.668	0.0145764
687.746	0.0146204
687.825	0.0147631
687.903	0.0145554
687.981	0.0146886
688.059	0.0147762
688.137	0.0146436
688.215	0.0148103
688.293	0.0148563
688.371	0.0147136
688.450	0.0148431
688.528	0.0149171
688.606	0.0150304
688.684	0.0149036
688.762	0.0149072
688.840	0.0151418
688.918	0.0150613
688.996	0.0149838
689.075	0.0149479
689.153	0.0148112
689.231	0.0148039
689.309	0.0148505
689.387	0.0147362
689.465	0.0147452
689.543	0.0147330
689.621	0.0146701
689.700	0.0145837
689.778	0.0145238
689.856	0.0146064
689.934	0.0143452
690.012	0.0144061
690.090	0.0143604
690.168	0.0144908
690.246	0.0144810
690.325	0.0145250
690.403	0.0148585
690.481	0.0149390
690.559	0.0148988
690.637	0.0150617
690.715	0.0151328
690.793	0.0151830
690.871	0.0151367
690.950	0.0152508
691.028	0.0152876
691.106	0.0152699
691.184	0.0153202
691.262	0.0152670
691.340	0.0150183
691.418	0.0149284
691.496	0.0150632
691.575	0.0149969
691.653	0.0148789
691.731	0.0146567
691.809	0.0146326
691.887	0.0145551
691.965	0.0144363
692.043	0.0143053
692.121	0.0142589
692.200	0.0143704
692.278	0.0140668
692.356	0.0143517
692.434	0.0143085
692.512	0.0143710
692.590	0.0143601
692.668	0.0143769
692.746	0.0143910
692.825	0.0146075
692.903	0.0146928
692.981	0.0148758
693.059	0.0149638
693.137	0.0152167
693.215	0.0152832
693.293	0.0154244
693.371	0.0156480
693.450	0.0156809
693.528	0.0156958
693.606	0.0156696
693.684	0.0157286
693.762	0.0156854
693.840	0.0155054
693.918	0.0151984
693.996	0.0149030
694.075	0.0147705
694.153	0.0146158
694.231	0.0143072
694.309	0.0141615
694.387	0.0141785
694.465	0.0140326
694.543	0.0140839
694.621	0.0142455
694.700	0.0141203
694.778	0.0144508
694.856	0.0144540
694.934	0.0144451
695.012	0.0143916
695.090	0.0144881
695.168	0.0146534
695.246	0.0146751
695.325	0.0145952
695.403	0.0147223
695.481	0.0147722
695.559	0.0148067
695.637	0.0149745
695.715	0.0151671
695.793	0.0151238
695.871	0.0152459
695.950	0.0155364
696.028	0.0156012
696.106	0.0156139
696.184	0.0155226
696.262	0.0155551
696.340	0.0154017
696.418	0.0153227
696.496	0.0153476
696.575	0.0152495
696.653	0.0150364
696.731	0.0149628
696.809	0.0147699
696.887	0.0146727
696.965	0.0143289
697.043	0.0142599
697.121	0.0140177
697.200	0.0140128
697.278	0.0139497
697.356	0.0141296
697.434	0.0141164
697.512	0.0143920
697.590	0.0146213
697.668	0.0146172
697.746	0.0148477
697.825	0.0151111
697.903	0.0152178
697.981	0.0151770
698.059	0.0153314
698.137	0.0152626
698.215	0.0151723
698.293	0.0151380
698.371	0.0151634
698.450	0.0149505
698.528	0.0149419
698.606	0.0149529
698.684	0.0151044
698.762	0.0150555
698.840	0.0150105
698.918	0.0151598
698.996	0.0151637
699.075	0.0152977
699.153	0.0150922
699.231	0.0151276
699.309	0.0148367
699.387	0.0150172
699.465	0.0148004
699.543	0.0145721
699.621	0.0146419
699.700	0.0145492
699.778	0.0144720
699.856	0.0144286
699.934	0.0145216
700.012	0.0144611
700.090	0.0144689
700.168	0.0144646
700.246	0.0144501
700.325	0.0146808
700.403	0.0145542
700.481	0.0146548
700.559	0.0149117
700.637	0.0149094
700.715	0.0151122
700.793	0.0152240
700.871	0.0153331
700.950	0.0152570
701.028	0.0155325
701.106	0.0154823
701.184	0.0156337
701.262	0.0153162
701.340	0.0152703
701.418	0.0151889
701.496	0.0150436
701.575	0.0149711
701.653	0.0148777
701.731	0.0146932
701.809	0.0148811
701.887	0.0149113
701.965	0.0148179
702.043	0.0147236
702.121	0.0147762
702.200	0.0145875
702.278	0.0145909
702.356	0.0146508
702.434	0.0146830
702.512	0.0147124
702.590	0.0146291
702.668	0.0147134
702.746	0.0145427
702.825	0.0147231
702.903	0.0149397
702.981	0.0150334
703.059	0.0150141
703.137	0.0152662
703.215	0.0151566
703.293	0.0153333
703.371	0.0154400
703.450	0.0153982
703.528	0.0152081
703.606	0.0151420
703.684	0.0149974
703.762	0.0150534
703.840	0.0149333
703.918	0.0149434
703.996	0.0151214
704.075	0.0149939
704.153	0.0149751
704.231	0.0151537
704.309	0.0150591
704.387	0.0149502
704.465	0.0150014
704.543	0.0149603
704.621	0.0148441
704.700	0.0149590
704.778	0.0148308
704.856	0.0145898
704.934	0.0145300
705.012	0.0144681
705.090	0.0143375
705.168	0.0144559
705.246	0.0145096
705.325	0.0145407
705.403	0.0145597
705.481	0.0145867
705.559	0.0146432
705.637	0.0148218
705.715	0.0148653
705.793	0.0149149
705.871	0.0149239
705.950	0.0151487
706.028	0.0151729
706.106	0.0152399
706.184	0.0152418
706.262	0.0152449
706.340	0.0153004
706.418	0.0152383
706.496	0.0152242
706.575	0.0151741
706.653	0.0150678
706.731	0.0152248
706.809	0.0149073
706.887	0.0146377
706.965	0.0148797
707.043	0.0148839
707.121	0.0145572
707.200	0.0144205
707.278	0.0144754
707.356	0.0145391
707.434	0.0146216
707.512	0.0147551
707.590	0.0147377
707.668	0.0146873
707.746	0.0147384
707.825	0.0147873
707.903	0.0149323
707.981	0.0149075
708.059	0.0150037
708.137	0.0151424
708.215	0.0151891
708.293	0.0150465
708.371	0.0150877
708.450	0.0149725
708.528	0.0148763
708.606	0.0145863
708.684	0.0147115
708.762	0.0146193
708.840	0.0143824
708.918	0.0144685
708.996	0.0146214
709.075	0.0145425
709.153	0.0145415
709.231	0.0146665
709.309	0.0147935
709.387	0.0148397
709.465	0.0148260
709.543	0.0150201
709.621	0.0150983
709.700	0.0150793
709.778	0.0151306
709.856	0.0150864
709.934	0.0150954
710.012	0.0151401
710.090	0.0150905
710.168	0.0150521
710.246	0.0149050
710.325	0.0149450
710.403	0.0149258
710.481	0.0149595
710.559	0.0149200
710.637	0.0150302
710.715	0.0148611
710.793	0.0147816
710.871	0.0148431
710.950	0.0147561
711.028	0.0146893
711.106	0.0144225
711.184	0.0144376
711.262	0.0143680
711.340	0.0144570
711.418	0.0144505
711.496	0.0143093
711.575	0.0142225
711.653	0.0144707
711.731	0.0146157
711.809	0.0147775
711.887	0.0146230
711.965	0.0146490
712.043	0.0148772
712.121	0.0149734
712.200	0.0150330
712.278	0.0150465
712.356	0.0151225
712.434	0.0152151
712.512	0.0152312
712.590	0.0152430
712.668	0.0153928
712.746	0.0153399
712.825	0.0152189
712.903	0.0151116
712.981	0.0149487
713.059	0.0149519
713.137	0.0147545
713.215	0.0147911
713.293	0.0146622
713.371	0.0144978
713.450	0.0144984
713.528	0.0143666
713.606	0.0142987
713.684	0.0144176
713.762	0.0144609
713.840	0.0143106
713.918	0.0143837
713.996	0.0145442
714.075	0.0145929
714.153	0.0147803
714.231	0.0148340
714.309	0.0150501
714.387	0.0150797
714.465	0.0150285
714.543	0.0151311
714.621	0.0151585
714.700	0.0151260
714.778	0.0151159
714.856	0.0151540
714.934	0.0151466
715.012	0.0151232
715.090	0.0150803
715.168	0.0152048
715.246	0.0150541
715.325	0.0150040
715.403	0.0150040
715.481	0.0149203
715.559	0.0147936
715.637	0.0148571
715.715	0.0147707
715.793	0.0147546
715.871	0.0147002
715.950	0.0146086
716.028	0.0146020
716.106	0.0146379
716.184	0.0145792
716.262	0.0147389
716.340	0.0146368
716.418	0.0146318
716.496	0.0147675
716.575	0.0145916
716.653	0.0146432
716.731	0.0147343
716.809	0.0148404
716.887	0.0149478
716.965	0.0150260
717.043	0.0151821
717.121	0.0151478
717.200	0.0152177
717.278	0.0151487
717.356	0.0151221
717.434	0.0150687
717.512	0.0150790
717.590	0.0151056
717.668	0.0151410
717.746	0.0151886
717.825	0.0150574
717.903	0.0150903
717.981	0.0149474
718.059	0.0150089
718.137	0.0147847
718.215	0.0148781
718.293	0.0147128
718.371	0.0144696
718.450	0.0144494
718.528	0.0143878
718.606	0.0143116
718.684	0.0141465
718.762	0.0142652
718.840	0.0143468
718.918	0.0143620
718.996	0.0144183
719.075	0.0145480
719.153	0.0148256
719.231	0.0148280
719.309	0.0149609
719.387	0.0149034
719.465	0.0150707
719.543	0.0152283
719.621	0.0152930
719.700	0.0152903
719.778	0.0152660
719.856	0.0151875
719.934	0.0151321
720.012	0.0152206
720.090	0.0151933
720.168	0.0151274
720.246	0.0150345
720.325	0.0149970
720.403	0.0149949
720.481	0.0149800
720.559	0.0149477
720.637	0.0147982
720.715	0.0148178
720.793	0.0148723
720.871	0.0147807
720.950	0.0148821
721.028	0.0147151
721.106	0.0147729
721.184	0.0146945
721.262	0.0147610
721.340	0.0145498
721.418	0.0145856
721.496	0.0146526
721.575	0.0145629
721.653	0.0144449
721.731	0.0145583
721.809	0.0146387
721.887	0.0146759
721.965	0.0148478
722.043	0.0149042
722.121	0.0150364
722.200	0.0150758
722.278	0.0151383
722.356	0.0152313
722.434	0.0152171
722.512	0.0151445
722.590	0.0150856
722.668	0.0151117
722.746	0.0151286
722.825	0.0149780
722.903	0.0149038
722.981	0.0147807
723.059	0.0148894
723.137	0.0148787
723.215	0.0149077
723.293	0.0148580
723.371	0.0147495
723.450	0.0147626
723.528	0.0149860
723.606	0.0150436
723.684	0.0149074
723.762	0.0148513
723.840	0.0148083
723.918	0.0149277
723.996	0.0149218
724.075	0.0148576
724.153	0.0148138
724.231	0.0147153
724.309	0.0146568
724.387	0.0146985
724.465	0.0146879
724.543	0.0147321
724.621	0.0147321
724.700	0.0148969
724.778	0.0148105
724.856	0.0146550
724.934	0.0149277
725.012	0.0150277
725.090	0.0151527
725.168	0.0151611
725.246	0.0150806
725.325	0.0150752
725.403	0.0150179
725.481	0.0149561
725.559	0.0148621
725.637	0.0149152
725.715	0.0148194
725.793	0.0147336
725.871	0.0145988
725.950	0.0146231
726.028	0.0145338
726.106	0.0147033
726.184	0.0146607
726.262	0.0144923
726.340	0.0146614
726.418	0.0147173
726.496	0.0147443
726.575	0.0146596
726.653	0.0147974
726.731	0.0150392
726.809	0.0150297
726.887	0.0149951
726.965	0.0151920
727.043	0.0151649
727.121	0.0150264
727.200	0.0150624
727.278	0.0151024
727.356	0.0150916
727.434	0.0150082
727.512	0.0151199
727.590	0.0150432
727.668	0.0149784
727.746	0.0150189
727.825	0.0149880
727.903	0.0148528
727.981	0.0149295
728.059	0.0147533
728.137	0.0147962
728.215	0.0147356
728.293	0.0145440
728.371	0.0146358
728.450	0.0147337
728.528	0.0146178
728.606	0.0145245
728.684	0.0146526
728.762	0.0146413
728.840	0.0146577
728.918	0.0146567
728.996	0.0145705
729.075	0.0147073
729.153	0.0148065
729.231	0.0148717
729.309	0.0148921
729.387	0.0149901
729.465	0.0149677
729.543	0.0148637
729.621	0.0149497
729.700	0.0150813
729.778	0.0150287
729.856	0.0151118
729.934	0.0151647
730.012	0.0151654
730.090	0.0151529
730.168	0.0150380
730.246	0.0150082
730.325	0.0150578
730.403	0.0150038
730.481	0.0150137
730.559	0.0148930
730.637	0.0148380
730.715	0.0147343
730.793	0.0146957
730.871	0.0148293
730.950	0.0146582
731.028	0.0147100
731.106	0.0146232
731.184	0.0145966
731.262	0.0145943
731.340	0.0147591
731.418	0.0147066
731.496	0.0146484
731.575	0.0148295
731.653	0.0149767
731.731	0.0149706
731.809	0.0150319
731.887	0.0149147
731.965	0.0150651
732.043	0.0151445
732.121	0.0150539
732.200	0.0149573
732.278	0.0151427
732.356	0.0150971
732.434	0.0151175
732.512	0.0151147
732.590	0.0150570
732.668	0.0149229
732.746	0.0149229
732.825	0.0148554
732.903	0.0147883
732.981	0.0147522
733.059	0.0147039
733.137	0.0144836
733.215	0.0145789
733.293	0.0145605
733.371	0.0144905
733.450	0.0144519
733.528	0.0144495
733.606	0.0144047
733.684	0.0144185
733.762	0.0144532
733.840	0.0146103
733.918	0.0146035
733.996	0.0146212
734.075	0.0147931
734.153	0.0147056
734.231	0.0150211
734.309	0.0150445
734.387	0.0150208
734.465	0.0150187
734.543	0.0150124
734.621	0.0152518
734.700	0.0153036
734.778	0.0152975
734.856	0.0152277
734.934	0.0151714
735.012	0.0152194
735.090	0.0151929
735.168	0.0150500
735.246	0.0149681
735.325	0.0149247
735.403	0.0148700
735.481	0.0147623
735.559	0.0147520
735.637	0.0146007
735.715	0.0145892
735.793	0.0144982
735.871	0.0145332
735.950	0.0145694
736.028	0.0144828
736.106	0.0144038
736.184	0.0144820
736.262	0.0144997
736.340	0.0145789
736.418	0.0146736
736.496	0.0145939
736.575	0.0145963
736.653	0.0147007
736.731	0.0148545
736.809	0.0149129
736.887	0.0149221
736.965	0.0149813
737.043	0.0147646
737.121	0.0150340
737.200	0.0149849
737.278	0.0149649
737.356	0.0149937
737.434	0.0148836
737.512	0.0149904
737.590	0.0150404
737.668	0.0149305
737.746	0.0150544
737.825	0.0148499
737.903	0.0148435
737.981	0.0149693
738.059	0.0147594
738.137	0.0146575
738.215	0.0149106
738.293	0.0147621
738.371	0.0147626
738.450	0.0147849
738.528	0.0147467
738.606	0.0146301
738.684	0.0147831
738.762	0.0148845
738.840	0.0147496
738.918	0.0148437
738.996	0.0148513
739.075	0.0148531
739.153	0.0149555
739.231	0.0149397
739.309	0.0149294
739.387	0.0151276
739.465	0.0151447
739.543	0.0151179
739.621	0.0151897
739.700	0.0150617
739.778	0.0150095
739.856	0.0150779
739.934	0.0150438
740.012	0.0150072
740.090	0.0149593
740.168	0.0147799
740.246	0.0148585
740.325	0.0149228
740.403	0.0147786
740.481	0.0147577
740.559	0.0147753
740.637	0.0146794
740.715	0.0146377
740.793	0.0147025
740.871	0.0145934
740.950	0.0147038
741.028	0.0147206
741.106	0.0148104
741.184	0.0147482
741.262	0.0149583
741.340	0.0146749
741.418	0.0148155
741.496	0.0148981
741.575	0.0149565
741.653	0.0150750
741.731	0.0149541
741.809	0.0148319
741.887	0.0149224
741.965	0.0151005
742.043	0.0151716
742.121	0.0150819
742.200	0.0151268
742.278	0.0149811
742.356	0.0149460
742.434	0.0150190
742.512	0.0148927
742.590	0.0149232
742.668	0.0150336
742.746	0.0149203
742.825	0.0148753
742.903	0.0149163
742.981	0.0148087
743.059	0.0147739
743.137	0.0148141
743.215	0.0148270
743.293	0.0147984
743.371	0.0147889
743.450	0.0148299
743.528	0.0148576
743.606	0.0149249
743.684	0.0147756
743.762	0.0148760
743.840	0.0149375
743.918	0.0150552
743.996	0.0149654
744.075	0.0149367
744.153	0.0149483
744.231	0.0150346
744.309	0.0151719
744.387	0.0149683
744.465	0.0150619
744.543	0.0149543
744.621	0.0150609
744.700	0.0148399
744.778	0.0149323
744.856	0.0150092
744.934	0.0149834
745.012	0.0148881
745.090	0.0149344
745.168	0.0148565
745.246	0.0148411
745.325	0.0149118
745.403	0.0149223
745.481	0.0149140
745.559	0.0148620
745.637	0.0148208
745.715	0.0147671
745.793	0.0148879
745.871	0.0148599
745.950	0.0150182
746.028	0.0149223
746.106	0.0147981
746.184	0.0148298
746.262	0.0148901
746.340	0.0149242
746.418	0.0149408
746.496	0.0148273
746.575	0.0150085
746.653	0.0149913
746.731	0.0149818
746.809	0.0149245
746.887	0.0149809
746.965	0.0151391
747.043	0.0150494
747.121	0.0150613
747.200	0.0151340
747.278	0.0149875
747.356	0.0151046
747.434	0.0150247
747.512	0.0149380
747.590	0.0150416
747.668	0.0150177
747.746	0.0150556
747.825	0.0150022
747.903	0.0149146
747.981	0.0150255
748.059	0.0147716
748.137	0.0149998
748.215	0.0149826
748.293	0.0148907
748.371	0.0148576
748.450	0.0149939
748.528	0.0148009
748.606	0.0150278
748.684	0.0150119
748.762	0.0149381
748.840	0.0150326
748.918	0.0149511
748.996	0.0149590
749.075	0.0148982
749.153	0.0148664
749.231	0.0149218
749.309	0.0149655
749.387	0.0149211
749.465	0.0149538
749.543	0.0149799
749.621	0.0148311
749.700	0.0149850
749.778	0.0148114
749.856	0.0147161
749.934	0.0149128
750.012	0.0148939
750.090	0.0148878
750.168	0.0149642
750.246	0.0147952
750.325	0.0148506
750.403	0.0148400
750.481	0.0149039
750.559	0.0148280
750.637	0.0148203
750.715	0.0147788
750.793	0.0148225
750.871	0.0148328
750.950	0.0148270
751.028	0.0148719
751.106	0.0148871
751.184	0.0147823
751.262	0.0149483
751.340	0.0148645
751.418	0.0148815
751.496	0.0149622
751.575	0.0150684
751.653	0.0148647
751.731	0.0149470
751.809	0.0149048
751.887	0.0150171
751.965	0.0148866
752.043	0.0147928
752.121	0.0148220
752.200	0.0148924
752.278	0.0148607
752.356	0.0147569
752.434	0.0148175
752.512	0.0149022
752.590	0.0149068
752.668	0.0147664
752.746	0.0146847
752.825	0.0148804
752.903	0.0149054
752.981	0.0149057
753.059	0.0147628
753.137	0.0148300
753.215	0.0147873
753.293	0.0148383
753.371	0.0148027
753.450	0.0147897
753.528	0.0147767
753.606	0.0148737
753.684	0.0147395
753.762	0.0147496
753.840	0.0147389
753.918	0.0146978
753.996	0.0147336
754.075	0.0146503
754.153	0.0148327
754.231	0.0147952
754.309	0.0148579
754.387	0.0146156
754.465	0.0146519
754.543	0.0147480
754.621	0.0147758
754.700	0.0148634
754.778	0.0147700
754.856	0.0147752
754.934	0.0148048
755.012	0.0148790
755.090	0.0150823
755.168	0.0149896
755.246	0.0149287
755.325	0.0149600
755.403	0.0148585
755.481	0.0147603
755.559	0.0150357
755.637	0.0150081
755.715	0.0149158
755.793	0.0147909
755.871	0.0148600
755.950	0.0148927
756.028	0.0147825
756.106	0.0149467
756.184	0.0148368
756.262	0.0148985
756.340	0.0148122
756.418	0.0148505
756.496	0.0146703
756.575	0.0146523
756.653	0.0148718
756.731	0.0146727
756.809	0.0148311
756.887	0.0147501
756.965	0.0147058
757.043	0.0148360
757.121	0.0148534
757.200	0.0146390
757.278	0.0147377
757.356	0.0148288
757.434	0.0147810
757.512	0.0148373
757.590	0.0148286
757.668	0.0148875
757.746	0.0147635
757.825	0.0147179
757.903	0.0148334
757.981	0.0149071
758.059	0.0148077
758.137	0.0148215
758.215	0.0148330
758.293	0.0148071
758.371	0.0147759
758.450	0.0147281
758.528	0.0146709
758.606	0.0146433
758.684	0.0147974
758.762	0.0147753
758.840	0.0147226
758.918	0.0147015
758.996	0.0148065
759.075	0.0148205
759.153	0.0146217
759.231	0.0146710
759.309	0.0148846
759.387	0.0148591
759.465	0.0147794
759.543	0.0148802
759.621	0.0148799
759.700	0.0148360
759.778	0.0148059
759.856	0.0148934
759.934	0.0149184
760.012	0.0146651
760.090	0.0148512
760.168	0.0148108
760.246	0.0148599
760.325	0.0148667
760.403	0.0148005
760.481	0.0148439
760.559	0.0147704
760.637	0.0149670
760.715	0.0148256
760.793	0.0148814
760.871	0.0148513
760.950	0.0146522
761.028	0.0148424
761.106	0.0147385
761.184	0.0147384
761.262	0.0146973
761.340	0.0146581
761.418	0.0146343
761.496	0.0147562
761.575	0.0148321
761.653	0.0146967
761.731	0.0149046
761.809	0.0147580
761.887	0.0147137
761.965	0.0148217
762.043	0.0148569
762.121	0.0149487
762.200	0.0148104
762.278	0.0147310
762.356	0.0147405
762.434	0.0148595
762.512	0.0148718
762.590	0.0149185
762.668	0.0147487
762.746	0.0148320
762.825	0.0149492
762.903	0.0148858
762.981	0.0148769
763.059	0.0147728
763.137	0.0147142
763.215	0.0147746
763.293	0.0148780
763.371	0.0149379
763.450	0.0149288
763.528	0.0148651
763.606	0.0148505
763.684	0.0148420
763.762	0.0148969
763.840	0.0148209
763.918	0.0149756
763.996	0.0148412
764.075	0.0148827
764.153	0.0149240
764.231	0.0149714
764.309	0.0147607
764.387	0.0149286
764.465	0.0149076
764.543	0.0149363
764.621	0.0148917
764.700	0.0148686
