05/04/2022	21:28:23	Ver.	4.1	UNKNOWN
Optical Delay	678.996401	Delta X		0.078125	Sweeps	1	Scan Rate	0/0
Coordinates	Axis 1	NaN	Axis 2	NaN	Axis 3	NaN	Axis 4	NaN	Axis 5	NaN	Axis 6	0.000000
TX Power	0.000000	RX Power	0.000000

678.996	0.0147730
679.075	0.0147519
679.153	0.0147020
679.231	0.0147337
679.309	0.0146960
679.387	0.0147943
679.465	0.0146938
679.543	0.0147360
679.621	0.0147983
679.700	0.0145745
679.778	0.0146988
679.856	0.0146012
679.934	0.0146825
680.012	0.0147440
680.090	0.0147662
680.168	0.0146238
680.246	0.0147382
680.325	0.0147494
680.403	0.0147465
680.481	0.0146410
680.559	0.0146033
680.637	0.0146548
680.715	0.0146929
680.793	0.0148135
680.871	0.0147346
680.950	0.0146463
681.028	0.0147710
681.106	0.0146402
681.184	0.0146187
681.262	0.0147196
681.340	0.0147560
681.418	0.0146541
681.496	0.0145956
681.575	0.0145551
681.653	0.0145805
681.731	0.0146572
681.809	0.0146233
681.887	0.0147901
681.965	0.0147206
682.043	0.0146911
682.121	0.0148433
682.200	0.0147526
682.278	0.0146313
682.356	0.0145698
682.434	0.0146922
682.512	0.0147560
682.590	0.0147294
682.668	0.0147325
682.746	0.0146043
682.825	0.0146927
682.903	0.0145818
682.981	0.0146999
683.059	0.0147243
683.137	0.0146616
683.215	0.0145544
683.293	0.0145811
683.371	0.0145336
683.450	0.0147996
683.528	0.0146289
683.606	0.0147836
683.684	0.0148946
683.762	0.0147984
683.840	0.0147535
683.918	0.0148267
683.996	0.0146848
684.075	0.0146790
684.153	0.0147782
684.231	0.0147135
684.309	0.0146623
684.387	0.0147176
684.465	0.0148138
684.543	0.0147186
684.621	0.0146832
684.700	0.0146684
684.778	0.0146873
684.856	0.0146827
684.934	0.0147718
685.012	0.0146187
685.090	0.0145679
685.168	0.0147253
685.246	0.0146284
685.325	0.0146289
685.403	0.0146118
685.481	0.0145403
685.559	0.0146677
685.637	0.0146765
685.715	0.0147978
685.793	0.0145412
685.871	0.0146328
685.950	0.0147924
686.028	0.0147182
686.106	0.0149527
686.184	0.0149940
686.262	0.0148764
686.340	0.0148471
686.418	0.0149747
686.496	0.0149338
686.575	0.0149198
686.653	0.0147636
686.731	0.0147171
686.809	0.0147050
686.887	0.0147744
686.965	0.0148167
687.043	0.0146561
687.121	0.0145548
687.200	0.0145944
687.278	0.0145416
687.356	0.0144855
687.434	0.0145435
687.512	0.0145567
687.590	0.0144521
687.668	0.0145459
687.746	0.0144800
687.825	0.0146740
687.903	0.0147203
687.981	0.0147809
688.059	0.0147522
688.137	0.0146938
688.215	0.0147501
688.293	0.0148095
688.371	0.0147905
688.450	0.0148898
688.528	0.0148878
688.606	0.0149311
688.684	0.0148875
688.762	0.0148903
688.840	0.0149099
688.918	0.0148762
688.996	0.0150549
689.075	0.0148504
689.153	0.0146652
689.231	0.0148040
689.309	0.0147285
689.387	0.0147436
689.465	0.0145351
689.543	0.0144998
689.621	0.0146097
689.700	0.0145522
689.778	0.0144430
689.856	0.0142834
689.934	0.0142073
690.012	0.0144070
690.090	0.0142950
690.168	0.0143343
690.246	0.0143233
690.325	0.0145427
690.403	0.0145451
690.481	0.0149679
690.559	0.0151054
690.637	0.0150508
690.715	0.0152659
690.793	0.0152106
690.871	0.0153156
690.950	0.0152241
691.028	0.0153043
691.106	0.0152161
691.184	0.0152493
691.262	0.0152345
691.340	0.0150368
691.418	0.0149653
691.496	0.0150311
691.575	0.0148997
691.653	0.0146191
691.731	0.0144868
691.809	0.0145033
691.887	0.0144386
691.965	0.0143037
692.043	0.0141767
692.121	0.0141768
692.200	0.0142335
692.278	0.0141652
692.356	0.0141348
692.434	0.0141302
692.512	0.0142852
692.590	0.0144501
692.668	0.0143714
692.746	0.0145632
692.825	0.0147514
692.903	0.0148319
692.981	0.0148984
693.059	0.0149362
693.137	0.0152244
693.215	0.0152796
693.293	0.0154646
693.371	0.0155022
693.450	0.0157526
693.528	0.0156740
693.606	0.0157204
693.684	0.0157145
693.762	0.0156091
693.840	0.0154959
693.918	0.0152702
693.996	0.0148106
694.075	0.0146284
694.153	0.0145352
694.231	0.0142336
694.309	0.0142668
694.387	0.0141405
694.465	0.0140734
694.543	0.0139877
694.621	0.0141434
694.700	0.0141991
694.778	0.0141745
694.856	0.0144388
694.934	0.0145345
695.012	0.0144763
695.090	0.0144392
695.168	0.0145721
695.246	0.0145383
695.325	0.0144246
695.403	0.0145448
695.481	0.0144655
695.559	0.0147540
695.637	0.0148264
695.715	0.0150635
695.793	0.0150160
695.871	0.0151488
695.950	0.0153157
696.028	0.0154749
696.106	0.0155479
696.184	0.0155718
696.262	0.0153507
696.340	0.0155100
696.418	0.0153880
696.496	0.0155054
696.575	0.0152743
696.653	0.0152408
696.731	0.0151626
696.809	0.0147940
696.887	0.0146906
696.965	0.0145708
697.043	0.0143915
697.121	0.0142861
697.200	0.0140866
697.278	0.0140039
697.356	0.0139570
697.434	0.0139837
697.512	0.0140308
697.590	0.0142106
697.668	0.0144141
697.746	0.0145541
697.825	0.0146413
697.903	0.0148054
697.981	0.0149746
698.059	0.0150914
698.137	0.0150256
698.215	0.0149371
698.293	0.0149480
698.371	0.0149678
698.450	0.0150948
698.528	0.0150027
698.606	0.0150122
698.684	0.0151237
698.762	0.0150993
698.840	0.0151023
698.918	0.0152993
698.996	0.0152805
699.075	0.0153298
699.153	0.0153723
699.231	0.0153751
699.309	0.0152960
699.387	0.0152229
699.465	0.0150346
699.543	0.0148946
699.621	0.0145831
699.700	0.0143895
699.778	0.0144628
699.856	0.0142223
699.934	0.0141865
700.012	0.0143176
700.090	0.0143095
700.168	0.0142493
700.246	0.0142364
700.325	0.0142905
700.403	0.0144020
700.481	0.0145424
700.559	0.0147156
700.637	0.0147770
700.715	0.0149085
700.793	0.0150583
700.871	0.0151118
700.950	0.0152757
701.028	0.0152428
701.106	0.0152600
701.184	0.0153298
701.262	0.0152321
701.340	0.0152563
701.418	0.0153417
701.496	0.0151347
701.575	0.0150730
701.653	0.0149441
701.731	0.0147982
701.809	0.0146951
701.887	0.0146353
701.965	0.0145485
702.043	0.0145383
702.121	0.0145906
702.200	0.0145409
702.278	0.0145105
702.356	0.0145651
702.434	0.0144703
702.512	0.0143971
702.590	0.0145304
702.668	0.0144976
702.746	0.0144987
702.825	0.0145228
702.903	0.0144848
702.981	0.0147947
703.059	0.0147713
703.137	0.0147340
703.215	0.0149705
703.293	0.0150485
703.371	0.0151331
703.450	0.0150418
703.528	0.0151300
703.606	0.0149888
703.684	0.0149462
703.762	0.0149728
703.840	0.0148923
703.918	0.0146194
703.996	0.0147465
704.075	0.0148453
704.153	0.0147047
704.231	0.0147279
704.309	0.0148409
704.387	0.0148820
704.465	0.0149373
704.543	0.0148412
704.621	0.0147469
704.700	0.0148243
704.778	0.0148164
704.856	0.0145289
704.934	0.0145318
705.012	0.0143812
705.090	0.0144866
705.168	0.0144321
705.246	0.0144666
705.325	0.0142872
705.403	0.0142777
705.481	0.0142844
705.559	0.0143624
705.637	0.0145277
705.715	0.0147063
705.793	0.0146156
705.871	0.0146175
705.950	0.0146332
706.028	0.0146262
706.106	0.0146706
706.184	0.0146573
706.262	0.0148322
706.340	0.0147273
706.418	0.0148997
706.496	0.0149560
706.575	0.0149741
706.653	0.0148914
706.731	0.0148844
706.809	0.0148289
706.887	0.0149338
706.965	0.0147861
707.043	0.0148172
707.121	0.0147344
707.200	0.0147113
707.278	0.0147292
707.356	0.0147610
707.434	0.0147977
707.512	0.0146550
707.590	0.0146436
707.668	0.0147507
707.746	0.0146864
707.825	0.0146069
707.903	0.0145509
707.981	0.0145201
708.059	0.0146737
708.137	0.0147794
708.215	0.0146346
708.293	0.0146703
708.371	0.0145828
708.450	0.0146495
708.528	0.0144169
708.606	0.0144672
708.684	0.0144161
708.762	0.0144527
708.840	0.0144543
708.918	0.0144071
708.996	0.0144368
709.075	0.0144568
709.153	0.0146178
709.231	0.0147874
709.309	0.0147580
709.387	0.0147937
709.465	0.0148944
709.543	0.0149933
709.621	0.0151585
709.700	0.0150027
709.778	0.0150259
709.856	0.0150194
709.934	0.0150224
710.012	0.0149370
710.090	0.0148586
710.168	0.0150428
710.246	0.0148654
710.325	0.0148064
710.403	0.0147897
710.481	0.0146730
710.559	0.0148677
710.637	0.0148270
710.715	0.0147945
710.793	0.0147259
710.871	0.0147003
710.950	0.0146787
711.028	0.0146063
711.106	0.0144476
711.184	0.0144821
711.262	0.0143185
711.340	0.0142255
711.418	0.0141563
711.496	0.0142599
711.575	0.0141656
711.653	0.0142195
711.731	0.0142390
711.809	0.0143196
711.887	0.0145016
711.965	0.0145330
712.043	0.0148043
712.121	0.0148295
712.200	0.0149297
712.278	0.0150748
712.356	0.0151707
712.434	0.0152293
712.512	0.0150835
712.590	0.0152953
712.668	0.0154066
712.746	0.0152345
712.825	0.0151447
712.903	0.0150080
712.981	0.0150041
713.059	0.0148783
713.137	0.0148402
713.215	0.0146100
713.293	0.0146407
713.371	0.0145237
713.450	0.0143394
713.528	0.0142924
713.606	0.0142952
713.684	0.0143292
713.762	0.0144524
713.840	0.0144621
713.918	0.0145512
713.996	0.0144937
714.075	0.0146181
714.153	0.0145922
714.231	0.0146091
714.309	0.0146573
714.387	0.0148380
714.465	0.0148724
714.543	0.0148277
714.621	0.0147559
714.700	0.0148759
714.778	0.0149711
714.856	0.0149496
714.934	0.0149860
715.012	0.0150758
715.090	0.0150554
715.168	0.0149792
715.246	0.0149906
715.325	0.0151092
715.403	0.0149971
715.481	0.0148683
715.559	0.0149254
715.637	0.0148776
715.715	0.0147551
715.793	0.0148254
715.871	0.0146257
715.950	0.0145795
716.028	0.0146084
716.106	0.0144161
716.184	0.0142918
716.262	0.0142875
716.340	0.0143813
716.418	0.0144497
716.496	0.0144786
716.575	0.0145882
716.653	0.0147616
716.731	0.0147197
716.809	0.0148289
716.887	0.0149857
716.965	0.0148406
717.043	0.0149820
717.121	0.0149939
717.200	0.0151432
717.278	0.0150115
717.356	0.0150527
717.434	0.0150883
717.512	0.0149712
717.590	0.0150539
717.668	0.0148270
717.746	0.0149674
717.825	0.0150348
717.903	0.0147910
717.981	0.0148550
718.059	0.0147472
718.137	0.0145897
718.215	0.0145901
718.293	0.0144811
718.371	0.0144971
718.450	0.0143958
718.528	0.0144376
718.606	0.0145211
718.684	0.0142924
718.762	0.0142759
718.840	0.0144290
718.918	0.0143775
718.996	0.0143619
719.075	0.0146213
719.153	0.0145976
719.231	0.0146860
719.309	0.0147780
719.387	0.0148736
719.465	0.0150495
719.543	0.0151155
719.621	0.0151369
719.700	0.0151863
719.778	0.0152656
719.856	0.0151501
719.934	0.0151228
720.012	0.0151510
720.090	0.0150748
720.168	0.0150287
720.246	0.0150052
720.325	0.0150162
720.403	0.0147860
720.481	0.0147772
720.559	0.0147405
720.637	0.0147459
720.715	0.0146236
720.793	0.0144733
720.871	0.0145179
720.950	0.0145180
721.028	0.0146255
721.106	0.0145256
721.184	0.0144347
721.262	0.0144730
721.340	0.0145200
721.418	0.0145414
721.496	0.0143819
721.575	0.0144862
721.653	0.0143866
721.731	0.0144580
721.809	0.0146206
721.887	0.0145696
721.965	0.0147086
722.043	0.0145817
722.121	0.0145940
722.200	0.0148498
722.278	0.0148353
722.356	0.0148981
722.434	0.0151009
722.512	0.0151970
722.590	0.0150188
722.668	0.0150185
722.746	0.0148679
722.825	0.0148671
722.903	0.0151393
722.981	0.0149471
723.059	0.0147758
723.137	0.0147314
723.215	0.0146276
723.293	0.0145361
723.371	0.0146387
723.450	0.0146395
723.528	0.0145043
723.606	0.0145470
723.684	0.0146959
723.762	0.0146559
723.840	0.0147256
723.918	0.0147098
723.996	0.0146418
724.075	0.0145334
724.153	0.0147241
724.231	0.0146821
724.309	0.0146655
724.387	0.0146956
724.465	0.0145419
724.543	0.0146930
724.621	0.0148316
724.700	0.0147572
724.778	0.0147846
724.856	0.0147949
724.934	0.0148586
725.012	0.0149744
725.090	0.0148886
725.168	0.0149594
725.246	0.0149763
725.325	0.0149044
725.403	0.0147945
725.481	0.0149487
725.559	0.0147066
725.637	0.0147698
725.715	0.0148172
725.793	0.0145559
725.871	0.0145246
725.950	0.0145078
726.028	0.0144091
726.106	0.0143683
726.184	0.0144314
726.262	0.0145630
726.340	0.0143947
726.418	0.0145171
726.496	0.0145071
726.575	0.0144688
726.653	0.0146078
726.731	0.0147829
726.809	0.0146031
726.887	0.0147215
726.965	0.0149335
727.043	0.0149019
727.121	0.0147784
727.200	0.0149130
727.278	0.0150971
727.356	0.0149931
727.434	0.0149715
727.512	0.0148862
727.590	0.0148281
727.668	0.0150053
727.746	0.0149101
727.825	0.0149294
727.903	0.0147858
727.981	0.0146938
728.059	0.0146293
728.137	0.0145911
728.215	0.0144699
728.293	0.0146486
728.371	0.0142834
728.450	0.0144493
728.528	0.0145222
728.606	0.0143647
728.684	0.0143968
728.762	0.0144919
728.840	0.0144610
728.918	0.0144914
728.996	0.0145291
729.075	0.0145287
729.153	0.0145876
729.231	0.0146552
729.309	0.0145821
729.387	0.0146537
729.465	0.0147945
729.543	0.0148798
729.621	0.0148551
729.700	0.0149302
729.778	0.0148566
729.856	0.0147667
729.934	0.0150418
730.012	0.0149220
730.090	0.0148326
730.168	0.0148559
730.246	0.0149000
730.325	0.0148853
730.403	0.0147829
730.481	0.0147459
730.559	0.0146949
730.637	0.0147311
730.715	0.0146748
730.793	0.0146133
730.871	0.0145452
730.950	0.0145187
731.028	0.0145567
731.106	0.0143804
731.184	0.0145246
731.262	0.0144182
731.340	0.0146350
731.418	0.0146434
731.496	0.0146222
731.575	0.0146028
731.653	0.0146957
731.731	0.0146918
731.809	0.0147338
731.887	0.0147096
731.965	0.0148695
732.043	0.0148969
732.121	0.0149234
732.200	0.0150000
732.278	0.0148913
732.356	0.0149286
732.434	0.0149398
732.512	0.0150471
732.590	0.0148503
732.668	0.0150098
732.746	0.0148445
732.825	0.0146265
732.903	0.0147143
732.981	0.0145788
733.059	0.0146107
733.137	0.0145359
733.215	0.0145869
733.293	0.0143194
733.371	0.0144790
733.450	0.0143966
733.528	0.0143424
733.606	0.0141984
733.684	0.0143938
733.762	0.0144070
733.840	0.0144021
733.918	0.0143026
733.996	0.0144940
734.075	0.0145954
734.153	0.0146473
734.231	0.0147873
734.309	0.0147112
734.387	0.0147717
734.465	0.0148605
734.543	0.0148833
734.621	0.0150063
734.700	0.0150309
734.778	0.0151390
734.856	0.0150880
734.934	0.0151451
735.012	0.0149683
735.090	0.0151221
735.168	0.0151048
735.246	0.0148711
735.325	0.0148640
735.403	0.0148077
735.481	0.0146760
735.559	0.0148051
735.637	0.0146294
735.715	0.0146275
735.793	0.0144363
735.871	0.0143526
735.950	0.0143846
736.028	0.0143288
736.106	0.0143260
736.184	0.0144611
736.262	0.0144354
736.340	0.0143012
736.418	0.0144025
736.496	0.0145564
736.575	0.0145666
736.653	0.0147044
736.731	0.0147418
736.809	0.0147778
736.887	0.0148614
736.965	0.0149315
737.043	0.0148335
737.121	0.0148854
737.200	0.0149224
737.278	0.0149331
737.356	0.0150597
737.434	0.0148802
737.512	0.0148656
737.590	0.0146753
737.668	0.0151309
737.746	0.0148981
737.825	0.0146526
737.903	0.0146108
737.981	0.0148766
738.059	0.0147935
738.137	0.0146589
738.215	0.0145290
738.293	0.0144515
738.371	0.0145788
738.450	0.0147475
738.528	0.0145766
738.606	0.0146883
738.684	0.0147243
738.762	0.0146310
738.840	0.0146959
738.918	0.0146189
738.996	0.0147663
739.075	0.0147692
739.153	0.0147432
739.231	0.0148141
739.309	0.0148528
739.387	0.0149252
739.465	0.0149493
739.543	0.0147495
739.621	0.0148788
739.700	0.0149323
739.778	0.0149622
739.856	0.0149726
739.934	0.0148532
740.012	0.0149548
740.090	0.0149069
740.168	0.0149848
740.246	0.0147619
740.325	0.0148325
740.403	0.0147071
740.481	0.0147548
740.559	0.0146242
740.637	0.0146645
740.715	0.0147136
740.793	0.0144677
740.871	0.0144914
740.950	0.0145107
741.028	0.0146204
741.106	0.0145826
741.184	0.0145766
741.262	0.0145998
741.340	0.0145064
741.418	0.0146464
741.496	0.0148051
741.575	0.0147858
741.653	0.0145802
741.731	0.0148441
741.809	0.0147850
741.887	0.0148336
741.965	0.0149680
742.043	0.0150446
742.121	0.0148858
742.200	0.0149511
742.278	0.0149347
742.356	0.0149081
742.434	0.0148844
742.512	0.0150608
742.590	0.0149703
742.668	0.0148814
742.746	0.0149027
742.825	0.0149451
742.903	0.0148404
742.981	0.0148112
743.059	0.0147580
743.137	0.0147312
743.215	0.0147851
743.293	0.0147060
743.371	0.0145658
743.450	0.0146358
743.528	0.0148521
743.606	0.0145994
743.684	0.0146060
743.762	0.0147413
743.840	0.0146980
743.918	0.0145750
743.996	0.0146544
744.075	0.0148367
744.153	0.0148145
744.231	0.0148405
744.309	0.0149381
744.387	0.0148615
744.465	0.0150385
744.543	0.0149264
744.621	0.0149375
744.700	0.0149767
744.778	0.0149067
744.856	0.0149535
744.934	0.0148787
745.012	0.0150285
745.090	0.0150642
745.168	0.0148333
745.246	0.0149938
745.325	0.0149129
745.403	0.0147082
745.481	0.0147020
745.559	0.0147186
745.637	0.0147036
745.715	0.0147070
745.793	0.0146606
745.871	0.0146084
745.950	0.0145885
746.028	0.0146635
746.106	0.0146764
746.184	0.0145277
746.262	0.0144862
746.340	0.0145509
746.418	0.0144803
746.496	0.0146203
746.575	0.0146779
746.653	0.0146250
746.731	0.0146582
746.809	0.0146877
746.887	0.0146529
746.965	0.0147661
747.043	0.0146626
747.121	0.0147466
747.200	0.0148029
747.278	0.0147204
747.356	0.0147488
747.434	0.0147762
747.512	0.0148282
747.590	0.0148241
747.668	0.0147399
747.746	0.0146356
747.825	0.0146175
747.903	0.0146616
747.981	0.0148365
748.059	0.0146606
748.137	0.0146899
748.215	0.0146478
748.293	0.0146725
748.371	0.0147247
748.450	0.0146974
748.528	0.0146586
748.606	0.0146758
748.684	0.0145538
748.762	0.0146884
748.840	0.0147164
748.918	0.0146832
748.996	0.0147137
749.075	0.0145071
749.153	0.0146145
749.231	0.0147218
749.309	0.0148119
749.387	0.0146820
749.465	0.0145924
749.543	0.0145360
749.621	0.0146804
749.700	0.0147473
749.778	0.0147480
749.856	0.0146968
749.934	0.0146472
750.012	0.0146883
750.090	0.0147098
750.168	0.0147971
750.246	0.0148544
750.325	0.0147471
750.403	0.0147913
750.481	0.0146227
750.559	0.0145861
750.637	0.0146812
750.715	0.0146397
750.793	0.0145806
750.871	0.0145458
750.950	0.0145443
751.028	0.0146852
751.106	0.0146164
751.184	0.0146348
751.262	0.0145847
751.340	0.0145774
751.418	0.0147665
751.496	0.0147863
751.575	0.0147582
751.653	0.0147955
751.731	0.0148048
751.809	0.0147237
751.887	0.0147279
751.965	0.0147697
752.043	0.0148348
752.121	0.0148582
752.200	0.0149979
752.278	0.0147836
752.356	0.0148814
752.434	0.0147383
752.512	0.0148682
752.590	0.0149036
752.668	0.0148627
752.746	0.0149331
752.825	0.0148322
752.903	0.0147157
752.981	0.0147679
753.059	0.0146906
753.137	0.0146710
753.215	0.0146608
753.293	0.0146735
753.371	0.0145715
753.450	0.0145010
753.528	0.0144739
753.606	0.0145509
753.684	0.0146312
753.762	0.0145096
753.840	0.0146500
753.918	0.0146032
753.996	0.0146548
754.075	0.0144906
754.153	0.0146012
754.231	0.0146422
754.309	0.0146642
754.387	0.0147031
754.465	0.0148313
754.543	0.0147316
754.621	0.0148180
754.700	0.0147196
754.778	0.0146777
754.856	0.0147173
754.934	0.0147183
755.012	0.0146301
755.090	0.0148364
755.168	0.0147185
755.246	0.0147932
755.325	0.0146750
755.403	0.0148428
755.481	0.0147445
755.559	0.0147385
755.637	0.0149075
755.715	0.0147584
755.793	0.0147854
755.871	0.0147400
755.950	0.0147514
756.028	0.0146786
756.106	0.0147546
756.184	0.0147633
756.262	0.0146919
756.340	0.0146672
756.418	0.0147576
756.496	0.0147807
756.575	0.0147058
756.653	0.0147124
756.731	0.0147256
756.809	0.0145406
756.887	0.0147536
756.965	0.0147046
757.043	0.0147321
757.121	0.0147518
757.200	0.0148724
757.278	0.0146683
757.356	0.0147459
757.434	0.0147569
757.512	0.0148344
757.590	0.0147743
757.668	0.0147615
757.746	0.0148418
757.825	0.0149075
757.903	0.0148038
757.981	0.0146367
758.059	0.0147298
758.137	0.0147512
758.215	0.0146912
758.293	0.0146012
758.371	0.0146759
758.450	0.0146918
758.528	0.0146700
758.606	0.0146845
758.684	0.0145781
758.762	0.0146585
758.840	0.0146999
758.918	0.0148454
758.996	0.0146477
759.075	0.0147124
759.153	0.0148493
759.231	0.0148430
759.309	0.0148031
759.387	0.0148783
759.465	0.0148813
759.543	0.0149978
759.621	0.0149105
759.700	0.0147844
759.778	0.0147066
759.856	0.0147548
759.934	0.0149297
760.012	0.0149357
760.090	0.0148422
760.168	0.0148441
760.246	0.0148414
760.325	0.0148209
760.403	0.0149022
760.481	0.0146867
760.559	0.0148305
760.637	0.0147301
760.715	0.0147108
760.793	0.0147330
760.871	0.0147662
760.950	0.0147047
761.028	0.0147684
761.106	0.0147887
761.184	0.0147334
761.262	0.0147459
761.340	0.0148624
761.418	0.0148300
761.496	0.0148680
761.575	0.0148191
761.653	0.0148798
761.731	0.0149444
761.809	0.0148342
761.887	0.0147843
761.965	0.0146543
762.043	0.0146950
762.121	0.0148421
762.200	0.0147076
762.278	0.0146122
762.356	0.0147085
762.434	0.0147794
762.512	0.0147134
762.590	0.0147337
762.668	0.0147110
762.746	0.0146806
762.825	0.0148237
762.903	0.0147763
762.981	0.0147733
763.059	0.0147840
763.137	0.0147704
763.215	0.0146603
763.293	0.0148455
763.371	0.0149090
763.450	0.0147698
763.528	0.0147150
763.606	0.0148667
763.684	0.0148270
763.762	0.0147453
763.840	0.0148995
763.918	0.0148302
763.996	0.0148064
764.075	0.0148161
764.153	0.0148227
764.231	0.0148679
764.309	0.0146474
764.387	0.0148548
764.465	0.0147470
764.543	0.0146747
764.621	0.0147429
764.700	0.0148193
