05/04/2022	21:30:03	Ver.	4.1	UNKNOWN
Optical Delay	678.996401	Delta X		0.078125	Sweeps	1	Scan Rate	0/0
Coordinates	Axis 1	NaN	Axis 2	NaN	Axis 3	NaN	Axis 4	NaN	Axis 5	NaN	Axis 6	0.000000
TX Power	0.000000	RX Power	0.000000

678.996	0.0150304
679.075	0.0151130
679.153	0.0151653
679.231	0.0151312
679.309	0.0150398
679.387	0.0150207
679.465	0.0151636
679.543	0.0151661
679.621	0.0151250
679.700	0.0151396
679.778	0.0150594
679.856	0.0151405
679.934	0.0151284
680.012	0.0150426
680.090	0.0149822
680.168	0.0151350
680.246	0.0149474
680.325	0.0151122
680.403	0.0150541
680.481	0.0149338
680.559	0.0150098
680.637	0.0149049
680.715	0.0149601
680.793	0.0150449
680.871	0.0148926
680.950	0.0150475
681.028	0.0151059
681.106	0.0151128
681.184	0.0151005
681.262	0.0149583
681.340	0.0149033
681.418	0.0150305
681.496	0.0151710
681.575	0.0150881
681.653	0.0151874
681.731	0.0150842
681.809	0.0151144
681.887	0.0151082
681.965	0.0148927
682.043	0.0150786
682.121	0.0151494
682.200	0.0149625
682.278	0.0150872
682.356	0.0150541
682.434	0.0152012
682.512	0.0150489
682.590	0.0150623
682.668	0.0152292
682.746	0.0152016
682.825	0.0151394
682.903	0.0150692
682.981	0.0150845
683.059	0.0151568
683.137	0.0151708
683.215	0.0151178
683.293	0.0150056
683.371	0.0149975
683.450	0.0150375
683.528	0.0150488
683.606	0.0148789
683.684	0.0149291
683.762	0.0150680
683.840	0.0149532
683.918	0.0149447
683.996	0.0152358
684.075	0.0150547
684.153	0.0150237
684.231	0.0150693
684.309	0.0150422
684.387	0.0151630
684.465	0.0152094
684.543	0.0152174
684.621	0.0151767
684.700	0.0150573
684.778	0.0152261
684.856	0.0150397
684.934	0.0151443
685.012	0.0151792
685.090	0.0151958
685.168	0.0151411
685.246	0.0150748
685.325	0.0150283
685.403	0.0149543
685.481	0.0149371
685.559	0.0149105
685.637	0.0148504
685.715	0.0147951
685.793	0.0148050
685.871	0.0147872
685.950	0.0148559
686.028	0.0149633
686.106	0.0150165
686.184	0.0150313
686.262	0.0150897
686.340	0.0152354
686.418	0.0151633
686.496	0.0152420
686.575	0.0151961
686.653	0.0151266
686.731	0.0151978
686.809	0.0152415
686.887	0.0152099
686.965	0.0152178
687.043	0.0152026
687.121	0.0152831
687.200	0.0151548
687.278	0.0151917
687.356	0.0151839
687.434	0.0150789
687.512	0.0150571
687.590	0.0149504
687.668	0.0149707
687.746	0.0148753
687.825	0.0148196
687.903	0.0148215
687.981	0.0149154
688.059	0.0148306
688.137	0.0148240
688.215	0.0149258
688.293	0.0148835
688.371	0.0149041
688.450	0.0148283
688.528	0.0149107
688.606	0.0147617
688.684	0.0148300
688.762	0.0150138
688.840	0.0150666
688.918	0.0150609
688.996	0.0152383
689.075	0.0153194
689.153	0.0153214
689.231	0.0154460
689.309	0.0155769
689.387	0.0156532
689.465	0.0156127
689.543	0.0156045
689.621	0.0154241
689.700	0.0154116
689.778	0.0151608
689.856	0.0150406
689.934	0.0149142
690.012	0.0146467
690.090	0.0146983
690.168	0.0147007
690.246	0.0146622
690.325	0.0145370
690.403	0.0145935
690.481	0.0145455
690.559	0.0146296
690.637	0.0144569
690.715	0.0146649
690.793	0.0147983
690.871	0.0146851
690.950	0.0149598
691.028	0.0151089
691.106	0.0151202
691.184	0.0151723
691.262	0.0152697
691.340	0.0152522
691.418	0.0153536
691.496	0.0154020
691.575	0.0153554
691.653	0.0152847
691.731	0.0153204
691.809	0.0153226
691.887	0.0154263
691.965	0.0153167
692.043	0.0155101
692.121	0.0156129
692.200	0.0154111
692.278	0.0153134
692.356	0.0153475
692.434	0.0152837
692.512	0.0152486
692.590	0.0152142
692.668	0.0150945
692.746	0.0149868
692.825	0.0147407
692.903	0.0147531
692.981	0.0145787
693.059	0.0145122
693.137	0.0145062
693.215	0.0142647
693.293	0.0143327
693.371	0.0143277
693.450	0.0143919
693.528	0.0142192
693.606	0.0144274
693.684	0.0146230
693.762	0.0146963
693.840	0.0147751
693.918	0.0148994
693.996	0.0150569
694.075	0.0151830
694.153	0.0154241
694.231	0.0153509
694.309	0.0155681
694.387	0.0154666
694.465	0.0155944
694.543	0.0156435
694.621	0.0154984
694.700	0.0154998
694.778	0.0156824
694.856	0.0156558
694.934	0.0156499
695.012	0.0155041
695.090	0.0155880
695.168	0.0155370
695.246	0.0154508
695.325	0.0153651
695.403	0.0151601
695.481	0.0149539
695.559	0.0149149
695.637	0.0148938
695.715	0.0148730
695.793	0.0147098
695.871	0.0145181
695.950	0.0146471
696.028	0.0144828
696.106	0.0143696
696.184	0.0143187
696.262	0.0144044
696.340	0.0142650
696.418	0.0143450
696.496	0.0144186
696.575	0.0144970
696.653	0.0145535
696.731	0.0147236
696.809	0.0148380
696.887	0.0150275
696.965	0.0152306
697.043	0.0154765
697.121	0.0157529
697.200	0.0157317
697.278	0.0157705
697.356	0.0157757
697.434	0.0158417
697.512	0.0158306
697.590	0.0159001
697.668	0.0157671
697.746	0.0156762
697.825	0.0155930
697.903	0.0155143
697.981	0.0154108
698.059	0.0152744
698.137	0.0151177
698.215	0.0148587
698.293	0.0148357
698.371	0.0145907
698.450	0.0145242
698.528	0.0142805
698.606	0.0142923
698.684	0.0144141
698.762	0.0143529
698.840	0.0143919
698.918	0.0144892
698.996	0.0146277
699.075	0.0147704
699.153	0.0149456
699.231	0.0150587
699.309	0.0150949
699.387	0.0151296
699.465	0.0150705
699.543	0.0152899
699.621	0.0153679
699.700	0.0151242
699.778	0.0150682
699.856	0.0151994
699.934	0.0152725
700.012	0.0152759
700.090	0.0151638
700.168	0.0152536
700.246	0.0154338
700.325	0.0153612
700.403	0.0151730
700.481	0.0152214
700.559	0.0150618
700.637	0.0152075
700.715	0.0150957
700.793	0.0151198
700.871	0.0151058
700.950	0.0150705
701.028	0.0151254
701.106	0.0150913
701.184	0.0148769
701.262	0.0150692
701.340	0.0148915
701.418	0.0148444
701.496	0.0148048
701.575	0.0147190
701.653	0.0147719
701.731	0.0147144
701.809	0.0146722
701.887	0.0148828
701.965	0.0147748
702.043	0.0148335
702.121	0.0149442
702.200	0.0149784
702.278	0.0151024
702.356	0.0151381
702.434	0.0151531
702.512	0.0152974
702.590	0.0154681
702.668	0.0154166
702.746	0.0152182
702.825	0.0152996
702.903	0.0153865
702.981	0.0153136
703.059	0.0152728
703.137	0.0152499
703.215	0.0152558
703.293	0.0151022
703.371	0.0149187
703.450	0.0149712
703.528	0.0148780
703.606	0.0148116
703.684	0.0149221
703.762	0.0147836
703.840	0.0149047
703.918	0.0148570
703.996	0.0150737
704.075	0.0150076
704.153	0.0150912
704.231	0.0151297
704.309	0.0150916
704.387	0.0148898
704.465	0.0150704
704.543	0.0149383
704.621	0.0148200
704.700	0.0146333
704.778	0.0145786
704.856	0.0144595
704.934	0.0145329
705.012	0.0147109
705.090	0.0145889
705.168	0.0147891
705.246	0.0149758
705.325	0.0148859
705.403	0.0150316
705.481	0.0153218
705.559	0.0153642
705.637	0.0154867
705.715	0.0155174
705.793	0.0155628
705.871	0.0156126
705.950	0.0155257
706.028	0.0155011
706.106	0.0153762
706.184	0.0152546
706.262	0.0152919
706.340	0.0150523
706.418	0.0149562
706.496	0.0149663
706.575	0.0148632
706.653	0.0146698
706.731	0.0146890
706.809	0.0145676
706.887	0.0146255
706.965	0.0147205
707.043	0.0148239
707.121	0.0149445
707.200	0.0147887
707.278	0.0148433
707.356	0.0147591
707.434	0.0147777
707.512	0.0148936
707.590	0.0148987
707.668	0.0148412
707.746	0.0148910
707.825	0.0150593
707.903	0.0151143
707.981	0.0151903
708.059	0.0152011
708.137	0.0151217
708.215	0.0152633
708.293	0.0153163
708.371	0.0154077
708.450	0.0153182
708.528	0.0153870
708.606	0.0154379
708.684	0.0154764
708.762	0.0154878
708.840	0.0154099
708.918	0.0154086
708.996	0.0153152
709.075	0.0153320
709.153	0.0153160
709.231	0.0153479
709.309	0.0151716
709.387	0.0152430
709.465	0.0152782
709.543	0.0151654
709.621	0.0150077
709.700	0.0148658
709.778	0.0148580
709.856	0.0149142
709.934	0.0148412
710.012	0.0149097
710.090	0.0148145
710.168	0.0147294
710.246	0.0146970
710.325	0.0148321
710.403	0.0147887
710.481	0.0147134
710.559	0.0147997
710.637	0.0148070
710.715	0.0148740
710.793	0.0149450
710.871	0.0149810
710.950	0.0150447
711.028	0.0150462
711.106	0.0151868
711.184	0.0152718
711.262	0.0153013
711.340	0.0152632
711.418	0.0153154
711.496	0.0152908
711.575	0.0151314
711.653	0.0151915
711.731	0.0152642
711.809	0.0152776
711.887	0.0150877
711.965	0.0150277
712.043	0.0150658
712.121	0.0151575
712.200	0.0151167
712.278	0.0151495
712.356	0.0149889
712.434	0.0150834
712.512	0.0152792
712.590	0.0152080
712.668	0.0151809
712.746	0.0151262
712.825	0.0151179
712.903	0.0151197
712.981	0.0150609
713.059	0.0150713
713.137	0.0149622
713.215	0.0148428
713.293	0.0147889
713.371	0.0147966
713.450	0.0146510
713.528	0.0146571
713.606	0.0146661
713.684	0.0148626
713.762	0.0148804
713.840	0.0148651
713.918	0.0149320
713.996	0.0151452
714.075	0.0153083
714.153	0.0154424
714.231	0.0153230
714.309	0.0153171
714.387	0.0154268
714.465	0.0152576
714.543	0.0152798
714.621	0.0151534
714.700	0.0149043
714.778	0.0148866
714.856	0.0147821
714.934	0.0148364
715.012	0.0148621
715.090	0.0147585
715.168	0.0149435
715.246	0.0149470
715.325	0.0149552
715.403	0.0149702
715.481	0.0151739
715.559	0.0150910
715.637	0.0153526
715.715	0.0152349
715.793	0.0153821
715.871	0.0155713
715.950	0.0154990
716.028	0.0154023
716.106	0.0153824
716.184	0.0155905
716.262	0.0153011
716.340	0.0152149
716.418	0.0152005
716.496	0.0151284
716.575	0.0150161
716.653	0.0149875
716.731	0.0149621
716.809	0.0146815
716.887	0.0147108
716.965	0.0147446
717.043	0.0148253
717.121	0.0149094
717.200	0.0149358
717.278	0.0146806
717.356	0.0148853
717.434	0.0147816
717.512	0.0147675
717.590	0.0147583
717.668	0.0147812
717.746	0.0147920
717.825	0.0148988
717.903	0.0147953
717.981	0.0148681
718.059	0.0151979
718.137	0.0151647
718.215	0.0151423
718.293	0.0151965
718.371	0.0152302
718.450	0.0153970
718.528	0.0153716
718.606	0.0152548
718.684	0.0152860
718.762	0.0154035
718.840	0.0153342
718.918	0.0154470
718.996	0.0152510
719.075	0.0153262
719.153	0.0151265
719.231	0.0151451
719.309	0.0150416
719.387	0.0149442
719.465	0.0149062
719.543	0.0148302
719.621	0.0149641
719.700	0.0150642
719.778	0.0148913
719.856	0.0149743
719.934	0.0149554
720.012	0.0149898
720.090	0.0148270
720.168	0.0149350
720.246	0.0149931
720.325	0.0148019
720.403	0.0149001
720.481	0.0149166
720.559	0.0150188
720.637	0.0149356
720.715	0.0149686
720.793	0.0149156
720.871	0.0149616
720.950	0.0149622
721.028	0.0149516
721.106	0.0150336
721.184	0.0151182
721.262	0.0150915
721.340	0.0150006
721.418	0.0152436
721.496	0.0152213
721.575	0.0150674
721.653	0.0150680
721.731	0.0150842
721.809	0.0149355
721.887	0.0150208
721.965	0.0150197
722.043	0.0150490
722.121	0.0148941
722.200	0.0149247
722.278	0.0149724
722.356	0.0150258
722.434	0.0150844
722.512	0.0149866
722.590	0.0150436
722.668	0.0150385
722.746	0.0150761
722.825	0.0151923
722.903	0.0150756
722.981	0.0150742
723.059	0.0150892
723.137	0.0152390
723.215	0.0152153
723.293	0.0153186
723.371	0.0152814
723.450	0.0152753
723.528	0.0153442
723.606	0.0152056
723.684	0.0151288
723.762	0.0149769
723.840	0.0152029
723.918	0.0150742
723.996	0.0150090
724.075	0.0150517
724.153	0.0150765
724.231	0.0149091
724.309	0.0148248
724.387	0.0148175
724.465	0.0147059
724.543	0.0147856
724.621	0.0148304
724.700	0.0145950
724.778	0.0147485
724.856	0.0147139
724.934	0.0146040
725.012	0.0148431
725.090	0.0146874
725.168	0.0149051
725.246	0.0149551
725.325	0.0148154
725.403	0.0149635
725.481	0.0151771
725.559	0.0152173
725.637	0.0152618
725.715	0.0153199
725.793	0.0153597
725.871	0.0154665
725.950	0.0153849
726.028	0.0154061
726.106	0.0154128
726.184	0.0153259
726.262	0.0153955
726.340	0.0152853
726.418	0.0152249
726.496	0.0151591
726.575	0.0151821
726.653	0.0150281
726.731	0.0150911
726.809	0.0151376
726.887	0.0148658
726.965	0.0147482
727.043	0.0149120
727.121	0.0148029
727.200	0.0148461
727.278	0.0147758
727.356	0.0146981
727.434	0.0147501
727.512	0.0147083
727.590	0.0148067
727.668	0.0148450
727.746	0.0148026
727.825	0.0149478
727.903	0.0149213
727.981	0.0149680
728.059	0.0150389
728.137	0.0151656
728.215	0.0151142
728.293	0.0151604
728.371	0.0151963
728.450	0.0152206
728.528	0.0152077
728.606	0.0152502
728.684	0.0153757
728.762	0.0152429
728.840	0.0153284
728.918	0.0154016
728.996	0.0152665
729.075	0.0153307
729.153	0.0152686
729.231	0.0151079
729.309	0.0150709
729.387	0.0149243
729.465	0.0149643
729.543	0.0149530
729.621	0.0149103
729.700	0.0148493
729.778	0.0149740
729.856	0.0147935
729.934	0.0148281
730.012	0.0149874
730.090	0.0148839
730.168	0.0149841
730.246	0.0150511
730.325	0.0149794
730.403	0.0150471
730.481	0.0150603
730.559	0.0150008
730.637	0.0151173
730.715	0.0150064
730.793	0.0150793
730.871	0.0151924
730.950	0.0150458
731.028	0.0151348
731.106	0.0150946
731.184	0.0150835
731.262	0.0150522
731.340	0.0150275
731.418	0.0149724
731.496	0.0151839
731.575	0.0150485
731.653	0.0149563
731.731	0.0148960
731.809	0.0148460
731.887	0.0147829
731.965	0.0149222
732.043	0.0149017
732.121	0.0148528
732.200	0.0148738
732.278	0.0148897
732.356	0.0148792
732.434	0.0149068
732.512	0.0148602
732.590	0.0149055
732.668	0.0148890
732.746	0.0148595
732.825	0.0150961
732.903	0.0150175
732.981	0.0149776
733.059	0.0150220
733.137	0.0152210
733.215	0.0152689
733.293	0.0151510
733.371	0.0153062
733.450	0.0151913
733.528	0.0152608
733.606	0.0153408
733.684	0.0151690
733.762	0.0152069
733.840	0.0151713
733.918	0.0150288
733.996	0.0151040
734.075	0.0149318
734.153	0.0148418
734.231	0.0148767
734.309	0.0149417
734.387	0.0149228
734.465	0.0146899
734.543	0.0146904
734.621	0.0148499
734.700	0.0149680
734.778	0.0148251
734.856	0.0147935
734.934	0.0147807
735.012	0.0149849
735.090	0.0150154
735.168	0.0151120
735.246	0.0149901
735.325	0.0150854
735.403	0.0151395
735.481	0.0151450
735.559	0.0151545
735.637	0.0151450
735.715	0.0152632
735.793	0.0152591
735.871	0.0153500
735.950	0.0154554
736.028	0.0153861
736.106	0.0152383
736.184	0.0152499
736.262	0.0152768
736.340	0.0151377
736.418	0.0152690
736.496	0.0151390
736.575	0.0150403
736.653	0.0149738
736.731	0.0149702
736.809	0.0148192
736.887	0.0150320
736.965	0.0148414
737.043	0.0147861
737.121	0.0147659
737.200	0.0146904
737.278	0.0147087
737.356	0.0148576
737.434	0.0147440
737.512	0.0148035
737.590	0.0148630
737.668	0.0148161
737.746	0.0148620
737.825	0.0151071
737.903	0.0148497
737.981	0.0151917
738.059	0.0152455
738.137	0.0152062
738.215	0.0153374
738.293	0.0153454
738.371	0.0153510
738.450	0.0154461
738.528	0.0154420
738.606	0.0154017
738.684	0.0153078
738.762	0.0154210
738.840	0.0153202
738.918	0.0152863
738.996	0.0152114
739.075	0.0152610
739.153	0.0150553
739.231	0.0149988
739.309	0.0149732
739.387	0.0150529
739.465	0.0149933
739.543	0.0148019
739.621	0.0149136
739.700	0.0149996
739.778	0.0148028
739.856	0.0149915
739.934	0.0148997
740.012	0.0149526
740.090	0.0148493
740.168	0.0149465
740.246	0.0148222
740.325	0.0151012
740.403	0.0149947
740.481	0.0149709
740.559	0.0149862
740.637	0.0152240
740.715	0.0151509
740.793	0.0152322
740.871	0.0151955
740.950	0.0151969
741.028	0.0152829
741.106	0.0152729
741.184	0.0151712
741.262	0.0152130
741.340	0.0153122
741.418	0.0152375
741.496	0.0151526
741.575	0.0152451
741.653	0.0150408
741.731	0.0150997
741.809	0.0152094
741.887	0.0150920
741.965	0.0150525
742.043	0.0150418
742.121	0.0153011
742.200	0.0151212
742.278	0.0148742
742.356	0.0150486
742.434	0.0151614
742.512	0.0149356
742.590	0.0151007
742.668	0.0151022
742.746	0.0150686
742.825	0.0150755
742.903	0.0150439
742.981	0.0150846
743.059	0.0150587
743.137	0.0150325
743.215	0.0152699
743.293	0.0152703
743.371	0.0151086
743.450	0.0151418
743.528	0.0152649
743.606	0.0151517
743.684	0.0151322
743.762	0.0151820
743.840	0.0151828
743.918	0.0150552
743.996	0.0150953
744.075	0.0151448
744.153	0.0149146
744.231	0.0149666
744.309	0.0150581
744.387	0.0150087
744.465	0.0149554
744.543	0.0150035
744.621	0.0150512
744.700	0.0150549
744.778	0.0149790
744.856	0.0149969
744.934	0.0149380
745.012	0.0149340
745.090	0.0149063
745.168	0.0149809
745.246	0.0150358
745.325	0.0151293
745.403	0.0151167
745.481	0.0150784
745.559	0.0152161
745.637	0.0152554
745.715	0.0151437
745.793	0.0152230
745.871	0.0152480
745.950	0.0153090
746.028	0.0153655
746.106	0.0152158
746.184	0.0151962
746.262	0.0152434
746.340	0.0151889
746.418	0.0149577
746.496	0.0151581
746.575	0.0151556
746.653	0.0150826
746.731	0.0149779
746.809	0.0149735
746.887	0.0148930
746.965	0.0149831
747.043	0.0150094
747.121	0.0150266
747.200	0.0150468
747.278	0.0149513
747.356	0.0150182
747.434	0.0150512
747.512	0.0150362
747.590	0.0150485
747.668	0.0150638
747.746	0.0148676
747.825	0.0149643
747.903	0.0149969
747.981	0.0150057
748.059	0.0152464
748.137	0.0151877
748.215	0.0151434
748.293	0.0150723
748.371	0.0151058
748.450	0.0150924
748.528	0.0150630
748.606	0.0150251
748.684	0.0150301
748.762	0.0150828
748.840	0.0149971
748.918	0.0150954
748.996	0.0151202
749.075	0.0150422
749.153	0.0150884
749.231	0.0150603
749.309	0.0150439
749.387	0.0150784
749.465	0.0152016
749.543	0.0150841
749.621	0.0148888
749.700	0.0148483
749.778	0.0149220
749.856	0.0150035
749.934	0.0150169
750.012	0.0151555
750.090	0.0150140
750.168	0.0150375
750.246	0.0151184
750.325	0.0150153
750.403	0.0150947
750.481	0.0150085
750.559	0.0151349
750.637	0.0150905
750.715	0.0150982
750.793	0.0150155
750.871	0.0149861
750.950	0.0150399
751.028	0.0152177
751.106	0.0152991
751.184	0.0151510
751.262	0.0152025
751.340	0.0151341
751.418	0.0150858
751.496	0.0151102
751.575	0.0151556
751.653	0.0150759
751.731	0.0152508
751.809	0.0149879
751.887	0.0150605
751.965	0.0149197
752.043	0.0149216
752.121	0.0150932
752.200	0.0151605
752.278	0.0149383
752.356	0.0149847
752.434	0.0149702
752.512	0.0150051
752.590	0.0150533
752.668	0.0149620
752.746	0.0149580
752.825	0.0148733
752.903	0.0149429
752.981	0.0150094
753.059	0.0150004
753.137	0.0149470
753.215	0.0149214
753.293	0.0149747
753.371	0.0150751
753.450	0.0149797
753.528	0.0149596
753.606	0.0150117
753.684	0.0150850
753.762	0.0150985
753.840	0.0149975
753.918	0.0150105
753.996	0.0151128
754.075	0.0150918
754.153	0.0150393
754.231	0.0150419
754.309	0.0150112
754.387	0.0151125
754.465	0.0149797
754.543	0.0148406
754.621	0.0149980
754.700	0.0149980
754.778	0.0149554
754.856	0.0150636
754.934	0.0150607
755.012	0.0150479
755.090	0.0149887
755.168	0.0150380
755.246	0.0149920
755.325	0.0150949
755.403	0.0149846
755.481	0.0148550
755.559	0.0149325
755.637	0.0150056
755.715	0.0150991
755.793	0.0150475
755.871	0.0149747
755.950	0.0149486
756.028	0.0149832
756.106	0.0149520
756.184	0.0149581
756.262	0.0149619
756.340	0.0150582
756.418	0.0149908
756.496	0.0150551
756.575	0.0150142
756.653	0.0150178
756.731	0.0149461
756.809	0.0151606
756.887	0.0148798
756.965	0.0150069
757.043	0.0150211
757.121	0.0149051
757.200	0.0148794
757.278	0.0150453
757.356	0.0149459
757.434	0.0149470
757.512	0.0148507
757.590	0.0148666
757.668	0.0150576
757.746	0.0149591
757.825	0.0150054
757.903	0.0149667
757.981	0.0149441
758.059	0.0149744
758.137	0.0149960
758.215	0.0150412
758.293	0.0150105
758.371	0.0151659
758.450	0.0152103
758.528	0.0150723
758.606	0.0150846
758.684	0.0149602
758.762	0.0152382
758.840	0.0152579
758.918	0.0151044
758.996	0.0150529
759.075	0.0151746
759.153	0.0152441
759.231	0.0150806
759.309	0.0150572
759.387	0.0150363
759.465	0.0150899
759.543	0.0149601
759.621	0.0151154
759.700	0.0151025
759.778	0.0150194
759.856	0.0150148
759.934	0.0148945
760.012	0.0148381
760.090	0.0148404
760.168	0.0150095
760.246	0.0149625
760.325	0.0149883
760.403	0.0150510
760.481	0.0150549
760.559	0.0151303
760.637	0.0149874
760.715	0.0148822
760.793	0.0151684
760.871	0.0151615
760.950	0.0150378
761.028	0.0149588
761.106	0.0150654
761.184	0.0150210
761.262	0.0149475
761.340	0.0150314
761.418	0.0150713
761.496	0.0151589
761.575	0.0148830
761.653	0.0150063
761.731	0.0149674
761.809	0.0149416
761.887	0.0151311
761.965	0.0150642
762.043	0.0149844
762.121	0.0150619
762.200	0.0151213
762.278	0.0150784
762.356	0.0151155
762.434	0.0150838
762.512	0.0151018
762.590	0.0150328
762.668	0.0150788
762.746	0.0150442
762.825	0.0150682
762.903	0.0151083
762.981	0.0151176
763.059	0.0152180
763.137	0.0150977
763.215	0.0149709
763.293	0.0150936
763.371	0.0151629
763.450	0.0152003
763.528	0.0151051
763.606	0.0151458
763.684	0.0151659
763.762	0.0150435
763.840	0.0151077
763.918	0.0151321
763.996	0.0150230
764.075	0.0150076
764.153	0.0150311
764.231	0.0151821
764.309	0.0152211
764.387	0.0150433
764.465	0.0149866
764.543	0.0152207
764.621	0.0151361
764.700	0.0152177
