05/04/2022	21:31:13	Ver.	4.1	UNKNOWN
Optical Delay	678.996401	Delta X		0.078125	Sweeps	1	Scan Rate	0/0
Coordinates	Axis 1	NaN	Axis 2	NaN	Axis 3	NaN	Axis 4	NaN	Axis 5	NaN	Axis 6	0.000000
TX Power	0.000000	RX Power	0.000000

678.996	0.0145228
679.075	0.0144725
679.153	0.0145703
679.231	0.0145865
679.309	0.0146129
679.387	0.0146168
679.465	0.0146089
679.543	0.0145047
679.621	0.0143947
679.700	0.0143882
679.778	0.0144582
679.856	0.0146144
679.934	0.0144225
680.012	0.0144527
680.090	0.0144115
680.168	0.0145102
680.246	0.0145735
680.325	0.0144173
680.403	0.0144475
680.481	0.0146144
680.559	0.0147321
680.637	0.0145638
680.715	0.0145229
680.793	0.0146750
680.871	0.0144772
680.950	0.0144860
681.028	0.0144849
681.106	0.0145551
681.184	0.0145801
681.262	0.0146012
681.340	0.0145094
681.418	0.0147159
681.496	0.0146659
681.575	0.0145030
681.653	0.0145986
681.731	0.0144464
681.809	0.0145057
681.887	0.0146507
681.965	0.0146774
682.043	0.0145779
682.121	0.0145061
682.200	0.0143513
682.278	0.0145409
682.356	0.0143417
682.434	0.0145295
682.512	0.0145717
682.590	0.0143803
682.668	0.0144231
682.746	0.0144758
682.825	0.0144543
682.903	0.0144454
682.981	0.0144631
683.059	0.0144846
683.137	0.0146011
683.215	0.0145454
683.293	0.0144656
683.371	0.0144990
683.450	0.0145918
683.528	0.0145520
683.606	0.0145557
683.684	0.0145431
683.762	0.0145632
683.840	0.0146532
683.918	0.0146436
683.996	0.0144509
684.075	0.0145953
684.153	0.0146006
684.231	0.0147434
684.309	0.0145070
684.387	0.0145518
684.465	0.0144597
684.543	0.0144927
684.621	0.0144481
684.700	0.0145299
684.778	0.0144250
684.856	0.0144096
684.934	0.0145139
685.012	0.0145202
685.090	0.0143281
685.168	0.0143694
685.246	0.0143803
685.325	0.0144941
685.403	0.0144341
685.481	0.0142822
685.559	0.0143958
685.637	0.0144542
685.715	0.0143668
685.793	0.0145010
685.871	0.0145903
685.950	0.0144731
686.028	0.0146640
686.106	0.0146226
686.184	0.0146278
686.262	0.0146664
686.340	0.0146591
686.418	0.0145609
686.496	0.0145188
686.575	0.0146503
686.653	0.0146852
686.731	0.0146725
686.809	0.0145865
686.887	0.0147118
686.965	0.0146591
687.043	0.0146288
687.121	0.0146764
687.200	0.0146957
687.278	0.0146680
687.356	0.0145628
687.434	0.0145063
687.512	0.0144543
687.590	0.0142493
687.668	0.0141935
687.746	0.0143719
687.825	0.0142916
687.903	0.0143316
687.981	0.0143243
688.059	0.0143387
688.137	0.0142600
688.215	0.0142378
688.293	0.0144312
688.371	0.0144741
688.450	0.0143672
688.528	0.0144629
688.606	0.0145284
688.684	0.0145776
688.762	0.0145946
688.840	0.0146539
688.918	0.0145934
688.996	0.0148331
689.075	0.0149495
689.153	0.0150089
689.231	0.0149124
689.309	0.0150244
689.387	0.0148176
689.465	0.0148830
689.543	0.0145463
689.621	0.0144534
689.700	0.0144205
689.778	0.0143169
689.856	0.0142926
689.934	0.0141880
690.012	0.0141659
690.090	0.0141782
690.168	0.0140024
690.246	0.0140358
690.325	0.0141102
690.403	0.0140974
690.481	0.0139946
690.559	0.0140574
690.637	0.0143393
690.715	0.0143291
690.793	0.0143885
690.871	0.0145226
690.950	0.0147092
691.028	0.0146207
691.106	0.0148499
691.184	0.0148726
691.262	0.0147365
691.340	0.0145484
691.418	0.0148022
691.496	0.0146978
691.575	0.0148035
691.653	0.0148374
691.731	0.0147929
691.809	0.0146874
691.887	0.0147581
691.965	0.0147063
692.043	0.0147722
692.121	0.0148907
692.200	0.0147675
692.278	0.0146566
692.356	0.0146843
692.434	0.0145837
692.512	0.0143597
692.590	0.0143407
692.668	0.0143994
692.746	0.0142646
692.825	0.0141205
692.903	0.0140009
692.981	0.0139586
693.059	0.0138633
693.137	0.0137647
693.215	0.0137375
693.293	0.0139414
693.371	0.0139766
693.450	0.0140149
693.528	0.0140614
693.606	0.0141991
693.684	0.0144371
693.762	0.0145380
693.840	0.0145253
693.918	0.0148352
693.996	0.0149082
694.075	0.0149341
694.153	0.0148586
694.231	0.0148893
694.309	0.0150164
694.387	0.0148730
694.465	0.0149903
694.543	0.0149403
694.621	0.0148515
694.700	0.0148805
694.778	0.0147375
694.856	0.0147885
694.934	0.0146548
695.012	0.0147581
695.090	0.0147037
695.168	0.0144982
695.246	0.0143959
695.325	0.0143259
695.403	0.0143938
695.481	0.0143578
695.559	0.0142256
695.637	0.0143166
695.715	0.0141991
695.793	0.0140849
695.871	0.0141258
695.950	0.0141174
696.028	0.0141719
696.106	0.0139967
696.184	0.0138963
696.262	0.0139847
696.340	0.0140762
696.418	0.0139235
696.496	0.0139523
696.575	0.0142427
696.653	0.0143407
696.731	0.0142590
696.809	0.0144474
696.887	0.0146964
696.965	0.0149387
697.043	0.0151003
697.121	0.0154235
697.200	0.0151644
697.278	0.0151503
697.356	0.0151949
697.434	0.0150511
697.512	0.0149616
697.590	0.0149462
697.668	0.0149317
697.746	0.0147807
697.825	0.0146552
697.903	0.0146236
697.981	0.0145601
698.059	0.0145018
698.137	0.0144680
698.215	0.0142854
698.293	0.0141405
698.371	0.0141293
698.450	0.0142024
698.528	0.0140377
698.606	0.0141318
698.684	0.0139871
698.762	0.0141149
698.840	0.0141453
698.918	0.0142471
698.996	0.0144283
699.075	0.0144735
699.153	0.0144362
699.231	0.0144228
699.309	0.0144967
699.387	0.0145566
699.465	0.0143937
699.543	0.0144593
699.621	0.0143651
699.700	0.0143723
699.778	0.0143862
699.856	0.0143912
699.934	0.0145555
700.012	0.0144518
700.090	0.0146423
700.168	0.0144659
700.246	0.0147009
700.325	0.0146849
700.403	0.0146022
700.481	0.0145175
700.559	0.0144779
700.637	0.0146011
700.715	0.0144791
700.793	0.0145985
700.871	0.0146021
700.950	0.0146703
701.028	0.0146567
701.106	0.0146333
701.184	0.0146553
701.262	0.0145978
701.340	0.0146035
701.418	0.0145795
701.496	0.0146452
701.575	0.0143945
701.653	0.0144848
701.731	0.0145101
701.809	0.0144279
701.887	0.0143610
701.965	0.0143640
702.043	0.0144318
702.121	0.0143733
702.200	0.0143995
702.278	0.0145347
702.356	0.0144896
702.434	0.0146275
702.512	0.0146184
702.590	0.0146204
702.668	0.0146474
702.746	0.0145793
702.825	0.0144908
702.903	0.0145654
702.981	0.0145749
703.059	0.0146738
703.137	0.0144766
703.215	0.0144148
703.293	0.0143774
703.371	0.0143929
703.450	0.0143851
703.528	0.0145108
703.606	0.0143567
703.684	0.0144585
703.762	0.0146401
703.840	0.0145917
703.918	0.0148315
703.996	0.0147644
704.075	0.0148569
704.153	0.0147945
704.231	0.0148465
704.309	0.0148006
704.387	0.0147740
704.465	0.0148133
704.543	0.0146511
704.621	0.0143827
704.700	0.0143692
704.778	0.0141642
704.856	0.0141850
704.934	0.0141823
705.012	0.0141833
705.090	0.0140943
705.168	0.0142146
705.246	0.0144081
705.325	0.0144458
705.403	0.0144981
705.481	0.0144197
705.559	0.0145979
705.637	0.0146366
705.715	0.0145471
705.793	0.0146189
705.871	0.0147095
705.950	0.0147090
706.028	0.0147633
706.106	0.0145278
706.184	0.0144159
706.262	0.0145104
706.340	0.0144445
706.418	0.0143808
706.496	0.0145919
706.575	0.0144367
706.653	0.0145697
706.731	0.0145280
706.809	0.0145988
706.887	0.0145617
706.965	0.0146066
707.043	0.0146677
707.121	0.0146408
707.200	0.0146837
707.278	0.0146129
707.356	0.0145786
707.434	0.0144507
707.512	0.0145271
707.590	0.0145042
707.668	0.0144051
707.746	0.0144304
707.825	0.0144391
707.903	0.0143687
707.981	0.0143509
708.059	0.0143321
708.137	0.0144164
708.215	0.0142964
708.293	0.0144501
708.371	0.0143391
708.450	0.0145920
708.528	0.0145478
708.606	0.0146937
708.684	0.0147603
708.762	0.0148430
708.840	0.0147670
708.918	0.0147953
708.996	0.0149500
709.075	0.0149960
709.153	0.0147573
709.231	0.0149018
709.309	0.0147502
709.387	0.0146877
709.465	0.0146007
709.543	0.0144952
709.621	0.0145318
709.700	0.0145220
709.778	0.0144481
709.856	0.0143896
709.934	0.0143661
710.012	0.0145380
710.090	0.0143079
710.168	0.0143221
710.246	0.0143272
710.325	0.0143695
710.403	0.0143542
710.481	0.0142208
710.559	0.0141462
710.637	0.0143088
710.715	0.0143558
710.793	0.0144085
710.871	0.0143970
710.950	0.0143681
711.028	0.0144031
711.106	0.0144848
711.184	0.0145698
711.262	0.0146488
711.340	0.0146837
711.418	0.0145551
711.496	0.0145718
711.575	0.0146232
711.653	0.0146236
711.731	0.0146245
711.809	0.0147495
711.887	0.0147330
711.965	0.0146455
712.043	0.0145352
712.121	0.0146655
712.200	0.0147533
712.278	0.0145497
712.356	0.0148302
712.434	0.0147963
712.512	0.0146746
712.590	0.0146812
712.668	0.0146895
712.746	0.0148801
712.825	0.0147841
712.903	0.0145846
712.981	0.0147036
713.059	0.0147198
713.137	0.0144714
713.215	0.0144113
713.293	0.0141301
713.371	0.0141940
713.450	0.0140689
713.528	0.0141883
713.606	0.0139811
713.684	0.0140749
713.762	0.0142506
713.840	0.0143640
713.918	0.0143591
713.996	0.0144634
714.075	0.0145361
714.153	0.0146608
714.231	0.0145747
714.309	0.0145519
714.387	0.0146033
714.465	0.0146393
714.543	0.0146010
714.621	0.0145561
714.700	0.0143947
714.778	0.0144418
714.856	0.0144627
714.934	0.0143924
715.012	0.0143140
715.090	0.0144014
715.168	0.0145055
715.246	0.0143333
715.325	0.0144559
715.403	0.0145399
715.481	0.0145934
715.559	0.0145525
715.637	0.0146822
715.715	0.0147855
715.793	0.0147986
715.871	0.0146156
715.950	0.0147039
716.028	0.0147111
716.106	0.0147517
716.184	0.0146913
716.262	0.0146411
716.340	0.0145390
716.418	0.0144556
716.496	0.0144314
716.575	0.0143813
716.653	0.0142107
716.731	0.0142457
716.809	0.0141421
716.887	0.0142118
716.965	0.0143088
717.043	0.0143965
717.121	0.0142577
717.200	0.0143410
717.278	0.0143263
717.356	0.0141804
717.434	0.0141669
717.512	0.0141799
717.590	0.0143714
717.668	0.0143679
717.746	0.0144075
717.825	0.0144903
717.903	0.0145028
717.981	0.0144345
718.059	0.0145898
718.137	0.0145314
718.215	0.0146489
718.293	0.0146753
718.371	0.0146552
718.450	0.0147153
718.528	0.0148047
718.606	0.0149119
718.684	0.0147004
718.762	0.0146979
718.840	0.0148100
718.918	0.0147581
718.996	0.0147945
719.075	0.0147231
719.153	0.0146787
719.231	0.0147803
719.309	0.0144537
719.387	0.0144895
719.465	0.0145894
719.543	0.0144673
719.621	0.0144147
719.700	0.0143301
719.778	0.0145074
719.856	0.0143685
719.934	0.0143726
720.012	0.0144920
720.090	0.0144331
720.168	0.0142473
720.246	0.0144511
720.325	0.0143433
720.403	0.0143049
720.481	0.0144218
720.559	0.0142685
720.637	0.0143496
720.715	0.0142622
720.793	0.0143243
720.871	0.0144415
720.950	0.0144106
721.028	0.0146454
721.106	0.0145817
721.184	0.0144977
721.262	0.0145351
721.340	0.0145462
721.418	0.0145726
721.496	0.0146618
721.575	0.0146937
721.653	0.0147275
721.731	0.0145781
721.809	0.0145197
721.887	0.0144607
721.965	0.0144976
722.043	0.0144457
722.121	0.0143552
722.200	0.0143581
722.278	0.0143587
722.356	0.0143740
722.434	0.0143951
722.512	0.0143826
722.590	0.0145480
722.668	0.0145540
722.746	0.0147184
722.825	0.0145126
722.903	0.0146217
722.981	0.0146746
723.059	0.0146773
723.137	0.0147312
723.215	0.0147152
723.293	0.0146762
723.371	0.0147114
723.450	0.0146792
723.528	0.0146457
723.606	0.0144682
723.684	0.0144399
723.762	0.0145319
723.840	0.0144562
723.918	0.0143520
723.996	0.0142838
724.075	0.0143606
724.153	0.0143536
724.231	0.0144378
724.309	0.0142992
724.387	0.0143156
724.465	0.0142105
724.543	0.0142129
724.621	0.0141926
724.700	0.0142716
724.778	0.0144433
724.856	0.0142473
724.934	0.0141049
725.012	0.0142446
725.090	0.0141823
725.168	0.0143320
725.246	0.0144847
725.325	0.0144455
725.403	0.0145565
725.481	0.0147418
725.559	0.0148240
725.637	0.0147351
725.715	0.0147804
725.793	0.0147302
725.871	0.0148554
725.950	0.0147558
726.028	0.0146746
726.106	0.0148503
726.184	0.0148178
726.262	0.0147363
726.340	0.0146366
726.418	0.0146619
726.496	0.0145502
726.575	0.0145303
726.653	0.0144070
726.731	0.0144043
726.809	0.0145499
726.887	0.0143695
726.965	0.0143510
727.043	0.0144106
727.121	0.0144091
727.200	0.0141679
727.278	0.0141792
727.356	0.0143615
727.434	0.0142345
727.512	0.0142524
727.590	0.0142968
727.668	0.0142566
727.746	0.0143572
727.825	0.0145303
727.903	0.0145784
727.981	0.0145248
728.059	0.0145015
728.137	0.0146352
728.215	0.0146914
728.293	0.0146575
728.371	0.0146017
728.450	0.0146633
728.528	0.0145848
728.606	0.0146013
728.684	0.0147418
728.762	0.0146142
728.840	0.0146151
728.918	0.0145177
728.996	0.0144886
729.075	0.0145918
729.153	0.0145401
729.231	0.0144249
729.309	0.0145277
729.387	0.0144763
729.465	0.0144037
729.543	0.0143929
729.621	0.0143037
729.700	0.0144534
729.778	0.0143922
729.856	0.0142085
729.934	0.0141887
730.012	0.0144189
730.090	0.0143894
730.168	0.0144576
730.246	0.0144495
730.325	0.0143728
730.403	0.0145119
730.481	0.0145319
730.559	0.0145882
730.637	0.0146700
730.715	0.0146801
730.793	0.0146770
730.871	0.0147703
730.950	0.0147633
731.028	0.0146191
731.106	0.0146698
731.184	0.0146557
731.262	0.0145287
731.340	0.0144814
731.418	0.0145044
731.496	0.0145444
731.575	0.0144469
731.653	0.0144053
731.731	0.0142744
731.809	0.0143771
731.887	0.0145083
731.965	0.0143267
732.043	0.0141879
732.121	0.0143578
732.200	0.0145029
732.278	0.0143460
732.356	0.0143128
732.434	0.0143244
732.512	0.0145003
732.590	0.0144608
732.668	0.0145227
732.746	0.0145597
732.825	0.0146355
732.903	0.0145229
732.981	0.0145544
733.059	0.0147977
733.137	0.0148393
733.215	0.0147742
733.293	0.0148283
733.371	0.0147568
733.450	0.0146708
733.528	0.0147112
733.606	0.0149198
733.684	0.0147034
733.762	0.0145703
733.840	0.0146550
733.918	0.0145548
733.996	0.0144400
734.075	0.0142300
734.153	0.0142266
734.231	0.0141664
734.309	0.0143011
734.387	0.0141228
734.465	0.0142310
734.543	0.0142798
734.621	0.0141408
734.700	0.0141548
734.778	0.0143170
734.856	0.0143033
734.934	0.0144196
735.012	0.0145600
735.090	0.0146169
735.168	0.0146300
735.246	0.0146569
735.325	0.0147516
735.403	0.0147433
735.481	0.0148737
735.559	0.0148302
735.637	0.0147079
735.715	0.0147018
735.793	0.0148444
735.871	0.0147301
735.950	0.0146973
736.028	0.0145872
736.106	0.0147202
736.184	0.0145835
736.262	0.0145600
736.340	0.0144560
736.418	0.0145422
736.496	0.0145679
736.575	0.0145041
736.653	0.0143617
736.731	0.0145279
736.809	0.0144588
736.887	0.0144036
736.965	0.0143926
737.043	0.0143722
737.121	0.0143760
737.200	0.0141675
737.278	0.0142307
737.356	0.0142936
737.434	0.0143461
737.512	0.0142883
737.590	0.0144292
737.668	0.0144740
737.746	0.0144717
737.825	0.0145840
737.903	0.0145634
737.981	0.0146858
738.059	0.0146265
738.137	0.0148313
738.215	0.0148548
738.293	0.0148713
738.371	0.0148721
738.450	0.0148064
738.528	0.0148164
738.606	0.0148011
738.684	0.0147342
738.762	0.0146976
738.840	0.0148464
738.918	0.0147161
738.996	0.0146049
739.075	0.0144939
739.153	0.0145103
739.231	0.0144785
739.309	0.0143565
739.387	0.0144287
739.465	0.0144684
739.543	0.0144633
739.621	0.0144000
739.700	0.0143790
739.778	0.0145288
739.856	0.0145014
739.934	0.0145329
740.012	0.0145076
740.090	0.0143431
740.168	0.0145600
740.246	0.0145680
740.325	0.0144670
740.403	0.0145123
740.481	0.0145049
740.559	0.0145480
740.637	0.0146511
740.715	0.0146311
740.793	0.0146243
740.871	0.0145926
740.950	0.0145333
741.028	0.0147316
741.106	0.0145804
741.184	0.0145444
741.262	0.0145238
741.340	0.0145535
741.418	0.0142953
741.496	0.0143856
741.575	0.0144444
741.653	0.0143723
741.731	0.0143524
741.809	0.0145218
741.887	0.0144234
741.965	0.0144991
742.043	0.0145078
742.121	0.0142891
742.200	0.0144411
742.278	0.0145126
742.356	0.0145258
742.434	0.0145308
742.512	0.0145795
742.590	0.0145314
742.668	0.0144611
742.746	0.0144274
742.825	0.0146962
742.903	0.0145592
742.981	0.0145918
743.059	0.0145584
743.137	0.0146601
743.215	0.0146262
743.293	0.0146326
743.371	0.0146522
743.450	0.0146277
743.528	0.0145021
743.606	0.0146651
743.684	0.0146515
743.762	0.0144650
743.840	0.0144870
743.918	0.0145658
743.996	0.0145820
744.075	0.0145083
744.153	0.0144523
744.231	0.0143858
744.309	0.0145718
744.387	0.0143022
744.465	0.0144125
744.543	0.0144820
744.621	0.0144277
744.700	0.0146018
744.778	0.0143896
744.856	0.0144254
744.934	0.0143137
745.012	0.0144833
745.090	0.0144949
745.168	0.0145531
745.246	0.0145824
745.325	0.0144376
745.403	0.0145173
745.481	0.0144930
745.559	0.0146172
745.637	0.0146126
745.715	0.0147041
745.793	0.0146212
745.871	0.0144832
745.950	0.0147507
746.028	0.0146616
746.106	0.0146326
746.184	0.0146416
746.262	0.0146671
746.340	0.0146891
746.418	0.0145978
746.496	0.0145205
746.575	0.0145569
746.653	0.0144386
746.731	0.0143813
746.809	0.0142938
746.887	0.0144941
746.965	0.0144885
747.043	0.0144418
747.121	0.0142626
747.200	0.0142146
747.278	0.0143639
747.356	0.0143457
747.434	0.0143010
747.512	0.0142852
747.590	0.0143233
747.668	0.0143046
747.746	0.0143199
747.825	0.0144244
747.903	0.0143592
747.981	0.0143852
748.059	0.0144370
748.137	0.0145699
748.215	0.0144919
748.293	0.0144505
748.371	0.0145526
748.450	0.0146113
748.528	0.0144801
748.606	0.0145907
748.684	0.0144709
748.762	0.0144967
748.840	0.0146424
748.918	0.0146255
748.996	0.0145523
749.075	0.0144912
749.153	0.0145308
749.231	0.0144638
749.309	0.0144645
749.387	0.0144832
749.465	0.0144009
749.543	0.0144775
749.621	0.0143682
749.700	0.0144353
749.778	0.0143504
749.856	0.0143367
749.934	0.0144012
750.012	0.0143697
750.090	0.0144621
750.168	0.0143644
750.246	0.0143340
750.325	0.0143620
750.403	0.0144241
750.481	0.0144775
750.559	0.0145459
750.637	0.0145129
750.715	0.0145299
750.793	0.0144971
750.871	0.0145256
750.950	0.0146049
751.028	0.0145652
751.106	0.0144662
751.184	0.0144563
751.262	0.0145911
751.340	0.0145293
751.418	0.0145181
751.496	0.0146046
751.575	0.0145107
751.653	0.0144570
751.731	0.0145110
751.809	0.0144939
751.887	0.0144019
751.965	0.0144709
752.043	0.0144891
752.121	0.0144499
752.200	0.0144594
752.278	0.0142170
752.356	0.0143601
752.434	0.0144139
752.512	0.0143658
752.590	0.0143736
752.668	0.0144633
752.746	0.0143513
752.825	0.0143997
752.903	0.0144419
752.981	0.0145236
753.059	0.0144964
753.137	0.0144112
753.215	0.0143533
753.293	0.0145226
753.371	0.0145120
753.450	0.0146455
753.528	0.0145372
753.606	0.0144459
753.684	0.0145518
753.762	0.0145119
753.840	0.0146402
753.918	0.0145768
753.996	0.0146239
754.075	0.0145229
754.153	0.0145896
754.231	0.0146323
754.309	0.0144255
754.387	0.0144846
754.465	0.0144001
754.543	0.0145123
754.621	0.0144206
754.700	0.0144222
754.778	0.0144338
754.856	0.0142725
754.934	0.0143526
755.012	0.0144308
755.090	0.0144376
755.168	0.0144395
755.246	0.0144016
755.325	0.0145502
755.403	0.0144378
755.481	0.0144194
755.559	0.0145893
755.637	0.0146333
755.715	0.0145494
755.793	0.0145219
755.871	0.0145155
755.950	0.0145791
756.028	0.0145311
756.106	0.0145332
756.184	0.0144178
756.262	0.0144247
756.340	0.0145567
756.418	0.0146088
756.496	0.0145721
756.575	0.0145495
756.653	0.0146246
756.731	0.0143534
756.809	0.0144507
756.887	0.0146167
756.965	0.0146082
757.043	0.0144898
757.121	0.0144700
757.200	0.0145245
757.278	0.0144156
757.356	0.0145568
757.434	0.0145412
757.512	0.0145108
757.590	0.0144248
757.668	0.0145383
757.746	0.0145435
757.825	0.0143946
757.903	0.0144603
757.981	0.0145019
758.059	0.0145407
758.137	0.0143614
758.215	0.0145226
758.293	0.0145702
758.371	0.0145101
758.450	0.0143334
758.528	0.0145460
758.606	0.0146084
758.684	0.0146260
758.762	0.0144775
758.840	0.0145376
758.918	0.0146429
758.996	0.0147474
759.075	0.0145422
759.153	0.0147167
759.231	0.0146143
759.309	0.0146138
759.387	0.0145976
759.465	0.0146262
759.543	0.0146021
759.621	0.0145099
759.700	0.0144598
759.778	0.0145031
759.856	0.0144468
759.934	0.0144762
760.012	0.0144882
760.090	0.0145366
760.168	0.0145164
760.246	0.0144411
760.325	0.0144365
760.403	0.0144151
760.481	0.0143884
760.559	0.0144168
760.637	0.0145246
760.715	0.0145765
760.793	0.0144707
760.871	0.0143910
760.950	0.0144832
761.028	0.0144500
761.106	0.0144906
761.184	0.0146188
761.262	0.0146120
761.340	0.0146739
761.418	0.0145444
761.496	0.0144912
761.575	0.0145532
761.653	0.0146281
761.731	0.0145837
761.809	0.0144967
761.887	0.0144847
761.965	0.0146091
762.043	0.0144836
762.121	0.0144090
762.200	0.0144652
762.278	0.0144963
762.356	0.0144433
762.434	0.0144345
762.512	0.0145379
762.590	0.0144416
762.668	0.0145148
762.746	0.0146049
762.825	0.0146109
762.903	0.0145940
762.981	0.0146394
763.059	0.0146399
763.137	0.0144238
763.215	0.0145962
763.293	0.0145485
763.371	0.0146081
763.450	0.0145732
763.528	0.0144849
763.606	0.0145572
763.684	0.0144484
763.762	0.0144092
763.840	0.0145935
763.918	0.0143559
763.996	0.0144180
764.075	0.0145084
764.153	0.0143819
764.231	0.0144506
764.309	0.0143282
764.387	0.0143821
764.465	0.0144285
764.543	0.0144171
764.621	0.0143462
764.700	0.0143131
