05/04/2022	21:32:03	Ver.	4.1	UNKNOWN
Optical Delay	678.989730	Delta X		0.078125	Sweeps	1	Scan Rate	0/0
Coordinates	Axis 1	NaN	Axis 2	NaN	Axis 3	NaN	Axis 4	NaN	Axis 5	NaN	Axis 6	0.000000
TX Power	0.000000	RX Power	0.000000

678.990	0.0142319
679.068	0.0144052
679.146	0.0142554
679.224	0.0140325
679.302	0.0141912
679.380	0.0140588
679.458	0.0140682
679.537	0.0140820
679.615	0.0140680
679.693	0.0141499
679.771	0.0141290
679.849	0.0141058
679.927	0.0141181
680.005	0.0140861
680.083	0.0142207
680.162	0.0142708
680.240	0.0141999
680.318	0.0142968
680.396	0.0143564
680.474	0.0143083
680.552	0.0142184
680.630	0.0142575
680.708	0.0143890
680.787	0.0142622
680.865	0.0143590
680.943	0.0141968
681.021	0.0142015
681.099	0.0143248
681.177	0.0144016
681.255	0.0141701
681.333	0.0142132
681.412	0.0141495
681.490	0.0143066
681.568	0.0142493
681.646	0.0141521
681.724	0.0141254
681.802	0.0142208
681.880	0.0140575
681.958	0.0142708
682.037	0.0141331
682.115	0.0140971
682.193	0.0141929
682.271	0.0141182
682.349	0.0141477
682.427	0.0142479
682.505	0.0142398
682.583	0.0141566
682.662	0.0142302
682.740	0.0142811
682.818	0.0142155
682.896	0.0141393
682.974	0.0141643
683.052	0.0143148
683.130	0.0144502
683.208	0.0142313
683.287	0.0142924
683.365	0.0143867
683.443	0.0141924
683.521	0.0144031
683.599	0.0144627
683.677	0.0143186
683.755	0.0143581
683.833	0.0143252
683.912	0.0143820
683.990	0.0142883
684.068	0.0142702
684.146	0.0142697
684.224	0.0142010
684.302	0.0143304
684.380	0.0143326
684.458	0.0141740
684.537	0.0141099
684.615	0.0142966
684.693	0.0140960
684.771	0.0141078
684.849	0.0141199
684.927	0.0141034
685.005	0.0142278
685.083	0.0142780
685.162	0.0143981
685.240	0.0142880
685.318	0.0142155
685.396	0.0143110
685.474	0.0143324
685.552	0.0142817
685.630	0.0144992
685.708	0.0144312
685.787	0.0143340
685.865	0.0142666
685.943	0.0142767
686.021	0.0142651
686.099	0.0143169
686.177	0.0144794
686.255	0.0143048
686.333	0.0141769
686.412	0.0141715
686.490	0.0142186
686.568	0.0142297
686.646	0.0141571
686.724	0.0141115
686.802	0.0140746
686.880	0.0142635
686.958	0.0139687
687.037	0.0139493
687.115	0.0140540
687.193	0.0139402
687.271	0.0140224
687.349	0.0140047
687.427	0.0140372
687.505	0.0141309
687.583	0.0141427
687.662	0.0140415
687.740	0.0141704
687.818	0.0141554
687.896	0.0142287
687.974	0.0142864
688.052	0.0143668
688.130	0.0144086
688.208	0.0144796
688.287	0.0146496
688.365	0.0145624
688.443	0.0146577
688.521	0.0147388
688.599	0.0145669
688.677	0.0145335
688.755	0.0143648
688.833	0.0142339
688.912	0.0142747
688.990	0.0142744
689.068	0.0140678
689.146	0.0139922
689.224	0.0139972
689.302	0.0140084
689.380	0.0139904
689.458	0.0139302
689.537	0.0138360
689.615	0.0139119
689.693	0.0137875
689.771	0.0138708
689.849	0.0138597
689.927	0.0139344
690.005	0.0140730
690.083	0.0141782
690.162	0.0143251
690.240	0.0144167
690.318	0.0145146
690.396	0.0145007
690.474	0.0145205
690.552	0.0144526
690.630	0.0146590
690.708	0.0144214
690.787	0.0144968
690.865	0.0145412
690.943	0.0144360
691.021	0.0145996
691.099	0.0145967
691.177	0.0144023
691.255	0.0144514
691.333	0.0145796
691.412	0.0146415
691.490	0.0145436
691.568	0.0145029
691.646	0.0143780
691.724	0.0143464
691.802	0.0142909
691.880	0.0142757
691.958	0.0141696
692.037	0.0141648
692.115	0.0141609
692.193	0.0139056
692.271	0.0138642
692.349	0.0138698
692.427	0.0137976
692.505	0.0138013
692.583	0.0138039
692.662	0.0137299
692.740	0.0138186
692.818	0.0138390
692.896	0.0139459
692.974	0.0138655
693.052	0.0139928
693.130	0.0141835
693.208	0.0141288
693.287	0.0142458
693.365	0.0144762
693.443	0.0145090
693.521	0.0145191
693.599	0.0145651
693.677	0.0147272
693.755	0.0146637
693.833	0.0146622
693.912	0.0145936
693.990	0.0146267
694.068	0.0144548
694.146	0.0146110
694.224	0.0146706
694.302	0.0144571
694.380	0.0144587
694.458	0.0144527
694.537	0.0142970
694.615	0.0142746
694.693	0.0143487
694.771	0.0141572
694.849	0.0141858
694.927	0.0141117
695.005	0.0138722
695.083	0.0139419
695.162	0.0139127
695.240	0.0138942
695.318	0.0139120
695.396	0.0138789
695.474	0.0138026
695.552	0.0139590
695.630	0.0139909
695.708	0.0137893
695.787	0.0139681
695.865	0.0137966
695.943	0.0139020
696.021	0.0139973
696.099	0.0139658
696.177	0.0141104
696.255	0.0141991
696.333	0.0143225
696.412	0.0146221
696.490	0.0146854
696.568	0.0146958
696.646	0.0148149
696.724	0.0148199
696.802	0.0149640
696.880	0.0149352
696.958	0.0147871
697.037	0.0147833
697.115	0.0147414
697.193	0.0145256
697.271	0.0143086
697.349	0.0142733
697.427	0.0142375
697.505	0.0141573
697.583	0.0140900
697.662	0.0141093
697.740	0.0141148
697.818	0.0140572
697.896	0.0139931
697.974	0.0139782
698.052	0.0140218
698.130	0.0139615
698.208	0.0139767
698.287	0.0140684
698.365	0.0140775
698.443	0.0141260
698.521	0.0142218
698.599	0.0143344
698.677	0.0142018
698.755	0.0140739
698.833	0.0140668
698.912	0.0140710
698.990	0.0141406
699.068	0.0141264
699.146	0.0140748
699.224	0.0139336
699.302	0.0141843
699.380	0.0141073
699.458	0.0140917
699.537	0.0142150
699.615	0.0142588
699.693	0.0144421
699.771	0.0143344
699.849	0.0145129
699.927	0.0144190
700.005	0.0145308
700.083	0.0146262
700.162	0.0145523
700.240	0.0146180
700.318	0.0145146
700.396	0.0144638
700.474	0.0144366
700.552	0.0145644
700.630	0.0144026
700.708	0.0144456
700.787	0.0144276
700.865	0.0144344
700.943	0.0142532
701.021	0.0142297
701.099	0.0142290
701.177	0.0140737
701.255	0.0139848
701.333	0.0140247
701.412	0.0139902
701.490	0.0139980
701.568	0.0140095
701.646	0.0139656
701.724	0.0139470
701.802	0.0140247
701.880	0.0141167
701.958	0.0142105
702.037	0.0142809
702.115	0.0144179
702.193	0.0144208
702.271	0.0144721
702.349	0.0143556
702.427	0.0143903
702.505	0.0143517
702.583	0.0143254
702.662	0.0143082
702.740	0.0141786
702.818	0.0140986
702.896	0.0140714
702.974	0.0141568
703.052	0.0142010
703.130	0.0143137
703.208	0.0142966
703.287	0.0143104
703.365	0.0142716
703.443	0.0142912
703.521	0.0142918
703.599	0.0143715
703.677	0.0143328
703.755	0.0142696
703.833	0.0143513
703.912	0.0142111
703.990	0.0142568
704.068	0.0141763
704.146	0.0142748
704.224	0.0142233
704.302	0.0140443
704.380	0.0140244
704.458	0.0139857
704.537	0.0138525
704.615	0.0139453
704.693	0.0138902
704.771	0.0139385
704.849	0.0138779
704.927	0.0139895
705.005	0.0141329
705.083	0.0141598
705.162	0.0141872
705.240	0.0143700
705.318	0.0144718
705.396	0.0143649
705.474	0.0143324
705.552	0.0142631
705.630	0.0142257
705.708	0.0142031
705.787	0.0142298
705.865	0.0141407
705.943	0.0141760
706.021	0.0141238
706.099	0.0140810
706.177	0.0143283
706.255	0.0143207
706.333	0.0142476
706.412	0.0145229
706.490	0.0145624
706.568	0.0145322
706.646	0.0145341
706.724	0.0145133
706.802	0.0145358
706.880	0.0144997
706.958	0.0144469
707.037	0.0143875
707.115	0.0141856
707.193	0.0141331
707.271	0.0142363
707.349	0.0140426
707.427	0.0140530
707.505	0.0139877
707.583	0.0140894
707.662	0.0139909
707.740	0.0140073
707.818	0.0140573
707.896	0.0140659
707.974	0.0139832
708.052	0.0142250
708.130	0.0143442
708.208	0.0143553
708.287	0.0144308
708.365	0.0144353
708.443	0.0144074
708.521	0.0144298
708.599	0.0144717
708.677	0.0144855
708.755	0.0143122
708.833	0.0144131
708.912	0.0142020
708.990	0.0143537
709.068	0.0142139
709.146	0.0142543
709.224	0.0142439
709.302	0.0142237
709.380	0.0143545
709.458	0.0142991
709.537	0.0143920
709.615	0.0144046
709.693	0.0142977
709.771	0.0143093
709.849	0.0143049
709.927	0.0141428
710.005	0.0141090
710.083	0.0140519
710.162	0.0141702
710.240	0.0141119
710.318	0.0142097
710.396	0.0140857
710.474	0.0140476
710.552	0.0139238
710.630	0.0140222
710.708	0.0140371
710.787	0.0140369
710.865	0.0140905
710.943	0.0141021
711.021	0.0142626
711.099	0.0142065
711.177	0.0144188
711.255	0.0143813
711.333	0.0144652
711.412	0.0143935
711.490	0.0144470
711.568	0.0144606
711.646	0.0143014
711.724	0.0143618
711.802	0.0143958
711.880	0.0143104
711.958	0.0143427
712.037	0.0142334
712.115	0.0141802
712.193	0.0141888
712.271	0.0141782
712.349	0.0141527
712.427	0.0143260
712.505	0.0144338
712.583	0.0143610
712.662	0.0142184
712.740	0.0144011
712.818	0.0143703
712.896	0.0142242
712.974	0.0141244
713.052	0.0141361
713.130	0.0141452
713.208	0.0140848
713.287	0.0141204
713.365	0.0140518
713.443	0.0140068
713.521	0.0142313
713.599	0.0141930
713.677	0.0139845
713.755	0.0141286
713.833	0.0141337
713.912	0.0142195
713.990	0.0143066
714.068	0.0144897
714.146	0.0142663
714.224	0.0141652
714.302	0.0143156
714.380	0.0144762
714.458	0.0144181
714.537	0.0142432
714.615	0.0143208
714.693	0.0142432
714.771	0.0142426
714.849	0.0142255
714.927	0.0142101
715.005	0.0142720
715.083	0.0141967
715.162	0.0141801
715.240	0.0143284
715.318	0.0143723
715.396	0.0142122
715.474	0.0143271
715.552	0.0142887
715.630	0.0142564
715.708	0.0143743
715.787	0.0143394
715.865	0.0142040
715.943	0.0144025
716.021	0.0142524
716.099	0.0142054
716.177	0.0141814
716.255	0.0141851
716.333	0.0140656
716.412	0.0140506
716.490	0.0139808
716.568	0.0140792
716.646	0.0141690
716.724	0.0141143
716.802	0.0140314
716.880	0.0140646
716.958	0.0139726
717.037	0.0139996
717.115	0.0140298
717.193	0.0141068
717.271	0.0141695
717.349	0.0143454
717.427	0.0143668
717.505	0.0142339
717.583	0.0143524
717.662	0.0143319
717.740	0.0145693
717.818	0.0143934
717.896	0.0143089
717.974	0.0141634
718.052	0.0142946
718.130	0.0140971
718.208	0.0142059
718.287	0.0142294
718.365	0.0142462
718.443	0.0142224
718.521	0.0139964
718.599	0.0142134
718.677	0.0142861
718.755	0.0143317
718.833	0.0141805
718.912	0.0143085
718.990	0.0144818
719.068	0.0143148
719.146	0.0143134
719.224	0.0142739
719.302	0.0143204
719.380	0.0144141
719.458	0.0145279
719.537	0.0144238
719.615	0.0143610
719.693	0.0142383
719.771	0.0141840
719.849	0.0142350
719.927	0.0142136
720.005	0.0140816
720.083	0.0140604
720.162	0.0141920
720.240	0.0141233
720.318	0.0141647
720.396	0.0141088
720.474	0.0140962
720.552	0.0141032
720.630	0.0140617
720.708	0.0141041
720.787	0.0142766
720.865	0.0141534
720.943	0.0142376
721.021	0.0142401
721.099	0.0141293
721.177	0.0143080
721.255	0.0142674
721.333	0.0141557
721.412	0.0143040
721.490	0.0142706
721.568	0.0141920
721.646	0.0142960
721.724	0.0142970
721.802	0.0142087
721.880	0.0142747
721.958	0.0142625
722.037	0.0140847
722.115	0.0142322
722.193	0.0143306
722.271	0.0143408
722.349	0.0142582
722.427	0.0142450
722.505	0.0143346
722.583	0.0144137
722.662	0.0144154
722.740	0.0143886
722.818	0.0144711
722.896	0.0146098
722.974	0.0144908
723.052	0.0144420
723.130	0.0143026
723.208	0.0144897
723.287	0.0143521
723.365	0.0143366
723.443	0.0143172
723.521	0.0139848
723.599	0.0140425
723.677	0.0141153
723.755	0.0140779
723.833	0.0139465
723.912	0.0139508
723.990	0.0140533
724.068	0.0141295
724.146	0.0140011
724.224	0.0139983
724.302	0.0142759
724.380	0.0140514
724.458	0.0141518
724.537	0.0142123
724.615	0.0140365
724.693	0.0142626
724.771	0.0143079
724.849	0.0143672
724.927	0.0142516
725.005	0.0143987
725.083	0.0144550
725.162	0.0145036
725.240	0.0144065
725.318	0.0144067
725.396	0.0143996
725.474	0.0144123
725.552	0.0143591
725.630	0.0145402
725.708	0.0144533
725.787	0.0144908
725.865	0.0143413
725.943	0.0144401
726.021	0.0143073
726.099	0.0143073
726.177	0.0142480
726.255	0.0142807
726.333	0.0142367
726.412	0.0141438
726.490	0.0142236
726.568	0.0141906
726.646	0.0142166
726.724	0.0141073
726.802	0.0140657
726.880	0.0141486
726.958	0.0141235
727.037	0.0139069
727.115	0.0142000
727.193	0.0139739
727.271	0.0141052
727.349	0.0140980
727.427	0.0142965
727.505	0.0143076
727.583	0.0142108
727.662	0.0141909
727.740	0.0142918
727.818	0.0142490
727.896	0.0142398
727.974	0.0143080
728.052	0.0143964
728.130	0.0143221
728.208	0.0141830
728.287	0.0143055
728.365	0.0142647
728.443	0.0142617
728.521	0.0141946
728.599	0.0141662
728.677	0.0143007
728.755	0.0142404
728.833	0.0141588
728.912	0.0141730
728.990	0.0142120
729.068	0.0142374
729.146	0.0143255
729.224	0.0141618
729.302	0.0142984
729.380	0.0142623
729.458	0.0142868
729.537	0.0144124
729.615	0.0142774
729.693	0.0142400
729.771	0.0144362
729.849	0.0143637
729.927	0.0145609
730.005	0.0144662
730.083	0.0143742
730.162	0.0142467
730.240	0.0144053
730.318	0.0142562
730.396	0.0143523
730.474	0.0142046
730.552	0.0142816
730.630	0.0141468
730.708	0.0141746
730.787	0.0141290
730.865	0.0141401
730.943	0.0142338
731.021	0.0141978
731.099	0.0141939
731.177	0.0140188
731.255	0.0140877
731.333	0.0139310
731.412	0.0139439
731.490	0.0138839
731.568	0.0139636
731.646	0.0141422
731.724	0.0140806
731.802	0.0141821
731.880	0.0141643
731.958	0.0143296
732.037	0.0143692
732.115	0.0143019
732.193	0.0143129
732.271	0.0145191
732.349	0.0144037
732.427	0.0144049
732.505	0.0144565
732.583	0.0144921
732.662	0.0144302
732.740	0.0145142
732.818	0.0144583
732.896	0.0144527
732.974	0.0142753
733.052	0.0142802
733.130	0.0143090
733.208	0.0143035
733.287	0.0143122
733.365	0.0143618
733.443	0.0143043
733.521	0.0142703
733.599	0.0144129
733.677	0.0142017
733.755	0.0140804
733.833	0.0141435
733.912	0.0139747
733.990	0.0140160
734.068	0.0140595
734.146	0.0140829
734.224	0.0141139
734.302	0.0140013
734.380	0.0140009
734.458	0.0142178
734.537	0.0141600
734.615	0.0142274
734.693	0.0142105
734.771	0.0141986
734.849	0.0142786
734.927	0.0143970
735.005	0.0143805
735.083	0.0143243
735.162	0.0143746
735.240	0.0144940
735.318	0.0144921
735.396	0.0145924
735.474	0.0143593
735.552	0.0143890
735.630	0.0145267
735.708	0.0143887
735.787	0.0143110
735.865	0.0142903
735.943	0.0142406
736.021	0.0143408
736.099	0.0141853
736.177	0.0141766
736.255	0.0143304
736.333	0.0142314
736.412	0.0141936
736.490	0.0141222
736.568	0.0141150
736.646	0.0140818
736.724	0.0141875
736.802	0.0141404
736.880	0.0140855
736.958	0.0140350
737.037	0.0140679
737.115	0.0141271
737.193	0.0141695
737.271	0.0140446
737.349	0.0141459
737.427	0.0142371
737.505	0.0141898
737.583	0.0144124
737.662	0.0143041
737.740	0.0142179
737.818	0.0142374
737.896	0.0142423
737.974	0.0143404
738.052	0.0144270
738.130	0.0144291
738.208	0.0143040
738.287	0.0143272
738.365	0.0142944
738.443	0.0142843
738.521	0.0142319
738.599	0.0140756
738.677	0.0141868
738.755	0.0142767
738.833	0.0141179
738.912	0.0139082
738.990	0.0142696
739.068	0.0140704
739.146	0.0141105
739.224	0.0142535
739.302	0.0142325
739.380	0.0141406
739.458	0.0141559
739.537	0.0142110
739.615	0.0142375
739.693	0.0141499
739.771	0.0141639
739.849	0.0142458
739.927	0.0142374
740.005	0.0142386
740.083	0.0142612
740.162	0.0141965
740.240	0.0143197
740.318	0.0141599
740.396	0.0142471
740.474	0.0142519
740.552	0.0142155
740.630	0.0142190
740.708	0.0142430
740.787	0.0141771
740.865	0.0140395
740.943	0.0141621
741.021	0.0141589
741.099	0.0142142
741.177	0.0141760
741.255	0.0142413
741.333	0.0141961
741.412	0.0142531
741.490	0.0143121
741.568	0.0142704
741.646	0.0141696
741.724	0.0142713
741.802	0.0143101
741.880	0.0143089
741.958	0.0141737
742.037	0.0142728
742.115	0.0144923
742.193	0.0143054
742.271	0.0142305
742.349	0.0144346
742.427	0.0144924
742.505	0.0142682
742.583	0.0142715
742.662	0.0144301
742.740	0.0142792
742.818	0.0143731
742.896	0.0142848
742.974	0.0142239
743.052	0.0143319
743.130	0.0143485
743.208	0.0143384
743.287	0.0143970
743.365	0.0141353
743.443	0.0141324
743.521	0.0142098
743.599	0.0140410
743.677	0.0141880
743.755	0.0143026
743.833	0.0142258
743.912	0.0140886
743.990	0.0141686
744.068	0.0140161
744.146	0.0140314
744.224	0.0139570
744.302	0.0141846
744.380	0.0140363
744.458	0.0140459
744.537	0.0140708
744.615	0.0141387
744.693	0.0141978
744.771	0.0141558
744.849	0.0142083
744.927	0.0142451
745.005	0.0142509
745.083	0.0143314
745.162	0.0144850
745.240	0.0142778
745.318	0.0144592
745.396	0.0144199
745.474	0.0142831
745.552	0.0144677
745.630	0.0143700
745.708	0.0143172
745.787	0.0143053
745.865	0.0143793
745.943	0.0143607
746.021	0.0143190
746.099	0.0144112
746.177	0.0142706
746.255	0.0141649
746.333	0.0142967
746.412	0.0141219
746.490	0.0141221
746.568	0.0143477
746.646	0.0143192
746.724	0.0141784
746.802	0.0139692
746.880	0.0139893
746.958	0.0139050
747.037	0.0141173
747.115	0.0141196
747.193	0.0140678
747.271	0.0142638
747.349	0.0141856
747.427	0.0140289
747.505	0.0141696
747.583	0.0141979
747.662	0.0142915
747.740	0.0143115
747.818	0.0142326
747.896	0.0142427
747.974	0.0143105
748.052	0.0144992
748.130	0.0144076
748.208	0.0143386
748.287	0.0144280
748.365	0.0144347
748.443	0.0143051
748.521	0.0143185
748.599	0.0143600
748.677	0.0142065
748.755	0.0144286
748.833	0.0143352
748.912	0.0142044
748.990	0.0143011
749.068	0.0141309
749.146	0.0142315
749.224	0.0143435
749.302	0.0143274
749.380	0.0143157
749.458	0.0142276
749.537	0.0142075
749.615	0.0142342
749.693	0.0142702
749.771	0.0143075
749.849	0.0142900
749.927	0.0143382
750.005	0.0142177
750.083	0.0142496
750.162	0.0143173
750.240	0.0142915
750.318	0.0143383
750.396	0.0145024
750.474	0.0143317
750.552	0.0142183
750.630	0.0143106
750.708	0.0142812
750.787	0.0142843
750.865	0.0142030
750.943	0.0142069
751.021	0.0141587
751.099	0.0142274
751.177	0.0141796
751.255	0.0142346
751.333	0.0141636
751.412	0.0141171
751.490	0.0142223
751.568	0.0140405
751.646	0.0140758
751.724	0.0140262
751.802	0.0142043
751.880	0.0140094
751.958	0.0140363
752.037	0.0141412
752.115	0.0140829
752.193	0.0141493
752.271	0.0142797
752.349	0.0140941
752.427	0.0141557
752.505	0.0142854
752.583	0.0142307
752.662	0.0142514
752.740	0.0142741
752.818	0.0141873
752.896	0.0144126
752.974	0.0143810
753.052	0.0143138
753.130	0.0144077
753.208	0.0143640
753.287	0.0144061
753.365	0.0143694
753.443	0.0143129
753.521	0.0143553
753.599	0.0142484
753.677	0.0142341
753.755	0.0142204
753.833	0.0143482
753.912	0.0142702
753.990	0.0141960
754.068	0.0141689
754.146	0.0142477
754.224	0.0142307
754.302	0.0141068
754.380	0.0141278
754.458	0.0141488
754.537	0.0140462
754.615	0.0140939
754.693	0.0141875
754.771	0.0141975
754.849	0.0142793
754.927	0.0140727
755.005	0.0142632
755.083	0.0142422
755.162	0.0141989
755.240	0.0143433
755.318	0.0142117
755.396	0.0143407
755.474	0.0140878
755.552	0.0141377
755.630	0.0143187
755.708	0.0142397
755.787	0.0143701
755.865	0.0142694
755.943	0.0143065
756.021	0.0142934
756.099	0.0142025
756.177	0.0143463
756.255	0.0142894
756.333	0.0142710
756.412	0.0143524
756.490	0.0142442
756.568	0.0141394
756.646	0.0142005
756.724	0.0142867
756.802	0.0141270
756.880	0.0142061
756.958	0.0141182
757.037	0.0140501
757.115	0.0142194
757.193	0.0142923
757.271	0.0142139
757.349	0.0142409
757.427	0.0141779
757.505	0.0141703
757.583	0.0142545
757.662	0.0143343
757.740	0.0142354
757.818	0.0142236
757.896	0.0142716
757.974	0.0142715
758.052	0.0143133
758.130	0.0142822
758.208	0.0143579
758.287	0.0144891
758.365	0.0144173
758.443	0.0143241
758.521	0.0143364
758.599	0.0142748
758.677	0.0143880
758.755	0.0143945
758.833	0.0141553
758.912	0.0142588
758.990	0.0143092
759.068	0.0143262
759.146	0.0141223
759.224	0.0139441
759.302	0.0142562
759.380	0.0141733
759.458	0.0141247
759.537	0.0141039
759.615	0.0141450
759.693	0.0141183
759.771	0.0142804
759.849	0.0141802
759.927	0.0141815
760.005	0.0141454
760.083	0.0142808
760.162	0.0144155
760.240	0.0142363
760.318	0.0142609
760.396	0.0142206
760.474	0.0142493
760.552	0.0143070
760.630	0.0142719
760.708	0.0142359
760.787	0.0143273
760.865	0.0143183
760.943	0.0142078
761.021	0.0141618
761.099	0.0141486
761.177	0.0142043
761.255	0.0141957
761.333	0.0142214
761.412	0.0142203
761.490	0.0141772
761.568	0.0141605
761.646	0.0140541
761.724	0.0141451
761.802	0.0140817
761.880	0.0143369
761.958	0.0142235
762.037	0.0142150
762.115	0.0143021
762.193	0.0142636
762.271	0.0141937
762.349	0.0141674
762.427	0.0142879
762.505	0.0144487
762.583	0.0142123
762.662	0.0142097
762.740	0.0142898
762.818	0.0142371
762.896	0.0141362
762.974	0.0141968
763.052	0.0142261
763.130	0.0142389
763.208	0.0142580
763.287	0.0141401
763.365	0.0142033
763.443	0.0142458
763.521	0.0142036
763.599	0.0143108
763.677	0.0142735
763.755	0.0142785
763.833	0.0141263
763.912	0.0141984
763.990	0.0141569
764.068	0.0141325
764.146	0.0141077
764.224	0.0140788
764.302	0.0141212
764.380	0.0141685
764.458	0.0140044
764.537	0.0140778
764.615	0.0141653
764.693	0.0140816
