05/20/2022	20:36:52	Ver.	4.1	UNKNOWN
Optical Delay	599.981738	Delta X		0.078125	Sweeps	1	Scan Rate	0/0
Coordinates	Axis 1	NaN	Axis 2	NaN	Axis 3	NaN	Axis 4	NaN	Axis 5	NaN	Axis 6	0.000000
TX Power	0.000000	RX Power	0.000000

599.982	0.0146685
600.060	0.0147517
600.138	0.0146806
600.216	0.0146530
600.294	0.0148070
600.372	0.0146210
600.450	0.0145858
600.529	0.0148827
600.607	0.0147303
600.685	0.0145655
600.763	0.0145712
600.841	0.0147588
600.919	0.0147695
600.997	0.0147065
601.075	0.0146359
601.154	0.0146166
601.232	0.0147812
601.310	0.0147542
601.388	0.0147539
601.466	0.0145672
601.544	0.0146767
601.622	0.0146804
601.700	0.0146803
601.779	0.0146375
601.857	0.0145993
601.935	0.0146022
602.013	0.0145490
602.091	0.0146784
602.169	0.0146915
602.247	0.0146396
602.325	0.0146153
602.404	0.0147073
602.482	0.0145792
602.560	0.0145762
602.638	0.0145941
602.716	0.0144761
602.794	0.0146340
602.872	0.0147011
602.950	0.0146935
603.029	0.0148340
603.107	0.0147366
603.185	0.0146325
603.263	0.0147080
603.341	0.0147889
603.419	0.0146015
603.497	0.0146282
603.575	0.0147384
603.654	0.0146548
603.732	0.0145786
603.810	0.0145707
603.888	0.0147102
603.966	0.0146017
604.044	0.0146726
604.122	0.0146578
604.200	0.0146309
604.279	0.0146707
604.357	0.0148067
604.435	0.0145244
604.513	0.0146953
604.591	0.0147464
604.669	0.0147650
604.747	0.0146689
604.825	0.0147404
604.904	0.0147176
604.982	0.0147950
605.060	0.0147553
605.138	0.0146097
605.216	0.0147875
605.294	0.0147086
605.372	0.0146910
605.450	0.0147813
605.529	0.0146807
605.607	0.0147035
605.685	0.0146218
605.763	0.0146838
605.841	0.0146984
605.919	0.0148326
605.997	0.0148202
606.075	0.0147487
606.154	0.0146339
606.232	0.0146095
606.310	0.0147161
606.388	0.0146684
606.466	0.0147189
606.544	0.0146275
606.622	0.0146474
606.700	0.0146872
606.779	0.0146721
606.857	0.0148081
606.935	0.0146577
607.013	0.0146462
607.091	0.0146801
607.169	0.0146992
607.247	0.0147724
607.325	0.0147190
607.404	0.0146217
607.482	0.0147126
607.560	0.0146790
607.638	0.0145502
607.716	0.0147430
607.794	0.0146758
607.872	0.0147247
607.950	0.0146935
608.029	0.0146418
608.107	0.0146335
608.185	0.0146207
608.263	0.0145458
608.341	0.0148099
608.419	0.0148218
608.497	0.0146290
608.575	0.0146124
608.654	0.0146154
608.732	0.0147878
608.810	0.0146284
608.888	0.0146226
608.966	0.0147170
609.044	0.0146296
609.122	0.0146261
609.200	0.0145504
609.279	0.0146886
609.357	0.0146912
609.435	0.0146199
609.513	0.0145718
609.591	0.0145791
609.669	0.0145915
609.747	0.0145629
609.825	0.0147455
609.904	0.0147775
609.982	0.0145853
610.060	0.0147826
610.138	0.0147388
610.216	0.0148245
610.294	0.0145496
610.372	0.0147520
610.450	0.0148737
610.529	0.0144772
610.607	0.0146770
610.685	0.0145648
610.763	0.0145981
610.841	0.0147622
610.919	0.0147373
610.997	0.0147952
611.075	0.0147785
611.154	0.0145416
611.232	0.0146168
611.310	0.0146371
611.388	0.0147063
611.466	0.0147694
611.544	0.0146751
611.622	0.0147353
611.700	0.0146272
611.779	0.0146912
611.857	0.0146598
611.935	0.0146668
612.013	0.0146434
612.091	0.0147095
612.169	0.0148212
612.247	0.0146912
612.325	0.0146983
612.404	0.0147599
612.482	0.0147475
612.560	0.0147658
612.638	0.0148217
612.716	0.0148045
612.794	0.0147051
612.872	0.0145798
612.950	0.0146631
613.029	0.0146458
613.107	0.0145912
613.185	0.0146122
613.263	0.0147002
613.341	0.0146708
613.419	0.0146307
613.497	0.0145861
613.575	0.0146260
613.654	0.0146637
613.732	0.0146905
613.810	0.0145737
613.888	0.0146308
613.966	0.0145895
614.044	0.0147546
614.122	0.0147372
614.200	0.0146455
614.279	0.0146651
614.357	0.0145866
614.435	0.0147124
614.513	0.0147156
614.591	0.0146470
614.669	0.0147166
614.747	0.0146647
614.825	0.0147161
614.904	0.0145818
614.982	0.0146714
615.060	0.0147702
615.138	0.0147476
615.216	0.0146842
615.294	0.0145147
615.372	0.0145901
615.450	0.0145880
615.529	0.0146402
615.607	0.0147827
615.685	0.0147303
615.763	0.0146716
615.841	0.0145798
615.919	0.0147217
615.997	0.0145835
616.075	0.0146890
616.154	0.0145943
616.232	0.0145336
616.310	0.0147412
616.388	0.0147412
616.466	0.0146516
616.544	0.0145705
616.622	0.0147681
616.700	0.0145890
616.779	0.0146429
616.857	0.0148226
616.935	0.0146350
617.013	0.0145747
617.091	0.0147259
617.169	0.0145956
617.247	0.0146075
617.325	0.0146368
617.404	0.0146845
617.482	0.0146799
617.560	0.0147256
617.638	0.0146535
617.716	0.0147208
617.794	0.0145688
617.872	0.0146503
617.950	0.0148025
618.029	0.0146487
618.107	0.0146681
618.185	0.0146973
618.263	0.0146425
618.341	0.0146912
618.419	0.0146638
618.497	0.0146763
618.575	0.0147469
618.654	0.0147509
618.732	0.0146111
618.810	0.0146237
618.888	0.0147186
618.966	0.0146172
619.044	0.0147091
619.122	0.0145666
619.200	0.0146206
619.279	0.0145893
619.357	0.0147369
619.435	0.0146526
619.513	0.0146617
619.591	0.0146552
619.669	0.0146552
619.747	0.0147115
619.825	0.0146632
619.904	0.0147184
619.982	0.0147330
620.060	0.0146221
620.138	0.0147475
620.216	0.0147325
620.294	0.0147018
620.372	0.0147255
620.450	0.0145370
620.529	0.0146195
620.607	0.0148405
620.685	0.0147583
620.763	0.0145502
620.841	0.0145346
620.919	0.0146375
620.997	0.0146975
621.075	0.0148560
621.154	0.0145753
621.232	0.0145791
621.310	0.0145978
621.388	0.0146474
621.466	0.0146365
621.544	0.0145153
621.622	0.0147231
621.700	0.0147737
621.779	0.0146689
621.857	0.0147491
621.935	0.0148403
622.013	0.0146876
622.091	0.0145766
622.169	0.0146606
622.247	0.0145174
622.325	0.0146078
622.404	0.0145973
622.482	0.0147765
622.560	0.0146912
622.638	0.0146318
622.716	0.0147525
622.794	0.0146661
622.872	0.0145998
622.950	0.0146645
623.029	0.0146286
623.107	0.0146745
623.185	0.0146376
623.263	0.0148247
623.341	0.0147160
623.419	0.0147605
623.497	0.0148636
623.575	0.0146587
623.654	0.0146523
623.732	0.0147280
623.810	0.0146639
623.888	0.0146684
623.966	0.0147547
624.044	0.0146700
624.122	0.0146745
624.200	0.0148315
624.279	0.0146928
624.357	0.0147182
624.435	0.0146311
624.513	0.0146962
624.591	0.0147709
624.669	0.0147205
624.747	0.0147450
624.825	0.0146011
624.904	0.0147138
624.982	0.0146323
625.060	0.0145354
625.138	0.0147456
625.216	0.0147136
625.294	0.0147579
625.372	0.0146633
625.450	0.0145664
625.529	0.0146965
625.607	0.0146053
625.685	0.0146215
625.763	0.0147484
625.841	0.0146835
625.919	0.0146231
625.997	0.0146908
626.075	0.0146892
626.154	0.0146055
626.232	0.0146566
626.310	0.0145513
626.388	0.0147115
626.466	0.0147124
626.544	0.0146267
626.622	0.0146263
626.700	0.0147354
626.779	0.0145315
626.857	0.0146823
626.935	0.0145519
627.013	0.0146842
627.091	0.0146151
627.169	0.0146591
627.247	0.0147263
627.325	0.0146983
627.404	0.0145908
627.482	0.0146596
627.560	0.0148315
627.638	0.0147505
627.716	0.0146718
627.794	0.0146271
627.872	0.0146222
627.950	0.0147677
628.029	0.0147079
628.107	0.0146130
628.185	0.0146813
628.263	0.0145432
628.341	0.0147493
628.419	0.0146745
628.497	0.0145510
628.575	0.0146914
628.654	0.0146536
628.732	0.0147279
628.810	0.0147168
628.888	0.0146559
628.966	0.0147768
629.044	0.0146366
629.122	0.0146405
629.200	0.0147654
629.279	0.0147192
629.357	0.0147073
629.435	0.0146635
629.513	0.0146936
629.591	0.0146842
629.669	0.0145612
629.747	0.0148093
629.825	0.0146671
629.904	0.0147420
629.982	0.0147529
630.060	0.0147272
630.138	0.0146600
630.216	0.0146167
630.294	0.0146474
630.372	0.0147193
630.450	0.0146551
630.529	0.0147070
630.607	0.0146572
630.685	0.0146189
630.763	0.0145776
630.841	0.0146700
630.919	0.0147640
630.997	0.0147100
631.075	0.0145885
631.154	0.0146559
631.232	0.0146404
631.310	0.0148043
631.388	0.0146925
631.466	0.0147490
631.544	0.0148013
631.622	0.0147503
631.700	0.0146678
631.779	0.0146886
631.857	0.0146549
631.935	0.0148050
632.013	0.0147687
632.091	0.0146347
632.169	0.0146049
632.247	0.0147221
632.325	0.0145171
632.404	0.0146487
632.482	0.0146725
632.560	0.0145761
632.638	0.0145152
632.716	0.0145680
632.794	0.0146470
632.872	0.0146973
632.950	0.0146754
633.029	0.0146442
633.107	0.0146633
633.185	0.0146309
633.263	0.0147457
633.341	0.0147057
633.419	0.0146001
633.497	0.0146162
633.575	0.0147054
633.654	0.0147533
633.732	0.0146354
633.810	0.0146096
633.888	0.0146097
633.966	0.0147485
634.044	0.0146450
634.122	0.0147823
634.200	0.0147615
634.279	0.0146563
634.357	0.0146479
634.435	0.0148277
634.513	0.0144564
634.591	0.0144606
634.669	0.0145778
634.747	0.0147897
634.825	0.0146584
634.904	0.0147392
634.982	0.0147224
635.060	0.0147765
635.138	0.0145694
635.216	0.0146091
635.294	0.0147450
635.372	0.0146598
635.450	0.0145921
635.529	0.0146875
635.607	0.0147035
635.685	0.0146914
635.763	0.0146075
635.841	0.0146130
635.919	0.0147026
635.997	0.0146600
636.075	0.0146802
636.154	0.0146297
636.232	0.0147030
636.310	0.0146926
636.388	0.0147306
636.466	0.0147326
636.544	0.0146486
636.622	0.0146324
636.700	0.0146344
636.779	0.0146323
636.857	0.0147418
636.935	0.0147236
637.013	0.0146851
637.091	0.0146042
637.169	0.0146278
637.247	0.0147816
637.325	0.0147224
637.404	0.0147249
637.482	0.0146205
637.560	0.0147024
637.638	0.0147932
637.716	0.0147930
637.794	0.0146037
637.872	0.0145585
637.950	0.0145702
638.029	0.0145778
638.107	0.0148266
638.185	0.0146436
638.263	0.0145719
638.341	0.0146820
638.419	0.0146201
638.497	0.0146867
638.575	0.0146692
638.654	0.0146577
638.732	0.0146983
638.810	0.0146626
638.888	0.0145377
638.966	0.0147123
639.044	0.0147811
639.122	0.0146613
639.200	0.0146017
639.279	0.0145741
639.357	0.0146542
639.435	0.0147706
639.513	0.0145811
639.591	0.0146782
639.669	0.0147492
639.747	0.0146143
639.825	0.0145811
639.904	0.0146802
639.982	0.0147561
640.060	0.0145180
640.138	0.0145741
640.216	0.0145883
640.294	0.0148045
640.372	0.0147237
640.450	0.0144391
640.529	0.0146876
640.607	0.0147086
640.685	0.0146555
640.763	0.0145985
640.841	0.0146450
640.919	0.0145288
640.997	0.0147200
641.075	0.0145856
641.154	0.0145396
641.232	0.0145867
641.310	0.0146162
641.388	0.0146401
641.466	0.0145630
641.544	0.0145638
641.622	0.0147691
641.700	0.0147116
641.779	0.0146170
641.857	0.0146046
641.935	0.0146883
642.013	0.0146465
642.091	0.0146600
642.169	0.0147534
642.247	0.0146809
642.325	0.0146499
642.404	0.0146318
642.482	0.0145541
642.560	0.0145770
642.638	0.0145879
642.716	0.0146639
642.794	0.0148188
642.872	0.0147162
642.950	0.0146780
643.029	0.0145511
643.107	0.0147426
643.185	0.0146755
643.263	0.0146566
643.341	0.0145745
643.419	0.0145832
643.497	0.0145204
643.575	0.0145741
643.654	0.0145943
643.732	0.0146582
643.810	0.0147467
643.888	0.0146290
643.966	0.0146223
644.044	0.0145882
644.122	0.0146546
644.200	0.0147071
644.279	0.0145797
644.357	0.0146092
644.435	0.0146350
644.513	0.0146902
644.591	0.0147923
644.669	0.0146017
644.747	0.0147366
644.825	0.0145661
644.904	0.0146336
644.982	0.0146651
645.060	0.0147128
645.138	0.0147111
645.216	0.0147025
645.294	0.0147736
645.372	0.0147098
645.450	0.0145541
645.529	0.0146178
645.607	0.0146753
645.685	0.0146999
645.763	0.0146363
645.841	0.0146099
645.919	0.0146220
645.997	0.0147758
646.075	0.0146336
646.154	0.0146899
646.232	0.0145937
646.310	0.0147411
646.388	0.0146639
646.466	0.0146390
646.544	0.0146667
646.622	0.0147083
646.700	0.0146352
646.779	0.0145256
646.857	0.0145276
646.935	0.0146715
647.013	0.0146937
647.091	0.0147084
647.169	0.0145007
647.247	0.0145879
647.325	0.0147299
647.404	0.0145879
647.482	0.0146905
647.560	0.0146440
647.638	0.0146864
647.716	0.0146217
647.794	0.0145274
647.872	0.0146699
647.950	0.0146857
648.029	0.0145213
648.107	0.0146548
648.185	0.0145912
648.263	0.0146507
648.341	0.0146323
648.419	0.0145500
648.497	0.0147635
648.575	0.0146783
648.654	0.0145522
648.732	0.0146243
648.810	0.0147103
648.888	0.0146760
648.966	0.0146983
649.044	0.0145868
649.122	0.0147782
649.200	0.0146740
649.279	0.0147086
649.357	0.0147005
649.435	0.0147608
649.513	0.0145456
649.591	0.0146302
649.669	0.0147527
649.747	0.0147259
649.825	0.0146593
649.904	0.0145833
649.982	0.0145892
650.060	0.0147129
650.138	0.0145548
650.216	0.0145471
650.294	0.0147365
650.372	0.0147683
650.450	0.0145858
650.529	0.0146401
650.607	0.0147852
650.685	0.0145476
650.763	0.0145763
650.841	0.0147768
650.919	0.0147072
650.997	0.0146371
651.075	0.0146765
651.154	0.0146941
651.232	0.0147657
651.310	0.0147773
651.388	0.0146556
651.466	0.0145983
651.544	0.0145398
651.622	0.0146616
651.700	0.0146697
651.779	0.0147153
651.857	0.0145287
651.935	0.0146400
652.013	0.0148000
652.091	0.0146118
652.169	0.0146170
652.247	0.0147004
652.325	0.0147369
652.404	0.0146355
652.482	0.0145487
652.560	0.0146832
652.638	0.0145745
652.716	0.0146299
652.794	0.0146546
652.872	0.0146867
652.950	0.0146232
653.029	0.0146133
653.107	0.0146445
653.185	0.0146199
653.263	0.0146525
653.341	0.0146642
653.419	0.0146255
653.497	0.0147321
653.575	0.0145100
653.654	0.0146011
653.732	0.0148183
653.810	0.0147197
653.888	0.0145731
653.966	0.0146588
654.044	0.0146608
654.122	0.0146269
654.200	0.0148183
654.279	0.0146508
654.357	0.0146706
654.435	0.0145323
654.513	0.0146583
654.591	0.0146625
654.669	0.0147098
654.747	0.0146442
654.825	0.0147302
654.904	0.0146801
654.982	0.0146638
655.060	0.0145881
655.138	0.0145222
655.216	0.0146303
655.294	0.0146707
655.372	0.0145174
655.450	0.0146003
655.529	0.0146320
655.607	0.0146517
655.685	0.0146396
655.763	0.0145830
655.841	0.0145572
655.919	0.0146344
655.997	0.0146494
656.075	0.0145810
656.154	0.0146098
656.232	0.0145763
656.310	0.0146052
656.388	0.0146182
656.466	0.0147400
656.544	0.0145628
656.622	0.0146162
656.700	0.0145557
656.779	0.0146210
656.857	0.0144823
656.935	0.0147196
657.013	0.0145879
657.091	0.0146483
657.169	0.0147273
657.247	0.0145271
657.325	0.0144939
657.404	0.0146131
657.482	0.0146482
657.560	0.0145407
657.638	0.0146752
657.716	0.0146127
657.794	0.0144929
657.872	0.0147065
657.950	0.0147304
658.029	0.0147567
658.107	0.0146599
658.185	0.0145971
658.263	0.0145265
658.341	0.0146770
658.419	0.0147807
658.497	0.0148100
658.575	0.0146040
658.654	0.0146124
658.732	0.0145837
658.810	0.0147890
658.888	0.0147151
658.966	0.0145605
659.044	0.0147341
659.122	0.0146396
659.200	0.0145713
659.279	0.0146815
659.357	0.0146581
659.435	0.0146587
659.513	0.0147347
659.591	0.0144524
659.669	0.0145061
659.747	0.0146873
659.825	0.0147229
659.904	0.0147071
659.982	0.0146136
660.060	0.0146680
660.138	0.0147231
660.216	0.0145841
660.294	0.0145144
660.372	0.0147054
660.450	0.0145640
660.529	0.0146234
660.607	0.0147220
660.685	0.0145879
660.763	0.0146546
660.841	0.0147188
660.919	0.0145323
660.997	0.0146284
661.075	0.0145519
661.154	0.0145184
661.232	0.0146136
661.310	0.0146595
661.388	0.0146329
661.466	0.0145315
661.544	0.0147110
661.622	0.0147425
661.700	0.0146299
661.779	0.0147444
661.857	0.0144593
661.935	0.0146173
662.013	0.0147115
662.091	0.0146628
662.169	0.0146325
662.247	0.0147016
662.325	0.0147075
662.404	0.0146710
662.482	0.0145841
662.560	0.0145992
662.638	0.0146667
662.716	0.0146608
662.794	0.0147758
662.872	0.0147704
662.950	0.0145587
663.029	0.0145842
663.107	0.0147637
663.185	0.0147532
663.263	0.0147514
663.341	0.0146590
663.419	0.0147607
663.497	0.0147044
663.575	0.0147743
663.654	0.0146028
663.732	0.0145406
663.810	0.0146567
663.888	0.0146793
663.966	0.0147401
664.044	0.0147829
664.122	0.0146432
664.200	0.0146262
664.279	0.0146042
664.357	0.0147334
664.435	0.0146019
664.513	0.0146329
664.591	0.0146467
664.669	0.0146925
664.747	0.0147811
664.825	0.0147409
664.904	0.0147387
664.982	0.0145988
665.060	0.0145532
665.138	0.0146557
665.216	0.0145047
665.294	0.0146310
665.372	0.0147426
665.450	0.0145946
665.529	0.0146622
665.607	0.0147457
665.685	0.0147910
665.763	0.0146033
665.841	0.0146358
665.919	0.0147506
665.997	0.0147336
666.075	0.0145580
666.154	0.0145797
666.232	0.0147516
666.310	0.0146699
666.388	0.0146244
666.466	0.0146805
666.544	0.0147810
666.622	0.0146783
666.700	0.0146601
666.779	0.0146353
666.857	0.0147462
666.935	0.0146564
667.013	0.0146536
667.091	0.0146131
667.169	0.0145509
667.247	0.0146440
667.325	0.0147159
667.404	0.0145583
667.482	0.0148253
667.560	0.0147867
667.638	0.0148083
667.716	0.0147702
667.794	0.0146719
667.872	0.0146414
667.950	0.0147946
668.029	0.0147006
668.107	0.0145628
668.185	0.0147005
668.263	0.0147666
668.341	0.0147057
668.419	0.0146215
668.497	0.0146885
668.575	0.0146147
668.654	0.0146611
668.732	0.0146289
668.810	0.0146987
668.888	0.0145802
668.966	0.0145706
669.044	0.0147184
669.122	0.0146629
669.200	0.0146648
669.279	0.0146587
669.357	0.0145483
669.435	0.0145464
669.513	0.0147311
669.591	0.0146209
669.669	0.0146870
669.747	0.0146779
669.825	0.0146002
669.904	0.0146410
669.982	0.0146810
670.060	0.0147324
670.138	0.0147507
670.216	0.0144997
670.294	0.0146401
670.372	0.0144587
670.450	0.0145882
670.529	0.0147073
670.607	0.0146687
670.685	0.0146127
670.763	0.0146081
670.841	0.0145725
670.919	0.0146256
670.997	0.0145808
671.075	0.0144872
671.154	0.0145367
671.232	0.0145184
671.310	0.0146198
671.388	0.0145333
671.466	0.0145864
671.544	0.0145952
671.622	0.0145602
671.700	0.0146953
671.779	0.0146568
671.857	0.0145315
671.935	0.0145572
672.013	0.0145535
672.091	0.0146298
672.169	0.0145128
672.247	0.0145304
672.325	0.0146842
672.404	0.0146538
672.482	0.0146951
672.560	0.0145267
672.638	0.0144949
672.716	0.0145737
672.794	0.0146558
672.872	0.0145950
672.950	0.0145028
673.029	0.0146470
673.107	0.0146842
673.185	0.0146155
673.263	0.0146113
673.341	0.0146693
673.419	0.0146041
673.497	0.0146811
673.575	0.0146690
673.654	0.0145591
673.732	0.0146404
673.810	0.0146285
673.888	0.0146862
673.966	0.0145926
674.044	0.0145615
674.122	0.0146029
674.200	0.0146364
674.279	0.0145935
674.357	0.0147116
674.435	0.0145898
674.513	0.0146627
674.591	0.0146837
674.669	0.0146342
674.747	0.0146709
674.825	0.0148393
674.904	0.0147357
674.982	0.0145982
675.060	0.0147720
675.138	0.0147675
675.216	0.0146199
675.294	0.0148421
675.372	0.0147459
675.450	0.0147433
675.529	0.0147982
675.607	0.0147869
675.685	0.0148294
675.763	0.0147992
675.841	0.0146974
675.919	0.0147043
675.997	0.0147491
676.075	0.0147653
676.154	0.0147623
676.232	0.0146660
676.310	0.0147295
676.388	0.0146489
676.466	0.0147865
676.544	0.0147619
676.622	0.0147506
676.700	0.0148171
676.779	0.0149215
676.857	0.0149183
676.935	0.0147918
677.013	0.0147095
677.091	0.0148795
677.169	0.0148096
677.247	0.0147040
677.325	0.0149271
677.404	0.0149149
677.482	0.0148162
677.560	0.0149043
677.638	0.0148093
677.716	0.0148470
677.794	0.0149039
677.872	0.0147897
677.950	0.0149533
678.029	0.0148030
678.107	0.0147820
678.185	0.0147752
678.263	0.0148492
678.341	0.0147800
678.419	0.0149609
678.497	0.0147905
678.575	0.0147507
678.654	0.0146523
678.732	0.0147662
678.810	0.0147416
678.888	0.0148124
678.966	0.0146811
679.044	0.0147028
679.122	0.0147872
679.200	0.0148547
679.279	0.0146434
679.357	0.0146432
679.435	0.0147775
679.513	0.0147844
679.591	0.0147364
679.669	0.0147269
679.747	0.0146462
679.825	0.0147247
679.904	0.0146193
679.982	0.0146725
680.060	0.0147781
680.138	0.0148084
680.216	0.0146835
680.294	0.0146896
680.372	0.0146514
680.450	0.0146262
680.529	0.0146484
680.607	0.0146314
680.685	0.0145613
680.763	0.0146526
680.841	0.0146435
680.919	0.0146172
680.997	0.0147249
681.075	0.0146560
681.154	0.0147328
681.232	0.0145026
681.310	0.0146415
681.388	0.0146583
681.466	0.0145255
681.544	0.0146712
681.622	0.0145810
681.700	0.0145895
681.779	0.0146621
681.857	0.0144918
681.935	0.0146346
682.013	0.0145150
682.091	0.0144665
682.169	0.0146571
682.247	0.0146042
682.325	0.0144775
682.404	0.0146447
682.482	0.0146459
682.560	0.0147055
682.638	0.0146040
682.716	0.0146484
682.794	0.0145426
682.872	0.0145611
682.950	0.0146579
683.029	0.0146231
683.107	0.0146561
683.185	0.0145583
683.263	0.0145620
683.341	0.0146621
683.419	0.0145676
683.497	0.0145443
683.575	0.0145081
683.654	0.0146230
683.732	0.0146474
683.810	0.0148052
683.888	0.0148286
683.966	0.0146525
684.044	0.0146571
684.122	0.0146539
684.200	0.0146388
684.279	0.0144914
684.357	0.0146420
684.435	0.0146178
684.513	0.0145531
684.591	0.0146037
684.669	0.0147480
684.747	0.0146295
684.825	0.0146004
684.904	0.0145407
684.982	0.0145541
685.060	0.0145985
685.138	0.0145637
685.216	0.0146033
685.294	0.0146333
685.372	0.0146738
685.450	0.0147454
685.529	0.0147487
685.607	0.0146145
685.685	0.0147546
