05/06/2022	19:26:46	Ver.	4.1	UNKNOWN
Optical Delay	600.015094	Delta X		0.078125	Sweeps	1	Scan Rate	0/0
Coordinates	Axis 1	NaN	Axis 2	NaN	Axis 3	NaN	Axis 4	NaN	Axis 5	NaN	Axis 6	0.000000
TX Power	0.000000	RX Power	0.000000

600.015	0.0148409
600.093	0.0147360
600.171	0.0146883
600.249	0.0146671
600.328	0.0147453
600.406	0.0148217
600.484	0.0147810
600.562	0.0147767
600.640	0.0146419
600.718	0.0146236
600.796	0.0147530
600.874	0.0147351
600.953	0.0146822
601.031	0.0146979
601.109	0.0147242
601.187	0.0147545
601.265	0.0147815
601.343	0.0147792
601.421	0.0147955
601.499	0.0147484
601.578	0.0146687
601.656	0.0146580
601.734	0.0148324
601.812	0.0148469
601.890	0.0148311
601.968	0.0146853
602.046	0.0146423
602.124	0.0148513
602.203	0.0148362
602.281	0.0148553
602.359	0.0148059
602.437	0.0149176
602.515	0.0148566
602.593	0.0147050
602.671	0.0148279
602.749	0.0148530
602.828	0.0147406
602.906	0.0147665
602.984	0.0148180
603.062	0.0148491
603.140	0.0146359
603.218	0.0147729
603.296	0.0147918
603.374	0.0148428
603.453	0.0148461
603.531	0.0148598
603.609	0.0147627
603.687	0.0146506
603.765	0.0149169
603.843	0.0149083
603.921	0.0148675
603.999	0.0147038
604.078	0.0147669
604.156	0.0146749
604.234	0.0148008
604.312	0.0147703
604.390	0.0146204
604.468	0.0147312
604.546	0.0147781
604.624	0.0145949
604.703	0.0147295
604.781	0.0147192
604.859	0.0147443
604.937	0.0146890
605.015	0.0145380
605.093	0.0147006
605.171	0.0148471
605.249	0.0147002
605.328	0.0146548
605.406	0.0147830
605.484	0.0148014
605.562	0.0148036
605.640	0.0148132
605.718	0.0147409
605.796	0.0148612
605.874	0.0148558
605.953	0.0148071
606.031	0.0148058
606.109	0.0148262
606.187	0.0148111
606.265	0.0148342
606.343	0.0148012
606.421	0.0148147
606.499	0.0149010
606.578	0.0148633
606.656	0.0147878
606.734	0.0147967
606.812	0.0150428
606.890	0.0148692
606.968	0.0148563
607.046	0.0149293
607.124	0.0148520
607.203	0.0149026
607.281	0.0150103
607.359	0.0148691
607.437	0.0148183
607.515	0.0149135
607.593	0.0149583
607.671	0.0148177
607.749	0.0148631
607.828	0.0147189
607.906	0.0147141
607.984	0.0147093
608.062	0.0147653
608.140	0.0147424
608.218	0.0146708
608.296	0.0147224
608.374	0.0147656
608.453	0.0147826
608.531	0.0147374
608.609	0.0146758
608.687	0.0146438
608.765	0.0146558
608.843	0.0146469
608.921	0.0147753
608.999	0.0147128
609.078	0.0147459
609.156	0.0147854
609.234	0.0147353
609.312	0.0147356
609.390	0.0147904
609.468	0.0147442
609.546	0.0147185
609.624	0.0147321
609.703	0.0147786
609.781	0.0147996
609.859	0.0147725
609.937	0.0147794
610.015	0.0147438
610.093	0.0148758
610.171	0.0148699
610.249	0.0149987
610.328	0.0148666
610.406	0.0148038
610.484	0.0150283
610.562	0.0149066
610.640	0.0149016
610.718	0.0149476
610.796	0.0149246
610.874	0.0148167
610.953	0.0149229
611.031	0.0148827
611.109	0.0147295
611.187	0.0148314
611.265	0.0146854
611.343	0.0146181
611.421	0.0146968
611.499	0.0147708
611.578	0.0147944
611.656	0.0146439
611.734	0.0147483
611.812	0.0146346
611.890	0.0147565
611.968	0.0147195
612.046	0.0147081
612.124	0.0147018
612.203	0.0146458
612.281	0.0146487
612.359	0.0148030
612.437	0.0148373
612.515	0.0147707
612.593	0.0147300
612.671	0.0148382
612.749	0.0147935
612.828	0.0148147
612.906	0.0148853
612.984	0.0149580
613.062	0.0151098
613.140	0.0151533
613.218	0.0149982
613.296	0.0150766
613.374	0.0150152
613.453	0.0149902
613.531	0.0148383
613.609	0.0148460
613.687	0.0150857
613.765	0.0150041
613.843	0.0149844
613.921	0.0149571
613.999	0.0148104
614.078	0.0149145
614.156	0.0148167
614.234	0.0149380
614.312	0.0148193
614.390	0.0148492
614.468	0.0149208
614.546	0.0149770
614.624	0.0148087
614.703	0.0148422
614.781	0.0147550
614.859	0.0146395
614.937	0.0148557
615.015	0.0148510
615.093	0.0148377
615.171	0.0148624
615.249	0.0149104
615.328	0.0148212
615.406	0.0147410
615.484	0.0146840
615.562	0.0146941
615.640	0.0147752
615.718	0.0149139
615.796	0.0148760
615.874	0.0148568
615.953	0.0147660
616.031	0.0147448
616.109	0.0148082
616.187	0.0148947
616.265	0.0147444
616.343	0.0148966
616.421	0.0147636
616.499	0.0148335
616.578	0.0149603
616.656	0.0148978
616.734	0.0148558
616.812	0.0149289
616.890	0.0148531
616.968	0.0149351
617.046	0.0150008
617.124	0.0147472
617.203	0.0148385
617.281	0.0147563
617.359	0.0148370
617.437	0.0149050
617.515	0.0149559
617.593	0.0148756
617.671	0.0147729
617.749	0.0148315
617.828	0.0147839
617.906	0.0148763
617.984	0.0148296
618.062	0.0147579
618.140	0.0147174
618.218	0.0148013
618.296	0.0148507
618.374	0.0148090
618.453	0.0147138
618.531	0.0148162
618.609	0.0148225
618.687	0.0149257
618.765	0.0148883
618.843	0.0148643
618.921	0.0149852
618.999	0.0148306
619.078	0.0147726
619.156	0.0148347
619.234	0.0148569
619.312	0.0148612
619.390	0.0147239
619.468	0.0147337
619.546	0.0147963
619.624	0.0149050
619.703	0.0149372
619.781	0.0147071
619.859	0.0145869
619.937	0.0146737
620.015	0.0147630
620.093	0.0146374
620.171	0.0146793
620.249	0.0148338
620.328	0.0147095
620.406	0.0148286
620.484	0.0147321
620.562	0.0148015
620.640	0.0147655
620.718	0.0147016
620.796	0.0146890
620.874	0.0146073
620.953	0.0146722
621.031	0.0145776
621.109	0.0147697
621.187	0.0147507
621.265	0.0146864
621.343	0.0147845
621.421	0.0147431
621.499	0.0147615
621.578	0.0148347
621.656	0.0146413
621.734	0.0148580
621.812	0.0150478
621.890	0.0149023
621.968	0.0149265
622.046	0.0148779
622.124	0.0150122
622.203	0.0149264
622.281	0.0148981
622.359	0.0149133
622.437	0.0148296
622.515	0.0147811
622.593	0.0147874
622.671	0.0148088
622.749	0.0147120
622.828	0.0146360
622.906	0.0146658
622.984	0.0146547
623.062	0.0145887
623.140	0.0145358
623.218	0.0145596
623.296	0.0146522
623.374	0.0143759
623.453	0.0144698
623.531	0.0147032
623.609	0.0146740
623.687	0.0146368
623.765	0.0146408
623.843	0.0147464
623.921	0.0147375
623.999	0.0147968
624.078	0.0149793
624.156	0.0149574
624.234	0.0149361
624.312	0.0148869
624.390	0.0149228
624.468	0.0150828
624.546	0.0150224
624.624	0.0148737
624.703	0.0147605
624.781	0.0148535
624.859	0.0148515
624.937	0.0148712
625.015	0.0146566
625.093	0.0147047
625.171	0.0147083
625.249	0.0145760
625.328	0.0146409
625.406	0.0147118
625.484	0.0144997
625.562	0.0145151
625.640	0.0145407
625.718	0.0144538
625.796	0.0143958
625.874	0.0143034
625.953	0.0142868
626.031	0.0143190
626.109	0.0142550
626.187	0.0142864
626.265	0.0144138
626.343	0.0144897
626.421	0.0144964
626.499	0.0144780
626.578	0.0147281
626.656	0.0147787
626.734	0.0147176
626.812	0.0148967
626.890	0.0148684
626.968	0.0149231
627.046	0.0151167
627.124	0.0151723
627.203	0.0151563
627.281	0.0152110
627.359	0.0153853
627.437	0.0151830
627.515	0.0151362
627.593	0.0150948
627.671	0.0152190
627.749	0.0150778
627.828	0.0150681
627.906	0.0149810
627.984	0.0149095
628.062	0.0148392
628.140	0.0148190
628.218	0.0148390
628.296	0.0148634
628.374	0.0146758
628.453	0.0145518
628.531	0.0145847
628.609	0.0144994
628.687	0.0144708
628.765	0.0144281
628.843	0.0144267
628.921	0.0143491
628.999	0.0142706
629.078	0.0142175
629.156	0.0142771
629.234	0.0142694
629.312	0.0143192
629.390	0.0142336
629.468	0.0144074
629.546	0.0144355
629.624	0.0144669
629.703	0.0145260
629.781	0.0146259
629.859	0.0145444
629.937	0.0147867
630.015	0.0148917
630.093	0.0147718
630.171	0.0147086
630.249	0.0149958
630.328	0.0149523
630.406	0.0150886
630.484	0.0150416
630.562	0.0151781
630.640	0.0150568
630.718	0.0150601
630.796	0.0151280
630.874	0.0151061
630.953	0.0150830
631.031	0.0150214
631.109	0.0149200
631.187	0.0151720
631.265	0.0150700
631.343	0.0150176
631.421	0.0149964
631.499	0.0151022
631.578	0.0149451
631.656	0.0150165
631.734	0.0148736
631.812	0.0150543
631.890	0.0151369
631.968	0.0150153
632.046	0.0149972
632.124	0.0148383
632.203	0.0149360
632.281	0.0148217
632.359	0.0148193
632.437	0.0147179
632.515	0.0148132
632.593	0.0148141
632.671	0.0145669
632.749	0.0147707
632.828	0.0147719
632.906	0.0146680
632.984	0.0145970
633.062	0.0144735
633.140	0.0145939
633.218	0.0146564
633.296	0.0145963
633.374	0.0147811
633.453	0.0147529
633.531	0.0146256
633.609	0.0146370
633.687	0.0147831
633.765	0.0148163
633.843	0.0146267
633.921	0.0147163
633.999	0.0147932
634.078	0.0145827
634.156	0.0147768
634.234	0.0148307
634.312	0.0148476
634.390	0.0146880
634.468	0.0148055
634.546	0.0149393
634.624	0.0149435
634.703	0.0150208
634.781	0.0151878
634.859	0.0152349
634.937	0.0152152
635.015	0.0153358
635.093	0.0153884
635.171	0.0154340
635.249	0.0155993
635.328	0.0154716
635.406	0.0153248
635.484	0.0153783
635.562	0.0153130
635.640	0.0153995
635.718	0.0152026
635.796	0.0151698
635.874	0.0148899
635.953	0.0149153
636.031	0.0146855
636.109	0.0145758
636.187	0.0145350
636.265	0.0143832
636.343	0.0143662
636.421	0.0143280
636.499	0.0143478
636.578	0.0142242
636.656	0.0143044
636.734	0.0145374
636.812	0.0143164
636.890	0.0142580
636.968	0.0144781
637.046	0.0144734
637.124	0.0143714
637.203	0.0144496
637.281	0.0145431
637.359	0.0146717
637.437	0.0146197
637.515	0.0145869
637.593	0.0147176
637.671	0.0146288
637.749	0.0145234
637.828	0.0145523
637.906	0.0146586
637.984	0.0147308
638.062	0.0147052
638.140	0.0146753
638.218	0.0147608
638.296	0.0149065
638.374	0.0150273
638.453	0.0150821
638.531	0.0150716
638.609	0.0151693
638.687	0.0150419
638.765	0.0151461
638.843	0.0154463
638.921	0.0153733
638.999	0.0152327
639.078	0.0153645
639.156	0.0153011
639.234	0.0153231
639.312	0.0153712
639.390	0.0152139
639.468	0.0152220
639.546	0.0151080
639.624	0.0153230
639.703	0.0153033
639.781	0.0152260
639.859	0.0151654
639.937	0.0151694
640.015	0.0150900
640.093	0.0151733
640.171	0.0151849
640.249	0.0149913
640.328	0.0148906
640.406	0.0148743
640.484	0.0148071
640.562	0.0146438
640.640	0.0146217
640.718	0.0145277
640.796	0.0144165
640.874	0.0142906
640.953	0.0142263
641.031	0.0140922
641.109	0.0141776
641.187	0.0140703
641.265	0.0139276
641.343	0.0139646
641.421	0.0140157
641.499	0.0140835
641.578	0.0140955
641.656	0.0142480
641.734	0.0143163
641.812	0.0143651
641.890	0.0144478
641.968	0.0144936
642.046	0.0145450
642.124	0.0147528
642.203	0.0147899
642.281	0.0148450
642.359	0.0150454
642.437	0.0151704
642.515	0.0153131
642.593	0.0153430
642.671	0.0154646
642.749	0.0154421
642.828	0.0153814
642.906	0.0153908
642.984	0.0155601
643.062	0.0153488
643.140	0.0154425
643.218	0.0154187
643.296	0.0152766
643.374	0.0153055
643.453	0.0152394
643.531	0.0151846
643.609	0.0153135
643.687	0.0154097
643.765	0.0151912
643.843	0.0152330
643.921	0.0153206
643.999	0.0151517
644.078	0.0152267
644.156	0.0152372
644.234	0.0151910
644.312	0.0151575
644.390	0.0152040
644.468	0.0150043
644.546	0.0148670
644.624	0.0149089
644.703	0.0149737
644.781	0.0146283
644.859	0.0145988
644.937	0.0145422
645.015	0.0144110
645.093	0.0142979
645.171	0.0142661
645.249	0.0142657
645.328	0.0140549
645.406	0.0141500
645.484	0.0139766
645.562	0.0138390
645.640	0.0138886
645.718	0.0139089
645.796	0.0139035
645.874	0.0138696
645.953	0.0138043
646.031	0.0140050
646.109	0.0141119
646.187	0.0141867
646.265	0.0142619
646.343	0.0142649
646.421	0.0144594
646.499	0.0144733
646.578	0.0146559
646.656	0.0147850
646.734	0.0148742
646.812	0.0150166
646.890	0.0151965
646.968	0.0151729
647.046	0.0153710
647.124	0.0154319
647.203	0.0153562
647.281	0.0155182
647.359	0.0156126
647.437	0.0154340
647.515	0.0155512
647.593	0.0155924
647.671	0.0157513
647.749	0.0158235
647.828	0.0157497
647.906	0.0156326
647.984	0.0156314
648.062	0.0156052
648.140	0.0155736
648.218	0.0154683
648.296	0.0154561
648.374	0.0152991
648.453	0.0152557
648.531	0.0151324
648.609	0.0150352
648.687	0.0149285
648.765	0.0145845
648.843	0.0145982
648.921	0.0146938
648.999	0.0146284
649.078	0.0143934
649.156	0.0144612
649.234	0.0144554
649.312	0.0143424
649.390	0.0143310
649.468	0.0144793
649.546	0.0144196
649.624	0.0142187
649.703	0.0142248
649.781	0.0142573
649.859	0.0144947
649.937	0.0142864
650.015	0.0140881
650.093	0.0141676
650.171	0.0142556
650.249	0.0142905
650.328	0.0142599
650.406	0.0142696
650.484	0.0142062
650.562	0.0141093
650.640	0.0141817
650.718	0.0144143
650.796	0.0143949
650.874	0.0144524
650.953	0.0145424
651.031	0.0146049
651.109	0.0147497
651.187	0.0147990
651.265	0.0147761
651.343	0.0149621
651.421	0.0150259
651.499	0.0150246
651.578	0.0149598
651.656	0.0150153
651.734	0.0151218
651.812	0.0150896
651.890	0.0152859
651.968	0.0152896
652.046	0.0153569
652.124	0.0154081
652.203	0.0154791
652.281	0.0154024
652.359	0.0153479
652.437	0.0155899
652.515	0.0155103
652.593	0.0154318
652.671	0.0156795
652.749	0.0156384
652.828	0.0155166
652.906	0.0156206
652.984	0.0155604
653.062	0.0153780
653.140	0.0152622
653.218	0.0153860
653.296	0.0152741
653.374	0.0151048
653.453	0.0151172
653.531	0.0150298
653.609	0.0148947
653.687	0.0148218
653.765	0.0147383
653.843	0.0147344
653.921	0.0146000
653.999	0.0145140
654.078	0.0144408
654.156	0.0143618
654.234	0.0143678
654.312	0.0141851
654.390	0.0142536
654.468	0.0140875
654.546	0.0140199
654.624	0.0142054
654.703	0.0142439
654.781	0.0142108
654.859	0.0142185
654.937	0.0142483
655.015	0.0142731
655.093	0.0142319
655.171	0.0143791
655.249	0.0143405
655.328	0.0144981
655.406	0.0144203
655.484	0.0144625
655.562	0.0145156
655.640	0.0146229
655.718	0.0146860
655.796	0.0147784
655.874	0.0147832
655.953	0.0149816
656.031	0.0150058
656.109	0.0150977
656.187	0.0151571
656.265	0.0150378
656.343	0.0151455
656.421	0.0153254
656.499	0.0152159
656.578	0.0152808
656.656	0.0154196
656.734	0.0153219
656.812	0.0153074
656.890	0.0154098
656.968	0.0154768
657.046	0.0154268
657.124	0.0154132
657.203	0.0155068
657.281	0.0154031
657.359	0.0154633
657.437	0.0154426
657.515	0.0155744
657.593	0.0155995
657.671	0.0155718
657.749	0.0156355
657.828	0.0153810
657.906	0.0154123
657.984	0.0152555
658.062	0.0152222
658.140	0.0150795
658.218	0.0149675
658.296	0.0148424
658.374	0.0148816
658.453	0.0146601
658.531	0.0145069
658.609	0.0144128
658.687	0.0142768
658.765	0.0143790
658.843	0.0142796
658.921	0.0140559
658.999	0.0140020
659.078	0.0141833
659.156	0.0141193
659.234	0.0141257
659.312	0.0142044
659.390	0.0142143
659.468	0.0141325
659.546	0.0143146
659.624	0.0141650
659.703	0.0143130
659.781	0.0144803
659.859	0.0145773
659.937	0.0145391
660.015	0.0147163
660.093	0.0146337
660.171	0.0147410
660.249	0.0147818
660.328	0.0148682
660.406	0.0148101
660.484	0.0148050
660.562	0.0149687
660.640	0.0150096
660.718	0.0150021
660.796	0.0152223
660.874	0.0152507
660.953	0.0154137
661.031	0.0153295
661.109	0.0154829
661.187	0.0153440
661.265	0.0154807
661.343	0.0154794
661.421	0.0155087
661.499	0.0153914
661.578	0.0155293
661.656	0.0152127
661.734	0.0151517
661.812	0.0152216
661.890	0.0153352
661.968	0.0153676
662.046	0.0152462
662.124	0.0152706
662.203	0.0151524
662.281	0.0153000
662.359	0.0152533
662.437	0.0152028
662.515	0.0153813
662.593	0.0153027
662.671	0.0151664
662.749	0.0152703
662.828	0.0151194
662.906	0.0149577
662.984	0.0149103
663.062	0.0149558
663.140	0.0148531
663.218	0.0145419
663.296	0.0147067
663.374	0.0146259
663.453	0.0145188
663.531	0.0142426
663.609	0.0143159
663.687	0.0141939
663.765	0.0140060
663.843	0.0140730
663.921	0.0142023
663.999	0.0140826
664.078	0.0140699
664.156	0.0142036
664.234	0.0142111
664.312	0.0144069
664.390	0.0144905
664.468	0.0145509
664.546	0.0146380
664.624	0.0147525
664.703	0.0150020
664.781	0.0150311
664.859	0.0150355
664.937	0.0151962
665.015	0.0152125
665.093	0.0153035
665.171	0.0152936
665.249	0.0152194
665.328	0.0153583
665.406	0.0154195
665.484	0.0153242
665.562	0.0153273
665.640	0.0153809
665.718	0.0154581
665.796	0.0153629
665.874	0.0152909
665.953	0.0154747
666.031	0.0153330
666.109	0.0151965
666.187	0.0152377
666.265	0.0152662
666.343	0.0149706
666.421	0.0151859
666.499	0.0151685
666.578	0.0150430
666.656	0.0150592
666.734	0.0150060
666.812	0.0149260
666.890	0.0149701
666.968	0.0150277
667.046	0.0149731
667.124	0.0148592
667.203	0.0148911
667.281	0.0149893
667.359	0.0149049
667.437	0.0149539
667.515	0.0149503
667.593	0.0147963
667.671	0.0147998
667.749	0.0147401
667.828	0.0146867
667.906	0.0148177
667.984	0.0146030
668.062	0.0145081
668.140	0.0145415
668.218	0.0144154
668.296	0.0144685
668.374	0.0145403
668.453	0.0144283
668.531	0.0143504
668.609	0.0143639
668.687	0.0143704
668.765	0.0143018
668.843	0.0144713
668.921	0.0143842
668.999	0.0144646
669.078	0.0145994
669.156	0.0146561
669.234	0.0147041
669.312	0.0146116
669.390	0.0149172
669.468	0.0148946
669.546	0.0150070
669.624	0.0151596
669.703	0.0151750
669.781	0.0152254
669.859	0.0151205
669.937	0.0153813
670.015	0.0154696
670.093	0.0153976
670.171	0.0152999
670.249	0.0153586
670.328	0.0154607
670.406	0.0153426
670.484	0.0153285
670.562	0.0153107
670.640	0.0151820
670.718	0.0151678
670.796	0.0151845
670.874	0.0149827
670.953	0.0149785
671.031	0.0150056
671.109	0.0149355
671.187	0.0149083
671.265	0.0148717
671.343	0.0149341
671.421	0.0149409
671.499	0.0147561
671.578	0.0149447
671.656	0.0147862
671.734	0.0147611
671.812	0.0149192
671.890	0.0147925
671.968	0.0146987
672.046	0.0146120
672.124	0.0148865
672.203	0.0146270
672.281	0.0147952
672.359	0.0146946
672.437	0.0147463
672.515	0.0147413
672.593	0.0144671
672.671	0.0145257
672.749	0.0144595
672.828	0.0146206
672.906	0.0145759
672.984	0.0143913
673.062	0.0144267
673.140	0.0144919
673.218	0.0144304
673.296	0.0141965
673.374	0.0144118
673.453	0.0146095
673.531	0.0146388
673.609	0.0145852
673.687	0.0145278
673.765	0.0146197
673.843	0.0146247
673.921	0.0147263
673.999	0.0148707
674.078	0.0148732
674.156	0.0149833
674.234	0.0150269
674.312	0.0152242
674.390	0.0153474
674.468	0.0153312
674.546	0.0153365
674.624	0.0153604
674.703	0.0156202
674.781	0.0155705
674.859	0.0156057
674.937	0.0154843
675.015	0.0155014
675.093	0.0154981
675.171	0.0154118
675.249	0.0155212
675.328	0.0153216
675.406	0.0154570
675.484	0.0152662
675.562	0.0151139
675.640	0.0151260
675.718	0.0151129
675.796	0.0151517
675.874	0.0148914
675.953	0.0147956
676.031	0.0148634
676.109	0.0149775
676.187	0.0147798
676.265	0.0147650
676.343	0.0148193
676.421	0.0146536
676.499	0.0146254
676.578	0.0146623
676.656	0.0146487
676.734	0.0146042
676.812	0.0147726
676.890	0.0146951
676.968	0.0147356
677.046	0.0148693
677.124	0.0146972
677.203	0.0146973
677.281	0.0146173
677.359	0.0147554
677.437	0.0147643
677.515	0.0147322
677.593	0.0146023
677.671	0.0145422
677.749	0.0145109
677.828	0.0146554
677.906	0.0147083
677.984	0.0144595
678.062	0.0146439
678.140	0.0147380
678.218	0.0147243
678.296	0.0147896
678.374	0.0147169
678.453	0.0147151
678.531	0.0147118
678.609	0.0148637
678.687	0.0149219
678.765	0.0149181
678.843	0.0148764
678.921	0.0151107
678.999	0.0150473
679.078	0.0150998
679.156	0.0151359
679.234	0.0151744
679.312	0.0152608
679.390	0.0153623
679.468	0.0152919
679.546	0.0153549
679.624	0.0153691
679.703	0.0154578
679.781	0.0154236
679.859	0.0153562
679.937	0.0154102
680.015	0.0154777
680.093	0.0153650
680.171	0.0153858
680.249	0.0154257
680.328	0.0152521
680.406	0.0152013
680.484	0.0151078
680.562	0.0150725
680.640	0.0151007
680.718	0.0147813
680.796	0.0149274
680.874	0.0149229
680.953	0.0146949
681.031	0.0145684
681.109	0.0145460
681.187	0.0144850
681.265	0.0143814
681.343	0.0142500
681.421	0.0142789
681.499	0.0142159
681.578	0.0141465
681.656	0.0142535
681.734	0.0141955
681.812	0.0141910
681.890	0.0142625
681.968	0.0142936
682.046	0.0144086
682.124	0.0142791
682.203	0.0145603
682.281	0.0143533
682.359	0.0146599
682.437	0.0146002
682.515	0.0145615
682.593	0.0146688
682.671	0.0147449
682.749	0.0147493
682.828	0.0148485
682.906	0.0148769
682.984	0.0147247
683.062	0.0148722
683.140	0.0149329
683.218	0.0149493
683.296	0.0150554
683.374	0.0150426
683.453	0.0149438
683.531	0.0151437
683.609	0.0150455
683.687	0.0149841
683.765	0.0150314
683.843	0.0150111
683.921	0.0150767
683.999	0.0150324
684.078	0.0153201
684.156	0.0151218
684.234	0.0150524
684.312	0.0150141
684.390	0.0150762
684.468	0.0151671
684.546	0.0151617
684.624	0.0151389
684.703	0.0150768
684.781	0.0151820
684.859	0.0149366
684.937	0.0150617
685.015	0.0151646
685.093	0.0148913
685.171	0.0149288
685.249	0.0150314
685.328	0.0149889
685.406	0.0148489
685.484	0.0147287
685.562	0.0148052
685.640	0.0147227
685.718	0.0145134
