05/06/2022	18:42:38	Ver.	4.1	UNKNOWN
Optical Delay	600.015094	Delta X		0.078125	Sweeps	1	Scan Rate	0/0
Coordinates	Axis 1	NaN	Axis 2	NaN	Axis 3	NaN	Axis 4	NaN	Axis 5	NaN	Axis 6	0.000000
TX Power	0.000000	RX Power	0.000000

600.015	0.0126636
600.093	0.0125774
600.171	0.0126420
600.249	0.0126476
600.328	0.0126064
600.406	0.0126553
600.484	0.0126482
600.562	0.0126544
600.640	0.0126328
600.718	0.0126499
600.796	0.0126747
600.874	0.0125906
600.953	0.0125672
601.031	0.0126244
601.109	0.0126430
601.187	0.0125239
601.265	0.0125697
601.343	0.0126942
601.421	0.0127399
601.499	0.0125380
601.578	0.0126231
601.656	0.0124819
601.734	0.0126517
601.812	0.0127309
601.890	0.0126048
601.968	0.0128046
602.046	0.0127048
602.124	0.0126179
602.203	0.0126557
602.281	0.0126202
602.359	0.0125632
602.437	0.0127740
602.515	0.0125871
602.593	0.0124982
602.671	0.0126733
602.749	0.0125857
602.828	0.0125489
602.906	0.0127152
602.984	0.0126649
603.062	0.0126581
603.140	0.0126738
603.218	0.0125765
603.296	0.0126491
603.374	0.0125941
603.453	0.0126689
603.531	0.0126538
603.609	0.0125465
603.687	0.0126406
603.765	0.0126622
603.843	0.0126649
603.921	0.0126764
603.999	0.0125648
604.078	0.0126876
604.156	0.0126283
604.234	0.0126978
604.312	0.0127345
604.390	0.0126766
604.468	0.0126500
604.546	0.0125659
604.624	0.0126264
604.703	0.0125816
604.781	0.0126339
604.859	0.0126935
604.937	0.0126088
605.015	0.0126823
605.093	0.0126734
605.171	0.0126689
605.249	0.0126145
605.328	0.0125764
605.406	0.0126514
605.484	0.0126662
605.562	0.0126744
605.640	0.0126707
605.718	0.0127016
605.796	0.0127191
605.874	0.0127656
605.953	0.0126602
606.031	0.0127137
606.109	0.0126360
606.187	0.0127759
606.265	0.0127362
606.343	0.0127163
606.421	0.0126619
606.499	0.0126009
606.578	0.0126468
606.656	0.0127529
606.734	0.0126266
606.812	0.0126342
606.890	0.0127290
606.968	0.0127174
607.046	0.0128161
607.124	0.0126816
607.203	0.0125455
607.281	0.0128046
607.359	0.0126311
607.437	0.0126334
607.515	0.0126870
607.593	0.0127686
607.671	0.0126971
607.749	0.0125516
607.828	0.0126425
607.906	0.0126012
607.984	0.0126452
608.062	0.0127407
608.140	0.0128844
608.218	0.0127069
608.296	0.0126949
608.374	0.0126987
608.453	0.0127043
608.531	0.0125830
608.609	0.0126811
608.687	0.0126740
608.765	0.0125597
608.843	0.0127285
608.921	0.0127622
608.999	0.0127055
609.078	0.0127155
609.156	0.0126413
609.234	0.0127260
609.312	0.0127051
609.390	0.0126745
609.468	0.0127699
609.546	0.0126875
609.624	0.0127156
609.703	0.0126238
609.781	0.0126575
609.859	0.0128417
609.937	0.0126221
610.015	0.0127250
610.093	0.0125976
610.171	0.0126083
610.249	0.0127186
610.328	0.0127532
610.406	0.0125652
610.484	0.0126007
610.562	0.0127349
610.640	0.0127535
610.718	0.0126583
610.796	0.0127454
610.874	0.0127899
610.953	0.0125161
611.031	0.0125590
611.109	0.0126756
611.187	0.0127334
611.265	0.0127149
611.343	0.0127007
611.421	0.0125568
611.499	0.0126439
611.578	0.0126707
611.656	0.0126120
611.734	0.0127046
611.812	0.0127164
611.890	0.0127152
611.968	0.0127111
612.046	0.0126846
612.124	0.0127274
612.203	0.0127222
612.281	0.0126036
612.359	0.0127457
612.437	0.0127489
612.515	0.0124798
612.593	0.0126804
612.671	0.0127412
612.749	0.0125617
612.828	0.0125571
612.906	0.0126841
612.984	0.0126160
613.062	0.0126901
613.140	0.0127250
613.218	0.0127110
613.296	0.0127142
613.374	0.0125720
613.453	0.0125337
613.531	0.0126032
613.609	0.0126206
613.687	0.0127799
613.765	0.0126647
613.843	0.0126690
613.921	0.0127001
613.999	0.0126656
614.078	0.0125594
614.156	0.0126238
614.234	0.0127003
614.312	0.0126983
614.390	0.0125950
614.468	0.0125613
614.546	0.0126990
614.624	0.0126632
614.703	0.0125350
614.781	0.0125610
614.859	0.0127156
614.937	0.0127285
615.015	0.0126959
615.093	0.0126698
615.171	0.0124677
615.249	0.0125649
615.328	0.0127130
615.406	0.0126530
615.484	0.0126307
615.562	0.0126563
615.640	0.0125492
615.718	0.0126505
615.796	0.0127659
615.874	0.0127240
615.953	0.0126962
616.031	0.0126274
616.109	0.0125432
616.187	0.0125887
616.265	0.0126487
616.343	0.0126952
616.421	0.0125682
616.499	0.0125327
616.578	0.0126233
616.656	0.0128625
616.734	0.0126518
616.812	0.0125871
616.890	0.0127357
616.968	0.0125780
617.046	0.0125183
617.124	0.0127228
617.203	0.0126114
617.281	0.0127627
617.359	0.0126737
617.437	0.0126218
617.515	0.0127393
617.593	0.0128840
617.671	0.0127764
617.749	0.0126762
617.828	0.0127546
617.906	0.0127045
617.984	0.0126987
618.062	0.0125897
618.140	0.0127645
618.218	0.0126858
618.296	0.0126384
618.374	0.0126249
618.453	0.0127274
618.531	0.0126537
618.609	0.0128308
618.687	0.0125478
618.765	0.0127470
618.843	0.0128117
618.921	0.0126748
618.999	0.0126030
619.078	0.0126311
619.156	0.0125851
619.234	0.0127888
619.312	0.0127292
619.390	0.0127700
619.468	0.0126572
619.546	0.0126907
619.624	0.0125993
619.703	0.0126538
619.781	0.0126079
619.859	0.0126546
619.937	0.0127180
620.015	0.0126138
620.093	0.0126649
620.171	0.0127699
620.249	0.0126530
620.328	0.0126651
620.406	0.0126912
620.484	0.0128162
620.562	0.0126989
620.640	0.0125522
620.718	0.0126966
620.796	0.0127889
620.874	0.0127706
620.953	0.0127343
621.031	0.0126635
621.109	0.0127143
621.187	0.0125690
621.265	0.0126112
621.343	0.0127166
621.421	0.0127342
621.499	0.0127225
621.578	0.0125883
621.656	0.0126050
621.734	0.0127695
621.812	0.0127086
621.890	0.0125893
621.968	0.0126099
622.046	0.0126326
622.124	0.0125664
622.203	0.0127788
622.281	0.0126225
622.359	0.0126654
622.437	0.0125716
622.515	0.0125952
622.593	0.0127512
622.671	0.0125555
622.749	0.0127010
622.828	0.0127169
622.906	0.0127263
622.984	0.0127319
623.062	0.0126343
623.140	0.0125523
623.218	0.0127586
623.296	0.0127138
623.374	0.0126316
623.453	0.0126652
623.531	0.0127945
623.609	0.0125241
623.687	0.0127044
623.765	0.0128329
623.843	0.0126125
623.921	0.0125870
623.999	0.0127992
624.078	0.0128294
624.156	0.0125745
624.234	0.0126224
624.312	0.0127729
624.390	0.0127385
624.468	0.0125582
624.546	0.0127261
624.624	0.0126575
624.703	0.0127782
624.781	0.0126762
624.859	0.0125327
624.937	0.0124847
625.015	0.0125294
625.093	0.0127996
625.171	0.0126949
625.249	0.0126801
625.328	0.0127048
625.406	0.0127457
625.484	0.0128196
625.562	0.0127051
625.640	0.0126422
625.718	0.0126407
625.796	0.0126717
625.874	0.0127028
625.953	0.0126953
626.031	0.0125493
626.109	0.0128848
626.187	0.0128139
626.265	0.0126646
626.343	0.0127625
626.421	0.0127489
626.499	0.0127612
626.578	0.0126891
626.656	0.0126485
626.734	0.0127858
626.812	0.0126364
626.890	0.0126982
626.968	0.0127870
627.046	0.0127673
627.124	0.0127142
627.203	0.0126730
627.281	0.0125947
627.359	0.0126689
627.437	0.0126575
627.515	0.0126465
627.593	0.0126463
627.671	0.0127432
627.749	0.0127036
627.828	0.0125951
627.906	0.0126835
627.984	0.0126659
628.062	0.0126202
628.140	0.0127443
628.218	0.0126830
628.296	0.0126353
628.374	0.0126431
628.453	0.0126571
628.531	0.0126157
628.609	0.0126884
628.687	0.0126170
628.765	0.0127314
628.843	0.0127705
628.921	0.0126424
628.999	0.0127061
629.078	0.0126897
629.156	0.0127602
629.234	0.0124941
629.312	0.0126952
629.390	0.0126664
629.468	0.0126749
629.546	0.0127211
629.624	0.0127479
629.703	0.0127547
629.781	0.0126453
629.859	0.0127802
629.937	0.0126962
630.015	0.0127344
630.093	0.0126569
630.171	0.0126098
630.249	0.0126731
630.328	0.0125937
630.406	0.0127216
630.484	0.0127764
630.562	0.0126832
630.640	0.0127212
630.718	0.0127946
630.796	0.0126521
630.874	0.0126704
630.953	0.0127093
631.031	0.0127146
631.109	0.0127390
631.187	0.0126424
631.265	0.0126543
631.343	0.0125846
631.421	0.0125431
631.499	0.0125329
631.578	0.0127432
631.656	0.0128171
631.734	0.0128003
631.812	0.0127081
631.890	0.0125534
631.968	0.0125432
632.046	0.0128308
632.124	0.0128065
632.203	0.0125758
632.281	0.0125994
632.359	0.0126157
632.437	0.0126323
632.515	0.0126002
632.593	0.0126049
632.671	0.0126067
632.749	0.0126924
632.828	0.0127714
632.906	0.0125759
632.984	0.0127592
633.062	0.0126974
633.140	0.0126784
633.218	0.0127290
633.296	0.0127029
633.374	0.0127570
633.453	0.0126751
633.531	0.0126414
633.609	0.0125991
633.687	0.0125060
633.765	0.0126409
633.843	0.0126824
633.921	0.0126228
633.999	0.0127002
634.078	0.0127267
634.156	0.0126083
634.234	0.0125969
634.312	0.0126417
634.390	0.0126508
634.468	0.0125262
634.546	0.0124831
634.624	0.0127420
634.703	0.0126910
634.781	0.0126891
634.859	0.0128738
634.937	0.0125343
635.015	0.0126156
635.093	0.0125571
635.171	0.0126753
635.249	0.0127646
635.328	0.0126672
635.406	0.0126365
635.484	0.0127155
635.562	0.0126993
635.640	0.0127494
635.718	0.0126492
635.796	0.0126978
635.874	0.0126685
635.953	0.0127055
636.031	0.0127691
636.109	0.0125986
636.187	0.0126104
636.265	0.0126993
636.343	0.0127423
636.421	0.0127582
636.499	0.0126461
636.578	0.0126578
636.656	0.0128061
636.734	0.0127812
636.812	0.0127045
636.890	0.0128003
636.968	0.0126131
637.046	0.0127881
637.124	0.0127425
637.203	0.0127126
637.281	0.0126316
637.359	0.0127100
637.437	0.0126730
637.515	0.0127538
637.593	0.0127747
637.671	0.0126763
637.749	0.0128221
637.828	0.0126693
637.906	0.0127459
637.984	0.0125953
638.062	0.0125772
638.140	0.0126134
638.218	0.0126544
638.296	0.0126794
638.374	0.0126819
638.453	0.0126563
638.531	0.0127019
638.609	0.0127280
638.687	0.0126736
638.765	0.0127237
638.843	0.0126309
638.921	0.0125818
638.999	0.0129011
639.078	0.0126724
639.156	0.0127085
639.234	0.0127783
639.312	0.0127412
639.390	0.0127629
639.468	0.0126447
639.546	0.0127065
639.624	0.0127118
639.703	0.0126213
639.781	0.0125018
639.859	0.0126287
639.937	0.0126959
640.015	0.0127050
640.093	0.0126807
640.171	0.0126474
640.249	0.0126865
640.328	0.0126556
640.406	0.0127180
640.484	0.0126407
640.562	0.0127388
640.640	0.0127679
640.718	0.0127757
640.796	0.0127256
640.874	0.0125913
640.953	0.0127531
641.031	0.0126719
641.109	0.0126974
641.187	0.0125907
641.265	0.0126150
641.343	0.0127799
641.421	0.0128201
641.499	0.0126718
641.578	0.0126484
641.656	0.0126083
641.734	0.0127712
641.812	0.0127597
641.890	0.0126942
641.968	0.0125726
642.046	0.0125523
642.124	0.0127904
642.203	0.0126192
642.281	0.0127510
642.359	0.0126522
642.437	0.0125493
642.515	0.0128432
642.593	0.0125804
642.671	0.0126838
642.749	0.0126556
642.828	0.0127954
642.906	0.0127352
642.984	0.0125046
643.062	0.0126234
643.140	0.0127146
643.218	0.0127545
643.296	0.0124742
643.374	0.0126324
643.453	0.0127225
643.531	0.0126434
643.609	0.0127383
643.687	0.0126546
643.765	0.0125322
643.843	0.0126504
643.921	0.0127094
643.999	0.0126891
644.078	0.0126302
644.156	0.0126922
644.234	0.0127956
644.312	0.0125900
644.390	0.0125096
644.468	0.0126894
644.546	0.0126300
644.624	0.0126961
644.703	0.0125498
644.781	0.0125748
644.859	0.0127992
644.937	0.0125656
645.015	0.0126605
645.093	0.0126965
645.171	0.0126869
645.249	0.0125865
645.328	0.0127063
645.406	0.0127464
645.484	0.0128062
645.562	0.0125894
645.640	0.0126023
645.718	0.0127688
645.796	0.0126467
645.874	0.0126850
645.953	0.0126958
646.031	0.0126494
646.109	0.0127136
646.187	0.0127090
646.265	0.0126854
646.343	0.0127340
646.421	0.0128222
646.499	0.0126037
646.578	0.0127600
646.656	0.0127443
646.734	0.0127017
646.812	0.0126590
646.890	0.0127276
646.968	0.0126079
647.046	0.0126383
647.124	0.0127447
647.203	0.0126469
647.281	0.0126670
647.359	0.0125681
647.437	0.0127051
647.515	0.0126894
647.593	0.0126212
647.671	0.0126370
647.749	0.0126782
647.828	0.0128069
647.906	0.0126221
647.984	0.0126369
648.062	0.0126422
648.140	0.0126624
648.218	0.0126968
648.296	0.0125961
648.374	0.0127890
648.453	0.0128081
648.531	0.0125684
648.609	0.0125436
648.687	0.0126205
648.765	0.0126987
648.843	0.0126367
648.921	0.0126877
648.999	0.0126663
649.078	0.0126678
649.156	0.0126564
649.234	0.0126490
649.312	0.0125736
649.390	0.0125466
649.468	0.0126590
649.546	0.0127447
649.624	0.0125579
649.703	0.0126382
649.781	0.0126949
649.859	0.0125425
649.937	0.0126681
650.015	0.0127563
650.093	0.0126305
650.171	0.0126015
650.249	0.0127441
650.328	0.0126737
650.406	0.0127715
650.484	0.0127506
650.562	0.0127091
650.640	0.0126754
650.718	0.0126535
650.796	0.0126791
650.874	0.0127131
650.953	0.0126101
651.031	0.0125900
651.109	0.0127748
651.187	0.0127792
651.265	0.0128072
651.343	0.0126879
651.421	0.0127957
651.499	0.0127294
651.578	0.0126006
651.656	0.0127353
651.734	0.0127174
651.812	0.0128206
651.890	0.0127916
651.968	0.0127624
652.046	0.0127573
652.124	0.0126117
652.203	0.0126207
652.281	0.0127208
652.359	0.0127093
652.437	0.0127560
652.515	0.0126496
652.593	0.0127973
652.671	0.0127834
652.749	0.0126478
652.828	0.0127258
652.906	0.0126434
652.984	0.0126605
653.062	0.0126817
653.140	0.0127127
653.218	0.0126531
653.296	0.0125803
653.374	0.0127638
653.453	0.0129415
653.531	0.0126960
653.609	0.0126833
653.687	0.0127743
653.765	0.0127690
653.843	0.0127251
653.921	0.0125787
653.999	0.0126353
654.078	0.0126225
654.156	0.0126399
654.234	0.0125977
654.312	0.0127084
654.390	0.0127497
654.468	0.0126831
654.546	0.0127705
654.624	0.0127730
654.703	0.0126881
654.781	0.0125322
654.859	0.0126350
654.937	0.0126202
655.015	0.0126237
655.093	0.0128141
655.171	0.0127235
655.249	0.0126263
655.328	0.0126331
655.406	0.0126067
655.484	0.0126875
655.562	0.0127126
655.640	0.0125888
655.718	0.0127492
655.796	0.0127287
655.874	0.0127323
655.953	0.0127635
656.031	0.0126852
656.109	0.0126005
656.187	0.0125063
656.265	0.0127113
656.343	0.0127833
656.421	0.0125986
656.499	0.0127693
656.578	0.0127009
656.656	0.0126357
656.734	0.0127374
656.812	0.0126756
656.890	0.0126331
656.968	0.0126219
657.046	0.0126308
657.124	0.0127371
657.203	0.0126934
657.281	0.0125282
657.359	0.0125864
657.437	0.0126125
657.515	0.0126850
657.593	0.0126563
657.671	0.0124993
657.749	0.0126272
657.828	0.0127379
657.906	0.0127557
657.984	0.0126033
658.062	0.0127844
658.140	0.0126735
658.218	0.0128273
658.296	0.0124998
658.374	0.0126585
658.453	0.0126115
658.531	0.0126771
658.609	0.0125944
658.687	0.0126907
658.765	0.0127607
658.843	0.0125069
658.921	0.0126343
658.999	0.0126314
659.078	0.0126274
659.156	0.0126779
659.234	0.0128015
659.312	0.0127079
659.390	0.0125961
659.468	0.0126376
659.546	0.0127410
659.624	0.0126932
659.703	0.0126722
659.781	0.0125553
659.859	0.0125906
659.937	0.0126640
660.015	0.0126264
660.093	0.0128113
660.171	0.0126331
660.249	0.0126718
660.328	0.0126933
660.406	0.0126517
660.484	0.0125114
660.562	0.0125543
660.640	0.0128111
660.718	0.0125962
660.796	0.0126492
660.874	0.0127436
660.953	0.0126627
661.031	0.0124740
661.109	0.0125558
661.187	0.0126392
661.265	0.0126315
661.343	0.0125362
661.421	0.0125553
661.499	0.0126702
661.578	0.0127029
661.656	0.0126070
661.734	0.0125967
661.812	0.0125522
661.890	0.0127061
661.968	0.0125628
662.046	0.0126477
662.124	0.0127286
662.203	0.0127108
662.281	0.0126284
662.359	0.0126604
662.437	0.0126466
662.515	0.0126785
662.593	0.0124837
662.671	0.0126534
662.749	0.0126697
662.828	0.0127121
662.906	0.0126093
662.984	0.0127209
663.062	0.0126498
663.140	0.0125688
663.218	0.0125958
663.296	0.0126090
663.374	0.0126038
663.453	0.0127025
663.531	0.0126690
663.609	0.0125716
663.687	0.0127329
663.765	0.0127214
663.843	0.0127824
663.921	0.0127538
663.999	0.0126249
664.078	0.0125809
664.156	0.0126395
664.234	0.0127401
664.312	0.0126535
664.390	0.0126107
664.468	0.0126926
664.546	0.0126521
664.624	0.0126179
664.703	0.0126409
664.781	0.0126537
664.859	0.0126706
664.937	0.0126393
665.015	0.0125732
665.093	0.0127303
665.171	0.0125678
665.249	0.0126371
665.328	0.0125690
665.406	0.0126495
665.484	0.0127300
665.562	0.0127650
665.640	0.0126683
665.718	0.0125463
665.796	0.0127232
665.874	0.0127574
665.953	0.0126008
666.031	0.0126469
666.109	0.0125204
666.187	0.0126733
666.265	0.0126441
666.343	0.0127705
666.421	0.0125323
666.499	0.0126468
666.578	0.0125937
666.656	0.0127087
666.734	0.0127010
666.812	0.0126762
666.890	0.0127291
666.968	0.0126347
667.046	0.0127448
667.124	0.0126785
667.203	0.0127900
667.281	0.0126426
667.359	0.0127228
667.437	0.0127515
667.515	0.0126550
667.593	0.0125465
667.671	0.0126678
667.749	0.0126529
667.828	0.0127161
667.906	0.0126785
667.984	0.0125880
668.062	0.0126186
668.140	0.0125891
668.218	0.0126270
668.296	0.0127929
668.374	0.0125751
668.453	0.0126707
668.531	0.0125858
668.609	0.0126911
668.687	0.0126080
668.765	0.0126972
668.843	0.0126646
668.921	0.0126849
668.999	0.0127040
669.078	0.0127108
669.156	0.0126785
669.234	0.0126234
669.312	0.0127001
669.390	0.0127090
669.468	0.0126674
669.546	0.0126516
669.624	0.0126871
669.703	0.0127660
669.781	0.0125979
669.859	0.0125416
669.937	0.0126449
670.015	0.0127808
670.093	0.0126724
670.171	0.0127656
670.249	0.0128490
670.328	0.0127128
670.406	0.0126888
670.484	0.0127528
670.562	0.0127075
670.640	0.0126586
670.718	0.0127528
670.796	0.0128047
670.874	0.0127840
670.953	0.0126326
671.031	0.0127692
671.109	0.0126759
671.187	0.0128619
671.265	0.0126941
671.343	0.0127900
671.421	0.0126830
671.499	0.0127998
671.578	0.0127730
671.656	0.0127703
671.734	0.0126598
671.812	0.0127874
671.890	0.0128105
671.968	0.0127804
672.046	0.0129034
672.124	0.0128168
672.203	0.0126612
672.281	0.0128952
672.359	0.0129878
672.437	0.0128165
672.515	0.0127607
672.593	0.0127997
672.671	0.0128287
672.749	0.0128989
672.828	0.0127672
672.906	0.0127438
672.984	0.0127712
673.062	0.0127921
673.140	0.0127441
673.218	0.0126622
673.296	0.0128294
673.374	0.0127885
673.453	0.0127676
673.531	0.0127238
673.609	0.0127074
673.687	0.0127493
673.765	0.0128934
673.843	0.0127676
673.921	0.0127636
673.999	0.0127967
674.078	0.0127219
674.156	0.0127936
674.234	0.0129075
674.312	0.0126948
674.390	0.0127447
674.468	0.0129446
674.546	0.0128603
674.624	0.0126380
674.703	0.0127878
674.781	0.0128764
674.859	0.0127875
674.937	0.0128787
675.015	0.0127385
675.093	0.0127344
675.171	0.0129737
675.249	0.0128912
675.328	0.0127910
675.406	0.0128206
675.484	0.0127722
675.562	0.0128812
675.640	0.0126955
675.718	0.0127073
675.796	0.0126965
675.874	0.0126652
675.953	0.0126629
676.031	0.0128645
676.109	0.0126678
676.187	0.0126949
676.265	0.0127474
676.343	0.0127965
676.421	0.0127317
676.499	0.0127295
676.578	0.0126514
676.656	0.0126352
676.734	0.0127998
676.812	0.0126944
676.890	0.0126733
676.968	0.0127522
677.046	0.0128355
677.124	0.0128022
677.203	0.0126994
677.281	0.0125948
677.359	0.0125291
677.437	0.0128222
677.515	0.0127362
677.593	0.0128993
677.671	0.0127386
677.749	0.0127399
677.828	0.0127607
677.906	0.0126480
677.984	0.0125233
678.062	0.0126928
678.140	0.0126273
678.218	0.0126743
678.296	0.0127029
678.374	0.0126498
678.453	0.0126143
678.531	0.0126696
678.609	0.0126830
678.687	0.0128073
678.765	0.0126347
678.843	0.0126528
678.921	0.0127467
678.999	0.0125976
679.078	0.0126579
679.156	0.0127119
679.234	0.0125716
679.312	0.0126556
679.390	0.0125802
679.468	0.0126791
679.546	0.0127612
679.624	0.0125083
679.703	0.0127474
679.781	0.0125998
679.859	0.0127818
679.937	0.0126815
680.015	0.0124676
680.093	0.0126369
680.171	0.0127217
680.249	0.0126062
680.328	0.0126241
680.406	0.0126691
680.484	0.0126794
680.562	0.0127454
680.640	0.0124957
680.718	0.0127145
680.796	0.0126902
680.874	0.0126136
680.953	0.0125636
681.031	0.0126571
681.109	0.0127235
681.187	0.0127006
681.265	0.0126143
681.343	0.0126075
681.421	0.0126391
681.499	0.0126056
681.578	0.0126805
681.656	0.0126490
681.734	0.0126272
681.812	0.0126620
681.890	0.0126539
681.968	0.0127785
682.046	0.0125381
682.124	0.0125888
682.203	0.0127020
682.281	0.0125254
682.359	0.0126936
682.437	0.0126452
682.515	0.0126671
682.593	0.0127200
682.671	0.0126447
682.749	0.0126439
682.828	0.0127513
682.906	0.0127432
682.984	0.0126242
683.062	0.0126386
683.140	0.0127032
683.218	0.0125948
683.296	0.0127879
683.374	0.0126888
683.453	0.0125889
683.531	0.0125947
683.609	0.0126599
683.687	0.0126242
683.765	0.0127250
683.843	0.0127327
683.921	0.0127454
683.999	0.0126132
684.078	0.0127306
684.156	0.0128586
684.234	0.0125717
684.312	0.0125854
684.390	0.0125941
684.468	0.0127544
684.546	0.0126768
684.624	0.0126756
684.703	0.0126369
684.781	0.0126633
684.859	0.0127390
684.937	0.0125778
685.015	0.0127536
685.093	0.0127734
685.171	0.0127116
685.249	0.0129424
685.328	0.0129314
685.406	0.0130367
685.484	0.0130234
685.562	0.0128281
685.640	0.0128809
685.718	0.0129551
