05/06/2022	18:42:58	Ver.	4.1	UNKNOWN
Optical Delay	600.015094	Delta X		0.078125	Sweeps	1	Scan Rate	0/0
Coordinates	Axis 1	NaN	Axis 2	NaN	Axis 3	NaN	Axis 4	NaN	Axis 5	NaN	Axis 6	0.000000
TX Power	0.000000	RX Power	0.000000

600.015	0.0127843
600.093	0.0127975
600.171	0.0128259
600.249	0.0127778
600.328	0.0128836
600.406	0.0129382
600.484	0.0128773
600.562	0.0127281
600.640	0.0127731
600.718	0.0128062
600.796	0.0128661
600.874	0.0129456
600.953	0.0128733
601.031	0.0127302
601.109	0.0128336
601.187	0.0129891
601.265	0.0128673
601.343	0.0127068
601.421	0.0127551
601.499	0.0129263
601.578	0.0129219
601.656	0.0128410
601.734	0.0127061
601.812	0.0127956
601.890	0.0127618
601.968	0.0128928
602.046	0.0127975
602.124	0.0126557
602.203	0.0128358
602.281	0.0127155
602.359	0.0127458
602.437	0.0127557
602.515	0.0126002
602.593	0.0127776
602.671	0.0127622
602.749	0.0129863
602.828	0.0128590
602.906	0.0127927
602.984	0.0128007
603.062	0.0126633
603.140	0.0128518
603.218	0.0127753
603.296	0.0128868
603.374	0.0127508
603.453	0.0128767
603.531	0.0128197
603.609	0.0127258
603.687	0.0128496
603.765	0.0128835
603.843	0.0127712
603.921	0.0127379
603.999	0.0128392
604.078	0.0128453
604.156	0.0128005
604.234	0.0128691
604.312	0.0127486
604.390	0.0127580
604.468	0.0128201
604.546	0.0127840
604.624	0.0127906
604.703	0.0128315
604.781	0.0128965
604.859	0.0127156
604.937	0.0125884
605.015	0.0127594
605.093	0.0127551
605.171	0.0128467
605.249	0.0128546
605.328	0.0128092
605.406	0.0127636
605.484	0.0126982
605.562	0.0128766
605.640	0.0127585
605.718	0.0126511
605.796	0.0126681
605.874	0.0127854
605.953	0.0128313
606.031	0.0128577
606.109	0.0128292
606.187	0.0128728
606.265	0.0128867
606.343	0.0126241
606.421	0.0127516
606.499	0.0127605
606.578	0.0128622
606.656	0.0127413
606.734	0.0127012
606.812	0.0128678
606.890	0.0127414
606.968	0.0127774
607.046	0.0126749
607.124	0.0127304
607.203	0.0127973
607.281	0.0128615
607.359	0.0128808
607.437	0.0128865
607.515	0.0125790
607.593	0.0128289
607.671	0.0128161
607.749	0.0128329
607.828	0.0129361
607.906	0.0128167
607.984	0.0128358
608.062	0.0127797
608.140	0.0127231
608.218	0.0127749
608.296	0.0127485
608.374	0.0127607
608.453	0.0126840
608.531	0.0128709
608.609	0.0128356
608.687	0.0128130
608.765	0.0128298
608.843	0.0128847
608.921	0.0127190
608.999	0.0128264
609.078	0.0126907
609.156	0.0128423
609.234	0.0128766
609.312	0.0125674
609.390	0.0127926
609.468	0.0128447
609.546	0.0128311
609.624	0.0127942
609.703	0.0127562
609.781	0.0129139
609.859	0.0128914
609.937	0.0127415
610.015	0.0127120
610.093	0.0127892
610.171	0.0128615
610.249	0.0127952
610.328	0.0127702
610.406	0.0129319
610.484	0.0128331
610.562	0.0128952
610.640	0.0126624
610.718	0.0127476
610.796	0.0128651
610.874	0.0127789
610.953	0.0126900
611.031	0.0128362
611.109	0.0128101
611.187	0.0128029
611.265	0.0127383
611.343	0.0126447
611.421	0.0127455
611.499	0.0127307
611.578	0.0127907
611.656	0.0128154
611.734	0.0127374
611.812	0.0127366
611.890	0.0128583
611.968	0.0128406
612.046	0.0127440
612.124	0.0128230
612.203	0.0127565
612.281	0.0126864
612.359	0.0127570
612.437	0.0127972
612.515	0.0127158
612.593	0.0128599
612.671	0.0128906
612.749	0.0126778
612.828	0.0129355
612.906	0.0129284
612.984	0.0127322
613.062	0.0128732
613.140	0.0127911
613.218	0.0127423
613.296	0.0127895
613.374	0.0127979
613.453	0.0128652
613.531	0.0127664
613.609	0.0128522
613.687	0.0127946
613.765	0.0129099
613.843	0.0128100
613.921	0.0127941
613.999	0.0127774
614.078	0.0126952
614.156	0.0129541
614.234	0.0127952
614.312	0.0127514
614.390	0.0128857
614.468	0.0127844
614.546	0.0128687
614.624	0.0127932
614.703	0.0128479
614.781	0.0128545
614.859	0.0128154
614.937	0.0127822
615.015	0.0128604
615.093	0.0128040
615.171	0.0128679
615.249	0.0128578
615.328	0.0127367
615.406	0.0127144
615.484	0.0126926
615.562	0.0127288
615.640	0.0128557
615.718	0.0129121
615.796	0.0128196
615.874	0.0128104
615.953	0.0127457
616.031	0.0127851
616.109	0.0127732
616.187	0.0127879
616.265	0.0128761
616.343	0.0128352
616.421	0.0129475
616.499	0.0128973
616.578	0.0128419
616.656	0.0128294
616.734	0.0127409
616.812	0.0128600
616.890	0.0127985
616.968	0.0126766
617.046	0.0126779
617.124	0.0128377
617.203	0.0129736
617.281	0.0126990
617.359	0.0127172
617.437	0.0127811
617.515	0.0127949
617.593	0.0127810
617.671	0.0128607
617.749	0.0127802
617.828	0.0128376
617.906	0.0127696
617.984	0.0129128
618.062	0.0128269
618.140	0.0128728
618.218	0.0128278
618.296	0.0129197
618.374	0.0127849
618.453	0.0128427
618.531	0.0129196
618.609	0.0128188
618.687	0.0127229
618.765	0.0127638
618.843	0.0127634
618.921	0.0128916
618.999	0.0127108
619.078	0.0126315
619.156	0.0129116
619.234	0.0127094
619.312	0.0127582
619.390	0.0129022
619.468	0.0127476
619.546	0.0126860
619.624	0.0128340
619.703	0.0127394
619.781	0.0127177
619.859	0.0128573
619.937	0.0127805
620.015	0.0127887
620.093	0.0126498
620.171	0.0127993
620.249	0.0127877
620.328	0.0127832
620.406	0.0129087
620.484	0.0128537
620.562	0.0126727
620.640	0.0126563
620.718	0.0128021
620.796	0.0127113
620.874	0.0126997
620.953	0.0128735
621.031	0.0128658
621.109	0.0127449
621.187	0.0126227
621.265	0.0129656
621.343	0.0128387
621.421	0.0128822
621.499	0.0127873
621.578	0.0128546
621.656	0.0129071
621.734	0.0127525
621.812	0.0127882
621.890	0.0127993
621.968	0.0128876
622.046	0.0128544
622.124	0.0126693
622.203	0.0128141
622.281	0.0126463
622.359	0.0128148
622.437	0.0129216
622.515	0.0127737
622.593	0.0128925
622.671	0.0127645
622.749	0.0129562
622.828	0.0128551
622.906	0.0126733
622.984	0.0127486
623.062	0.0128049
623.140	0.0127964
623.218	0.0129350
623.296	0.0127827
623.374	0.0127289
623.453	0.0128558
623.531	0.0128359
623.609	0.0128217
623.687	0.0128182
623.765	0.0126975
623.843	0.0128561
623.921	0.0128100
623.999	0.0129221
624.078	0.0128548
624.156	0.0128889
624.234	0.0127644
624.312	0.0129314
624.390	0.0127103
624.468	0.0128864
624.546	0.0127876
624.624	0.0127631
624.703	0.0129430
624.781	0.0128726
624.859	0.0128026
624.937	0.0127230
625.015	0.0128059
625.093	0.0127887
625.171	0.0128159
625.249	0.0128087
625.328	0.0127794
625.406	0.0128156
625.484	0.0126830
625.562	0.0128960
625.640	0.0127665
625.718	0.0128044
625.796	0.0128699
625.874	0.0129114
625.953	0.0128075
626.031	0.0127965
626.109	0.0127435
626.187	0.0128109
626.265	0.0127711
626.343	0.0128318
626.421	0.0128628
626.499	0.0128221
626.578	0.0128255
626.656	0.0128678
626.734	0.0128132
626.812	0.0128359
626.890	0.0129052
626.968	0.0127475
627.046	0.0127589
627.124	0.0128844
627.203	0.0128523
627.281	0.0128963
627.359	0.0128218
627.437	0.0129366
627.515	0.0127720
627.593	0.0129559
627.671	0.0127937
627.749	0.0127119
627.828	0.0127119
627.906	0.0127988
627.984	0.0127522
628.062	0.0128323
628.140	0.0129494
628.218	0.0127695
628.296	0.0128126
628.374	0.0129240
628.453	0.0128786
628.531	0.0127663
628.609	0.0128725
628.687	0.0127916
628.765	0.0128158
628.843	0.0127905
628.921	0.0127714
628.999	0.0128545
629.078	0.0127750
629.156	0.0127513
629.234	0.0127982
629.312	0.0129030
629.390	0.0127725
629.468	0.0128770
629.546	0.0129015
629.624	0.0128143
629.703	0.0128251
629.781	0.0128719
629.859	0.0127584
629.937	0.0127703
630.015	0.0128185
630.093	0.0128374
630.171	0.0128112
630.249	0.0127949
630.328	0.0127934
630.406	0.0127383
630.484	0.0127865
630.562	0.0128411
630.640	0.0128473
630.718	0.0128822
630.796	0.0128292
630.874	0.0126485
630.953	0.0126840
631.031	0.0128137
631.109	0.0128769
631.187	0.0129341
631.265	0.0129046
631.343	0.0127811
631.421	0.0128119
631.499	0.0128271
631.578	0.0128127
631.656	0.0128981
631.734	0.0128089
631.812	0.0127917
631.890	0.0128448
631.968	0.0128484
632.046	0.0130044
632.124	0.0127993
632.203	0.0128020
632.281	0.0128828
632.359	0.0128776
632.437	0.0127326
632.515	0.0127530
632.593	0.0128487
632.671	0.0128018
632.749	0.0127441
632.828	0.0127071
632.906	0.0128254
632.984	0.0128216
633.062	0.0126546
633.140	0.0128268
633.218	0.0128165
633.296	0.0128620
633.374	0.0128800
633.453	0.0127633
633.531	0.0127822
633.609	0.0127657
633.687	0.0128667
633.765	0.0128927
633.843	0.0128232
633.921	0.0126468
633.999	0.0127959
634.078	0.0127672
634.156	0.0128156
634.234	0.0127621
634.312	0.0128380
634.390	0.0128667
634.468	0.0128641
634.546	0.0127165
634.624	0.0128278
634.703	0.0129742
634.781	0.0127182
634.859	0.0127447
634.937	0.0128872
635.015	0.0127744
635.093	0.0127296
635.171	0.0126723
635.249	0.0128301
635.328	0.0129305
635.406	0.0128017
635.484	0.0127496
635.562	0.0126794
635.640	0.0127686
635.718	0.0127605
635.796	0.0128037
635.874	0.0127567
635.953	0.0127214
636.031	0.0128020
636.109	0.0129642
636.187	0.0129401
636.265	0.0126942
636.343	0.0128099
636.421	0.0127113
636.499	0.0127222
636.578	0.0127598
636.656	0.0128506
636.734	0.0129378
636.812	0.0127930
636.890	0.0126657
636.968	0.0128049
637.046	0.0128410
637.124	0.0127382
637.203	0.0126550
637.281	0.0126437
637.359	0.0127596
637.437	0.0128831
637.515	0.0127841
637.593	0.0126642
637.671	0.0127015
637.749	0.0127731
637.828	0.0126922
637.906	0.0128291
637.984	0.0126550
638.062	0.0126165
638.140	0.0127116
638.218	0.0128503
638.296	0.0127321
638.374	0.0127575
638.453	0.0127707
638.531	0.0127597
638.609	0.0128418
638.687	0.0127048
638.765	0.0127177
638.843	0.0127396
638.921	0.0128011
638.999	0.0126875
639.078	0.0128047
639.156	0.0127236
639.234	0.0129227
639.312	0.0126328
639.390	0.0127985
639.468	0.0129586
639.546	0.0128114
639.624	0.0127330
639.703	0.0127966
639.781	0.0128613
639.859	0.0126673
639.937	0.0128815
640.015	0.0128611
640.093	0.0127390
640.171	0.0128380
640.249	0.0127349
640.328	0.0128606
640.406	0.0127364
640.484	0.0128782
640.562	0.0128302
640.640	0.0128501
640.718	0.0129296
640.796	0.0128565
640.874	0.0128031
640.953	0.0127912
641.031	0.0127606
641.109	0.0128603
641.187	0.0128445
641.265	0.0129075
641.343	0.0128423
641.421	0.0128744
641.499	0.0127767
641.578	0.0128539
641.656	0.0127338
641.734	0.0126887
641.812	0.0128374
641.890	0.0128836
641.968	0.0128846
642.046	0.0127959
642.124	0.0128754
642.203	0.0127843
642.281	0.0127258
642.359	0.0127998
642.437	0.0127765
642.515	0.0126749
642.593	0.0127565
642.671	0.0127843
642.749	0.0128443
642.828	0.0128376
642.906	0.0127728
642.984	0.0128227
643.062	0.0129782
643.140	0.0128106
643.218	0.0128487
643.296	0.0127251
643.374	0.0127890
643.453	0.0127016
643.531	0.0128165
643.609	0.0128358
643.687	0.0128441
643.765	0.0128341
643.843	0.0127261
643.921	0.0127229
643.999	0.0126218
644.078	0.0127351
644.156	0.0128184
644.234	0.0128474
644.312	0.0127417
644.390	0.0128619
644.468	0.0128342
644.546	0.0128239
644.624	0.0127355
644.703	0.0127944
644.781	0.0128426
644.859	0.0129301
644.937	0.0129154
645.015	0.0129504
645.093	0.0128942
645.171	0.0126804
645.249	0.0127740
645.328	0.0128467
645.406	0.0127583
645.484	0.0127142
645.562	0.0127288
645.640	0.0128595
645.718	0.0128483
645.796	0.0127630
645.874	0.0128512
645.953	0.0128564
646.031	0.0128101
646.109	0.0127666
646.187	0.0127451
646.265	0.0128191
646.343	0.0128751
646.421	0.0127745
646.499	0.0128626
646.578	0.0128414
646.656	0.0128183
646.734	0.0128537
646.812	0.0127625
646.890	0.0127567
646.968	0.0128018
647.046	0.0127824
647.124	0.0128181
647.203	0.0127962
647.281	0.0127242
647.359	0.0127898
647.437	0.0127476
647.515	0.0128018
647.593	0.0127943
647.671	0.0128426
647.749	0.0128472
647.828	0.0128874
647.906	0.0128057
647.984	0.0127608
648.062	0.0128008
648.140	0.0128366
648.218	0.0128649
648.296	0.0127989
648.374	0.0127258
648.453	0.0127383
648.531	0.0128741
648.609	0.0127341
648.687	0.0127765
648.765	0.0127429
648.843	0.0128629
648.921	0.0127943
648.999	0.0127134
649.078	0.0128413
649.156	0.0128384
649.234	0.0127898
649.312	0.0128258
649.390	0.0128327
649.468	0.0127827
649.546	0.0128198
649.624	0.0129086
649.703	0.0127463
649.781	0.0130151
649.859	0.0129343
649.937	0.0127337
650.015	0.0127705
650.093	0.0128766
650.171	0.0128683
650.249	0.0126865
650.328	0.0127740
650.406	0.0128231
650.484	0.0127567
650.562	0.0128996
650.640	0.0128514
650.718	0.0128403
650.796	0.0129551
650.874	0.0128500
650.953	0.0128300
651.031	0.0129036
651.109	0.0128506
651.187	0.0127870
651.265	0.0127978
651.343	0.0128450
651.421	0.0129211
651.499	0.0128415
651.578	0.0129005
651.656	0.0127080
651.734	0.0127791
651.812	0.0129170
651.890	0.0128563
651.968	0.0127470
652.046	0.0127542
652.124	0.0127795
652.203	0.0127790
652.281	0.0127872
652.359	0.0128457
652.437	0.0128643
652.515	0.0125903
652.593	0.0128373
652.671	0.0128525
652.749	0.0128996
652.828	0.0128125
652.906	0.0128256
652.984	0.0129096
653.062	0.0129136
653.140	0.0128059
653.218	0.0128331
653.296	0.0128008
653.374	0.0128171
653.453	0.0126956
653.531	0.0127451
653.609	0.0128686
653.687	0.0128848
653.765	0.0127380
653.843	0.0127704
653.921	0.0127857
653.999	0.0129759
654.078	0.0129252
654.156	0.0128972
654.234	0.0128369
654.312	0.0127889
654.390	0.0127070
654.468	0.0127815
654.546	0.0127319
654.624	0.0128783
654.703	0.0128630
654.781	0.0127447
654.859	0.0127610
654.937	0.0127672
655.015	0.0126806
655.093	0.0127257
655.171	0.0128324
655.249	0.0129148
655.328	0.0127186
655.406	0.0127754
655.484	0.0128152
655.562	0.0128275
655.640	0.0129108
655.718	0.0127947
655.796	0.0128556
655.874	0.0128041
655.953	0.0127704
656.031	0.0128520
656.109	0.0127831
656.187	0.0128201
656.265	0.0128048
656.343	0.0128302
656.421	0.0127338
656.499	0.0127432
656.578	0.0128519
656.656	0.0128208
656.734	0.0127206
656.812	0.0127363
656.890	0.0128450
656.968	0.0127838
657.046	0.0128937
657.124	0.0127862
657.203	0.0126871
657.281	0.0127416
657.359	0.0127945
657.437	0.0128869
657.515	0.0129733
657.593	0.0127746
657.671	0.0127428
657.749	0.0125974
657.828	0.0127979
657.906	0.0127644
657.984	0.0127448
658.062	0.0127711
658.140	0.0127032
658.218	0.0128417
658.296	0.0127779
658.374	0.0127787
658.453	0.0127755
658.531	0.0128300
658.609	0.0127174
658.687	0.0128072
658.765	0.0127232
658.843	0.0127517
658.921	0.0129156
658.999	0.0127753
659.078	0.0128097
659.156	0.0127905
659.234	0.0127670
659.312	0.0128659
659.390	0.0129328
659.468	0.0128326
659.546	0.0127302
659.624	0.0127668
659.703	0.0127623
659.781	0.0127342
659.859	0.0129849
659.937	0.0127133
660.015	0.0127850
660.093	0.0129633
660.171	0.0129075
660.249	0.0127719
660.328	0.0127644
660.406	0.0127731
660.484	0.0129486
660.562	0.0128833
660.640	0.0127548
660.718	0.0128506
660.796	0.0128468
660.874	0.0128832
660.953	0.0127923
661.031	0.0127826
661.109	0.0129157
661.187	0.0128226
661.265	0.0128188
661.343	0.0127140
661.421	0.0128027
661.499	0.0128238
661.578	0.0126339
661.656	0.0127390
661.734	0.0128887
661.812	0.0127509
661.890	0.0128104
661.968	0.0127580
662.046	0.0128634
662.124	0.0128524
662.203	0.0128220
662.281	0.0128707
662.359	0.0127782
662.437	0.0128251
662.515	0.0126064
662.593	0.0127042
662.671	0.0127319
662.749	0.0127117
662.828	0.0127103
662.906	0.0128034
662.984	0.0128102
663.062	0.0127709
663.140	0.0127051
663.218	0.0127216
663.296	0.0127090
663.374	0.0126682
663.453	0.0127802
663.531	0.0128676
663.609	0.0127946
663.687	0.0126576
663.765	0.0127675
663.843	0.0128337
663.921	0.0127571
663.999	0.0127799
664.078	0.0128131
664.156	0.0127522
664.234	0.0128613
664.312	0.0128970
664.390	0.0127428
664.468	0.0127424
664.546	0.0129116
664.624	0.0129463
664.703	0.0127922
664.781	0.0127873
664.859	0.0128947
664.937	0.0127953
665.015	0.0127937
665.093	0.0128084
665.171	0.0128153
665.249	0.0127907
665.328	0.0128320
665.406	0.0127614
665.484	0.0130492
665.562	0.0128160
665.640	0.0127010
665.718	0.0128169
665.796	0.0128032
665.874	0.0127953
665.953	0.0126488
666.031	0.0127479
666.109	0.0127195
666.187	0.0127023
666.265	0.0127272
666.343	0.0128045
666.421	0.0125964
666.499	0.0126170
666.578	0.0128264
666.656	0.0128408
666.734	0.0127580
666.812	0.0128479
666.890	0.0128496
666.968	0.0128212
667.046	0.0126939
667.124	0.0127631
667.203	0.0126630
667.281	0.0126099
667.359	0.0126607
667.437	0.0127406
667.515	0.0128200
667.593	0.0126884
667.671	0.0127003
667.749	0.0127886
667.828	0.0126572
667.906	0.0127821
667.984	0.0128439
668.062	0.0126688
668.140	0.0125908
668.218	0.0128668
668.296	0.0128400
668.374	0.0127992
668.453	0.0127078
668.531	0.0128037
668.609	0.0128700
668.687	0.0128874
668.765	0.0127750
668.843	0.0127628
668.921	0.0127996
668.999	0.0126537
669.078	0.0128776
669.156	0.0128072
669.234	0.0128592
669.312	0.0127899
669.390	0.0128306
669.468	0.0127671
669.546	0.0126464
669.624	0.0128667
669.703	0.0126965
669.781	0.0127444
669.859	0.0126720
669.937	0.0128056
670.015	0.0127741
670.093	0.0128181
670.171	0.0127401
670.249	0.0128691
670.328	0.0128240
670.406	0.0128307
670.484	0.0127994
670.562	0.0127334
670.640	0.0128446
670.718	0.0128555
670.796	0.0127284
670.874	0.0128689
670.953	0.0128336
671.031	0.0128745
671.109	0.0126937
671.187	0.0128704
671.265	0.0128573
671.343	0.0127608
671.421	0.0128912
671.499	0.0128017
671.578	0.0128580
671.656	0.0127763
671.734	0.0128026
671.812	0.0128845
671.890	0.0128768
671.968	0.0128328
672.046	0.0129658
672.124	0.0128196
672.203	0.0128510
672.281	0.0129368
672.359	0.0129514
672.437	0.0128736
672.515	0.0129125
672.593	0.0128356
672.671	0.0128481
672.749	0.0129308
672.828	0.0127981
672.906	0.0127435
672.984	0.0129596
673.062	0.0129097
673.140	0.0128772
673.218	0.0128410
673.296	0.0129641
673.374	0.0129004
673.453	0.0128379
673.531	0.0128833
673.609	0.0128446
673.687	0.0128823
673.765	0.0129041
673.843	0.0128196
673.921	0.0128339
673.999	0.0129266
674.078	0.0128802
674.156	0.0129756
674.234	0.0130238
674.312	0.0128278
674.390	0.0129256
674.468	0.0128268
674.546	0.0129544
674.624	0.0130835
674.703	0.0128835
674.781	0.0127757
674.859	0.0127431
674.937	0.0128774
675.015	0.0129196
675.093	0.0128515
675.171	0.0128436
675.249	0.0128080
675.328	0.0128503
675.406	0.0127345
675.484	0.0127859
675.562	0.0129369
675.640	0.0128959
675.718	0.0126978
675.796	0.0129211
675.874	0.0128181
675.953	0.0128212
676.031	0.0128888
676.109	0.0127737
676.187	0.0127713
676.265	0.0127727
676.343	0.0128262
676.421	0.0130461
676.499	0.0128407
676.578	0.0128869
676.656	0.0128516
676.734	0.0129334
676.812	0.0128001
676.890	0.0127102
676.968	0.0126978
677.046	0.0127743
677.124	0.0128539
677.203	0.0127588
677.281	0.0126958
677.359	0.0127589
677.437	0.0129478
677.515	0.0128184
677.593	0.0127527
677.671	0.0129537
677.749	0.0128887
677.828	0.0128940
677.906	0.0127782
677.984	0.0128765
678.062	0.0128212
678.140	0.0129635
678.218	0.0127951
678.296	0.0127789
678.374	0.0127384
678.453	0.0127519
678.531	0.0127731
678.609	0.0127056
678.687	0.0129133
678.765	0.0128748
678.843	0.0126595
678.921	0.0127866
678.999	0.0128384
679.078	0.0127164
679.156	0.0128094
679.234	0.0128001
679.312	0.0126781
679.390	0.0127811
679.468	0.0128133
679.546	0.0126669
679.624	0.0127428
679.703	0.0126118
679.781	0.0126440
679.859	0.0127100
679.937	0.0126275
680.015	0.0125729
680.093	0.0125890
680.171	0.0126792
680.249	0.0127663
680.328	0.0127464
680.406	0.0126283
680.484	0.0127598
680.562	0.0127985
680.640	0.0125868
680.718	0.0127397
680.796	0.0127813
680.874	0.0127354
680.953	0.0127773
681.031	0.0128137
681.109	0.0127080
681.187	0.0127869
681.265	0.0128234
681.343	0.0126690
681.421	0.0127100
681.499	0.0126427
681.578	0.0128054
681.656	0.0128716
681.734	0.0127097
681.812	0.0127691
681.890	0.0128809
681.968	0.0127715
682.046	0.0125963
682.124	0.0127895
682.203	0.0129823
682.281	0.0127296
682.359	0.0127561
682.437	0.0127734
682.515	0.0128368
682.593	0.0129919
682.671	0.0127784
682.749	0.0127588
682.828	0.0126978
682.906	0.0127214
682.984	0.0128168
683.062	0.0125986
683.140	0.0127284
683.218	0.0127265
683.296	0.0126805
683.374	0.0128128
683.453	0.0128513
683.531	0.0128664
683.609	0.0128941
683.687	0.0128074
683.765	0.0127840
683.843	0.0127268
683.921	0.0127122
683.999	0.0127775
684.078	0.0127171
684.156	0.0127543
684.234	0.0127537
684.312	0.0127355
684.390	0.0127493
684.468	0.0126662
684.546	0.0127824
684.624	0.0126604
684.703	0.0126910
684.781	0.0126796
684.859	0.0127872
684.937	0.0128951
685.015	0.0130675
685.093	0.0130550
685.171	0.0131406
685.249	0.0130940
685.328	0.0129979
685.406	0.0128656
685.484	0.0129604
685.562	0.0128156
685.640	0.0127025
685.718	0.0125647
