05/06/2022	18:37:58	Ver.	4.1	UNKNOWN
Optical Delay	600.021766	Delta X		0.078125	Sweeps	1	Scan Rate	0/0
Coordinates	Axis 1	NaN	Axis 2	NaN	Axis 3	NaN	Axis 4	NaN	Axis 5	NaN	Axis 6	0.000000
TX Power	0.000000	RX Power	0.000000

600.022	0.0128662
600.100	0.0128381
600.178	0.0126819
600.256	0.0127862
600.334	0.0128612
600.412	0.0129298
600.491	0.0128967
600.569	0.0129490
600.647	0.0127718
600.725	0.0126723
600.803	0.0127545
600.881	0.0127117
600.959	0.0128231
601.037	0.0128597
601.116	0.0129616
601.194	0.0126810
601.272	0.0127491
601.350	0.0129461
601.428	0.0127587
601.506	0.0129731
601.584	0.0129075
601.662	0.0127885
601.741	0.0126649
601.819	0.0128524
601.897	0.0128902
601.975	0.0126881
602.053	0.0128528
602.131	0.0127460
602.209	0.0129540
602.287	0.0127981
602.366	0.0128415
602.444	0.0127264
602.522	0.0129756
602.600	0.0128939
602.678	0.0126756
602.756	0.0128556
602.834	0.0129779
602.912	0.0127866
602.991	0.0128272
603.069	0.0129415
603.147	0.0127857
603.225	0.0127989
603.303	0.0129769
603.381	0.0128783
603.459	0.0126452
603.537	0.0128880
603.616	0.0129288
603.694	0.0127747
603.772	0.0126868
603.850	0.0128256
603.928	0.0127929
604.006	0.0128053
604.084	0.0128247
604.162	0.0128418
604.241	0.0128407
604.319	0.0128432
604.397	0.0127605
604.475	0.0128431
604.553	0.0128820
604.631	0.0127641
604.709	0.0129455
604.787	0.0129333
604.866	0.0127920
604.944	0.0128773
605.022	0.0128454
605.100	0.0129105
605.178	0.0129002
605.256	0.0128593
605.334	0.0129924
605.412	0.0128020
605.491	0.0127789
605.569	0.0127566
605.647	0.0129896
605.725	0.0127834
605.803	0.0129346
605.881	0.0127586
605.959	0.0128492
606.037	0.0129082
606.116	0.0129002
606.194	0.0127724
606.272	0.0128804
606.350	0.0128501
606.428	0.0128645
606.506	0.0129153
606.584	0.0129738
606.662	0.0127433
606.741	0.0127531
606.819	0.0126987
606.897	0.0128408
606.975	0.0128015
607.053	0.0129121
607.131	0.0128201
607.209	0.0130178
607.287	0.0128291
607.366	0.0129713
607.444	0.0129663
607.522	0.0129543
607.600	0.0129148
607.678	0.0128803
607.756	0.0128296
607.834	0.0129411
607.912	0.0129873
607.991	0.0128278
608.069	0.0129092
608.147	0.0128151
608.225	0.0128507
608.303	0.0127817
608.381	0.0128612
608.459	0.0127354
608.537	0.0129485
608.616	0.0127848
608.694	0.0128222
608.772	0.0128758
608.850	0.0127351
608.928	0.0129394
609.006	0.0128961
609.084	0.0128500
609.162	0.0128033
609.241	0.0127803
609.319	0.0127923
609.397	0.0127843
609.475	0.0128884
609.553	0.0128752
609.631	0.0128759
609.709	0.0128973
609.787	0.0127129
609.866	0.0128240
609.944	0.0126775
610.022	0.0128880
610.100	0.0129436
610.178	0.0127793
610.256	0.0128622
610.334	0.0130865
610.412	0.0128597
610.491	0.0126560
610.569	0.0129926
610.647	0.0130006
610.725	0.0128504
610.803	0.0128062
610.881	0.0127834
610.959	0.0128507
611.037	0.0129337
611.116	0.0129239
611.194	0.0129303
611.272	0.0129734
611.350	0.0128627
611.428	0.0128302
611.506	0.0129359
611.584	0.0127626
611.662	0.0128974
611.741	0.0128825
611.819	0.0129078
611.897	0.0129324
611.975	0.0128115
612.053	0.0127897
612.131	0.0129074
612.209	0.0128606
612.287	0.0128304
612.366	0.0128410
612.444	0.0128961
612.522	0.0129848
612.600	0.0128175
612.678	0.0127427
612.756	0.0129729
612.834	0.0130463
612.912	0.0129839
612.991	0.0128874
613.069	0.0128191
613.147	0.0128820
613.225	0.0129176
613.303	0.0129450
613.381	0.0128427
613.459	0.0128616
613.537	0.0129042
613.616	0.0129674
613.694	0.0128970
613.772	0.0126732
613.850	0.0127654
613.928	0.0128764
614.006	0.0127694
614.084	0.0127934
614.162	0.0130046
614.241	0.0127776
614.319	0.0128471
614.397	0.0129348
614.475	0.0129067
614.553	0.0128841
614.631	0.0128600
614.709	0.0128494
614.787	0.0128770
614.866	0.0128324
614.944	0.0128382
615.022	0.0129713
615.100	0.0129185
615.178	0.0128436
615.256	0.0128890
615.334	0.0128942
615.412	0.0129701
615.491	0.0130063
615.569	0.0128728
615.647	0.0128590
615.725	0.0127641
615.803	0.0129017
615.881	0.0128190
615.959	0.0128136
616.037	0.0128353
616.116	0.0128613
616.194	0.0129036
616.272	0.0128426
616.350	0.0129003
616.428	0.0128595
616.506	0.0129930
616.584	0.0129388
616.662	0.0128336
616.741	0.0128838
616.819	0.0128801
616.897	0.0128127
616.975	0.0128999
617.053	0.0128561
617.131	0.0128653
617.209	0.0129713
617.287	0.0128529
617.366	0.0129138
617.444	0.0129475
617.522	0.0128339
617.600	0.0127517
617.678	0.0129460
617.756	0.0129179
617.834	0.0129435
617.912	0.0129807
617.991	0.0128648
618.069	0.0128725
618.147	0.0128577
618.225	0.0127903
618.303	0.0127420
618.381	0.0128750
618.459	0.0129467
618.537	0.0128136
618.616	0.0127682
618.694	0.0129640
618.772	0.0128046
618.850	0.0128343
618.928	0.0129416
619.006	0.0130243
619.084	0.0128961
619.162	0.0128075
619.241	0.0128587
619.319	0.0129259
619.397	0.0128432
619.475	0.0129133
619.553	0.0128523
619.631	0.0128910
619.709	0.0127422
619.787	0.0129561
619.866	0.0128750
619.944	0.0128211
620.022	0.0127912
620.100	0.0129040
620.178	0.0128864
620.256	0.0128046
620.334	0.0129212
620.412	0.0129924
620.491	0.0129089
620.569	0.0129631
620.647	0.0128240
620.725	0.0128738
620.803	0.0128616
620.881	0.0128258
620.959	0.0127879
621.037	0.0128191
621.116	0.0128923
621.194	0.0128323
621.272	0.0128479
621.350	0.0129955
621.428	0.0127501
621.506	0.0128753
621.584	0.0128835
621.662	0.0127121
621.741	0.0129174
621.819	0.0127874
621.897	0.0128110
621.975	0.0129124
622.053	0.0128697
622.131	0.0128677
622.209	0.0127951
622.287	0.0129526
622.366	0.0128797
622.444	0.0129306
622.522	0.0127235
622.600	0.0129798
622.678	0.0129061
622.756	0.0128419
622.834	0.0127227
622.912	0.0128224
622.991	0.0128126
623.069	0.0129038
623.147	0.0127724
623.225	0.0127916
623.303	0.0128596
623.381	0.0130183
623.459	0.0129026
623.537	0.0128295
623.616	0.0128622
623.694	0.0128015
623.772	0.0128458
623.850	0.0128451
623.928	0.0128777
624.006	0.0127468
624.084	0.0129085
624.162	0.0128502
624.241	0.0128098
624.319	0.0129025
624.397	0.0127605
624.475	0.0128678
624.553	0.0128500
624.631	0.0128022
624.709	0.0128041
624.787	0.0128440
624.866	0.0129556
624.944	0.0129354
625.022	0.0127898
625.100	0.0129295
625.178	0.0128545
625.256	0.0128111
625.334	0.0128639
625.412	0.0127776
625.491	0.0128416
625.569	0.0128961
625.647	0.0128623
625.725	0.0127643
625.803	0.0128622
625.881	0.0128312
625.959	0.0128529
626.037	0.0129118
626.116	0.0128894
626.194	0.0128308
626.272	0.0129816
626.350	0.0127795
626.428	0.0129135
626.506	0.0128828
626.584	0.0129592
626.662	0.0128764
626.741	0.0128378
626.819	0.0129163
626.897	0.0128439
626.975	0.0128702
627.053	0.0127229
627.131	0.0128777
627.209	0.0129144
627.287	0.0128829
627.366	0.0128801
627.444	0.0128546
627.522	0.0127523
627.600	0.0129494
627.678	0.0127374
627.756	0.0128807
627.834	0.0128838
627.912	0.0128588
627.991	0.0128678
628.069	0.0129805
628.147	0.0129463
628.225	0.0129117
628.303	0.0129449
628.381	0.0128415
628.459	0.0127896
628.537	0.0129890
628.616	0.0128502
628.694	0.0127816
628.772	0.0128461
628.850	0.0128503
628.928	0.0128839
629.006	0.0129816
629.084	0.0129775
629.162	0.0128448
629.241	0.0129517
629.319	0.0129062
629.397	0.0129753
629.475	0.0128606
629.553	0.0128259
629.631	0.0129293
629.709	0.0128057
629.787	0.0129579
629.866	0.0129464
629.944	0.0129068
630.022	0.0128722
630.100	0.0128849
630.178	0.0127308
630.256	0.0127132
630.334	0.0127730
630.412	0.0127248
630.491	0.0128272
630.569	0.0127625
630.647	0.0128868
630.725	0.0126807
630.803	0.0127983
630.881	0.0128558
630.959	0.0128908
631.037	0.0129308
631.116	0.0127823
631.194	0.0126025
631.272	0.0128284
631.350	0.0127470
631.428	0.0128077
631.506	0.0128817
631.584	0.0128820
631.662	0.0127824
631.741	0.0128559
631.819	0.0127638
631.897	0.0128548
631.975	0.0128179
632.053	0.0128690
632.131	0.0129526
632.209	0.0129078
632.287	0.0129216
632.366	0.0129215
632.444	0.0128653
632.522	0.0128886
632.600	0.0128780
632.678	0.0127106
632.756	0.0128381
632.834	0.0128680
632.912	0.0129135
632.991	0.0128608
633.069	0.0127119
633.147	0.0128639
633.225	0.0128497
633.303	0.0128475
633.381	0.0128006
633.459	0.0128767
633.537	0.0129758
633.616	0.0128528
633.694	0.0128802
633.772	0.0129241
633.850	0.0128339
633.928	0.0127514
634.006	0.0127770
634.084	0.0128296
634.162	0.0128566
634.241	0.0128506
634.319	0.0129292
634.397	0.0128609
634.475	0.0128353
634.553	0.0129694
634.631	0.0128350
634.709	0.0128573
634.787	0.0127517
634.866	0.0129076
634.944	0.0128934
635.022	0.0129301
635.100	0.0128504
635.178	0.0128513
635.256	0.0128843
635.334	0.0129044
635.412	0.0128548
635.491	0.0130067
635.569	0.0128991
635.647	0.0128032
635.725	0.0129617
635.803	0.0128217
635.881	0.0128053
635.959	0.0127533
636.037	0.0128809
636.116	0.0128763
636.194	0.0128275
636.272	0.0128615
636.350	0.0128042
636.428	0.0129192
636.506	0.0126540
636.584	0.0128200
636.662	0.0128766
636.741	0.0128205
636.819	0.0127974
636.897	0.0129587
636.975	0.0128062
637.053	0.0128935
637.131	0.0128349
637.209	0.0129438
637.287	0.0128301
637.366	0.0127353
637.444	0.0128781
637.522	0.0128190
637.600	0.0128278
637.678	0.0128668
637.756	0.0130082
637.834	0.0128632
637.912	0.0127870
637.991	0.0127885
638.069	0.0127993
638.147	0.0128800
638.225	0.0128096
638.303	0.0128245
638.381	0.0128008
638.459	0.0128201
638.537	0.0127941
638.616	0.0128529
638.694	0.0128680
638.772	0.0127747
638.850	0.0127724
638.928	0.0128368
639.006	0.0128001
639.084	0.0129202
639.162	0.0129107
639.241	0.0129173
639.319	0.0128899
639.397	0.0128278
639.475	0.0127018
639.553	0.0129173
639.631	0.0128680
639.709	0.0129017
639.787	0.0128044
639.866	0.0129281
639.944	0.0128801
640.022	0.0129315
640.100	0.0127979
640.178	0.0127435
640.256	0.0128609
640.334	0.0128179
640.412	0.0128206
640.491	0.0128406
640.569	0.0129594
640.647	0.0128322
640.725	0.0128766
640.803	0.0130526
640.881	0.0129382
640.959	0.0128523
641.037	0.0127717
641.116	0.0128787
641.194	0.0130161
641.272	0.0128966
641.350	0.0126637
641.428	0.0128734
641.506	0.0126838
641.584	0.0127975
641.662	0.0128977
641.741	0.0127872
641.819	0.0129140
641.897	0.0128666
641.975	0.0126632
642.053	0.0128686
642.131	0.0129649
642.209	0.0128571
642.287	0.0127155
642.366	0.0128210
642.444	0.0128008
642.522	0.0128233
642.600	0.0128736
642.678	0.0129524
642.756	0.0129117
642.834	0.0127689
642.912	0.0128401
642.991	0.0127775
643.069	0.0129002
643.147	0.0129059
643.225	0.0128823
643.303	0.0128667
643.381	0.0127455
643.459	0.0127851
643.537	0.0129043
643.616	0.0127231
643.694	0.0129295
643.772	0.0128455
643.850	0.0128062
643.928	0.0129122
644.006	0.0127406
644.084	0.0128889
644.162	0.0128148
644.241	0.0128247
644.319	0.0128515
644.397	0.0128787
644.475	0.0129723
644.553	0.0128638
644.631	0.0128259
644.709	0.0127576
644.787	0.0128053
644.866	0.0130658
644.944	0.0128831
645.022	0.0127436
645.100	0.0128505
645.178	0.0129668
645.256	0.0128202
645.334	0.0128524
645.412	0.0128571
645.491	0.0128788
645.569	0.0127922
645.647	0.0127508
645.725	0.0127890
645.803	0.0128315
645.881	0.0130089
645.959	0.0129590
646.037	0.0126673
646.116	0.0128808
646.194	0.0128320
646.272	0.0128381
646.350	0.0128696
646.428	0.0128053
646.506	0.0129157
646.584	0.0128263
646.662	0.0127293
646.741	0.0128956
646.819	0.0128232
646.897	0.0127809
646.975	0.0128043
647.053	0.0128426
647.131	0.0129073
647.209	0.0128011
647.287	0.0127645
647.366	0.0128751
647.444	0.0128257
647.522	0.0127887
647.600	0.0128889
647.678	0.0128856
647.756	0.0128560
647.834	0.0128362
647.912	0.0128403
647.991	0.0129289
648.069	0.0127914
648.147	0.0128601
648.225	0.0126842
648.303	0.0128010
648.381	0.0129576
648.459	0.0129160
648.537	0.0129018
648.616	0.0128822
648.694	0.0128574
648.772	0.0127904
648.850	0.0127628
648.928	0.0128582
649.006	0.0127549
649.084	0.0129149
649.162	0.0128455
649.241	0.0127978
649.319	0.0130059
649.397	0.0130495
649.475	0.0128707
649.553	0.0127936
649.631	0.0130052
649.709	0.0129623
649.787	0.0127470
649.866	0.0128935
649.944	0.0129109
650.022	0.0128812
650.100	0.0128656
650.178	0.0127985
650.256	0.0130424
650.334	0.0127950
650.412	0.0127448
650.491	0.0128419
650.569	0.0127735
650.647	0.0128973
650.725	0.0129413
650.803	0.0128526
650.881	0.0128880
650.959	0.0127573
651.037	0.0128673
651.116	0.0129205
651.194	0.0128767
651.272	0.0128259
651.350	0.0128870
651.428	0.0126888
651.506	0.0129431
651.584	0.0127673
651.662	0.0127558
651.741	0.0128600
651.819	0.0129015
651.897	0.0126646
651.975	0.0128254
652.053	0.0129062
652.131	0.0129540
652.209	0.0128498
652.287	0.0129176
652.366	0.0128153
652.444	0.0128037
652.522	0.0129546
652.600	0.0128278
652.678	0.0128599
652.756	0.0129872
652.834	0.0128490
652.912	0.0128067
652.991	0.0128758
653.069	0.0129240
653.147	0.0129019
653.225	0.0128230
653.303	0.0128036
653.381	0.0129875
653.459	0.0127252
653.537	0.0127576
653.616	0.0128995
653.694	0.0129249
653.772	0.0128244
653.850	0.0129025
653.928	0.0129346
654.006	0.0128856
654.084	0.0129111
654.162	0.0129980
654.241	0.0127730
654.319	0.0128128
654.397	0.0127650
654.475	0.0128865
654.553	0.0129752
654.631	0.0127206
654.709	0.0127527
654.787	0.0129262
654.866	0.0128394
654.944	0.0128213
655.022	0.0129635
655.100	0.0129308
655.178	0.0128011
655.256	0.0127960
655.334	0.0129473
655.412	0.0129147
655.491	0.0128695
655.569	0.0129443
655.647	0.0129067
655.725	0.0128378
655.803	0.0129914
655.881	0.0128446
655.959	0.0128307
656.037	0.0128580
656.116	0.0129187
656.194	0.0126803
656.272	0.0129651
656.350	0.0128389
656.428	0.0129477
656.506	0.0129182
656.584	0.0127931
656.662	0.0128278
656.741	0.0126815
656.819	0.0126949
656.897	0.0129305
656.975	0.0128377
657.053	0.0128929
657.131	0.0127560
657.209	0.0127914
657.287	0.0128580
657.366	0.0128338
657.444	0.0129352
657.522	0.0126928
657.600	0.0127611
657.678	0.0127982
657.756	0.0128402
657.834	0.0128608
657.912	0.0129247
657.991	0.0128809
658.069	0.0128796
658.147	0.0128447
658.225	0.0128369
658.303	0.0128182
658.381	0.0129113
658.459	0.0128860
658.537	0.0128345
658.616	0.0128238
658.694	0.0129149
658.772	0.0127721
658.850	0.0128323
658.928	0.0128469
659.006	0.0128835
659.084	0.0127757
659.162	0.0129776
659.241	0.0128677
659.319	0.0128855
659.397	0.0128699
659.475	0.0128628
659.553	0.0128111
659.631	0.0129479
659.709	0.0128111
659.787	0.0127631
659.866	0.0127997
659.944	0.0128500
660.022	0.0128104
660.100	0.0127901
660.178	0.0128964
660.256	0.0127525
660.334	0.0128973
660.412	0.0129369
660.491	0.0127393
660.569	0.0128380
660.647	0.0128429
660.725	0.0127351
660.803	0.0128565
660.881	0.0127964
660.959	0.0129232
661.037	0.0128378
661.116	0.0127633
661.194	0.0128918
661.272	0.0130052
661.350	0.0129030
661.428	0.0128261
661.506	0.0128120
661.584	0.0128383
661.662	0.0129317
661.741	0.0129147
661.819	0.0130021
661.897	0.0128508
661.975	0.0128021
662.053	0.0128104
662.131	0.0129631
662.209	0.0128725
662.287	0.0127776
662.366	0.0128234
662.444	0.0128967
662.522	0.0128808
662.600	0.0130347
662.678	0.0129331
662.756	0.0129443
662.834	0.0129563
662.912	0.0128292
662.991	0.0128556
663.069	0.0129548
663.147	0.0127851
663.225	0.0128810
663.303	0.0127572
663.381	0.0128181
663.459	0.0129532
663.537	0.0128014
663.616	0.0128667
663.694	0.0128689
663.772	0.0127074
663.850	0.0128837
663.928	0.0129547
664.006	0.0127391
664.084	0.0128652
664.162	0.0127541
664.241	0.0129236
664.319	0.0127892
664.397	0.0128719
664.475	0.0126778
664.553	0.0127826
664.631	0.0129163
664.709	0.0129655
664.787	0.0128077
664.866	0.0128009
664.944	0.0129663
665.022	0.0128955
665.100	0.0129449
665.178	0.0127319
665.256	0.0128687
665.334	0.0127979
665.412	0.0128862
665.491	0.0128252
665.569	0.0127764
665.647	0.0128501
665.725	0.0128515
665.803	0.0128979
665.881	0.0128634
665.959	0.0129661
666.037	0.0128085
666.116	0.0127593
666.194	0.0128982
666.272	0.0129179
666.350	0.0128616
666.428	0.0126864
666.506	0.0129327
666.584	0.0128481
666.662	0.0129242
666.741	0.0127714
666.819	0.0128792
666.897	0.0129466
666.975	0.0130318
667.053	0.0128834
667.131	0.0129061
667.209	0.0128859
667.287	0.0129440
667.366	0.0127792
667.444	0.0128327
667.522	0.0128679
667.600	0.0130679
667.678	0.0128947
667.756	0.0130277
667.834	0.0129254
667.912	0.0129472
667.991	0.0128716
668.069	0.0130016
668.147	0.0129937
668.225	0.0129536
668.303	0.0127984
668.381	0.0128603
668.459	0.0130766
668.537	0.0130144
668.616	0.0129120
668.694	0.0129644
668.772	0.0130248
668.850	0.0129169
668.928	0.0127975
669.006	0.0128728
669.084	0.0130379
669.162	0.0128110
669.241	0.0129377
669.319	0.0129520
669.397	0.0128228
669.475	0.0129558
669.553	0.0128909
669.631	0.0128787
669.709	0.0129128
669.787	0.0128266
669.866	0.0127905
669.944	0.0128976
670.022	0.0128885
670.100	0.0129163
670.178	0.0128464
670.256	0.0128687
670.334	0.0127934
670.412	0.0128646
670.491	0.0127626
670.569	0.0128519
670.647	0.0127808
670.725	0.0126624
670.803	0.0127882
670.881	0.0127078
670.959	0.0126982
671.037	0.0126482
671.116	0.0127962
671.194	0.0127686
671.272	0.0127370
671.350	0.0126730
671.428	0.0127867
671.506	0.0128303
671.584	0.0126256
671.662	0.0126140
671.741	0.0127122
671.819	0.0126638
671.897	0.0127312
671.975	0.0125490
672.053	0.0126501
672.131	0.0126421
672.209	0.0126587
672.287	0.0127333
672.366	0.0126527
672.444	0.0126857
672.522	0.0126852
672.600	0.0126823
672.678	0.0127894
672.756	0.0127410
672.834	0.0125550
672.912	0.0126627
672.991	0.0125790
673.069	0.0126674
673.147	0.0127471
673.225	0.0126037
673.303	0.0125349
673.381	0.0126913
673.459	0.0126141
673.537	0.0126104
673.616	0.0127128
673.694	0.0125265
673.772	0.0126133
673.850	0.0126575
673.928	0.0125581
674.006	0.0126134
674.084	0.0125253
674.162	0.0125768
674.241	0.0126118
674.319	0.0125585
674.397	0.0126518
674.475	0.0125627
674.553	0.0126745
674.631	0.0125742
674.709	0.0125901
674.787	0.0125475
674.866	0.0125276
674.944	0.0125633
675.022	0.0125863
675.100	0.0125433
675.178	0.0127012
675.256	0.0126205
675.334	0.0127166
675.412	0.0126894
675.491	0.0125727
675.569	0.0126478
675.647	0.0126541
675.725	0.0128756
675.803	0.0127898
675.881	0.0127168
675.959	0.0127365
676.037	0.0128693
676.116	0.0128105
676.194	0.0127369
676.272	0.0127473
676.350	0.0128400
676.428	0.0129529
676.506	0.0130031
676.584	0.0128938
676.662	0.0129787
676.741	0.0128590
676.819	0.0128983
676.897	0.0129342
676.975	0.0129725
677.053	0.0129973
677.131	0.0130227
677.209	0.0130324
677.287	0.0130237
677.366	0.0130315
677.444	0.0129112
677.522	0.0129224
677.600	0.0131178
677.678	0.0131921
677.756	0.0131335
677.834	0.0129774
677.912	0.0130147
677.991	0.0130323
678.069	0.0131206
678.147	0.0130683
678.225	0.0130190
678.303	0.0130712
678.381	0.0130576
678.459	0.0130621
678.537	0.0130852
678.616	0.0129654
678.694	0.0130220
678.772	0.0131011
678.850	0.0130307
678.928	0.0131705
679.006	0.0132252
679.084	0.0130135
679.162	0.0131690
679.241	0.0129926
679.319	0.0131917
679.397	0.0131252
679.475	0.0130155
679.553	0.0131713
679.631	0.0132295
679.709	0.0130660
679.787	0.0131947
679.866	0.0131628
679.944	0.0131391
680.022	0.0131789
680.100	0.0132036
680.178	0.0131665
680.256	0.0130828
680.334	0.0131590
680.412	0.0131056
680.491	0.0132233
680.569	0.0131232
680.647	0.0131733
680.725	0.0130490
680.803	0.0129414
680.881	0.0130679
680.959	0.0132095
681.037	0.0130601
681.116	0.0131188
681.194	0.0129590
681.272	0.0129994
681.350	0.0130601
681.428	0.0130511
681.506	0.0130570
681.584	0.0129528
681.662	0.0129924
681.741	0.0129417
681.819	0.0129707
681.897	0.0128191
681.975	0.0130183
682.053	0.0130196
682.131	0.0129424
682.209	0.0129571
682.287	0.0127678
682.366	0.0127695
682.444	0.0130018
682.522	0.0129172
682.600	0.0128209
682.678	0.0129234
682.756	0.0129413
682.834	0.0129265
682.912	0.0128545
682.991	0.0127929
683.069	0.0129080
683.147	0.0130070
683.225	0.0127842
683.303	0.0128265
683.381	0.0129156
683.459	0.0128461
683.537	0.0128827
683.616	0.0128091
683.694	0.0128420
683.772	0.0128819
683.850	0.0129836
683.928	0.0129468
684.006	0.0127811
684.084	0.0127570
684.162	0.0128092
684.241	0.0127377
684.319	0.0128750
684.397	0.0126999
684.475	0.0128526
684.553	0.0128419
684.631	0.0128270
684.709	0.0127920
684.787	0.0129481
684.866	0.0126453
684.944	0.0128546
685.022	0.0127782
685.100	0.0127254
685.178	0.0127357
685.256	0.0127962
685.334	0.0127266
685.412	0.0127443
685.491	0.0127813
685.569	0.0129205
685.647	0.0127578
685.725	0.0126711
