05/06/2022	18:55:29	Ver.	4.1	UNKNOWN
Optical Delay	600.015094	Delta X		0.078125	Sweeps	1	Scan Rate	0/0
Coordinates	Axis 1	NaN	Axis 2	NaN	Axis 3	NaN	Axis 4	NaN	Axis 5	NaN	Axis 6	0.000000
TX Power	0.000000	RX Power	0.000000

600.015	0.0141718
600.093	0.0141808
600.171	0.0142125
600.249	0.0142496
600.328	0.0141566
600.406	0.0142503
600.484	0.0141944
600.562	0.0142735
600.640	0.0141219
600.718	0.0142721
600.796	0.0142155
600.874	0.0141812
600.953	0.0141860
601.031	0.0141409
601.109	0.0141192
601.187	0.0142648
601.265	0.0143191
601.343	0.0141983
601.421	0.0143352
601.499	0.0141898
601.578	0.0142020
601.656	0.0142952
601.734	0.0142069
601.812	0.0142532
601.890	0.0142294
601.968	0.0142720
602.046	0.0142699
602.124	0.0142750
602.203	0.0140948
602.281	0.0141299
602.359	0.0142249
602.437	0.0142358
602.515	0.0142150
602.593	0.0141631
602.671	0.0142101
602.749	0.0142879
602.828	0.0141621
602.906	0.0142865
602.984	0.0142725
603.062	0.0141358
603.140	0.0142927
603.218	0.0142522
603.296	0.0142561
603.374	0.0142537
603.453	0.0142485
603.531	0.0142595
603.609	0.0142385
603.687	0.0142198
603.765	0.0142106
603.843	0.0141441
603.921	0.0141942
603.999	0.0142711
604.078	0.0142381
604.156	0.0142516
604.234	0.0143525
604.312	0.0141719
604.390	0.0143028
604.468	0.0139741
604.546	0.0141928
604.624	0.0143616
604.703	0.0141973
604.781	0.0141042
604.859	0.0142180
604.937	0.0142385
605.015	0.0142812
605.093	0.0141365
605.171	0.0141573
605.249	0.0142221
605.328	0.0142488
605.406	0.0142078
605.484	0.0140836
605.562	0.0141792
605.640	0.0141390
605.718	0.0142309
605.796	0.0143054
605.874	0.0142177
605.953	0.0141853
606.031	0.0142345
606.109	0.0141893
606.187	0.0141950
606.265	0.0142834
606.343	0.0141296
606.421	0.0141620
606.499	0.0140884
606.578	0.0140939
606.656	0.0143330
606.734	0.0142777
606.812	0.0142278
606.890	0.0142147
606.968	0.0142731
607.046	0.0141282
607.124	0.0141918
607.203	0.0142011
607.281	0.0141579
607.359	0.0142146
607.437	0.0141730
607.515	0.0142561
607.593	0.0142307
607.671	0.0141646
607.749	0.0141923
607.828	0.0142257
607.906	0.0142200
607.984	0.0142966
608.062	0.0142374
608.140	0.0141219
608.218	0.0140211
608.296	0.0139505
608.374	0.0141560
608.453	0.0142223
608.531	0.0142329
608.609	0.0142482
608.687	0.0142063
608.765	0.0142570
608.843	0.0142315
608.921	0.0140272
608.999	0.0142119
609.078	0.0142406
609.156	0.0142494
609.234	0.0141541
609.312	0.0141628
609.390	0.0143427
609.468	0.0143041
609.546	0.0142526
609.624	0.0141447
609.703	0.0142180
609.781	0.0141639
609.859	0.0142487
609.937	0.0143018
610.015	0.0142044
610.093	0.0140363
610.171	0.0142019
610.249	0.0142160
610.328	0.0141059
610.406	0.0141956
610.484	0.0141730
610.562	0.0143407
610.640	0.0142820
610.718	0.0142146
610.796	0.0142951
610.874	0.0141824
610.953	0.0142738
611.031	0.0140527
611.109	0.0142389
611.187	0.0143207
611.265	0.0143491
611.343	0.0141450
611.421	0.0142377
611.499	0.0142135
611.578	0.0142337
611.656	0.0142200
611.734	0.0143391
611.812	0.0141531
611.890	0.0141826
611.968	0.0142674
612.046	0.0143016
612.124	0.0141138
612.203	0.0141396
612.281	0.0141600
612.359	0.0141701
612.437	0.0142016
612.515	0.0142567
612.593	0.0141214
612.671	0.0141193
612.749	0.0142470
612.828	0.0141451
612.906	0.0141540
612.984	0.0141864
613.062	0.0141820
613.140	0.0141052
613.218	0.0142161
613.296	0.0141637
613.374	0.0142185
613.453	0.0141377
613.531	0.0141483
613.609	0.0141109
613.687	0.0142285
613.765	0.0140882
613.843	0.0142126
613.921	0.0141971
613.999	0.0141449
614.078	0.0142635
614.156	0.0142315
614.234	0.0142207
614.312	0.0141020
614.390	0.0142567
614.468	0.0142378
614.546	0.0142657
614.624	0.0141395
614.703	0.0141089
614.781	0.0143032
614.859	0.0141454
614.937	0.0141312
615.015	0.0141846
615.093	0.0140521
615.171	0.0142072
615.249	0.0143761
615.328	0.0142702
615.406	0.0141000
615.484	0.0143754
615.562	0.0142220
615.640	0.0140952
615.718	0.0141276
615.796	0.0141766
615.874	0.0142155
615.953	0.0142796
616.031	0.0141555
616.109	0.0140281
616.187	0.0141394
616.265	0.0142439
616.343	0.0142421
616.421	0.0142710
616.499	0.0141263
616.578	0.0142753
616.656	0.0142862
616.734	0.0142419
616.812	0.0141483
616.890	0.0142081
616.968	0.0142179
617.046	0.0143320
617.124	0.0141664
617.203	0.0142612
617.281	0.0142502
617.359	0.0141643
617.437	0.0142053
617.515	0.0142284
617.593	0.0142298
617.671	0.0141414
617.749	0.0141605
617.828	0.0141432
617.906	0.0142171
617.984	0.0141929
618.062	0.0141822
618.140	0.0141919
618.218	0.0142261
618.296	0.0141650
618.374	0.0142799
618.453	0.0141710
618.531	0.0141173
618.609	0.0142063
618.687	0.0142609
618.765	0.0142098
618.843	0.0141597
618.921	0.0141278
618.999	0.0142888
619.078	0.0142492
619.156	0.0141287
619.234	0.0141256
619.312	0.0141628
619.390	0.0143329
619.468	0.0142707
619.546	0.0140978
619.624	0.0141144
619.703	0.0143521
619.781	0.0142734
619.859	0.0139503
619.937	0.0141354
620.015	0.0142146
620.093	0.0141304
620.171	0.0142970
620.249	0.0141310
620.328	0.0142439
620.406	0.0142474
620.484	0.0142098
620.562	0.0141912
620.640	0.0141810
620.718	0.0140836
620.796	0.0142303
620.874	0.0141729
620.953	0.0141238
621.031	0.0143594
621.109	0.0141734
621.187	0.0142773
621.265	0.0141850
621.343	0.0141166
621.421	0.0141204
621.499	0.0142076
621.578	0.0142220
621.656	0.0141034
621.734	0.0141389
621.812	0.0140454
621.890	0.0141628
621.968	0.0143345
622.046	0.0141979
622.124	0.0140558
622.203	0.0140616
622.281	0.0142377
622.359	0.0141630
622.437	0.0141425
622.515	0.0141772
622.593	0.0142216
622.671	0.0142259
622.749	0.0143063
622.828	0.0142595
622.906	0.0142712
622.984	0.0142133
623.062	0.0141573
623.140	0.0141891
623.218	0.0141786
623.296	0.0141952
623.374	0.0142646
623.453	0.0142425
623.531	0.0142801
623.609	0.0141546
623.687	0.0141862
623.765	0.0142704
623.843	0.0142235
623.921	0.0143061
623.999	0.0140175
624.078	0.0141694
624.156	0.0142226
624.234	0.0142316
624.312	0.0142958
624.390	0.0141817
624.468	0.0143065
624.546	0.0142908
624.624	0.0142738
624.703	0.0143327
624.781	0.0142936
624.859	0.0141262
624.937	0.0141779
625.015	0.0142568
625.093	0.0142424
625.171	0.0143001
625.249	0.0143645
625.328	0.0143455
625.406	0.0140247
625.484	0.0142762
625.562	0.0142254
625.640	0.0142812
625.718	0.0142506
625.796	0.0141245
625.874	0.0143172
625.953	0.0142035
626.031	0.0142221
626.109	0.0142136
626.187	0.0141827
626.265	0.0143210
626.343	0.0143519
626.421	0.0141924
626.499	0.0141846
626.578	0.0140849
626.656	0.0142153
626.734	0.0142870
626.812	0.0142726
626.890	0.0142688
626.968	0.0142355
627.046	0.0142561
627.124	0.0141084
627.203	0.0143153
627.281	0.0143562
627.359	0.0142432
627.437	0.0141469
627.515	0.0142020
627.593	0.0142223
627.671	0.0141073
627.749	0.0142928
627.828	0.0143118
627.906	0.0141996
627.984	0.0141946
628.062	0.0143723
628.140	0.0140979
628.218	0.0141884
628.296	0.0141978
628.374	0.0141821
628.453	0.0141555
628.531	0.0142529
628.609	0.0142026
628.687	0.0142020
628.765	0.0142953
628.843	0.0143013
628.921	0.0140707
628.999	0.0141734
629.078	0.0140939
629.156	0.0142068
629.234	0.0142831
629.312	0.0141093
629.390	0.0141934
629.468	0.0142409
629.546	0.0140845
629.624	0.0142282
629.703	0.0142636
629.781	0.0142421
629.859	0.0141526
629.937	0.0142089
630.015	0.0142072
630.093	0.0142935
630.171	0.0141570
630.249	0.0141452
630.328	0.0142686
630.406	0.0141920
630.484	0.0141243
630.562	0.0142186
630.640	0.0142867
630.718	0.0142770
630.796	0.0141994
630.874	0.0142590
630.953	0.0142456
631.031	0.0142887
631.109	0.0141637
631.187	0.0141770
631.265	0.0141086
631.343	0.0141759
631.421	0.0141158
631.499	0.0141670
631.578	0.0142455
631.656	0.0141794
631.734	0.0141850
631.812	0.0141665
631.890	0.0142168
631.968	0.0142618
632.046	0.0142581
632.124	0.0141805
632.203	0.0142027
632.281	0.0142197
632.359	0.0141434
632.437	0.0140368
632.515	0.0142385
632.593	0.0142110
632.671	0.0141724
632.749	0.0142990
632.828	0.0143173
632.906	0.0141387
632.984	0.0140512
633.062	0.0141470
633.140	0.0142111
633.218	0.0141313
633.296	0.0142685
633.374	0.0141388
633.453	0.0141850
633.531	0.0141915
633.609	0.0142527
633.687	0.0141941
633.765	0.0142239
633.843	0.0142467
633.921	0.0142355
633.999	0.0141404
634.078	0.0143391
634.156	0.0141804
634.234	0.0142507
634.312	0.0141172
634.390	0.0141984
634.468	0.0140945
634.546	0.0142286
634.624	0.0142776
634.703	0.0142987
634.781	0.0142709
634.859	0.0142971
634.937	0.0141685
635.015	0.0142822
635.093	0.0141677
635.171	0.0142573
635.249	0.0142107
635.328	0.0142742
635.406	0.0141144
635.484	0.0141302
635.562	0.0142452
635.640	0.0142129
635.718	0.0142151
635.796	0.0142420
635.874	0.0142194
635.953	0.0142668
636.031	0.0141724
636.109	0.0142481
636.187	0.0142826
636.265	0.0142844
636.343	0.0142970
636.421	0.0140881
636.499	0.0142564
636.578	0.0143130
636.656	0.0143723
636.734	0.0142625
636.812	0.0141556
636.890	0.0142162
636.968	0.0143373
637.046	0.0141977
637.124	0.0141990
637.203	0.0141756
637.281	0.0143357
637.359	0.0141243
637.437	0.0142847
637.515	0.0142933
637.593	0.0141559
637.671	0.0142789
637.749	0.0142523
637.828	0.0143568
637.906	0.0141794
637.984	0.0141478
638.062	0.0143148
638.140	0.0141601
638.218	0.0141785
638.296	0.0142986
638.374	0.0142145
638.453	0.0143629
638.531	0.0140411
638.609	0.0142802
638.687	0.0141477
638.765	0.0142067
638.843	0.0143099
638.921	0.0143967
638.999	0.0140820
639.078	0.0142492
639.156	0.0142990
639.234	0.0141810
639.312	0.0141879
639.390	0.0142563
639.468	0.0142755
639.546	0.0142699
639.624	0.0142714
639.703	0.0142030
639.781	0.0142490
639.859	0.0142610
639.937	0.0143237
640.015	0.0142332
640.093	0.0142358
640.171	0.0142789
640.249	0.0142007
640.328	0.0141890
640.406	0.0141804
640.484	0.0142831
640.562	0.0142973
640.640	0.0142361
640.718	0.0142593
640.796	0.0141774
640.874	0.0142744
640.953	0.0142002
641.031	0.0142069
641.109	0.0142322
641.187	0.0141266
641.265	0.0141518
641.343	0.0141779
641.421	0.0142525
641.499	0.0143003
641.578	0.0142212
641.656	0.0142532
641.734	0.0142497
641.812	0.0142254
641.890	0.0142890
641.968	0.0142147
642.046	0.0143191
642.124	0.0142120
642.203	0.0141306
642.281	0.0141858
642.359	0.0142153
642.437	0.0142287
642.515	0.0142645
642.593	0.0141898
642.671	0.0142359
642.749	0.0141400
642.828	0.0141756
642.906	0.0141947
642.984	0.0142047
643.062	0.0142592
643.140	0.0142474
643.218	0.0141792
643.296	0.0141690
643.374	0.0141788
643.453	0.0142168
643.531	0.0142540
643.609	0.0141853
643.687	0.0143256
643.765	0.0143133
643.843	0.0142286
643.921	0.0142482
643.999	0.0141920
644.078	0.0142758
644.156	0.0143176
644.234	0.0142058
644.312	0.0142686
644.390	0.0143391
644.468	0.0141595
644.546	0.0141821
644.624	0.0142097
644.703	0.0143898
644.781	0.0142938
644.859	0.0140453
644.937	0.0142074
645.015	0.0143373
645.093	0.0141589
645.171	0.0142017
645.249	0.0142113
645.328	0.0142540
645.406	0.0142341
645.484	0.0143436
645.562	0.0142610
645.640	0.0142711
645.718	0.0141530
645.796	0.0143506
645.874	0.0142999
645.953	0.0142541
646.031	0.0142204
646.109	0.0142920
646.187	0.0142775
646.265	0.0141734
646.343	0.0140482
646.421	0.0142986
646.499	0.0141759
646.578	0.0141566
646.656	0.0141753
646.734	0.0142509
646.812	0.0143060
646.890	0.0142638
646.968	0.0141327
647.046	0.0141810
647.124	0.0142422
647.203	0.0142960
647.281	0.0143022
647.359	0.0142326
647.437	0.0141817
647.515	0.0142926
647.593	0.0142191
647.671	0.0143295
647.749	0.0143191
647.828	0.0142302
647.906	0.0142803
647.984	0.0141323
648.062	0.0143348
648.140	0.0141634
648.218	0.0141928
648.296	0.0141785
648.374	0.0140883
648.453	0.0142589
648.531	0.0142720
648.609	0.0143288
648.687	0.0141553
648.765	0.0144433
648.843	0.0143906
648.921	0.0142893
648.999	0.0142608
649.078	0.0144151
649.156	0.0143166
649.234	0.0140296
649.312	0.0142201
649.390	0.0141539
649.468	0.0142973
649.546	0.0142724
649.624	0.0142395
649.703	0.0141776
649.781	0.0142583
649.859	0.0142933
649.937	0.0141184
650.015	0.0142393
650.093	0.0143032
650.171	0.0142647
650.249	0.0142764
650.328	0.0141815
650.406	0.0141439
650.484	0.0142050
650.562	0.0142621
650.640	0.0142146
650.718	0.0141948
650.796	0.0142698
650.874	0.0141956
650.953	0.0141790
651.031	0.0142159
651.109	0.0141853
651.187	0.0141936
651.265	0.0142108
651.343	0.0142114
651.421	0.0142357
651.499	0.0141214
651.578	0.0142721
651.656	0.0142673
651.734	0.0142738
651.812	0.0143008
651.890	0.0143425
651.968	0.0142601
652.046	0.0142884
652.124	0.0142313
652.203	0.0142905
652.281	0.0142769
652.359	0.0141059
652.437	0.0142107
652.515	0.0142319
652.593	0.0140250
652.671	0.0141393
652.749	0.0141528
652.828	0.0141632
652.906	0.0140138
652.984	0.0141741
653.062	0.0143604
653.140	0.0142752
653.218	0.0141363
653.296	0.0143139
653.374	0.0143060
653.453	0.0143302
653.531	0.0144430
653.609	0.0143739
653.687	0.0145090
653.765	0.0144324
653.843	0.0142133
653.921	0.0142732
653.999	0.0142146
654.078	0.0142305
654.156	0.0142033
654.234	0.0141862
654.312	0.0142677
654.390	0.0141998
654.468	0.0140038
654.546	0.0140807
654.624	0.0141291
654.703	0.0141331
654.781	0.0143675
654.859	0.0142957
654.937	0.0143058
655.015	0.0142899
655.093	0.0143458
655.171	0.0143583
655.249	0.0143373
655.328	0.0143389
655.406	0.0143317
655.484	0.0143573
655.562	0.0141740
655.640	0.0142035
655.718	0.0142751
655.796	0.0143478
655.874	0.0141679
655.953	0.0142055
656.031	0.0141246
656.109	0.0141677
656.187	0.0141966
656.265	0.0141372
656.343	0.0141618
656.421	0.0142072
656.499	0.0142297
656.578	0.0142253
656.656	0.0142243
656.734	0.0141888
656.812	0.0141818
656.890	0.0141919
656.968	0.0142840
657.046	0.0142480
657.124	0.0142757
657.203	0.0141876
657.281	0.0143318
657.359	0.0143470
657.437	0.0142040
657.515	0.0141930
657.593	0.0142759
657.671	0.0142252
657.749	0.0141936
657.828	0.0143051
657.906	0.0142156
657.984	0.0142290
658.062	0.0142412
658.140	0.0141581
658.218	0.0141679
658.296	0.0141178
658.374	0.0142158
658.453	0.0141093
658.531	0.0139793
658.609	0.0142056
658.687	0.0141972
658.765	0.0141254
658.843	0.0140231
658.921	0.0141930
658.999	0.0140307
659.078	0.0141383
659.156	0.0142028
659.234	0.0142435
659.312	0.0141976
659.390	0.0142722
659.468	0.0143729
659.546	0.0142671
659.624	0.0142769
659.703	0.0141460
659.781	0.0143401
659.859	0.0142946
659.937	0.0142911
660.015	0.0142715
660.093	0.0142640
660.171	0.0142072
660.249	0.0141668
660.328	0.0140897
660.406	0.0139957
660.484	0.0140504
660.562	0.0142532
660.640	0.0140701
660.718	0.0141327
660.796	0.0140723
660.874	0.0141555
660.953	0.0142387
661.031	0.0141427
661.109	0.0141647
661.187	0.0143666
661.265	0.0142489
661.343	0.0142201
661.421	0.0142279
661.499	0.0142623
661.578	0.0144193
661.656	0.0143498
661.734	0.0143272
661.812	0.0142022
661.890	0.0143487
661.968	0.0142443
662.046	0.0141367
662.124	0.0139912
662.203	0.0141238
662.281	0.0140618
662.359	0.0142565
662.437	0.0142572
662.515	0.0142824
662.593	0.0140856
662.671	0.0138901
662.749	0.0142767
662.828	0.0142387
662.906	0.0142268
662.984	0.0141837
663.062	0.0142052
663.140	0.0141510
663.218	0.0141592
663.296	0.0141144
663.374	0.0141361
663.453	0.0140615
663.531	0.0141016
663.609	0.0141335
663.687	0.0142641
663.765	0.0141253
663.843	0.0140935
663.921	0.0141293
663.999	0.0141361
664.078	0.0141617
664.156	0.0141855
664.234	0.0141848
664.312	0.0141472
664.390	0.0141890
664.468	0.0141856
664.546	0.0141599
664.624	0.0140419
664.703	0.0142171
664.781	0.0141434
664.859	0.0141681
664.937	0.0141893
665.015	0.0140223
665.093	0.0140640
665.171	0.0141058
665.249	0.0141828
665.328	0.0141917
665.406	0.0142915
665.484	0.0141597
665.562	0.0141566
665.640	0.0143536
665.718	0.0143297
665.796	0.0143501
665.874	0.0141309
665.953	0.0142696
666.031	0.0142822
666.109	0.0142260
666.187	0.0141912
666.265	0.0140794
666.343	0.0141354
666.421	0.0140556
666.499	0.0141032
666.578	0.0139310
666.656	0.0139220
666.734	0.0140086
666.812	0.0140524
666.890	0.0140475
666.968	0.0142262
667.046	0.0143713
667.124	0.0144093
667.203	0.0144450
667.281	0.0146329
667.359	0.0144155
667.437	0.0144226
667.515	0.0144989
667.593	0.0142744
667.671	0.0143923
667.749	0.0143513
667.828	0.0141470
667.906	0.0142921
667.984	0.0141783
668.062	0.0141816
668.140	0.0141896
668.218	0.0142126
668.296	0.0141275
668.374	0.0143012
668.453	0.0142409
668.531	0.0142122
668.609	0.0142169
668.687	0.0141338
668.765	0.0143179
668.843	0.0140821
668.921	0.0139570
668.999	0.0140079
669.078	0.0139959
669.156	0.0140605
669.234	0.0141003
669.312	0.0140523
669.390	0.0140309
669.468	0.0140461
669.546	0.0141119
669.624	0.0142742
669.703	0.0143230
669.781	0.0142444
669.859	0.0143327
669.937	0.0145469
670.015	0.0144496
670.093	0.0142478
670.171	0.0143410
670.249	0.0144562
670.328	0.0144507
670.406	0.0142077
670.484	0.0142709
670.562	0.0141599
670.640	0.0141998
670.718	0.0142839
670.796	0.0141521
670.874	0.0142953
670.953	0.0142330
671.031	0.0140916
671.109	0.0141797
671.187	0.0141977
671.265	0.0141010
671.343	0.0141430
671.421	0.0141430
671.499	0.0141257
671.578	0.0142350
671.656	0.0140298
671.734	0.0141938
671.812	0.0142655
671.890	0.0141026
671.968	0.0141907
672.046	0.0142541
672.124	0.0143967
672.203	0.0142729
672.281	0.0143787
672.359	0.0143956
672.437	0.0143501
672.515	0.0143541
672.593	0.0143469
672.671	0.0141668
672.749	0.0143433
672.828	0.0141824
672.906	0.0140026
672.984	0.0141259
673.062	0.0138877
673.140	0.0139392
673.218	0.0138705
673.296	0.0138306
673.374	0.0139178
673.453	0.0138200
673.531	0.0139089
673.609	0.0139165
673.687	0.0140342
673.765	0.0140725
673.843	0.0141784
673.921	0.0142108
673.999	0.0142377
674.078	0.0142330
674.156	0.0141406
674.234	0.0141069
674.312	0.0141580
674.390	0.0139935
674.468	0.0141388
674.546	0.0140136
674.624	0.0141330
674.703	0.0142281
674.781	0.0142477
674.859	0.0143343
674.937	0.0144063
675.015	0.0143506
675.093	0.0143563
675.171	0.0145438
675.249	0.0145603
675.328	0.0144913
675.406	0.0145357
675.484	0.0144517
675.562	0.0142722
675.640	0.0142137
675.718	0.0143485
675.796	0.0143137
675.874	0.0142760
675.953	0.0144198
676.031	0.0144551
676.109	0.0143813
676.187	0.0144922
676.265	0.0145538
676.343	0.0144242
676.421	0.0145431
676.499	0.0145770
676.578	0.0145502
676.656	0.0145344
676.734	0.0143481
676.812	0.0144140
676.890	0.0142726
676.968	0.0141372
677.046	0.0140913
677.124	0.0138633
677.203	0.0138588
677.281	0.0137801
677.359	0.0136782
677.437	0.0138086
677.515	0.0137656
677.593	0.0137930
677.671	0.0137493
677.749	0.0138908
677.828	0.0139175
677.906	0.0139374
677.984	0.0138911
678.062	0.0139466
678.140	0.0139587
678.218	0.0139314
678.296	0.0140833
678.374	0.0141199
678.453	0.0142310
678.531	0.0141130
678.609	0.0142369
678.687	0.0141454
678.765	0.0141698
678.843	0.0143771
678.921	0.0145218
678.999	0.0143189
679.078	0.0143154
679.156	0.0143753
679.234	0.0142226
679.312	0.0143781
679.390	0.0143831
679.468	0.0144085
679.546	0.0144598
679.624	0.0143427
679.703	0.0144886
679.781	0.0145601
679.859	0.0144754
679.937	0.0145232
680.015	0.0145285
680.093	0.0145972
680.171	0.0145898
680.249	0.0145265
680.328	0.0146011
680.406	0.0144621
680.484	0.0144638
680.562	0.0143137
680.640	0.0143255
680.718	0.0141796
680.796	0.0142557
680.874	0.0140130
680.953	0.0140773
681.031	0.0140519
681.109	0.0138182
681.187	0.0139798
681.265	0.0139734
681.343	0.0139236
681.421	0.0138804
681.499	0.0139824
681.578	0.0138662
681.656	0.0139941
681.734	0.0140116
681.812	0.0141078
681.890	0.0140321
681.968	0.0141546
682.046	0.0141659
682.124	0.0143340
682.203	0.0141027
682.281	0.0142348
682.359	0.0143781
682.437	0.0143441
682.515	0.0142551
682.593	0.0142490
682.671	0.0143016
682.749	0.0142329
682.828	0.0142204
682.906	0.0140433
682.984	0.0140786
683.062	0.0139797
683.140	0.0140092
683.218	0.0139175
683.296	0.0140342
683.374	0.0139250
683.453	0.0140022
683.531	0.0140376
683.609	0.0139633
683.687	0.0140989
683.765	0.0142104
683.843	0.0139960
683.921	0.0140473
683.999	0.0141571
684.078	0.0140339
684.156	0.0141479
684.234	0.0139628
684.312	0.0140458
684.390	0.0141709
684.468	0.0140957
684.546	0.0140462
684.624	0.0141473
684.703	0.0141071
684.781	0.0141823
684.859	0.0145280
684.937	0.0143848
685.015	0.0142930
685.093	0.0144537
685.171	0.0144878
685.249	0.0145114
685.328	0.0144402
685.406	0.0146880
685.484	0.0144933
685.562	0.0147012
685.640	0.0145413
685.718	0.0144807
