05/06/2022	18:56:39	Ver.	4.1	UNKNOWN
Optical Delay	600.015094	Delta X		0.078125	Sweeps	1	Scan Rate	0/0
Coordinates	Axis 1	NaN	Axis 2	NaN	Axis 3	NaN	Axis 4	NaN	Axis 5	NaN	Axis 6	0.000000
TX Power	0.000000	RX Power	0.000000

600.015	0.0144643
600.093	0.0145551
600.171	0.0143108
600.249	0.0143852
600.328	0.0144900
600.406	0.0145493
600.484	0.0146618
600.562	0.0145705
600.640	0.0144414
600.718	0.0143905
600.796	0.0145895
600.874	0.0144707
600.953	0.0144593
601.031	0.0144193
601.109	0.0143314
601.187	0.0144376
601.265	0.0145808
601.343	0.0145013
601.421	0.0145303
601.499	0.0143929
601.578	0.0144859
601.656	0.0143330
601.734	0.0144563
601.812	0.0144559
601.890	0.0145071
601.968	0.0144602
602.046	0.0145538
602.124	0.0144226
602.203	0.0145827
602.281	0.0143908
602.359	0.0144622
602.437	0.0144414
602.515	0.0145403
602.593	0.0144743
602.671	0.0145892
602.749	0.0144080
602.828	0.0144842
602.906	0.0145182
602.984	0.0146091
603.062	0.0144611
603.140	0.0144362
603.218	0.0145444
603.296	0.0144411
603.374	0.0144756
603.453	0.0143803
603.531	0.0145078
603.609	0.0145213
603.687	0.0145039
603.765	0.0145363
603.843	0.0144298
603.921	0.0144678
603.999	0.0144681
604.078	0.0146055
604.156	0.0143925
604.234	0.0144855
604.312	0.0146255
604.390	0.0144786
604.468	0.0145700
604.546	0.0145242
604.624	0.0144526
604.703	0.0144057
604.781	0.0145366
604.859	0.0143286
604.937	0.0144838
605.015	0.0144447
605.093	0.0144672
605.171	0.0144641
605.249	0.0144961
605.328	0.0143906
605.406	0.0143939
605.484	0.0145133
605.562	0.0145472
605.640	0.0144894
605.718	0.0145271
605.796	0.0144282
605.874	0.0144929
605.953	0.0144385
606.031	0.0146065
606.109	0.0146368
606.187	0.0145238
606.265	0.0145581
606.343	0.0143958
606.421	0.0145317
606.499	0.0145017
606.578	0.0145975
606.656	0.0146034
606.734	0.0145780
606.812	0.0145516
606.890	0.0145757
606.968	0.0146027
607.046	0.0146148
607.124	0.0145913
607.203	0.0145586
607.281	0.0145929
607.359	0.0144910
607.437	0.0145547
607.515	0.0144202
607.593	0.0145898
607.671	0.0146323
607.749	0.0145734
607.828	0.0145177
607.906	0.0145525
607.984	0.0145770
608.062	0.0144675
608.140	0.0143580
608.218	0.0144525
608.296	0.0145685
608.374	0.0145948
608.453	0.0144753
608.531	0.0145387
608.609	0.0146322
608.687	0.0145060
608.765	0.0144589
608.843	0.0144969
608.921	0.0145849
608.999	0.0144785
609.078	0.0144899
609.156	0.0144816
609.234	0.0145071
609.312	0.0145223
609.390	0.0144952
609.468	0.0145192
609.546	0.0144817
609.624	0.0145583
609.703	0.0145963
609.781	0.0144473
609.859	0.0144202
609.937	0.0144919
610.015	0.0144558
610.093	0.0146106
610.171	0.0144146
610.249	0.0144741
610.328	0.0143768
610.406	0.0143713
610.484	0.0144639
610.562	0.0145574
610.640	0.0143511
610.718	0.0144040
610.796	0.0144786
610.874	0.0144934
610.953	0.0145755
611.031	0.0143982
611.109	0.0144165
611.187	0.0143333
611.265	0.0144378
611.343	0.0145322
611.421	0.0143678
611.499	0.0144231
611.578	0.0143970
611.656	0.0144236
611.734	0.0143964
611.812	0.0144179
611.890	0.0143568
611.968	0.0143184
612.046	0.0144128
612.124	0.0145293
612.203	0.0144176
612.281	0.0144766
612.359	0.0144713
612.437	0.0145012
612.515	0.0143494
612.593	0.0143483
612.671	0.0144220
612.749	0.0145060
612.828	0.0142548
612.906	0.0143691
612.984	0.0145004
613.062	0.0144774
613.140	0.0143887
613.218	0.0144758
613.296	0.0144895
613.374	0.0144991
613.453	0.0143791
613.531	0.0144954
613.609	0.0144777
613.687	0.0143879
613.765	0.0145687
613.843	0.0144653
613.921	0.0144688
613.999	0.0145092
614.078	0.0144756
614.156	0.0144641
614.234	0.0144470
614.312	0.0145701
614.390	0.0145742
614.468	0.0144133
614.546	0.0145102
614.624	0.0145296
614.703	0.0145302
614.781	0.0143872
614.859	0.0144758
614.937	0.0145085
615.015	0.0145338
615.093	0.0144440
615.171	0.0144857
615.249	0.0145242
615.328	0.0144646
615.406	0.0144069
615.484	0.0144681
615.562	0.0143505
615.640	0.0144816
615.718	0.0143412
615.796	0.0142404
615.874	0.0144953
615.953	0.0144306
616.031	0.0145319
616.109	0.0144678
616.187	0.0142583
616.265	0.0143855
616.343	0.0143774
616.421	0.0144785
616.499	0.0146776
616.578	0.0144203
616.656	0.0143681
616.734	0.0145013
616.812	0.0144844
616.890	0.0145177
616.968	0.0145527
617.046	0.0144472
617.124	0.0143550
617.203	0.0144489
617.281	0.0144620
617.359	0.0144018
617.437	0.0145650
617.515	0.0144039
617.593	0.0144546
617.671	0.0145464
617.749	0.0144856
617.828	0.0143726
617.906	0.0143707
617.984	0.0144635
618.062	0.0146305
618.140	0.0143239
618.218	0.0143733
618.296	0.0144092
618.374	0.0145378
618.453	0.0144274
618.531	0.0144870
618.609	0.0144019
618.687	0.0145146
618.765	0.0144292
618.843	0.0144566
618.921	0.0145716
618.999	0.0143645
619.078	0.0145369
619.156	0.0146408
619.234	0.0144300
619.312	0.0144436
619.390	0.0144955
619.468	0.0143420
619.546	0.0145720
619.624	0.0144750
619.703	0.0145347
619.781	0.0144722
619.859	0.0143318
619.937	0.0145792
620.015	0.0145343
620.093	0.0143157
620.171	0.0145655
620.249	0.0145216
620.328	0.0146101
620.406	0.0145773
620.484	0.0145963
620.562	0.0145108
620.640	0.0145026
620.718	0.0144016
620.796	0.0145038
620.874	0.0145800
620.953	0.0145535
621.031	0.0144012
621.109	0.0143771
621.187	0.0144195
621.265	0.0146352
621.343	0.0144746
621.421	0.0144127
621.499	0.0144775
621.578	0.0145426
621.656	0.0145309
621.734	0.0144146
621.812	0.0144949
621.890	0.0145688
621.968	0.0145347
622.046	0.0143799
622.124	0.0144632
622.203	0.0144680
622.281	0.0145091
622.359	0.0146098
622.437	0.0147137
622.515	0.0145755
622.593	0.0145812
622.671	0.0144865
622.749	0.0145461
622.828	0.0145827
622.906	0.0146388
622.984	0.0144456
623.062	0.0145132
623.140	0.0147045
623.218	0.0145644
623.296	0.0144675
623.374	0.0146148
623.453	0.0144963
623.531	0.0145204
623.609	0.0145338
623.687	0.0146182
623.765	0.0144992
623.843	0.0145532
623.921	0.0145768
623.999	0.0144912
624.078	0.0146420
624.156	0.0146036
624.234	0.0145556
624.312	0.0145628
624.390	0.0144840
624.468	0.0144221
624.546	0.0143841
624.624	0.0146830
624.703	0.0146326
624.781	0.0144141
624.859	0.0145571
624.937	0.0145554
625.015	0.0145129
625.093	0.0143340
625.171	0.0144926
625.249	0.0143993
625.328	0.0144341
625.406	0.0144878
625.484	0.0145100
625.562	0.0145407
625.640	0.0145181
625.718	0.0145200
625.796	0.0145123
625.874	0.0143748
625.953	0.0145584
626.031	0.0145468
626.109	0.0144420
626.187	0.0145201
626.265	0.0144999
626.343	0.0145184
626.421	0.0144507
626.499	0.0144217
626.578	0.0143346
626.656	0.0145976
626.734	0.0145763
626.812	0.0144668
626.890	0.0144077
626.968	0.0144453
627.046	0.0145926
627.124	0.0146929
627.203	0.0144526
627.281	0.0143974
627.359	0.0145969
627.437	0.0144747
627.515	0.0146203
627.593	0.0146688
627.671	0.0145245
627.749	0.0144183
627.828	0.0145459
627.906	0.0144027
627.984	0.0144412
628.062	0.0144857
628.140	0.0145061
628.218	0.0145948
628.296	0.0145850
628.374	0.0145274
628.453	0.0145756
628.531	0.0145419
628.609	0.0143453
628.687	0.0145628
628.765	0.0145055
628.843	0.0143938
628.921	0.0143558
628.999	0.0144251
629.078	0.0143987
629.156	0.0144392
629.234	0.0144799
629.312	0.0144823
629.390	0.0145099
629.468	0.0143644
629.546	0.0144537
629.624	0.0143277
629.703	0.0145066
629.781	0.0144479
629.859	0.0143966
629.937	0.0143581
630.015	0.0145489
630.093	0.0144489
630.171	0.0145415
630.249	0.0145934
630.328	0.0145105
630.406	0.0144650
630.484	0.0144772
630.562	0.0143747
630.640	0.0144041
630.718	0.0144798
630.796	0.0144762
630.874	0.0145303
630.953	0.0144086
631.031	0.0144440
631.109	0.0145065
631.187	0.0143886
631.265	0.0144624
631.343	0.0144657
631.421	0.0145212
631.499	0.0143760
631.578	0.0144481
631.656	0.0144839
631.734	0.0145007
631.812	0.0145708
631.890	0.0144619
631.968	0.0144980
632.046	0.0143308
632.124	0.0144405
632.203	0.0144930
632.281	0.0144063
632.359	0.0144628
632.437	0.0144681
632.515	0.0144122
632.593	0.0145675
632.671	0.0144318
632.749	0.0145076
632.828	0.0144844
632.906	0.0145777
632.984	0.0145449
633.062	0.0144792
633.140	0.0145213
633.218	0.0144642
633.296	0.0145953
633.374	0.0144495
633.453	0.0144094
633.531	0.0144640
633.609	0.0145219
633.687	0.0145412
633.765	0.0145406
633.843	0.0144874
633.921	0.0145074
633.999	0.0145371
634.078	0.0147399
634.156	0.0144471
634.234	0.0144244
634.312	0.0144188
634.390	0.0145007
634.468	0.0146157
634.546	0.0145203
634.624	0.0144736
634.703	0.0144514
634.781	0.0145512
634.859	0.0145728
634.937	0.0145168
635.015	0.0145185
635.093	0.0146394
635.171	0.0144263
635.249	0.0145451
635.328	0.0144695
635.406	0.0145258
635.484	0.0145174
635.562	0.0143659
635.640	0.0146907
635.718	0.0146256
635.796	0.0144811
635.874	0.0144830
635.953	0.0145590
636.031	0.0146210
636.109	0.0145616
636.187	0.0145109
636.265	0.0145180
636.343	0.0144828
636.421	0.0143617
636.499	0.0144090
636.578	0.0145444
636.656	0.0145695
636.734	0.0146420
636.812	0.0145016
636.890	0.0143958
636.968	0.0145168
637.046	0.0144470
637.124	0.0145186
637.203	0.0145266
637.281	0.0145894
637.359	0.0144501
637.437	0.0144027
637.515	0.0143862
637.593	0.0143977
637.671	0.0144516
637.749	0.0144019
637.828	0.0145210
637.906	0.0144785
637.984	0.0144301
638.062	0.0145625
638.140	0.0145187
638.218	0.0144492
638.296	0.0144617
638.374	0.0144568
638.453	0.0143719
638.531	0.0142658
638.609	0.0144030
638.687	0.0144430
638.765	0.0145493
638.843	0.0143405
638.921	0.0143391
638.999	0.0144209
639.078	0.0143980
639.156	0.0145198
639.234	0.0145093
639.312	0.0143731
639.390	0.0144199
639.468	0.0145511
639.546	0.0144115
639.624	0.0144357
639.703	0.0146954
639.781	0.0143783
639.859	0.0145712
639.937	0.0144392
640.015	0.0142545
640.093	0.0145064
640.171	0.0145856
640.249	0.0145135
640.328	0.0143613
640.406	0.0144628
640.484	0.0144669
640.562	0.0143781
640.640	0.0144542
640.718	0.0145367
640.796	0.0144781
640.874	0.0144151
640.953	0.0144433
641.031	0.0145127
641.109	0.0144518
641.187	0.0144781
641.265	0.0146234
641.343	0.0145337
641.421	0.0144624
641.499	0.0144293
641.578	0.0144055
641.656	0.0144924
641.734	0.0143871
641.812	0.0144711
641.890	0.0144241
641.968	0.0144322
642.046	0.0145837
642.124	0.0144324
642.203	0.0144534
642.281	0.0144219
642.359	0.0145000
642.437	0.0144389
642.515	0.0144651
642.593	0.0145096
642.671	0.0146277
642.749	0.0145400
642.828	0.0144691
642.906	0.0142912
642.984	0.0143903
643.062	0.0145248
643.140	0.0144382
643.218	0.0145366
643.296	0.0145890
643.374	0.0145513
643.453	0.0144465
643.531	0.0144412
643.609	0.0144749
643.687	0.0144643
643.765	0.0144104
643.843	0.0144771
643.921	0.0146000
643.999	0.0145193
644.078	0.0144706
644.156	0.0144976
644.234	0.0145079
644.312	0.0144113
644.390	0.0144368
644.468	0.0144972
644.546	0.0143179
644.624	0.0144347
644.703	0.0143981
644.781	0.0143892
644.859	0.0144302
644.937	0.0143959
645.015	0.0143437
645.093	0.0144067
645.171	0.0143252
645.249	0.0143600
645.328	0.0144769
645.406	0.0143685
645.484	0.0144145
645.562	0.0144973
645.640	0.0144469
645.718	0.0144207
645.796	0.0144166
645.874	0.0144402
645.953	0.0145446
646.031	0.0143651
646.109	0.0145257
646.187	0.0145989
646.265	0.0144429
646.343	0.0143744
646.421	0.0144292
646.499	0.0143725
646.578	0.0142095
646.656	0.0143549
646.734	0.0144293
646.812	0.0143473
646.890	0.0143267
646.968	0.0142586
647.046	0.0144128
647.124	0.0146113
647.203	0.0145723
647.281	0.0143358
647.359	0.0145080
647.437	0.0144873
647.515	0.0145862
647.593	0.0145348
647.671	0.0145061
647.749	0.0144768
647.828	0.0145046
647.906	0.0145074
647.984	0.0144960
648.062	0.0144525
648.140	0.0143432
648.218	0.0142924
648.296	0.0143995
648.374	0.0142892
648.453	0.0142416
648.531	0.0142032
648.609	0.0144315
648.687	0.0145387
648.765	0.0144262
648.843	0.0144140
648.921	0.0143733
648.999	0.0144952
649.078	0.0144780
649.156	0.0144392
649.234	0.0145410
649.312	0.0145720
649.390	0.0144673
649.468	0.0145544
649.546	0.0143748
649.624	0.0143798
649.703	0.0144860
649.781	0.0143483
649.859	0.0143369
649.937	0.0145327
650.015	0.0145498
650.093	0.0144469
650.171	0.0144517
650.249	0.0143176
650.328	0.0143116
650.406	0.0145786
650.484	0.0143924
650.562	0.0142097
650.640	0.0144534
650.718	0.0143853
650.796	0.0142973
650.874	0.0143961
650.953	0.0143950
651.031	0.0144263
651.109	0.0143642
651.187	0.0143570
651.265	0.0144081
651.343	0.0144532
651.421	0.0144256
651.499	0.0145107
651.578	0.0145348
651.656	0.0143839
651.734	0.0143955
651.812	0.0144025
651.890	0.0145388
651.968	0.0144256
652.046	0.0143426
652.124	0.0144536
652.203	0.0145115
652.281	0.0143524
652.359	0.0144148
652.437	0.0143271
652.515	0.0142355
652.593	0.0143088
652.671	0.0144363
652.749	0.0145190
652.828	0.0143601
652.906	0.0143030
652.984	0.0144005
653.062	0.0143838
653.140	0.0144763
653.218	0.0144125
653.296	0.0145355
653.374	0.0144681
653.453	0.0145795
653.531	0.0144434
653.609	0.0143869
653.687	0.0144956
653.765	0.0145459
653.843	0.0144286
653.921	0.0146020
653.999	0.0145529
654.078	0.0144794
654.156	0.0145158
654.234	0.0144988
654.312	0.0144465
654.390	0.0144189
654.468	0.0144550
654.546	0.0143477
654.624	0.0143991
654.703	0.0143349
654.781	0.0143385
654.859	0.0144355
654.937	0.0143488
655.015	0.0144889
655.093	0.0144087
655.171	0.0144856
655.249	0.0144618
655.328	0.0145563
655.406	0.0145267
655.484	0.0145110
655.562	0.0144579
655.640	0.0144800
655.718	0.0145232
655.796	0.0144243
655.874	0.0145830
655.953	0.0145618
656.031	0.0146046
656.109	0.0145651
656.187	0.0144141
656.265	0.0144846
656.343	0.0144335
656.421	0.0144103
656.499	0.0144373
656.578	0.0143026
656.656	0.0144479
656.734	0.0144730
656.812	0.0143472
656.890	0.0143809
656.968	0.0145020
657.046	0.0145086
657.124	0.0143112
657.203	0.0144360
657.281	0.0144140
657.359	0.0142948
657.437	0.0144212
657.515	0.0146395
657.593	0.0144348
657.671	0.0144907
657.749	0.0145440
657.828	0.0145348
657.906	0.0145148
657.984	0.0145087
658.062	0.0146252
658.140	0.0145203
658.218	0.0145375
658.296	0.0144205
658.374	0.0144240
658.453	0.0143581
658.531	0.0144984
658.609	0.0144954
658.687	0.0144981
658.765	0.0144746
658.843	0.0145112
658.921	0.0144174
658.999	0.0143697
659.078	0.0145567
659.156	0.0145122
659.234	0.0143446
659.312	0.0143416
659.390	0.0142683
659.468	0.0143856
659.546	0.0144411
659.624	0.0143186
659.703	0.0143855
659.781	0.0144203
659.859	0.0143718
659.937	0.0144786
660.015	0.0143829
660.093	0.0143896
660.171	0.0144315
660.249	0.0146499
660.328	0.0144144
660.406	0.0144095
660.484	0.0143906
660.562	0.0145343
660.640	0.0145006
660.718	0.0144874
660.796	0.0144443
660.874	0.0142988
660.953	0.0144650
661.031	0.0144630
661.109	0.0144568
661.187	0.0144815
661.265	0.0143932
661.343	0.0144755
661.421	0.0144128
661.499	0.0144552
661.578	0.0144890
661.656	0.0144090
661.734	0.0145699
661.812	0.0145378
661.890	0.0144075
661.968	0.0144281
662.046	0.0144318
662.124	0.0142982
662.203	0.0143947
662.281	0.0143607
662.359	0.0143534
662.437	0.0144239
662.515	0.0144342
662.593	0.0144243
662.671	0.0143256
662.749	0.0144794
662.828	0.0145078
662.906	0.0145370
662.984	0.0145065
663.062	0.0145821
663.140	0.0145775
663.218	0.0145779
663.296	0.0144384
663.374	0.0143650
663.453	0.0145517
663.531	0.0143336
663.609	0.0143037
663.687	0.0143699
663.765	0.0144210
663.843	0.0144200
663.921	0.0142897
663.999	0.0143972
664.078	0.0143298
664.156	0.0144434
664.234	0.0145228
664.312	0.0146319
664.390	0.0146761
664.468	0.0145898
664.546	0.0145541
664.624	0.0144261
664.703	0.0143602
664.781	0.0144541
664.859	0.0142728
664.937	0.0142620
665.015	0.0142373
665.093	0.0141001
665.171	0.0140636
665.249	0.0140981
665.328	0.0141175
665.406	0.0140972
665.484	0.0143735
665.562	0.0143490
665.640	0.0142941
665.718	0.0142681
665.796	0.0144582
665.874	0.0146349
665.953	0.0145281
666.031	0.0146789
666.109	0.0146003
666.187	0.0145299
666.265	0.0145531
666.343	0.0146814
666.421	0.0145787
666.499	0.0145975
666.578	0.0145046
666.656	0.0143403
666.734	0.0143907
666.812	0.0144801
666.890	0.0143609
666.968	0.0142902
667.046	0.0143520
667.124	0.0143962
667.203	0.0144582
667.281	0.0145504
667.359	0.0143605
667.437	0.0144031
667.515	0.0143748
667.593	0.0143523
667.671	0.0143642
667.749	0.0143736
667.828	0.0143940
667.906	0.0143906
667.984	0.0144707
668.062	0.0144518
668.140	0.0144544
668.218	0.0144653
668.296	0.0145606
668.374	0.0145867
668.453	0.0144296
668.531	0.0144711
668.609	0.0144654
668.687	0.0146357
668.765	0.0144953
668.843	0.0145731
668.921	0.0145177
668.999	0.0145686
669.078	0.0144616
669.156	0.0143520
669.234	0.0144060
669.312	0.0143085
669.390	0.0141611
669.468	0.0141730
669.546	0.0141980
669.624	0.0141691
669.703	0.0141904
669.781	0.0140551
669.859	0.0140149
669.937	0.0141364
670.015	0.0142807
670.093	0.0142782
670.171	0.0143860
670.249	0.0143030
670.328	0.0144113
670.406	0.0144925
670.484	0.0146605
670.562	0.0146668
670.640	0.0144996
670.718	0.0145296
670.796	0.0145885
670.874	0.0145267
670.953	0.0145029
671.031	0.0145016
671.109	0.0145325
671.187	0.0145479
671.265	0.0145763
671.343	0.0145850
671.421	0.0144508
671.499	0.0146136
671.578	0.0145990
671.656	0.0145915
671.734	0.0145051
671.812	0.0145123
671.890	0.0146459
671.968	0.0145608
672.046	0.0145689
672.124	0.0145831
672.203	0.0146139
672.281	0.0142899
672.359	0.0144718
672.437	0.0142796
672.515	0.0142567
672.593	0.0144005
672.671	0.0142451
672.749	0.0143867
672.828	0.0144115
672.906	0.0143860
672.984	0.0144676
673.062	0.0146529
673.140	0.0145279
673.218	0.0145839
673.296	0.0145319
673.374	0.0144749
673.453	0.0145375
673.531	0.0143568
673.609	0.0143237
673.687	0.0143282
673.765	0.0141494
673.843	0.0140274
673.921	0.0140447
673.999	0.0139840
674.078	0.0140904
674.156	0.0140566
674.234	0.0140285
674.312	0.0141216
674.390	0.0144224
674.468	0.0143394
674.546	0.0144131
674.624	0.0144904
674.703	0.0146572
674.781	0.0145080
674.859	0.0144327
674.937	0.0144341
675.015	0.0144053
675.093	0.0143761
675.171	0.0142388
675.249	0.0140768
675.328	0.0140105
675.406	0.0140515
675.484	0.0140375
675.562	0.0142784
675.640	0.0141872
675.718	0.0144585
675.796	0.0146939
675.874	0.0146966
675.953	0.0147984
676.031	0.0148843
676.109	0.0151374
676.187	0.0150282
676.265	0.0150391
676.343	0.0149595
676.421	0.0148544
676.499	0.0147729
676.578	0.0147366
676.656	0.0146481
676.734	0.0145730
676.812	0.0144613
676.890	0.0145677
676.968	0.0144308
677.046	0.0145457
677.124	0.0146857
677.203	0.0147080
677.281	0.0146171
677.359	0.0146298
677.437	0.0146426
677.515	0.0146417
677.593	0.0145367
677.671	0.0144783
677.749	0.0144354
677.828	0.0142998
677.906	0.0141788
677.984	0.0139584
678.062	0.0139597
678.140	0.0138177
678.218	0.0138201
678.296	0.0137634
678.374	0.0137167
678.453	0.0136820
678.531	0.0139088
678.609	0.0140137
678.687	0.0141844
678.765	0.0142834
678.843	0.0142843
678.921	0.0144279
678.999	0.0146100
679.078	0.0146285
679.156	0.0146062
679.234	0.0146806
679.312	0.0146252
679.390	0.0145206
679.468	0.0144582
679.546	0.0145995
679.624	0.0143163
679.703	0.0142455
679.781	0.0143163
679.859	0.0144737
679.937	0.0142941
680.015	0.0141814
680.093	0.0143280
680.171	0.0144238
680.249	0.0145614
680.328	0.0145844
680.406	0.0145072
680.484	0.0144492
680.562	0.0147188
680.640	0.0145726
680.718	0.0145352
680.796	0.0145751
680.874	0.0146037
680.953	0.0144540
681.031	0.0145303
681.109	0.0146095
681.187	0.0145819
681.265	0.0144966
681.343	0.0144684
681.421	0.0145036
681.499	0.0145879
681.578	0.0145711
681.656	0.0145746
681.734	0.0146284
681.812	0.0145535
681.890	0.0144791
681.968	0.0145362
682.046	0.0145625
682.124	0.0144805
682.203	0.0146467
682.281	0.0143838
682.359	0.0143952
682.437	0.0144060
682.515	0.0144028
682.593	0.0144660
682.671	0.0143848
682.749	0.0143501
682.828	0.0145481
682.906	0.0145104
682.984	0.0145670
683.062	0.0145020
683.140	0.0146236
683.218	0.0146844
683.296	0.0145651
683.374	0.0145483
683.453	0.0146017
683.531	0.0144783
683.609	0.0143723
683.687	0.0144155
683.765	0.0143671
683.843	0.0142200
683.921	0.0142937
683.999	0.0142115
684.078	0.0142696
684.156	0.0141888
684.234	0.0140835
684.312	0.0140987
684.390	0.0141238
684.468	0.0140206
684.546	0.0140777
684.624	0.0141805
684.703	0.0142306
684.781	0.0144614
684.859	0.0143098
684.937	0.0144804
685.015	0.0145872
685.093	0.0146453
685.171	0.0146573
685.249	0.0146697
685.328	0.0146777
685.406	0.0148847
685.484	0.0149116
685.562	0.0149475
685.640	0.0148768
685.718	0.0145772
