05/06/2022	18:57:49	Ver.	4.1	UNKNOWN
Optical Delay	600.015094	Delta X		0.078125	Sweeps	1	Scan Rate	0/0
Coordinates	Axis 1	NaN	Axis 2	NaN	Axis 3	NaN	Axis 4	NaN	Axis 5	NaN	Axis 6	0.000000
TX Power	0.000000	RX Power	0.000000

600.015	0.0143208
600.093	0.0143786
600.171	0.0143079
600.249	0.0142150
600.328	0.0143339
600.406	0.0144141
600.484	0.0144058
600.562	0.0144597
600.640	0.0143349
600.718	0.0144404
600.796	0.0143853
600.874	0.0144749
600.953	0.0142818
601.031	0.0143499
601.109	0.0143172
601.187	0.0144559
601.265	0.0144485
601.343	0.0144532
601.421	0.0144405
601.499	0.0144003
601.578	0.0144265
601.656	0.0143783
601.734	0.0143117
601.812	0.0144964
601.890	0.0144417
601.968	0.0142587
602.046	0.0144238
602.124	0.0145430
602.203	0.0143211
602.281	0.0142730
602.359	0.0143746
602.437	0.0143965
602.515	0.0144108
602.593	0.0145141
602.671	0.0144802
602.749	0.0143141
602.828	0.0144867
602.906	0.0145451
602.984	0.0143681
603.062	0.0143424
603.140	0.0144077
603.218	0.0143550
603.296	0.0144542
603.374	0.0144371
603.453	0.0143347
603.531	0.0144208
603.609	0.0144851
603.687	0.0144347
603.765	0.0146967
603.843	0.0144532
603.921	0.0142916
603.999	0.0144733
604.078	0.0144397
604.156	0.0145570
604.234	0.0143473
604.312	0.0145256
604.390	0.0145341
604.468	0.0144255
604.546	0.0144038
604.624	0.0143810
604.703	0.0144030
604.781	0.0145327
604.859	0.0145213
604.937	0.0144944
605.015	0.0145000
605.093	0.0144154
605.171	0.0144529
605.249	0.0144062
605.328	0.0144550
605.406	0.0144531
605.484	0.0143150
605.562	0.0143991
605.640	0.0143682
605.718	0.0144146
605.796	0.0145281
605.874	0.0144231
605.953	0.0143663
606.031	0.0142832
606.109	0.0143043
606.187	0.0144240
606.265	0.0145742
606.343	0.0142505
606.421	0.0142276
606.499	0.0144230
606.578	0.0144724
606.656	0.0145226
606.734	0.0142374
606.812	0.0143184
606.890	0.0144638
606.968	0.0143739
607.046	0.0144270
607.124	0.0144711
607.203	0.0142974
607.281	0.0144837
607.359	0.0142395
607.437	0.0144962
607.515	0.0144586
607.593	0.0143393
607.671	0.0142493
607.749	0.0144185
607.828	0.0144380
607.906	0.0143062
607.984	0.0143889
608.062	0.0142469
608.140	0.0144696
608.218	0.0144135
608.296	0.0142656
608.374	0.0142590
608.453	0.0143296
608.531	0.0143302
608.609	0.0143915
608.687	0.0144187
608.765	0.0144968
608.843	0.0144138
608.921	0.0143912
608.999	0.0143686
609.078	0.0143754
609.156	0.0144067
609.234	0.0143702
609.312	0.0143192
609.390	0.0143325
609.468	0.0144124
609.546	0.0143954
609.624	0.0143423
609.703	0.0143100
609.781	0.0144706
609.859	0.0143605
609.937	0.0142835
610.015	0.0142667
610.093	0.0143004
610.171	0.0144038
610.249	0.0144277
610.328	0.0143613
610.406	0.0144457
610.484	0.0143873
610.562	0.0144427
610.640	0.0142641
610.718	0.0142841
610.796	0.0142989
610.874	0.0143267
610.953	0.0142326
611.031	0.0143864
611.109	0.0143194
611.187	0.0144411
611.265	0.0143372
611.343	0.0143987
611.421	0.0142918
611.499	0.0144016
611.578	0.0143748
611.656	0.0143772
611.734	0.0144246
611.812	0.0141077
611.890	0.0141762
611.968	0.0143261
612.046	0.0144447
612.124	0.0143569
612.203	0.0143336
612.281	0.0143195
612.359	0.0143387
612.437	0.0142781
612.515	0.0143255
612.593	0.0143785
612.671	0.0143117
612.749	0.0142657
612.828	0.0144175
612.906	0.0141425
612.984	0.0144137
613.062	0.0143365
613.140	0.0143732
613.218	0.0143029
613.296	0.0144442
613.374	0.0142155
613.453	0.0143066
613.531	0.0142714
613.609	0.0142667
613.687	0.0144662
613.765	0.0144564
613.843	0.0141644
613.921	0.0142340
613.999	0.0143104
614.078	0.0144250
614.156	0.0143716
614.234	0.0142896
614.312	0.0143326
614.390	0.0142754
614.468	0.0143473
614.546	0.0143017
614.624	0.0143620
614.703	0.0143295
614.781	0.0142410
614.859	0.0141854
614.937	0.0143066
615.015	0.0143262
615.093	0.0141414
615.171	0.0143966
615.249	0.0144338
615.328	0.0144415
615.406	0.0142361
615.484	0.0143217
615.562	0.0143217
615.640	0.0142108
615.718	0.0143800
615.796	0.0144161
615.874	0.0145315
615.953	0.0143156
616.031	0.0142501
616.109	0.0144179
616.187	0.0144876
616.265	0.0144608
616.343	0.0141759
616.421	0.0142627
616.499	0.0144775
616.578	0.0143899
616.656	0.0143975
616.734	0.0144215
616.812	0.0144508
616.890	0.0143783
616.968	0.0143199
617.046	0.0143102
617.124	0.0144923
617.203	0.0144047
617.281	0.0143843
617.359	0.0144353
617.437	0.0142514
617.515	0.0142979
617.593	0.0143827
617.671	0.0144604
617.749	0.0143260
617.828	0.0144286
617.906	0.0144409
617.984	0.0142565
618.062	0.0144010
618.140	0.0143850
618.218	0.0144957
618.296	0.0143626
618.374	0.0144250
618.453	0.0143729
618.531	0.0144429
618.609	0.0143402
618.687	0.0144035
618.765	0.0144074
618.843	0.0143208
618.921	0.0144689
618.999	0.0144688
619.078	0.0144073
619.156	0.0143776
619.234	0.0142072
619.312	0.0143352
619.390	0.0144588
619.468	0.0145042
619.546	0.0143948
619.624	0.0143391
619.703	0.0143491
619.781	0.0144447
619.859	0.0144309
619.937	0.0144906
620.015	0.0142211
620.093	0.0143626
620.171	0.0145261
620.249	0.0144918
620.328	0.0143379
620.406	0.0144555
620.484	0.0144572
620.562	0.0142074
620.640	0.0143571
620.718	0.0145058
620.796	0.0145132
620.874	0.0142644
620.953	0.0145303
621.031	0.0144044
621.109	0.0144885
621.187	0.0144025
621.265	0.0144718
621.343	0.0144413
621.421	0.0143232
621.499	0.0142999
621.578	0.0144154
621.656	0.0144058
621.734	0.0143410
621.812	0.0144112
621.890	0.0144902
621.968	0.0144434
622.046	0.0144296
622.124	0.0144021
622.203	0.0144796
622.281	0.0144243
622.359	0.0142820
622.437	0.0143780
622.515	0.0143713
622.593	0.0143950
622.671	0.0145086
622.749	0.0144416
622.828	0.0143605
622.906	0.0144401
622.984	0.0143221
623.062	0.0142787
623.140	0.0145437
623.218	0.0144955
623.296	0.0143889
623.374	0.0143753
623.453	0.0144196
623.531	0.0143480
623.609	0.0143848
623.687	0.0144498
623.765	0.0143819
623.843	0.0143840
623.921	0.0143624
623.999	0.0145327
624.078	0.0145525
624.156	0.0143573
624.234	0.0144630
624.312	0.0144027
624.390	0.0145044
624.468	0.0144845
624.546	0.0143845
624.624	0.0144292
624.703	0.0144884
624.781	0.0145299
624.859	0.0144968
624.937	0.0142994
625.015	0.0144530
625.093	0.0144279
625.171	0.0143534
625.249	0.0145598
625.328	0.0144148
625.406	0.0144478
625.484	0.0144016
625.562	0.0145898
625.640	0.0143597
625.718	0.0144385
625.796	0.0144772
625.874	0.0145831
625.953	0.0143502
626.031	0.0142806
626.109	0.0144175
626.187	0.0144514
626.265	0.0144184
626.343	0.0145465
626.421	0.0144112
626.499	0.0143713
626.578	0.0145271
626.656	0.0144610
626.734	0.0141967
626.812	0.0143991
626.890	0.0143209
626.968	0.0143340
627.046	0.0144449
627.124	0.0145197
627.203	0.0142981
627.281	0.0143167
627.359	0.0144147
627.437	0.0143002
627.515	0.0143599
627.593	0.0143479
627.671	0.0143610
627.749	0.0144159
627.828	0.0143237
627.906	0.0143023
627.984	0.0144492
628.062	0.0142867
628.140	0.0143761
628.218	0.0143909
628.296	0.0143480
628.374	0.0142898
628.453	0.0142834
628.531	0.0142503
628.609	0.0143327
628.687	0.0143352
628.765	0.0143118
628.843	0.0143699
628.921	0.0144439
628.999	0.0144148
629.078	0.0144103
629.156	0.0143199
629.234	0.0143275
629.312	0.0142948
629.390	0.0143839
629.468	0.0142554
629.546	0.0144215
629.624	0.0143810
629.703	0.0143352
629.781	0.0144323
629.859	0.0143900
629.937	0.0142449
630.015	0.0142977
630.093	0.0143546
630.171	0.0144719
630.249	0.0143597
630.328	0.0142861
630.406	0.0144096
630.484	0.0144242
630.562	0.0143909
630.640	0.0143150
630.718	0.0142966
630.796	0.0144663
630.874	0.0143463
630.953	0.0143637
631.031	0.0144260
631.109	0.0142924
631.187	0.0143150
631.265	0.0143329
631.343	0.0143592
631.421	0.0142995
631.499	0.0143289
631.578	0.0143375
631.656	0.0142867
631.734	0.0143668
631.812	0.0144195
631.890	0.0141859
631.968	0.0143827
632.046	0.0143905
632.124	0.0144781
632.203	0.0143698
632.281	0.0143713
632.359	0.0143462
632.437	0.0142676
632.515	0.0143161
632.593	0.0143434
632.671	0.0145141
632.749	0.0144327
632.828	0.0143002
632.906	0.0142405
632.984	0.0142759
633.062	0.0143499
633.140	0.0142438
633.218	0.0143092
633.296	0.0143494
633.374	0.0143364
633.453	0.0141883
633.531	0.0143008
633.609	0.0143792
633.687	0.0142385
633.765	0.0143575
633.843	0.0143656
633.921	0.0142577
633.999	0.0143388
634.078	0.0143317
634.156	0.0143767
634.234	0.0142719
634.312	0.0143085
634.390	0.0144481
634.468	0.0144336
634.546	0.0144665
634.624	0.0142590
634.703	0.0142753
634.781	0.0144076
634.859	0.0142030
634.937	0.0143046
635.015	0.0143668
635.093	0.0144699
635.171	0.0144578
635.249	0.0144454
635.328	0.0144095
635.406	0.0142372
635.484	0.0144678
635.562	0.0143969
635.640	0.0142877
635.718	0.0145008
635.796	0.0143684
635.874	0.0143068
635.953	0.0143610
636.031	0.0143082
636.109	0.0143788
636.187	0.0144167
636.265	0.0144373
636.343	0.0143671
636.421	0.0144098
636.499	0.0143562
636.578	0.0144413
636.656	0.0143240
636.734	0.0142309
636.812	0.0143863
636.890	0.0143456
636.968	0.0143307
637.046	0.0143802
637.124	0.0144312
637.203	0.0143675
637.281	0.0143918
637.359	0.0143784
637.437	0.0143736
637.515	0.0142780
637.593	0.0141435
637.671	0.0143924
637.749	0.0144622
637.828	0.0144971
637.906	0.0143857
637.984	0.0141923
638.062	0.0143461
638.140	0.0144175
638.218	0.0144397
638.296	0.0143908
638.374	0.0143305
638.453	0.0143421
638.531	0.0143423
638.609	0.0143186
638.687	0.0142386
638.765	0.0143848
638.843	0.0143047
638.921	0.0145026
638.999	0.0144495
639.078	0.0142685
639.156	0.0141714
639.234	0.0143027
639.312	0.0142667
639.390	0.0142601
639.468	0.0144029
639.546	0.0144018
639.624	0.0143749
639.703	0.0143027
639.781	0.0143789
639.859	0.0143476
639.937	0.0144286
640.015	0.0144041
640.093	0.0143728
640.171	0.0143504
640.249	0.0143946
640.328	0.0144836
640.406	0.0143141
640.484	0.0143320
640.562	0.0144066
640.640	0.0143993
640.718	0.0144244
640.796	0.0143371
640.874	0.0142994
640.953	0.0144419
641.031	0.0143840
641.109	0.0142969
641.187	0.0142794
641.265	0.0143719
641.343	0.0143097
641.421	0.0143142
641.499	0.0144125
641.578	0.0142785
641.656	0.0143783
641.734	0.0144196
641.812	0.0144574
641.890	0.0143455
641.968	0.0144959
642.046	0.0144700
642.124	0.0144338
642.203	0.0144785
642.281	0.0143835
642.359	0.0144181
642.437	0.0144642
642.515	0.0144766
642.593	0.0144782
642.671	0.0143635
642.749	0.0143471
642.828	0.0143958
642.906	0.0141753
642.984	0.0143325
643.062	0.0141628
643.140	0.0142152
643.218	0.0142294
643.296	0.0142883
643.374	0.0142794
643.453	0.0143798
643.531	0.0144621
643.609	0.0142813
643.687	0.0144263
643.765	0.0145600
643.843	0.0144233
643.921	0.0144388
643.999	0.0144326
644.078	0.0143789
644.156	0.0143172
644.234	0.0145107
644.312	0.0143678
644.390	0.0142608
644.468	0.0142720
644.546	0.0143562
644.624	0.0144546
644.703	0.0143454
644.781	0.0142952
644.859	0.0142506
644.937	0.0143755
645.015	0.0142859
645.093	0.0142661
645.171	0.0143501
645.249	0.0142230
645.328	0.0144729
645.406	0.0143806
645.484	0.0144553
645.562	0.0144528
645.640	0.0144924
645.718	0.0143646
645.796	0.0144427
645.874	0.0145109
645.953	0.0143198
646.031	0.0144353
646.109	0.0143754
646.187	0.0144479
646.265	0.0144067
646.343	0.0145034
646.421	0.0142809
646.499	0.0143941
646.578	0.0144876
646.656	0.0144984
646.734	0.0143613
646.812	0.0143415
646.890	0.0143410
646.968	0.0143047
647.046	0.0143993
647.124	0.0144341
647.203	0.0145171
647.281	0.0144160
647.359	0.0143512
647.437	0.0143861
647.515	0.0144285
647.593	0.0145069
647.671	0.0143890
647.749	0.0144096
647.828	0.0144167
647.906	0.0144053
647.984	0.0143911
648.062	0.0144122
648.140	0.0143968
648.218	0.0143913
648.296	0.0143613
648.374	0.0144436
648.453	0.0145460
648.531	0.0144498
648.609	0.0143265
648.687	0.0143895
648.765	0.0142825
648.843	0.0143757
648.921	0.0144350
648.999	0.0142410
649.078	0.0142696
649.156	0.0143285
649.234	0.0143626
649.312	0.0144438
649.390	0.0142097
649.468	0.0144337
649.546	0.0141445
649.624	0.0144262
649.703	0.0143632
649.781	0.0143080
649.859	0.0143707
649.937	0.0144672
650.015	0.0144710
650.093	0.0144409
650.171	0.0145523
650.249	0.0144225
650.328	0.0145074
650.406	0.0144975
650.484	0.0143740
650.562	0.0142632
650.640	0.0144755
650.718	0.0144919
650.796	0.0144328
650.874	0.0144045
650.953	0.0143949
651.031	0.0143619
651.109	0.0143440
651.187	0.0142554
651.265	0.0143949
651.343	0.0143453
651.421	0.0142940
651.499	0.0143307
651.578	0.0143173
651.656	0.0143430
651.734	0.0143812
651.812	0.0143961
651.890	0.0143665
651.968	0.0144138
652.046	0.0145038
652.124	0.0143510
652.203	0.0143842
652.281	0.0144083
652.359	0.0143135
652.437	0.0144926
652.515	0.0145052
652.593	0.0143570
652.671	0.0144806
652.749	0.0145470
652.828	0.0145244
652.906	0.0143820
652.984	0.0145232
653.062	0.0145036
653.140	0.0143086
653.218	0.0142854
653.296	0.0142355
653.374	0.0141970
653.453	0.0143095
653.531	0.0142338
653.609	0.0142182
653.687	0.0142115
653.765	0.0141259
653.843	0.0141341
653.921	0.0140514
653.999	0.0144064
654.078	0.0144102
654.156	0.0143386
654.234	0.0144052
654.312	0.0145597
654.390	0.0144456
654.468	0.0144102
654.546	0.0144740
654.624	0.0143752
654.703	0.0143863
654.781	0.0144447
654.859	0.0144160
654.937	0.0143335
655.015	0.0143983
655.093	0.0142073
655.171	0.0142164
655.249	0.0142225
655.328	0.0143484
655.406	0.0142883
655.484	0.0143036
655.562	0.0141431
655.640	0.0142440
655.718	0.0143497
655.796	0.0143111
655.874	0.0144472
655.953	0.0145836
656.031	0.0144170
656.109	0.0143064
656.187	0.0144220
656.265	0.0144440
656.343	0.0143954
656.421	0.0143676
656.499	0.0142584
656.578	0.0142928
656.656	0.0142299
656.734	0.0142821
656.812	0.0143585
656.890	0.0143721
656.968	0.0142724
657.046	0.0142744
657.124	0.0142915
657.203	0.0142583
657.281	0.0142880
657.359	0.0142253
657.437	0.0142036
657.515	0.0143468
657.593	0.0142721
657.671	0.0142339
657.749	0.0144681
657.828	0.0143795
657.906	0.0143385
657.984	0.0144685
658.062	0.0143696
658.140	0.0142880
658.218	0.0144944
658.296	0.0144266
658.374	0.0143597
658.453	0.0142550
658.531	0.0142232
658.609	0.0143896
658.687	0.0143772
658.765	0.0142901
658.843	0.0143312
658.921	0.0142247
658.999	0.0142288
659.078	0.0142577
659.156	0.0142414
659.234	0.0143485
659.312	0.0141501
659.390	0.0141989
659.468	0.0142217
659.546	0.0141569
659.624	0.0142131
659.703	0.0142324
659.781	0.0143772
659.859	0.0142739
659.937	0.0143247
660.015	0.0142744
660.093	0.0143506
660.171	0.0143399
660.249	0.0143839
660.328	0.0144382
660.406	0.0144839
660.484	0.0144260
660.562	0.0144436
660.640	0.0144536
660.718	0.0145256
660.796	0.0143687
660.874	0.0143269
660.953	0.0143980
661.031	0.0143423
661.109	0.0143736
661.187	0.0142493
661.265	0.0140448
661.343	0.0140875
661.421	0.0141553
661.499	0.0140539
661.578	0.0143311
661.656	0.0141659
661.734	0.0142163
661.812	0.0142458
661.890	0.0143535
661.968	0.0143646
662.046	0.0145137
662.124	0.0145213
662.203	0.0144389
662.281	0.0144528
662.359	0.0145134
662.437	0.0146165
662.515	0.0144971
662.593	0.0144200
662.671	0.0143924
662.749	0.0142754
662.828	0.0142194
662.906	0.0141283
662.984	0.0142280
663.062	0.0142299
663.140	0.0141473
663.218	0.0139937
663.296	0.0141468
663.374	0.0141209
663.453	0.0142464
663.531	0.0141890
663.609	0.0142529
663.687	0.0143576
663.765	0.0142980
663.843	0.0145458
663.921	0.0145592
663.999	0.0147215
664.078	0.0146297
664.156	0.0147301
664.234	0.0146501
664.312	0.0146145
664.390	0.0146231
664.468	0.0146589
664.546	0.0144122
664.624	0.0143759
664.703	0.0142806
664.781	0.0142941
664.859	0.0142417
664.937	0.0140781
665.015	0.0141223
665.093	0.0140023
665.171	0.0141212
665.249	0.0141068
665.328	0.0142390
665.406	0.0142538
665.484	0.0143282
665.562	0.0143703
665.640	0.0144014
665.718	0.0144099
665.796	0.0145350
665.874	0.0146944
665.953	0.0145560
666.031	0.0145364
666.109	0.0144433
666.187	0.0142805
666.265	0.0142588
666.343	0.0141219
666.421	0.0141957
666.499	0.0141647
666.578	0.0139981
666.656	0.0139908
666.734	0.0140688
666.812	0.0141991
666.890	0.0140553
666.968	0.0142155
667.046	0.0143466
667.124	0.0145210
667.203	0.0144363
667.281	0.0145307
667.359	0.0145765
667.437	0.0145902
667.515	0.0146686
667.593	0.0146922
667.671	0.0145673
667.749	0.0145018
667.828	0.0143449
667.906	0.0143870
667.984	0.0143252
668.062	0.0143924
668.140	0.0141225
668.218	0.0141683
668.296	0.0142220
668.374	0.0140501
668.453	0.0141244
668.531	0.0142050
668.609	0.0143218
668.687	0.0142582
668.765	0.0143147
668.843	0.0144685
668.921	0.0146095
668.999	0.0146600
669.078	0.0146796
669.156	0.0146367
669.234	0.0147498
669.312	0.0147997
669.390	0.0147172
669.468	0.0144215
669.546	0.0143953
669.624	0.0145068
669.703	0.0143748
669.781	0.0142787
669.859	0.0142670
669.937	0.0142056
670.015	0.0141818
670.093	0.0141184
670.171	0.0140495
670.249	0.0141115
670.328	0.0143825
670.406	0.0144179
670.484	0.0143056
670.562	0.0145158
670.640	0.0145825
670.718	0.0144665
670.796	0.0145419
670.874	0.0144675
670.953	0.0144519
671.031	0.0144288
671.109	0.0143240
671.187	0.0142931
671.265	0.0143315
671.343	0.0143393
671.421	0.0143343
671.499	0.0142069
671.578	0.0142496
671.656	0.0141495
671.734	0.0142463
671.812	0.0143332
671.890	0.0143003
671.968	0.0143435
672.046	0.0143733
672.124	0.0144097
672.203	0.0144559
672.281	0.0142908
672.359	0.0144637
672.437	0.0142957
672.515	0.0145359
672.593	0.0144917
672.671	0.0144650
672.749	0.0144831
672.828	0.0144580
672.906	0.0144005
672.984	0.0145104
673.062	0.0144388
673.140	0.0144532
673.218	0.0145257
673.296	0.0145126
673.374	0.0146233
673.453	0.0146490
673.531	0.0146075
673.609	0.0145435
673.687	0.0145169
673.765	0.0145641
673.843	0.0145139
673.921	0.0145362
673.999	0.0143857
674.078	0.0143229
674.156	0.0143803
674.234	0.0141813
674.312	0.0142336
674.390	0.0142162
674.468	0.0141193
674.546	0.0139902
674.624	0.0141335
674.703	0.0142563
674.781	0.0142181
674.859	0.0142207
674.937	0.0142963
675.015	0.0143568
675.093	0.0143833
675.171	0.0144080
675.249	0.0145215
675.328	0.0143876
675.406	0.0144425
675.484	0.0143039
675.562	0.0142709
675.640	0.0143195
675.718	0.0140672
675.796	0.0141151
675.874	0.0140911
675.953	0.0140565
676.031	0.0140406
676.109	0.0141798
676.187	0.0140531
676.265	0.0140261
676.343	0.0141782
676.421	0.0141240
676.499	0.0141940
676.578	0.0141705
676.656	0.0141578
676.734	0.0143037
676.812	0.0143213
676.890	0.0143159
676.968	0.0141346
677.046	0.0142697
677.124	0.0142190
677.203	0.0142498
677.281	0.0141141
677.359	0.0140945
677.437	0.0142397
677.515	0.0141087
677.593	0.0141676
677.671	0.0143803
677.749	0.0142741
677.828	0.0144964
677.906	0.0145187
677.984	0.0146738
678.062	0.0147726
678.140	0.0147330
678.218	0.0147952
678.296	0.0149390
678.374	0.0148995
678.453	0.0148183
678.531	0.0148697
678.609	0.0149500
678.687	0.0148064
678.765	0.0148258
678.843	0.0146761
678.921	0.0146618
678.999	0.0147176
679.078	0.0145233
679.156	0.0142781
679.234	0.0145270
679.312	0.0144089
679.390	0.0143072
679.468	0.0142525
679.546	0.0141009
679.624	0.0139797
679.703	0.0140054
679.781	0.0138824
679.859	0.0137812
679.937	0.0138772
680.015	0.0139053
680.093	0.0137491
680.171	0.0140031
680.249	0.0141389
680.328	0.0141209
680.406	0.0141395
680.484	0.0141956
680.562	0.0144062
680.640	0.0144482
680.718	0.0143547
680.796	0.0143369
680.874	0.0143936
680.953	0.0144241
681.031	0.0143633
681.109	0.0143551
681.187	0.0141340
681.265	0.0142908
681.343	0.0141740
681.421	0.0142233
681.499	0.0141910
681.578	0.0140866
681.656	0.0142744
681.734	0.0142583
681.812	0.0142918
681.890	0.0144115
681.968	0.0144112
682.046	0.0145244
682.124	0.0145364
682.203	0.0145228
682.281	0.0145574
682.359	0.0145457
682.437	0.0146540
682.515	0.0145367
682.593	0.0145345
682.671	0.0147348
682.749	0.0144570
682.828	0.0144283
682.906	0.0144088
682.984	0.0143488
683.062	0.0141847
683.140	0.0142528
683.218	0.0141525
683.296	0.0142947
683.374	0.0143063
683.453	0.0141553
683.531	0.0142908
683.609	0.0141273
683.687	0.0143844
683.765	0.0145345
683.843	0.0144007
683.921	0.0145760
683.999	0.0146287
684.078	0.0147683
684.156	0.0147066
684.234	0.0146948
684.312	0.0148519
684.390	0.0147164
684.468	0.0147030
684.546	0.0145555
684.624	0.0146140
684.703	0.0145664
684.781	0.0145966
684.859	0.0145057
684.937	0.0145732
685.015	0.0143465
685.093	0.0144070
685.171	0.0144559
685.249	0.0145105
685.328	0.0144918
685.406	0.0143937
685.484	0.0143426
685.562	0.0143629
685.640	0.0144147
685.718	0.0143199
