05/06/2022	19:02:04	Ver.	4.1	UNKNOWN
Optical Delay	600.015094	Delta X		0.078125	Sweeps	1	Scan Rate	0/0
Coordinates	Axis 1	NaN	Axis 2	NaN	Axis 3	NaN	Axis 4	NaN	Axis 5	NaN	Axis 6	0.000000
TX Power	0.000000	RX Power	0.000000

600.015	0.0148408
600.093	0.0148061
600.171	0.0147376
600.249	0.0148161
600.328	0.0146455
600.406	0.0148951
600.484	0.0148518
600.562	0.0148500
600.640	0.0147625
600.718	0.0148268
600.796	0.0146922
600.874	0.0146952
600.953	0.0147926
601.031	0.0148268
601.109	0.0148040
601.187	0.0147063
601.265	0.0147588
601.343	0.0146980
601.421	0.0148148
601.499	0.0147935
601.578	0.0148735
601.656	0.0148229
601.734	0.0148129
601.812	0.0147887
601.890	0.0146918
601.968	0.0148644
602.046	0.0148536
602.124	0.0147845
602.203	0.0147501
602.281	0.0148647
602.359	0.0148233
602.437	0.0146947
602.515	0.0147484
602.593	0.0146199
602.671	0.0146607
602.749	0.0145419
602.828	0.0146014
602.906	0.0148405
602.984	0.0148267
603.062	0.0148421
603.140	0.0146503
603.218	0.0147369
603.296	0.0148666
603.374	0.0147151
603.453	0.0147375
603.531	0.0146096
603.609	0.0149057
603.687	0.0148156
603.765	0.0147534
603.843	0.0147032
603.921	0.0148379
603.999	0.0147448
604.078	0.0147156
604.156	0.0147950
604.234	0.0146857
604.312	0.0147497
604.390	0.0146606
604.468	0.0147723
604.546	0.0148014
604.624	0.0146841
604.703	0.0146901
604.781	0.0146687
604.859	0.0147297
604.937	0.0147968
605.015	0.0147282
605.093	0.0147959
605.171	0.0147840
605.249	0.0147989
605.328	0.0147177
605.406	0.0147380
605.484	0.0148326
605.562	0.0146885
605.640	0.0148285
605.718	0.0146472
605.796	0.0147239
605.874	0.0147832
605.953	0.0147399
606.031	0.0148342
606.109	0.0148046
606.187	0.0146880
606.265	0.0148207
606.343	0.0147977
606.421	0.0146706
606.499	0.0148292
606.578	0.0146886
606.656	0.0146537
606.734	0.0147758
606.812	0.0147382
606.890	0.0148597
606.968	0.0148012
607.046	0.0148723
607.124	0.0148270
607.203	0.0147032
607.281	0.0146964
607.359	0.0146880
607.437	0.0147954
607.515	0.0148255
607.593	0.0148214
607.671	0.0146924
607.749	0.0146899
607.828	0.0147989
607.906	0.0147314
607.984	0.0147511
608.062	0.0147179
608.140	0.0148285
608.218	0.0148642
608.296	0.0148372
608.374	0.0146442
608.453	0.0148840
608.531	0.0148071
608.609	0.0148246
608.687	0.0147353
608.765	0.0147618
608.843	0.0146895
608.921	0.0147819
608.999	0.0147541
609.078	0.0147366
609.156	0.0146477
609.234	0.0147427
609.312	0.0147337
609.390	0.0147083
609.468	0.0147818
609.546	0.0147076
609.624	0.0147746
609.703	0.0147356
609.781	0.0147734
609.859	0.0147305
609.937	0.0148471
610.015	0.0148641
610.093	0.0147170
610.171	0.0147495
610.249	0.0146687
610.328	0.0148414
610.406	0.0147761
610.484	0.0145647
610.562	0.0145366
610.640	0.0147527
610.718	0.0147330
610.796	0.0145980
610.874	0.0147572
610.953	0.0148734
611.031	0.0148489
611.109	0.0148219
611.187	0.0146761
611.265	0.0147286
611.343	0.0146793
611.421	0.0147725
611.499	0.0148795
611.578	0.0145728
611.656	0.0147737
611.734	0.0147950
611.812	0.0148476
611.890	0.0147691
611.968	0.0147672
612.046	0.0147535
612.124	0.0147240
612.203	0.0148454
612.281	0.0148031
612.359	0.0147662
612.437	0.0146748
612.515	0.0148425
612.593	0.0147729
612.671	0.0148790
612.749	0.0148456
612.828	0.0146519
612.906	0.0146793
612.984	0.0148376
613.062	0.0149887
613.140	0.0148171
613.218	0.0146448
613.296	0.0147636
613.374	0.0147707
613.453	0.0148443
613.531	0.0148370
613.609	0.0149137
613.687	0.0147602
613.765	0.0147871
613.843	0.0148603
613.921	0.0148641
613.999	0.0148719
614.078	0.0148943
614.156	0.0147914
614.234	0.0148735
614.312	0.0148984
614.390	0.0148558
614.468	0.0149290
614.546	0.0147672
614.624	0.0147966
614.703	0.0148954
614.781	0.0147321
614.859	0.0149480
614.937	0.0148925
615.015	0.0149644
615.093	0.0149456
615.171	0.0148325
615.249	0.0147620
615.328	0.0149224
615.406	0.0148121
615.484	0.0148424
615.562	0.0148067
615.640	0.0147714
615.718	0.0147667
615.796	0.0148219
615.874	0.0149011
615.953	0.0147681
616.031	0.0149200
616.109	0.0149641
616.187	0.0148133
616.265	0.0146671
616.343	0.0148909
616.421	0.0147977
616.499	0.0149084
616.578	0.0147739
616.656	0.0147755
616.734	0.0147440
616.812	0.0148608
616.890	0.0147601
616.968	0.0149537
617.046	0.0148030
617.124	0.0148364
617.203	0.0148185
617.281	0.0148869
617.359	0.0149263
617.437	0.0146964
617.515	0.0148148
617.593	0.0147526
617.671	0.0147271
617.749	0.0148272
617.828	0.0148613
617.906	0.0148639
617.984	0.0149772
618.062	0.0147973
618.140	0.0148267
618.218	0.0146748
618.296	0.0147855
618.374	0.0148193
618.453	0.0148164
618.531	0.0148532
618.609	0.0149213
618.687	0.0148065
618.765	0.0146851
618.843	0.0148578
618.921	0.0149654
618.999	0.0149628
619.078	0.0148705
619.156	0.0149593
619.234	0.0148799
619.312	0.0149420
619.390	0.0148648
619.468	0.0147713
619.546	0.0148386
619.624	0.0147925
619.703	0.0148996
619.781	0.0148737
619.859	0.0148666
619.937	0.0148484
620.015	0.0148399
620.093	0.0149157
620.171	0.0148721
620.249	0.0147327
620.328	0.0147659
620.406	0.0149056
620.484	0.0149908
620.562	0.0148236
620.640	0.0147218
620.718	0.0147330
620.796	0.0148705
620.874	0.0148557
620.953	0.0148460
621.031	0.0147251
621.109	0.0147524
621.187	0.0148273
621.265	0.0146862
621.343	0.0148463
621.421	0.0149724
621.499	0.0146947
621.578	0.0148264
621.656	0.0148832
621.734	0.0147409
621.812	0.0146816
621.890	0.0147766
621.968	0.0147749
622.046	0.0147998
622.124	0.0148029
622.203	0.0147704
622.281	0.0147257
622.359	0.0148376
622.437	0.0147078
622.515	0.0146606
622.593	0.0147303
622.671	0.0149287
622.749	0.0147243
622.828	0.0147984
622.906	0.0146457
622.984	0.0147831
623.062	0.0147669
623.140	0.0148701
623.218	0.0147557
623.296	0.0148560
623.374	0.0149038
623.453	0.0148945
623.531	0.0148253
623.609	0.0148846
623.687	0.0147372
623.765	0.0148459
623.843	0.0147845
623.921	0.0148447
623.999	0.0146700
624.078	0.0149111
624.156	0.0148566
624.234	0.0146759
624.312	0.0148470
624.390	0.0148244
624.468	0.0149056
624.546	0.0148596
624.624	0.0148224
624.703	0.0148306
624.781	0.0148054
624.859	0.0147728
624.937	0.0148729
625.015	0.0148666
625.093	0.0148456
625.171	0.0147042
625.249	0.0147546
625.328	0.0148426
625.406	0.0147987
625.484	0.0148399
625.562	0.0148281
625.640	0.0148079
625.718	0.0149280
625.796	0.0149104
625.874	0.0148589
625.953	0.0148610
626.031	0.0148717
626.109	0.0147735
626.187	0.0147382
626.265	0.0148144
626.343	0.0147372
626.421	0.0146793
626.499	0.0147243
626.578	0.0147799
626.656	0.0146951
626.734	0.0148351
626.812	0.0148172
626.890	0.0146544
626.968	0.0146839
627.046	0.0147002
627.124	0.0147044
627.203	0.0145465
627.281	0.0147753
627.359	0.0146885
627.437	0.0148139
627.515	0.0147479
627.593	0.0147452
627.671	0.0145746
627.749	0.0147857
627.828	0.0147596
627.906	0.0147514
627.984	0.0147069
628.062	0.0147386
628.140	0.0147459
628.218	0.0147638
628.296	0.0145740
628.374	0.0145931
628.453	0.0146686
628.531	0.0146130
628.609	0.0147942
628.687	0.0148914
628.765	0.0147686
628.843	0.0146428
628.921	0.0147832
628.999	0.0147884
629.078	0.0147394
629.156	0.0147983
629.234	0.0147421
629.312	0.0147113
629.390	0.0146066
629.468	0.0146626
629.546	0.0148164
629.624	0.0148180
629.703	0.0148409
629.781	0.0147324
629.859	0.0148241
629.937	0.0145856
630.015	0.0146587
630.093	0.0147427
630.171	0.0147668
630.249	0.0148380
630.328	0.0150142
630.406	0.0147885
630.484	0.0148998
630.562	0.0148524
630.640	0.0149340
630.718	0.0149324
630.796	0.0149181
630.874	0.0147272
630.953	0.0146982
631.031	0.0148043
631.109	0.0149010
631.187	0.0147125
631.265	0.0146322
631.343	0.0147702
631.421	0.0146657
631.499	0.0146886
631.578	0.0148292
631.656	0.0148653
631.734	0.0147667
631.812	0.0149086
631.890	0.0148886
631.968	0.0147993
632.046	0.0149424
632.124	0.0146824
632.203	0.0148206
632.281	0.0148563
632.359	0.0148066
632.437	0.0147589
632.515	0.0147844
632.593	0.0146684
632.671	0.0146977
632.749	0.0145701
632.828	0.0146346
632.906	0.0145175
632.984	0.0146579
633.062	0.0147374
633.140	0.0145587
633.218	0.0146169
633.296	0.0148695
633.374	0.0148113
633.453	0.0146709
633.531	0.0147653
633.609	0.0149605
633.687	0.0147786
633.765	0.0147529
633.843	0.0148577
633.921	0.0149040
633.999	0.0148846
634.078	0.0148513
634.156	0.0147728
634.234	0.0147841
634.312	0.0147761
634.390	0.0148299
634.468	0.0147937
634.546	0.0148402
634.624	0.0146241
634.703	0.0146962
634.781	0.0148068
634.859	0.0147786
634.937	0.0147689
635.015	0.0146667
635.093	0.0146671
635.171	0.0146717
635.249	0.0148699
635.328	0.0147997
635.406	0.0149628
635.484	0.0149033
635.562	0.0148073
635.640	0.0147887
635.718	0.0148483
635.796	0.0148180
635.874	0.0149264
635.953	0.0148464
636.031	0.0149193
636.109	0.0148856
636.187	0.0147920
636.265	0.0148229
636.343	0.0147956
636.421	0.0148101
636.499	0.0148610
636.578	0.0148381
636.656	0.0148305
636.734	0.0147520
636.812	0.0147398
636.890	0.0147459
636.968	0.0148969
637.046	0.0147794
637.124	0.0147774
637.203	0.0147867
637.281	0.0147866
637.359	0.0149545
637.437	0.0147116
637.515	0.0148157
637.593	0.0147732
637.671	0.0148957
637.749	0.0148310
637.828	0.0147399
637.906	0.0148809
637.984	0.0147957
638.062	0.0147375
638.140	0.0148116
638.218	0.0148279
638.296	0.0147398
638.374	0.0147811
638.453	0.0146716
638.531	0.0146251
638.609	0.0150404
638.687	0.0148776
638.765	0.0147197
638.843	0.0147558
638.921	0.0148074
638.999	0.0147996
639.078	0.0148803
639.156	0.0148111
639.234	0.0146738
639.312	0.0147507
639.390	0.0148427
639.468	0.0147935
639.546	0.0146465
639.624	0.0148125
639.703	0.0148419
639.781	0.0148483
639.859	0.0148009
639.937	0.0147668
640.015	0.0147912
640.093	0.0148306
640.171	0.0148753
640.249	0.0147990
640.328	0.0148431
640.406	0.0147250
640.484	0.0149158
640.562	0.0148804
640.640	0.0146481
640.718	0.0148255
640.796	0.0148411
640.874	0.0147011
640.953	0.0150394
641.031	0.0149010
641.109	0.0148669
641.187	0.0148740
641.265	0.0148312
641.343	0.0148143
641.421	0.0149921
641.499	0.0149510
641.578	0.0148415
641.656	0.0147379
641.734	0.0146519
641.812	0.0147956
641.890	0.0148094
641.968	0.0148187
642.046	0.0147351
642.124	0.0147316
642.203	0.0149168
642.281	0.0147864
642.359	0.0148355
642.437	0.0147653
642.515	0.0148286
642.593	0.0149408
642.671	0.0149745
642.749	0.0148801
642.828	0.0147779
642.906	0.0147839
642.984	0.0147543
643.062	0.0148728
643.140	0.0149401
643.218	0.0149017
643.296	0.0148238
643.374	0.0148065
643.453	0.0147504
643.531	0.0148968
643.609	0.0147464
643.687	0.0148084
643.765	0.0148935
643.843	0.0148130
643.921	0.0146525
643.999	0.0146999
644.078	0.0147276
644.156	0.0149119
644.234	0.0148489
644.312	0.0147435
644.390	0.0147537
644.468	0.0148199
644.546	0.0147015
644.624	0.0147268
644.703	0.0147313
644.781	0.0148817
644.859	0.0148722
644.937	0.0146866
645.015	0.0147252
645.093	0.0146136
645.171	0.0148188
645.249	0.0148415
645.328	0.0148336
645.406	0.0146570
645.484	0.0146714
645.562	0.0146998
645.640	0.0147215
645.718	0.0146175
645.796	0.0147425
645.874	0.0146649
645.953	0.0149078
646.031	0.0148534
646.109	0.0148049
646.187	0.0147403
646.265	0.0147503
646.343	0.0148610
646.421	0.0148436
646.499	0.0148558
646.578	0.0149610
646.656	0.0148195
646.734	0.0148959
646.812	0.0148695
646.890	0.0148982
646.968	0.0149230
647.046	0.0147437
647.124	0.0147095
647.203	0.0148014
647.281	0.0146948
647.359	0.0146663
647.437	0.0147157
647.515	0.0146686
647.593	0.0147894
647.671	0.0146386
647.749	0.0147536
647.828	0.0147868
647.906	0.0147285
647.984	0.0147919
648.062	0.0147802
648.140	0.0148599
648.218	0.0148141
648.296	0.0149339
648.374	0.0148147
648.453	0.0147688
648.531	0.0149508
648.609	0.0149379
648.687	0.0149867
648.765	0.0148676
648.843	0.0148286
648.921	0.0149022
648.999	0.0147878
649.078	0.0147424
649.156	0.0147158
649.234	0.0147272
649.312	0.0147847
649.390	0.0147472
649.468	0.0150250
649.546	0.0147349
649.624	0.0148318
649.703	0.0146680
649.781	0.0146917
649.859	0.0147184
649.937	0.0149947
650.015	0.0149301
650.093	0.0147719
650.171	0.0147619
650.249	0.0147182
650.328	0.0147033
650.406	0.0146310
650.484	0.0146420
650.562	0.0146979
650.640	0.0145950
650.718	0.0147439
650.796	0.0146584
650.874	0.0147681
650.953	0.0147782
651.031	0.0147520
651.109	0.0149971
651.187	0.0148351
651.265	0.0148404
651.343	0.0148463
651.421	0.0148844
651.499	0.0148370
651.578	0.0148949
651.656	0.0147944
651.734	0.0148396
651.812	0.0147968
651.890	0.0147607
651.968	0.0147560
652.046	0.0145164
652.124	0.0146243
652.203	0.0147466
652.281	0.0147416
652.359	0.0147138
652.437	0.0147752
652.515	0.0147947
652.593	0.0147658
652.671	0.0148524
652.749	0.0148390
652.828	0.0149221
652.906	0.0149392
652.984	0.0149633
653.062	0.0148749
653.140	0.0147318
653.218	0.0149078
653.296	0.0149368
653.374	0.0147189
653.453	0.0147807
653.531	0.0148125
653.609	0.0148486
653.687	0.0147008
653.765	0.0147764
653.843	0.0146864
653.921	0.0146321
653.999	0.0147825
654.078	0.0146962
654.156	0.0147434
654.234	0.0147201
654.312	0.0147971
654.390	0.0147608
654.468	0.0146428
654.546	0.0147060
654.624	0.0146823
654.703	0.0147707
654.781	0.0149958
654.859	0.0147799
654.937	0.0148976
655.015	0.0149199
655.093	0.0148432
655.171	0.0148698
655.249	0.0148358
655.328	0.0147314
655.406	0.0147584
655.484	0.0149669
655.562	0.0147952
655.640	0.0147506
655.718	0.0147778
655.796	0.0147846
655.874	0.0147348
655.953	0.0147077
656.031	0.0146929
656.109	0.0147990
656.187	0.0148278
656.265	0.0148275
656.343	0.0148409
656.421	0.0148663
656.499	0.0149049
656.578	0.0149158
656.656	0.0150259
656.734	0.0148498
656.812	0.0147793
656.890	0.0148556
656.968	0.0148528
657.046	0.0147411
657.124	0.0146148
657.203	0.0147229
657.281	0.0147105
657.359	0.0146306
657.437	0.0148449
657.515	0.0146428
657.593	0.0147112
657.671	0.0148308
657.749	0.0148219
657.828	0.0148697
657.906	0.0150287
657.984	0.0148988
658.062	0.0148489
658.140	0.0148825
658.218	0.0149493
658.296	0.0148724
658.374	0.0147931
658.453	0.0147732
658.531	0.0147833
658.609	0.0147665
658.687	0.0147052
658.765	0.0147564
658.843	0.0147565
658.921	0.0146172
658.999	0.0147018
659.078	0.0147546
659.156	0.0147148
659.234	0.0146522
659.312	0.0147686
659.390	0.0147211
659.468	0.0145483
659.546	0.0146651
659.624	0.0147598
659.703	0.0147244
659.781	0.0148047
659.859	0.0148475
659.937	0.0148450
660.015	0.0150301
660.093	0.0149944
660.171	0.0149927
660.249	0.0151266
660.328	0.0150447
660.406	0.0149105
660.484	0.0148923
660.562	0.0147501
660.640	0.0147936
660.718	0.0146752
660.796	0.0146241
660.874	0.0145078
660.953	0.0147638
661.031	0.0145895
661.109	0.0144334
661.187	0.0145660
661.265	0.0145172
661.343	0.0145290
661.421	0.0146320
661.499	0.0146645
661.578	0.0148560
661.656	0.0148695
661.734	0.0149094
661.812	0.0148088
661.890	0.0148751
661.968	0.0150639
662.046	0.0149879
662.124	0.0150710
662.203	0.0151267
662.281	0.0150879
662.359	0.0150316
662.437	0.0149966
662.515	0.0149115
662.593	0.0148817
662.671	0.0148045
662.749	0.0147680
662.828	0.0145506
662.906	0.0145793
662.984	0.0145741
663.062	0.0146092
663.140	0.0146510
663.218	0.0146758
663.296	0.0145936
663.374	0.0145404
663.453	0.0145761
663.531	0.0147405
663.609	0.0149165
663.687	0.0148450
663.765	0.0148270
663.843	0.0147897
663.921	0.0147420
663.999	0.0146140
664.078	0.0148911
664.156	0.0147459
664.234	0.0147668
664.312	0.0148069
664.390	0.0146381
664.468	0.0147800
664.546	0.0145902
664.624	0.0146487
664.703	0.0146927
664.781	0.0146207
664.859	0.0145716
664.937	0.0144848
665.015	0.0147175
665.093	0.0146574
665.171	0.0147147
665.249	0.0147025
665.328	0.0147989
665.406	0.0149622
665.484	0.0146280
665.562	0.0147237
665.640	0.0149576
665.718	0.0149226
665.796	0.0149148
665.874	0.0150853
665.953	0.0150172
666.031	0.0149778
666.109	0.0149927
666.187	0.0149529
666.265	0.0147270
666.343	0.0147290
666.421	0.0147688
666.499	0.0147841
666.578	0.0147144
666.656	0.0146257
666.734	0.0146398
666.812	0.0146925
666.890	0.0147292
666.968	0.0148552
667.046	0.0147264
667.124	0.0147607
667.203	0.0149156
667.281	0.0147749
667.359	0.0147980
667.437	0.0149075
667.515	0.0149389
667.593	0.0149319
667.671	0.0149682
667.749	0.0150052
667.828	0.0149199
667.906	0.0150304
667.984	0.0151058
668.062	0.0149220
668.140	0.0150557
668.218	0.0148529
668.296	0.0149187
668.374	0.0149455
668.453	0.0147961
668.531	0.0148900
668.609	0.0147906
668.687	0.0148602
668.765	0.0147866
668.843	0.0146456
668.921	0.0147040
668.999	0.0148122
669.078	0.0146635
669.156	0.0145673
669.234	0.0146274
669.312	0.0146735
669.390	0.0146236
669.468	0.0147817
669.546	0.0146494
669.624	0.0146300
669.703	0.0146767
669.781	0.0150482
669.859	0.0148795
669.937	0.0149787
670.015	0.0150644
670.093	0.0148685
670.171	0.0150832
670.249	0.0150945
670.328	0.0149026
670.406	0.0149854
670.484	0.0149380
670.562	0.0149866
670.640	0.0148941
670.718	0.0148870
670.796	0.0149912
670.874	0.0149036
670.953	0.0147791
671.031	0.0147374
671.109	0.0147655
671.187	0.0147146
671.265	0.0146571
671.343	0.0147295
671.421	0.0146493
671.499	0.0145944
671.578	0.0146102
671.656	0.0146383
671.734	0.0146435
671.812	0.0147021
671.890	0.0146998
671.968	0.0148331
672.046	0.0147899
672.124	0.0148917
672.203	0.0149524
672.281	0.0149588
672.359	0.0149960
672.437	0.0150677
672.515	0.0150616
672.593	0.0151263
672.671	0.0151308
672.749	0.0150458
672.828	0.0150466
672.906	0.0152034
672.984	0.0148904
673.062	0.0149587
673.140	0.0147865
673.218	0.0148280
673.296	0.0148212
673.374	0.0147243
673.453	0.0146567
673.531	0.0145881
673.609	0.0146084
673.687	0.0145966
673.765	0.0144813
673.843	0.0147519
673.921	0.0147792
673.999	0.0148603
674.078	0.0148414
674.156	0.0149988
674.234	0.0149387
674.312	0.0150050
674.390	0.0149482
674.468	0.0149808
674.546	0.0148827
674.624	0.0147910
674.703	0.0146607
674.781	0.0148020
674.859	0.0147581
674.937	0.0145975
675.015	0.0146288
675.093	0.0146366
675.171	0.0145856
675.249	0.0145226
675.328	0.0145406
675.406	0.0146421
675.484	0.0146762
675.562	0.0147325
675.640	0.0146445
675.718	0.0146601
675.796	0.0145758
675.874	0.0147076
675.953	0.0148710
676.031	0.0148594
676.109	0.0148819
676.187	0.0148716
676.265	0.0150338
676.343	0.0149458
676.421	0.0148319
676.499	0.0149047
676.578	0.0147752
676.656	0.0146861
676.734	0.0147167
676.812	0.0145737
676.890	0.0145962
676.968	0.0147090
677.046	0.0147377
677.124	0.0147881
677.203	0.0147573
677.281	0.0147697
677.359	0.0148627
677.437	0.0149499
677.515	0.0150717
677.593	0.0149530
677.671	0.0149435
677.749	0.0150187
677.828	0.0151114
677.906	0.0150947
677.984	0.0150686
678.062	0.0149967
678.140	0.0149798
678.218	0.0150024
678.296	0.0149184
678.374	0.0150558
678.453	0.0149859
678.531	0.0150056
678.609	0.0149951
678.687	0.0149294
678.765	0.0148352
678.843	0.0149700
678.921	0.0149109
678.999	0.0147126
679.078	0.0148959
679.156	0.0148420
679.234	0.0148271
679.312	0.0148109
679.390	0.0147465
679.468	0.0146941
679.546	0.0147672
679.624	0.0146774
679.703	0.0146538
679.781	0.0146178
679.859	0.0147136
679.937	0.0144699
680.015	0.0144619
680.093	0.0145135
680.171	0.0143829
680.249	0.0143652
680.328	0.0144225
680.406	0.0143038
680.484	0.0142448
680.562	0.0144190
680.640	0.0144882
680.718	0.0143326
680.796	0.0144530
680.874	0.0143199
680.953	0.0146184
681.031	0.0145092
681.109	0.0145194
681.187	0.0146355
681.265	0.0146586
681.343	0.0148357
681.421	0.0148495
681.499	0.0146384
681.578	0.0146823
681.656	0.0148364
681.734	0.0147373
681.812	0.0149013
681.890	0.0148232
681.968	0.0148362
682.046	0.0149891
682.124	0.0148372
682.203	0.0150726
682.281	0.0149326
682.359	0.0150422
682.437	0.0150954
682.515	0.0151672
682.593	0.0151150
682.671	0.0150981
682.749	0.0149257
682.828	0.0150813
682.906	0.0149216
682.984	0.0148360
683.062	0.0148273
683.140	0.0147470
683.218	0.0147251
683.296	0.0147492
683.374	0.0147656
683.453	0.0147365
683.531	0.0147607
683.609	0.0146346
683.687	0.0146132
683.765	0.0148009
683.843	0.0147959
683.921	0.0147285
683.999	0.0146373
684.078	0.0147435
684.156	0.0147421
684.234	0.0148035
684.312	0.0147968
684.390	0.0148704
684.468	0.0149421
684.546	0.0147072
684.624	0.0148663
684.703	0.0147284
684.781	0.0146282
684.859	0.0147320
684.937	0.0146609
685.015	0.0144994
685.093	0.0146262
685.171	0.0146501
685.249	0.0144948
685.328	0.0144973
685.406	0.0145582
685.484	0.0145748
685.562	0.0147102
685.640	0.0146426
685.718	0.0146712
