05/06/2022	19:03:59	Ver.	4.1	UNKNOWN
Optical Delay	600.015094	Delta X		0.078125	Sweeps	1	Scan Rate	0/0
Coordinates	Axis 1	NaN	Axis 2	NaN	Axis 3	NaN	Axis 4	NaN	Axis 5	NaN	Axis 6	0.000000
TX Power	0.000000	RX Power	0.000000

600.015	0.0142139
600.093	0.0141219
600.171	0.0141512
600.249	0.0142178
600.328	0.0141323
600.406	0.0142786
600.484	0.0142741
600.562	0.0142258
600.640	0.0142955
600.718	0.0142298
600.796	0.0142749
600.874	0.0142863
600.953	0.0142855
601.031	0.0142065
601.109	0.0142615
601.187	0.0142081
601.265	0.0142725
601.343	0.0142375
601.421	0.0141854
601.499	0.0142163
601.578	0.0142297
601.656	0.0142184
601.734	0.0142873
601.812	0.0143199
601.890	0.0142670
601.968	0.0142281
602.046	0.0143154
602.124	0.0141678
602.203	0.0141885
602.281	0.0141985
602.359	0.0143469
602.437	0.0143024
602.515	0.0142310
602.593	0.0142449
602.671	0.0142715
602.749	0.0143099
602.828	0.0142573
602.906	0.0142602
602.984	0.0143384
603.062	0.0142986
603.140	0.0143250
603.218	0.0143408
603.296	0.0142681
603.374	0.0143098
603.453	0.0142959
603.531	0.0143733
603.609	0.0142352
603.687	0.0142377
603.765	0.0142501
603.843	0.0142323
603.921	0.0143066
603.999	0.0143829
604.078	0.0143113
604.156	0.0142620
604.234	0.0142642
604.312	0.0143195
604.390	0.0143940
604.468	0.0143088
604.546	0.0142917
604.624	0.0142872
604.703	0.0142816
604.781	0.0142207
604.859	0.0142996
604.937	0.0145171
605.015	0.0143642
605.093	0.0142929
605.171	0.0142550
605.249	0.0144251
605.328	0.0142993
605.406	0.0142609
605.484	0.0143710
605.562	0.0142175
605.640	0.0141949
605.718	0.0142987
605.796	0.0140334
605.874	0.0142020
605.953	0.0142804
606.031	0.0142264
606.109	0.0142608
606.187	0.0142876
606.265	0.0143874
606.343	0.0142632
606.421	0.0141834
606.499	0.0143710
606.578	0.0142780
606.656	0.0143633
606.734	0.0142744
606.812	0.0143285
606.890	0.0143660
606.968	0.0142223
607.046	0.0142812
607.124	0.0142765
607.203	0.0142433
607.281	0.0143350
607.359	0.0144182
607.437	0.0143243
607.515	0.0142918
607.593	0.0141708
607.671	0.0142513
607.749	0.0143372
607.828	0.0142661
607.906	0.0142377
607.984	0.0143631
608.062	0.0144910
608.140	0.0143240
608.218	0.0142897
608.296	0.0143641
608.374	0.0143898
608.453	0.0143449
608.531	0.0143217
608.609	0.0143403
608.687	0.0143832
608.765	0.0143048
608.843	0.0143794
608.921	0.0143461
608.999	0.0142763
609.078	0.0143295
609.156	0.0144408
609.234	0.0142336
609.312	0.0143619
609.390	0.0144181
609.468	0.0143098
609.546	0.0143707
609.624	0.0143398
609.703	0.0143729
609.781	0.0142501
609.859	0.0143821
609.937	0.0142670
610.015	0.0145102
610.093	0.0143430
610.171	0.0142905
610.249	0.0142263
610.328	0.0143268
610.406	0.0144590
610.484	0.0143470
610.562	0.0143881
610.640	0.0142903
610.718	0.0143689
610.796	0.0141761
610.874	0.0143040
610.953	0.0142599
611.031	0.0143613
611.109	0.0141669
611.187	0.0142985
611.265	0.0144428
611.343	0.0143181
611.421	0.0142909
611.499	0.0143414
611.578	0.0141580
611.656	0.0142667
611.734	0.0144385
611.812	0.0142535
611.890	0.0142317
611.968	0.0142641
612.046	0.0142357
612.124	0.0142682
612.203	0.0143011
612.281	0.0140842
612.359	0.0141711
612.437	0.0143803
612.515	0.0145447
612.593	0.0142247
612.671	0.0143420
612.749	0.0144041
612.828	0.0142001
612.906	0.0142628
612.984	0.0143295
613.062	0.0143394
613.140	0.0142143
613.218	0.0142567
613.296	0.0143733
613.374	0.0142805
613.453	0.0142723
613.531	0.0143520
613.609	0.0143398
613.687	0.0142527
613.765	0.0143153
613.843	0.0144638
613.921	0.0142760
613.999	0.0143890
614.078	0.0143081
614.156	0.0142294
614.234	0.0143191
614.312	0.0143594
614.390	0.0143336
614.468	0.0141775
614.546	0.0143754
614.624	0.0142838
614.703	0.0142914
614.781	0.0142088
614.859	0.0142059
614.937	0.0143177
615.015	0.0143831
615.093	0.0142149
615.171	0.0143648
615.249	0.0143130
615.328	0.0141829
615.406	0.0142157
615.484	0.0143060
615.562	0.0143383
615.640	0.0142741
615.718	0.0143305
615.796	0.0142327
615.874	0.0142033
615.953	0.0142587
616.031	0.0141662
616.109	0.0142493
616.187	0.0142991
616.265	0.0142336
616.343	0.0142635
616.421	0.0142428
616.499	0.0143076
616.578	0.0142359
616.656	0.0143088
616.734	0.0142702
616.812	0.0142876
616.890	0.0143295
616.968	0.0141012
617.046	0.0142400
617.124	0.0141918
617.203	0.0142180
617.281	0.0142942
617.359	0.0142176
617.437	0.0143034
617.515	0.0142545
617.593	0.0142665
617.671	0.0141103
617.749	0.0140968
617.828	0.0140870
617.906	0.0141088
617.984	0.0141923
618.062	0.0141303
618.140	0.0142642
618.218	0.0143066
618.296	0.0141060
618.374	0.0140817
618.453	0.0141518
618.531	0.0143208
618.609	0.0142372
618.687	0.0141976
618.765	0.0141833
618.843	0.0142387
618.921	0.0142401
618.999	0.0142438
619.078	0.0142710
619.156	0.0141100
619.234	0.0141856
619.312	0.0142726
619.390	0.0143703
619.468	0.0141116
619.546	0.0141400
619.624	0.0142281
619.703	0.0142896
619.781	0.0143130
619.859	0.0142068
619.937	0.0143485
620.015	0.0143140
620.093	0.0143388
620.171	0.0143291
620.249	0.0142088
620.328	0.0141818
620.406	0.0141911
620.484	0.0142587
620.562	0.0142294
620.640	0.0144810
620.718	0.0144050
620.796	0.0142398
620.874	0.0143996
620.953	0.0143752
621.031	0.0141438
621.109	0.0141439
621.187	0.0143098
621.265	0.0143438
621.343	0.0142056
621.421	0.0142219
621.499	0.0142351
621.578	0.0142691
621.656	0.0142568
621.734	0.0142119
621.812	0.0141598
621.890	0.0144290
621.968	0.0142899
622.046	0.0143483
622.124	0.0142163
622.203	0.0141629
622.281	0.0141460
622.359	0.0142851
622.437	0.0142174
622.515	0.0143461
622.593	0.0142278
622.671	0.0142987
622.749	0.0143134
622.828	0.0141939
622.906	0.0142645
622.984	0.0144051
623.062	0.0143671
623.140	0.0144068
623.218	0.0141067
623.296	0.0142573
623.374	0.0143607
623.453	0.0143716
623.531	0.0142148
623.609	0.0142528
623.687	0.0142167
623.765	0.0142641
623.843	0.0142986
623.921	0.0143042
623.999	0.0142883
624.078	0.0142176
624.156	0.0143799
624.234	0.0142797
624.312	0.0143017
624.390	0.0143642
624.468	0.0144470
624.546	0.0143201
624.624	0.0143188
624.703	0.0143912
624.781	0.0143772
624.859	0.0143913
624.937	0.0142499
625.015	0.0142642
625.093	0.0143593
625.171	0.0142457
625.249	0.0143740
625.328	0.0142520
625.406	0.0143098
625.484	0.0143121
625.562	0.0143431
625.640	0.0143533
625.718	0.0143056
625.796	0.0143343
625.874	0.0142683
625.953	0.0142437
626.031	0.0142203
626.109	0.0142749
626.187	0.0143347
626.265	0.0142752
626.343	0.0143601
626.421	0.0142298
626.499	0.0141489
626.578	0.0142333
626.656	0.0142934
626.734	0.0142458
626.812	0.0141479
626.890	0.0142644
626.968	0.0142401
627.046	0.0142225
627.124	0.0141451
627.203	0.0142313
627.281	0.0143770
627.359	0.0143151
627.437	0.0143710
627.515	0.0143558
627.593	0.0144755
627.671	0.0142802
627.749	0.0141557
627.828	0.0142800
627.906	0.0142443
627.984	0.0141835
628.062	0.0143409
628.140	0.0141743
628.218	0.0140973
628.296	0.0140880
628.374	0.0142646
628.453	0.0144239
628.531	0.0143487
628.609	0.0142610
628.687	0.0143033
628.765	0.0142724
628.843	0.0143715
628.921	0.0144291
628.999	0.0142707
629.078	0.0144548
629.156	0.0143727
629.234	0.0143119
629.312	0.0144157
629.390	0.0142919
629.468	0.0142991
629.546	0.0142002
629.624	0.0142575
629.703	0.0140428
629.781	0.0140816
629.859	0.0142345
629.937	0.0141823
630.015	0.0142354
630.093	0.0142698
630.171	0.0141959
630.249	0.0140961
630.328	0.0143306
630.406	0.0143708
630.484	0.0142714
630.562	0.0143024
630.640	0.0142586
630.718	0.0143625
630.796	0.0143224
630.874	0.0143764
630.953	0.0143574
631.031	0.0142391
631.109	0.0142551
631.187	0.0141966
631.265	0.0141856
631.343	0.0142860
631.421	0.0142778
631.499	0.0142669
631.578	0.0142810
631.656	0.0142518
631.734	0.0142779
631.812	0.0141129
631.890	0.0142105
631.968	0.0143222
632.046	0.0142583
632.124	0.0143026
632.203	0.0141626
632.281	0.0142374
632.359	0.0142269
632.437	0.0142999
632.515	0.0142789
632.593	0.0142895
632.671	0.0142925
632.749	0.0143738
632.828	0.0142177
632.906	0.0142798
632.984	0.0143275
633.062	0.0143649
633.140	0.0142307
633.218	0.0143397
633.296	0.0142490
633.374	0.0144367
633.453	0.0141634
633.531	0.0143021
633.609	0.0142062
633.687	0.0141807
633.765	0.0140902
633.843	0.0142024
633.921	0.0141775
633.999	0.0142007
634.078	0.0142799
634.156	0.0142787
634.234	0.0143431
634.312	0.0143090
634.390	0.0142403
634.468	0.0142873
634.546	0.0144300
634.624	0.0141421
634.703	0.0142070
634.781	0.0142728
634.859	0.0142519
634.937	0.0143005
635.015	0.0143904
635.093	0.0144128
635.171	0.0142554
635.249	0.0143571
635.328	0.0142159
635.406	0.0142715
635.484	0.0142632
635.562	0.0143240
635.640	0.0143594
635.718	0.0142747
635.796	0.0142458
635.874	0.0143257
635.953	0.0142850
636.031	0.0143202
636.109	0.0143560
636.187	0.0143021
636.265	0.0143056
636.343	0.0142937
636.421	0.0142477
636.499	0.0143536
636.578	0.0143578
636.656	0.0143627
636.734	0.0141543
636.812	0.0142915
636.890	0.0142246
636.968	0.0141854
637.046	0.0140986
637.124	0.0143183
637.203	0.0141882
637.281	0.0142000
637.359	0.0143048
637.437	0.0141782
637.515	0.0142833
637.593	0.0142644
637.671	0.0142433
637.749	0.0142029
637.828	0.0143221
637.906	0.0142976
637.984	0.0142219
638.062	0.0143894
638.140	0.0142803
638.218	0.0141881
638.296	0.0142574
638.374	0.0143859
638.453	0.0141969
638.531	0.0143533
638.609	0.0142684
638.687	0.0143589
638.765	0.0142008
638.843	0.0142789
638.921	0.0142973
638.999	0.0142265
639.078	0.0142825
639.156	0.0141974
639.234	0.0142576
639.312	0.0142489
639.390	0.0142440
639.468	0.0141974
639.546	0.0143736
639.624	0.0143674
639.703	0.0144492
639.781	0.0143873
639.859	0.0143246
639.937	0.0142115
640.015	0.0142341
640.093	0.0144111
640.171	0.0143060
640.249	0.0143436
640.328	0.0142464
640.406	0.0141390
640.484	0.0141733
640.562	0.0142763
640.640	0.0143143
640.718	0.0142360
640.796	0.0142145
640.874	0.0142087
640.953	0.0143037
641.031	0.0143697
641.109	0.0141383
641.187	0.0143490
641.265	0.0144469
641.343	0.0141917
641.421	0.0142052
641.499	0.0142876
641.578	0.0142496
641.656	0.0141604
641.734	0.0144276
641.812	0.0143111
641.890	0.0142735
641.968	0.0142669
642.046	0.0142909
642.124	0.0142817
642.203	0.0141856
642.281	0.0141799
642.359	0.0143426
642.437	0.0143118
642.515	0.0141834
642.593	0.0142048
642.671	0.0143027
642.749	0.0144059
642.828	0.0142435
642.906	0.0141908
642.984	0.0143595
643.062	0.0142957
643.140	0.0141502
643.218	0.0141602
643.296	0.0142463
643.374	0.0143329
643.453	0.0143723
643.531	0.0142179
643.609	0.0143221
643.687	0.0143098
643.765	0.0143201
643.843	0.0143310
643.921	0.0143272
643.999	0.0143347
644.078	0.0142788
644.156	0.0143434
644.234	0.0142108
644.312	0.0142661
644.390	0.0142704
644.468	0.0141738
644.546	0.0141230
644.624	0.0141891
644.703	0.0142251
644.781	0.0141750
644.859	0.0140888
644.937	0.0142512
645.015	0.0142941
645.093	0.0141793
645.171	0.0143771
645.249	0.0141998
645.328	0.0143578
645.406	0.0142342
645.484	0.0142789
645.562	0.0143229
645.640	0.0143803
645.718	0.0142458
645.796	0.0143214
645.874	0.0143211
645.953	0.0143659
646.031	0.0142431
646.109	0.0142679
646.187	0.0143335
646.265	0.0142965
646.343	0.0142297
646.421	0.0142339
646.499	0.0142889
646.578	0.0144212
646.656	0.0144447
646.734	0.0142782
646.812	0.0143797
646.890	0.0143048
646.968	0.0143425
647.046	0.0144366
647.124	0.0144102
647.203	0.0142930
647.281	0.0142198
647.359	0.0142462
647.437	0.0141804
647.515	0.0141744
647.593	0.0141830
647.671	0.0142438
647.749	0.0142213
647.828	0.0143156
647.906	0.0142678
647.984	0.0141944
648.062	0.0143323
648.140	0.0143457
648.218	0.0143312
648.296	0.0143257
648.374	0.0143906
648.453	0.0143575
648.531	0.0144004
648.609	0.0142236
648.687	0.0143119
648.765	0.0143829
648.843	0.0142566
648.921	0.0140915
648.999	0.0142097
649.078	0.0141780
649.156	0.0142820
649.234	0.0141679
649.312	0.0142115
649.390	0.0142640
649.468	0.0142068
649.546	0.0142464
649.624	0.0142910
649.703	0.0142721
649.781	0.0143501
649.859	0.0143524
649.937	0.0143508
650.015	0.0144159
650.093	0.0143935
650.171	0.0144514
650.249	0.0143798
650.328	0.0143681
650.406	0.0143549
650.484	0.0143189
650.562	0.0144381
650.640	0.0144094
650.718	0.0144006
650.796	0.0141471
650.874	0.0142304
650.953	0.0142999
651.031	0.0143035
651.109	0.0142492
651.187	0.0141528
651.265	0.0142245
651.343	0.0142447
651.421	0.0142691
651.499	0.0141274
651.578	0.0141181
651.656	0.0142948
651.734	0.0142456
651.812	0.0142555
651.890	0.0142439
651.968	0.0142039
652.046	0.0144145
652.124	0.0142892
652.203	0.0142964
652.281	0.0142468
652.359	0.0143085
652.437	0.0142959
652.515	0.0142953
652.593	0.0144353
652.671	0.0143485
652.749	0.0142554
652.828	0.0142376
652.906	0.0142189
652.984	0.0141159
653.062	0.0141924
653.140	0.0142890
653.218	0.0141947
653.296	0.0142149
653.374	0.0141888
653.453	0.0142508
653.531	0.0141623
653.609	0.0142390
653.687	0.0143580
653.765	0.0142054
653.843	0.0141711
653.921	0.0142451
653.999	0.0141061
654.078	0.0140999
654.156	0.0142540
654.234	0.0142123
654.312	0.0141939
654.390	0.0141763
654.468	0.0142209
654.546	0.0142366
654.624	0.0143679
654.703	0.0141808
654.781	0.0143102
654.859	0.0142352
654.937	0.0141976
655.015	0.0143572
655.093	0.0141686
655.171	0.0142466
655.249	0.0141387
655.328	0.0141390
655.406	0.0141330
655.484	0.0141874
655.562	0.0142417
655.640	0.0142186
655.718	0.0140928
655.796	0.0142278
655.874	0.0141659
655.953	0.0140427
656.031	0.0142130
656.109	0.0141424
656.187	0.0142579
656.265	0.0142632
656.343	0.0142429
656.421	0.0143442
656.499	0.0143612
656.578	0.0143610
656.656	0.0144906
656.734	0.0145457
656.812	0.0142697
656.890	0.0143159
656.968	0.0142554
657.046	0.0144434
657.124	0.0143558
657.203	0.0144489
657.281	0.0143228
657.359	0.0141792
657.437	0.0141200
657.515	0.0141978
657.593	0.0140504
657.671	0.0140276
657.749	0.0140301
657.828	0.0140896
657.906	0.0139812
657.984	0.0139607
658.062	0.0141253
658.140	0.0138022
658.218	0.0138812
658.296	0.0141698
658.374	0.0141763
658.453	0.0142955
658.531	0.0142928
658.609	0.0144087
658.687	0.0143849
658.765	0.0144716
658.843	0.0144996
658.921	0.0145535
658.999	0.0146229
659.078	0.0145610
659.156	0.0145634
659.234	0.0145145
659.312	0.0146149
659.390	0.0144575
659.468	0.0143008
659.546	0.0143411
659.624	0.0142534
659.703	0.0140003
659.781	0.0140323
659.859	0.0140351
659.937	0.0139748
660.015	0.0138186
660.093	0.0138651
660.171	0.0140638
660.249	0.0141747
660.328	0.0140501
660.406	0.0141781
660.484	0.0143409
660.562	0.0143422
660.640	0.0143385
660.718	0.0144047
660.796	0.0146233
660.874	0.0146835
660.953	0.0146622
661.031	0.0146539
661.109	0.0147902
661.187	0.0146267
661.265	0.0146334
661.343	0.0145702
661.421	0.0144994
661.499	0.0143492
661.578	0.0142288
661.656	0.0143194
661.734	0.0141843
661.812	0.0141940
661.890	0.0142889
661.968	0.0140877
662.046	0.0141846
662.124	0.0141295
662.203	0.0142404
662.281	0.0142705
662.359	0.0142116
662.437	0.0141533
662.515	0.0140825
662.593	0.0142659
662.671	0.0142327
662.749	0.0142831
662.828	0.0142414
662.906	0.0141209
662.984	0.0141694
663.062	0.0142493
663.140	0.0141975
663.218	0.0143825
663.296	0.0142439
663.374	0.0142659
663.453	0.0144720
663.531	0.0143426
663.609	0.0143392
663.687	0.0143589
663.765	0.0144090
663.843	0.0143700
663.921	0.0142611
663.999	0.0144250
664.078	0.0142716
664.156	0.0142341
664.234	0.0142338
664.312	0.0143203
664.390	0.0143392
664.468	0.0143378
664.546	0.0141409
664.624	0.0144509
664.703	0.0145272
664.781	0.0143359
664.859	0.0144257
664.937	0.0144455
665.015	0.0144261
665.093	0.0144843
665.171	0.0145097
665.249	0.0143024
665.328	0.0144242
665.406	0.0143927
665.484	0.0143370
665.562	0.0142843
665.640	0.0143489
665.718	0.0142451
665.796	0.0142462
665.874	0.0141503
665.953	0.0142297
666.031	0.0141653
666.109	0.0141637
666.187	0.0140853
666.265	0.0142233
666.343	0.0141113
666.421	0.0143095
666.499	0.0141850
666.578	0.0143855
666.656	0.0144145
666.734	0.0143682
666.812	0.0143955
666.890	0.0143430
666.968	0.0144180
667.046	0.0144883
667.124	0.0144678
667.203	0.0144690
667.281	0.0143887
667.359	0.0142841
667.437	0.0143349
667.515	0.0143473
667.593	0.0144158
667.671	0.0142481
667.749	0.0142544
667.828	0.0141734
667.906	0.0141547
667.984	0.0141618
668.062	0.0141097
668.140	0.0140941
668.218	0.0140961
668.296	0.0139055
668.374	0.0139735
668.453	0.0139751
668.531	0.0139967
668.609	0.0139735
668.687	0.0139935
668.765	0.0140184
668.843	0.0141374
668.921	0.0142522
668.999	0.0141458
669.078	0.0143590
669.156	0.0144982
669.234	0.0144785
669.312	0.0145638
669.390	0.0145555
669.468	0.0147234
669.546	0.0148198
669.624	0.0147505
669.703	0.0146453
669.781	0.0145686
669.859	0.0144985
669.937	0.0145512
670.015	0.0142711
670.093	0.0141772
670.171	0.0141341
670.249	0.0139420
670.328	0.0138847
670.406	0.0137514
670.484	0.0137778
670.562	0.0136627
670.640	0.0136507
670.718	0.0136547
670.796	0.0137373
670.874	0.0136683
670.953	0.0139035
671.031	0.0139918
671.109	0.0141267
671.187	0.0141461
671.265	0.0142753
671.343	0.0144441
671.421	0.0144917
671.499	0.0145636
671.578	0.0146992
671.656	0.0147359
671.734	0.0148550
671.812	0.0147358
671.890	0.0148724
671.968	0.0146884
672.046	0.0145469
672.124	0.0146166
672.203	0.0143245
672.281	0.0140490
672.359	0.0141019
672.437	0.0140407
672.515	0.0138024
672.593	0.0137814
672.671	0.0137162
672.749	0.0138388
672.828	0.0138001
672.906	0.0138316
672.984	0.0139638
673.062	0.0139872
673.140	0.0139728
673.218	0.0141296
673.296	0.0143672
673.374	0.0143400
673.453	0.0144247
673.531	0.0144016
673.609	0.0144591
673.687	0.0144328
673.765	0.0145074
673.843	0.0144712
673.921	0.0142450
673.999	0.0142499
674.078	0.0142986
674.156	0.0141802
674.234	0.0140363
674.312	0.0139246
674.390	0.0140143
674.468	0.0138892
674.546	0.0139500
674.624	0.0138867
674.703	0.0139603
674.781	0.0139923
674.859	0.0140193
674.937	0.0141392
675.015	0.0141706
675.093	0.0143181
675.171	0.0143005
675.249	0.0142944
675.328	0.0143578
675.406	0.0144819
675.484	0.0145171
675.562	0.0144567
675.640	0.0143743
675.718	0.0143424
675.796	0.0142809
675.874	0.0141901
675.953	0.0143381
676.031	0.0142371
676.109	0.0141858
676.187	0.0141320
676.265	0.0142517
676.343	0.0141353
676.421	0.0141999
676.499	0.0141386
676.578	0.0142117
676.656	0.0142522
676.734	0.0143279
676.812	0.0142999
676.890	0.0141856
676.968	0.0143453
677.046	0.0142166
677.124	0.0143156
677.203	0.0143187
677.281	0.0143322
677.359	0.0142373
677.437	0.0142886
677.515	0.0142487
677.593	0.0141842
677.671	0.0142855
677.749	0.0141566
677.828	0.0142039
677.906	0.0143023
677.984	0.0142944
678.062	0.0142397
678.140	0.0140992
678.218	0.0141804
678.296	0.0139725
678.374	0.0140836
678.453	0.0141292
678.531	0.0141459
678.609	0.0141548
678.687	0.0140354
678.765	0.0140907
678.843	0.0140792
678.921	0.0141251
678.999	0.0140068
679.078	0.0140949
679.156	0.0139401
679.234	0.0140061
679.312	0.0139409
679.390	0.0140091
679.468	0.0139569
679.546	0.0140028
679.624	0.0140829
679.703	0.0140571
679.781	0.0141584
679.859	0.0141974
679.937	0.0143877
680.015	0.0143002
680.093	0.0144691
680.171	0.0143777
680.249	0.0143192
680.328	0.0142918
680.406	0.0144193
680.484	0.0142773
680.562	0.0142511
680.640	0.0143148
680.718	0.0144210
680.796	0.0142241
680.874	0.0141656
680.953	0.0142381
681.031	0.0141464
681.109	0.0142307
681.187	0.0142112
681.265	0.0142818
681.343	0.0142913
681.421	0.0143514
681.499	0.0144334
681.578	0.0143932
681.656	0.0142859
681.734	0.0144705
681.812	0.0145100
681.890	0.0144977
681.968	0.0145483
682.046	0.0145698
682.124	0.0145358
682.203	0.0146190
682.281	0.0145694
682.359	0.0144550
682.437	0.0145473
682.515	0.0144184
682.593	0.0142724
682.671	0.0142849
682.749	0.0141856
682.828	0.0142032
682.906	0.0141908
682.984	0.0140935
683.062	0.0141994
683.140	0.0140884
683.218	0.0139716
683.296	0.0139872
683.374	0.0139476
683.453	0.0139901
683.531	0.0140454
683.609	0.0139734
683.687	0.0141489
683.765	0.0140950
683.843	0.0141097
683.921	0.0142668
683.999	0.0142737
684.078	0.0141855
684.156	0.0143747
684.234	0.0144051
684.312	0.0145412
684.390	0.0145194
684.468	0.0144798
684.546	0.0143726
684.624	0.0145312
684.703	0.0143689
684.781	0.0142362
684.859	0.0143443
684.937	0.0142551
685.015	0.0141829
685.093	0.0142056
685.171	0.0142007
685.249	0.0141215
685.328	0.0140235
685.406	0.0141064
685.484	0.0142695
685.562	0.0142474
685.640	0.0142805
685.718	0.0142810
