05/06/2022	18:40:53	Ver.	4.1	UNKNOWN
Optical Delay	600.015094	Delta X		0.078125	Sweeps	1	Scan Rate	0/0
Coordinates	Axis 1	NaN	Axis 2	NaN	Axis 3	NaN	Axis 4	NaN	Axis 5	NaN	Axis 6	0.000000
TX Power	0.000000	RX Power	0.000000

600.015	0.0129039
600.093	0.0130672
600.171	0.0129737
600.249	0.0128494
600.328	0.0128171
600.406	0.0128168
600.484	0.0129020
600.562	0.0130729
600.640	0.0129348
600.718	0.0129091
600.796	0.0129893
600.874	0.0129765
600.953	0.0129583
601.031	0.0129776
601.109	0.0129617
601.187	0.0129891
601.265	0.0129355
601.343	0.0128659
601.421	0.0129713
601.499	0.0129469
601.578	0.0129272
601.656	0.0130474
601.734	0.0129832
601.812	0.0130000
601.890	0.0127900
601.968	0.0129166
602.046	0.0128204
602.124	0.0128852
602.203	0.0129527
602.281	0.0129310
602.359	0.0129112
602.437	0.0129385
602.515	0.0129113
602.593	0.0129951
602.671	0.0130315
602.749	0.0129009
602.828	0.0127886
602.906	0.0128988
602.984	0.0128484
603.062	0.0129071
603.140	0.0129758
603.218	0.0129643
603.296	0.0129861
603.374	0.0129102
603.453	0.0129481
603.531	0.0128937
603.609	0.0127189
603.687	0.0129784
603.765	0.0129265
603.843	0.0129478
603.921	0.0128177
603.999	0.0129504
604.078	0.0130498
604.156	0.0129688
604.234	0.0128459
604.312	0.0128398
604.390	0.0128421
604.468	0.0128617
604.546	0.0129644
604.624	0.0129491
604.703	0.0128622
604.781	0.0128833
604.859	0.0126188
604.937	0.0128925
605.015	0.0129447
605.093	0.0128789
605.171	0.0128876
605.249	0.0128672
605.328	0.0128692
605.406	0.0130709
605.484	0.0129018
605.562	0.0128717
605.640	0.0129108
605.718	0.0128112
605.796	0.0129819
605.874	0.0129826
605.953	0.0129550
606.031	0.0128841
606.109	0.0129194
606.187	0.0128200
606.265	0.0128458
606.343	0.0129500
606.421	0.0129692
606.499	0.0128339
606.578	0.0127590
606.656	0.0128365
606.734	0.0128294
606.812	0.0128658
606.890	0.0129273
606.968	0.0129946
607.046	0.0129318
607.124	0.0130569
607.203	0.0129339
607.281	0.0129240
607.359	0.0130319
607.437	0.0128375
607.515	0.0129550
607.593	0.0128807
607.671	0.0127916
607.749	0.0128756
607.828	0.0128632
607.906	0.0129034
607.984	0.0130235
608.062	0.0128853
608.140	0.0128046
608.218	0.0128481
608.296	0.0128002
608.374	0.0129475
608.453	0.0128765
608.531	0.0129136
608.609	0.0129800
608.687	0.0128550
608.765	0.0129069
608.843	0.0129559
608.921	0.0129691
608.999	0.0129848
609.078	0.0128831
609.156	0.0129893
609.234	0.0130042
609.312	0.0128048
609.390	0.0129372
609.468	0.0129647
609.546	0.0128126
609.624	0.0128010
609.703	0.0127900
609.781	0.0129408
609.859	0.0129045
609.937	0.0128343
610.015	0.0129037
610.093	0.0130453
610.171	0.0128899
610.249	0.0128571
610.328	0.0129462
610.406	0.0129806
610.484	0.0129729
610.562	0.0128329
610.640	0.0130170
610.718	0.0130397
610.796	0.0128940
610.874	0.0129901
610.953	0.0128556
611.031	0.0129062
611.109	0.0130534
611.187	0.0130859
611.265	0.0129811
611.343	0.0130264
611.421	0.0128717
611.499	0.0128947
611.578	0.0129165
611.656	0.0130235
611.734	0.0129673
611.812	0.0129348
611.890	0.0128368
611.968	0.0128014
612.046	0.0129195
612.124	0.0129512
612.203	0.0127981
612.281	0.0129270
612.359	0.0128410
612.437	0.0127618
612.515	0.0130126
612.593	0.0130408
612.671	0.0130095
612.749	0.0128967
612.828	0.0129159
612.906	0.0129301
612.984	0.0130280
613.062	0.0128218
613.140	0.0129493
613.218	0.0131324
613.296	0.0129078
613.374	0.0129886
613.453	0.0128051
613.531	0.0129509
613.609	0.0129890
613.687	0.0129305
613.765	0.0128300
613.843	0.0128323
613.921	0.0129086
613.999	0.0130154
614.078	0.0129542
614.156	0.0129698
614.234	0.0129034
614.312	0.0128615
614.390	0.0128927
614.468	0.0129403
614.546	0.0130518
614.624	0.0129352
614.703	0.0130418
614.781	0.0129874
614.859	0.0129745
614.937	0.0129870
615.015	0.0129144
615.093	0.0129115
615.171	0.0128778
615.249	0.0130565
615.328	0.0130511
615.406	0.0130945
615.484	0.0129108
615.562	0.0130322
615.640	0.0129766
615.718	0.0128162
615.796	0.0129440
615.874	0.0129269
615.953	0.0129407
616.031	0.0129212
616.109	0.0129609
616.187	0.0129550
616.265	0.0128933
616.343	0.0129922
616.421	0.0130273
616.499	0.0128754
616.578	0.0129234
616.656	0.0128471
616.734	0.0129994
616.812	0.0129874
616.890	0.0128578
616.968	0.0129424
617.046	0.0129908
617.124	0.0129897
617.203	0.0129939
617.281	0.0129663
617.359	0.0129591
617.437	0.0129832
617.515	0.0130345
617.593	0.0128965
617.671	0.0129170
617.749	0.0129374
617.828	0.0128487
617.906	0.0130442
617.984	0.0129826
618.062	0.0129444
618.140	0.0130338
618.218	0.0128450
618.296	0.0128873
618.374	0.0128209
618.453	0.0130618
618.531	0.0129993
618.609	0.0129049
618.687	0.0128835
618.765	0.0129149
618.843	0.0129623
618.921	0.0130424
618.999	0.0129849
619.078	0.0128864
619.156	0.0129977
619.234	0.0130023
619.312	0.0129607
619.390	0.0129691
619.468	0.0128989
619.546	0.0130221
619.624	0.0130170
619.703	0.0129044
619.781	0.0130166
619.859	0.0129176
619.937	0.0128918
620.015	0.0129371
620.093	0.0129499
620.171	0.0128979
620.249	0.0129371
620.328	0.0129790
620.406	0.0129114
620.484	0.0128777
620.562	0.0128826
620.640	0.0129970
620.718	0.0129984
620.796	0.0129458
620.874	0.0128870
620.953	0.0129804
621.031	0.0129695
621.109	0.0129703
621.187	0.0130230
621.265	0.0129346
621.343	0.0129662
621.421	0.0129397
621.499	0.0129349
621.578	0.0128798
621.656	0.0129147
621.734	0.0128333
621.812	0.0129693
621.890	0.0129450
621.968	0.0129556
622.046	0.0129048
622.124	0.0129105
622.203	0.0130164
622.281	0.0128624
622.359	0.0130249
622.437	0.0131132
622.515	0.0128441
622.593	0.0129417
622.671	0.0128880
622.749	0.0129685
622.828	0.0130019
622.906	0.0127959
622.984	0.0129059
623.062	0.0129136
623.140	0.0128908
623.218	0.0129665
623.296	0.0129536
623.374	0.0128811
623.453	0.0128535
623.531	0.0130283
623.609	0.0130215
623.687	0.0127408
623.765	0.0128648
623.843	0.0129166
623.921	0.0127703
623.999	0.0127661
624.078	0.0129383
624.156	0.0129834
624.234	0.0129314
624.312	0.0129056
624.390	0.0128545
624.468	0.0129536
624.546	0.0129026
624.624	0.0130359
624.703	0.0129252
624.781	0.0130819
624.859	0.0128521
624.937	0.0128585
625.015	0.0128308
625.093	0.0129797
625.171	0.0130556
625.249	0.0129721
625.328	0.0130043
625.406	0.0131303
625.484	0.0128983
625.562	0.0128742
625.640	0.0128954
625.718	0.0129401
625.796	0.0129713
625.874	0.0129915
625.953	0.0129129
626.031	0.0130181
626.109	0.0130333
626.187	0.0130584
626.265	0.0128642
626.343	0.0128085
626.421	0.0129523
626.499	0.0129530
626.578	0.0127841
626.656	0.0129794
626.734	0.0128687
626.812	0.0129673
626.890	0.0128548
626.968	0.0129322
627.046	0.0129430
627.124	0.0129133
627.203	0.0128848
627.281	0.0129794
627.359	0.0129257
627.437	0.0129451
627.515	0.0129675
627.593	0.0129227
627.671	0.0127984
627.749	0.0128624
627.828	0.0128799
627.906	0.0129153
627.984	0.0128922
628.062	0.0129028
628.140	0.0131489
628.218	0.0130196
628.296	0.0129230
628.374	0.0129539
628.453	0.0129094
628.531	0.0129488
628.609	0.0130071
628.687	0.0129868
628.765	0.0129145
628.843	0.0128940
628.921	0.0129287
628.999	0.0129636
629.078	0.0129615
629.156	0.0129711
629.234	0.0128275
629.312	0.0127711
629.390	0.0128461
629.468	0.0129202
629.546	0.0129939
629.624	0.0129186
629.703	0.0128476
629.781	0.0128037
629.859	0.0128848
629.937	0.0128914
630.015	0.0128216
630.093	0.0129161
630.171	0.0129108
630.249	0.0129749
630.328	0.0130610
630.406	0.0129537
630.484	0.0130079
630.562	0.0129689
630.640	0.0129285
630.718	0.0128855
630.796	0.0129675
630.874	0.0128201
630.953	0.0130505
631.031	0.0129551
631.109	0.0128491
631.187	0.0129343
631.265	0.0130116
631.343	0.0130211
631.421	0.0128994
631.499	0.0130598
631.578	0.0129408
631.656	0.0128964
631.734	0.0129474
631.812	0.0129752
631.890	0.0129427
631.968	0.0129137
632.046	0.0129670
632.124	0.0130733
632.203	0.0130085
632.281	0.0128468
632.359	0.0128676
632.437	0.0129929
632.515	0.0129128
632.593	0.0128220
632.671	0.0131351
632.749	0.0130193
632.828	0.0128522
632.906	0.0129488
632.984	0.0129338
633.062	0.0129555
633.140	0.0129827
633.218	0.0131056
633.296	0.0129328
633.374	0.0129879
633.453	0.0128688
633.531	0.0129314
633.609	0.0129297
633.687	0.0129002
633.765	0.0128680
633.843	0.0128756
633.921	0.0129161
633.999	0.0128812
634.078	0.0129574
634.156	0.0128831
634.234	0.0128455
634.312	0.0129259
634.390	0.0130100
634.468	0.0129428
634.546	0.0128894
634.624	0.0129369
634.703	0.0129909
634.781	0.0129813
634.859	0.0127752
634.937	0.0129396
635.015	0.0130780
635.093	0.0129237
635.171	0.0129081
635.249	0.0129438
635.328	0.0128909
635.406	0.0129630
635.484	0.0129191
635.562	0.0129648
635.640	0.0130271
635.718	0.0129406
635.796	0.0128982
635.874	0.0129156
635.953	0.0129270
636.031	0.0130636
636.109	0.0128887
636.187	0.0128139
636.265	0.0128679
636.343	0.0129813
636.421	0.0129755
636.499	0.0129056
636.578	0.0129543
636.656	0.0129111
636.734	0.0129388
636.812	0.0129372
636.890	0.0130190
636.968	0.0131047
637.046	0.0129255
637.124	0.0130077
637.203	0.0130074
637.281	0.0129014
637.359	0.0128255
637.437	0.0128738
637.515	0.0129219
637.593	0.0128728
637.671	0.0128629
637.749	0.0128230
637.828	0.0127840
637.906	0.0130125
637.984	0.0129408
638.062	0.0129477
638.140	0.0129591
638.218	0.0128645
638.296	0.0128331
638.374	0.0128288
638.453	0.0128582
638.531	0.0128764
638.609	0.0130252
638.687	0.0130427
638.765	0.0129114
638.843	0.0130751
638.921	0.0129636
638.999	0.0128593
639.078	0.0129791
639.156	0.0130183
639.234	0.0130518
639.312	0.0128799
639.390	0.0129285
639.468	0.0130988
639.546	0.0128027
639.624	0.0128390
639.703	0.0130943
639.781	0.0128501
639.859	0.0128777
639.937	0.0130452
640.015	0.0128618
640.093	0.0128323
640.171	0.0129310
640.249	0.0130019
640.328	0.0128724
640.406	0.0128282
640.484	0.0129548
640.562	0.0129411
640.640	0.0129314
640.718	0.0130537
640.796	0.0129736
640.874	0.0129137
640.953	0.0128719
641.031	0.0128761
641.109	0.0129499
641.187	0.0129148
641.265	0.0129881
641.343	0.0129581
641.421	0.0128025
641.499	0.0130238
641.578	0.0128900
641.656	0.0128803
641.734	0.0128702
641.812	0.0128555
641.890	0.0129018
641.968	0.0129874
642.046	0.0129360
642.124	0.0129784
642.203	0.0129378
642.281	0.0129520
642.359	0.0129613
642.437	0.0128812
642.515	0.0130085
642.593	0.0127678
642.671	0.0128908
642.749	0.0128838
642.828	0.0127824
642.906	0.0129049
642.984	0.0129715
643.062	0.0130015
643.140	0.0129119
643.218	0.0128785
643.296	0.0128412
643.374	0.0130176
643.453	0.0129553
643.531	0.0127766
643.609	0.0129071
643.687	0.0130471
643.765	0.0129164
643.843	0.0129783
643.921	0.0127086
643.999	0.0129341
644.078	0.0129762
644.156	0.0128122
644.234	0.0130241
644.312	0.0128490
644.390	0.0129490
644.468	0.0130347
644.546	0.0129858
644.624	0.0129417
644.703	0.0130114
644.781	0.0129449
644.859	0.0128297
644.937	0.0127626
645.015	0.0129700
645.093	0.0129453
645.171	0.0129847
645.249	0.0129760
645.328	0.0128573
645.406	0.0129299
645.484	0.0129460
645.562	0.0127393
645.640	0.0129716
645.718	0.0130516
645.796	0.0129658
645.874	0.0128769
645.953	0.0128631
646.031	0.0130656
646.109	0.0130320
646.187	0.0129163
646.265	0.0128297
646.343	0.0127192
646.421	0.0129427
646.499	0.0129160
646.578	0.0129253
646.656	0.0129283
646.734	0.0128841
646.812	0.0129198
646.890	0.0130743
646.968	0.0129948
647.046	0.0130074
647.124	0.0129704
647.203	0.0129865
647.281	0.0128306
647.359	0.0128568
647.437	0.0129185
647.515	0.0130357
647.593	0.0129185
647.671	0.0129901
647.749	0.0130333
647.828	0.0130261
647.906	0.0129496
647.984	0.0130152
648.062	0.0129401
648.140	0.0129140
648.218	0.0128365
648.296	0.0129350
648.374	0.0129532
648.453	0.0130550
648.531	0.0129312
648.609	0.0130045
648.687	0.0130140
648.765	0.0128820
648.843	0.0129616
648.921	0.0130244
648.999	0.0128967
649.078	0.0128944
649.156	0.0129393
649.234	0.0129456
649.312	0.0129703
649.390	0.0128642
649.468	0.0129456
649.546	0.0130630
649.624	0.0130304
649.703	0.0130003
649.781	0.0129599
649.859	0.0130346
649.937	0.0129285
650.015	0.0128769
650.093	0.0129637
650.171	0.0129405
650.249	0.0130343
650.328	0.0128378
650.406	0.0129173
650.484	0.0130356
650.562	0.0129661
650.640	0.0128490
650.718	0.0128695
650.796	0.0128793
650.874	0.0129186
650.953	0.0129729
651.031	0.0128564
651.109	0.0130304
651.187	0.0129613
651.265	0.0130730
651.343	0.0129130
651.421	0.0129115
651.499	0.0129084
651.578	0.0129760
651.656	0.0129563
651.734	0.0128865
651.812	0.0129050
651.890	0.0128564
651.968	0.0130102
652.046	0.0128633
652.124	0.0129662
652.203	0.0129659
652.281	0.0128492
652.359	0.0130744
652.437	0.0129884
652.515	0.0129716
652.593	0.0129781
652.671	0.0128954
652.749	0.0129868
652.828	0.0130460
652.906	0.0129690
652.984	0.0130244
653.062	0.0129862
653.140	0.0127996
653.218	0.0129678
653.296	0.0129173
653.374	0.0128875
653.453	0.0128461
653.531	0.0129192
653.609	0.0129330
653.687	0.0131143
653.765	0.0129291
653.843	0.0128278
653.921	0.0128898
653.999	0.0129792
654.078	0.0129308
654.156	0.0130965
654.234	0.0129834
654.312	0.0129024
654.390	0.0129939
654.468	0.0130083
654.546	0.0129740
654.624	0.0128949
654.703	0.0128584
654.781	0.0129823
654.859	0.0129150
654.937	0.0129371
655.015	0.0129060
655.093	0.0127888
655.171	0.0129093
655.249	0.0128938
655.328	0.0127065
655.406	0.0129858
655.484	0.0128650
655.562	0.0129490
655.640	0.0129258
655.718	0.0129274
655.796	0.0128137
655.874	0.0129288
655.953	0.0130004
656.031	0.0129659
656.109	0.0129279
656.187	0.0130290
656.265	0.0130644
656.343	0.0129456
656.421	0.0128201
656.499	0.0129411
656.578	0.0128890
656.656	0.0128887
656.734	0.0130508
656.812	0.0129311
656.890	0.0128410
656.968	0.0128821
657.046	0.0129948
657.124	0.0129070
657.203	0.0128226
657.281	0.0128934
657.359	0.0129250
657.437	0.0129423
657.515	0.0129062
657.593	0.0129159
657.671	0.0128450
657.749	0.0129276
657.828	0.0129815
657.906	0.0130386
657.984	0.0129963
658.062	0.0129393
658.140	0.0129581
658.218	0.0130180
658.296	0.0129585
658.374	0.0128795
658.453	0.0128701
658.531	0.0130151
658.609	0.0129344
658.687	0.0129237
658.765	0.0128152
658.843	0.0130074
658.921	0.0128717
658.999	0.0128442
659.078	0.0129502
659.156	0.0129907
659.234	0.0128992
659.312	0.0127935
659.390	0.0127520
659.468	0.0129676
659.546	0.0129070
659.624	0.0127600
659.703	0.0129288
659.781	0.0129169
659.859	0.0129933
659.937	0.0130094
660.015	0.0129469
660.093	0.0129311
660.171	0.0128177
660.249	0.0129020
660.328	0.0128673
660.406	0.0130636
660.484	0.0129915
660.562	0.0128212
660.640	0.0129108
660.718	0.0129807
660.796	0.0130524
660.874	0.0130681
660.953	0.0130336
661.031	0.0129607
661.109	0.0129755
661.187	0.0129569
661.265	0.0129512
661.343	0.0129009
661.421	0.0129762
661.499	0.0130223
661.578	0.0130056
661.656	0.0130761
661.734	0.0129320
661.812	0.0129453
661.890	0.0129350
661.968	0.0130506
662.046	0.0129601
662.124	0.0129191
662.203	0.0128371
662.281	0.0127583
662.359	0.0130392
662.437	0.0130035
662.515	0.0128600
662.593	0.0131010
662.671	0.0129607
662.749	0.0128858
662.828	0.0130427
662.906	0.0129892
662.984	0.0128825
663.062	0.0129904
663.140	0.0129755
663.218	0.0129088
663.296	0.0128957
663.374	0.0129660
663.453	0.0129007
663.531	0.0129520
663.609	0.0130102
663.687	0.0130329
663.765	0.0131519
663.843	0.0127969
663.921	0.0129540
663.999	0.0129229
664.078	0.0128696
664.156	0.0129836
664.234	0.0130395
664.312	0.0129690
664.390	0.0130686
664.468	0.0128944
664.546	0.0128709
664.624	0.0130323
664.703	0.0129285
664.781	0.0129046
664.859	0.0129661
664.937	0.0129102
665.015	0.0130176
665.093	0.0128322
665.171	0.0128365
665.249	0.0130256
665.328	0.0130412
665.406	0.0129252
665.484	0.0129122
665.562	0.0130143
665.640	0.0128612
665.718	0.0130341
665.796	0.0128631
665.874	0.0130366
665.953	0.0130581
666.031	0.0129758
666.109	0.0128688
666.187	0.0129741
666.265	0.0129934
666.343	0.0128704
666.421	0.0129051
666.499	0.0128889
666.578	0.0129159
666.656	0.0130177
666.734	0.0129584
666.812	0.0130470
666.890	0.0130050
666.968	0.0130276
667.046	0.0129436
667.124	0.0128638
667.203	0.0130920
667.281	0.0129982
667.359	0.0129469
667.437	0.0130352
667.515	0.0130403
667.593	0.0130013
667.671	0.0128864
667.749	0.0128472
667.828	0.0128927
667.906	0.0128693
667.984	0.0129197
668.062	0.0129482
668.140	0.0127806
668.218	0.0129444
668.296	0.0128698
668.374	0.0129647
668.453	0.0129582
668.531	0.0128949
668.609	0.0128774
668.687	0.0127256
668.765	0.0128571
668.843	0.0129785
668.921	0.0130066
668.999	0.0128633
669.078	0.0128722
669.156	0.0128914
669.234	0.0128742
669.312	0.0128417
669.390	0.0129816
669.468	0.0129270
669.546	0.0128398
669.624	0.0128684
669.703	0.0128277
669.781	0.0129298
669.859	0.0128439
669.937	0.0129208
670.015	0.0128840
670.093	0.0129550
670.171	0.0128200
670.249	0.0126839
670.328	0.0128603
670.406	0.0128176
670.484	0.0128349
670.562	0.0128512
670.640	0.0128214
670.718	0.0128139
670.796	0.0129323
670.874	0.0128640
670.953	0.0128696
671.031	0.0128627
671.109	0.0128735
671.187	0.0129781
671.265	0.0128841
671.343	0.0128814
671.421	0.0128353
671.499	0.0128139
671.578	0.0128876
671.656	0.0128351
671.734	0.0129517
671.812	0.0129539
671.890	0.0127682
671.968	0.0128027
672.046	0.0128768
672.124	0.0128824
672.203	0.0128757
672.281	0.0129705
672.359	0.0129141
672.437	0.0129535
672.515	0.0128229
672.593	0.0129170
672.671	0.0130556
672.749	0.0129650
672.828	0.0128778
672.906	0.0128587
672.984	0.0128634
673.062	0.0128514
673.140	0.0130045
673.218	0.0129686
673.296	0.0128318
673.374	0.0130522
673.453	0.0129600
673.531	0.0129669
673.609	0.0129676
673.687	0.0130222
673.765	0.0129002
673.843	0.0129096
673.921	0.0130327
673.999	0.0130351
674.078	0.0129254
674.156	0.0130008
674.234	0.0128641
674.312	0.0128477
674.390	0.0129868
674.468	0.0130685
674.546	0.0129100
674.624	0.0130056
674.703	0.0128989
674.781	0.0130489
674.859	0.0131364
674.937	0.0130770
675.015	0.0130738
675.093	0.0129713
675.171	0.0129621
675.249	0.0130109
675.328	0.0129230
675.406	0.0129326
675.484	0.0129758
675.562	0.0130114
675.640	0.0129330
675.718	0.0130264
675.796	0.0130386
675.874	0.0130386
675.953	0.0130753
676.031	0.0129491
676.109	0.0131084
676.187	0.0130769
676.265	0.0129581
676.343	0.0130350
676.421	0.0131325
676.499	0.0130400
676.578	0.0129562
676.656	0.0130365
676.734	0.0132359
676.812	0.0131709
676.890	0.0129559
676.968	0.0130009
677.046	0.0129398
677.124	0.0129567
677.203	0.0131187
677.281	0.0130724
677.359	0.0130622
677.437	0.0130436
677.515	0.0131268
677.593	0.0129322
677.671	0.0129311
677.749	0.0131150
677.828	0.0130643
677.906	0.0131520
677.984	0.0130746
678.062	0.0130534
678.140	0.0130408
678.218	0.0131188
678.296	0.0129830
678.374	0.0129411
678.453	0.0130208
678.531	0.0132056
678.609	0.0130392
678.687	0.0131036
678.765	0.0130604
678.843	0.0129997
678.921	0.0129557
678.999	0.0129890
679.078	0.0131375
679.156	0.0131074
679.234	0.0131228
679.312	0.0131075
679.390	0.0130286
679.468	0.0130569
679.546	0.0131172
679.624	0.0131760
679.703	0.0131180
679.781	0.0131641
679.859	0.0129822
679.937	0.0129659
680.015	0.0130807
680.093	0.0130331
680.171	0.0130068
680.249	0.0130523
680.328	0.0131426
680.406	0.0131360
680.484	0.0129216
680.562	0.0129530
680.640	0.0129864
680.718	0.0130566
680.796	0.0130232
680.874	0.0130524
680.953	0.0129292
681.031	0.0130170
681.109	0.0130232
681.187	0.0130749
681.265	0.0131394
681.343	0.0129249
681.421	0.0131293
681.499	0.0132136
681.578	0.0129034
681.656	0.0129800
681.734	0.0130534
681.812	0.0130954
681.890	0.0130747
681.968	0.0129450
682.046	0.0130595
682.124	0.0129236
682.203	0.0129996
682.281	0.0130763
682.359	0.0131073
682.437	0.0130682
682.515	0.0128445
682.593	0.0131054
682.671	0.0131619
682.749	0.0130688
682.828	0.0130511
682.906	0.0129573
682.984	0.0130231
683.062	0.0130770
683.140	0.0129723
683.218	0.0130449
683.296	0.0131114
683.374	0.0130501
683.453	0.0129667
683.531	0.0130740
683.609	0.0128918
683.687	0.0128981
683.765	0.0129326
683.843	0.0129340
683.921	0.0130025
683.999	0.0130135
684.078	0.0130647
684.156	0.0128691
684.234	0.0128972
684.312	0.0129314
684.390	0.0129556
684.468	0.0129702
684.546	0.0130077
684.624	0.0130427
684.703	0.0129817
684.781	0.0129305
684.859	0.0128489
684.937	0.0129608
685.015	0.0129587
685.093	0.0129758
685.171	0.0129807
685.249	0.0129449
685.328	0.0129193
685.406	0.0130975
685.484	0.0129733
685.562	0.0130507
685.640	0.0128641
685.718	0.0129122
