05/19/2022	00:37:23	Ver.	4.1	UNKNOWN
Optical Delay	630.009178	Delta X		0.078125	Sweeps	1	Scan Rate	0/0
Coordinates	Axis 1	NaN	Axis 2	NaN	Axis 3	NaN	Axis 4	NaN	Axis 5	NaN	Axis 6	0.000000
TX Power	0.000000	RX Power	0.000000

630.009	0.0158649
630.087	0.0158202
630.165	0.0158898
630.244	0.0158450
630.322	0.0158521
630.400	0.0159016
630.478	0.0158807
630.556	0.0158733
630.634	0.0158434
630.712	0.0158795
630.790	0.0159315
630.869	0.0160422
630.947	0.0158899
631.025	0.0157861
631.103	0.0158360
631.181	0.0159183
631.259	0.0159458
631.337	0.0159124
631.415	0.0158048
631.494	0.0158379
631.572	0.0159724
631.650	0.0158377
631.728	0.0158611
631.806	0.0158378
631.884	0.0158449
631.962	0.0157959
632.040	0.0157899
632.119	0.0158915
632.197	0.0159933
632.275	0.0158625
632.353	0.0160767
632.431	0.0159393
632.509	0.0158972
632.587	0.0157920
632.665	0.0158212
632.744	0.0159665
632.822	0.0157964
632.900	0.0157228
632.978	0.0158426
633.056	0.0158266
633.134	0.0159118
633.212	0.0159016
633.290	0.0159081
633.369	0.0158360
633.447	0.0159397
633.525	0.0157549
633.603	0.0158337
633.681	0.0158910
633.759	0.0158562
633.837	0.0158614
633.915	0.0158672
633.994	0.0159519
634.072	0.0159119
634.150	0.0157666
634.228	0.0158784
634.306	0.0158817
634.384	0.0158192
634.462	0.0157667
634.540	0.0160429
634.619	0.0158852
634.697	0.0158971
634.775	0.0159460
634.853	0.0159122
634.931	0.0158677
635.009	0.0159538
635.087	0.0159093
635.165	0.0158375
635.244	0.0159025
635.322	0.0159389
635.400	0.0160044
635.478	0.0158377
635.556	0.0158664
635.634	0.0159458
635.712	0.0160009
635.790	0.0159461
635.869	0.0158253
635.947	0.0157936
636.025	0.0160000
636.103	0.0159237
636.181	0.0158707
636.259	0.0157791
636.337	0.0158006
636.415	0.0158522
636.494	0.0159187
636.572	0.0159431
636.650	0.0160285
636.728	0.0159038
636.806	0.0158827
636.884	0.0158427
636.962	0.0158553
637.040	0.0158364
637.119	0.0158559
637.197	0.0159612
637.275	0.0158553
637.353	0.0159425
637.431	0.0159277
637.509	0.0159853
637.587	0.0156924
637.665	0.0159619
637.744	0.0160349
637.822	0.0158784
637.900	0.0159407
637.978	0.0158874
638.056	0.0158937
638.134	0.0159230
638.212	0.0158018
638.290	0.0159441
638.369	0.0157892
638.447	0.0158657
638.525	0.0159431
638.603	0.0159095
638.681	0.0159757
638.759	0.0158303
638.837	0.0159332
638.915	0.0159484
638.994	0.0159226
639.072	0.0159392
639.150	0.0160216
639.228	0.0160044
639.306	0.0158721
639.384	0.0158665
639.462	0.0159826
639.540	0.0159626
639.619	0.0158320
639.697	0.0158881
639.775	0.0158949
639.853	0.0159702
639.931	0.0159084
640.009	0.0157951
640.087	0.0160018
640.165	0.0159173
640.244	0.0159376
640.322	0.0159576
640.400	0.0159171
640.478	0.0158952
640.556	0.0157493
640.634	0.0159106
640.712	0.0159167
640.790	0.0156413
640.869	0.0158411
640.947	0.0158677
641.025	0.0158968
641.103	0.0159055
641.181	0.0159435
641.259	0.0157614
641.337	0.0158207
641.415	0.0157674
641.494	0.0158820
641.572	0.0158752
641.650	0.0158897
641.728	0.0158455
641.806	0.0158015
641.884	0.0158321
641.962	0.0158585
642.040	0.0159634
642.119	0.0158047
642.197	0.0159264
642.275	0.0157791
642.353	0.0158277
642.431	0.0158931
642.509	0.0159023
642.587	0.0157988
642.665	0.0157983
642.744	0.0157945
642.822	0.0160141
642.900	0.0159723
642.978	0.0158889
643.056	0.0160336
643.134	0.0158255
643.212	0.0158195
643.290	0.0159984
643.369	0.0158956
643.447	0.0157952
643.525	0.0157546
643.603	0.0159681
643.681	0.0159442
643.759	0.0159393
643.837	0.0159035
643.915	0.0158546
643.994	0.0158568
644.072	0.0157943
644.150	0.0158724
644.228	0.0158471
644.306	0.0159178
644.384	0.0157845
644.462	0.0158329
644.540	0.0159167
644.619	0.0159011
644.697	0.0159191
644.775	0.0159107
644.853	0.0158125
644.931	0.0158772
645.009	0.0158186
645.087	0.0158723
645.165	0.0158768
645.244	0.0159434
645.322	0.0157698
645.400	0.0159010
645.478	0.0157990
645.556	0.0158510
645.634	0.0159805
645.712	0.0159719
645.790	0.0158305
645.869	0.0159252
645.947	0.0158386
646.025	0.0158357
646.103	0.0159888
646.181	0.0159359
646.259	0.0158344
646.337	0.0158199
646.415	0.0158425
646.494	0.0159402
646.572	0.0158769
646.650	0.0158069
646.728	0.0158142
646.806	0.0157702
646.884	0.0159828
646.962	0.0158410
647.040	0.0159067
647.119	0.0159135
647.197	0.0159200
647.275	0.0160462
647.353	0.0158582
647.431	0.0159138
647.509	0.0158911
647.587	0.0159750
647.665	0.0158556
647.744	0.0159000
647.822	0.0159623
647.900	0.0158140
647.978	0.0158470
648.056	0.0157425
648.134	0.0158266
648.212	0.0158636
648.290	0.0159323
648.369	0.0159290
648.447	0.0159695
648.525	0.0158475
648.603	0.0159229
648.681	0.0158151
648.759	0.0159850
648.837	0.0159161
648.915	0.0159152
648.994	0.0159267
649.072	0.0159105
649.150	0.0159009
649.228	0.0158601
649.306	0.0157841
649.384	0.0157752
649.462	0.0157973
649.540	0.0158248
649.619	0.0157407
649.697	0.0158150
649.775	0.0158425
649.853	0.0158096
649.931	0.0160299
650.009	0.0157830
650.087	0.0158094
650.165	0.0159502
650.244	0.0157650
650.322	0.0158424
650.400	0.0158879
650.478	0.0158627
650.556	0.0158659
650.634	0.0159523
650.712	0.0158910
650.790	0.0158160
650.869	0.0159486
650.947	0.0158144
651.025	0.0158479
651.103	0.0159254
651.181	0.0159264
651.259	0.0159385
651.337	0.0158817
651.415	0.0158642
651.494	0.0159063
651.572	0.0157450
651.650	0.0158902
651.728	0.0158875
651.806	0.0158789
651.884	0.0158604
651.962	0.0158324
652.040	0.0158057
652.119	0.0158192
652.197	0.0157342
652.275	0.0158813
652.353	0.0158458
652.431	0.0159160
652.509	0.0158503
652.587	0.0157383
652.665	0.0158028
652.744	0.0158482
652.822	0.0159101
652.900	0.0158630
652.978	0.0158086
653.056	0.0157932
653.134	0.0159380
653.212	0.0159694
653.290	0.0159679
653.369	0.0160608
653.447	0.0158305
653.525	0.0159016
653.603	0.0159263
653.681	0.0156702
653.759	0.0157899
653.837	0.0158906
653.915	0.0159150
653.994	0.0159547
654.072	0.0159695
654.150	0.0158852
654.228	0.0158769
654.306	0.0158319
654.384	0.0158223
654.462	0.0158717
654.540	0.0159460
654.619	0.0160029
654.697	0.0159003
654.775	0.0159194
654.853	0.0158564
654.931	0.0159321
655.009	0.0160030
655.087	0.0159170
655.165	0.0158968
655.244	0.0158455
655.322	0.0159621
655.400	0.0159763
655.478	0.0159795
655.556	0.0159380
655.634	0.0158115
655.712	0.0158736
655.790	0.0158165
655.869	0.0158415
655.947	0.0158082
656.025	0.0158000
656.103	0.0157426
656.181	0.0157537
656.259	0.0158774
656.337	0.0158461
656.415	0.0159268
656.494	0.0157817
656.572	0.0158895
656.650	0.0159487
656.728	0.0156879
656.806	0.0158824
656.884	0.0158228
656.962	0.0156979
657.040	0.0156945
657.119	0.0157502
657.197	0.0158980
657.275	0.0160582
657.353	0.0158012
657.431	0.0158261
657.509	0.0159802
657.587	0.0158987
657.665	0.0157672
657.744	0.0157421
657.822	0.0158160
657.900	0.0158521
657.978	0.0157640
658.056	0.0158109
658.134	0.0158291
658.212	0.0157549
658.290	0.0158290
658.369	0.0158683
658.447	0.0158500
658.525	0.0156673
658.603	0.0159348
658.681	0.0158479
658.759	0.0159080
658.837	0.0158839
658.915	0.0158038
658.994	0.0158723
659.072	0.0158206
659.150	0.0157989
659.228	0.0157592
659.306	0.0156618
659.384	0.0158767
659.462	0.0157465
659.540	0.0157957
659.619	0.0159293
659.697	0.0158044
659.775	0.0159000
659.853	0.0157717
659.931	0.0156440
660.009	0.0158028
660.087	0.0156458
660.165	0.0157618
660.244	0.0158195
660.322	0.0157776
660.400	0.0158369
660.478	0.0158113
660.556	0.0158268
660.634	0.0159548
660.712	0.0158381
660.790	0.0157813
660.869	0.0159608
660.947	0.0156309
661.025	0.0157361
661.103	0.0157904
661.181	0.0157478
661.259	0.0158895
661.337	0.0158398
661.415	0.0158833
661.494	0.0158382
661.572	0.0158676
661.650	0.0157485
661.728	0.0157275
661.806	0.0157905
661.884	0.0158279
661.962	0.0158814
662.040	0.0159656
662.119	0.0157089
662.197	0.0157235
662.275	0.0158865
662.353	0.0159267
662.431	0.0157808
662.509	0.0157696
662.587	0.0157831
662.665	0.0157679
662.744	0.0159113
662.822	0.0157977
662.900	0.0158368
662.978	0.0159070
663.056	0.0158462
663.134	0.0157370
663.212	0.0158440
663.290	0.0158369
663.369	0.0158470
663.447	0.0158414
663.525	0.0159254
663.603	0.0158379
663.681	0.0157745
663.759	0.0158876
663.837	0.0158131
663.915	0.0157272
663.994	0.0157581
664.072	0.0157735
664.150	0.0157221
664.228	0.0158730
664.306	0.0157282
664.384	0.0157827
664.462	0.0157603
664.540	0.0158826
664.619	0.0159182
664.697	0.0159081
664.775	0.0157875
664.853	0.0157613
664.931	0.0159734
665.009	0.0157394
665.087	0.0158784
665.165	0.0158865
665.244	0.0158667
665.322	0.0158012
665.400	0.0158395
665.478	0.0158797
665.556	0.0158355
665.634	0.0159336
665.712	0.0157311
665.790	0.0159136
665.869	0.0160449
665.947	0.0158104
666.025	0.0158680
666.103	0.0158714
666.181	0.0158487
666.259	0.0160459
666.337	0.0158936
666.415	0.0158903
666.494	0.0158601
666.572	0.0157950
666.650	0.0159192
666.728	0.0159980
666.806	0.0159977
666.884	0.0159699
666.962	0.0158878
667.040	0.0159733
667.119	0.0159605
667.197	0.0159692
667.275	0.0160419
667.353	0.0160080
667.431	0.0158379
667.509	0.0159758
667.587	0.0160516
667.665	0.0159873
667.744	0.0160457
667.822	0.0159318
667.900	0.0160414
667.978	0.0159753
668.056	0.0160444
668.134	0.0160318
668.212	0.0158958
668.290	0.0157599
668.369	0.0159307
668.447	0.0160460
668.525	0.0159636
668.603	0.0161720
668.681	0.0161384
668.759	0.0159708
668.837	0.0158862
668.915	0.0160110
668.994	0.0160529
669.072	0.0159818
669.150	0.0160490
669.228	0.0160060
669.306	0.0159847
669.384	0.0158910
669.462	0.0160047
669.540	0.0160004
669.619	0.0161498
669.697	0.0159051
669.775	0.0159991
669.853	0.0159328
669.931	0.0160011
670.009	0.0158884
670.087	0.0159375
670.165	0.0160145
670.244	0.0160577
670.322	0.0160539
670.400	0.0159399
670.478	0.0159934
670.556	0.0159081
670.634	0.0159312
670.712	0.0159016
670.790	0.0159034
670.869	0.0161185
670.947	0.0159476
671.025	0.0158759
671.103	0.0159854
671.181	0.0158621
671.259	0.0158810
671.337	0.0159557
671.415	0.0160086
671.494	0.0159172
671.572	0.0159707
671.650	0.0157972
671.728	0.0158639
671.806	0.0159613
671.884	0.0159501
671.962	0.0159848
672.040	0.0158119
672.119	0.0159721
672.197	0.0158114
672.275	0.0158115
672.353	0.0159644
672.431	0.0158767
672.509	0.0158693
672.587	0.0158195
672.665	0.0158596
672.744	0.0159478
672.822	0.0157730
672.900	0.0157253
672.978	0.0159172
673.056	0.0158253
673.134	0.0158527
673.212	0.0156384
673.290	0.0159157
673.369	0.0157796
673.447	0.0158258
673.525	0.0157621
673.603	0.0158776
673.681	0.0158818
673.759	0.0157883
673.837	0.0156897
673.915	0.0157867
673.994	0.0159773
674.072	0.0157435
674.150	0.0156867
674.228	0.0157059
674.306	0.0157068
674.384	0.0157694
674.462	0.0157852
674.540	0.0158255
674.619	0.0157582
674.697	0.0157461
674.775	0.0156937
674.853	0.0157413
674.931	0.0157926
675.009	0.0158364
675.087	0.0158578
675.165	0.0155833
675.244	0.0158482
675.322	0.0157082
675.400	0.0159112
675.478	0.0157560
675.556	0.0158611
675.634	0.0157609
675.712	0.0157756
675.790	0.0157121
675.869	0.0157833
675.947	0.0158334
676.025	0.0158387
676.103	0.0159047
676.181	0.0158337
676.259	0.0158629
676.337	0.0156727
676.415	0.0157478
676.494	0.0158076
676.572	0.0158651
676.650	0.0158105
676.728	0.0159911
676.806	0.0159116
676.884	0.0157507
676.962	0.0157255
677.040	0.0157350
677.119	0.0158432
677.197	0.0159038
677.275	0.0158990
677.353	0.0157221
677.431	0.0158355
677.509	0.0157705
677.587	0.0159207
677.665	0.0158426
677.744	0.0158250
677.822	0.0159532
677.900	0.0158483
677.978	0.0158513
678.056	0.0158188
678.134	0.0157552
678.212	0.0158485
678.290	0.0159533
678.369	0.0159350
678.447	0.0157899
678.525	0.0157595
678.603	0.0158398
678.681	0.0157600
678.759	0.0159760
678.837	0.0158773
678.915	0.0157826
678.994	0.0158620
679.072	0.0159336
679.150	0.0158693
679.228	0.0157704
679.306	0.0159487
679.384	0.0158238
679.462	0.0158606
679.540	0.0158517
679.619	0.0157917
679.697	0.0159414
679.775	0.0157381
679.853	0.0158400
679.931	0.0158406
680.009	0.0156751
680.087	0.0159385
680.165	0.0159092
680.244	0.0158801
680.322	0.0158255
680.400	0.0157658
680.478	0.0156764
680.556	0.0158874
680.634	0.0159233
680.712	0.0157677
680.790	0.0158317
680.869	0.0159387
680.947	0.0159481
681.025	0.0158697
681.103	0.0159800
681.181	0.0157010
681.259	0.0157650
681.337	0.0158637
681.415	0.0159307
681.494	0.0159509
681.572	0.0158208
681.650	0.0158957
681.728	0.0158317
681.806	0.0157005
681.884	0.0158971
681.962	0.0159160
682.040	0.0158127
682.119	0.0157984
682.197	0.0159636
682.275	0.0158572
682.353	0.0159331
682.431	0.0159912
682.509	0.0159898
682.587	0.0159698
682.665	0.0160886
682.744	0.0159585
682.822	0.0158422
682.900	0.0158971
682.978	0.0158369
683.056	0.0156563
683.134	0.0155025
683.212	0.0154106
683.290	0.0154411
683.369	0.0152814
683.447	0.0150323
683.525	0.0150481
683.603	0.0149952
683.681	0.0149300
683.759	0.0151263
683.837	0.0152184
683.915	0.0151729
683.994	0.0154092
684.072	0.0156467
684.150	0.0158566
684.228	0.0159512
684.306	0.0162502
684.384	0.0163456
684.462	0.0165679
684.540	0.0167371
684.619	0.0166974
684.697	0.0167121
684.775	0.0167980
684.853	0.0166735
684.931	0.0167033
685.009	0.0166798
685.087	0.0163468
685.165	0.0162173
685.244	0.0162256
685.322	0.0159805
685.400	0.0156940
685.478	0.0156020
685.556	0.0154951
685.634	0.0153927
685.712	0.0152187
685.790	0.0150199
685.869	0.0149664
685.947	0.0149767
686.025	0.0150861
686.103	0.0151791
686.181	0.0152013
686.259	0.0152308
686.337	0.0154262
686.415	0.0155134
686.494	0.0156883
686.572	0.0159242
686.650	0.0159409
686.728	0.0161099
686.806	0.0162469
686.884	0.0163594
686.962	0.0166027
687.040	0.0169855
687.119	0.0169125
687.197	0.0170553
687.275	0.0172351
687.353	0.0173466
687.431	0.0172217
687.509	0.0171530
687.587	0.0170168
687.665	0.0169798
687.744	0.0167253
687.822	0.0163898
687.900	0.0161147
687.978	0.0158614
688.056	0.0156402
688.134	0.0153053
688.212	0.0148691
688.290	0.0147763
688.369	0.0143497
688.447	0.0143454
688.525	0.0141784
688.603	0.0142250
688.681	0.0141033
688.759	0.0141724
688.837	0.0142374
688.915	0.0144392
688.994	0.0146380
689.072	0.0147237
689.150	0.0149624
689.228	0.0152615
689.306	0.0156638
689.384	0.0159131
689.462	0.0160761
689.540	0.0163658
689.619	0.0166759
689.697	0.0168962
689.775	0.0172047
689.853	0.0173462
689.931	0.0175044
690.009	0.0176673
690.087	0.0176202
690.165	0.0175117
690.244	0.0175004
690.322	0.0173959
690.400	0.0172916
690.478	0.0170726
690.556	0.0168505
690.634	0.0168047
690.712	0.0163484
690.790	0.0161450
690.869	0.0158614
690.947	0.0154888
691.025	0.0153683
691.103	0.0151452
691.181	0.0149314
691.259	0.0147845
691.337	0.0147420
691.415	0.0146783
691.494	0.0146947
691.572	0.0147536
691.650	0.0148081
691.728	0.0148552
691.806	0.0150313
691.884	0.0150216
691.962	0.0151089
692.040	0.0150874
692.119	0.0151974
692.197	0.0152663
692.275	0.0153643
692.353	0.0153241
692.431	0.0154034
692.509	0.0154929
692.587	0.0155201
692.665	0.0155905
692.744	0.0156352
692.822	0.0157190
692.900	0.0157603
692.978	0.0157436
693.056	0.0158966
693.134	0.0159647
693.212	0.0159273
693.290	0.0160069
693.369	0.0162700
693.447	0.0161753
693.525	0.0162460
693.603	0.0163381
693.681	0.0163249
693.759	0.0162895
693.837	0.0164562
693.915	0.0163629
693.994	0.0163409
694.072	0.0164297
694.150	0.0163110
694.228	0.0163642
694.306	0.0162469
694.384	0.0161676
694.462	0.0162650
694.540	0.0162180
694.619	0.0163976
694.697	0.0160876
694.775	0.0159938
694.853	0.0160867
694.931	0.0158158
695.009	0.0158352
695.087	0.0159696
695.165	0.0158231
695.244	0.0158091
695.322	0.0158965
695.400	0.0158438
695.478	0.0159355
695.556	0.0159365
695.634	0.0159386
695.712	0.0159966
695.790	0.0161395
695.869	0.0160699
695.947	0.0161773
696.025	0.0161984
696.103	0.0161452
696.181	0.0161527
696.259	0.0161279
696.337	0.0160210
696.415	0.0159682
696.494	0.0159472
696.572	0.0158366
696.650	0.0158028
696.728	0.0157280
696.806	0.0156784
696.884	0.0157159
696.962	0.0157002
697.040	0.0156007
697.119	0.0155894
697.197	0.0156156
697.275	0.0157825
697.353	0.0159106
697.431	0.0159759
697.509	0.0160840
697.587	0.0160406
697.665	0.0163129
697.744	0.0162988
697.822	0.0163756
697.900	0.0164709
697.978	0.0165130
698.056	0.0165923
698.134	0.0166504
698.212	0.0166476
698.290	0.0165049
698.369	0.0164520
698.447	0.0164803
698.525	0.0163522
698.603	0.0162061
698.681	0.0160435
698.759	0.0159468
698.837	0.0158030
698.915	0.0157328
698.994	0.0155704
699.072	0.0154544
699.150	0.0152157
699.228	0.0152004
699.306	0.0151486
699.384	0.0150986
699.462	0.0150841
699.540	0.0153305
699.619	0.0151535
699.697	0.0153038
699.775	0.0152937
699.853	0.0154472
699.931	0.0155862
700.009	0.0155230
700.087	0.0156779
700.165	0.0158825
700.244	0.0158469
700.322	0.0157857
700.400	0.0159741
700.478	0.0159200
700.556	0.0158388
700.634	0.0158705
700.712	0.0159489
700.790	0.0156741
700.869	0.0157103
700.947	0.0157935
701.025	0.0155170
701.103	0.0156420
701.181	0.0154271
701.259	0.0155849
701.337	0.0156384
701.415	0.0155171
701.494	0.0156965
701.572	0.0157997
701.650	0.0156228
701.728	0.0157270
701.806	0.0159322
701.884	0.0158871
701.962	0.0160187
702.040	0.0159868
702.119	0.0159757
702.197	0.0161181
702.275	0.0161481
702.353	0.0160577
702.431	0.0161244
702.509	0.0159844
702.587	0.0159946
702.665	0.0160580
702.744	0.0159618
702.822	0.0159795
702.900	0.0158662
702.978	0.0160207
703.056	0.0158911
703.134	0.0158598
703.212	0.0158321
703.290	0.0155807
703.369	0.0155223
703.447	0.0155085
703.525	0.0155537
703.603	0.0154746
703.681	0.0154819
703.759	0.0155028
703.837	0.0157981
703.915	0.0157392
703.994	0.0159424
704.072	0.0160769
704.150	0.0162640
704.228	0.0163104
704.306	0.0164919
704.384	0.0164703
704.462	0.0165488
704.540	0.0165585
704.619	0.0164761
704.697	0.0165621
704.775	0.0164476
704.853	0.0164591
704.931	0.0164509
705.009	0.0162648
705.087	0.0161178
705.165	0.0162122
705.244	0.0160307
705.322	0.0157454
705.400	0.0156525
705.478	0.0154641
705.556	0.0153948
705.634	0.0155297
705.712	0.0154808
705.790	0.0153873
705.869	0.0153677
705.947	0.0154579
706.025	0.0155436
706.103	0.0157102
706.181	0.0156994
706.259	0.0157145
706.337	0.0159415
706.415	0.0160960
706.494	0.0160887
706.572	0.0160742
706.650	0.0160751
706.728	0.0161098
706.806	0.0161072
706.884	0.0160824
706.962	0.0160209
707.040	0.0159147
707.119	0.0159593
707.197	0.0158385
707.275	0.0157291
707.353	0.0157844
707.431	0.0156971
707.509	0.0156557
707.587	0.0157428
707.665	0.0156923
707.744	0.0155504
707.822	0.0155865
707.900	0.0156364
707.978	0.0156467
708.056	0.0156720
708.134	0.0158208
708.212	0.0158160
708.290	0.0159441
708.369	0.0158967
708.447	0.0158787
708.525	0.0161885
708.603	0.0160738
708.681	0.0160836
708.759	0.0160229
708.837	0.0158647
708.915	0.0160115
708.994	0.0161488
709.072	0.0158749
709.150	0.0157903
709.228	0.0159212
709.306	0.0158574
709.384	0.0156384
709.462	0.0157943
709.540	0.0158124
709.619	0.0158061
709.697	0.0157318
709.775	0.0157439
709.853	0.0159007
709.931	0.0156927
710.009	0.0154845
710.087	0.0157172
710.165	0.0156847
710.244	0.0156116
710.322	0.0156080
710.400	0.0157200
710.478	0.0156762
710.556	0.0156781
710.634	0.0156958
710.712	0.0159592
710.790	0.0158067
710.869	0.0157331
710.947	0.0158284
711.025	0.0159340
711.103	0.0158993
711.181	0.0160571
711.259	0.0159423
711.337	0.0158975
711.415	0.0158614
711.494	0.0158724
711.572	0.0158796
711.650	0.0157397
711.728	0.0158353
711.806	0.0157759
711.884	0.0157423
711.962	0.0155981
712.040	0.0154906
712.119	0.0155913
712.197	0.0154943
712.275	0.0154998
712.353	0.0154642
712.431	0.0154423
712.509	0.0153168
712.587	0.0153069
712.665	0.0154458
712.744	0.0155322
712.822	0.0154324
712.900	0.0154115
712.978	0.0156222
713.056	0.0156028
713.134	0.0156960
713.212	0.0157903
713.290	0.0157288
713.369	0.0158545
713.447	0.0157713
713.525	0.0160647
713.603	0.0159911
713.681	0.0159081
713.759	0.0159608
713.837	0.0159335
713.915	0.0160540
713.994	0.0162064
714.072	0.0160359
714.150	0.0162731
714.228	0.0163253
714.306	0.0162071
714.384	0.0163426
714.462	0.0160407
714.540	0.0161758
714.619	0.0161425
714.697	0.0160665
714.775	0.0160710
714.853	0.0159888
714.931	0.0160751
715.009	0.0159718
715.087	0.0159489
715.165	0.0159152
715.244	0.0158180
715.322	0.0159258
715.400	0.0159904
715.478	0.0159769
715.556	0.0159502
715.634	0.0160294
715.712	0.0160110
