05/19/2022	00:35:03	Ver.	4.1	UNKNOWN
Optical Delay	630.009178	Delta X		0.078125	Sweeps	1	Scan Rate	0/0
Coordinates	Axis 1	NaN	Axis 2	NaN	Axis 3	NaN	Axis 4	NaN	Axis 5	NaN	Axis 6	0.000000
TX Power	0.000000	RX Power	0.000000

630.009	0.0157447
630.087	0.0158186
630.165	0.0158154
630.244	0.0158405
630.322	0.0159202
630.400	0.0156652
630.478	0.0157429
630.556	0.0157940
630.634	0.0157076
630.712	0.0156808
630.790	0.0157748
630.869	0.0157552
630.947	0.0157766
631.025	0.0156868
631.103	0.0157210
631.181	0.0157283
631.259	0.0159127
631.337	0.0156665
631.415	0.0156744
631.494	0.0156841
631.572	0.0157208
631.650	0.0158395
631.728	0.0158410
631.806	0.0158801
631.884	0.0159260
631.962	0.0158253
632.040	0.0157166
632.119	0.0157602
632.197	0.0158217
632.275	0.0159630
632.353	0.0156628
632.431	0.0157819
632.509	0.0159016
632.587	0.0157163
632.665	0.0157504
632.744	0.0158432
632.822	0.0157452
632.900	0.0157361
632.978	0.0156950
633.056	0.0157235
633.134	0.0157741
633.212	0.0158655
633.290	0.0157986
633.369	0.0158400
633.447	0.0157850
633.525	0.0157114
633.603	0.0157023
633.681	0.0157692
633.759	0.0157735
633.837	0.0156773
633.915	0.0158159
633.994	0.0158382
634.072	0.0157601
634.150	0.0156825
634.228	0.0158727
634.306	0.0158115
634.384	0.0157346
634.462	0.0157074
634.540	0.0158123
634.619	0.0157188
634.697	0.0158591
634.775	0.0157394
634.853	0.0158191
634.931	0.0158852
635.009	0.0156604
635.087	0.0157866
635.165	0.0157346
635.244	0.0158923
635.322	0.0157024
635.400	0.0155943
635.478	0.0156489
635.556	0.0156903
635.634	0.0157726
635.712	0.0159241
635.790	0.0157509
635.869	0.0157954
635.947	0.0158575
636.025	0.0158110
636.103	0.0156972
636.181	0.0156912
636.259	0.0157397
636.337	0.0158237
636.415	0.0157497
636.494	0.0157124
636.572	0.0158218
636.650	0.0156406
636.728	0.0157210
636.806	0.0157777
636.884	0.0157443
636.962	0.0157416
637.040	0.0157190
637.119	0.0157478
637.197	0.0156794
637.275	0.0156956
637.353	0.0158693
637.431	0.0156680
637.509	0.0157478
637.587	0.0157697
637.665	0.0157493
637.744	0.0157166
637.822	0.0157193
637.900	0.0157801
637.978	0.0157147
638.056	0.0156892
638.134	0.0157719
638.212	0.0157766
638.290	0.0156900
638.369	0.0156892
638.447	0.0156038
638.525	0.0157928
638.603	0.0158153
638.681	0.0158601
638.759	0.0156758
638.837	0.0157777
638.915	0.0156889
638.994	0.0157133
639.072	0.0155775
639.150	0.0157804
639.228	0.0158486
639.306	0.0156480
639.384	0.0157650
639.462	0.0158174
639.540	0.0158139
639.619	0.0156242
639.697	0.0158472
639.775	0.0156712
639.853	0.0157354
639.931	0.0157442
640.009	0.0157608
640.087	0.0158511
640.165	0.0156874
640.244	0.0156788
640.322	0.0158515
640.400	0.0158664
640.478	0.0158238
640.556	0.0158051
640.634	0.0156670
640.712	0.0157729
640.790	0.0156754
640.869	0.0157302
640.947	0.0157874
641.025	0.0158228
641.103	0.0158121
641.181	0.0157440
641.259	0.0157713
641.337	0.0157036
641.415	0.0157249
641.494	0.0157984
641.572	0.0157748
641.650	0.0157772
641.728	0.0157330
641.806	0.0158360
641.884	0.0158340
641.962	0.0157681
642.040	0.0157878
642.119	0.0158664
642.197	0.0157222
642.275	0.0156909
642.353	0.0157847
642.431	0.0157997
642.509	0.0157661
642.587	0.0157794
642.665	0.0157754
642.744	0.0156323
642.822	0.0157492
642.900	0.0156784
642.978	0.0158105
643.056	0.0157377
643.134	0.0157726
643.212	0.0156493
643.290	0.0156857
643.369	0.0157560
643.447	0.0157532
643.525	0.0158007
643.603	0.0156966
643.681	0.0158113
643.759	0.0156531
643.837	0.0157835
643.915	0.0157666
643.994	0.0157214
644.072	0.0157548
644.150	0.0157043
644.228	0.0157396
644.306	0.0157196
644.384	0.0158492
644.462	0.0156280
644.540	0.0157845
644.619	0.0157635
644.697	0.0158590
644.775	0.0157642
644.853	0.0157332
644.931	0.0156534
645.009	0.0157204
645.087	0.0158713
645.165	0.0158750
645.244	0.0157980
645.322	0.0157861
645.400	0.0157377
645.478	0.0158142
645.556	0.0157545
645.634	0.0157024
645.712	0.0157362
645.790	0.0157496
645.869	0.0158332
645.947	0.0157445
646.025	0.0156958
646.103	0.0157670
646.181	0.0157927
646.259	0.0158524
646.337	0.0158073
646.415	0.0157964
646.494	0.0158600
646.572	0.0156645
646.650	0.0158419
646.728	0.0158076
646.806	0.0158295
646.884	0.0157627
646.962	0.0157308
647.040	0.0157730
647.119	0.0157949
647.197	0.0156573
647.275	0.0155818
647.353	0.0157636
647.431	0.0157076
647.509	0.0157632
647.587	0.0156515
647.665	0.0156609
647.744	0.0158038
647.822	0.0157806
647.900	0.0157185
647.978	0.0157056
648.056	0.0156842
648.134	0.0157454
648.212	0.0158610
648.290	0.0157529
648.369	0.0156847
648.447	0.0156921
648.525	0.0157024
648.603	0.0158537
648.681	0.0158775
648.759	0.0157181
648.837	0.0157356
648.915	0.0157986
648.994	0.0157190
649.072	0.0157755
649.150	0.0157501
649.228	0.0156715
649.306	0.0156075
649.384	0.0156676
649.462	0.0157094
649.540	0.0157317
649.619	0.0157775
649.697	0.0157677
649.775	0.0156847
649.853	0.0157593
649.931	0.0155991
650.009	0.0156890
650.087	0.0156918
650.165	0.0157804
650.244	0.0157239
650.322	0.0158045
650.400	0.0156693
650.478	0.0156629
650.556	0.0156786
650.634	0.0156950
650.712	0.0158739
650.790	0.0157714
650.869	0.0158129
650.947	0.0158516
651.025	0.0157809
651.103	0.0157677
651.181	0.0157417
651.259	0.0157117
651.337	0.0157429
651.415	0.0159325
651.494	0.0157150
651.572	0.0157000
651.650	0.0157523
651.728	0.0157369
651.806	0.0157388
651.884	0.0157805
651.962	0.0156438
652.040	0.0158416
652.119	0.0159782
652.197	0.0158863
652.275	0.0156870
652.353	0.0157181
652.431	0.0157233
652.509	0.0157327
652.587	0.0156828
652.665	0.0157967
652.744	0.0159232
652.822	0.0158044
652.900	0.0157204
652.978	0.0158473
653.056	0.0155961
653.134	0.0157431
653.212	0.0157613
653.290	0.0158466
653.369	0.0157484
653.447	0.0157742
653.525	0.0157037
653.603	0.0157526
653.681	0.0156343
653.759	0.0157176
653.837	0.0158528
653.915	0.0157530
653.994	0.0157439
654.072	0.0158778
654.150	0.0157539
654.228	0.0157229
654.306	0.0156911
654.384	0.0157403
654.462	0.0157231
654.540	0.0158176
654.619	0.0159128
654.697	0.0156967
654.775	0.0157238
654.853	0.0157744
654.931	0.0158807
655.009	0.0156929
655.087	0.0158424
655.165	0.0158721
655.244	0.0156982
655.322	0.0156937
655.400	0.0157708
655.478	0.0158261
655.556	0.0157925
655.634	0.0155790
655.712	0.0156445
655.790	0.0157497
655.869	0.0157786
655.947	0.0156913
656.025	0.0159159
656.103	0.0158595
656.181	0.0158109
656.259	0.0156425
656.337	0.0157703
656.415	0.0157938
656.494	0.0157273
656.572	0.0159003
656.650	0.0156849
656.728	0.0157570
656.806	0.0158057
656.884	0.0157919
656.962	0.0156042
657.040	0.0158234
657.119	0.0158215
657.197	0.0156707
657.275	0.0157761
657.353	0.0156581
657.431	0.0157683
657.509	0.0157301
657.587	0.0156887
657.665	0.0156699
657.744	0.0158852
657.822	0.0158530
657.900	0.0157923
657.978	0.0157252
658.056	0.0157655
658.134	0.0157497
658.212	0.0158562
658.290	0.0158912
658.369	0.0156419
658.447	0.0157505
658.525	0.0158168
658.603	0.0157197
658.681	0.0157512
658.759	0.0158678
658.837	0.0158974
658.915	0.0157539
658.994	0.0158747
659.072	0.0158577
659.150	0.0159180
659.228	0.0157005
659.306	0.0156755
659.384	0.0158205
659.462	0.0156796
659.540	0.0158279
659.619	0.0157571
659.697	0.0156711
659.775	0.0157455
659.853	0.0156973
659.931	0.0158146
660.009	0.0158421
660.087	0.0156237
660.165	0.0156405
660.244	0.0157697
660.322	0.0157517
660.400	0.0158308
660.478	0.0157590
660.556	0.0157786
660.634	0.0158321
660.712	0.0156499
660.790	0.0157027
660.869	0.0157020
660.947	0.0158939
661.025	0.0158786
661.103	0.0156677
661.181	0.0157805
661.259	0.0159278
661.337	0.0157224
661.415	0.0157585
661.494	0.0157575
661.572	0.0156920
661.650	0.0156766
661.728	0.0157830
661.806	0.0157689
661.884	0.0158228
661.962	0.0157640
662.040	0.0159502
662.119	0.0157820
662.197	0.0157753
662.275	0.0157410
662.353	0.0157664
662.431	0.0157748
662.509	0.0157513
662.587	0.0158005
662.665	0.0156897
662.744	0.0158499
662.822	0.0158102
662.900	0.0156831
662.978	0.0158645
663.056	0.0158828
663.134	0.0157927
663.212	0.0158072
663.290	0.0157609
663.369	0.0157471
663.447	0.0158995
663.525	0.0157929
663.603	0.0157819
663.681	0.0158268
663.759	0.0158542
663.837	0.0157481
663.915	0.0160024
663.994	0.0158439
664.072	0.0157298
664.150	0.0157462
664.228	0.0158218
664.306	0.0157504
664.384	0.0156566
664.462	0.0158167
664.540	0.0158607
664.619	0.0157211
664.697	0.0158308
664.775	0.0157922
664.853	0.0157732
664.931	0.0158367
665.009	0.0158231
665.087	0.0157224
665.165	0.0158488
665.244	0.0156901
665.322	0.0156995
665.400	0.0156170
665.478	0.0158436
665.556	0.0157378
665.634	0.0157220
665.712	0.0157046
665.790	0.0158112
665.869	0.0157884
665.947	0.0157399
666.025	0.0158602
666.103	0.0157307
666.181	0.0157395
666.259	0.0157092
666.337	0.0158504
666.415	0.0157027
666.494	0.0157008
666.572	0.0156786
666.650	0.0157806
666.728	0.0157639
666.806	0.0157437
666.884	0.0157445
666.962	0.0155345
667.040	0.0157011
667.119	0.0156433
667.197	0.0157367
667.275	0.0156748
667.353	0.0156763
667.431	0.0156071
667.509	0.0155869
667.587	0.0156544
667.665	0.0156621
667.744	0.0156626
667.822	0.0156268
667.900	0.0157187
667.978	0.0156705
668.056	0.0156853
668.134	0.0155379
668.212	0.0157060
668.290	0.0157716
668.369	0.0157439
668.447	0.0156400
668.525	0.0154771
668.603	0.0157027
668.681	0.0156298
668.759	0.0156500
668.837	0.0156557
668.915	0.0156683
668.994	0.0155141
669.072	0.0155814
669.150	0.0157175
669.228	0.0156887
669.306	0.0156512
669.384	0.0156924
669.462	0.0157507
669.540	0.0155850
669.619	0.0156947
669.697	0.0157387
669.775	0.0157241
669.853	0.0158103
669.931	0.0156759
670.009	0.0156024
670.087	0.0156293
670.165	0.0157302
670.244	0.0157828
670.322	0.0156235
670.400	0.0156155
670.478	0.0156773
670.556	0.0157540
670.634	0.0156957
670.712	0.0158157
670.790	0.0157228
670.869	0.0157960
670.947	0.0156951
671.025	0.0157441
671.103	0.0157439
671.181	0.0157545
671.259	0.0157320
671.337	0.0157682
671.415	0.0158394
671.494	0.0158069
671.572	0.0158803
671.650	0.0158335
671.728	0.0157713
671.806	0.0159173
671.884	0.0157766
671.962	0.0157952
672.040	0.0158958
672.119	0.0158313
672.197	0.0158820
672.275	0.0158779
672.353	0.0160041
672.431	0.0159532
672.509	0.0159727
672.587	0.0159778
672.665	0.0159372
672.744	0.0158065
672.822	0.0159777
672.900	0.0159743
672.978	0.0159000
673.056	0.0158776
673.134	0.0161003
673.212	0.0161644
673.290	0.0159137
673.369	0.0158674
673.447	0.0159356
673.525	0.0159702
673.603	0.0160928
673.681	0.0158876
673.759	0.0158008
673.837	0.0160315
673.915	0.0158620
673.994	0.0160157
674.072	0.0158836
674.150	0.0158519
674.228	0.0160329
674.306	0.0158801
674.384	0.0160010
674.462	0.0158896
674.540	0.0159030
674.619	0.0159816
674.697	0.0159690
674.775	0.0157913
674.853	0.0159175
674.931	0.0159368
675.009	0.0160254
675.087	0.0159003
675.165	0.0159718
675.244	0.0159732
675.322	0.0158656
675.400	0.0159663
675.478	0.0158361
675.556	0.0159704
675.634	0.0158744
675.712	0.0158785
675.790	0.0159448
675.869	0.0160043
675.947	0.0158408
676.025	0.0157867
676.103	0.0158995
676.181	0.0159645
676.259	0.0159745
676.337	0.0159464
676.415	0.0158080
676.494	0.0159133
676.572	0.0159560
676.650	0.0158645
676.728	0.0160133
676.806	0.0157784
676.884	0.0157388
676.962	0.0159162
677.040	0.0157789
677.119	0.0159286
677.197	0.0158468
677.275	0.0158792
677.353	0.0157180
677.431	0.0157761
677.509	0.0157900
677.587	0.0157438
677.665	0.0158540
677.744	0.0157779
677.822	0.0156593
677.900	0.0156811
677.978	0.0157452
678.056	0.0158301
678.134	0.0158815
678.212	0.0157428
678.290	0.0157051
678.369	0.0157748
678.447	0.0158498
678.525	0.0157732
678.603	0.0156441
678.681	0.0158260
678.759	0.0156927
678.837	0.0157442
678.915	0.0158604
678.994	0.0157266
679.072	0.0157035
679.150	0.0157662
679.228	0.0156546
679.306	0.0156714
679.384	0.0156290
679.462	0.0156686
679.540	0.0157247
679.619	0.0156590
679.697	0.0156430
679.775	0.0155351
679.853	0.0156435
679.931	0.0156473
680.009	0.0156901
680.087	0.0155970
680.165	0.0155153
680.244	0.0155639
680.322	0.0157180
680.400	0.0156593
680.478	0.0157495
680.556	0.0156725
680.634	0.0156113
680.712	0.0156130
680.790	0.0156718
680.869	0.0156503
680.947	0.0157493
681.025	0.0156524
681.103	0.0155649
681.181	0.0158126
681.259	0.0157671
681.337	0.0156982
681.415	0.0156828
681.494	0.0155910
681.572	0.0156710
681.650	0.0157030
681.728	0.0156721
681.806	0.0157214
681.884	0.0156994
681.962	0.0157461
682.040	0.0156287
682.119	0.0156731
682.197	0.0158317
682.275	0.0157283
682.353	0.0158137
682.431	0.0157890
682.509	0.0157872
682.587	0.0157972
682.665	0.0158730
682.744	0.0157927
682.822	0.0158354
682.900	0.0157283
682.978	0.0158200
683.056	0.0158556
683.134	0.0157497
683.212	0.0158025
683.290	0.0158307
683.369	0.0158825
683.447	0.0157422
683.525	0.0157154
683.603	0.0158714
683.681	0.0157187
683.759	0.0157540
683.837	0.0158814
683.915	0.0158195
683.994	0.0158902
684.072	0.0157363
684.150	0.0158611
684.228	0.0159825
684.306	0.0158847
684.384	0.0158172
684.462	0.0160077
684.540	0.0158736
684.619	0.0159027
684.697	0.0160042
684.775	0.0159416
684.853	0.0159552
684.931	0.0158358
685.009	0.0158070
685.087	0.0157673
685.165	0.0157899
685.244	0.0157252
685.322	0.0156425
685.400	0.0156334
685.478	0.0155894
685.556	0.0154110
685.634	0.0155827
685.712	0.0155235
685.790	0.0155589
685.869	0.0154966
685.947	0.0155779
686.025	0.0156364
686.103	0.0156337
686.181	0.0156591
686.259	0.0158392
686.337	0.0159224
686.415	0.0158851
686.494	0.0160664
686.572	0.0162291
686.650	0.0161112
686.728	0.0161087
686.806	0.0163029
686.884	0.0162536
686.962	0.0163190
687.040	0.0162260
687.119	0.0161594
687.197	0.0162495
687.275	0.0161355
687.353	0.0160529
687.431	0.0159214
687.509	0.0159372
687.587	0.0157000
687.665	0.0155511
687.744	0.0155904
687.822	0.0157273
687.900	0.0156956
687.978	0.0157723
688.056	0.0156312
688.134	0.0155476
688.212	0.0156252
688.290	0.0156558
688.369	0.0157643
688.447	0.0158862
688.525	0.0157039
688.603	0.0159463
688.681	0.0158803
688.759	0.0157462
688.837	0.0156940
688.915	0.0157452
688.994	0.0158328
689.072	0.0157113
689.150	0.0158741
689.228	0.0157481
689.306	0.0156146
689.384	0.0158203
689.462	0.0159681
689.540	0.0157173
689.619	0.0156824
689.697	0.0157397
689.775	0.0157771
689.853	0.0157559
689.931	0.0156998
690.009	0.0157657
690.087	0.0156560
690.165	0.0156346
690.244	0.0155534
690.322	0.0155988
690.400	0.0156153
690.478	0.0155828
690.556	0.0153675
690.634	0.0156511
690.712	0.0156163
690.790	0.0154056
690.869	0.0154232
690.947	0.0154544
691.025	0.0156339
691.103	0.0155425
691.181	0.0155377
691.259	0.0155170
691.337	0.0157036
691.415	0.0156017
691.494	0.0157738
691.572	0.0157980
691.650	0.0156049
691.728	0.0156185
691.806	0.0158312
691.884	0.0158099
691.962	0.0156777
692.040	0.0158754
692.119	0.0157666
692.197	0.0158184
692.275	0.0159879
692.353	0.0158744
692.431	0.0157656
692.509	0.0157257
692.587	0.0159160
692.665	0.0159081
692.744	0.0157999
692.822	0.0158742
692.900	0.0158289
692.978	0.0159185
693.056	0.0158720
693.134	0.0158788
693.212	0.0157251
693.290	0.0159546
693.369	0.0159618
693.447	0.0160683
693.525	0.0159341
693.603	0.0157748
693.681	0.0157881
693.759	0.0157648
693.837	0.0157006
693.915	0.0157104
693.994	0.0156875
694.072	0.0155769
694.150	0.0155161
694.228	0.0155953
694.306	0.0154453
694.384	0.0155243
694.462	0.0154203
694.540	0.0153403
694.619	0.0154070
694.697	0.0154591
694.775	0.0154924
694.853	0.0154103
694.931	0.0155321
695.009	0.0154581
695.087	0.0155849
695.165	0.0156803
695.244	0.0155913
695.322	0.0156800
695.400	0.0156197
695.478	0.0158302
695.556	0.0158297
695.634	0.0157180
695.712	0.0157256
695.790	0.0157176
695.869	0.0157419
695.947	0.0157088
696.025	0.0158659
696.103	0.0158012
696.181	0.0160026
696.259	0.0159324
696.337	0.0158521
696.415	0.0159293
696.494	0.0159894
696.572	0.0159864
696.650	0.0160539
696.728	0.0160691
696.806	0.0161315
696.884	0.0159899
696.962	0.0159600
697.040	0.0159957
697.119	0.0160405
697.197	0.0160091
697.275	0.0159473
697.353	0.0159550
697.431	0.0158880
697.509	0.0159227
697.587	0.0158237
697.665	0.0158229
697.744	0.0158662
697.822	0.0158597
697.900	0.0157471
697.978	0.0158415
698.056	0.0157037
698.134	0.0156565
698.212	0.0156967
698.290	0.0157844
698.369	0.0156111
698.447	0.0155527
698.525	0.0157409
698.603	0.0155983
698.681	0.0156873
698.759	0.0156814
698.837	0.0156993
698.915	0.0155961
698.994	0.0156625
699.072	0.0159157
699.150	0.0157774
699.228	0.0159516
699.306	0.0159928
699.384	0.0159432
699.462	0.0159600
699.540	0.0159570
699.619	0.0158571
699.697	0.0159548
699.775	0.0159454
699.853	0.0159386
699.931	0.0160487
700.009	0.0159534
700.087	0.0158540
700.165	0.0159444
700.244	0.0159119
700.322	0.0160177
700.400	0.0160012
700.478	0.0158871
700.556	0.0159129
700.634	0.0160343
700.712	0.0159361
700.790	0.0158588
700.869	0.0159660
700.947	0.0158788
701.025	0.0159223
701.103	0.0158745
701.181	0.0159146
701.259	0.0158685
701.337	0.0157345
701.415	0.0157600
701.494	0.0155839
701.572	0.0157487
701.650	0.0158377
701.728	0.0156037
701.806	0.0155299
701.884	0.0155322
701.962	0.0154823
702.040	0.0154660
702.119	0.0155759
702.197	0.0154455
702.275	0.0154894
702.353	0.0155038
702.431	0.0155235
702.509	0.0154827
702.587	0.0156064
702.665	0.0156138
702.744	0.0157520
702.822	0.0154626
702.900	0.0158111
702.978	0.0158047
703.056	0.0156367
703.134	0.0158096
703.212	0.0159615
703.290	0.0157833
703.369	0.0159438
703.447	0.0157601
703.525	0.0157069
703.603	0.0158520
703.681	0.0159225
703.759	0.0158224
703.837	0.0158134
703.915	0.0156577
703.994	0.0157285
704.072	0.0158000
704.150	0.0156341
704.228	0.0156856
704.306	0.0158189
704.384	0.0159397
704.462	0.0157743
704.540	0.0157942
704.619	0.0158836
704.697	0.0158492
704.775	0.0160503
704.853	0.0161382
704.931	0.0159161
705.009	0.0160569
705.087	0.0161033
705.165	0.0161416
705.244	0.0160557
705.322	0.0159946
705.400	0.0160296
705.478	0.0160276
705.556	0.0159795
705.634	0.0159303
705.712	0.0158748
705.790	0.0158280
705.869	0.0158855
705.947	0.0157961
706.025	0.0157445
706.103	0.0156927
706.181	0.0156430
706.259	0.0156229
706.337	0.0155915
706.415	0.0157294
706.494	0.0157575
706.572	0.0156390
706.650	0.0157051
706.728	0.0158219
706.806	0.0157629
706.884	0.0158495
706.962	0.0158432
707.040	0.0157803
707.119	0.0159336
707.197	0.0160516
707.275	0.0159897
707.353	0.0158652
707.431	0.0160487
707.509	0.0160972
707.587	0.0160191
707.665	0.0159953
707.744	0.0159347
707.822	0.0159563
707.900	0.0158817
707.978	0.0157320
708.056	0.0157240
708.134	0.0158008
708.212	0.0154640
708.290	0.0156417
708.369	0.0155332
708.447	0.0153512
708.525	0.0155267
708.603	0.0154975
708.681	0.0154446
708.759	0.0155135
708.837	0.0155933
708.915	0.0156387
708.994	0.0154978
709.072	0.0156152
709.150	0.0156366
709.228	0.0156553
709.306	0.0158179
709.384	0.0158055
709.462	0.0159061
709.540	0.0158379
709.619	0.0157771
709.697	0.0157925
709.775	0.0158646
709.853	0.0158153
709.931	0.0158611
710.009	0.0158562
710.087	0.0158548
710.165	0.0157526
710.244	0.0157111
710.322	0.0157168
710.400	0.0156108
710.478	0.0156042
710.556	0.0154974
710.634	0.0155109
710.712	0.0155655
710.790	0.0157648
710.869	0.0159450
710.947	0.0157872
711.025	0.0158204
711.103	0.0158245
711.181	0.0158397
711.259	0.0159061
711.337	0.0160774
711.415	0.0160670
711.494	0.0159989
711.572	0.0159235
711.650	0.0160287
711.728	0.0159811
711.806	0.0159702
711.884	0.0159921
711.962	0.0160958
712.040	0.0159917
712.119	0.0158891
712.197	0.0158731
712.275	0.0158627
712.353	0.0158414
712.431	0.0157767
712.509	0.0157616
712.587	0.0158066
712.665	0.0157360
712.744	0.0155936
712.822	0.0157444
712.900	0.0156886
712.978	0.0156723
713.056	0.0157309
713.134	0.0156644
713.212	0.0157226
713.290	0.0157766
713.369	0.0158261
713.447	0.0156767
713.525	0.0157399
713.603	0.0158343
713.681	0.0157208
713.759	0.0156927
713.837	0.0157722
713.915	0.0157240
713.994	0.0158473
714.072	0.0158331
714.150	0.0157908
714.228	0.0159218
714.306	0.0158972
714.384	0.0158290
714.462	0.0159736
714.540	0.0159045
714.619	0.0158084
714.697	0.0157900
714.775	0.0158711
714.853	0.0159588
714.931	0.0157584
715.009	0.0157040
715.087	0.0156974
715.165	0.0156960
715.244	0.0156957
715.322	0.0155873
715.400	0.0156030
715.478	0.0157123
715.556	0.0156969
715.634	0.0156432
715.712	0.0157638
