05/03/2022	19:50:20	Ver.	4.1	UNKNOWN
Optical Delay	660.009933	Delta X		0.078125	Sweeps	1	Scan Rate	0/0
Coordinates	Axis 1	NaN	Axis 2	NaN	Axis 3	NaN	Axis 4	NaN	Axis 5	NaN	Axis 6	0.000000
TX Power	0.000000	RX Power	0.000000

660.010	0.0148457
660.088	0.0148430
660.166	0.0147821
660.244	0.0148044
660.322	0.0147327
660.401	0.0149497
660.479	0.0149325
660.557	0.0148814
660.635	0.0147962
660.713	0.0148502
660.791	0.0147618
660.869	0.0147488
660.947	0.0149155
661.026	0.0148197
661.104	0.0146428
661.182	0.0148769
661.260	0.0149541
661.338	0.0149164
661.416	0.0148917
661.494	0.0149538
661.572	0.0149674
661.651	0.0148639
661.729	0.0148677
661.807	0.0149371
661.885	0.0148402
661.963	0.0148072
662.041	0.0148360
662.119	0.0149139
662.197	0.0149279
662.276	0.0149025
662.354	0.0147888
662.432	0.0148491
662.510	0.0148161
662.588	0.0149164
662.666	0.0148182
662.744	0.0149129
662.822	0.0147196
662.901	0.0149210
662.979	0.0150220
663.057	0.0149522
663.135	0.0148206
663.213	0.0149327
663.291	0.0147625
663.369	0.0148660
663.447	0.0149558
663.526	0.0147778
663.604	0.0149398
663.682	0.0148547
663.760	0.0147848
663.838	0.0148343
663.916	0.0147257
663.994	0.0147871
664.072	0.0148073
664.151	0.0149746
664.229	0.0148891
664.307	0.0147310
664.385	0.0148209
664.463	0.0148229
664.541	0.0148307
664.619	0.0149202
664.697	0.0148171
664.776	0.0149255
664.854	0.0148927
664.932	0.0149229
665.010	0.0148163
665.088	0.0147803
665.166	0.0148566
665.244	0.0148083
665.322	0.0148670
665.401	0.0148429
665.479	0.0148680
665.557	0.0148808
665.635	0.0149229
665.713	0.0148502
665.791	0.0146472
665.869	0.0148799
665.947	0.0148353
666.026	0.0148505
666.104	0.0148923
666.182	0.0148271
666.260	0.0148668
666.338	0.0148750
666.416	0.0148318
666.494	0.0147364
666.572	0.0149032
666.651	0.0146443
666.729	0.0147563
666.807	0.0148785
666.885	0.0150391
666.963	0.0148415
667.041	0.0150103
667.119	0.0149010
667.197	0.0149452
667.276	0.0148750
667.354	0.0148151
667.432	0.0148545
667.510	0.0149118
667.588	0.0147375
667.666	0.0148119
667.744	0.0149063
667.822	0.0148594
667.901	0.0147747
667.979	0.0149270
668.057	0.0148895
668.135	0.0148214
668.213	0.0148058
668.291	0.0148269
668.369	0.0148977
668.447	0.0149790
668.526	0.0147689
668.604	0.0149422
668.682	0.0148425
668.760	0.0149120
668.838	0.0149064
668.916	0.0148540
668.994	0.0148454
669.072	0.0148114
669.151	0.0150403
669.229	0.0149158
669.307	0.0148969
669.385	0.0148829
669.463	0.0150662
669.541	0.0148771
669.619	0.0146764
669.697	0.0149554
669.776	0.0147969
669.854	0.0148061
669.932	0.0147831
670.010	0.0150816
670.088	0.0148677
670.166	0.0148645
670.244	0.0148061
670.322	0.0149437
670.401	0.0148965
670.479	0.0149393
670.557	0.0147675
670.635	0.0146946
670.713	0.0148535
670.791	0.0149203
670.869	0.0149287
670.947	0.0148680
671.026	0.0148228
671.104	0.0147280
671.182	0.0148244
671.260	0.0148926
671.338	0.0147314
671.416	0.0148007
671.494	0.0148972
671.572	0.0149358
671.651	0.0148897
671.729	0.0150272
671.807	0.0148711
671.885	0.0149220
671.963	0.0149666
672.041	0.0149129
672.119	0.0148717
672.197	0.0148409
672.276	0.0148954
672.354	0.0150431
672.432	0.0148867
672.510	0.0147275
672.588	0.0147944
672.666	0.0147279
672.744	0.0150250
672.822	0.0149005
672.901	0.0148330
672.979	0.0148506
673.057	0.0148227
673.135	0.0150118
673.213	0.0149710
673.291	0.0147396
673.369	0.0148250
673.447	0.0148638
673.526	0.0150458
673.604	0.0148693
673.682	0.0148082
673.760	0.0149331
673.838	0.0148543
673.916	0.0148253
673.994	0.0149754
674.072	0.0150040
674.151	0.0148966
674.229	0.0148203
674.307	0.0148872
674.385	0.0147230
674.463	0.0148116
674.541	0.0150239
674.619	0.0149111
674.697	0.0149400
674.776	0.0149580
674.854	0.0148172
674.932	0.0149306
675.010	0.0149520
675.088	0.0147614
675.166	0.0149811
675.244	0.0147863
675.322	0.0149689
675.401	0.0148582
675.479	0.0148499
675.557	0.0148409
675.635	0.0148844
675.713	0.0151664
675.791	0.0148688
675.869	0.0147515
675.947	0.0149625
676.026	0.0149971
676.104	0.0149550
676.182	0.0149942
676.260	0.0148312
676.338	0.0147513
676.416	0.0147890
676.494	0.0148775
676.572	0.0149148
676.651	0.0148480
676.729	0.0148741
676.807	0.0147913
676.885	0.0149122
676.963	0.0148971
677.041	0.0148615
677.119	0.0149604
677.197	0.0147948
677.276	0.0149695
677.354	0.0149889
677.432	0.0149422
677.510	0.0148215
677.588	0.0147823
677.666	0.0147150
677.744	0.0147781
677.822	0.0147824
677.901	0.0149358
677.979	0.0149846
678.057	0.0147924
678.135	0.0148035
678.213	0.0147413
678.291	0.0148959
678.369	0.0149389
678.447	0.0148337
678.526	0.0148969
678.604	0.0149744
678.682	0.0148777
678.760	0.0148579
678.838	0.0147591
678.916	0.0147150
678.994	0.0147454
679.072	0.0148389
679.151	0.0149284
679.229	0.0147252
679.307	0.0148197
679.385	0.0149114
679.463	0.0149268
679.541	0.0151162
679.619	0.0148276
679.697	0.0148083
679.776	0.0149066
679.854	0.0147404
679.932	0.0147252
680.010	0.0148885
680.088	0.0148730
680.166	0.0148194
680.244	0.0149101
680.322	0.0148267
680.401	0.0148833
680.479	0.0148817
680.557	0.0148068
680.635	0.0148265
680.713	0.0148315
680.791	0.0149487
680.869	0.0149040
680.947	0.0149030
681.026	0.0149242
681.104	0.0148947
681.182	0.0149789
681.260	0.0149083
681.338	0.0149452
681.416	0.0149815
681.494	0.0149021
681.572	0.0149044
681.651	0.0148691
681.729	0.0149466
681.807	0.0149827
681.885	0.0148773
681.963	0.0148846
682.041	0.0148238
682.119	0.0149136
682.197	0.0149151
682.276	0.0147669
682.354	0.0148594
682.432	0.0150364
682.510	0.0148593
682.588	0.0148444
682.666	0.0148368
682.744	0.0148312
682.822	0.0148839
682.901	0.0148695
682.979	0.0149428
683.057	0.0147102
683.135	0.0148468
683.213	0.0149847
683.291	0.0149823
683.369	0.0148536
683.447	0.0148403
683.526	0.0149349
683.604	0.0149368
683.682	0.0147924
683.760	0.0147792
683.838	0.0149464
683.916	0.0149073
683.994	0.0147891
684.072	0.0148575
684.151	0.0148761
684.229	0.0147977
684.307	0.0149135
684.385	0.0149151
684.463	0.0149107
684.541	0.0146996
684.619	0.0147459
684.697	0.0148983
684.776	0.0148039
684.854	0.0148515
684.932	0.0148275
685.010	0.0148797
685.088	0.0148103
685.166	0.0147874
685.244	0.0147885
685.322	0.0147889
685.401	0.0147890
685.479	0.0149993
685.557	0.0149410
685.635	0.0149113
685.713	0.0148692
685.791	0.0147127
685.869	0.0148927
685.947	0.0148923
686.026	0.0149199
686.104	0.0147375
686.182	0.0149290
686.260	0.0147154
686.338	0.0149671
686.416	0.0149454
686.494	0.0147241
686.572	0.0148702
686.651	0.0150004
686.729	0.0148888
686.807	0.0148386
686.885	0.0149416
686.963	0.0149642
687.041	0.0149097
687.119	0.0147551
687.197	0.0148695
687.276	0.0147477
687.354	0.0149751
687.432	0.0150262
687.510	0.0150138
687.588	0.0148331
687.666	0.0147803
687.744	0.0148991
687.822	0.0149187
687.901	0.0148276
687.979	0.0148817
688.057	0.0148228
688.135	0.0149589
688.213	0.0148864
688.291	0.0148672
688.369	0.0147665
688.447	0.0148504
688.526	0.0149326
688.604	0.0148427
688.682	0.0148729
688.760	0.0149762
688.838	0.0148308
688.916	0.0146809
688.994	0.0148462
689.072	0.0148610
689.151	0.0147697
689.229	0.0148759
689.307	0.0147945
689.385	0.0149020
689.463	0.0149107
689.541	0.0148588
689.619	0.0148595
689.697	0.0149429
689.776	0.0148408
689.854	0.0148671
689.932	0.0148640
690.010	0.0148591
690.088	0.0150431
690.166	0.0149892
690.244	0.0148882
690.322	0.0148282
690.401	0.0149384
690.479	0.0148346
690.557	0.0149212
690.635	0.0148421
690.713	0.0147647
690.791	0.0149139
690.869	0.0149268
690.947	0.0148249
691.026	0.0149371
691.104	0.0147486
691.182	0.0148225
691.260	0.0148943
691.338	0.0149563
691.416	0.0148312
691.494	0.0149516
691.572	0.0148212
691.651	0.0148239
691.729	0.0148936
691.807	0.0147755
691.885	0.0148681
691.963	0.0148152
692.041	0.0147936
692.119	0.0147824
692.197	0.0150594
692.276	0.0149728
692.354	0.0148712
692.432	0.0147858
692.510	0.0147838
692.588	0.0149244
692.666	0.0147150
692.744	0.0147619
692.822	0.0148481
692.901	0.0149024
692.979	0.0149191
693.057	0.0147211
693.135	0.0148100
693.213	0.0148650
693.291	0.0148576
693.369	0.0147924
693.447	0.0148215
693.526	0.0148474
693.604	0.0149206
693.682	0.0149692
693.760	0.0147767
693.838	0.0147578
693.916	0.0148322
693.994	0.0147870
694.072	0.0149534
694.151	0.0147812
694.229	0.0148170
694.307	0.0148758
694.385	0.0148869
694.463	0.0149076
694.541	0.0148611
694.619	0.0146107
694.697	0.0147934
694.776	0.0148421
694.854	0.0148846
694.932	0.0147849
695.010	0.0147939
695.088	0.0148857
695.166	0.0148178
695.244	0.0148849
695.322	0.0150233
695.401	0.0148848
695.479	0.0147892
695.557	0.0148238
695.635	0.0148203
695.713	0.0149472
695.791	0.0147393
695.869	0.0147927
695.947	0.0147087
696.026	0.0149245
696.104	0.0149662
696.182	0.0149058
696.260	0.0148357
696.338	0.0148029
696.416	0.0148512
696.494	0.0148073
696.572	0.0150136
696.651	0.0149609
696.729	0.0147995
696.807	0.0148641
696.885	0.0148994
696.963	0.0150012
697.041	0.0149193
697.119	0.0148490
697.197	0.0147791
697.276	0.0147239
697.354	0.0149058
697.432	0.0148940
697.510	0.0148998
697.588	0.0149054
697.666	0.0149093
697.744	0.0149116
697.822	0.0149026
697.901	0.0149051
697.979	0.0147074
698.057	0.0148788
698.135	0.0149285
698.213	0.0148468
698.291	0.0147776
698.369	0.0149757
698.447	0.0148200
698.526	0.0149464
698.604	0.0148544
698.682	0.0147674
698.760	0.0149374
698.838	0.0148536
698.916	0.0147813
698.994	0.0149437
699.072	0.0148016
699.151	0.0148872
699.229	0.0148534
699.307	0.0150339
699.385	0.0148694
699.463	0.0147620
699.541	0.0150121
699.619	0.0149705
699.697	0.0148205
699.776	0.0147220
699.854	0.0146908
699.932	0.0149258
700.010	0.0150288
700.088	0.0147857
700.166	0.0149465
700.244	0.0149668
700.322	0.0148341
700.401	0.0148727
700.479	0.0149755
700.557	0.0148615
700.635	0.0149829
700.713	0.0149655
700.791	0.0148684
700.869	0.0148977
700.947	0.0149484
701.026	0.0150455
701.104	0.0149653
701.182	0.0149107
701.260	0.0148586
701.338	0.0148675
701.416	0.0150346
701.494	0.0148766
701.572	0.0149666
701.651	0.0149451
701.729	0.0149212
701.807	0.0148267
701.885	0.0148016
701.963	0.0148166
702.041	0.0149064
702.119	0.0149765
702.197	0.0148210
702.276	0.0149277
702.354	0.0147371
702.432	0.0147280
702.510	0.0149066
702.588	0.0149722
702.666	0.0150079
702.744	0.0149278
702.822	0.0147666
702.901	0.0148067
702.979	0.0149391
703.057	0.0150166
703.135	0.0148084
703.213	0.0148186
703.291	0.0149158
703.369	0.0147832
703.447	0.0148344
703.526	0.0148412
703.604	0.0149295
703.682	0.0149396
703.760	0.0149555
703.838	0.0149020
703.916	0.0147852
703.994	0.0148591
704.072	0.0149904
704.151	0.0148962
704.229	0.0148275
704.307	0.0148611
704.385	0.0150240
704.463	0.0147887
704.541	0.0148234
704.619	0.0148407
704.697	0.0148387
704.776	0.0147771
704.854	0.0148582
704.932	0.0148997
705.010	0.0148648
705.088	0.0148807
705.166	0.0148767
705.244	0.0148760
705.322	0.0147932
705.401	0.0148553
705.479	0.0149715
705.557	0.0147540
705.635	0.0149704
705.713	0.0148898
705.791	0.0147160
705.869	0.0148052
705.947	0.0149172
706.026	0.0149580
706.104	0.0148094
706.182	0.0148380
706.260	0.0150850
706.338	0.0150057
706.416	0.0148683
706.494	0.0148928
706.572	0.0149012
706.651	0.0149538
706.729	0.0149360
706.807	0.0148974
706.885	0.0149804
706.963	0.0149080
707.041	0.0148803
707.119	0.0148569
707.197	0.0147453
707.276	0.0146976
707.354	0.0148087
707.432	0.0147945
707.510	0.0146729
707.588	0.0147305
707.666	0.0146825
707.744	0.0148074
707.822	0.0145966
707.901	0.0145457
707.979	0.0146061
708.057	0.0146114
708.135	0.0146853
708.213	0.0147809
708.291	0.0147158
708.369	0.0147713
708.447	0.0149017
708.526	0.0147962
708.604	0.0148698
708.682	0.0150169
708.760	0.0150846
708.838	0.0150148
708.916	0.0151803
708.994	0.0151926
709.072	0.0151577
709.151	0.0151808
709.229	0.0150687
709.307	0.0150816
709.385	0.0150597
709.463	0.0147839
709.541	0.0148399
709.619	0.0147926
709.697	0.0147179
709.776	0.0145853
709.854	0.0145915
709.932	0.0147324
710.010	0.0145441
710.088	0.0146101
710.166	0.0146859
710.244	0.0146487
710.322	0.0146643
710.401	0.0147373
710.479	0.0146593
710.557	0.0145869
710.635	0.0146809
710.713	0.0147112
710.791	0.0148442
710.869	0.0148553
710.947	0.0147720
711.026	0.0148594
711.104	0.0148473
711.182	0.0149268
711.260	0.0148333
711.338	0.0148408
711.416	0.0149108
711.494	0.0149264
711.572	0.0148576
711.651	0.0148550
711.729	0.0147611
711.807	0.0147064
711.885	0.0147831
711.963	0.0147936
712.041	0.0146635
712.119	0.0146736
712.197	0.0147768
712.276	0.0147665
712.354	0.0144905
712.432	0.0147778
712.510	0.0148734
712.588	0.0148733
712.666	0.0150655
712.744	0.0152544
712.822	0.0152360
712.901	0.0153656
712.979	0.0154210
713.057	0.0154152
713.135	0.0154551
713.213	0.0156734
713.291	0.0156175
713.369	0.0157354
713.447	0.0156676
713.526	0.0156561
713.604	0.0155995
713.682	0.0154281
713.760	0.0154134
713.838	0.0152648
713.916	0.0151260
713.994	0.0150108
714.072	0.0148146
714.151	0.0146513
714.229	0.0145628
714.307	0.0143647
714.385	0.0141622
714.463	0.0142469
714.541	0.0140753
714.619	0.0141183
714.697	0.0140514
714.776	0.0141562
714.854	0.0140763
714.932	0.0140864
715.010	0.0141786
715.088	0.0141919
715.166	0.0142859
715.244	0.0143786
715.322	0.0144484
715.401	0.0144796
715.479	0.0144153
715.557	0.0145472
715.635	0.0147211
715.713	0.0147866
715.791	0.0148982
715.869	0.0151185
715.947	0.0152051
716.026	0.0153542
716.104	0.0154174
716.182	0.0154844
716.260	0.0155849
716.338	0.0156415
716.416	0.0156580
716.494	0.0156172
716.572	0.0156649
716.651	0.0157722
716.729	0.0157983
716.807	0.0157902
716.885	0.0157395
716.963	0.0157404
717.041	0.0156332
717.119	0.0155856
717.197	0.0154987
717.276	0.0153722
717.354	0.0153155
717.432	0.0152985
717.510	0.0151427
717.588	0.0149068
717.666	0.0148182
717.744	0.0146545
717.822	0.0146178
717.901	0.0145640
717.979	0.0143385
718.057	0.0142161
718.135	0.0141619
718.213	0.0141230
718.291	0.0140827
718.369	0.0141150
718.447	0.0141148
718.526	0.0140543
718.604	0.0142779
718.682	0.0143370
718.760	0.0142393
718.838	0.0142411
718.916	0.0144984
718.994	0.0144482
719.072	0.0145051
719.151	0.0146252
719.229	0.0147182
719.307	0.0149434
719.385	0.0150557
719.463	0.0151114
719.541	0.0151675
719.619	0.0153265
719.697	0.0154097
719.776	0.0154825
719.854	0.0154604
719.932	0.0155238
720.010	0.0155302
720.088	0.0156096
720.166	0.0156493
720.244	0.0156165
720.322	0.0157128
720.401	0.0156082
720.479	0.0154950
720.557	0.0155714
720.635	0.0152920
720.713	0.0154149
720.791	0.0150760
720.869	0.0151292
720.947	0.0151234
721.026	0.0151244
721.104	0.0149038
721.182	0.0147946
721.260	0.0148137
721.338	0.0146822
721.416	0.0144624
721.494	0.0144317
721.572	0.0143820
721.651	0.0142958
721.729	0.0143192
721.807	0.0142104
721.885	0.0143616
721.963	0.0142183
722.041	0.0141975
722.119	0.0142702
722.197	0.0142348
722.276	0.0142062
722.354	0.0142252
722.432	0.0144009
722.510	0.0144832
722.588	0.0144817
722.666	0.0145572
722.744	0.0143935
722.822	0.0144907
722.901	0.0144590
722.979	0.0146152
723.057	0.0147031
723.135	0.0148364
723.213	0.0148401
723.291	0.0149104
723.369	0.0150845
723.447	0.0150919
723.526	0.0151526
723.604	0.0151908
723.682	0.0151952
723.760	0.0152796
723.838	0.0155080
723.916	0.0154170
723.994	0.0154713
724.072	0.0156002
724.151	0.0155924
724.229	0.0156001
724.307	0.0155994
724.385	0.0155215
724.463	0.0155601
724.541	0.0154450
724.619	0.0154562
724.697	0.0154802
724.776	0.0154336
724.854	0.0152538
724.932	0.0152909
725.010	0.0152000
725.088	0.0151633
725.166	0.0149630
725.244	0.0150116
725.322	0.0149843
725.401	0.0149911
725.479	0.0148566
725.557	0.0147474
725.635	0.0147147
725.713	0.0146939
725.791	0.0146569
725.869	0.0146184
725.947	0.0143613
726.026	0.0144934
726.104	0.0143656
726.182	0.0142388
726.260	0.0142667
726.338	0.0143911
726.416	0.0142496
726.494	0.0141333
726.572	0.0141803
726.651	0.0142414
726.729	0.0142934
726.807	0.0142031
726.885	0.0144316
726.963	0.0144196
727.041	0.0143801
727.119	0.0144082
727.197	0.0145730
727.276	0.0146236
727.354	0.0147046
727.432	0.0147915
727.510	0.0149977
727.588	0.0150298
727.666	0.0149421
727.744	0.0148198
727.822	0.0149807
727.901	0.0150294
727.979	0.0151371
728.057	0.0151913
728.135	0.0152595
728.213	0.0152436
728.291	0.0151614
728.369	0.0152005
728.447	0.0154189
728.526	0.0152947
728.604	0.0153146
728.682	0.0152277
728.760	0.0152358
728.838	0.0153249
728.916	0.0152802
728.994	0.0153246
729.072	0.0152233
729.151	0.0152415
729.229	0.0154955
729.307	0.0153374
729.385	0.0152882
729.463	0.0152911
729.541	0.0152116
729.619	0.0151559
729.697	0.0151977
729.776	0.0151884
729.854	0.0151846
729.932	0.0150726
730.010	0.0150515
730.088	0.0149402
730.166	0.0148586
730.244	0.0149290
730.322	0.0148566
730.401	0.0147343
730.479	0.0147692
730.557	0.0148213
730.635	0.0147900
730.713	0.0146431
730.791	0.0146778
730.869	0.0146420
730.947	0.0145450
731.026	0.0144624
731.104	0.0145558
731.182	0.0145435
731.260	0.0143970
731.338	0.0143721
731.416	0.0143683
731.494	0.0144637
731.572	0.0144753
731.651	0.0142554
731.729	0.0144151
731.807	0.0144659
731.885	0.0144230
731.963	0.0142738
732.041	0.0145503
732.119	0.0145059
732.197	0.0145488
732.276	0.0144270
732.354	0.0146671
732.432	0.0146609
732.510	0.0146584
732.588	0.0149384
732.666	0.0147331
732.744	0.0147427
732.822	0.0147290
732.901	0.0149325
732.979	0.0148523
733.057	0.0149723
733.135	0.0148669
733.213	0.0148879
733.291	0.0150046
733.369	0.0150069
733.447	0.0149886
733.526	0.0151112
733.604	0.0150983
733.682	0.0152915
733.760	0.0152404
733.838	0.0153582
733.916	0.0153838
733.994	0.0152663
734.072	0.0153936
734.151	0.0154141
734.229	0.0154237
734.307	0.0154220
734.385	0.0154838
734.463	0.0154662
734.541	0.0155088
734.619	0.0154157
734.697	0.0154177
734.776	0.0155504
734.854	0.0154753
734.932	0.0153882
735.010	0.0152218
735.088	0.0152741
735.166	0.0152898
735.244	0.0151125
735.322	0.0151495
735.401	0.0150845
735.479	0.0151182
735.557	0.0148542
735.635	0.0147845
735.713	0.0148470
735.791	0.0147824
735.869	0.0146430
735.947	0.0146271
736.026	0.0147183
736.104	0.0145815
736.182	0.0146391
736.260	0.0146973
736.338	0.0147292
736.416	0.0146042
736.494	0.0145441
736.572	0.0146442
736.651	0.0144084
736.729	0.0144473
736.807	0.0145375
736.885	0.0145031
736.963	0.0144949
737.041	0.0144980
737.119	0.0144741
737.197	0.0143528
737.276	0.0143833
737.354	0.0144725
737.432	0.0144124
737.510	0.0144611
737.588	0.0143567
737.666	0.0144711
737.744	0.0144205
737.822	0.0143987
737.901	0.0146088
737.979	0.0145512
738.057	0.0146458
738.135	0.0145704
738.213	0.0147800
738.291	0.0148549
738.369	0.0147612
738.447	0.0147632
738.526	0.0148629
738.604	0.0149026
738.682	0.0149755
738.760	0.0150596
738.838	0.0150921
738.916	0.0151541
738.994	0.0151467
739.072	0.0152433
739.151	0.0152861
739.229	0.0152977
739.307	0.0152219
739.385	0.0151839
739.463	0.0152425
739.541	0.0151998
739.619	0.0152077
739.697	0.0150836
739.776	0.0151562
739.854	0.0151081
739.932	0.0149989
740.010	0.0151147
740.088	0.0150884
740.166	0.0151382
740.244	0.0150875
740.322	0.0150333
740.401	0.0150077
740.479	0.0149783
740.557	0.0149573
740.635	0.0149535
740.713	0.0149647
740.791	0.0149547
740.869	0.0150685
740.947	0.0149200
741.026	0.0150352
741.104	0.0149739
741.182	0.0148566
741.260	0.0148499
741.338	0.0149203
741.416	0.0148558
741.494	0.0149132
741.572	0.0148916
741.651	0.0148332
741.729	0.0147604
741.807	0.0146414
741.885	0.0146667
741.963	0.0146992
742.041	0.0146757
742.119	0.0146072
742.197	0.0146017
742.276	0.0146007
742.354	0.0146160
742.432	0.0144614
742.510	0.0144812
742.588	0.0146563
742.666	0.0146040
742.744	0.0146191
742.822	0.0146529
742.901	0.0146633
742.979	0.0146090
743.057	0.0146930
743.135	0.0147860
743.213	0.0147856
743.291	0.0145709
743.369	0.0144713
743.447	0.0147676
743.526	0.0147377
743.604	0.0145771
743.682	0.0144569
743.760	0.0145544
743.838	0.0145756
743.916	0.0145486
743.994	0.0147034
744.072	0.0146327
744.151	0.0147916
744.229	0.0146804
744.307	0.0146198
744.385	0.0146626
744.463	0.0147228
744.541	0.0148498
744.619	0.0147969
744.697	0.0148792
744.776	0.0149041
744.854	0.0148927
744.932	0.0148507
745.010	0.0148796
745.088	0.0150044
745.166	0.0150565
745.244	0.0150176
745.322	0.0150423
745.401	0.0151617
745.479	0.0151205
745.557	0.0151482
745.635	0.0150901
745.713	0.0152132
