05/03/2022	20:02:26	Ver.	4.1	UNKNOWN
Optical Delay	660.009933	Delta X		0.078125	Sweeps	1	Scan Rate	0/0
Coordinates	Axis 1	NaN	Axis 2	NaN	Axis 3	NaN	Axis 4	NaN	Axis 5	NaN	Axis 6	0.000000
TX Power	0.000000	RX Power	0.000000

660.010	0.0144061
660.088	0.0143774
660.166	0.0144456
660.244	0.0143313
660.322	0.0144035
660.401	0.0144607
660.479	0.0142614
660.557	0.0143758
660.635	0.0144136
660.713	0.0144744
660.791	0.0143874
660.869	0.0143802
660.947	0.0143896
661.026	0.0142369
661.104	0.0144721
661.182	0.0143182
661.260	0.0143905
661.338	0.0143275
661.416	0.0143732
661.494	0.0146427
661.572	0.0144240
661.651	0.0143372
661.729	0.0144395
661.807	0.0143752
661.885	0.0143155
661.963	0.0142960
662.041	0.0143223
662.119	0.0145494
662.197	0.0143591
662.276	0.0143324
662.354	0.0143807
662.432	0.0144106
662.510	0.0143951
662.588	0.0142917
662.666	0.0143543
662.744	0.0144599
662.822	0.0143735
662.901	0.0144082
662.979	0.0143542
663.057	0.0143845
663.135	0.0143083
663.213	0.0143487
663.291	0.0144289
663.369	0.0145324
663.447	0.0144473
663.526	0.0143775
663.604	0.0145464
663.682	0.0144314
663.760	0.0144318
663.838	0.0143549
663.916	0.0144218
663.994	0.0144714
664.072	0.0142802
664.151	0.0142738
664.229	0.0143179
664.307	0.0143983
664.385	0.0145149
664.463	0.0143274
664.541	0.0144300
664.619	0.0145072
664.697	0.0143913
664.776	0.0144530
664.854	0.0143591
664.932	0.0144196
665.010	0.0143613
665.088	0.0143696
665.166	0.0146574
665.244	0.0143736
665.322	0.0143990
665.401	0.0143822
665.479	0.0144308
665.557	0.0143757
665.635	0.0144259
665.713	0.0144649
665.791	0.0144596
665.869	0.0143410
665.947	0.0143195
666.026	0.0142869
666.104	0.0143487
666.182	0.0143390
666.260	0.0142287
666.338	0.0143009
666.416	0.0144295
666.494	0.0143632
666.572	0.0143578
666.651	0.0143782
666.729	0.0143159
666.807	0.0145142
666.885	0.0144978
666.963	0.0143648
667.041	0.0142808
667.119	0.0144277
667.197	0.0144794
667.276	0.0143913
667.354	0.0142439
667.432	0.0142909
667.510	0.0144705
667.588	0.0143224
667.666	0.0141904
667.744	0.0144302
667.822	0.0144628
667.901	0.0143436
667.979	0.0143604
668.057	0.0142520
668.135	0.0143559
668.213	0.0143687
668.291	0.0144990
668.369	0.0143082
668.447	0.0143422
668.526	0.0144067
668.604	0.0143784
668.682	0.0142837
668.760	0.0142745
668.838	0.0143468
668.916	0.0144259
668.994	0.0143827
669.072	0.0144450
669.151	0.0143702
669.229	0.0143752
669.307	0.0145430
669.385	0.0144340
669.463	0.0142807
669.541	0.0143767
669.619	0.0142951
669.697	0.0143975
669.776	0.0144501
669.854	0.0142496
669.932	0.0144645
670.010	0.0144441
670.088	0.0144651
670.166	0.0142518
670.244	0.0143896
670.322	0.0145361
670.401	0.0143920
670.479	0.0143455
670.557	0.0144091
670.635	0.0144471
670.713	0.0144209
670.791	0.0143446
670.869	0.0144199
670.947	0.0142715
671.026	0.0143301
671.104	0.0145640
671.182	0.0142905
671.260	0.0144128
671.338	0.0145060
671.416	0.0144043
671.494	0.0143909
671.572	0.0143676
671.651	0.0144143
671.729	0.0143450
671.807	0.0144055
671.885	0.0145074
671.963	0.0143060
672.041	0.0144124
672.119	0.0145166
672.197	0.0144314
672.276	0.0142637
672.354	0.0143139
672.432	0.0144540
672.510	0.0144176
672.588	0.0143595
672.666	0.0143727
672.744	0.0144417
672.822	0.0143334
672.901	0.0144077
672.979	0.0143741
673.057	0.0143417
673.135	0.0143845
673.213	0.0144951
673.291	0.0144822
673.369	0.0143004
673.447	0.0143270
673.526	0.0144292
673.604	0.0144294
673.682	0.0144799
673.760	0.0144901
673.838	0.0143524
673.916	0.0143677
673.994	0.0143240
674.072	0.0143660
674.151	0.0143377
674.229	0.0143386
674.307	0.0145305
674.385	0.0142916
674.463	0.0142586
674.541	0.0143411
674.619	0.0142671
674.697	0.0141782
674.776	0.0145316
674.854	0.0144534
674.932	0.0143887
675.010	0.0143346
675.088	0.0143677
675.166	0.0144237
675.244	0.0143360
675.322	0.0144466
675.401	0.0143632
675.479	0.0143192
675.557	0.0144168
675.635	0.0142696
675.713	0.0144374
675.791	0.0143992
675.869	0.0141794
675.947	0.0143821
676.026	0.0144185
676.104	0.0142916
676.182	0.0143473
676.260	0.0143932
676.338	0.0143163
676.416	0.0143379
676.494	0.0143767
676.572	0.0142516
676.651	0.0144042
676.729	0.0143260
676.807	0.0144646
676.885	0.0143767
676.963	0.0142521
677.041	0.0144421
677.119	0.0144378
677.197	0.0142924
677.276	0.0144893
677.354	0.0143760
677.432	0.0143777
677.510	0.0144001
677.588	0.0143733
677.666	0.0143324
677.744	0.0143484
677.822	0.0144194
677.901	0.0142327
677.979	0.0142683
678.057	0.0143476
678.135	0.0143969
678.213	0.0143522
678.291	0.0143941
678.369	0.0144604
678.447	0.0144191
678.526	0.0143606
678.604	0.0143798
678.682	0.0142658
678.760	0.0143348
678.838	0.0144807
678.916	0.0143716
678.994	0.0143039
679.072	0.0144173
679.151	0.0143241
679.229	0.0144698
679.307	0.0144425
679.385	0.0143128
679.463	0.0142401
679.541	0.0143525
679.619	0.0143389
679.697	0.0142156
679.776	0.0143611
679.854	0.0143542
679.932	0.0143526
680.010	0.0143409
680.088	0.0143543
680.166	0.0144485
680.244	0.0143404
680.322	0.0142947
680.401	0.0142787
680.479	0.0142656
680.557	0.0143897
680.635	0.0144256
680.713	0.0142580
680.791	0.0143293
680.869	0.0143000
680.947	0.0143311
681.026	0.0143122
681.104	0.0145208
681.182	0.0143778
681.260	0.0144230
681.338	0.0143612
681.416	0.0143880
681.494	0.0143033
681.572	0.0144808
681.651	0.0143452
681.729	0.0142786
681.807	0.0144949
681.885	0.0143355
681.963	0.0142297
682.041	0.0144637
682.119	0.0143956
682.197	0.0143801
682.276	0.0143302
682.354	0.0143464
682.432	0.0145559
682.510	0.0144269
682.588	0.0144227
682.666	0.0144025
682.744	0.0144128
682.822	0.0143902
682.901	0.0143880
682.979	0.0144423
683.057	0.0143112
683.135	0.0144106
683.213	0.0142921
683.291	0.0144428
683.369	0.0144769
683.447	0.0143163
683.526	0.0142424
683.604	0.0142706
683.682	0.0144291
683.760	0.0145120
683.838	0.0144584
683.916	0.0143763
683.994	0.0144352
684.072	0.0143639
684.151	0.0144604
684.229	0.0144165
684.307	0.0143854
684.385	0.0143884
684.463	0.0143309
684.541	0.0143531
684.619	0.0144639
684.697	0.0144314
684.776	0.0142753
684.854	0.0143549
684.932	0.0143509
685.010	0.0142972
685.088	0.0142660
685.166	0.0143087
685.244	0.0144699
685.322	0.0144640
685.401	0.0142722
685.479	0.0143745
685.557	0.0144836
685.635	0.0144025
685.713	0.0143008
685.791	0.0142981
685.869	0.0145045
685.947	0.0143719
686.026	0.0143628
686.104	0.0142911
686.182	0.0143278
686.260	0.0144615
686.338	0.0144109
686.416	0.0143730
686.494	0.0144203
686.572	0.0144502
686.651	0.0144666
686.729	0.0143859
686.807	0.0143252
686.885	0.0144691
686.963	0.0143884
687.041	0.0143935
687.119	0.0142525
687.197	0.0143441
687.276	0.0143475
687.354	0.0144183
687.432	0.0143681
687.510	0.0142377
687.588	0.0144770
687.666	0.0144498
687.744	0.0143555
687.822	0.0143970
687.901	0.0144387
687.979	0.0143734
688.057	0.0144695
688.135	0.0143238
688.213	0.0143771
688.291	0.0146326
688.369	0.0144716
688.447	0.0143137
688.526	0.0144193
688.604	0.0142818
688.682	0.0143496
688.760	0.0144405
688.838	0.0144028
688.916	0.0143939
688.994	0.0142805
689.072	0.0145048
689.151	0.0144239
689.229	0.0141453
689.307	0.0142820
689.385	0.0144289
689.463	0.0144035
689.541	0.0143657
689.619	0.0144370
689.697	0.0142288
689.776	0.0143214
689.854	0.0143597
689.932	0.0142904
690.010	0.0143961
690.088	0.0144159
690.166	0.0143941
690.244	0.0144583
690.322	0.0143712
690.401	0.0143645
690.479	0.0143809
690.557	0.0144171
690.635	0.0145580
690.713	0.0144228
690.791	0.0143108
690.869	0.0143949
690.947	0.0143341
691.026	0.0143716
691.104	0.0144464
691.182	0.0143076
691.260	0.0143190
691.338	0.0141776
691.416	0.0144936
691.494	0.0143560
691.572	0.0143144
691.651	0.0143851
691.729	0.0144530
691.807	0.0143185
691.885	0.0142792
691.963	0.0144053
692.041	0.0142954
692.119	0.0143077
692.197	0.0143899
692.276	0.0143747
692.354	0.0142245
692.432	0.0144984
692.510	0.0144170
692.588	0.0143294
692.666	0.0144018
692.744	0.0145056
692.822	0.0144496
692.901	0.0143886
692.979	0.0144809
693.057	0.0143232
693.135	0.0144116
693.213	0.0144902
693.291	0.0143844
693.369	0.0143504
693.447	0.0144736
693.526	0.0144766
693.604	0.0145159
693.682	0.0143674
693.760	0.0143826
693.838	0.0144572
693.916	0.0144007
693.994	0.0143952
694.072	0.0143623
694.151	0.0145216
694.229	0.0143789
694.307	0.0143579
694.385	0.0144218
694.463	0.0145002
694.541	0.0143343
694.619	0.0143047
694.697	0.0143800
694.776	0.0144743
694.854	0.0143226
694.932	0.0143508
695.010	0.0145290
695.088	0.0144396
695.166	0.0143381
695.244	0.0143011
695.322	0.0145118
695.401	0.0142979
695.479	0.0144801
695.557	0.0144215
695.635	0.0143559
695.713	0.0143466
695.791	0.0144255
695.869	0.0144805
695.947	0.0143514
696.026	0.0141686
696.104	0.0144759
696.182	0.0143786
696.260	0.0142750
696.338	0.0143005
696.416	0.0143504
696.494	0.0143565
696.572	0.0143583
696.651	0.0144612
696.729	0.0144459
696.807	0.0144249
696.885	0.0144913
696.963	0.0144819
697.041	0.0144778
697.119	0.0143459
697.197	0.0143114
697.276	0.0143724
697.354	0.0142509
697.432	0.0143910
697.510	0.0144910
697.588	0.0143354
697.666	0.0144341
697.744	0.0145106
697.822	0.0143986
697.901	0.0143514
697.979	0.0142163
698.057	0.0144512
698.135	0.0143401
698.213	0.0143129
698.291	0.0144535
698.369	0.0144390
698.447	0.0143665
698.526	0.0143115
698.604	0.0144525
698.682	0.0144443
698.760	0.0145438
698.838	0.0142978
698.916	0.0143372
698.994	0.0144149
699.072	0.0144638
699.151	0.0143023
699.229	0.0142921
699.307	0.0143901
699.385	0.0143675
699.463	0.0141877
699.541	0.0143018
699.619	0.0143978
699.697	0.0143002
699.776	0.0143047
699.854	0.0142788
699.932	0.0143281
700.010	0.0144992
700.088	0.0142931
700.166	0.0145052
700.244	0.0144581
700.322	0.0144007
700.401	0.0143378
700.479	0.0143179
700.557	0.0143916
700.635	0.0142764
700.713	0.0142901
700.791	0.0145148
700.869	0.0142973
700.947	0.0141606
701.026	0.0142541
701.104	0.0142223
701.182	0.0144415
701.260	0.0144101
701.338	0.0142192
701.416	0.0143867
701.494	0.0143529
701.572	0.0142474
701.651	0.0142352
701.729	0.0143085
701.807	0.0143143
701.885	0.0144634
701.963	0.0143110
702.041	0.0142489
702.119	0.0143455
702.197	0.0142261
702.276	0.0143472
702.354	0.0143192
702.432	0.0143787
702.510	0.0144226
702.588	0.0142650
702.666	0.0143559
702.744	0.0144489
702.822	0.0143505
702.901	0.0143221
702.979	0.0143705
703.057	0.0144362
703.135	0.0142924
703.213	0.0144018
703.291	0.0143005
703.369	0.0143912
703.447	0.0143961
703.526	0.0144061
703.604	0.0144559
703.682	0.0145277
703.760	0.0144880
703.838	0.0143331
703.916	0.0143565
703.994	0.0144453
704.072	0.0143979
704.151	0.0144567
704.229	0.0143131
704.307	0.0142995
704.385	0.0143383
704.463	0.0144429
704.541	0.0142309
704.619	0.0141710
704.697	0.0142538
704.776	0.0143677
704.854	0.0143766
704.932	0.0143204
705.010	0.0143767
705.088	0.0143979
705.166	0.0144203
705.244	0.0145116
705.322	0.0143712
705.401	0.0144768
705.479	0.0143442
705.557	0.0145522
705.635	0.0146826
705.713	0.0146690
705.791	0.0146109
705.869	0.0147003
705.947	0.0145849
706.026	0.0147948
706.104	0.0147927
706.182	0.0146277
706.260	0.0146838
706.338	0.0146799
706.416	0.0146377
706.494	0.0145719
706.572	0.0145310
706.651	0.0145890
706.729	0.0146484
706.807	0.0144878
706.885	0.0145201
706.963	0.0144872
707.041	0.0144361
707.119	0.0144183
707.197	0.0144141
707.276	0.0143139
707.354	0.0143552
707.432	0.0144059
707.510	0.0141393
707.588	0.0142063
707.666	0.0140895
707.744	0.0140986
707.822	0.0139703
707.901	0.0139831
707.979	0.0140824
708.057	0.0140865
708.135	0.0141101
708.213	0.0140017
708.291	0.0138740
708.369	0.0138667
708.447	0.0138120
708.526	0.0137224
708.604	0.0138683
708.682	0.0135844
708.760	0.0133016
708.838	0.0130784
708.916	0.0128687
708.994	0.0124733
709.072	0.0121823
709.151	0.0118504
709.229	0.0117719
709.307	0.0116628
709.385	0.0118393
709.463	0.0118590
709.541	0.0124257
709.619	0.0132247
709.697	0.0138630
709.776	0.0146131
709.854	0.0153353
709.932	0.0159695
710.010	0.0164295
710.088	0.0167632
710.166	0.0167961
710.244	0.0165224
710.322	0.0163219
710.401	0.0159544
710.479	0.0155042
710.557	0.0152519
710.635	0.0152422
710.713	0.0151516
710.791	0.0151509
710.869	0.0153870
710.947	0.0155601
711.026	0.0159362
711.104	0.0160258
711.182	0.0162177
711.260	0.0163371
711.338	0.0163558
711.416	0.0163696
711.494	0.0161364
711.572	0.0160780
711.651	0.0160413
711.729	0.0160178
711.807	0.0162701
711.885	0.0163226
711.963	0.0165707
712.041	0.0166666
712.119	0.0167087
712.197	0.0163082
712.276	0.0159610
712.354	0.0154926
712.432	0.0147877
712.510	0.0140538
712.588	0.0131852
712.666	0.0123868
712.744	0.0115686
712.822	0.0106213
712.901	0.00980461
712.979	0.00898071
713.057	0.00805534
713.135	0.00724800
713.213	0.00671692
713.291	0.00635185
713.369	0.00619980
713.447	0.00645638
713.526	0.00698563
713.604	0.00773521
713.682	0.00900406
713.760	0.0102237
713.838	0.0118044
713.916	0.0133739
713.994	0.0153311
714.072	0.0169337
714.151	0.0190380
714.229	0.0209940
714.307	0.0227215
714.385	0.0239619
714.463	0.0250871
714.541	0.0256265
714.619	0.0258528
714.697	0.0255954
714.776	0.0251069
714.854	0.0240301
714.932	0.0225802
715.010	0.0210136
715.088	0.0191056
715.166	0.0172971
715.244	0.0153993
715.322	0.0135160
715.401	0.0121049
715.479	0.0105835
715.557	0.00927452
715.635	0.00837402
715.713	0.00776772
715.791	0.00748245
715.869	0.00726936
715.947	0.00716110
716.026	0.00741646
716.104	0.00765099
716.182	0.00819313
716.260	0.00864319
716.338	0.00916801
716.416	0.00989349
716.494	0.0104957
716.572	0.0109705
716.651	0.0116724
716.729	0.0123346
716.807	0.0128040
716.885	0.0135068
716.963	0.0140352
717.041	0.0147435
717.119	0.0153876
717.197	0.0160684
717.276	0.0165078
717.354	0.0171520
717.432	0.0176976
717.510	0.0180768
717.588	0.0185075
717.666	0.0189364
717.744	0.0188786
717.822	0.0191463
717.901	0.0190324
717.979	0.0189326
718.057	0.0187084
718.135	0.0184748
718.213	0.0181317
718.291	0.0178053
718.369	0.0173423
718.447	0.0169054
718.526	0.0164816
718.604	0.0161266
718.682	0.0158613
718.760	0.0154255
718.838	0.0151347
718.916	0.0146718
718.994	0.0145383
719.072	0.0141528
719.151	0.0138464
719.229	0.0135159
719.307	0.0131638
719.385	0.0127760
719.463	0.0122793
719.541	0.0119211
719.619	0.0116317
719.697	0.0113255
719.776	0.0110779
719.854	0.0106025
719.932	0.0104353
720.010	0.0104192
720.088	0.0102350
720.166	0.0101854
720.244	0.00995628
720.322	0.0100957
720.401	0.0102222
720.479	0.0103262
720.557	0.0105840
720.635	0.0108645
720.713	0.0111685
720.791	0.0114265
720.869	0.0120704
720.947	0.0123240
721.026	0.0128700
721.104	0.0134096
721.182	0.0139059
721.260	0.0145135
721.338	0.0151206
721.416	0.0156568
721.494	0.0161020
721.572	0.0165807
721.651	0.0169633
721.729	0.0173707
721.807	0.0174541
721.885	0.0177502
721.963	0.0176794
722.041	0.0177537
722.119	0.0177677
722.197	0.0177067
722.276	0.0175651
722.354	0.0176761
722.432	0.0175580
722.510	0.0175061
722.588	0.0174576
722.666	0.0173438
722.744	0.0172752
722.822	0.0170052
722.901	0.0169176
722.979	0.0166760
723.057	0.0164876
723.135	0.0161243
723.213	0.0157853
723.291	0.0154884
723.369	0.0153262
723.447	0.0151434
723.526	0.0149094
723.604	0.0144575
723.682	0.0141211
723.760	0.0139381
723.838	0.0135302
723.916	0.0131033
723.994	0.0126503
724.072	0.0125157
724.151	0.0119756
724.229	0.0116563
724.307	0.0113487
724.385	0.0108334
724.463	0.0108215
724.541	0.0105340
724.619	0.0102784
724.697	0.0104449
724.776	0.0106598
724.854	0.0105430
724.932	0.0107791
725.010	0.0109114
725.088	0.0112173
725.166	0.0116602
725.244	0.0116899
725.322	0.0121257
725.401	0.0125048
725.479	0.0128320
725.557	0.0130949
725.635	0.0133897
725.713	0.0136652
725.791	0.0141415
725.869	0.0146144
725.947	0.0149020
726.026	0.0151747
726.104	0.0155568
726.182	0.0157707
726.260	0.0160730
726.338	0.0165063
726.416	0.0167530
726.494	0.0168707
726.572	0.0170534
726.651	0.0172339
726.729	0.0172363
726.807	0.0170217
726.885	0.0170512
726.963	0.0170332
727.041	0.0167961
727.119	0.0168357
727.197	0.0167382
727.276	0.0164832
727.354	0.0165316
727.432	0.0162844
727.510	0.0163379
727.588	0.0161395
727.666	0.0161581
727.744	0.0161044
727.822	0.0158699
727.901	0.0158660
727.979	0.0158378
728.057	0.0157714
728.135	0.0156387
728.213	0.0154781
728.291	0.0152864
728.369	0.0151648
728.447	0.0151029
728.526	0.0150452
728.604	0.0148177
728.682	0.0148231
728.760	0.0145660
728.838	0.0144084
728.916	0.0141413
728.994	0.0140294
729.072	0.0137774
729.151	0.0134007
729.229	0.0133868
729.307	0.0131156
729.385	0.0128228
729.463	0.0126464
729.541	0.0125311
729.619	0.0124839
729.697	0.0122871
729.776	0.0120264
729.854	0.0118100
729.932	0.0116570
730.010	0.0116552
730.088	0.0114817
730.166	0.0112886
730.244	0.0113023
730.322	0.0113053
730.401	0.0113345
730.479	0.0114041
730.557	0.0115310
730.635	0.0115672
730.713	0.0117105
730.791	0.0119161
730.869	0.0120103
730.947	0.0123612
731.026	0.0127023
731.104	0.0128782
731.182	0.0132452
731.260	0.0136003
731.338	0.0139602
731.416	0.0142709
731.494	0.0146867
731.572	0.0149377
731.651	0.0152821
731.729	0.0155129
731.807	0.0157080
731.885	0.0161441
731.963	0.0163641
732.041	0.0166273
732.119	0.0167276
732.197	0.0171704
732.276	0.0173378
732.354	0.0173575
732.432	0.0175500
732.510	0.0175185
732.588	0.0176009
732.666	0.0174785
732.744	0.0175536
732.822	0.0173585
732.901	0.0172869
732.979	0.0171072
733.057	0.0169649
733.135	0.0169132
733.213	0.0167033
733.291	0.0162849
733.369	0.0161777
733.447	0.0159182
733.526	0.0155523
733.604	0.0152857
733.682	0.0151081
733.760	0.0145757
733.838	0.0145512
733.916	0.0143497
733.994	0.0141315
734.072	0.0140052
734.151	0.0137939
734.229	0.0137413
734.307	0.0136620
734.385	0.0135499
734.463	0.0134878
734.541	0.0132323
734.619	0.0131869
734.697	0.0129624
734.776	0.0129134
734.854	0.0127731
734.932	0.0125891
735.010	0.0124512
735.088	0.0122793
735.166	0.0122385
735.244	0.0120992
735.322	0.0121381
735.401	0.0120776
735.479	0.0120486
735.557	0.0121246
735.635	0.0121386
735.713	0.0122064
735.791	0.0122860
735.869	0.0123849
735.947	0.0124570
736.026	0.0124751
736.104	0.0127380
736.182	0.0126910
736.260	0.0129236
736.338	0.0132751
736.416	0.0132247
736.494	0.0136050
736.572	0.0139104
736.651	0.0142009
736.729	0.0144735
736.807	0.0146139
736.885	0.0146267
736.963	0.0149393
737.041	0.0150379
737.119	0.0150824
737.197	0.0150195
737.276	0.0151110
737.354	0.0151197
737.432	0.0150700
737.510	0.0149924
737.588	0.0150393
737.666	0.0151608
737.744	0.0152169
737.822	0.0152150
737.901	0.0153666
737.979	0.0154173
738.057	0.0153938
738.135	0.0154932
738.213	0.0155990
738.291	0.0157693
738.369	0.0156618
738.447	0.0156983
738.526	0.0159476
738.604	0.0158655
738.682	0.0158977
738.760	0.0157763
738.838	0.0157849
738.916	0.0156590
738.994	0.0156318
739.072	0.0155403
739.151	0.0154831
739.229	0.0151881
739.307	0.0151347
739.385	0.0150457
739.463	0.0149507
739.541	0.0149263
739.619	0.0148831
739.697	0.0148364
739.776	0.0148623
739.854	0.0146435
739.932	0.0146436
740.010	0.0148883
740.088	0.0148289
740.166	0.0148289
740.244	0.0146940
740.322	0.0145426
740.401	0.0145998
740.479	0.0143725
740.557	0.0142635
740.635	0.0139825
740.713	0.0138884
740.791	0.0137846
740.869	0.0136245
740.947	0.0132499
741.026	0.0133807
741.104	0.0131242
741.182	0.0129002
741.260	0.0127481
741.338	0.0126140
741.416	0.0124387
741.494	0.0125869
741.572	0.0126630
741.651	0.0126776
741.729	0.0125433
741.807	0.0126089
741.885	0.0128757
741.963	0.0128540
742.041	0.0129814
742.119	0.0129749
742.197	0.0132991
742.276	0.0133466
742.354	0.0132127
742.432	0.0134119
742.510	0.0134132
742.588	0.0135309
742.666	0.0135470
742.744	0.0133289
742.822	0.0135596
742.901	0.0135255
742.979	0.0134548
743.057	0.0136510
743.135	0.0135741
743.213	0.0138220
743.291	0.0136750
743.369	0.0137728
743.447	0.0141111
743.526	0.0142622
743.604	0.0144921
743.682	0.0145332
743.760	0.0146912
743.838	0.0148305
743.916	0.0150316
743.994	0.0150916
744.072	0.0152676
744.151	0.0155051
744.229	0.0157686
744.307	0.0157719
744.385	0.0158807
744.463	0.0161240
744.541	0.0162281
744.619	0.0160763
744.697	0.0161548
744.776	0.0163194
744.854	0.0163299
744.932	0.0163118
745.010	0.0163103
745.088	0.0160098
745.166	0.0160220
745.244	0.0163253
745.322	0.0159494
745.401	0.0158307
745.479	0.0156370
745.557	0.0155354
745.635	0.0154500
