05/03/2022	20:48:43	Ver.	4.1	UNKNOWN
Optical Delay	660.003261	Delta X		0.078125	Sweeps	1	Scan Rate	0/0
Coordinates	Axis 1	NaN	Axis 2	NaN	Axis 3	NaN	Axis 4	NaN	Axis 5	NaN	Axis 6	0.000000
TX Power	0.000000	RX Power	0.000000

660.003	0.0145044
660.081	0.0143503
660.160	0.0144471
660.238	0.0143840
660.316	0.0144661
660.394	0.0145064
660.472	0.0145807
660.550	0.0144216
660.628	0.0145071
660.706	0.0145182
660.785	0.0144193
660.863	0.0144536
660.941	0.0143647
661.019	0.0144267
661.097	0.0144605
661.175	0.0144501
661.253	0.0144855
661.331	0.0144783
661.410	0.0144604
661.488	0.0145113
661.566	0.0145934
661.644	0.0143937
661.722	0.0144221
661.800	0.0145029
661.878	0.0145701
661.956	0.0144392
662.035	0.0144526
662.113	0.0145611
662.191	0.0145063
662.269	0.0145274
662.347	0.0146626
662.425	0.0146042
662.503	0.0145679
662.581	0.0144820
662.660	0.0145505
662.738	0.0146344
662.816	0.0145205
662.894	0.0144953
662.972	0.0144308
663.050	0.0145472
663.128	0.0145347
663.206	0.0144983
663.285	0.0145437
663.363	0.0144000
663.441	0.0144821
663.519	0.0144138
663.597	0.0145664
663.675	0.0143175
663.753	0.0144195
663.831	0.0144212
663.910	0.0144448
663.988	0.0144238
664.066	0.0144348
664.144	0.0145035
664.222	0.0144679
664.300	0.0145010
664.378	0.0144728
664.456	0.0144864
664.535	0.0144434
664.613	0.0144176
664.691	0.0143574
664.769	0.0144982
664.847	0.0144659
664.925	0.0144791
665.003	0.0144633
665.081	0.0144784
665.160	0.0143633
665.238	0.0144598
665.316	0.0145518
665.394	0.0144669
665.472	0.0142155
665.550	0.0143855
665.628	0.0144765
665.706	0.0144584
665.785	0.0142964
665.863	0.0144329
665.941	0.0143475
666.019	0.0143301
666.097	0.0143090
666.175	0.0143839
666.253	0.0143085
666.331	0.0144138
666.410	0.0143877
666.488	0.0144476
666.566	0.0144038
666.644	0.0144565
666.722	0.0144549
666.800	0.0142608
666.878	0.0143720
666.956	0.0145307
667.035	0.0143673
667.113	0.0143985
667.191	0.0144228
667.269	0.0143261
667.347	0.0144871
667.425	0.0143346
667.503	0.0143623
667.581	0.0143159
667.660	0.0145187
667.738	0.0144598
667.816	0.0144930
667.894	0.0144210
667.972	0.0144173
668.050	0.0143713
668.128	0.0144012
668.206	0.0144730
668.285	0.0144344
668.363	0.0144073
668.441	0.0142599
668.519	0.0145061
668.597	0.0144310
668.675	0.0145639
668.753	0.0143794
668.831	0.0143264
668.910	0.0145203
668.988	0.0144425
669.066	0.0144719
669.144	0.0143706
669.222	0.0143181
669.300	0.0143100
669.378	0.0143451
669.456	0.0143607
669.535	0.0144894
669.613	0.0143732
669.691	0.0143698
669.769	0.0143983
669.847	0.0143036
669.925	0.0144154
670.003	0.0143127
670.081	0.0143372
670.160	0.0144749
670.238	0.0141933
670.316	0.0143642
670.394	0.0145213
670.472	0.0142971
670.550	0.0144077
670.628	0.0143391
670.706	0.0144154
670.785	0.0143603
670.863	0.0143504
670.941	0.0142772
671.019	0.0142471
671.097	0.0143263
671.175	0.0143561
671.253	0.0143867
671.331	0.0143304
671.410	0.0143551
671.488	0.0143356
671.566	0.0143906
671.644	0.0144643
671.722	0.0144604
671.800	0.0145142
671.878	0.0144308
671.956	0.0145009
672.035	0.0144303
672.113	0.0144521
672.191	0.0144140
672.269	0.0144131
672.347	0.0143041
672.425	0.0144811
672.503	0.0145696
672.581	0.0144785
672.660	0.0144905
672.738	0.0144810
672.816	0.0143129
672.894	0.0143824
672.972	0.0144290
673.050	0.0144778
673.128	0.0143915
673.206	0.0144572
673.285	0.0144673
673.363	0.0145525
673.441	0.0143762
673.519	0.0144868
673.597	0.0143178
673.675	0.0145466
673.753	0.0144362
673.831	0.0142667
673.910	0.0143917
673.988	0.0144605
674.066	0.0144957
674.144	0.0143143
674.222	0.0143029
674.300	0.0143894
674.378	0.0144082
674.456	0.0143275
674.535	0.0144134
674.613	0.0143755
674.691	0.0143409
674.769	0.0145363
674.847	0.0143982
674.925	0.0144617
675.003	0.0144621
675.081	0.0144003
675.160	0.0144076
675.238	0.0143334
675.316	0.0144613
675.394	0.0144790
675.472	0.0145432
675.550	0.0144388
675.628	0.0144695
675.706	0.0144522
675.785	0.0145903
675.863	0.0144166
675.941	0.0144727
676.019	0.0144584
676.097	0.0144839
676.175	0.0144894
676.253	0.0145109
676.331	0.0144924
676.410	0.0144250
676.488	0.0146242
676.566	0.0145569
676.644	0.0145171
676.722	0.0144627
676.800	0.0144834
676.878	0.0145583
676.956	0.0144541
677.035	0.0145258
677.113	0.0144587
677.191	0.0144257
677.269	0.0145246
677.347	0.0145011
677.425	0.0144637
677.503	0.0144334
677.581	0.0144079
677.660	0.0144509
677.738	0.0143619
677.816	0.0145178
677.894	0.0145289
677.972	0.0145344
678.050	0.0144650
678.128	0.0143588
678.206	0.0144353
678.285	0.0143777
678.363	0.0144279
678.441	0.0144312
678.519	0.0144090
678.597	0.0145011
678.675	0.0143054
678.753	0.0143936
678.831	0.0142995
678.910	0.0142175
678.988	0.0143608
679.066	0.0142807
679.144	0.0142896
679.222	0.0142823
679.300	0.0143682
679.378	0.0143067
679.456	0.0142542
679.535	0.0143825
679.613	0.0145111
679.691	0.0144206
679.769	0.0144803
679.847	0.0143089
679.925	0.0145055
680.003	0.0144153
680.081	0.0145441
680.160	0.0145192
680.238	0.0145306
680.316	0.0143964
680.394	0.0142788
680.472	0.0143242
680.550	0.0146394
680.628	0.0143906
680.706	0.0143222
680.785	0.0144493
680.863	0.0145766
680.941	0.0144695
681.019	0.0144310
681.097	0.0144822
681.175	0.0145024
681.253	0.0145150
681.331	0.0144678
681.410	0.0143968
681.488	0.0144515
681.566	0.0144534
681.644	0.0145557
681.722	0.0143857
681.800	0.0144769
681.878	0.0143532
681.956	0.0143771
682.035	0.0144193
682.113	0.0144776
682.191	0.0143439
682.269	0.0143200
682.347	0.0143906
682.425	0.0144038
682.503	0.0144739
682.581	0.0144682
682.660	0.0144234
682.738	0.0143499
682.816	0.0145531
682.894	0.0145332
682.972	0.0143513
683.050	0.0144032
683.128	0.0145737
683.206	0.0144783
683.285	0.0144859
683.363	0.0143452
683.441	0.0144421
683.519	0.0145121
683.597	0.0143964
683.675	0.0143340
683.753	0.0143665
683.831	0.0144544
683.910	0.0144160
683.988	0.0145625
684.066	0.0144833
684.144	0.0144174
684.222	0.0143222
684.300	0.0143886
684.378	0.0144112
684.456	0.0144076
684.535	0.0143056
684.613	0.0143542
684.691	0.0143436
684.769	0.0143068
684.847	0.0143304
684.925	0.0143616
685.003	0.0143007
685.081	0.0142421
685.160	0.0143913
685.238	0.0145470
685.316	0.0144404
685.394	0.0143903
685.472	0.0142683
685.550	0.0143467
685.628	0.0143720
685.706	0.0143922
685.785	0.0143909
685.863	0.0144984
685.941	0.0144445
686.019	0.0143882
686.097	0.0145383
686.175	0.0144154
686.253	0.0143139
686.331	0.0145327
686.410	0.0142936
686.488	0.0142854
686.566	0.0142840
686.644	0.0144111
686.722	0.0143159
686.800	0.0143353
686.878	0.0143027
686.956	0.0144902
687.035	0.0143533
687.113	0.0142226
687.191	0.0142851
687.269	0.0143850
687.347	0.0143497
687.425	0.0143825
687.503	0.0143101
687.581	0.0143814
687.660	0.0143981
687.738	0.0145099
687.816	0.0146114
687.894	0.0146188
687.972	0.0145604
688.050	0.0144962
688.128	0.0145526
688.206	0.0144185
688.285	0.0143655
688.363	0.0143948
688.441	0.0144112
688.519	0.0145822
688.597	0.0143252
688.675	0.0143851
688.753	0.0142253
688.831	0.0142683
688.910	0.0144138
688.988	0.0143858
689.066	0.0144493
689.144	0.0144096
689.222	0.0144391
689.300	0.0144471
689.378	0.0145160
689.456	0.0144991
689.535	0.0144637
689.613	0.0143842
689.691	0.0143224
689.769	0.0144153
689.847	0.0143633
689.925	0.0142702
690.003	0.0142436
690.081	0.0142332
690.160	0.0142526
690.238	0.0143459
690.316	0.0143295
690.394	0.0143192
690.472	0.0143266
690.550	0.0143900
690.628	0.0143600
690.706	0.0143880
690.785	0.0143464
690.863	0.0144191
690.941	0.0144190
691.019	0.0143499
691.097	0.0142789
691.175	0.0144466
691.253	0.0143616
691.331	0.0142303
691.410	0.0144123
691.488	0.0145276
691.566	0.0143729
691.644	0.0144696
691.722	0.0143414
691.800	0.0145157
691.878	0.0142925
691.956	0.0143913
692.035	0.0143555
692.113	0.0144469
692.191	0.0144717
692.269	0.0145576
692.347	0.0146118
692.425	0.0144384
692.503	0.0144133
692.581	0.0144710
692.660	0.0145737
692.738	0.0146204
692.816	0.0145247
692.894	0.0144839
692.972	0.0145108
693.050	0.0144817
693.128	0.0143740
693.206	0.0144244
693.285	0.0145095
693.363	0.0144714
693.441	0.0145499
693.519	0.0145158
693.597	0.0144666
693.675	0.0145235
693.753	0.0144558
693.831	0.0146102
693.910	0.0145773
693.988	0.0144675
694.066	0.0146374
694.144	0.0145741
694.222	0.0145677
694.300	0.0145579
694.378	0.0144794
694.456	0.0145316
694.535	0.0145298
694.613	0.0145209
694.691	0.0143961
694.769	0.0146152
694.847	0.0144615
694.925	0.0144488
695.003	0.0144411
695.081	0.0145860
695.160	0.0146263
695.238	0.0145356
695.316	0.0144681
695.394	0.0144859
695.472	0.0145567
695.550	0.0146503
695.628	0.0145081
695.706	0.0146157
695.785	0.0146439
695.863	0.0145973
695.941	0.0146413
696.019	0.0145549
696.097	0.0144759
696.175	0.0145087
696.253	0.0145627
696.331	0.0143329
696.410	0.0144714
696.488	0.0145061
696.566	0.0143449
696.644	0.0143645
696.722	0.0144921
696.800	0.0143949
696.878	0.0145286
696.956	0.0144038
697.035	0.0145322
697.113	0.0144547
697.191	0.0145219
697.269	0.0143304
697.347	0.0144033
697.425	0.0145327
697.503	0.0144680
697.581	0.0145379
697.660	0.0145772
697.738	0.0144736
697.816	0.0143867
697.894	0.0144289
697.972	0.0145422
698.050	0.0143993
698.128	0.0144637
698.206	0.0144347
698.285	0.0143102
698.363	0.0142682
698.441	0.0144904
698.519	0.0144265
698.597	0.0144987
698.675	0.0144476
698.753	0.0144212
698.831	0.0143910
698.910	0.0144445
698.988	0.0145144
699.066	0.0144645
699.144	0.0144879
699.222	0.0143222
699.300	0.0143723
699.378	0.0144745
699.456	0.0144652
699.535	0.0144412
699.613	0.0143945
699.691	0.0144998
699.769	0.0144422
699.847	0.0143899
699.925	0.0144529
700.003	0.0143719
700.081	0.0143495
700.160	0.0144859
700.238	0.0144183
700.316	0.0143509
700.394	0.0143282
700.472	0.0144379
700.550	0.0143304
700.628	0.0144925
700.706	0.0144148
700.785	0.0144037
700.863	0.0143027
700.941	0.0143384
701.019	0.0143453
701.097	0.0144295
701.175	0.0143945
701.253	0.0142572
701.331	0.0144072
701.410	0.0142972
701.488	0.0142764
701.566	0.0144989
701.644	0.0143901
701.722	0.0143655
701.800	0.0143493
701.878	0.0143050
701.956	0.0144594
702.035	0.0144125
702.113	0.0144778
702.191	0.0144154
702.269	0.0145182
702.347	0.0144614
702.425	0.0144524
702.503	0.0145110
702.581	0.0145152
702.660	0.0144807
702.738	0.0143380
702.816	0.0143816
702.894	0.0144036
702.972	0.0144764
703.050	0.0144565
703.128	0.0144051
703.206	0.0143344
703.285	0.0142835
703.363	0.0144007
703.441	0.0143784
703.519	0.0144118
703.597	0.0143304
703.675	0.0144502
703.753	0.0144572
703.831	0.0144030
703.910	0.0145872
703.988	0.0143060
704.066	0.0144400
704.144	0.0143794
704.222	0.0142909
704.300	0.0143704
704.378	0.0144090
704.456	0.0142533
704.535	0.0143992
704.613	0.0145213
704.691	0.0144003
704.769	0.0143575
704.847	0.0143246
704.925	0.0143383
705.003	0.0144890
705.081	0.0144894
705.160	0.0144506
705.238	0.0145081
705.316	0.0144196
705.394	0.0145801
705.472	0.0143504
705.550	0.0144928
705.628	0.0143696
705.706	0.0145457
705.785	0.0144949
705.863	0.0145074
705.941	0.0145517
706.019	0.0143912
706.097	0.0143927
706.175	0.0145943
706.253	0.0144379
706.331	0.0146307
706.410	0.0144785
706.488	0.0144475
706.566	0.0144743
706.644	0.0145266
706.722	0.0144542
706.800	0.0145112
706.878	0.0145100
706.956	0.0145341
707.035	0.0144526
707.113	0.0144500
707.191	0.0144667
707.269	0.0145293
707.347	0.0145212
707.425	0.0143710
707.503	0.0144348
707.581	0.0144694
707.660	0.0143427
707.738	0.0144001
707.816	0.0143634
707.894	0.0144183
707.972	0.0144501
708.050	0.0143922
708.128	0.0144839
708.206	0.0143089
708.285	0.0144329
708.363	0.0143249
708.441	0.0142474
708.519	0.0143650
708.597	0.0144044
708.675	0.0144405
708.753	0.0143822
708.831	0.0144529
708.910	0.0142286
708.988	0.0145045
709.066	0.0144110
709.144	0.0143275
709.222	0.0143456
709.300	0.0144144
709.378	0.0143808
709.456	0.0142654
709.535	0.0141286
709.613	0.0141537
709.691	0.0142702
709.769	0.0143235
709.847	0.0143362
709.925	0.0144171
710.003	0.0142673
710.081	0.0143027
710.160	0.0144601
710.238	0.0144498
710.316	0.0144081
710.394	0.0142783
710.472	0.0143616
710.550	0.0143870
710.628	0.0142963
710.706	0.0144337
710.785	0.0143771
710.863	0.0143595
710.941	0.0143208
711.019	0.0143937
711.097	0.0144137
711.175	0.0143436
711.253	0.0144775
711.331	0.0144392
711.410	0.0144198
711.488	0.0143951
711.566	0.0144552
711.644	0.0143949
711.722	0.0143604
711.800	0.0143623
711.878	0.0144534
711.956	0.0144878
712.035	0.0145734
712.113	0.0144955
712.191	0.0144959
712.269	0.0144477
712.347	0.0147269
712.425	0.0144962
712.503	0.0143781
712.581	0.0145129
712.660	0.0145332
712.738	0.0145329
712.816	0.0145117
712.894	0.0144467
712.972	0.0145732
713.050	0.0145723
713.128	0.0145236
713.206	0.0145270
713.285	0.0145684
713.363	0.0145628
713.441	0.0145419
713.519	0.0146313
713.597	0.0145034
713.675	0.0146020
713.753	0.0146333
713.831	0.0146001
713.910	0.0146178
713.988	0.0146008
714.066	0.0145383
714.144	0.0146458
714.222	0.0146577
714.300	0.0143233
714.378	0.0145384
714.456	0.0145267
714.535	0.0146193
714.613	0.0145397
714.691	0.0144074
714.769	0.0145402
714.847	0.0144960
714.925	0.0144690
715.003	0.0144946
715.081	0.0145364
715.160	0.0146576
715.238	0.0146333
715.316	0.0146268
715.394	0.0145103
715.472	0.0145214
715.550	0.0145695
715.628	0.0145059
715.706	0.0144955
715.785	0.0143987
715.863	0.0145926
715.941	0.0145907
716.019	0.0145631
716.097	0.0143516
716.175	0.0144805
716.253	0.0145807
716.331	0.0146086
716.410	0.0145502
716.488	0.0145107
716.566	0.0142933
716.644	0.0144297
716.722	0.0145715
716.800	0.0145139
716.878	0.0144871
716.956	0.0145109
717.035	0.0144254
717.113	0.0146045
717.191	0.0144619
717.269	0.0146010
717.347	0.0145576
717.425	0.0144962
717.503	0.0145101
717.581	0.0146609
717.660	0.0145856
717.738	0.0145341
717.816	0.0145051
717.894	0.0144685
717.972	0.0145336
718.050	0.0145052
718.128	0.0145237
718.206	0.0144389
718.285	0.0144721
718.363	0.0143755
718.441	0.0145004
718.519	0.0143962
718.597	0.0144012
718.675	0.0145221
718.753	0.0144262
718.831	0.0145384
718.910	0.0144354
718.988	0.0146056
719.066	0.0145357
719.144	0.0143314
719.222	0.0145649
719.300	0.0145169
719.378	0.0145640
719.456	0.0147257
719.535	0.0144894
719.613	0.0144506
719.691	0.0146285
719.769	0.0144536
719.847	0.0145397
719.925	0.0146004
720.003	0.0144300
720.081	0.0144530
720.160	0.0145223
720.238	0.0145148
720.316	0.0144305
720.394	0.0144587
720.472	0.0145685
720.550	0.0144008
720.628	0.0145210
720.706	0.0145564
720.785	0.0144460
720.863	0.0144211
720.941	0.0144855
721.019	0.0143525
721.097	0.0145249
721.175	0.0144815
721.253	0.0143909
721.331	0.0145285
721.410	0.0144174
721.488	0.0143723
721.566	0.0144807
721.644	0.0145119
721.722	0.0144398
721.800	0.0144977
721.878	0.0143689
721.956	0.0143732
722.035	0.0145327
722.113	0.0143975
722.191	0.0144426
722.269	0.0145564
722.347	0.0145702
722.425	0.0144744
722.503	0.0144549
722.581	0.0144775
722.660	0.0145351
722.738	0.0143675
722.816	0.0145091
722.894	0.0144807
722.972	0.0143832
723.050	0.0143763
723.128	0.0144033
723.206	0.0145533
723.285	0.0146152
723.363	0.0144130
723.441	0.0145189
723.519	0.0145382
723.597	0.0144030
723.675	0.0144801
723.753	0.0144723
723.831	0.0145591
723.910	0.0145738
723.988	0.0144918
724.066	0.0144524
724.144	0.0143748
724.222	0.0145105
724.300	0.0145045
724.378	0.0145430
724.456	0.0143707
724.535	0.0142068
724.613	0.0144702
724.691	0.0145058
724.769	0.0142654
724.847	0.0145224
724.925	0.0144402
725.003	0.0144534
725.081	0.0144975
725.160	0.0142702
725.238	0.0144302
725.316	0.0143827
725.394	0.0144553
725.472	0.0144354
725.550	0.0143204
725.628	0.0145782
725.706	0.0144633
725.785	0.0144678
725.863	0.0146393
725.941	0.0145679
726.019	0.0144611
726.097	0.0143941
726.175	0.0143973
726.253	0.0144945
726.331	0.0145863
726.410	0.0145124
726.488	0.0144881
726.566	0.0145467
726.644	0.0145805
726.722	0.0145406
726.800	0.0144646
726.878	0.0145590
726.956	0.0146233
727.035	0.0144272
727.113	0.0145103
727.191	0.0145586
727.269	0.0144624
727.347	0.0144740
727.425	0.0144409
727.503	0.0145854
727.581	0.0144011
727.660	0.0144078
727.738	0.0145557
727.816	0.0144435
727.894	0.0142238
727.972	0.0143803
728.050	0.0145364
728.128	0.0143623
728.206	0.0143975
728.285	0.0144468
728.363	0.0144624
728.441	0.0144322
728.519	0.0143996
728.597	0.0143666
728.675	0.0144355
728.753	0.0144366
728.831	0.0143256
728.910	0.0143982
728.988	0.0143780
729.066	0.0144084
729.144	0.0143937
729.222	0.0142960
729.300	0.0143340
729.378	0.0143710
729.456	0.0144098
729.535	0.0143616
729.613	0.0143172
729.691	0.0145025
729.769	0.0144839
729.847	0.0144202
729.925	0.0143406
730.003	0.0143295
730.081	0.0144894
730.160	0.0143832
730.238	0.0143865
730.316	0.0144822
730.394	0.0145491
730.472	0.0143399
730.550	0.0142877
730.628	0.0144566
730.706	0.0144511
730.785	0.0144950
730.863	0.0143794
730.941	0.0145115
731.019	0.0144926
731.097	0.0143413
731.175	0.0143639
731.253	0.0144650
731.331	0.0144820
731.410	0.0144190
731.488	0.0143848
731.566	0.0143484
731.644	0.0144305
731.722	0.0145731
731.800	0.0143052
731.878	0.0143266
731.956	0.0144565
732.035	0.0145503
732.113	0.0143762
732.191	0.0143930
732.269	0.0142907
732.347	0.0143657
732.425	0.0144579
732.503	0.0144460
732.581	0.0143378
732.660	0.0144053
732.738	0.0143398
732.816	0.0143160
732.894	0.0144976
732.972	0.0144327
733.050	0.0143653
733.128	0.0145282
733.206	0.0145085
733.285	0.0145144
733.363	0.0145411
733.441	0.0144701
733.519	0.0145804
733.597	0.0144977
733.675	0.0144720
733.753	0.0144337
733.831	0.0144527
733.910	0.0145007
733.988	0.0144321
734.066	0.0146300
734.144	0.0144669
734.222	0.0144810
734.300	0.0145461
734.378	0.0145118
734.456	0.0145544
734.535	0.0145681
734.613	0.0144720
734.691	0.0144540
734.769	0.0144804
734.847	0.0143829
734.925	0.0144736
735.003	0.0144936
735.081	0.0145332
735.160	0.0145526
735.238	0.0145231
735.316	0.0143878
735.394	0.0144888
735.472	0.0144638
735.550	0.0144403
735.628	0.0144704
735.706	0.0145579
735.785	0.0145641
735.863	0.0143555
735.941	0.0144486
736.019	0.0144720
736.097	0.0146181
736.175	0.0144864
736.253	0.0145329
736.331	0.0143936
736.410	0.0145635
736.488	0.0146258
736.566	0.0145451
736.644	0.0145554
736.722	0.0145252
736.800	0.0144881
736.878	0.0143908
736.956	0.0145103
737.035	0.0146102
737.113	0.0143796
737.191	0.0144773
737.269	0.0146564
737.347	0.0145502
737.425	0.0144862
737.503	0.0145885
737.581	0.0144177
737.660	0.0145508
737.738	0.0144309
737.816	0.0145779
737.894	0.0144843
737.972	0.0146177
738.050	0.0144128
738.128	0.0143293
738.206	0.0145047
738.285	0.0145330
738.363	0.0144712
738.441	0.0143768
738.519	0.0144062
738.597	0.0145300
738.675	0.0145240
738.753	0.0144749
738.831	0.0143620
738.910	0.0144864
738.988	0.0144615
739.066	0.0143101
739.144	0.0145164
739.222	0.0144382
739.300	0.0144967
739.378	0.0144774
739.456	0.0144161
739.535	0.0143806
739.613	0.0144031
739.691	0.0144843
739.769	0.0143166
739.847	0.0144502
739.925	0.0143500
740.003	0.0144312
740.081	0.0144558
740.160	0.0144487
740.238	0.0144112
740.316	0.0143022
740.394	0.0145073
740.472	0.0144765
740.550	0.0144401
740.628	0.0145342
740.706	0.0144472
740.785	0.0143559
740.863	0.0144787
740.941	0.0144180
741.019	0.0145332
741.097	0.0145156
741.175	0.0145900
741.253	0.0144547
741.331	0.0144538
741.410	0.0145457
741.488	0.0144775
741.566	0.0145849
741.644	0.0144275
741.722	0.0143959
741.800	0.0146092
741.878	0.0144962
741.956	0.0143799
742.035	0.0145248
742.113	0.0145090
742.191	0.0144067
742.269	0.0145343
742.347	0.0144314
742.425	0.0145175
742.503	0.0143749
742.581	0.0143977
742.660	0.0143995
742.738	0.0143959
742.816	0.0144697
742.894	0.0144003
742.972	0.0145439
743.050	0.0143211
743.128	0.0144220
743.206	0.0144331
743.285	0.0144648
743.363	0.0144195
743.441	0.0144658
743.519	0.0145547
743.597	0.0144344
743.675	0.0144202
743.753	0.0145002
743.831	0.0145062
743.910	0.0144923
743.988	0.0144653
744.066	0.0144567
744.144	0.0145300
744.222	0.0144206
744.300	0.0145847
744.378	0.0145464
744.456	0.0144851
744.535	0.0144476
744.613	0.0143271
744.691	0.0143569
744.769	0.0144459
744.847	0.0145302
744.925	0.0144669
745.003	0.0144033
745.081	0.0144506
745.160	0.0144749
745.238	0.0144113
745.316	0.0144947
745.394	0.0144467
745.472	0.0142509
745.550	0.0145982
745.628	0.0145589
745.706	0.0145053
