05/03/2022	20:03:21	Ver.	4.1	UNKNOWN
Optical Delay	660.003261	Delta X		0.078125	Sweeps	1	Scan Rate	0/0
Coordinates	Axis 1	NaN	Axis 2	NaN	Axis 3	NaN	Axis 4	NaN	Axis 5	NaN	Axis 6	0.000000
TX Power	0.000000	RX Power	0.000000

660.003	0.0147655
660.081	0.0147469
660.160	0.0148290
660.238	0.0147236
660.316	0.0146265
660.394	0.0147034
660.472	0.0147256
660.550	0.0146676
660.628	0.0147118
660.706	0.0147780
660.785	0.0148009
660.863	0.0146998
660.941	0.0147077
661.019	0.0146472
661.097	0.0146675
661.175	0.0146602
661.253	0.0149483
661.331	0.0148262
661.410	0.0146421
661.488	0.0148091
661.566	0.0146924
661.644	0.0146607
661.722	0.0147365
661.800	0.0147287
661.878	0.0147107
661.956	0.0146050
662.035	0.0147988
662.113	0.0147944
662.191	0.0146145
662.269	0.0146991
662.347	0.0148218
662.425	0.0147672
662.503	0.0148037
662.581	0.0146910
662.660	0.0147598
662.738	0.0146497
662.816	0.0146490
662.894	0.0147179
662.972	0.0148622
663.050	0.0148566
663.128	0.0147381
663.206	0.0146514
663.285	0.0147630
663.363	0.0145998
663.441	0.0147855
663.519	0.0146986
663.597	0.0146196
663.675	0.0148251
663.753	0.0148537
663.831	0.0147509
663.910	0.0147622
663.988	0.0148354
664.066	0.0148057
664.144	0.0147702
664.222	0.0147205
664.300	0.0147602
664.378	0.0146546
664.456	0.0147581
664.535	0.0147520
664.613	0.0146786
664.691	0.0147178
664.769	0.0146540
664.847	0.0148379
664.925	0.0147749
665.003	0.0148224
665.081	0.0147404
665.160	0.0147280
665.238	0.0148137
665.316	0.0147160
665.394	0.0147591
665.472	0.0147500
665.550	0.0147247
665.628	0.0148611
665.706	0.0146855
665.785	0.0147545
665.863	0.0146861
665.941	0.0146602
666.019	0.0147878
666.097	0.0146218
666.175	0.0147061
666.253	0.0147958
666.331	0.0149482
666.410	0.0147205
666.488	0.0146966
666.566	0.0148819
666.644	0.0147095
666.722	0.0147941
666.800	0.0147328
666.878	0.0148537
666.956	0.0147395
667.035	0.0147413
667.113	0.0147348
667.191	0.0147240
667.269	0.0147921
667.347	0.0147502
667.425	0.0147794
667.503	0.0148464
667.581	0.0147869
667.660	0.0147375
667.738	0.0148323
667.816	0.0147501
667.894	0.0147519
667.972	0.0148460
668.050	0.0147181
668.128	0.0146903
668.206	0.0146906
668.285	0.0148234
668.363	0.0147797
668.441	0.0148283
668.519	0.0148489
668.597	0.0146954
668.675	0.0148204
668.753	0.0148147
668.831	0.0148208
668.910	0.0148123
668.988	0.0147682
669.066	0.0147875
669.144	0.0146682
669.222	0.0146374
669.300	0.0146732
669.378	0.0147752
669.456	0.0148571
669.535	0.0147563
669.613	0.0146954
669.691	0.0146690
669.769	0.0146613
669.847	0.0147082
669.925	0.0148244
670.003	0.0148610
670.081	0.0147584
670.160	0.0147009
670.238	0.0147610
670.316	0.0147766
670.394	0.0147496
670.472	0.0147125
670.550	0.0146905
670.628	0.0148293
670.706	0.0148087
670.785	0.0146942
670.863	0.0146887
670.941	0.0147443
671.019	0.0146853
671.097	0.0147572
671.175	0.0147353
671.253	0.0147188
671.331	0.0146856
671.410	0.0146712
671.488	0.0147346
671.566	0.0148649
671.644	0.0147613
671.722	0.0148019
671.800	0.0146676
671.878	0.0146410
671.956	0.0146952
672.035	0.0146372
672.113	0.0147632
672.191	0.0147336
672.269	0.0147858
672.347	0.0148212
672.425	0.0146267
672.503	0.0147051
672.581	0.0148576
672.660	0.0147039
672.738	0.0148055
672.816	0.0147357
672.894	0.0147671
672.972	0.0147142
673.050	0.0147455
673.128	0.0147871
673.206	0.0148109
673.285	0.0147586
673.363	0.0148866
673.441	0.0149727
673.519	0.0146091
673.597	0.0146589
673.675	0.0146021
673.753	0.0147576
673.831	0.0147623
673.910	0.0147649
673.988	0.0148114
674.066	0.0148309
674.144	0.0147584
674.222	0.0147524
674.300	0.0147568
674.378	0.0146854
674.456	0.0147488
674.535	0.0147108
674.613	0.0147704
674.691	0.0146463
674.769	0.0147056
674.847	0.0149080
674.925	0.0147437
675.003	0.0147597
675.081	0.0147505
675.160	0.0148237
675.238	0.0147064
675.316	0.0145113
675.394	0.0147898
675.472	0.0148799
675.550	0.0148476
675.628	0.0146582
675.706	0.0147532
675.785	0.0148669
675.863	0.0146963
675.941	0.0147162
676.019	0.0147824
676.097	0.0148430
676.175	0.0148818
676.253	0.0147170
676.331	0.0147279
676.410	0.0149151
676.488	0.0147724
676.566	0.0147861
676.644	0.0147330
676.722	0.0147828
676.800	0.0146571
676.878	0.0147533
676.956	0.0146867
677.035	0.0147685
677.113	0.0147027
677.191	0.0146916
677.269	0.0147557
677.347	0.0147243
677.425	0.0148462
677.503	0.0148910
677.581	0.0148177
677.660	0.0147649
677.738	0.0146522
677.816	0.0148636
677.894	0.0146208
677.972	0.0149074
678.050	0.0147717
678.128	0.0148406
678.206	0.0148064
678.285	0.0148009
678.363	0.0147520
678.441	0.0145908
678.519	0.0146220
678.597	0.0148283
678.675	0.0147377
678.753	0.0147182
678.831	0.0147604
678.910	0.0148128
678.988	0.0147630
679.066	0.0146960
679.144	0.0146864
679.222	0.0148109
679.300	0.0147867
679.378	0.0146979
679.456	0.0147523
679.535	0.0148026
679.613	0.0147219
679.691	0.0147288
679.769	0.0148051
679.847	0.0147773
679.925	0.0148939
680.003	0.0148897
680.081	0.0148354
680.160	0.0146809
680.238	0.0147548
680.316	0.0147338
680.394	0.0147202
680.472	0.0148782
680.550	0.0148521
680.628	0.0147313
680.706	0.0147446
680.785	0.0148618
680.863	0.0146198
680.941	0.0147051
681.019	0.0148686
681.097	0.0147923
681.175	0.0147942
681.253	0.0148515
681.331	0.0148273
681.410	0.0147351
681.488	0.0147206
681.566	0.0147425
681.644	0.0147652
681.722	0.0147356
681.800	0.0147528
681.878	0.0148599
681.956	0.0147407
682.035	0.0147545
682.113	0.0148283
682.191	0.0149107
682.269	0.0148093
682.347	0.0147883
682.425	0.0146020
682.503	0.0147906
682.581	0.0148103
682.660	0.0147160
682.738	0.0147733
682.816	0.0146329
682.894	0.0147438
682.972	0.0148116
683.050	0.0147802
683.128	0.0148707
683.206	0.0147797
683.285	0.0147677
683.363	0.0148203
683.441	0.0147907
683.519	0.0146393
683.597	0.0148931
683.675	0.0148579
683.753	0.0148569
683.831	0.0148141
683.910	0.0148273
683.988	0.0147855
684.066	0.0147610
684.144	0.0145827
684.222	0.0147570
684.300	0.0147460
684.378	0.0147726
684.456	0.0148302
684.535	0.0147581
684.613	0.0148295
684.691	0.0148148
684.769	0.0147198
684.847	0.0146742
684.925	0.0147744
685.003	0.0149473
685.081	0.0147276
685.160	0.0147734
685.238	0.0148075
685.316	0.0147670
685.394	0.0147449
685.472	0.0148121
685.550	0.0147038
685.628	0.0147820
685.706	0.0147553
685.785	0.0147462
685.863	0.0148130
685.941	0.0148447
686.019	0.0147465
686.097	0.0147391
686.175	0.0148268
686.253	0.0148071
686.331	0.0146774
686.410	0.0149059
686.488	0.0148775
686.566	0.0148882
686.644	0.0146593
686.722	0.0148300
686.800	0.0147574
686.878	0.0148833
686.956	0.0148942
687.035	0.0146492
687.113	0.0147111
687.191	0.0147324
687.269	0.0147610
687.347	0.0148628
687.425	0.0147005
687.503	0.0147125
687.581	0.0147886
687.660	0.0147246
687.738	0.0147823
687.816	0.0147151
687.894	0.0147843
687.972	0.0148674
688.050	0.0148294
688.128	0.0148078
688.206	0.0148112
688.285	0.0148325
688.363	0.0146848
688.441	0.0147219
688.519	0.0145881
688.597	0.0148119
688.675	0.0148260
688.753	0.0147792
688.831	0.0148361
688.910	0.0146922
688.988	0.0147699
689.066	0.0147784
689.144	0.0148205
689.222	0.0146758
689.300	0.0147858
689.378	0.0148143
689.456	0.0148264
689.535	0.0147655
689.613	0.0147498
689.691	0.0147164
689.769	0.0146917
689.847	0.0146293
689.925	0.0148705
690.003	0.0147750
690.081	0.0146905
690.160	0.0147191
690.238	0.0147266
690.316	0.0148967
690.394	0.0148266
690.472	0.0147135
690.550	0.0147646
690.628	0.0149651
690.706	0.0147277
690.785	0.0146656
690.863	0.0147549
690.941	0.0146293
691.019	0.0147674
691.097	0.0148347
691.175	0.0147739
691.253	0.0148577
691.331	0.0147121
691.410	0.0148097
691.488	0.0147971
691.566	0.0147002
691.644	0.0147646
691.722	0.0148191
691.800	0.0148648
691.878	0.0147692
691.956	0.0148293
692.035	0.0147097
692.113	0.0148264
692.191	0.0147330
692.269	0.0146627
692.347	0.0147953
692.425	0.0147005
692.503	0.0147972
692.581	0.0148148
692.660	0.0149551
692.738	0.0147456
692.816	0.0146291
692.894	0.0147156
692.972	0.0148675
693.050	0.0147070
693.128	0.0147558
693.206	0.0148022
693.285	0.0147717
693.363	0.0148229
693.441	0.0147504
693.519	0.0147616
693.597	0.0148606
693.675	0.0146587
693.753	0.0147774
693.831	0.0147108
693.910	0.0146889
693.988	0.0147545
694.066	0.0148067
694.144	0.0147425
694.222	0.0147740
694.300	0.0148029
694.378	0.0146971
694.456	0.0148271
694.535	0.0147734
694.613	0.0147020
694.691	0.0147086
694.769	0.0147375
694.847	0.0147385
694.925	0.0147594
695.003	0.0146839
695.081	0.0147497
695.160	0.0146720
695.238	0.0146875
695.316	0.0146505
695.394	0.0147250
695.472	0.0148405
695.550	0.0148220
695.628	0.0147449
695.706	0.0148337
695.785	0.0147717
695.863	0.0148736
695.941	0.0146973
696.019	0.0147067
696.097	0.0147021
696.175	0.0147994
696.253	0.0147336
696.331	0.0147686
696.410	0.0148645
696.488	0.0146785
696.566	0.0147680
696.644	0.0147195
696.722	0.0147730
696.800	0.0147392
696.878	0.0148737
696.956	0.0148372
697.035	0.0148721
697.113	0.0146864
697.191	0.0147163
697.269	0.0146546
697.347	0.0147601
697.425	0.0146499
697.503	0.0147398
697.581	0.0148475
697.660	0.0147913
697.738	0.0146688
697.816	0.0146587
697.894	0.0148827
697.972	0.0148055
698.050	0.0148007
698.128	0.0146078
698.206	0.0147567
698.285	0.0147525
698.363	0.0147697
698.441	0.0148330
698.519	0.0147552
698.597	0.0147225
698.675	0.0147102
698.753	0.0146785
698.831	0.0146456
698.910	0.0146845
698.988	0.0147306
699.066	0.0147148
699.144	0.0147898
699.222	0.0148361
699.300	0.0148403
699.378	0.0147039
699.456	0.0146717
699.535	0.0147276
699.613	0.0147373
699.691	0.0147197
699.769	0.0147913
699.847	0.0146746
699.925	0.0146980
700.003	0.0147140
700.081	0.0147114
700.160	0.0148109
700.238	0.0147600
700.316	0.0146958
700.394	0.0148032
700.472	0.0148235
700.550	0.0147634
700.628	0.0148022
700.706	0.0146595
700.785	0.0146878
700.863	0.0147830
700.941	0.0147877
701.019	0.0146188
701.097	0.0147886
701.175	0.0146700
701.253	0.0146233
701.331	0.0148839
701.410	0.0148919
701.488	0.0146672
701.566	0.0146854
701.644	0.0147250
701.722	0.0147166
701.800	0.0146836
701.878	0.0147036
701.956	0.0147431
702.035	0.0147493
702.113	0.0148521
702.191	0.0147433
702.269	0.0147517
702.347	0.0147685
702.425	0.0147684
702.503	0.0146744
702.581	0.0146591
702.660	0.0147916
702.738	0.0147893
702.816	0.0148916
702.894	0.0147009
702.972	0.0148907
703.050	0.0149421
703.128	0.0148504
703.206	0.0148418
703.285	0.0148807
703.363	0.0146285
703.441	0.0147497
703.519	0.0147847
703.597	0.0146088
703.675	0.0146692
703.753	0.0145969
703.831	0.0145718
703.910	0.0147366
703.988	0.0146394
704.066	0.0145365
704.144	0.0146473
704.222	0.0147861
704.300	0.0146172
704.378	0.0148013
704.456	0.0148165
704.535	0.0147630
704.613	0.0147723
704.691	0.0148396
704.769	0.0148409
704.847	0.0148689
704.925	0.0148373
705.003	0.0149575
705.081	0.0149988
705.160	0.0151257
705.238	0.0150488
705.316	0.0150900
705.394	0.0150116
705.472	0.0150414
705.550	0.0150249
705.628	0.0149510
705.706	0.0149978
705.785	0.0150580
705.863	0.0150610
705.941	0.0150082
706.019	0.0149340
706.097	0.0149348
706.175	0.0149003
706.253	0.0147990
706.331	0.0147963
706.410	0.0148566
706.488	0.0148985
706.566	0.0148574
706.644	0.0147666
706.722	0.0147482
706.800	0.0147606
706.878	0.0147411
706.956	0.0148843
707.035	0.0148804
707.113	0.0147298
707.191	0.0147902
707.269	0.0147942
707.347	0.0148712
707.425	0.0148032
707.503	0.0149380
707.581	0.0148260
707.660	0.0147650
707.738	0.0146646
707.816	0.0149014
707.894	0.0146958
707.972	0.0146700
708.050	0.0145103
708.128	0.0144449
708.206	0.0143678
708.285	0.0143291
708.363	0.0141766
708.441	0.0140312
708.519	0.0137933
708.597	0.0135437
708.675	0.0132584
708.753	0.0130776
708.831	0.0126972
708.910	0.0121590
708.988	0.0117194
709.066	0.0113383
709.144	0.0110021
709.222	0.0107602
709.300	0.0107713
709.378	0.0109855
709.456	0.0115486
709.535	0.0123241
709.613	0.0132128
709.691	0.0142117
709.769	0.0153566
709.847	0.0165646
709.925	0.0176514
710.003	0.0185410
710.081	0.0192558
710.160	0.0196515
710.238	0.0197003
710.316	0.0195498
710.394	0.0192430
710.472	0.0187051
710.550	0.0181686
710.628	0.0175712
710.706	0.0170361
710.785	0.0163815
710.863	0.0158765
710.941	0.0153851
711.019	0.0150359
711.097	0.0149083
711.175	0.0146217
711.253	0.0147636
711.331	0.0150655
711.410	0.0153311
711.488	0.0158193
711.566	0.0167999
711.644	0.0175612
711.722	0.0182940
711.800	0.0190993
711.878	0.0194087
711.956	0.0194083
712.035	0.0188252
712.113	0.0178574
712.191	0.0165437
712.269	0.0150063
712.347	0.0131939
712.425	0.0111810
712.503	0.00916054
712.581	0.00753952
712.660	0.00630081
712.738	0.00559555
712.816	0.00502640
712.894	0.00498795
712.972	0.00535591
713.050	0.00581757
713.128	0.00655457
713.206	0.00748215
713.285	0.00831169
713.363	0.00946655
713.441	0.0108675
713.519	0.0121487
713.597	0.0135802
713.675	0.0150398
713.753	0.0161808
713.831	0.0174388
713.910	0.0186549
713.988	0.0199367
714.066	0.0213475
714.144	0.0225364
714.222	0.0236081
714.300	0.0246117
714.378	0.0254826
714.456	0.0261598
714.535	0.0263039
714.613	0.0261298
714.691	0.0255095
714.769	0.0244898
714.847	0.0232048
714.925	0.0216367
715.003	0.0196607
715.081	0.0175282
715.160	0.0153838
715.238	0.0132079
715.316	0.0111732
715.394	0.00934326
715.472	0.00767792
715.550	0.00646095
715.628	0.00558670
715.706	0.00498817
715.785	0.00485321
715.863	0.00518822
715.941	0.00551476
716.019	0.00605804
716.097	0.00682884
716.175	0.00787086
716.253	0.00881599
716.331	0.00991211
716.410	0.0112894
716.488	0.0124150
716.566	0.0134927
716.644	0.0144485
716.722	0.0153699
716.800	0.0161640
716.878	0.0167353
716.956	0.0172947
717.035	0.0178033
717.113	0.0182191
717.191	0.0184385
717.269	0.0187801
717.347	0.0190640
717.425	0.0193777
717.503	0.0194435
717.581	0.0197468
717.660	0.0198763
717.738	0.0197707
717.816	0.0197175
717.894	0.0197353
717.972	0.0196981
718.050	0.0191743
718.128	0.0186114
718.206	0.0181605
718.285	0.0177357
718.363	0.0170362
718.441	0.0163577
718.519	0.0156770
718.597	0.0152039
718.675	0.0147185
718.753	0.0141885
718.831	0.0135546
718.910	0.0132024
718.988	0.0128166
719.066	0.0125740
719.144	0.0120756
719.222	0.0120187
719.300	0.0118284
719.378	0.0115517
719.456	0.0115342
719.535	0.0112527
719.613	0.0112479
719.691	0.0110172
719.769	0.0110725
719.847	0.0109258
719.925	0.0108585
720.003	0.0109283
720.081	0.0108468
720.160	0.0111355
720.238	0.0112613
720.316	0.0113329
720.394	0.0114873
720.472	0.0115106
720.550	0.0119637
720.628	0.0120663
720.706	0.0124639
720.785	0.0128218
720.863	0.0132067
720.941	0.0138854
721.019	0.0142489
721.097	0.0148694
721.175	0.0155881
721.253	0.0163394
721.331	0.0167366
721.410	0.0172673
721.488	0.0177746
721.566	0.0180651
721.644	0.0181808
721.722	0.0185154
721.800	0.0184857
721.878	0.0185991
721.956	0.0185462
722.035	0.0185346
722.113	0.0184476
722.191	0.0181821
722.269	0.0182106
722.347	0.0181588
722.425	0.0179894
722.503	0.0179265
722.581	0.0176894
722.660	0.0176048
722.738	0.0174739
722.816	0.0171709
722.894	0.0168902
722.972	0.0167664
723.050	0.0165163
723.128	0.0160056
723.206	0.0157220
723.285	0.0154176
723.363	0.0151368
723.441	0.0147298
723.519	0.0144929
723.597	0.0141927
723.675	0.0135046
723.753	0.0132092
723.831	0.0128715
723.910	0.0123451
723.988	0.0121685
724.066	0.0117661
724.144	0.0111757
724.222	0.0109478
724.300	0.0105487
724.378	0.0101225
724.456	0.0101257
724.535	0.00998276
724.613	0.00996231
724.691	0.00984703
724.769	0.0101226
724.847	0.0101852
724.925	0.0105799
725.003	0.0108916
725.081	0.0114550
725.160	0.0119951
725.238	0.0124915
725.316	0.0129855
725.394	0.0135182
725.472	0.0139423
725.550	0.0144688
725.628	0.0149786
725.706	0.0155325
725.785	0.0159722
725.863	0.0165572
725.941	0.0169505
726.019	0.0174176
726.097	0.0178779
726.175	0.0181543
726.253	0.0184345
726.331	0.0183596
726.410	0.0184973
726.488	0.0186144
726.566	0.0184254
726.644	0.0185052
726.722	0.0183271
726.800	0.0181045
726.878	0.0180265
726.956	0.0179094
727.035	0.0175459
727.113	0.0173588
727.191	0.0172976
727.269	0.0169637
727.347	0.0166086
727.425	0.0164510
727.503	0.0161539
727.581	0.0158008
727.660	0.0158218
727.738	0.0155792
727.816	0.0154249
727.894	0.0151739
727.972	0.0150519
728.050	0.0150069
728.128	0.0148516
728.206	0.0146771
728.285	0.0146940
728.363	0.0146448
728.441	0.0146246
728.519	0.0145631
728.597	0.0147926
728.675	0.0145960
728.753	0.0144250
728.831	0.0144103
728.910	0.0141241
728.988	0.0138542
729.066	0.0135549
729.144	0.0131544
729.222	0.0129109
729.300	0.0126195
729.378	0.0124762
729.456	0.0121494
729.535	0.0119146
729.613	0.0118998
729.691	0.0117805
729.769	0.0117908
729.847	0.0116096
729.925	0.0115107
730.003	0.0116083
730.081	0.0115117
730.160	0.0116121
730.238	0.0115681
730.316	0.0118120
730.394	0.0120513
730.472	0.0121412
730.550	0.0124694
730.628	0.0127511
730.706	0.0131244
730.785	0.0134034
730.863	0.0135041
730.941	0.0137857
731.019	0.0140813
731.097	0.0145280
731.175	0.0147995
731.253	0.0149518
731.331	0.0153484
731.410	0.0155701
731.488	0.0159617
731.566	0.0160247
731.644	0.0162833
731.722	0.0165735
731.800	0.0169197
731.878	0.0172194
731.956	0.0175035
732.035	0.0177371
732.113	0.0179857
732.191	0.0180205
732.269	0.0183658
732.347	0.0184523
732.425	0.0185690
732.503	0.0183302
732.581	0.0184995
732.660	0.0182293
732.738	0.0181061
732.816	0.0177879
732.894	0.0173253
732.972	0.0169572
733.050	0.0168039
733.128	0.0164429
733.206	0.0161962
733.285	0.0159734
733.363	0.0155498
733.441	0.0152765
733.519	0.0151862
733.597	0.0149379
733.675	0.0148647
733.753	0.0146292
733.831	0.0144610
733.910	0.0142818
733.988	0.0142606
734.066	0.0140993
734.144	0.0140250
734.222	0.0138815
734.300	0.0137350
734.378	0.0136732
734.456	0.0135368
734.535	0.0133585
734.613	0.0131631
734.691	0.0130227
734.769	0.0125954
734.847	0.0123325
734.925	0.0122289
735.003	0.0119714
735.081	0.0117563
735.160	0.0116026
735.238	0.0116762
735.316	0.0115839
735.394	0.0115709
735.472	0.0119715
735.550	0.0120241
735.628	0.0122372
735.706	0.0124534
735.785	0.0126411
735.863	0.0129485
735.941	0.0132180
736.019	0.0135326
736.097	0.0138226
736.175	0.0141146
736.253	0.0143320
736.331	0.0145400
736.410	0.0146966
736.488	0.0151834
736.566	0.0152177
736.644	0.0153876
736.722	0.0154712
736.800	0.0156847
736.878	0.0157294
736.956	0.0157694
737.035	0.0157534
737.113	0.0157131
737.191	0.0157653
737.269	0.0159372
737.347	0.0160970
737.425	0.0158336
737.503	0.0159815
737.581	0.0160635
737.660	0.0160931
737.738	0.0161726
737.816	0.0162769
737.894	0.0161360
737.972	0.0162813
738.050	0.0161156
738.128	0.0161645
738.206	0.0162659
738.285	0.0161783
738.363	0.0159599
738.441	0.0159736
738.519	0.0159087
738.597	0.0159363
738.675	0.0158829
738.753	0.0158962
738.831	0.0157002
738.910	0.0156744
738.988	0.0156896
739.066	0.0157993
739.144	0.0154254
739.222	0.0154330
739.300	0.0153111
739.378	0.0152883
739.456	0.0151717
739.535	0.0151575
739.613	0.0152158
739.691	0.0150281
739.769	0.0150850
739.847	0.0149976
739.925	0.0150652
740.003	0.0149464
740.081	0.0149776
740.160	0.0150013
740.238	0.0147871
740.316	0.0147302
740.394	0.0146701
740.472	0.0147133
740.550	0.0144284
740.628	0.0141725
740.706	0.0142215
740.785	0.0137920
740.863	0.0135844
740.941	0.0133873
741.019	0.0132695
741.097	0.0130312
741.175	0.0128822
741.253	0.0127601
741.331	0.0127267
741.410	0.0126222
741.488	0.0126591
741.566	0.0127202
741.644	0.0128613
741.722	0.0129224
741.800	0.0132124
741.878	0.0132602
741.956	0.0133770
742.035	0.0134840
742.113	0.0135419
742.191	0.0136134
742.269	0.0136789
742.347	0.0138544
742.425	0.0139719
742.503	0.0140301
742.581	0.0138666
742.660	0.0138866
742.738	0.0140463
742.816	0.0142014
742.894	0.0141734
742.972	0.0142088
743.050	0.0143380
743.128	0.0143409
743.206	0.0145421
743.285	0.0146012
743.363	0.0147530
743.441	0.0149490
743.519	0.0149570
743.597	0.0152542
743.675	0.0153641
743.753	0.0156210
743.831	0.0157980
743.910	0.0160587
743.988	0.0162995
744.066	0.0162701
744.144	0.0165491
744.222	0.0166948
744.300	0.0167876
744.378	0.0169335
744.456	0.0169830
744.535	0.0169453
744.613	0.0169688
744.691	0.0169435
744.769	0.0170078
744.847	0.0168501
744.925	0.0166410
745.003	0.0165417
745.081	0.0164606
745.160	0.0163934
745.238	0.0162893
745.316	0.0160349
745.394	0.0157320
745.472	0.0155800
745.550	0.0155750
745.628	0.0153143
