05/03/2022	20:04:41	Ver.	4.1	UNKNOWN
Optical Delay	660.003261	Delta X		0.078125	Sweeps	1	Scan Rate	0/0
Coordinates	Axis 1	NaN	Axis 2	NaN	Axis 3	NaN	Axis 4	NaN	Axis 5	NaN	Axis 6	0.000000
TX Power	0.000000	RX Power	0.000000

660.003	0.0147556
660.081	0.0147498
660.160	0.0146141
660.238	0.0147689
660.316	0.0148993
660.394	0.0147283
660.472	0.0147447
660.550	0.0146100
660.628	0.0147398
660.706	0.0148454
660.785	0.0148151
660.863	0.0146732
660.941	0.0147562
661.019	0.0147124
661.097	0.0148838
661.175	0.0147079
661.253	0.0147874
661.331	0.0147890
661.410	0.0146751
661.488	0.0147314
661.566	0.0148638
661.644	0.0149073
661.722	0.0147206
661.800	0.0148624
661.878	0.0148877
661.956	0.0149361
662.035	0.0146839
662.113	0.0147611
662.191	0.0148041
662.269	0.0147734
662.347	0.0147263
662.425	0.0147790
662.503	0.0148655
662.581	0.0147798
662.660	0.0147200
662.738	0.0145789
662.816	0.0148007
662.894	0.0148653
662.972	0.0146908
663.050	0.0148431
663.128	0.0147723
663.206	0.0146485
663.285	0.0147147
663.363	0.0148167
663.441	0.0148107
663.519	0.0146786
663.597	0.0148686
663.675	0.0147675
663.753	0.0148155
663.831	0.0146548
663.910	0.0147384
663.988	0.0147315
664.066	0.0147198
664.144	0.0148345
664.222	0.0147939
664.300	0.0148801
664.378	0.0148489
664.456	0.0147235
664.535	0.0147163
664.613	0.0148292
664.691	0.0148872
664.769	0.0148238
664.847	0.0147766
664.925	0.0146480
665.003	0.0149255
665.081	0.0147681
665.160	0.0146562
665.238	0.0147822
665.316	0.0149120
665.394	0.0146931
665.472	0.0147291
665.550	0.0148338
665.628	0.0147991
665.706	0.0147203
665.785	0.0146793
665.863	0.0147087
665.941	0.0148371
666.019	0.0147216
666.097	0.0148120
666.175	0.0146776
666.253	0.0147549
666.331	0.0146956
666.410	0.0147818
666.488	0.0147473
666.566	0.0147230
666.644	0.0146518
666.722	0.0148312
666.800	0.0147624
666.878	0.0147301
666.956	0.0146744
667.035	0.0148159
667.113	0.0147934
667.191	0.0148858
667.269	0.0147595
667.347	0.0147300
667.425	0.0147497
667.503	0.0148473
667.581	0.0147000
667.660	0.0146442
667.738	0.0148518
667.816	0.0147546
667.894	0.0148359
667.972	0.0148119
668.050	0.0147300
668.128	0.0148880
668.206	0.0148122
668.285	0.0147135
668.363	0.0147633
668.441	0.0148782
668.519	0.0148618
668.597	0.0147044
668.675	0.0146935
668.753	0.0146834
668.831	0.0148949
668.910	0.0146745
668.988	0.0148059
669.066	0.0147694
669.144	0.0147664
669.222	0.0148592
669.300	0.0147955
669.378	0.0147440
669.456	0.0147846
669.535	0.0147760
669.613	0.0147818
669.691	0.0146772
669.769	0.0147632
669.847	0.0148510
669.925	0.0147224
670.003	0.0147718
670.081	0.0146883
670.160	0.0148804
670.238	0.0148936
670.316	0.0147228
670.394	0.0147758
670.472	0.0147573
670.550	0.0147490
670.628	0.0147623
670.706	0.0146902
670.785	0.0148165
670.863	0.0147013
670.941	0.0147629
671.019	0.0148208
671.097	0.0148153
671.175	0.0147108
671.253	0.0147292
671.331	0.0145652
671.410	0.0147045
671.488	0.0146899
671.566	0.0147779
671.644	0.0148204
671.722	0.0148030
671.800	0.0148487
671.878	0.0147720
671.956	0.0147301
672.035	0.0147747
672.113	0.0147140
672.191	0.0146468
672.269	0.0147575
672.347	0.0148918
672.425	0.0147562
672.503	0.0147051
672.581	0.0147693
672.660	0.0145322
672.738	0.0148890
672.816	0.0148652
672.894	0.0148796
672.972	0.0148884
673.050	0.0147353
673.128	0.0147437
673.206	0.0148702
673.285	0.0148067
673.363	0.0147955
673.441	0.0147821
673.519	0.0147424
673.597	0.0149389
673.675	0.0147652
673.753	0.0146435
673.831	0.0145938
673.910	0.0148308
673.988	0.0148249
674.066	0.0147758
674.144	0.0147719
674.222	0.0147025
674.300	0.0147166
674.378	0.0148340
674.456	0.0148852
674.535	0.0147969
674.613	0.0148875
674.691	0.0148124
674.769	0.0147275
674.847	0.0147079
674.925	0.0147874
675.003	0.0146395
675.081	0.0146764
675.160	0.0147395
675.238	0.0147620
675.316	0.0146803
675.394	0.0147984
675.472	0.0147003
675.550	0.0147903
675.628	0.0148127
675.706	0.0147750
675.785	0.0147057
675.863	0.0146346
675.941	0.0146826
676.019	0.0148859
676.097	0.0147388
676.175	0.0146986
676.253	0.0145499
676.331	0.0147106
676.410	0.0146790
676.488	0.0146619
676.566	0.0148616
676.644	0.0147581
676.722	0.0147764
676.800	0.0148164
676.878	0.0147164
676.956	0.0148061
677.035	0.0146941
677.113	0.0147932
677.191	0.0148315
677.269	0.0148634
677.347	0.0147935
677.425	0.0147771
677.503	0.0146971
677.581	0.0147341
677.660	0.0148363
677.738	0.0148251
677.816	0.0147241
677.894	0.0147507
677.972	0.0148688
678.050	0.0147501
678.128	0.0146475
678.206	0.0147855
678.285	0.0147090
678.363	0.0147056
678.441	0.0148160
678.519	0.0148598
678.597	0.0147971
678.675	0.0147579
678.753	0.0147283
678.831	0.0148703
678.910	0.0147974
678.988	0.0148077
679.066	0.0148895
679.144	0.0147506
679.222	0.0147875
679.300	0.0147726
679.378	0.0146567
679.456	0.0147331
679.535	0.0148011
679.613	0.0146389
679.691	0.0147462
679.769	0.0147488
679.847	0.0147601
679.925	0.0149731
680.003	0.0147374
680.081	0.0148109
680.160	0.0148787
680.238	0.0148038
680.316	0.0148134
680.394	0.0148620
680.472	0.0147971
680.550	0.0148081
680.628	0.0149489
680.706	0.0147727
680.785	0.0148180
680.863	0.0148960
680.941	0.0147536
681.019	0.0146503
681.097	0.0147480
681.175	0.0147868
681.253	0.0146461
681.331	0.0147662
681.410	0.0146362
681.488	0.0147689
681.566	0.0147868
681.644	0.0146568
681.722	0.0148673
681.800	0.0148055
681.878	0.0148354
681.956	0.0147771
682.035	0.0149032
682.113	0.0147797
682.191	0.0146987
682.269	0.0147588
682.347	0.0148041
682.425	0.0147041
682.503	0.0146526
682.581	0.0147535
682.660	0.0147720
682.738	0.0148383
682.816	0.0147402
682.894	0.0148047
682.972	0.0148193
683.050	0.0147211
683.128	0.0146915
683.206	0.0146764
683.285	0.0147371
683.363	0.0149206
683.441	0.0148115
683.519	0.0147125
683.597	0.0147927
683.675	0.0148547
683.753	0.0147789
683.831	0.0147150
683.910	0.0147154
683.988	0.0148347
684.066	0.0147346
684.144	0.0147665
684.222	0.0146840
684.300	0.0147809
684.378	0.0148880
684.456	0.0148592
684.535	0.0147546
684.613	0.0147896
684.691	0.0147879
684.769	0.0147768
684.847	0.0148676
684.925	0.0148192
685.003	0.0148398
685.081	0.0148464
685.160	0.0146819
685.238	0.0147581
685.316	0.0148373
685.394	0.0147083
685.472	0.0147918
685.550	0.0148370
685.628	0.0148705
685.706	0.0146444
685.785	0.0147746
685.863	0.0147591
685.941	0.0147488
686.019	0.0147821
686.097	0.0148415
686.175	0.0147899
686.253	0.0147652
686.331	0.0146732
686.410	0.0147751
686.488	0.0146812
686.566	0.0147890
686.644	0.0147620
686.722	0.0148060
686.800	0.0148780
686.878	0.0148331
686.956	0.0147668
687.035	0.0149193
687.113	0.0147928
687.191	0.0146463
687.269	0.0146140
687.347	0.0148363
687.425	0.0148159
687.503	0.0147584
687.581	0.0146713
687.660	0.0148198
687.738	0.0147079
687.816	0.0147832
687.894	0.0148312
687.972	0.0147272
688.050	0.0147490
688.128	0.0146929
688.206	0.0147763
688.285	0.0148886
688.363	0.0148179
688.441	0.0147516
688.519	0.0147787
688.597	0.0148427
688.675	0.0147816
688.753	0.0146922
688.831	0.0146916
688.910	0.0149435
688.988	0.0148477
689.066	0.0147019
689.144	0.0147575
689.222	0.0147073
689.300	0.0147359
689.378	0.0146399
689.456	0.0146997
689.535	0.0147636
689.613	0.0147709
689.691	0.0147054
689.769	0.0146228
689.847	0.0148352
689.925	0.0148455
690.003	0.0147856
690.081	0.0147360
690.160	0.0147810
690.238	0.0147494
690.316	0.0146665
690.394	0.0147989
690.472	0.0148718
690.550	0.0147956
690.628	0.0147869
690.706	0.0148035
690.785	0.0146047
690.863	0.0146949
690.941	0.0148254
691.019	0.0147110
691.097	0.0147137
691.175	0.0146806
691.253	0.0147608
691.331	0.0149323
691.410	0.0147849
691.488	0.0146270
691.566	0.0147991
691.644	0.0147641
691.722	0.0147106
691.800	0.0147890
691.878	0.0146739
691.956	0.0146227
692.035	0.0147205
692.113	0.0148582
692.191	0.0148433
692.269	0.0148047
692.347	0.0148298
692.425	0.0146787
692.503	0.0147810
692.581	0.0148407
692.660	0.0149195
692.738	0.0147133
692.816	0.0147466
692.894	0.0146358
692.972	0.0148804
693.050	0.0148430
693.128	0.0148479
693.206	0.0147079
693.285	0.0146952
693.363	0.0146529
693.441	0.0145992
693.519	0.0148450
693.597	0.0147404
693.675	0.0146678
693.753	0.0145882
693.831	0.0147816
693.910	0.0149494
693.988	0.0147932
694.066	0.0147708
694.144	0.0147713
694.222	0.0148823
694.300	0.0146965
694.378	0.0148163
694.456	0.0148656
694.535	0.0148274
694.613	0.0147866
694.691	0.0147686
694.769	0.0148103
694.847	0.0147826
694.925	0.0146689
695.003	0.0148016
695.081	0.0147172
695.160	0.0148365
695.238	0.0147766
695.316	0.0147922
695.394	0.0148122
695.472	0.0148059
695.550	0.0148137
695.628	0.0148222
695.706	0.0147100
695.785	0.0147075
695.863	0.0147639
695.941	0.0147973
696.019	0.0147385
696.097	0.0147134
696.175	0.0147021
696.253	0.0147016
696.331	0.0146391
696.410	0.0147495
696.488	0.0148143
696.566	0.0147290
696.644	0.0147619
696.722	0.0148485
696.800	0.0147672
696.878	0.0147343
696.956	0.0148411
697.035	0.0146778
697.113	0.0147738
697.191	0.0148872
697.269	0.0147876
697.347	0.0147715
697.425	0.0147247
697.503	0.0147998
697.581	0.0148782
697.660	0.0147615
697.738	0.0148951
697.816	0.0148220
697.894	0.0148409
697.972	0.0147865
698.050	0.0148040
698.128	0.0147559
698.206	0.0147826
698.285	0.0146373
698.363	0.0148592
698.441	0.0148163
698.519	0.0146537
698.597	0.0147231
698.675	0.0146916
698.753	0.0148026
698.831	0.0147410
698.910	0.0147412
698.988	0.0147858
699.066	0.0147999
699.144	0.0147263
699.222	0.0147556
699.300	0.0147633
699.378	0.0148260
699.456	0.0147163
699.535	0.0147189
699.613	0.0147964
699.691	0.0146876
699.769	0.0147144
699.847	0.0147504
699.925	0.0148550
700.003	0.0148821
700.081	0.0147564
700.160	0.0147832
700.238	0.0147624
700.316	0.0148242
700.394	0.0148341
700.472	0.0146622
700.550	0.0147745
700.628	0.0147277
700.706	0.0146539
700.785	0.0147315
700.863	0.0146482
700.941	0.0146743
701.019	0.0147379
701.097	0.0147815
701.175	0.0147899
701.253	0.0146739
701.331	0.0147536
701.410	0.0148121
701.488	0.0146402
701.566	0.0147796
701.644	0.0147532
701.722	0.0147836
701.800	0.0148055
701.878	0.0149361
701.956	0.0147994
702.035	0.0146387
702.113	0.0148102
702.191	0.0148289
702.269	0.0148291
702.347	0.0148335
702.425	0.0148043
702.503	0.0149905
702.581	0.0148013
702.660	0.0147745
702.738	0.0146953
702.816	0.0147099
702.894	0.0146973
702.972	0.0148304
703.050	0.0148368
703.128	0.0147314
703.206	0.0147858
703.285	0.0147765
703.363	0.0148628
703.441	0.0146834
703.519	0.0147406
703.597	0.0146584
703.675	0.0147110
703.753	0.0147963
703.831	0.0149287
703.910	0.0148376
703.988	0.0148991
704.066	0.0146605
704.144	0.0148101
704.222	0.0149098
704.300	0.0148789
704.378	0.0148889
704.456	0.0149299
704.535	0.0150581
704.613	0.0149223
704.691	0.0148730
704.769	0.0149141
704.847	0.0149969
704.925	0.0148852
705.003	0.0148996
705.081	0.0150073
705.160	0.0148966
705.238	0.0148026
705.316	0.0148701
705.394	0.0148476
705.472	0.0148508
705.550	0.0149063
705.628	0.0148029
705.706	0.0148372
705.785	0.0148275
705.863	0.0149554
705.941	0.0148630
706.019	0.0149510
706.097	0.0149819
706.175	0.0149852
706.253	0.0149931
706.331	0.0148682
706.410	0.0149244
706.488	0.0151245
706.566	0.0149030
706.644	0.0150726
706.722	0.0150469
706.800	0.0151102
706.878	0.0150369
706.956	0.0150613
707.035	0.0149964
707.113	0.0149529
707.191	0.0151627
707.269	0.0151666
707.347	0.0149126
707.425	0.0150125
707.503	0.0148982
707.581	0.0148105
707.660	0.0148348
707.738	0.0148901
707.816	0.0147072
707.894	0.0147857
707.972	0.0145339
708.050	0.0145381
708.128	0.0143160
708.206	0.0140701
708.285	0.0138364
708.363	0.0136604
708.441	0.0134582
708.519	0.0130734
708.597	0.0127209
708.675	0.0124081
708.753	0.0119037
708.831	0.0115276
708.910	0.0110467
708.988	0.0102769
709.066	0.0100011
709.144	0.00979630
709.222	0.00983284
709.300	0.0101547
709.378	0.0106286
709.456	0.0118600
709.535	0.0129366
709.613	0.0143616
709.691	0.0158004
709.769	0.0173647
709.847	0.0186353
709.925	0.0198416
710.003	0.0206526
710.081	0.0211969
710.160	0.0215597
710.238	0.0213536
710.316	0.0206731
710.394	0.0199326
710.472	0.0191100
710.550	0.0180165
710.628	0.0167883
710.706	0.0156977
710.785	0.0150308
710.863	0.0143276
710.941	0.0138608
711.019	0.0139164
711.097	0.0143580
711.175	0.0149560
711.253	0.0156953
711.331	0.0165981
711.410	0.0176444
711.488	0.0184489
711.566	0.0190656
711.644	0.0195266
711.722	0.0194278
711.800	0.0190250
711.878	0.0185123
711.956	0.0172339
712.035	0.0157730
712.113	0.0140258
712.191	0.0119534
712.269	0.00991577
712.347	0.00802078
712.425	0.00637123
712.503	0.00488228
712.581	0.00419930
712.660	0.00411041
712.738	0.00452576
712.816	0.00531235
712.894	0.00660828
712.972	0.00815132
713.050	0.00970116
713.128	0.0112016
713.206	0.0126624
713.285	0.0138146
713.363	0.0148470
713.441	0.0158509
713.519	0.0165771
713.597	0.0171311
713.675	0.0175343
713.753	0.0178630
713.831	0.0180877
713.910	0.0183876
713.988	0.0187864
714.066	0.0191930
714.144	0.0197585
714.222	0.0204587
714.300	0.0214048
714.378	0.0223539
714.456	0.0231461
714.535	0.0238502
714.613	0.0242868
714.691	0.0241531
714.769	0.0239455
714.847	0.0231577
714.925	0.0217308
715.003	0.0203521
715.081	0.0182709
715.160	0.0161275
715.238	0.0139277
715.316	0.0117249
715.394	0.00974998
715.472	0.00770699
715.550	0.00598724
715.628	0.00490486
715.706	0.00432304
715.785	0.00419525
715.863	0.00419746
715.941	0.00464981
716.019	0.00557556
716.097	0.00663551
716.175	0.00782532
716.253	0.00924965
716.331	0.0106890
716.410	0.0119622
716.488	0.0131368
716.566	0.0144685
716.644	0.0157806
716.722	0.0166241
716.800	0.0173968
716.878	0.0179474
716.956	0.0184583
717.035	0.0188440
717.113	0.0190242
717.191	0.0191453
717.269	0.0192947
717.347	0.0193442
717.425	0.0194616
717.503	0.0194971
717.581	0.0195853
717.660	0.0197746
717.738	0.0197398
717.816	0.0195882
717.894	0.0194165
717.972	0.0191610
718.050	0.0189239
718.128	0.0184335
718.206	0.0179590
718.285	0.0173026
718.363	0.0166521
718.441	0.0159409
718.519	0.0152185
718.597	0.0144953
718.675	0.0136383
718.753	0.0129760
718.831	0.0124342
718.910	0.0118761
718.988	0.0114021
719.066	0.0110616
719.144	0.0108512
719.222	0.0105379
719.300	0.0105177
719.378	0.0105328
719.456	0.0106183
719.535	0.0107723
719.613	0.0108970
719.691	0.0110136
719.769	0.0111507
719.847	0.0113084
719.925	0.0115801
720.003	0.0117035
720.081	0.0119550
720.160	0.0124354
720.238	0.0126743
720.316	0.0129138
720.394	0.0131562
720.472	0.0134261
720.550	0.0137356
720.628	0.0139018
720.706	0.0141338
720.785	0.0143330
720.863	0.0146027
720.941	0.0148344
721.019	0.0151828
721.097	0.0154266
721.175	0.0157430
721.253	0.0159869
721.331	0.0165366
721.410	0.0169234
721.488	0.0172498
721.566	0.0174591
721.644	0.0176516
721.722	0.0177162
721.800	0.0177957
721.878	0.0176808
721.956	0.0175742
722.035	0.0175143
722.113	0.0176328
722.191	0.0174829
722.269	0.0173580
722.347	0.0174704
722.425	0.0172217
722.503	0.0171007
722.581	0.0171207
722.660	0.0169936
722.738	0.0169806
722.816	0.0168154
722.894	0.0165630
722.972	0.0164081
723.050	0.0163039
723.128	0.0161133
723.206	0.0159716
723.285	0.0155907
723.363	0.0152316
723.441	0.0149165
723.519	0.0146777
723.597	0.0143166
723.675	0.0138212
723.753	0.0134634
723.831	0.0129830
723.910	0.0123657
723.988	0.0119887
724.066	0.0116246
724.144	0.0110977
724.222	0.0107642
724.300	0.0105376
724.378	0.0102592
724.456	0.00993431
724.535	0.00990356
724.613	0.0100745
724.691	0.0100478
724.769	0.0101991
724.847	0.0106178
724.925	0.0110040
725.003	0.0112292
725.081	0.0115697
725.160	0.0122032
725.238	0.0128506
725.316	0.0133933
725.394	0.0139489
725.472	0.0144889
725.550	0.0150088
725.628	0.0154347
725.706	0.0157836
725.785	0.0162512
725.863	0.0167819
725.941	0.0171664
726.019	0.0176425
726.097	0.0179433
726.175	0.0182363
726.253	0.0187524
726.331	0.0189022
726.410	0.0190784
726.488	0.0191964
726.566	0.0191769
726.644	0.0191759
726.722	0.0190681
726.800	0.0187766
726.878	0.0185688
726.956	0.0181303
727.035	0.0178988
727.113	0.0173505
727.191	0.0169785
727.269	0.0166013
727.347	0.0162818
727.425	0.0159157
727.503	0.0153732
727.581	0.0151652
727.660	0.0148820
727.738	0.0147939
727.816	0.0145904
727.894	0.0146828
727.972	0.0147656
728.050	0.0147613
728.128	0.0148164
728.206	0.0147709
728.285	0.0148502
728.363	0.0149004
728.441	0.0146537
728.519	0.0146564
728.597	0.0146323
728.675	0.0143903
728.753	0.0142893
728.831	0.0139833
728.910	0.0136036
728.988	0.0132642
729.066	0.0129036
729.144	0.0123973
729.222	0.0120907
729.300	0.0117525
729.378	0.0116218
729.456	0.0112202
729.535	0.0112300
729.613	0.0111557
729.691	0.0111885
729.769	0.0113798
729.847	0.0114816
729.925	0.0116709
730.003	0.0118511
730.081	0.0121104
730.160	0.0123481
730.238	0.0126768
730.316	0.0128155
730.394	0.0131211
730.472	0.0132471
730.550	0.0135365
730.628	0.0137798
730.706	0.0140434
730.785	0.0144229
730.863	0.0144157
730.941	0.0147359
731.019	0.0148725
731.097	0.0151446
731.175	0.0152077
731.253	0.0154610
731.331	0.0156644
731.410	0.0158351
731.488	0.0160917
731.566	0.0161978
731.644	0.0163939
731.722	0.0167697
731.800	0.0169904
731.878	0.0172453
731.956	0.0174689
732.035	0.0176392
732.113	0.0176549
732.191	0.0178487
732.269	0.0179342
732.347	0.0179596
732.425	0.0177134
732.503	0.0177065
732.581	0.0176040
732.660	0.0172021
732.738	0.0169096
732.816	0.0165709
732.894	0.0164378
732.972	0.0161883
733.050	0.0159010
733.128	0.0157343
733.206	0.0155603
733.285	0.0155207
733.363	0.0152161
733.441	0.0150301
733.519	0.0149776
733.597	0.0150286
733.675	0.0149702
733.753	0.0149335
733.831	0.0148600
733.910	0.0148872
733.988	0.0148507
734.066	0.0146938
734.144	0.0146621
734.222	0.0145579
734.300	0.0142385
734.378	0.0138597
734.456	0.0136159
734.535	0.0131847
734.613	0.0128638
734.691	0.0125957
734.769	0.0121958
734.847	0.0118232
734.925	0.0115634
735.003	0.0113492
735.081	0.0111724
735.160	0.0110223
735.238	0.0110783
735.316	0.0111545
735.394	0.0114149
735.472	0.0116404
735.550	0.0120474
735.628	0.0125072
735.706	0.0129101
735.785	0.0131062
735.863	0.0136479
735.941	0.0139352
736.019	0.0142007
736.097	0.0142937
736.175	0.0147298
736.253	0.0148003
736.331	0.0149149
736.410	0.0150423
736.488	0.0151525
736.566	0.0151482
736.644	0.0152322
736.722	0.0154188
736.800	0.0155328
736.878	0.0153996
736.956	0.0155939
737.035	0.0157233
737.113	0.0157368
737.191	0.0159383
737.269	0.0160670
737.347	0.0163670
737.425	0.0163905
737.503	0.0165698
737.581	0.0166011
737.660	0.0165002
737.738	0.0166750
737.816	0.0165406
737.894	0.0163452
737.972	0.0163498
738.050	0.0163263
738.128	0.0162690
738.206	0.0160156
738.285	0.0160493
738.363	0.0160000
738.441	0.0158984
738.519	0.0158503
738.597	0.0158424
738.675	0.0156793
738.753	0.0156065
738.831	0.0157248
738.910	0.0156931
738.988	0.0154827
739.066	0.0156278
739.144	0.0155663
739.222	0.0155301
739.300	0.0153812
739.378	0.0152326
739.456	0.0151358
739.535	0.0149417
739.613	0.0147752
739.691	0.0147054
739.769	0.0146278
739.847	0.0145780
739.925	0.0144173
740.003	0.0144518
740.081	0.0143841
740.160	0.0143752
740.238	0.0142459
740.316	0.0142632
740.394	0.0142505
740.472	0.0143490
740.550	0.0142295
740.628	0.0140719
740.706	0.0140853
740.785	0.0138897
740.863	0.0137969
740.941	0.0136459
741.019	0.0136527
741.097	0.0133427
741.175	0.0131547
741.253	0.0131104
741.331	0.0130568
741.410	0.0130328
741.488	0.0130111
741.566	0.0130788
741.644	0.0131229
741.722	0.0133015
741.800	0.0133116
741.878	0.0134288
741.956	0.0135996
742.035	0.0136765
742.113	0.0138517
742.191	0.0139401
742.269	0.0138150
742.347	0.0140102
742.425	0.0139839
742.503	0.0139523
742.581	0.0141301
742.660	0.0141632
742.738	0.0142910
742.816	0.0141791
742.894	0.0141576
742.972	0.0143304
743.050	0.0143452
743.128	0.0144904
743.206	0.0147364
743.285	0.0147227
743.363	0.0146908
743.441	0.0148782
743.519	0.0151533
743.597	0.0153444
743.675	0.0155130
743.753	0.0155575
743.831	0.0157007
743.910	0.0159904
743.988	0.0161722
744.066	0.0162490
744.144	0.0163747
744.222	0.0165522
744.300	0.0166252
744.378	0.0166904
744.456	0.0168470
744.535	0.0169391
744.613	0.0167744
744.691	0.0168150
744.769	0.0168272
744.847	0.0168009
744.925	0.0166538
745.003	0.0163869
745.081	0.0163960
745.160	0.0163605
745.238	0.0160989
745.316	0.0160114
745.394	0.0158705
745.472	0.0156016
745.550	0.0155444
745.628	0.0153807
