05/03/2022	20:07:26	Ver.	4.1	UNKNOWN
Optical Delay	660.003261	Delta X		0.078125	Sweeps	1	Scan Rate	0/0
Coordinates	Axis 1	NaN	Axis 2	NaN	Axis 3	NaN	Axis 4	NaN	Axis 5	NaN	Axis 6	0.000000
TX Power	0.000000	RX Power	0.000000

660.003	0.0141475
660.081	0.0140810
660.160	0.0140482
660.238	0.0140376
660.316	0.0141525
660.394	0.0140946
660.472	0.0141422
660.550	0.0140386
660.628	0.0141334
660.706	0.0139901
660.785	0.0140686
660.863	0.0141922
660.941	0.0141171
661.019	0.0140531
661.097	0.0141204
661.175	0.0140982
661.253	0.0141143
661.331	0.0141364
661.410	0.0140204
661.488	0.0141263
661.566	0.0141438
661.644	0.0141626
661.722	0.0140694
661.800	0.0141341
661.878	0.0141742
661.956	0.0141706
662.035	0.0140539
662.113	0.0141022
662.191	0.0141626
662.269	0.0142610
662.347	0.0140120
662.425	0.0140753
662.503	0.0142348
662.581	0.0141272
662.660	0.0140236
662.738	0.0141198
662.816	0.0141531
662.894	0.0140824
662.972	0.0140257
663.050	0.0139483
663.128	0.0141450
663.206	0.0140686
663.285	0.0140623
663.363	0.0140773
663.441	0.0141711
663.519	0.0142149
663.597	0.0141577
663.675	0.0140755
663.753	0.0141290
663.831	0.0141433
663.910	0.0141917
663.988	0.0141289
664.066	0.0140915
664.144	0.0140504
664.222	0.0141148
664.300	0.0140987
664.378	0.0141200
664.456	0.0141013
664.535	0.0141188
664.613	0.0141994
664.691	0.0141306
664.769	0.0140504
664.847	0.0141225
664.925	0.0140629
665.003	0.0139863
665.081	0.0141082
665.160	0.0142799
665.238	0.0142651
665.316	0.0141931
665.394	0.0141509
665.472	0.0139639
665.550	0.0140367
665.628	0.0141492
665.706	0.0141141
665.785	0.0140667
665.863	0.0141933
665.941	0.0141528
666.019	0.0141291
666.097	0.0140546
666.175	0.0141494
666.253	0.0141166
666.331	0.0141521
666.410	0.0141455
666.488	0.0141642
666.566	0.0141280
666.644	0.0140588
666.722	0.0141455
666.800	0.0140916
666.878	0.0140694
666.956	0.0141398
667.035	0.0140478
667.113	0.0140330
667.191	0.0141343
667.269	0.0142487
667.347	0.0140668
667.425	0.0140173
667.503	0.0142513
667.581	0.0141351
667.660	0.0141174
667.738	0.0140565
667.816	0.0142001
667.894	0.0142588
667.972	0.0142269
668.050	0.0141241
668.128	0.0142767
668.206	0.0140795
668.285	0.0141371
668.363	0.0140729
668.441	0.0140479
668.519	0.0141584
668.597	0.0141934
668.675	0.0141180
668.753	0.0141093
668.831	0.0141261
668.910	0.0140824
668.988	0.0140720
669.066	0.0141779
669.144	0.0141782
669.222	0.0140046
669.300	0.0140042
669.378	0.0140890
669.456	0.0141298
669.535	0.0140009
669.613	0.0140150
669.691	0.0141582
669.769	0.0140330
669.847	0.0140649
669.925	0.0141131
670.003	0.0140659
670.081	0.0141029
670.160	0.0140983
670.238	0.0140660
670.316	0.0138387
670.394	0.0141533
670.472	0.0141838
670.550	0.0142925
670.628	0.0140422
670.706	0.0141119
670.785	0.0141650
670.863	0.0141235
670.941	0.0142467
671.019	0.0140952
671.097	0.0140874
671.175	0.0141970
671.253	0.0140744
671.331	0.0140401
671.410	0.0141469
671.488	0.0140702
671.566	0.0139451
671.644	0.0139955
671.722	0.0141731
671.800	0.0141302
671.878	0.0141663
671.956	0.0141215
672.035	0.0141218
672.113	0.0141771
672.191	0.0142274
672.269	0.0142203
672.347	0.0140697
672.425	0.0142003
672.503	0.0141090
672.581	0.0141920
672.660	0.0140730
672.738	0.0142401
672.816	0.0140681
672.894	0.0141086
672.972	0.0141164
673.050	0.0142062
673.128	0.0141721
673.206	0.0140585
673.285	0.0140588
673.363	0.0140566
673.441	0.0140969
673.519	0.0141640
673.597	0.0140747
673.675	0.0140010
673.753	0.0142034
673.831	0.0140522
673.910	0.0140822
673.988	0.0143315
674.066	0.0141609
674.144	0.0141727
674.222	0.0141656
674.300	0.0141202
674.378	0.0140367
674.456	0.0141180
674.535	0.0142455
674.613	0.0142139
674.691	0.0141303
674.769	0.0141625
674.847	0.0141972
674.925	0.0141522
675.003	0.0141637
675.081	0.0140823
675.160	0.0141466
675.238	0.0140864
675.316	0.0140254
675.394	0.0141850
675.472	0.0141864
675.550	0.0140647
675.628	0.0140193
675.706	0.0140320
675.785	0.0140688
675.863	0.0142125
675.941	0.0141888
676.019	0.0141167
676.097	0.0141218
676.175	0.0141829
676.253	0.0141460
676.331	0.0142760
676.410	0.0142470
676.488	0.0140669
676.566	0.0141000
676.644	0.0142670
676.722	0.0142332
676.800	0.0141501
676.878	0.0141228
676.956	0.0140710
677.035	0.0141550
677.113	0.0141404
677.191	0.0141360
677.269	0.0141466
677.347	0.0140788
677.425	0.0140710
677.503	0.0141508
677.581	0.0141477
677.660	0.0142129
677.738	0.0140293
677.816	0.0141614
677.894	0.0140726
677.972	0.0140921
678.050	0.0140340
678.128	0.0141934
678.206	0.0140897
678.285	0.0141535
678.363	0.0141917
678.441	0.0140414
678.519	0.0141042
678.597	0.0141118
678.675	0.0140903
678.753	0.0141455
678.831	0.0140803
678.910	0.0142734
678.988	0.0141685
679.066	0.0141473
679.144	0.0141704
679.222	0.0142493
679.300	0.0141467
679.378	0.0141438
679.456	0.0141843
679.535	0.0141837
679.613	0.0140375
679.691	0.0140144
679.769	0.0141257
679.847	0.0142274
679.925	0.0140126
680.003	0.0141447
680.081	0.0142104
680.160	0.0142460
680.238	0.0141452
680.316	0.0140892
680.394	0.0141776
680.472	0.0141634
680.550	0.0141094
680.628	0.0140266
680.706	0.0141514
680.785	0.0140681
680.863	0.0142403
680.941	0.0141697
681.019	0.0141266
681.097	0.0140627
681.175	0.0141796
681.253	0.0141723
681.331	0.0141459
681.410	0.0141245
681.488	0.0141679
681.566	0.0141934
681.644	0.0140693
681.722	0.0142692
681.800	0.0140749
681.878	0.0139849
681.956	0.0141335
682.035	0.0140939
682.113	0.0140820
682.191	0.0140781
682.269	0.0141347
682.347	0.0140455
682.425	0.0141461
682.503	0.0142075
682.581	0.0141020
682.660	0.0140922
682.738	0.0140795
682.816	0.0141290
682.894	0.0140475
682.972	0.0140272
683.050	0.0141091
683.128	0.0141937
683.206	0.0140672
683.285	0.0142253
683.363	0.0141055
683.441	0.0139804
683.519	0.0141969
683.597	0.0141859
683.675	0.0140318
683.753	0.0141656
683.831	0.0143256
683.910	0.0141306
683.988	0.0140553
684.066	0.0142249
684.144	0.0141124
684.222	0.0140241
684.300	0.0140665
684.378	0.0139732
684.456	0.0140870
684.535	0.0141579
684.613	0.0141479
684.691	0.0140647
684.769	0.0140971
684.847	0.0142541
684.925	0.0141734
685.003	0.0141111
685.081	0.0140913
685.160	0.0140261
685.238	0.0140807
685.316	0.0140494
685.394	0.0141266
685.472	0.0141794
685.550	0.0141106
685.628	0.0140845
685.706	0.0141425
685.785	0.0140562
685.863	0.0140224
685.941	0.0140696
686.019	0.0140989
686.097	0.0140984
686.175	0.0140544
686.253	0.0142667
686.331	0.0141011
686.410	0.0141946
686.488	0.0140137
686.566	0.0141875
686.644	0.0141293
686.722	0.0140658
686.800	0.0141209
686.878	0.0142272
686.956	0.0139993
687.035	0.0141168
687.113	0.0140952
687.191	0.0141461
687.269	0.0141476
687.347	0.0141763
687.425	0.0141022
687.503	0.0140083
687.581	0.0140173
687.660	0.0140359
687.738	0.0141183
687.816	0.0141559
687.894	0.0140220
687.972	0.0140887
688.050	0.0142284
688.128	0.0141025
688.206	0.0141601
688.285	0.0141879
688.363	0.0140350
688.441	0.0141719
688.519	0.0141665
688.597	0.0140774
688.675	0.0141425
688.753	0.0139965
688.831	0.0141422
688.910	0.0141045
688.988	0.0142321
689.066	0.0141759
689.144	0.0141427
689.222	0.0141209
689.300	0.0142792
689.378	0.0141927
689.456	0.0140710
689.535	0.0140948
689.613	0.0141523
689.691	0.0140794
689.769	0.0140602
689.847	0.0141502
689.925	0.0140642
690.003	0.0140598
690.081	0.0141821
690.160	0.0141395
690.238	0.0141596
690.316	0.0141445
690.394	0.0140351
690.472	0.0141855
690.550	0.0141168
690.628	0.0140629
690.706	0.0139868
690.785	0.0140386
690.863	0.0141418
690.941	0.0139919
691.019	0.0140790
691.097	0.0141439
691.175	0.0141016
691.253	0.0141422
691.331	0.0142271
691.410	0.0140408
691.488	0.0139828
691.566	0.0141296
691.644	0.0141486
691.722	0.0141661
691.800	0.0141896
691.878	0.0141698
691.956	0.0141022
692.035	0.0141830
692.113	0.0141200
692.191	0.0140306
692.269	0.0140964
692.347	0.0142083
692.425	0.0140566
692.503	0.0139962
692.581	0.0141548
692.660	0.0141219
692.738	0.0139929
692.816	0.0140862
692.894	0.0141387
692.972	0.0141489
693.050	0.0142101
693.128	0.0140569
693.206	0.0141267
693.285	0.0141203
693.363	0.0141318
693.441	0.0142191
693.519	0.0141824
693.597	0.0140408
693.675	0.0140625
693.753	0.0140833
693.831	0.0141051
693.910	0.0142065
693.988	0.0141005
694.066	0.0141589
694.144	0.0141926
694.222	0.0141501
694.300	0.0142473
694.378	0.0141029
694.456	0.0140806
694.535	0.0141404
694.613	0.0140346
694.691	0.0142412
694.769	0.0140711
694.847	0.0139893
694.925	0.0141536
695.003	0.0140465
695.081	0.0141674
695.160	0.0141206
695.238	0.0141498
695.316	0.0140025
695.394	0.0139707
695.472	0.0141679
695.550	0.0140045
695.628	0.0139742
695.706	0.0141975
695.785	0.0141777
695.863	0.0140075
695.941	0.0140943
696.019	0.0141780
696.097	0.0141331
696.175	0.0141518
696.253	0.0141740
696.331	0.0142718
696.410	0.0141489
696.488	0.0141531
696.566	0.0141205
696.644	0.0140514
696.722	0.0141164
696.800	0.0142704
696.878	0.0140200
696.956	0.0141537
697.035	0.0141163
697.113	0.0141819
697.191	0.0140546
697.269	0.0140842
697.347	0.0140721
697.425	0.0142503
697.503	0.0139911
697.581	0.0141852
697.660	0.0141687
697.738	0.0140984
697.816	0.0140827
697.894	0.0142049
697.972	0.0141424
698.050	0.0141890
698.128	0.0142159
698.206	0.0141233
698.285	0.0140847
698.363	0.0142153
698.441	0.0141515
698.519	0.0141486
698.597	0.0141169
698.675	0.0141727
698.753	0.0140376
698.831	0.0141528
698.910	0.0141920
698.988	0.0140678
699.066	0.0141054
699.144	0.0141911
699.222	0.0141891
699.300	0.0141382
699.378	0.0142152
699.456	0.0140270
699.535	0.0141269
699.613	0.0141808
699.691	0.0141758
699.769	0.0140746
699.847	0.0141787
699.925	0.0141739
700.003	0.0141883
700.081	0.0142408
700.160	0.0140253
700.238	0.0140321
700.316	0.0140708
700.394	0.0141077
700.472	0.0140388
700.550	0.0141208
700.628	0.0140969
700.706	0.0141913
700.785	0.0140760
700.863	0.0140558
700.941	0.0140344
701.019	0.0140453
701.097	0.0140768
701.175	0.0140736
701.253	0.0140506
701.331	0.0141058
701.410	0.0140751
701.488	0.0140232
701.566	0.0140733
701.644	0.0140202
701.722	0.0140421
701.800	0.0142455
701.878	0.0141872
701.956	0.0141677
702.035	0.0142327
702.113	0.0140585
702.191	0.0141332
702.269	0.0142001
702.347	0.0142553
702.425	0.0142435
702.503	0.0141151
702.581	0.0142039
702.660	0.0142223
702.738	0.0141064
702.816	0.0140978
702.894	0.0141496
702.972	0.0143185
703.050	0.0140025
703.128	0.0140485
703.206	0.0141970
703.285	0.0141122
703.363	0.0140141
703.441	0.0139921
703.519	0.0142583
703.597	0.0140974
703.675	0.0139828
703.753	0.0139710
703.831	0.0141142
703.910	0.0139886
703.988	0.0139838
704.066	0.0140820
704.144	0.0142104
704.222	0.0141695
704.300	0.0141819
704.378	0.0142129
704.456	0.0141460
704.535	0.0142263
704.613	0.0141537
704.691	0.0142458
704.769	0.0143029
704.847	0.0144024
704.925	0.0141870
705.003	0.0143645
705.081	0.0143205
705.160	0.0143925
705.238	0.0145655
705.316	0.0144255
705.394	0.0144886
705.472	0.0146387
705.550	0.0145186
705.628	0.0144357
705.706	0.0145953
705.785	0.0144440
705.863	0.0148322
705.941	0.0148006
706.019	0.0146391
706.097	0.0144714
706.175	0.0144569
706.253	0.0146295
706.331	0.0144828
706.410	0.0144308
706.488	0.0143781
706.566	0.0144868
706.644	0.0141299
706.722	0.0142480
706.800	0.0140674
706.878	0.0138480
706.956	0.0138879
707.035	0.0137651
707.113	0.0136933
707.191	0.0135937
707.269	0.0133811
707.347	0.0132486
707.425	0.0130485
707.503	0.0127999
707.581	0.0125954
707.660	0.0122346
707.738	0.0120652
707.816	0.0114075
707.894	0.0108644
707.972	0.0102322
708.050	0.00924171
708.128	0.00868813
708.206	0.00812073
708.285	0.00814156
708.363	0.00890701
708.441	0.0103306
708.519	0.0123561
708.597	0.0148727
708.675	0.0172897
708.753	0.0194964
708.831	0.0206650
708.910	0.0206089
708.988	0.0201385
709.066	0.0186694
709.144	0.0167855
709.222	0.0148737
709.300	0.0132457
709.378	0.0119629
709.456	0.0114884
709.535	0.0117958
709.613	0.0129492
709.691	0.0146545
709.769	0.0166444
709.847	0.0188524
709.925	0.0208014
710.003	0.0220998
710.081	0.0227987
710.160	0.0226363
710.238	0.0219550
710.316	0.0205487
710.394	0.0189070
710.472	0.0172383
710.550	0.0156470
710.628	0.0142861
710.706	0.0129838
710.785	0.0119741
710.863	0.0112832
710.941	0.0106155
711.019	0.0100089
711.097	0.00956276
711.175	0.00916420
711.253	0.00886444
711.331	0.00840805
711.410	0.00805473
711.488	0.00792290
711.566	0.00759865
711.644	0.00785233
711.722	0.00817940
711.800	0.00905190
711.878	0.00986893
711.956	0.0111406
712.035	0.0124670
712.113	0.0139597
712.191	0.0151006
712.269	0.0163193
712.347	0.0173508
712.425	0.0180108
712.503	0.0185454
712.581	0.0187054
712.660	0.0186385
712.738	0.0182017
712.816	0.0175641
712.894	0.0166581
712.972	0.0156940
713.050	0.0147456
713.128	0.0139581
713.206	0.0130409
713.285	0.0126116
713.363	0.0125984
713.441	0.0128020
713.519	0.0132232
713.597	0.0139883
713.675	0.0148247
713.753	0.0157294
713.831	0.0165033
713.910	0.0172908
713.988	0.0180222
714.066	0.0182817
714.144	0.0185239
714.222	0.0183344
714.300	0.0180783
714.378	0.0176362
714.456	0.0170736
714.535	0.0163789
714.613	0.0154697
714.691	0.0144534
714.769	0.0136418
714.847	0.0127435
714.925	0.0118919
715.003	0.0111429
715.081	0.0105786
715.160	0.00995796
715.238	0.00955948
715.316	0.00939758
715.394	0.00954506
715.472	0.00960350
715.550	0.00972977
715.628	0.00995544
715.706	0.0103305
715.785	0.0106197
715.863	0.0111806
715.941	0.0117506
716.019	0.0122528
716.097	0.0129538
716.175	0.0134241
716.253	0.0142042
716.331	0.0148640
716.410	0.0158636
716.488	0.0164383
716.566	0.0171185
716.644	0.0176765
716.722	0.0181859
716.800	0.0186316
716.878	0.0190673
716.956	0.0192784
717.035	0.0193424
717.113	0.0195500
717.191	0.0194144
717.269	0.0193834
717.347	0.0191182
717.425	0.0186515
717.503	0.0181462
717.581	0.0174258
717.660	0.0164202
717.738	0.0156348
717.816	0.0144839
717.894	0.0133102
717.972	0.0122908
718.050	0.0112425
718.128	0.0104649
718.206	0.00980949
718.285	0.00930428
718.363	0.00901215
718.441	0.00875397
718.519	0.00847122
718.597	0.00854836
718.675	0.00856331
718.753	0.00857796
718.831	0.00883720
718.910	0.00913155
718.988	0.00976013
719.066	0.0102824
719.144	0.0108593
719.222	0.0116378
719.300	0.0125466
719.378	0.0132947
719.456	0.0142143
719.535	0.0146880
719.613	0.0152758
719.691	0.0157158
719.769	0.0159154
719.847	0.0161153
719.925	0.0162946
720.003	0.0164568
720.081	0.0166078
720.160	0.0167597
720.238	0.0169451
720.316	0.0172147
720.394	0.0168316
720.472	0.0166421
720.550	0.0164127
720.628	0.0158183
720.706	0.0152744
720.785	0.0149290
720.863	0.0144272
720.941	0.0139918
721.019	0.0139635
721.097	0.0137935
721.175	0.0138793
721.253	0.0140849
721.331	0.0139798
721.410	0.0140163
721.488	0.0142240
721.566	0.0143756
721.644	0.0144340
721.722	0.0147501
721.800	0.0149451
721.878	0.0149608
721.956	0.0147991
722.035	0.0147802
722.113	0.0147934
722.191	0.0147752
722.269	0.0145645
722.347	0.0144188
722.425	0.0141507
722.503	0.0140443
722.581	0.0139951
722.660	0.0138352
722.738	0.0137460
722.816	0.0137688
722.894	0.0138377
722.972	0.0137934
723.050	0.0135702
723.128	0.0133794
723.206	0.0132066
723.285	0.0132082
723.363	0.0131466
723.441	0.0128925
723.519	0.0127152
723.597	0.0126670
723.675	0.0123598
723.753	0.0126153
723.831	0.0124986
723.910	0.0124238
723.988	0.0123844
724.066	0.0122035
724.144	0.0122297
724.222	0.0120982
724.300	0.0120958
724.378	0.0120936
724.456	0.0122491
724.535	0.0125918
724.613	0.0128483
724.691	0.0130514
724.769	0.0135049
724.847	0.0136613
724.925	0.0140186
725.003	0.0142906
725.081	0.0145458
725.160	0.0150147
725.238	0.0154306
725.316	0.0156064
725.394	0.0158892
725.472	0.0161124
725.550	0.0161263
725.628	0.0161522
725.706	0.0162275
725.785	0.0161169
725.863	0.0160081
725.941	0.0159839
726.019	0.0155747
726.097	0.0155714
726.175	0.0159533
726.253	0.0157754
726.331	0.0160552
726.410	0.0162821
726.488	0.0164441
726.566	0.0166759
726.644	0.0165123
726.722	0.0164462
726.800	0.0163881
726.878	0.0161601
726.956	0.0160122
727.035	0.0157624
727.113	0.0154924
727.191	0.0154619
727.269	0.0152330
727.347	0.0150475
727.425	0.0149149
727.503	0.0147524
727.581	0.0144498
727.660	0.0141685
727.738	0.0137885
727.816	0.0134860
727.894	0.0131674
727.972	0.0127777
728.050	0.0124074
728.128	0.0120567
728.206	0.0118739
728.285	0.0117300
728.363	0.0112797
728.441	0.0111075
728.519	0.0111415
728.597	0.0110226
728.675	0.0108765
728.753	0.0109732
728.831	0.0110718
728.910	0.0115115
728.988	0.0117121
729.066	0.0118821
729.144	0.0123875
729.222	0.0123741
729.300	0.0126705
729.378	0.0126498
729.456	0.0127043
729.535	0.0128542
729.613	0.0129692
729.691	0.0130077
729.769	0.0131570
729.847	0.0131711
729.925	0.0133613
730.003	0.0137686
730.081	0.0137801
730.160	0.0140963
730.238	0.0143253
730.316	0.0145646
730.394	0.0148743
730.472	0.0151300
730.550	0.0154428
730.628	0.0157987
730.706	0.0161797
730.785	0.0163383
730.863	0.0167589
730.941	0.0168546
731.019	0.0169042
731.097	0.0168976
731.175	0.0169802
731.253	0.0167872
731.331	0.0164245
731.410	0.0161939
731.488	0.0158751
731.566	0.0156548
731.644	0.0153784
731.722	0.0150063
731.800	0.0147943
731.878	0.0145922
731.956	0.0141813
732.035	0.0139162
732.113	0.0138787
732.191	0.0138137
732.269	0.0138862
732.347	0.0138080
732.425	0.0138449
732.503	0.0140431
732.581	0.0141313
732.660	0.0142429
732.738	0.0143723
732.816	0.0145395
732.894	0.0146754
732.972	0.0146013
733.050	0.0145878
733.128	0.0146712
733.206	0.0146976
733.285	0.0146042
733.363	0.0143569
733.441	0.0141950
733.519	0.0138344
733.597	0.0133499
733.675	0.0129482
733.753	0.0127568
733.831	0.0124077
733.910	0.0120789
733.988	0.0121600
734.066	0.0120583
734.144	0.0122752
734.222	0.0122643
734.300	0.0126036
734.378	0.0127290
734.456	0.0130464
734.535	0.0133793
734.613	0.0137466
734.691	0.0137992
734.769	0.0140114
734.847	0.0140176
734.925	0.0139603
735.003	0.0138432
735.081	0.0136600
735.160	0.0133528
735.238	0.0131096
735.316	0.0129465
735.394	0.0126326
735.472	0.0124586
735.550	0.0124801
735.628	0.0124983
735.706	0.0127340
735.785	0.0128916
735.863	0.0129641
735.941	0.0133435
736.019	0.0135577
736.097	0.0138506
736.175	0.0139160
736.253	0.0143616
736.331	0.0146394
736.410	0.0148913
736.488	0.0151884
736.566	0.0151581
736.644	0.0155351
736.722	0.0156432
736.800	0.0156874
736.878	0.0155544
736.956	0.0156449
737.035	0.0155163
737.113	0.0154031
737.191	0.0152013
737.269	0.0152715
737.347	0.0152145
737.425	0.0152458
737.503	0.0151859
737.581	0.0153035
737.660	0.0156065
737.738	0.0155812
737.816	0.0155452
737.894	0.0157153
737.972	0.0158267
738.050	0.0157820
738.128	0.0158336
738.206	0.0157417
738.285	0.0158866
738.363	0.0157821
738.441	0.0157661
738.519	0.0154721
738.597	0.0153057
738.675	0.0150525
738.753	0.0146612
738.831	0.0143433
738.910	0.0140664
738.988	0.0137769
739.066	0.0135458
739.144	0.0134013
739.222	0.0132331
739.300	0.0131634
739.378	0.0130669
739.456	0.0131765
739.535	0.0132658
739.613	0.0131387
739.691	0.0131022
739.769	0.0131331
739.847	0.0130046
739.925	0.0129839
740.003	0.0129073
740.081	0.0128688
740.160	0.0129648
740.238	0.0129290
740.316	0.0128780
740.394	0.0129060
740.472	0.0129477
740.550	0.0128456
740.628	0.0129559
740.706	0.0132333
740.785	0.0131899
740.863	0.0133110
740.941	0.0134798
741.019	0.0134598
741.097	0.0136731
741.175	0.0137012
741.253	0.0136778
741.331	0.0135853
741.410	0.0136021
741.488	0.0136297
741.566	0.0134476
741.644	0.0133530
741.722	0.0133250
741.800	0.0133150
741.878	0.0134019
741.956	0.0134725
742.035	0.0135593
742.113	0.0135483
742.191	0.0137704
742.269	0.0140842
742.347	0.0141548
742.425	0.0144872
742.503	0.0145704
742.581	0.0148861
742.660	0.0149647
742.738	0.0150597
742.816	0.0152254
742.894	0.0153817
742.972	0.0153683
743.050	0.0152087
743.128	0.0153085
743.206	0.0152452
743.285	0.0150127
743.363	0.0149483
743.441	0.0148158
743.519	0.0150655
743.597	0.0149846
743.675	0.0148834
743.753	0.0149694
743.831	0.0150541
743.910	0.0149621
743.988	0.0151091
744.066	0.0152976
744.144	0.0150684
744.222	0.0150726
744.300	0.0151360
744.378	0.0149360
744.456	0.0146973
744.535	0.0147154
744.613	0.0145055
744.691	0.0144424
744.769	0.0143770
744.847	0.0142133
744.925	0.0138697
745.003	0.0138783
745.081	0.0138951
745.160	0.0138808
745.238	0.0137626
745.316	0.0137539
745.394	0.0137840
745.472	0.0137944
745.550	0.0138264
