05/03/2022	20:08:41	Ver.	4.1	UNKNOWN
Optical Delay	660.003261	Delta X		0.078125	Sweeps	1	Scan Rate	0/0
Coordinates	Axis 1	NaN	Axis 2	NaN	Axis 3	NaN	Axis 4	NaN	Axis 5	NaN	Axis 6	0.000000
TX Power	0.000000	RX Power	0.000000

660.003	0.0141962
660.081	0.0142348
660.160	0.0141972
660.238	0.0141475
660.316	0.0141797
660.394	0.0140987
660.472	0.0140414
660.550	0.0141273
660.628	0.0141348
660.706	0.0141551
660.785	0.0142768
660.863	0.0141212
660.941	0.0141782
661.019	0.0142296
661.097	0.0140801
661.175	0.0141143
661.253	0.0141487
661.331	0.0142462
661.410	0.0142883
661.488	0.0141094
661.566	0.0142275
661.644	0.0142265
661.722	0.0140546
661.800	0.0141470
661.878	0.0143626
661.956	0.0140060
662.035	0.0141567
662.113	0.0142076
662.191	0.0142052
662.269	0.0142030
662.347	0.0142001
662.425	0.0140748
662.503	0.0142509
662.581	0.0141409
662.660	0.0140080
662.738	0.0142879
662.816	0.0141721
662.894	0.0142776
662.972	0.0141796
663.050	0.0143272
663.128	0.0141674
663.206	0.0141820
663.285	0.0141506
663.363	0.0140891
663.441	0.0143082
663.519	0.0141199
663.597	0.0141663
663.675	0.0142049
663.753	0.0141190
663.831	0.0140855
663.910	0.0142131
663.988	0.0142659
664.066	0.0143255
664.144	0.0141700
664.222	0.0141445
664.300	0.0141860
664.378	0.0143028
664.456	0.0141310
664.535	0.0141608
664.613	0.0142224
664.691	0.0142679
664.769	0.0142926
664.847	0.0140001
664.925	0.0141219
665.003	0.0142079
665.081	0.0142343
665.160	0.0141827
665.238	0.0140844
665.316	0.0141991
665.394	0.0141388
665.472	0.0142458
665.550	0.0140948
665.628	0.0141911
665.706	0.0142065
665.785	0.0141962
665.863	0.0142716
665.941	0.0142714
666.019	0.0140956
666.097	0.0142299
666.175	0.0141822
666.253	0.0141209
666.331	0.0141173
666.410	0.0141103
666.488	0.0140338
666.566	0.0141119
666.644	0.0140829
666.722	0.0141936
666.800	0.0142500
666.878	0.0141927
666.956	0.0140535
667.035	0.0141851
667.113	0.0141916
667.191	0.0142672
667.269	0.0140967
667.347	0.0142208
667.425	0.0141940
667.503	0.0141503
667.581	0.0142895
667.660	0.0141418
667.738	0.0141483
667.816	0.0142535
667.894	0.0142407
667.972	0.0142152
668.050	0.0141950
668.128	0.0140595
668.206	0.0141447
668.285	0.0142574
668.363	0.0141084
668.441	0.0141382
668.519	0.0140902
668.597	0.0140120
668.675	0.0140786
668.753	0.0142155
668.831	0.0141403
668.910	0.0140611
668.988	0.0143044
669.066	0.0143304
669.144	0.0142793
669.222	0.0142029
669.300	0.0142004
669.378	0.0143125
669.456	0.0142381
669.535	0.0141158
669.613	0.0141737
669.691	0.0142455
669.769	0.0141773
669.847	0.0141881
669.925	0.0141670
670.003	0.0142402
670.081	0.0141373
670.160	0.0141672
670.238	0.0142378
670.316	0.0142658
670.394	0.0142005
670.472	0.0142357
670.550	0.0140766
670.628	0.0141271
670.706	0.0142918
670.785	0.0141273
670.863	0.0141667
670.941	0.0142297
671.019	0.0140991
671.097	0.0140942
671.175	0.0141367
671.253	0.0140537
671.331	0.0141386
671.410	0.0141599
671.488	0.0142566
671.566	0.0142112
671.644	0.0141686
671.722	0.0141236
671.800	0.0141154
671.878	0.0141864
671.956	0.0141539
672.035	0.0141017
672.113	0.0142278
672.191	0.0142885
672.269	0.0142200
672.347	0.0142075
672.425	0.0142010
672.503	0.0143165
672.581	0.0142444
672.660	0.0142916
672.738	0.0142031
672.816	0.0141665
672.894	0.0141558
672.972	0.0142220
673.050	0.0142865
673.128	0.0142088
673.206	0.0141765
673.285	0.0141860
673.363	0.0141158
673.441	0.0142213
673.519	0.0141698
673.597	0.0141730
673.675	0.0140941
673.753	0.0141402
673.831	0.0140876
673.910	0.0142833
673.988	0.0142567
674.066	0.0141341
674.144	0.0142693
674.222	0.0142122
674.300	0.0140717
674.378	0.0141107
674.456	0.0141589
674.535	0.0141692
674.613	0.0141273
674.691	0.0142355
674.769	0.0141987
674.847	0.0140993
674.925	0.0142220
675.003	0.0142720
675.081	0.0141396
675.160	0.0141766
675.238	0.0143184
675.316	0.0141104
675.394	0.0139994
675.472	0.0142547
675.550	0.0143985
675.628	0.0141918
675.706	0.0142181
675.785	0.0141797
675.863	0.0141106
675.941	0.0143018
676.019	0.0141984
676.097	0.0141681
676.175	0.0141886
676.253	0.0143195
676.331	0.0142507
676.410	0.0142303
676.488	0.0141315
676.566	0.0140876
676.644	0.0141363
676.722	0.0140715
676.800	0.0142245
676.878	0.0142371
676.956	0.0141948
677.035	0.0142223
677.113	0.0142999
677.191	0.0141956
677.269	0.0142329
677.347	0.0142725
677.425	0.0141449
677.503	0.0140666
677.581	0.0142567
677.660	0.0142120
677.738	0.0141588
677.816	0.0142628
677.894	0.0142329
677.972	0.0142725
678.050	0.0143094
678.128	0.0140504
678.206	0.0141164
678.285	0.0141734
678.363	0.0141034
678.441	0.0141462
678.519	0.0143247
678.597	0.0142120
678.675	0.0142191
678.753	0.0141541
678.831	0.0140524
678.910	0.0140836
678.988	0.0143377
679.066	0.0141416
679.144	0.0141297
679.222	0.0141879
679.300	0.0141568
679.378	0.0141741
679.456	0.0141493
679.535	0.0140882
679.613	0.0141153
679.691	0.0142504
679.769	0.0142387
679.847	0.0141570
679.925	0.0140807
680.003	0.0142829
680.081	0.0142020
680.160	0.0139851
680.238	0.0143073
680.316	0.0141763
680.394	0.0141626
680.472	0.0141245
680.550	0.0142545
680.628	0.0142430
680.706	0.0141536
680.785	0.0142035
680.863	0.0141032
680.941	0.0141726
681.019	0.0141059
681.097	0.0140946
681.175	0.0141669
681.253	0.0142255
681.331	0.0142863
681.410	0.0140537
681.488	0.0141337
681.566	0.0141815
681.644	0.0143657
681.722	0.0142714
681.800	0.0142111
681.878	0.0142124
681.956	0.0141466
682.035	0.0140874
682.113	0.0142229
682.191	0.0141005
682.269	0.0141755
682.347	0.0143184
682.425	0.0142022
682.503	0.0142670
682.581	0.0141633
682.660	0.0142230
682.738	0.0140460
682.816	0.0142252
682.894	0.0142987
682.972	0.0141714
683.050	0.0141218
683.128	0.0142486
683.206	0.0141846
683.285	0.0142625
683.363	0.0141311
683.441	0.0143282
683.519	0.0142549
683.597	0.0142009
683.675	0.0141190
683.753	0.0141109
683.831	0.0142593
683.910	0.0143054
683.988	0.0142549
684.066	0.0141611
684.144	0.0141620
684.222	0.0141930
684.300	0.0141541
684.378	0.0142028
684.456	0.0142294
684.535	0.0141574
684.613	0.0142978
684.691	0.0141984
684.769	0.0141730
684.847	0.0142768
684.925	0.0143079
685.003	0.0141948
685.081	0.0141278
685.160	0.0142687
685.238	0.0141902
685.316	0.0141724
685.394	0.0141353
685.472	0.0142455
685.550	0.0141843
685.628	0.0142540
685.706	0.0142342
685.785	0.0141865
685.863	0.0140652
685.941	0.0141586
686.019	0.0141119
686.097	0.0142580
686.175	0.0140691
686.253	0.0141035
686.331	0.0140987
686.410	0.0142349
686.488	0.0142340
686.566	0.0140832
686.644	0.0141604
686.722	0.0140717
686.800	0.0141964
686.878	0.0142262
686.956	0.0141539
687.035	0.0142628
687.113	0.0141531
687.191	0.0142573
687.269	0.0141339
687.347	0.0140756
687.425	0.0141998
687.503	0.0141940
687.581	0.0141854
687.660	0.0141601
687.738	0.0142212
687.816	0.0141832
687.894	0.0142832
687.972	0.0142535
688.050	0.0143182
688.128	0.0141788
688.206	0.0141139
688.285	0.0142971
688.363	0.0142256
688.441	0.0141650
688.519	0.0141779
688.597	0.0142896
688.675	0.0142252
688.753	0.0141685
688.831	0.0141624
688.910	0.0141120
688.988	0.0141661
689.066	0.0142817
689.144	0.0141994
689.222	0.0140905
689.300	0.0143348
689.378	0.0142603
689.456	0.0141702
689.535	0.0141473
689.613	0.0142419
689.691	0.0141716
689.769	0.0141079
689.847	0.0143507
689.925	0.0144051
690.003	0.0142113
690.081	0.0140579
690.160	0.0142918
690.238	0.0141290
690.316	0.0142159
690.394	0.0142573
690.472	0.0143020
690.550	0.0141055
690.628	0.0141649
690.706	0.0142926
690.785	0.0141920
690.863	0.0140496
690.941	0.0141118
691.019	0.0142505
691.097	0.0141273
691.175	0.0141798
691.253	0.0141889
691.331	0.0141988
691.410	0.0142667
691.488	0.0141408
691.566	0.0141228
691.644	0.0140965
691.722	0.0141852
691.800	0.0142735
691.878	0.0141193
691.956	0.0141687
692.035	0.0141161
692.113	0.0141514
692.191	0.0142805
692.269	0.0140703
692.347	0.0141293
692.425	0.0140110
692.503	0.0142760
692.581	0.0142470
692.660	0.0143026
692.738	0.0141607
692.816	0.0141615
692.894	0.0141492
692.972	0.0142921
693.050	0.0142432
693.128	0.0140791
693.206	0.0141549
693.285	0.0142053
693.363	0.0142422
693.441	0.0142251
693.519	0.0140930
693.597	0.0141830
693.675	0.0141293
693.753	0.0140662
693.831	0.0141765
693.910	0.0143620
693.988	0.0143361
694.066	0.0140150
694.144	0.0140900
694.222	0.0142109
694.300	0.0142191
694.378	0.0141644
694.456	0.0140600
694.535	0.0141940
694.613	0.0142654
694.691	0.0143073
694.769	0.0143427
694.847	0.0142708
694.925	0.0141853
695.003	0.0140928
695.081	0.0142165
695.160	0.0142188
695.238	0.0140398
695.316	0.0142519
695.394	0.0141483
695.472	0.0142384
695.550	0.0141003
695.628	0.0142478
695.706	0.0141592
695.785	0.0140872
695.863	0.0141688
695.941	0.0142708
696.019	0.0140526
696.097	0.0142264
696.175	0.0140849
696.253	0.0142072
696.331	0.0142203
696.410	0.0141250
696.488	0.0141645
696.566	0.0141359
696.644	0.0142570
696.722	0.0142831
696.800	0.0141700
696.878	0.0141255
696.956	0.0139768
697.035	0.0140837
697.113	0.0141004
697.191	0.0141119
697.269	0.0141908
697.347	0.0142284
697.425	0.0142469
697.503	0.0143274
697.581	0.0142154
697.660	0.0142217
697.738	0.0142896
697.816	0.0141644
697.894	0.0140951
697.972	0.0141956
698.050	0.0141477
698.128	0.0142371
698.206	0.0141492
698.285	0.0142284
698.363	0.0140981
698.441	0.0141168
698.519	0.0140934
698.597	0.0141705
698.675	0.0142310
698.753	0.0140442
698.831	0.0140908
698.910	0.0142162
698.988	0.0141747
699.066	0.0141003
699.144	0.0140793
699.222	0.0141590
699.300	0.0141582
699.378	0.0141840
699.456	0.0141167
699.535	0.0141196
699.613	0.0141273
699.691	0.0142367
699.769	0.0141383
699.847	0.0142022
699.925	0.0139935
700.003	0.0140393
700.081	0.0141166
700.160	0.0142338
700.238	0.0141961
700.316	0.0141564
700.394	0.0141960
700.472	0.0141582
700.550	0.0142200
700.628	0.0142227
700.706	0.0142133
700.785	0.0142039
700.863	0.0142931
700.941	0.0141702
701.019	0.0143929
701.097	0.0143401
701.175	0.0142820
701.253	0.0142428
701.331	0.0142308
701.410	0.0140765
701.488	0.0143740
701.566	0.0141152
701.644	0.0141628
701.722	0.0141063
701.800	0.0140854
701.878	0.0141445
701.956	0.0140965
702.035	0.0141148
702.113	0.0140695
702.191	0.0140308
702.269	0.0141199
702.347	0.0141502
702.425	0.0141280
702.503	0.0140294
702.581	0.0141267
702.660	0.0142496
702.738	0.0140417
702.816	0.0141691
702.894	0.0142690
702.972	0.0141671
703.050	0.0140696
703.128	0.0141063
703.206	0.0142260
703.285	0.0141074
703.363	0.0141965
703.441	0.0143190
703.519	0.0143322
703.597	0.0143174
703.675	0.0143030
703.753	0.0142766
703.831	0.0142157
703.910	0.0144225
703.988	0.0144102
704.066	0.0144669
704.144	0.0144286
704.222	0.0145930
704.300	0.0146278
704.378	0.0144626
704.456	0.0145651
704.535	0.0144933
704.613	0.0144732
704.691	0.0145155
704.769	0.0145971
704.847	0.0145872
704.925	0.0146249
705.003	0.0147203
705.081	0.0145060
705.160	0.0143524
705.238	0.0145750
705.316	0.0145937
705.394	0.0145181
705.472	0.0145173
705.550	0.0144144
705.628	0.0143649
705.706	0.0141959
705.785	0.0143570
705.863	0.0143787
705.941	0.0141764
706.019	0.0140677
706.097	0.0141557
706.175	0.0139701
706.253	0.0138841
706.331	0.0138735
706.410	0.0138298
706.488	0.0136476
706.566	0.0136723
706.644	0.0136658
706.722	0.0135157
706.800	0.0135966
706.878	0.0132979
706.956	0.0131283
707.035	0.0126978
707.113	0.0122430
707.191	0.0113956
707.269	0.0102440
707.347	0.00933769
707.425	0.00853241
707.503	0.00819405
707.581	0.00903633
707.660	0.0105401
707.738	0.0127668
707.816	0.0157919
707.894	0.0185320
707.972	0.0209332
708.050	0.0220322
708.128	0.0216190
708.206	0.0198121
708.285	0.0169456
708.363	0.0132687
708.441	0.00974380
708.519	0.00680801
708.597	0.00511559
708.675	0.00486000
708.753	0.00602371
708.831	0.00864708
708.910	0.0125777
708.988	0.0170077
709.066	0.0214743
709.144	0.0255643
709.222	0.0284283
709.300	0.0299887
709.378	0.0301051
709.456	0.0286922
709.535	0.0256730
709.613	0.0217967
709.691	0.0173026
709.769	0.0130939
709.847	0.00925919
709.925	0.00638191
710.003	0.00459961
710.081	0.00386124
710.160	0.00392296
710.238	0.00471977
710.316	0.00617592
710.394	0.00765884
710.472	0.00953484
710.550	0.0111443
710.628	0.0125165
710.706	0.0135182
710.785	0.0144110
710.863	0.0149265
710.941	0.0151447
711.019	0.0152480
711.097	0.0152654
711.175	0.0149543
711.253	0.0150913
711.331	0.0148365
711.410	0.0145595
711.488	0.0149172
711.566	0.0149989
711.644	0.0151176
711.722	0.0153603
711.800	0.0153979
711.878	0.0154442
711.956	0.0154035
712.035	0.0152076
712.113	0.0149298
712.191	0.0148566
712.269	0.0148725
712.347	0.0147339
712.425	0.0148824
712.503	0.0150471
712.581	0.0153365
712.660	0.0154864
712.738	0.0156566
712.816	0.0155914
712.894	0.0156869
712.972	0.0154549
713.050	0.0150293
713.128	0.0145069
713.206	0.0139716
713.285	0.0132487
713.363	0.0127130
713.441	0.0122472
713.519	0.0118361
713.597	0.0116219
713.675	0.0116382
713.753	0.0118903
713.831	0.0124813
713.910	0.0130768
713.988	0.0138147
714.066	0.0145747
714.144	0.0152016
714.222	0.0155128
714.300	0.0158981
714.378	0.0163953
714.456	0.0163799
714.535	0.0164467
714.613	0.0163219
714.691	0.0162069
714.769	0.0158321
714.847	0.0152582
714.925	0.0146590
715.003	0.0141566
715.081	0.0133218
715.160	0.0126758
715.238	0.0120632
715.316	0.0117111
715.394	0.0115790
715.472	0.0114817
715.550	0.0116149
715.628	0.0118188
715.706	0.0122266
715.785	0.0126667
715.863	0.0131787
715.941	0.0137557
716.019	0.0142183
716.097	0.0148695
716.175	0.0153204
716.253	0.0157600
716.331	0.0164277
716.410	0.0169643
716.488	0.0175085
716.566	0.0179122
716.644	0.0181460
716.722	0.0182682
716.800	0.0183161
716.878	0.0179182
716.956	0.0175642
717.035	0.0167970
717.113	0.0158620
717.191	0.0152154
717.269	0.0144224
717.347	0.0135748
717.425	0.0129327
717.503	0.0122314
717.581	0.0117599
717.660	0.0112082
717.738	0.0109409
717.816	0.0106815
717.894	0.0104163
717.972	0.0102073
718.050	0.0100025
718.128	0.00989830
718.206	0.0100257
718.285	0.0104138
718.363	0.0106699
718.441	0.0111263
718.519	0.0115615
718.597	0.0120849
718.675	0.0126199
718.753	0.0130246
718.831	0.0135083
718.910	0.0138154
718.988	0.0140509
719.066	0.0143253
719.144	0.0148260
719.222	0.0150224
719.300	0.0154715
719.378	0.0158847
719.456	0.0164341
719.535	0.0168696
719.613	0.0171484
719.691	0.0173131
719.769	0.0173599
719.847	0.0170341
719.925	0.0165253
720.003	0.0161679
720.081	0.0156856
720.160	0.0153844
720.238	0.0151672
720.316	0.0150411
720.394	0.0149585
720.472	0.0147687
720.550	0.0148408
720.628	0.0146626
720.706	0.0146371
720.785	0.0142949
720.863	0.0141630
720.941	0.0139291
721.019	0.0137486
721.097	0.0135906
721.175	0.0136336
721.253	0.0134478
721.331	0.0135175
721.410	0.0132481
721.488	0.0130127
721.566	0.0129642
721.644	0.0126839
721.722	0.0125671
721.800	0.0123363
721.878	0.0122235
721.956	0.0123600
722.035	0.0124834
722.113	0.0126062
722.191	0.0126680
722.269	0.0128396
722.347	0.0129847
722.425	0.0132084
722.503	0.0134036
722.581	0.0134607
722.660	0.0136649
722.738	0.0140303
722.816	0.0141914
722.894	0.0143008
722.972	0.0147298
723.050	0.0151382
723.128	0.0153999
723.206	0.0157468
723.285	0.0158585
723.363	0.0158212
723.441	0.0154884
723.519	0.0151754
723.597	0.0151093
723.675	0.0149025
723.753	0.0147736
723.831	0.0145576
723.910	0.0145457
723.988	0.0142467
724.066	0.0140179
724.144	0.0138702
724.222	0.0137571
724.300	0.0137247
724.378	0.0137300
724.456	0.0138176
724.535	0.0139308
724.613	0.0142143
724.691	0.0142643
724.769	0.0144445
724.847	0.0143998
724.925	0.0142679
725.003	0.0140885
725.081	0.0138808
725.160	0.0135409
725.238	0.0133294
725.316	0.0132148
725.394	0.0133285
725.472	0.0132497
725.550	0.0137066
725.628	0.0142057
725.706	0.0145836
725.785	0.0149491
725.863	0.0153577
725.941	0.0156474
726.019	0.0158508
726.097	0.0160002
726.175	0.0160554
726.253	0.0160527
726.331	0.0160828
726.410	0.0162811
726.488	0.0162403
726.566	0.0162849
726.644	0.0161403
726.722	0.0162186
726.800	0.0159975
726.878	0.0154919
726.956	0.0149426
727.035	0.0144852
727.113	0.0140112
727.191	0.0136941
727.269	0.0131304
727.347	0.0128434
727.425	0.0127815
727.503	0.0124142
727.581	0.0124673
727.660	0.0123690
727.738	0.0124367
727.816	0.0126144
727.894	0.0127763
727.972	0.0129230
728.050	0.0132535
728.128	0.0136947
728.206	0.0139107
728.285	0.0140062
728.363	0.0141817
728.441	0.0140602
728.519	0.0140587
728.597	0.0137959
728.675	0.0134727
728.753	0.0130872
728.831	0.0127879
728.910	0.0124390
728.988	0.0121057
729.066	0.0118756
729.144	0.0116348
729.222	0.0117124
729.300	0.0118484
729.378	0.0119756
729.456	0.0122182
729.535	0.0126614
729.613	0.0131071
729.691	0.0133950
729.769	0.0139167
729.847	0.0143308
729.925	0.0148412
730.003	0.0152657
730.081	0.0155543
730.160	0.0159486
730.238	0.0160028
730.316	0.0159692
730.394	0.0159090
730.472	0.0156174
730.550	0.0153810
730.628	0.0152721
730.706	0.0151674
730.785	0.0151324
730.863	0.0150985
730.941	0.0151450
731.019	0.0151043
731.097	0.0151241
731.175	0.0152666
731.253	0.0154049
731.331	0.0152715
731.410	0.0153806
731.488	0.0154235
731.566	0.0154915
731.644	0.0154266
731.722	0.0153391
731.800	0.0153439
731.878	0.0153364
731.956	0.0150490
732.035	0.0148222
732.113	0.0147287
732.191	0.0145863
732.269	0.0143876
732.347	0.0145023
732.425	0.0141637
732.503	0.0139140
732.581	0.0137037
732.660	0.0133287
732.738	0.0130256
732.816	0.0128592
732.894	0.0125216
732.972	0.0123193
733.050	0.0120331
733.128	0.0121735
733.206	0.0123976
733.285	0.0122896
733.363	0.0126385
733.441	0.0130511
733.519	0.0132417
733.597	0.0135213
733.675	0.0140052
733.753	0.0142910
733.831	0.0145940
733.910	0.0147487
733.988	0.0147101
734.066	0.0147201
734.144	0.0147089
734.222	0.0143113
734.300	0.0141001
734.378	0.0139046
734.456	0.0136913
734.535	0.0134756
734.613	0.0131123
734.691	0.0129877
734.769	0.0129453
734.847	0.0130801
734.925	0.0132589
735.003	0.0135892
735.081	0.0136222
735.160	0.0137430
735.238	0.0138914
735.316	0.0140771
735.394	0.0142120
735.472	0.0142517
735.550	0.0143399
735.628	0.0144223
735.706	0.0145660
735.785	0.0146806
735.863	0.0148302
735.941	0.0149419
736.019	0.0149966
736.097	0.0150344
736.175	0.0151236
736.253	0.0151344
736.331	0.0149717
736.410	0.0150685
736.488	0.0149298
736.566	0.0147995
736.644	0.0149252
736.722	0.0146760
736.800	0.0147623
736.878	0.0147926
736.956	0.0146314
737.035	0.0145639
737.113	0.0145374
737.191	0.0145215
737.269	0.0144405
737.347	0.0144849
737.425	0.0145969
737.503	0.0146573
737.581	0.0146420
737.660	0.0147321
737.738	0.0148423
737.816	0.0148389
737.894	0.0148990
737.972	0.0148322
738.050	0.0147078
738.128	0.0144926
738.206	0.0145403
738.285	0.0144007
738.363	0.0144173
738.441	0.0141999
738.519	0.0141881
738.597	0.0142783
738.675	0.0143861
738.753	0.0144156
738.831	0.0144747
738.910	0.0143600
738.988	0.0143072
739.066	0.0143136
739.144	0.0140231
739.222	0.0139874
739.300	0.0138895
739.378	0.0138137
739.456	0.0134560
739.535	0.0134581
739.613	0.0132718
739.691	0.0131091
739.769	0.0130887
739.847	0.0130594
739.925	0.0131653
740.003	0.0134955
740.081	0.0135647
740.160	0.0137952
740.238	0.0140799
740.316	0.0141206
740.394	0.0140569
740.472	0.0141969
740.550	0.0142957
740.628	0.0141004
740.706	0.0138740
740.785	0.0138299
740.863	0.0133701
740.941	0.0132304
741.019	0.0129297
741.097	0.0126171
741.175	0.0125319
741.253	0.0124342
741.331	0.0125004
741.410	0.0125302
741.488	0.0126953
741.566	0.0131982
741.644	0.0133999
741.722	0.0137788
741.800	0.0140498
741.878	0.0143529
741.956	0.0146490
742.035	0.0148875
742.113	0.0149982
742.191	0.0152330
742.269	0.0151111
742.347	0.0151899
742.425	0.0152281
742.503	0.0150560
742.581	0.0149448
742.660	0.0148348
742.738	0.0147615
742.816	0.0147803
742.894	0.0146834
742.972	0.0146657
743.050	0.0147282
743.128	0.0147855
743.206	0.0147437
743.285	0.0150026
743.363	0.0148708
743.441	0.0149881
743.519	0.0148529
743.597	0.0147172
743.675	0.0148301
743.753	0.0146936
743.831	0.0147324
743.910	0.0147101
743.988	0.0145531
744.066	0.0144491
744.144	0.0143983
744.222	0.0144713
744.300	0.0142544
744.378	0.0142829
744.456	0.0142433
744.535	0.0143736
744.613	0.0143369
744.691	0.0142325
744.769	0.0141438
744.847	0.0142997
744.925	0.0141169
745.003	0.0141431
745.081	0.0141743
745.160	0.0141675
745.238	0.0138383
745.316	0.0137093
745.394	0.0137444
745.472	0.0135993
745.550	0.0133027
745.628	0.0132434
