05/03/2022	20:09:11	Ver.	4.1	UNKNOWN
Optical Delay	660.003261	Delta X		0.078125	Sweeps	1	Scan Rate	0/0
Coordinates	Axis 1	NaN	Axis 2	NaN	Axis 3	NaN	Axis 4	NaN	Axis 5	NaN	Axis 6	0.000000
TX Power	0.000000	RX Power	0.000000

660.003	0.0140726
660.081	0.0140695
660.160	0.0142432
660.238	0.0140677
660.316	0.0140417
660.394	0.0140857
660.472	0.0140333
660.550	0.0141677
660.628	0.0140517
660.706	0.0138716
660.785	0.0141937
660.863	0.0140761
660.941	0.0140257
661.019	0.0140435
661.097	0.0140841
661.175	0.0140208
661.253	0.0140665
661.331	0.0140888
661.410	0.0139922
661.488	0.0141863
661.566	0.0141882
661.644	0.0141106
661.722	0.0141040
661.800	0.0140206
661.878	0.0141215
661.956	0.0140990
662.035	0.0141507
662.113	0.0141113
662.191	0.0140600
662.269	0.0139990
662.347	0.0141420
662.425	0.0139923
662.503	0.0140639
662.581	0.0141494
662.660	0.0139849
662.738	0.0139016
662.816	0.0141321
662.894	0.0141998
662.972	0.0140463
663.050	0.0139555
663.128	0.0143047
663.206	0.0141512
663.285	0.0140601
663.363	0.0140483
663.441	0.0140568
663.519	0.0140720
663.597	0.0140437
663.675	0.0140359
663.753	0.0140791
663.831	0.0140844
663.910	0.0140460
663.988	0.0140770
664.066	0.0139838
664.144	0.0140349
664.222	0.0140448
664.300	0.0140932
664.378	0.0140584
664.456	0.0140631
664.535	0.0140286
664.613	0.0140581
664.691	0.0140026
664.769	0.0140720
664.847	0.0140282
664.925	0.0140847
665.003	0.0139826
665.081	0.0139805
665.160	0.0139349
665.238	0.0140164
665.316	0.0139681
665.394	0.0140210
665.472	0.0140237
665.550	0.0140912
665.628	0.0139977
665.706	0.0140458
665.785	0.0140537
665.863	0.0141513
665.941	0.0140646
666.019	0.0141538
666.097	0.0139288
666.175	0.0140742
666.253	0.0140690
666.331	0.0139941
666.410	0.0141122
666.488	0.0140202
666.566	0.0140533
666.644	0.0140801
666.722	0.0140568
666.800	0.0140648
666.878	0.0141206
666.956	0.0141270
667.035	0.0139799
667.113	0.0139435
667.191	0.0141270
667.269	0.0140332
667.347	0.0140614
667.425	0.0139510
667.503	0.0140149
667.581	0.0140891
667.660	0.0141151
667.738	0.0141168
667.816	0.0140657
667.894	0.0141088
667.972	0.0139780
668.050	0.0140408
668.128	0.0139814
668.206	0.0141590
668.285	0.0141413
668.363	0.0142416
668.441	0.0139852
668.519	0.0140411
668.597	0.0140025
668.675	0.0140119
668.753	0.0141562
668.831	0.0141000
668.910	0.0140527
668.988	0.0141582
669.066	0.0141371
669.144	0.0140418
669.222	0.0141994
669.300	0.0140713
669.378	0.0141956
669.456	0.0141827
669.535	0.0141451
669.613	0.0140243
669.691	0.0142582
669.769	0.0140355
669.847	0.0140801
669.925	0.0140625
670.003	0.0142124
670.081	0.0141375
670.160	0.0141783
670.238	0.0139796
670.316	0.0140285
670.394	0.0142364
670.472	0.0141711
670.550	0.0141525
670.628	0.0140130
670.706	0.0139701
670.785	0.0140087
670.863	0.0140685
670.941	0.0139514
671.019	0.0139104
671.097	0.0142410
671.175	0.0140990
671.253	0.0140717
671.331	0.0141528
671.410	0.0141988
671.488	0.0141364
671.566	0.0140365
671.644	0.0139963
671.722	0.0140775
671.800	0.0140717
671.878	0.0140961
671.956	0.0141109
672.035	0.0141296
672.113	0.0138810
672.191	0.0141061
672.269	0.0141515
672.347	0.0141063
672.425	0.0141487
672.503	0.0140431
672.581	0.0139451
672.660	0.0140496
672.738	0.0140967
672.816	0.0140414
672.894	0.0141803
672.972	0.0141548
673.050	0.0140513
673.128	0.0140760
673.206	0.0140151
673.285	0.0140365
673.363	0.0139539
673.441	0.0140809
673.519	0.0140860
673.597	0.0139868
673.675	0.0140837
673.753	0.0141130
673.831	0.0140269
673.910	0.0140180
673.988	0.0141440
674.066	0.0140479
674.144	0.0139721
674.222	0.0139814
674.300	0.0139410
674.378	0.0141932
674.456	0.0141528
674.535	0.0141099
674.613	0.0140843
674.691	0.0139347
674.769	0.0140073
674.847	0.0141087
674.925	0.0140289
675.003	0.0141024
675.081	0.0141682
675.160	0.0141499
675.238	0.0141232
675.316	0.0140933
675.394	0.0141126
675.472	0.0141002
675.550	0.0141062
675.628	0.0140391
675.706	0.0141238
675.785	0.0141599
675.863	0.0139978
675.941	0.0141142
676.019	0.0140757
676.097	0.0140493
676.175	0.0140575
676.253	0.0140491
676.331	0.0141685
676.410	0.0140798
676.488	0.0141193
676.566	0.0140263
676.644	0.0139378
676.722	0.0141075
676.800	0.0140803
676.878	0.0141111
676.956	0.0140800
677.035	0.0141358
677.113	0.0139978
677.191	0.0139947
677.269	0.0139530
677.347	0.0141788
677.425	0.0141048
677.503	0.0141257
677.581	0.0141994
677.660	0.0141010
677.738	0.0140773
677.816	0.0141374
677.894	0.0140766
677.972	0.0141092
678.050	0.0140693
678.128	0.0138767
678.206	0.0141759
678.285	0.0141662
678.363	0.0141087
678.441	0.0140424
678.519	0.0139617
678.597	0.0140651
678.675	0.0140685
678.753	0.0141014
678.831	0.0140445
678.910	0.0141336
678.988	0.0141184
679.066	0.0139191
679.144	0.0139271
679.222	0.0139654
679.300	0.0140910
679.378	0.0139652
679.456	0.0138628
679.535	0.0141692
679.613	0.0140623
679.691	0.0140849
679.769	0.0139793
679.847	0.0140861
679.925	0.0140299
680.003	0.0139971
680.081	0.0140475
680.160	0.0141697
680.238	0.0140314
680.316	0.0140694
680.394	0.0139965
680.472	0.0140003
680.550	0.0140746
680.628	0.0139037
680.706	0.0140474
680.785	0.0139328
680.863	0.0140735
680.941	0.0140620
681.019	0.0140891
681.097	0.0140858
681.175	0.0142017
681.253	0.0141242
681.331	0.0140810
681.410	0.0139632
681.488	0.0141128
681.566	0.0140926
681.644	0.0140877
681.722	0.0140924
681.800	0.0140283
681.878	0.0140732
681.956	0.0140996
682.035	0.0140461
682.113	0.0140831
682.191	0.0140338
682.269	0.0142271
682.347	0.0141244
682.425	0.0141328
682.503	0.0140606
682.581	0.0142780
682.660	0.0141453
682.738	0.0140091
682.816	0.0140814
682.894	0.0141160
682.972	0.0140202
683.050	0.0142302
683.128	0.0140974
683.206	0.0141168
683.285	0.0140589
683.363	0.0141154
683.441	0.0140434
683.519	0.0139985
683.597	0.0140416
683.675	0.0140089
683.753	0.0141460
683.831	0.0141027
683.910	0.0141526
683.988	0.0142110
684.066	0.0140718
684.144	0.0140518
684.222	0.0140661
684.300	0.0141338
684.378	0.0141711
684.456	0.0139814
684.535	0.0141593
684.613	0.0141298
684.691	0.0139427
684.769	0.0140604
684.847	0.0140813
684.925	0.0140788
685.003	0.0142031
685.081	0.0140754
685.160	0.0140833
685.238	0.0141643
685.316	0.0141180
685.394	0.0139930
685.472	0.0141025
685.550	0.0140646
685.628	0.0140294
685.706	0.0140854
685.785	0.0140735
685.863	0.0139905
685.941	0.0140349
686.019	0.0141534
686.097	0.0141422
686.175	0.0140472
686.253	0.0139989
686.331	0.0139237
686.410	0.0140984
686.488	0.0141452
686.566	0.0141268
686.644	0.0140371
686.722	0.0139356
686.800	0.0140611
686.878	0.0141680
686.956	0.0139365
687.035	0.0141308
687.113	0.0140246
687.191	0.0141361
687.269	0.0139741
687.347	0.0140292
687.425	0.0140051
687.503	0.0140675
687.581	0.0140024
687.660	0.0141008
687.738	0.0139990
687.816	0.0141407
687.894	0.0141432
687.972	0.0141366
688.050	0.0140855
688.128	0.0141697
688.206	0.0140406
688.285	0.0140350
688.363	0.0139737
688.441	0.0140054
688.519	0.0139987
688.597	0.0140350
688.675	0.0139435
688.753	0.0140266
688.831	0.0141219
688.910	0.0141357
688.988	0.0140977
689.066	0.0141221
689.144	0.0140099
689.222	0.0140082
689.300	0.0140723
689.378	0.0140854
689.456	0.0141664
689.535	0.0142067
689.613	0.0142113
689.691	0.0140973
689.769	0.0139536
689.847	0.0141442
689.925	0.0140521
690.003	0.0140842
690.081	0.0142358
690.160	0.0141534
690.238	0.0141196
690.316	0.0140607
690.394	0.0140195
690.472	0.0141238
690.550	0.0140916
690.628	0.0141395
690.706	0.0140813
690.785	0.0140363
690.863	0.0141537
690.941	0.0140784
691.019	0.0141687
691.097	0.0141029
691.175	0.0140424
691.253	0.0139521
691.331	0.0141068
691.410	0.0141261
691.488	0.0140630
691.566	0.0140912
691.644	0.0140729
691.722	0.0140462
691.800	0.0140410
691.878	0.0140765
691.956	0.0141727
692.035	0.0141726
692.113	0.0140257
692.191	0.0140762
692.269	0.0139063
692.347	0.0140842
692.425	0.0140272
692.503	0.0140384
692.581	0.0140900
692.660	0.0141780
692.738	0.0139969
692.816	0.0139540
692.894	0.0140681
692.972	0.0141080
693.050	0.0140099
693.128	0.0141486
693.206	0.0141241
693.285	0.0140145
693.363	0.0141285
693.441	0.0140187
693.519	0.0140000
693.597	0.0140737
693.675	0.0140736
693.753	0.0140535
693.831	0.0140784
693.910	0.0140994
693.988	0.0140587
694.066	0.0141221
694.144	0.0141246
694.222	0.0140199
694.300	0.0141605
694.378	0.0141334
694.456	0.0140884
694.535	0.0139784
694.613	0.0140573
694.691	0.0140956
694.769	0.0141279
694.847	0.0140950
694.925	0.0141045
695.003	0.0140543
695.081	0.0140861
695.160	0.0139514
695.238	0.0140481
695.316	0.0141531
695.394	0.0140724
695.472	0.0140605
695.550	0.0139960
695.628	0.0139783
695.706	0.0141783
695.785	0.0139944
695.863	0.0139827
695.941	0.0140734
696.019	0.0140680
696.097	0.0140842
696.175	0.0140172
696.253	0.0140527
696.331	0.0141585
696.410	0.0141861
696.488	0.0140444
696.566	0.0140922
696.644	0.0141271
696.722	0.0140160
696.800	0.0139503
696.878	0.0138977
696.956	0.0139718
697.035	0.0139330
697.113	0.0139616
697.191	0.0139889
697.269	0.0140483
697.347	0.0140915
697.425	0.0141421
697.503	0.0141303
697.581	0.0141373
697.660	0.0139966
697.738	0.0141289
697.816	0.0140349
697.894	0.0139837
697.972	0.0140061
698.050	0.0140175
698.128	0.0140402
698.206	0.0140824
698.285	0.0140412
698.363	0.0139764
698.441	0.0140141
698.519	0.0140260
698.597	0.0141414
698.675	0.0139488
698.753	0.0140247
698.831	0.0141277
698.910	0.0140186
698.988	0.0141882
699.066	0.0140096
699.144	0.0140287
699.222	0.0139131
699.300	0.0139549
699.378	0.0142101
699.456	0.0140822
699.535	0.0139452
699.613	0.0140726
699.691	0.0140712
699.769	0.0140578
699.847	0.0140556
699.925	0.0140314
700.003	0.0139616
700.081	0.0141412
700.160	0.0140382
700.238	0.0139981
700.316	0.0140335
700.394	0.0141955
700.472	0.0141580
700.550	0.0140275
700.628	0.0141561
700.706	0.0140665
700.785	0.0141837
700.863	0.0141415
700.941	0.0141227
701.019	0.0141772
701.097	0.0142283
701.175	0.0141791
701.253	0.0142339
701.331	0.0141206
701.410	0.0142400
701.488	0.0142700
701.566	0.0140220
701.644	0.0140295
701.722	0.0140497
701.800	0.0139951
701.878	0.0140630
701.956	0.0139622
702.035	0.0140498
702.113	0.0141210
702.191	0.0139999
702.269	0.0140023
702.347	0.0141402
702.425	0.0140077
702.503	0.0139915
702.581	0.0140278
702.660	0.0140395
702.738	0.0140514
702.816	0.0140588
702.894	0.0141323
702.972	0.0141308
703.050	0.0141726
703.128	0.0141084
703.206	0.0141214
703.285	0.0141249
703.363	0.0141563
703.441	0.0142290
703.519	0.0141087
703.597	0.0141059
703.675	0.0141458
703.753	0.0141627
703.831	0.0143182
703.910	0.0142294
703.988	0.0142384
704.066	0.0142884
704.144	0.0142682
704.222	0.0142798
704.300	0.0143633
704.378	0.0144195
704.456	0.0142781
704.535	0.0142594
704.613	0.0143936
704.691	0.0144128
704.769	0.0143946
704.847	0.0143372
704.925	0.0145076
705.003	0.0143698
705.081	0.0143652
705.160	0.0142941
705.238	0.0143275
705.316	0.0142458
705.394	0.0142821
705.472	0.0142949
705.550	0.0142086
705.628	0.0141926
705.706	0.0142670
705.785	0.0140653
705.863	0.0141201
705.941	0.0141792
706.019	0.0140015
706.097	0.0139649
706.175	0.0140328
706.253	0.0139575
706.331	0.0137646
706.410	0.0138159
706.488	0.0138620
706.566	0.0137066
706.644	0.0137385
706.722	0.0136820
706.800	0.0137632
706.878	0.0134834
706.956	0.0131462
707.035	0.0129006
707.113	0.0123038
707.191	0.0115177
707.269	0.0105292
707.347	0.00949539
707.425	0.00879730
707.503	0.00868332
707.581	0.00929741
707.660	0.0108229
707.738	0.0133166
707.816	0.0162343
707.894	0.0191491
707.972	0.0211716
708.050	0.0221476
708.128	0.0214429
708.206	0.0190965
708.285	0.0156100
708.363	0.0117352
708.441	0.00781525
708.519	0.00460907
708.597	0.00275093
708.675	0.00223717
708.753	0.00384583
708.831	0.00733192
708.910	0.0117481
708.988	0.0170124
709.066	0.0223697
709.144	0.0271446
709.222	0.0309566
709.300	0.0329277
709.378	0.0332181
709.456	0.0316405
709.535	0.0281944
709.613	0.0236927
709.691	0.0182491
709.769	0.0128849
709.847	0.00777184
709.925	0.00351883
710.003	0.000673370
710.081	-0.000595169
710.160	-0.000667496
710.238	0.000356140
710.316	0.00234322
710.394	0.00488693
710.472	0.00768791
710.550	0.0104880
710.628	0.0131988
710.706	0.0155556
710.785	0.0174787
710.863	0.0187652
710.941	0.0196980
711.019	0.0201328
711.097	0.0197273
711.175	0.0191885
711.253	0.0182193
711.331	0.0169173
711.410	0.0158624
711.488	0.0148930
711.566	0.0141479
711.644	0.0134622
711.722	0.0129039
711.800	0.0127350
711.878	0.0126331
711.956	0.0126281
712.035	0.0125445
712.113	0.0124561
712.191	0.0126776
712.269	0.0129188
712.347	0.0134374
712.425	0.0140787
712.503	0.0145918
712.581	0.0154462
712.660	0.0160945
712.738	0.0167204
712.816	0.0171613
712.894	0.0174061
712.972	0.0173337
713.050	0.0168959
713.128	0.0161841
713.206	0.0152457
713.285	0.0141319
713.363	0.0130069
713.441	0.0122413
713.519	0.0114781
713.597	0.0106619
713.675	0.0103428
713.753	0.0103693
713.831	0.0104071
713.910	0.0109855
713.988	0.0114529
714.066	0.0121093
714.144	0.0129000
714.222	0.0137110
714.300	0.0144508
714.378	0.0149336
714.456	0.0154603
714.535	0.0161009
714.613	0.0165829
714.691	0.0168573
714.769	0.0170128
714.847	0.0170158
714.925	0.0168870
715.003	0.0165537
715.081	0.0159853
715.160	0.0152450
715.238	0.0145468
715.316	0.0140040
715.394	0.0132633
715.472	0.0128207
715.550	0.0126286
715.628	0.0123653
715.706	0.0122273
715.785	0.0122949
715.863	0.0124496
715.941	0.0126598
716.019	0.0130131
716.097	0.0134261
716.175	0.0137823
716.253	0.0139930
716.331	0.0146198
716.410	0.0150633
716.488	0.0154637
716.566	0.0158892
716.644	0.0162528
716.722	0.0166016
716.800	0.0167971
716.878	0.0166179
716.956	0.0164130
717.035	0.0159832
717.113	0.0154796
717.191	0.0150865
717.269	0.0146326
717.347	0.0141666
717.425	0.0137949
717.503	0.0134238
717.581	0.0132178
717.660	0.0129211
717.738	0.0125946
717.816	0.0123487
717.894	0.0119921
717.972	0.0116290
718.050	0.0113271
718.128	0.0111463
718.206	0.0107973
718.285	0.0109762
718.363	0.0109568
718.441	0.0112747
718.519	0.0117915
718.597	0.0120270
718.675	0.0124756
718.753	0.0126933
718.831	0.0130415
718.910	0.0131973
718.988	0.0133884
719.066	0.0135380
719.144	0.0139441
719.222	0.0142468
719.300	0.0146561
719.378	0.0151096
719.456	0.0154971
719.535	0.0157631
719.613	0.0161581
719.691	0.0163705
719.769	0.0163761
719.847	0.0162472
719.925	0.0159050
720.003	0.0155523
720.081	0.0154755
720.160	0.0152509
720.238	0.0151623
720.316	0.0151751
720.394	0.0151825
720.472	0.0151846
720.550	0.0152728
720.628	0.0154420
720.706	0.0152247
720.785	0.0151166
720.863	0.0149903
720.941	0.0150262
721.019	0.0147662
721.097	0.0147527
721.175	0.0146593
721.253	0.0144073
721.331	0.0141146
721.410	0.0137403
721.488	0.0133022
721.566	0.0127753
721.644	0.0124881
721.722	0.0120522
721.800	0.0117653
721.878	0.0113434
721.956	0.0110249
722.035	0.0112167
722.113	0.0112198
722.191	0.0112714
722.269	0.0114191
722.347	0.0117992
722.425	0.0119171
722.503	0.0122150
722.581	0.0126665
722.660	0.0130061
722.738	0.0132964
722.816	0.0136075
722.894	0.0141581
722.972	0.0147620
723.050	0.0151659
723.128	0.0155260
723.206	0.0157905
723.285	0.0158395
723.363	0.0159161
723.441	0.0159304
723.519	0.0158230
723.597	0.0156630
723.675	0.0155034
723.753	0.0155631
723.831	0.0156789
723.910	0.0155061
723.988	0.0156570
724.066	0.0154800
724.144	0.0151824
724.222	0.0149969
724.300	0.0148047
724.378	0.0147803
724.456	0.0147254
724.535	0.0146638
724.613	0.0145586
724.691	0.0143810
724.769	0.0141638
724.847	0.0138692
724.925	0.0135928
725.003	0.0131510
725.081	0.0127747
725.160	0.0124744
725.238	0.0121725
725.316	0.0120412
725.394	0.0121009
725.472	0.0122719
725.550	0.0126672
725.628	0.0131304
725.706	0.0137310
725.785	0.0140108
725.863	0.0146127
725.941	0.0148190
726.019	0.0151553
726.097	0.0153344
726.175	0.0153865
726.253	0.0154110
726.331	0.0156052
726.410	0.0156207
726.488	0.0155862
726.566	0.0156213
726.644	0.0155799
726.722	0.0155016
726.800	0.0151517
726.878	0.0150233
726.956	0.0147675
727.035	0.0143402
727.113	0.0141130
727.191	0.0138316
727.269	0.0134322
727.347	0.0134098
727.425	0.0134132
727.503	0.0131412
727.581	0.0130339
727.660	0.0131611
727.738	0.0132011
727.816	0.0131580
727.894	0.0133295
727.972	0.0136105
728.050	0.0137486
728.128	0.0140979
728.206	0.0143850
728.285	0.0146060
728.363	0.0145238
728.441	0.0146579
728.519	0.0147153
728.597	0.0144169
728.675	0.0143067
728.753	0.0139727
728.831	0.0134728
728.910	0.0133046
728.988	0.0127804
729.066	0.0123914
729.144	0.0120132
729.222	0.0117183
729.300	0.0116969
729.378	0.0117251
729.456	0.0117916
729.535	0.0121553
729.613	0.0124638
729.691	0.0128072
729.769	0.0132601
729.847	0.0137976
729.925	0.0143082
730.003	0.0147121
730.081	0.0147854
730.160	0.0149358
730.238	0.0150652
730.316	0.0150133
730.394	0.0148044
730.472	0.0145937
730.550	0.0143977
730.628	0.0142960
730.706	0.0140942
730.785	0.0140803
730.863	0.0142139
730.941	0.0145977
731.019	0.0144154
731.097	0.0147576
731.175	0.0149571
731.253	0.0152049
731.331	0.0155301
731.410	0.0155946
731.488	0.0158070
731.566	0.0160171
731.644	0.0161668
731.722	0.0161117
731.800	0.0161074
731.878	0.0158064
731.956	0.0157458
732.035	0.0154610
732.113	0.0151732
732.191	0.0149904
732.269	0.0147681
732.347	0.0145171
732.425	0.0142689
732.503	0.0138128
732.581	0.0133372
732.660	0.0132984
732.738	0.0128969
732.816	0.0125355
732.894	0.0122761
732.972	0.0119735
733.050	0.0119465
733.128	0.0120244
733.206	0.0121339
733.285	0.0122752
733.363	0.0127087
733.441	0.0129322
733.519	0.0132240
733.597	0.0135317
733.675	0.0137354
733.753	0.0142313
733.831	0.0145509
733.910	0.0146751
733.988	0.0146412
734.066	0.0146259
734.144	0.0143314
734.222	0.0141151
734.300	0.0138638
734.378	0.0136139
734.456	0.0132909
734.535	0.0130492
734.613	0.0129409
734.691	0.0128614
734.769	0.0129685
734.847	0.0130542
734.925	0.0132678
735.003	0.0135047
735.081	0.0137471
735.160	0.0140440
735.238	0.0142654
735.316	0.0144136
735.394	0.0144756
735.472	0.0145391
735.550	0.0145825
735.628	0.0145865
735.706	0.0145622
735.785	0.0145834
735.863	0.0147673
735.941	0.0147475
736.019	0.0147133
736.097	0.0145827
736.175	0.0145856
736.253	0.0147034
736.331	0.0145674
736.410	0.0146281
736.488	0.0145982
736.566	0.0146737
736.644	0.0148066
736.722	0.0148060
736.800	0.0148637
736.878	0.0149711
736.956	0.0148603
737.035	0.0147363
737.113	0.0144997
737.191	0.0143427
737.269	0.0141761
737.347	0.0139522
737.425	0.0138985
737.503	0.0138065
737.581	0.0138268
737.660	0.0140204
737.738	0.0140092
737.816	0.0139526
737.894	0.0139846
737.972	0.0138777
738.050	0.0140444
738.128	0.0138383
738.206	0.0141042
738.285	0.0140637
738.363	0.0139069
738.441	0.0140404
738.519	0.0141424
738.597	0.0142767
738.675	0.0143544
738.753	0.0144014
738.831	0.0145001
738.910	0.0144897
738.988	0.0145487
739.066	0.0143806
739.144	0.0145451
739.222	0.0142913
739.300	0.0142827
739.378	0.0140239
739.456	0.0140875
739.535	0.0138707
739.613	0.0136952
739.691	0.0133759
739.769	0.0134080
739.847	0.0132887
739.925	0.0134079
740.003	0.0134409
740.081	0.0135273
740.160	0.0138231
740.238	0.0139684
740.316	0.0141147
740.394	0.0143906
740.472	0.0145259
740.550	0.0147845
740.628	0.0147029
740.706	0.0144622
740.785	0.0142390
740.863	0.0139684
740.941	0.0136659
741.019	0.0133785
741.097	0.0132202
741.175	0.0128822
741.253	0.0126121
741.331	0.0124438
741.410	0.0124081
741.488	0.0124457
741.566	0.0126263
741.644	0.0127464
741.722	0.0131683
741.800	0.0134437
741.878	0.0136375
741.956	0.0140873
742.035	0.0142228
742.113	0.0144961
742.191	0.0146481
742.269	0.0149764
742.347	0.0150446
742.425	0.0149166
742.503	0.0147995
742.581	0.0146192
742.660	0.0147285
742.738	0.0144721
742.816	0.0142660
742.894	0.0143973
742.972	0.0142442
743.050	0.0141544
743.128	0.0142544
743.206	0.0143673
743.285	0.0143072
743.363	0.0143690
743.441	0.0144789
743.519	0.0143784
743.597	0.0144670
743.675	0.0143373
743.753	0.0144804
743.831	0.0145565
743.910	0.0145538
743.988	0.0145844
744.066	0.0145687
744.144	0.0146405
744.222	0.0145564
744.300	0.0146105
744.378	0.0145242
744.456	0.0145350
744.535	0.0145580
744.613	0.0144624
744.691	0.0143053
744.769	0.0143456
744.847	0.0143468
744.925	0.0142368
745.003	0.0139185
745.081	0.0138837
745.160	0.0139484
745.238	0.0137026
745.316	0.0136171
745.394	0.0135580
745.472	0.0133215
745.550	0.0136366
745.628	0.0135136
