05/03/2022	20:09:46	Ver.	4.1	UNKNOWN
Optical Delay	660.003261	Delta X		0.078125	Sweeps	1	Scan Rate	0/0
Coordinates	Axis 1	NaN	Axis 2	NaN	Axis 3	NaN	Axis 4	NaN	Axis 5	NaN	Axis 6	0.000000
TX Power	0.000000	RX Power	0.000000

660.003	0.0144704
660.081	0.0145188
660.160	0.0143949
660.238	0.0143942
660.316	0.0143824
660.394	0.0145511
660.472	0.0145782
660.550	0.0144073
660.628	0.0143717
660.706	0.0145490
660.785	0.0144417
660.863	0.0144434
660.941	0.0145270
661.019	0.0144516
661.097	0.0143977
661.175	0.0144498
661.253	0.0144679
661.331	0.0145037
661.410	0.0144524
661.488	0.0144233
661.566	0.0144529
661.644	0.0144292
661.722	0.0146062
661.800	0.0146438
661.878	0.0143769
661.956	0.0144157
662.035	0.0143966
662.113	0.0143795
662.191	0.0145985
662.269	0.0145528
662.347	0.0144743
662.425	0.0144765
662.503	0.0143784
662.581	0.0145192
662.660	0.0144314
662.738	0.0142795
662.816	0.0144450
662.894	0.0146239
662.972	0.0144239
663.050	0.0144941
663.128	0.0143995
663.206	0.0144304
663.285	0.0146696
663.363	0.0144382
663.441	0.0145180
663.519	0.0145440
663.597	0.0144720
663.675	0.0146032
663.753	0.0145061
663.831	0.0143565
663.910	0.0144954
663.988	0.0143946
664.066	0.0144406
664.144	0.0146256
664.222	0.0145841
664.300	0.0144510
664.378	0.0145071
664.456	0.0146045
664.535	0.0144795
664.613	0.0144650
664.691	0.0145045
664.769	0.0145231
664.847	0.0144295
664.925	0.0145635
665.003	0.0143718
665.081	0.0144907
665.160	0.0145179
665.238	0.0146171
665.316	0.0144991
665.394	0.0145603
665.472	0.0144836
665.550	0.0143871
665.628	0.0146367
665.706	0.0145625
665.785	0.0145086
665.863	0.0144312
665.941	0.0144875
666.019	0.0144814
666.097	0.0146085
666.175	0.0145159
666.253	0.0144767
666.331	0.0145512
666.410	0.0144386
666.488	0.0145039
666.566	0.0144134
666.644	0.0143939
666.722	0.0144681
666.800	0.0144761
666.878	0.0144508
666.956	0.0145821
667.035	0.0146214
667.113	0.0146169
667.191	0.0144942
667.269	0.0143851
667.347	0.0145130
667.425	0.0144650
667.503	0.0144880
667.581	0.0143417
667.660	0.0145839
667.738	0.0145933
667.816	0.0145288
667.894	0.0145013
667.972	0.0145156
668.050	0.0144924
668.128	0.0144477
668.206	0.0143964
668.285	0.0145181
668.363	0.0146014
668.441	0.0144947
668.519	0.0145784
668.597	0.0145161
668.675	0.0145288
668.753	0.0144946
668.831	0.0145736
668.910	0.0145796
668.988	0.0144910
669.066	0.0145190
669.144	0.0146384
669.222	0.0145605
669.300	0.0144632
669.378	0.0145277
669.456	0.0144678
669.535	0.0144326
669.613	0.0145815
669.691	0.0145226
669.769	0.0143515
669.847	0.0145027
669.925	0.0145415
670.003	0.0145994
670.081	0.0144789
670.160	0.0144958
670.238	0.0145715
670.316	0.0145290
670.394	0.0144843
670.472	0.0145702
670.550	0.0145927
670.628	0.0145000
670.706	0.0144315
670.785	0.0144220
670.863	0.0145918
670.941	0.0145277
671.019	0.0143583
671.097	0.0144757
671.175	0.0144597
671.253	0.0144791
671.331	0.0144775
671.410	0.0145550
671.488	0.0144749
671.566	0.0144891
671.644	0.0145185
671.722	0.0145518
671.800	0.0145132
671.878	0.0146558
671.956	0.0145538
672.035	0.0143270
672.113	0.0145474
672.191	0.0143929
672.269	0.0144298
672.347	0.0146175
672.425	0.0145582
672.503	0.0145879
672.581	0.0145045
672.660	0.0145783
672.738	0.0144495
672.816	0.0144751
672.894	0.0144975
672.972	0.0144769
673.050	0.0144429
673.128	0.0144585
673.206	0.0143661
673.285	0.0145654
673.363	0.0145393
673.441	0.0145171
673.519	0.0145785
673.597	0.0144894
673.675	0.0145102
673.753	0.0144597
673.831	0.0145031
673.910	0.0145445
673.988	0.0145369
674.066	0.0144779
674.144	0.0145226
674.222	0.0144930
674.300	0.0143150
674.378	0.0144656
674.456	0.0144745
674.535	0.0145082
674.613	0.0144735
674.691	0.0144081
674.769	0.0145081
674.847	0.0143748
674.925	0.0145092
675.003	0.0145213
675.081	0.0144315
675.160	0.0146389
675.238	0.0145348
675.316	0.0145071
675.394	0.0145148
675.472	0.0144331
675.550	0.0145046
675.628	0.0145024
675.706	0.0143963
675.785	0.0144370
675.863	0.0144928
675.941	0.0145216
676.019	0.0144594
676.097	0.0144651
676.175	0.0144864
676.253	0.0145766
676.331	0.0145185
676.410	0.0145621
676.488	0.0146019
676.566	0.0145018
676.644	0.0145547
676.722	0.0144797
676.800	0.0145271
676.878	0.0145313
676.956	0.0144645
677.035	0.0145016
677.113	0.0143539
677.191	0.0143939
677.269	0.0145782
677.347	0.0144223
677.425	0.0144389
677.503	0.0145063
677.581	0.0144997
677.660	0.0146026
677.738	0.0144880
677.816	0.0144946
677.894	0.0145397
677.972	0.0147036
678.050	0.0145060
678.128	0.0145215
678.206	0.0144859
678.285	0.0145424
678.363	0.0145537
678.441	0.0143465
678.519	0.0145279
678.597	0.0145550
678.675	0.0145031
678.753	0.0145023
678.831	0.0145708
678.910	0.0145429
678.988	0.0144621
679.066	0.0143842
679.144	0.0145124
679.222	0.0146012
679.300	0.0145644
679.378	0.0144981
679.456	0.0144421
679.535	0.0144863
679.613	0.0144853
679.691	0.0144003
679.769	0.0143778
679.847	0.0145319
679.925	0.0144344
680.003	0.0145148
680.081	0.0144793
680.160	0.0145642
680.238	0.0144102
680.316	0.0144718
680.394	0.0143913
680.472	0.0144417
680.550	0.0144006
680.628	0.0143759
680.706	0.0145350
680.785	0.0144555
680.863	0.0143633
680.941	0.0143823
681.019	0.0145417
681.097	0.0144328
681.175	0.0145927
681.253	0.0144767
681.331	0.0145950
681.410	0.0145747
681.488	0.0143907
681.566	0.0144659
681.644	0.0145007
681.722	0.0145283
681.800	0.0142703
681.878	0.0144221
681.956	0.0145690
682.035	0.0144798
682.113	0.0144498
682.191	0.0144073
682.269	0.0145450
682.347	0.0144843
682.425	0.0145013
682.503	0.0143848
682.581	0.0144836
682.660	0.0143840
682.738	0.0144289
682.816	0.0144179
682.894	0.0144808
682.972	0.0144720
683.050	0.0144710
683.128	0.0145207
683.206	0.0144274
683.285	0.0145846
683.363	0.0145782
683.441	0.0146224
683.519	0.0144648
683.597	0.0144437
683.675	0.0145121
683.753	0.0144983
683.831	0.0144624
683.910	0.0145733
683.988	0.0145531
684.066	0.0142979
684.144	0.0144120
684.222	0.0144575
684.300	0.0144572
684.378	0.0143771
684.456	0.0144917
684.535	0.0144966
684.613	0.0145358
684.691	0.0145114
684.769	0.0145016
684.847	0.0145291
684.925	0.0143235
685.003	0.0144396
685.081	0.0144447
685.160	0.0145432
685.238	0.0143600
685.316	0.0143839
685.394	0.0145869
685.472	0.0145210
685.550	0.0145009
685.628	0.0143673
685.706	0.0144434
685.785	0.0144042
685.863	0.0144740
685.941	0.0143945
686.019	0.0144504
686.097	0.0143675
686.175	0.0144584
686.253	0.0146465
686.331	0.0146544
686.410	0.0144241
686.488	0.0145714
686.566	0.0144228
686.644	0.0143717
686.722	0.0145194
686.800	0.0144772
686.878	0.0145000
686.956	0.0144855
687.035	0.0143984
687.113	0.0143777
687.191	0.0145425
687.269	0.0143266
687.347	0.0143551
687.425	0.0144584
687.503	0.0145811
687.581	0.0144730
687.660	0.0145697
687.738	0.0145905
687.816	0.0144858
687.894	0.0145388
687.972	0.0144273
688.050	0.0144020
688.128	0.0144521
688.206	0.0147340
688.285	0.0145636
688.363	0.0145442
688.441	0.0144978
688.519	0.0144960
688.597	0.0144200
688.675	0.0145587
688.753	0.0145231
688.831	0.0144445
688.910	0.0145473
688.988	0.0145681
689.066	0.0144332
689.144	0.0145242
689.222	0.0145303
689.300	0.0145494
689.378	0.0144701
689.456	0.0145040
689.535	0.0144028
689.613	0.0144544
689.691	0.0144661
689.769	0.0145348
689.847	0.0145179
689.925	0.0144281
690.003	0.0144897
690.081	0.0145435
690.160	0.0144946
690.238	0.0144333
690.316	0.0145500
690.394	0.0145213
690.472	0.0143575
690.550	0.0143014
690.628	0.0144834
690.706	0.0144014
690.785	0.0144078
690.863	0.0144422
690.941	0.0144525
691.019	0.0146120
691.097	0.0144173
691.175	0.0143909
691.253	0.0145121
691.331	0.0144339
691.410	0.0143909
691.488	0.0144853
691.566	0.0144972
691.644	0.0143707
691.722	0.0145033
691.800	0.0145100
691.878	0.0145309
691.956	0.0143130
692.035	0.0143853
692.113	0.0144799
692.191	0.0145473
692.269	0.0145157
692.347	0.0145559
692.425	0.0144112
692.503	0.0145080
692.581	0.0144915
692.660	0.0144209
692.738	0.0145733
692.816	0.0144767
692.894	0.0145296
692.972	0.0145616
693.050	0.0144051
693.128	0.0142913
693.206	0.0143282
693.285	0.0144039
693.363	0.0143937
693.441	0.0144766
693.519	0.0145535
693.597	0.0143956
693.675	0.0143682
693.753	0.0144720
693.831	0.0143295
693.910	0.0143448
693.988	0.0145450
694.066	0.0145418
694.144	0.0144241
694.222	0.0145525
694.300	0.0144495
694.378	0.0145076
694.456	0.0144344
694.535	0.0145019
694.613	0.0144514
694.691	0.0144184
694.769	0.0144658
694.847	0.0144691
694.925	0.0144110
695.003	0.0144079
695.081	0.0144799
695.160	0.0145203
695.238	0.0144880
695.316	0.0144744
695.394	0.0143920
695.472	0.0143887
695.550	0.0144083
695.628	0.0144987
695.706	0.0143748
695.785	0.0144608
695.863	0.0145248
695.941	0.0144524
696.019	0.0145428
696.097	0.0143352
696.175	0.0145300
696.253	0.0144733
696.331	0.0145068
696.410	0.0144682
696.488	0.0144051
696.566	0.0144106
696.644	0.0144000
696.722	0.0144817
696.800	0.0143433
696.878	0.0144682
696.956	0.0145293
697.035	0.0145091
697.113	0.0145837
697.191	0.0146554
697.269	0.0144901
697.347	0.0145383
697.425	0.0145747
697.503	0.0144561
697.581	0.0144466
697.660	0.0144901
697.738	0.0144369
697.816	0.0145147
697.894	0.0145004
697.972	0.0143497
698.050	0.0145331
698.128	0.0143348
698.206	0.0143370
698.285	0.0144852
698.363	0.0145054
698.441	0.0144144
698.519	0.0144682
698.597	0.0144716
698.675	0.0146500
698.753	0.0145264
698.831	0.0145444
698.910	0.0144997
698.988	0.0144520
699.066	0.0145414
699.144	0.0143919
699.222	0.0143247
699.300	0.0145470
699.378	0.0145161
699.456	0.0144373
699.535	0.0144425
699.613	0.0146163
699.691	0.0145808
699.769	0.0144840
699.847	0.0144237
699.925	0.0145924
700.003	0.0145038
700.081	0.0145856
700.160	0.0144949
700.238	0.0144880
700.316	0.0146246
700.394	0.0144585
700.472	0.0145949
700.550	0.0146416
700.628	0.0145750
700.706	0.0145314
700.785	0.0146618
700.863	0.0146648
700.941	0.0145618
701.019	0.0145351
701.097	0.0145169
701.175	0.0144375
701.253	0.0145370
701.331	0.0144622
701.410	0.0143831
701.488	0.0144637
701.566	0.0144151
701.644	0.0144067
701.722	0.0145013
701.800	0.0144536
701.878	0.0144559
701.956	0.0143651
702.035	0.0144296
702.113	0.0145112
702.191	0.0145105
702.269	0.0145077
702.347	0.0144962
702.425	0.0147337
702.503	0.0145716
702.581	0.0144725
702.660	0.0145444
702.738	0.0146186
702.816	0.0146171
702.894	0.0145465
702.972	0.0146851
703.050	0.0144707
703.128	0.0146323
703.206	0.0146017
703.285	0.0145982
703.363	0.0147267
703.441	0.0146937
703.519	0.0146913
703.597	0.0146426
703.675	0.0147128
703.753	0.0147353
703.831	0.0147068
703.910	0.0148077
703.988	0.0146973
704.066	0.0146117
704.144	0.0148527
704.222	0.0145758
704.300	0.0146185
704.378	0.0147225
704.456	0.0148577
704.535	0.0147840
704.613	0.0146628
704.691	0.0147017
704.769	0.0147028
704.847	0.0147587
704.925	0.0147046
705.003	0.0145887
705.081	0.0146762
705.160	0.0146815
705.238	0.0145097
705.316	0.0145113
705.394	0.0146420
705.472	0.0146819
705.550	0.0145267
705.628	0.0145975
705.706	0.0144882
705.785	0.0144485
705.863	0.0144543
705.941	0.0142720
706.019	0.0143238
706.097	0.0142733
706.175	0.0142435
706.253	0.0143684
706.331	0.0142950
706.410	0.0142329
706.488	0.0140491
706.566	0.0141912
706.644	0.0138123
706.722	0.0131371
706.800	0.0123211
706.878	0.0115280
706.956	0.0107253
707.035	0.0100259
707.113	0.00943993
707.191	0.00981796
707.269	0.0107990
707.347	0.0127800
707.425	0.0153255
707.503	0.0183707
707.581	0.0206631
707.660	0.0219625
707.738	0.0219099
707.816	0.0204307
707.894	0.0173660
707.972	0.0135020
708.050	0.00932182
708.128	0.00543037
708.206	0.00283585
708.285	0.00167030
708.363	0.00242485
708.441	0.00466942
708.519	0.00880836
708.597	0.0139835
708.675	0.0197005
708.753	0.0254612
708.831	0.0302576
708.910	0.0338183
708.988	0.0353827
709.066	0.0351131
709.144	0.0327063
709.222	0.0286149
709.300	0.0229993
709.378	0.0171271
709.456	0.0110113
709.535	0.00547462
709.613	0.00104561
709.691	-0.00190056
709.769	-0.00348747
709.847	-0.00346161
709.925	-0.00188103
710.003	0.000598679
710.081	0.00380905
710.160	0.00761169
710.238	0.0113398
710.316	0.0148843
710.394	0.0179050
710.472	0.0207390
710.550	0.0226067
710.628	0.0240567
710.706	0.0244669
710.785	0.0241261
710.863	0.0231626
710.941	0.0215819
711.019	0.0196295
711.097	0.0175130
711.175	0.0154147
711.253	0.0135726
711.331	0.0122707
711.410	0.0111738
711.488	0.0105164
711.566	0.0101190
711.644	0.0100168
711.722	0.0101070
711.800	0.0103633
711.878	0.0111099
711.956	0.0117647
712.035	0.0125269
712.113	0.0138462
712.191	0.0148981
712.269	0.0161032
712.347	0.0172128
712.425	0.0181525
712.503	0.0188254
712.581	0.0191782
712.660	0.0191355
712.738	0.0189980
712.816	0.0183723
712.894	0.0173199
712.972	0.0159638
713.050	0.0147061
713.128	0.0134462
713.206	0.0123286
713.285	0.0114674
713.363	0.0108713
713.441	0.0103837
713.519	0.0101714
713.597	0.0103129
713.675	0.0106977
713.753	0.0111116
713.831	0.0117315
713.910	0.0122514
713.988	0.0129371
714.066	0.0134978
714.144	0.0141682
714.222	0.0149288
714.300	0.0156631
714.378	0.0163186
714.456	0.0168816
714.535	0.0173595
714.613	0.0176128
714.691	0.0178465
714.769	0.0176373
714.847	0.0172668
714.925	0.0170103
715.003	0.0163911
715.081	0.0156938
715.160	0.0151765
715.238	0.0146130
715.316	0.0142442
715.394	0.0139383
715.472	0.0136949
715.550	0.0135205
715.628	0.0134235
715.706	0.0134326
715.785	0.0133604
715.863	0.0134274
715.941	0.0136409
716.019	0.0140785
716.097	0.0142881
716.175	0.0146702
716.253	0.0149698
716.331	0.0153795
716.410	0.0155844
716.488	0.0158514
716.566	0.0155566
716.644	0.0154581
716.722	0.0150985
716.800	0.0148209
716.878	0.0145582
716.956	0.0143698
717.035	0.0142391
717.113	0.0141383
717.191	0.0141779
717.269	0.0141009
717.347	0.0140444
717.425	0.0137508
717.503	0.0137742
717.581	0.0136014
717.660	0.0132827
717.738	0.0130675
717.816	0.0126467
717.894	0.0123649
717.972	0.0125052
718.050	0.0126031
718.128	0.0125764
718.206	0.0127060
718.285	0.0129544
718.363	0.0130705
718.441	0.0133686
718.519	0.0134776
718.597	0.0136078
718.675	0.0136455
718.753	0.0136680
718.831	0.0139191
718.910	0.0141537
718.988	0.0145000
719.066	0.0147161
719.144	0.0151428
719.222	0.0155445
719.300	0.0157555
719.378	0.0158414
719.456	0.0158952
719.535	0.0157101
719.613	0.0155330
719.691	0.0155446
719.769	0.0153503
719.847	0.0152786
719.925	0.0154478
720.003	0.0153575
720.081	0.0155409
720.160	0.0157890
720.238	0.0159071
720.316	0.0159159
720.394	0.0159377
720.472	0.0159327
720.550	0.0159763
720.628	0.0158899
720.706	0.0159506
720.785	0.0157847
720.863	0.0156246
720.941	0.0154948
721.019	0.0151913
721.097	0.0148779
721.175	0.0143723
721.253	0.0140351
721.331	0.0133522
721.410	0.0126585
721.488	0.0122573
721.566	0.0118331
721.644	0.0117033
721.722	0.0113432
721.800	0.0111039
721.878	0.0111162
721.956	0.0110836
722.035	0.0112772
722.113	0.0114407
722.191	0.0118998
722.269	0.0122901
722.347	0.0127666
722.425	0.0132710
722.503	0.0138988
722.581	0.0143118
722.660	0.0150483
722.738	0.0154588
722.816	0.0157862
722.894	0.0159203
722.972	0.0162026
723.050	0.0161736
723.128	0.0158540
723.206	0.0160838
723.285	0.0160840
723.363	0.0160484
723.441	0.0161432
723.519	0.0161741
723.597	0.0165416
723.675	0.0165399
723.753	0.0164570
723.831	0.0162359
723.910	0.0162989
723.988	0.0162418
724.066	0.0161341
724.144	0.0159937
724.222	0.0159875
724.300	0.0157276
724.378	0.0154272
724.456	0.0151390
724.535	0.0145686
724.613	0.0140228
724.691	0.0133660
724.769	0.0128533
724.847	0.0123051
724.925	0.0119245
725.003	0.0117847
725.081	0.0118870
725.160	0.0121828
725.238	0.0125822
725.316	0.0130373
725.394	0.0137003
725.472	0.0141713
725.550	0.0145733
725.628	0.0150745
725.706	0.0153429
725.785	0.0154726
725.863	0.0157634
725.941	0.0158608
726.019	0.0159072
726.097	0.0159693
726.175	0.0157745
726.253	0.0156839
726.331	0.0156343
726.410	0.0153445
726.488	0.0148207
726.566	0.0145931
726.644	0.0143040
726.722	0.0141386
726.800	0.0137921
726.878	0.0136131
726.956	0.0136457
727.035	0.0135654
727.113	0.0137936
727.191	0.0137720
727.269	0.0139150
727.347	0.0139312
727.425	0.0141207
727.503	0.0143064
727.581	0.0144505
727.660	0.0148122
727.738	0.0151053
727.816	0.0152687
727.894	0.0154795
727.972	0.0154490
728.050	0.0154987
728.128	0.0154890
728.206	0.0154321
728.285	0.0150979
728.363	0.0149160
728.441	0.0146864
728.519	0.0142839
728.597	0.0138531
728.675	0.0136476
728.753	0.0132669
728.831	0.0130529
728.910	0.0127778
728.988	0.0126974
729.066	0.0127039
729.144	0.0126888
729.222	0.0127664
729.300	0.0131529
729.378	0.0135451
729.456	0.0138720
729.535	0.0144347
729.613	0.0145033
729.691	0.0147565
729.769	0.0148888
729.847	0.0148664
729.925	0.0147981
730.003	0.0145754
730.081	0.0143002
730.160	0.0143452
730.238	0.0140728
730.316	0.0139647
730.394	0.0137885
730.472	0.0137287
730.550	0.0137806
730.628	0.0140497
730.706	0.0141721
730.785	0.0146219
730.863	0.0149987
730.941	0.0155834
731.019	0.0159290
731.097	0.0160246
731.175	0.0164135
731.253	0.0166843
731.331	0.0167449
731.410	0.0169743
731.488	0.0168455
731.566	0.0167921
731.644	0.0166924
731.722	0.0164475
731.800	0.0161285
731.878	0.0158780
731.956	0.0153802
732.035	0.0151168
732.113	0.0147329
732.191	0.0143020
732.269	0.0138498
732.347	0.0135123
732.425	0.0131008
732.503	0.0130008
732.581	0.0125709
732.660	0.0123706
732.738	0.0125205
732.816	0.0125521
732.894	0.0127981
732.972	0.0130991
733.050	0.0134868
733.128	0.0136464
733.206	0.0140596
733.285	0.0142054
733.363	0.0145567
733.441	0.0146821
733.519	0.0148856
733.597	0.0147913
733.675	0.0146991
733.753	0.0148457
733.831	0.0144551
733.910	0.0140028
733.988	0.0138264
734.066	0.0136647
734.144	0.0133016
734.222	0.0131339
734.300	0.0131300
734.378	0.0130657
734.456	0.0132366
734.535	0.0134294
734.613	0.0137318
734.691	0.0141006
734.769	0.0142756
734.847	0.0146474
734.925	0.0147948
735.003	0.0149409
735.081	0.0151040
735.160	0.0151532
735.238	0.0152439
735.316	0.0151563
735.394	0.0151585
735.472	0.0151804
735.550	0.0151190
735.628	0.0152827
735.706	0.0151395
735.785	0.0151788
735.863	0.0149107
735.941	0.0148615
736.019	0.0148631
736.097	0.0149471
736.175	0.0148496
736.253	0.0150146
736.331	0.0151138
736.410	0.0151961
736.488	0.0153826
736.566	0.0153522
736.644	0.0152946
736.722	0.0152641
736.800	0.0150226
736.878	0.0148740
736.956	0.0147541
737.035	0.0145547
737.113	0.0144580
737.191	0.0142488
737.269	0.0141273
737.347	0.0140446
737.425	0.0139838
737.503	0.0139318
737.581	0.0138566
737.660	0.0139406
737.738	0.0140671
737.816	0.0138703
737.894	0.0140065
737.972	0.0140774
738.050	0.0141645
738.128	0.0142197
738.206	0.0143562
738.285	0.0145612
738.363	0.0146072
738.441	0.0148990
738.519	0.0150550
738.597	0.0150014
738.675	0.0148920
738.753	0.0150377
738.831	0.0148142
738.910	0.0148418
738.988	0.0147568
739.066	0.0145869
739.144	0.0144214
739.222	0.0142014
739.300	0.0141613
739.378	0.0140928
739.456	0.0138947
739.535	0.0138938
739.613	0.0138898
739.691	0.0139973
739.769	0.0141782
739.847	0.0143978
739.925	0.0145010
740.003	0.0147801
740.081	0.0150066
740.160	0.0152278
740.238	0.0151948
740.316	0.0152663
740.394	0.0151830
740.472	0.0151133
740.550	0.0148927
740.628	0.0145858
740.706	0.0142136
740.785	0.0139168
740.863	0.0136092
740.941	0.0132174
741.019	0.0130730
741.097	0.0131210
741.175	0.0130689
741.253	0.0131073
741.331	0.0132082
741.410	0.0133649
741.488	0.0135779
741.566	0.0138827
741.644	0.0140760
741.722	0.0145068
741.800	0.0145791
741.878	0.0148127
741.956	0.0150294
742.035	0.0151099
742.113	0.0151379
742.191	0.0150423
742.269	0.0150059
742.347	0.0149030
742.425	0.0146974
742.503	0.0146012
742.581	0.0147167
742.660	0.0145859
742.738	0.0144747
742.816	0.0143602
742.894	0.0144489
742.972	0.0144104
743.050	0.0143327
743.128	0.0144692
743.206	0.0144737
743.285	0.0143199
743.363	0.0144148
743.441	0.0144350
743.519	0.0146819
743.597	0.0148381
743.675	0.0148431
743.753	0.0150890
743.831	0.0153804
743.910	0.0150434
743.988	0.0151766
744.066	0.0154061
744.144	0.0154611
744.222	0.0153229
744.300	0.0153323
744.378	0.0151329
744.456	0.0150846
744.535	0.0148682
744.613	0.0146543
744.691	0.0145938
744.769	0.0143752
744.847	0.0140727
744.925	0.0139796
745.003	0.0140694
745.081	0.0138331
745.160	0.0138790
745.238	0.0138110
745.316	0.0139198
745.394	0.0141182
745.472	0.0142591
745.550	0.0143400
745.628	0.0143444
