05/03/2022	19:55:50	Ver.	4.1	UNKNOWN
Optical Delay	660.009933	Delta X		0.078125	Sweeps	1	Scan Rate	0/0
Coordinates	Axis 1	NaN	Axis 2	NaN	Axis 3	NaN	Axis 4	NaN	Axis 5	NaN	Axis 6	0.000000
TX Power	0.000000	RX Power	0.000000

660.010	0.0146535
660.088	0.0147142
660.166	0.0146460
660.244	0.0146709
660.322	0.0146496
660.401	0.0148515
660.479	0.0147250
660.557	0.0146490
660.635	0.0147338
660.713	0.0148405
660.791	0.0146387
660.869	0.0147345
660.947	0.0147534
661.026	0.0145885
661.104	0.0146949
661.182	0.0145959
661.260	0.0147003
661.338	0.0146662
661.416	0.0147038
661.494	0.0146952
661.572	0.0146318
661.651	0.0147220
661.729	0.0147614
661.807	0.0148825
661.885	0.0147124
661.963	0.0147001
662.041	0.0145979
662.119	0.0147338
662.197	0.0145117
662.276	0.0146066
662.354	0.0146566
662.432	0.0147888
662.510	0.0146822
662.588	0.0147002
662.666	0.0147407
662.744	0.0147382
662.822	0.0145740
662.901	0.0147054
662.979	0.0147993
663.057	0.0146813
663.135	0.0145429
663.213	0.0147311
663.291	0.0148495
663.369	0.0146613
663.447	0.0146190
663.526	0.0147423
663.604	0.0146925
663.682	0.0145002
663.760	0.0146410
663.838	0.0148035
663.916	0.0147556
663.994	0.0147946
664.072	0.0145436
664.151	0.0146316
664.229	0.0147365
664.307	0.0147574
664.385	0.0148271
664.463	0.0148075
664.541	0.0146662
664.619	0.0147053
664.697	0.0145920
664.776	0.0146642
664.854	0.0147289
664.932	0.0145963
665.010	0.0147021
665.088	0.0146667
665.166	0.0147755
665.244	0.0147123
665.322	0.0147221
665.401	0.0147163
665.479	0.0146700
665.557	0.0146159
665.635	0.0146322
665.713	0.0146638
665.791	0.0146296
665.869	0.0146613
665.947	0.0147249
666.026	0.0146140
666.104	0.0147696
666.182	0.0147231
666.260	0.0146511
666.338	0.0146561
666.416	0.0147820
666.494	0.0147241
666.572	0.0148224
666.651	0.0147787
666.729	0.0147404
666.807	0.0146098
666.885	0.0147947
666.963	0.0147166
667.041	0.0146873
667.119	0.0147128
667.197	0.0147924
667.276	0.0146629
667.354	0.0147276
667.432	0.0147177
667.510	0.0146721
667.588	0.0146574
667.666	0.0147021
667.744	0.0147533
667.822	0.0145580
667.901	0.0147235
667.979	0.0147023
668.057	0.0146912
668.135	0.0147369
668.213	0.0147738
668.291	0.0146872
668.369	0.0146121
668.447	0.0147192
668.526	0.0146773
668.604	0.0147097
668.682	0.0147796
668.760	0.0148291
668.838	0.0146693
668.916	0.0146027
668.994	0.0146776
669.072	0.0146553
669.151	0.0146534
669.229	0.0147234
669.307	0.0147530
669.385	0.0147025
669.463	0.0147048
669.541	0.0145568
669.619	0.0147076
669.697	0.0147598
669.776	0.0147414
669.854	0.0147296
669.932	0.0146990
670.010	0.0146721
670.088	0.0145592
670.166	0.0147070
670.244	0.0145248
670.322	0.0146152
670.401	0.0147299
670.479	0.0146185
670.557	0.0146772
670.635	0.0147620
670.713	0.0146376
670.791	0.0146900
670.869	0.0147383
670.947	0.0147453
671.026	0.0147174
671.104	0.0147112
671.182	0.0146685
671.260	0.0146330
671.338	0.0147578
671.416	0.0147504
671.494	0.0147031
671.572	0.0146391
671.651	0.0145537
671.729	0.0147379
671.807	0.0147251
671.885	0.0146768
671.963	0.0146710
672.041	0.0147227
672.119	0.0147058
672.197	0.0147213
672.276	0.0146429
672.354	0.0145581
672.432	0.0146914
672.510	0.0146472
672.588	0.0146775
672.666	0.0146605
672.744	0.0147110
672.822	0.0147652
672.901	0.0147178
672.979	0.0147419
673.057	0.0146993
673.135	0.0146587
673.213	0.0147160
673.291	0.0146742
673.369	0.0146542
673.447	0.0145956
673.526	0.0146351
673.604	0.0147900
673.682	0.0147128
673.760	0.0146898
673.838	0.0148201
673.916	0.0147792
673.994	0.0146046
674.072	0.0147173
674.151	0.0146895
674.229	0.0147303
674.307	0.0148217
674.385	0.0147654
674.463	0.0146670
674.541	0.0147116
674.619	0.0146799
674.697	0.0146959
674.776	0.0147157
674.854	0.0147009
674.932	0.0146900
675.010	0.0147469
675.088	0.0147214
675.166	0.0147193
675.244	0.0147416
675.322	0.0148946
675.401	0.0147338
675.479	0.0147879
675.557	0.0146408
675.635	0.0147554
675.713	0.0148059
675.791	0.0147604
675.869	0.0147817
675.947	0.0147888
676.026	0.0147291
676.104	0.0147580
676.182	0.0147923
676.260	0.0147518
676.338	0.0146783
676.416	0.0146361
676.494	0.0147192
676.572	0.0147407
676.651	0.0147229
676.729	0.0147377
676.807	0.0148001
676.885	0.0146455
676.963	0.0145483
677.041	0.0147099
677.119	0.0147620
677.197	0.0146572
677.276	0.0146478
677.354	0.0148257
677.432	0.0147369
677.510	0.0147215
677.588	0.0147821
677.666	0.0146726
677.744	0.0147693
677.822	0.0148105
677.901	0.0146906
677.979	0.0146757
678.057	0.0147155
678.135	0.0147219
678.213	0.0147038
678.291	0.0145879
678.369	0.0147125
678.447	0.0147956
678.526	0.0147004
678.604	0.0146352
678.682	0.0146397
678.760	0.0147940
678.838	0.0146246
678.916	0.0147440
678.994	0.0147003
679.072	0.0147388
679.151	0.0147483
679.229	0.0147319
679.307	0.0148300
679.385	0.0147468
679.463	0.0145661
679.541	0.0146730
679.619	0.0146803
679.697	0.0147820
679.776	0.0147525
679.854	0.0146788
679.932	0.0148238
680.010	0.0146495
680.088	0.0146052
680.166	0.0147362
680.244	0.0148006
680.322	0.0148045
680.401	0.0146339
680.479	0.0145934
680.557	0.0146704
680.635	0.0148092
680.713	0.0147633
680.791	0.0146581
680.869	0.0146878
680.947	0.0146157
681.026	0.0146272
681.104	0.0146077
681.182	0.0146339
681.260	0.0147652
681.338	0.0147373
681.416	0.0146609
681.494	0.0147347
681.572	0.0147868
681.651	0.0146812
681.729	0.0148158
681.807	0.0148199
681.885	0.0145991
681.963	0.0146782
682.041	0.0147359
682.119	0.0146027
682.197	0.0148022
682.276	0.0146327
682.354	0.0148047
682.432	0.0147448
682.510	0.0146328
682.588	0.0146571
682.666	0.0146701
682.744	0.0146333
682.822	0.0146790
682.901	0.0147659
682.979	0.0147789
683.057	0.0146667
683.135	0.0145556
683.213	0.0145960
683.291	0.0148167
683.369	0.0146877
683.447	0.0146311
683.526	0.0146266
683.604	0.0147704
683.682	0.0145875
683.760	0.0146550
683.838	0.0146836
683.916	0.0146777
683.994	0.0148414
684.072	0.0146929
684.151	0.0146645
684.229	0.0148241
684.307	0.0147193
684.385	0.0146949
684.463	0.0146912
684.541	0.0146326
684.619	0.0146329
684.697	0.0146607
684.776	0.0146964
684.854	0.0146484
684.932	0.0147152
685.010	0.0147799
685.088	0.0146596
685.166	0.0145545
685.244	0.0147792
685.322	0.0146809
685.401	0.0146323
685.479	0.0146254
685.557	0.0145742
685.635	0.0146413
685.713	0.0146868
685.791	0.0146208
685.869	0.0146804
685.947	0.0145696
686.026	0.0146984
686.104	0.0147632
686.182	0.0147073
686.260	0.0145937
686.338	0.0147093
686.416	0.0146152
686.494	0.0145488
686.572	0.0147202
686.651	0.0145542
686.729	0.0145624
686.807	0.0146406
686.885	0.0145879
686.963	0.0147586
687.041	0.0147904
687.119	0.0146613
687.197	0.0145916
687.276	0.0146549
687.354	0.0147424
687.432	0.0148032
687.510	0.0146838
687.588	0.0145967
687.666	0.0146317
687.744	0.0147105
687.822	0.0145172
687.901	0.0146950
687.979	0.0147802
688.057	0.0147069
688.135	0.0147134
688.213	0.0146173
688.291	0.0146771
688.369	0.0146076
688.447	0.0147555
688.526	0.0147575
688.604	0.0148246
688.682	0.0146272
688.760	0.0147378
688.838	0.0147508
688.916	0.0145815
688.994	0.0146123
689.072	0.0147192
689.151	0.0147343
689.229	0.0147613
689.307	0.0146543
689.385	0.0146606
689.463	0.0146738
689.541	0.0147099
689.619	0.0147725
689.697	0.0146823
689.776	0.0147373
689.854	0.0146519
689.932	0.0145572
690.010	0.0146915
690.088	0.0148199
690.166	0.0147405
690.244	0.0148093
690.322	0.0148366
690.401	0.0147157
690.479	0.0146959
690.557	0.0147626
690.635	0.0147571
690.713	0.0146201
690.791	0.0146358
690.869	0.0147925
690.947	0.0146084
691.026	0.0146278
691.104	0.0147124
691.182	0.0145670
691.260	0.0146582
691.338	0.0146682
691.416	0.0147032
691.494	0.0147789
691.572	0.0147495
691.651	0.0147389
691.729	0.0146045
691.807	0.0147405
691.885	0.0147803
691.963	0.0146950
692.041	0.0147435
692.119	0.0148235
692.197	0.0147312
692.276	0.0147274
692.354	0.0146445
692.432	0.0147542
692.510	0.0146688
692.588	0.0147748
692.666	0.0147556
692.744	0.0147661
692.822	0.0147876
692.901	0.0146930
692.979	0.0147571
693.057	0.0147216
693.135	0.0146230
693.213	0.0147286
693.291	0.0147717
693.369	0.0147260
693.447	0.0147924
693.526	0.0146982
693.604	0.0146936
693.682	0.0146296
693.760	0.0146459
693.838	0.0148960
693.916	0.0146952
693.994	0.0147142
694.072	0.0146500
694.151	0.0147398
694.229	0.0147086
694.307	0.0146263
694.385	0.0147205
694.463	0.0146529
694.541	0.0148425
694.619	0.0145937
694.697	0.0146545
694.776	0.0147274
694.854	0.0147621
694.932	0.0146593
695.010	0.0147956
695.088	0.0146077
695.166	0.0146671
695.244	0.0147150
695.322	0.0145782
695.401	0.0147443
695.479	0.0147277
695.557	0.0146827
695.635	0.0145894
695.713	0.0147047
695.791	0.0146864
695.869	0.0147099
695.947	0.0146786
696.026	0.0146837
696.104	0.0146056
696.182	0.0146324
696.260	0.0146259
696.338	0.0148238
696.416	0.0147921
696.494	0.0147404
696.572	0.0147137
696.651	0.0146646
696.729	0.0146463
696.807	0.0146832
696.885	0.0147007
696.963	0.0146986
697.041	0.0146766
697.119	0.0146901
697.197	0.0146976
697.276	0.0146459
697.354	0.0147325
697.432	0.0145351
697.510	0.0146052
697.588	0.0146026
697.666	0.0147081
697.744	0.0147105
697.822	0.0146601
697.901	0.0147025
697.979	0.0147054
698.057	0.0146763
698.135	0.0146120
698.213	0.0147351
698.291	0.0147646
698.369	0.0146840
698.447	0.0146869
698.526	0.0147160
698.604	0.0146297
698.682	0.0146684
698.760	0.0147051
698.838	0.0146391
698.916	0.0147124
698.994	0.0147643
699.072	0.0146490
699.151	0.0147919
699.229	0.0147360
699.307	0.0146758
699.385	0.0146501
699.463	0.0146987
699.541	0.0147715
699.619	0.0147655
699.697	0.0148198
699.776	0.0147173
699.854	0.0148764
699.932	0.0148396
700.010	0.0145714
700.088	0.0145929
700.166	0.0147820
700.244	0.0147372
700.322	0.0146835
700.401	0.0146746
700.479	0.0147108
700.557	0.0147484
700.635	0.0146710
700.713	0.0146847
700.791	0.0146799
700.869	0.0146978
700.947	0.0146862
701.026	0.0147087
701.104	0.0146461
701.182	0.0147404
701.260	0.0147074
701.338	0.0147581
701.416	0.0147367
701.494	0.0146617
701.572	0.0147463
701.651	0.0148565
701.729	0.0147176
701.807	0.0147289
701.885	0.0146780
701.963	0.0146875
702.041	0.0147507
702.119	0.0147046
702.197	0.0146717
702.276	0.0147778
702.354	0.0147336
702.432	0.0147308
702.510	0.0146397
702.588	0.0146407
702.666	0.0147962
702.744	0.0148849
702.822	0.0146750
702.901	0.0145563
702.979	0.0146383
703.057	0.0146308
703.135	0.0146643
703.213	0.0146960
703.291	0.0145856
703.369	0.0146865
703.447	0.0147762
703.526	0.0147661
703.604	0.0147524
703.682	0.0145837
703.760	0.0146619
703.838	0.0146245
703.916	0.0146735
703.994	0.0147737
704.072	0.0147000
704.151	0.0146933
704.229	0.0145754
704.307	0.0145632
704.385	0.0147011
704.463	0.0147550
704.541	0.0147477
704.619	0.0147318
704.697	0.0148497
704.776	0.0148495
704.854	0.0147017
704.932	0.0147577
705.010	0.0147689
705.088	0.0147480
705.166	0.0146536
705.244	0.0146564
705.322	0.0146898
705.401	0.0146653
705.479	0.0146799
705.557	0.0146619
705.635	0.0146186
705.713	0.0147673
705.791	0.0147113
705.869	0.0146999
705.947	0.0147757
706.026	0.0148180
706.104	0.0148298
706.182	0.0145825
706.260	0.0147363
706.338	0.0148405
706.416	0.0147849
706.494	0.0148433
706.572	0.0148182
706.651	0.0147218
706.729	0.0147744
706.807	0.0149512
706.885	0.0147474
706.963	0.0146208
707.041	0.0146452
707.119	0.0145158
707.197	0.0146383
707.276	0.0146384
707.354	0.0146334
707.432	0.0145678
707.510	0.0145132
707.588	0.0146748
707.666	0.0146853
707.744	0.0146998
707.822	0.0146002
707.901	0.0147129
707.979	0.0146928
708.057	0.0146434
708.135	0.0147806
708.213	0.0146815
708.291	0.0148728
708.369	0.0147726
708.447	0.0147222
708.526	0.0146564
708.604	0.0146540
708.682	0.0146542
708.760	0.0145773
708.838	0.0144078
708.916	0.0144249
708.994	0.0143433
709.072	0.0142854
709.151	0.0143871
709.229	0.0143555
709.307	0.0144527
709.385	0.0144727
709.463	0.0146291
709.541	0.0146801
709.619	0.0148222
709.697	0.0150439
709.776	0.0150039
709.854	0.0150479
709.932	0.0150271
710.010	0.0149510
710.088	0.0147938
710.166	0.0146361
710.244	0.0145267
710.322	0.0142668
710.401	0.0143021
710.479	0.0140873
710.557	0.0140268
710.635	0.0138245
710.713	0.0139566
710.791	0.0139803
710.869	0.0141120
710.947	0.0142339
711.026	0.0143674
711.104	0.0144996
711.182	0.0148160
711.260	0.0151001
711.338	0.0152270
711.416	0.0152497
711.494	0.0153209
711.572	0.0154739
711.651	0.0153918
711.729	0.0153510
711.807	0.0153573
711.885	0.0153606
711.963	0.0151311
712.041	0.0149384
712.119	0.0148983
712.197	0.0147661
712.276	0.0147075
712.354	0.0147810
712.432	0.0146603
712.510	0.0144259
712.588	0.0143962
712.666	0.0144458
712.744	0.0144371
712.822	0.0144641
712.901	0.0145576
712.979	0.0144520
713.057	0.0145430
713.135	0.0145451
713.213	0.0145068
713.291	0.0145560
713.369	0.0147211
713.447	0.0147951
713.526	0.0148756
713.604	0.0150999
713.682	0.0152660
713.760	0.0152835
713.838	0.0153020
713.916	0.0154263
713.994	0.0152734
714.072	0.0153693
714.151	0.0152852
714.229	0.0151989
714.307	0.0151782
714.385	0.0149627
714.463	0.0147474
714.541	0.0146111
714.619	0.0145367
714.697	0.0142483
714.776	0.0140591
714.854	0.0138577
714.932	0.0136481
715.010	0.0134293
715.088	0.0133060
715.166	0.0132904
715.244	0.0131922
715.322	0.0130318
715.401	0.0132578
715.479	0.0133935
715.557	0.0135592
715.635	0.0137617
715.713	0.0140225
715.791	0.0142433
715.869	0.0145885
715.947	0.0149232
716.026	0.0151025
716.104	0.0152985
716.182	0.0155584
716.260	0.0157868
716.338	0.0159693
716.416	0.0159638
716.494	0.0159962
716.572	0.0161273
716.651	0.0162185
716.729	0.0161734
716.807	0.0159454
716.885	0.0158895
716.963	0.0158905
717.041	0.0158278
717.119	0.0155814
717.197	0.0153922
717.276	0.0151418
717.354	0.0150123
717.432	0.0147356
717.510	0.0145827
717.588	0.0144186
717.666	0.0141697
717.744	0.0140679
717.822	0.0139381
717.901	0.0136282
717.979	0.0135912
718.057	0.0135365
718.135	0.0136118
718.213	0.0134711
718.291	0.0134528
718.369	0.0134074
718.447	0.0134914
718.526	0.0135867
718.604	0.0136819
718.682	0.0140100
718.760	0.0139285
718.838	0.0141086
718.916	0.0142707
718.994	0.0145795
719.072	0.0146017
719.151	0.0147399
719.229	0.0149630
719.307	0.0152046
719.385	0.0154085
719.463	0.0154996
719.541	0.0155193
719.619	0.0156667
719.697	0.0157521
719.776	0.0157415
719.854	0.0159313
719.932	0.0159456
720.010	0.0158472
720.088	0.0156130
720.166	0.0156765
720.244	0.0154816
720.322	0.0154030
720.401	0.0153904
720.479	0.0150715
720.557	0.0149899
720.635	0.0148170
720.713	0.0145604
720.791	0.0146883
720.869	0.0146877
720.947	0.0144042
721.026	0.0143613
721.104	0.0143288
721.182	0.0142391
721.260	0.0141019
721.338	0.0141041
721.416	0.0140056
721.494	0.0139739
721.572	0.0139638
721.651	0.0138226
721.729	0.0137773
721.807	0.0137268
721.885	0.0137033
721.963	0.0137461
722.041	0.0135970
722.119	0.0136100
722.197	0.0137252
722.276	0.0137406
722.354	0.0138521
722.432	0.0137578
722.510	0.0138399
722.588	0.0140224
722.666	0.0140549
722.744	0.0141380
722.822	0.0143491
722.901	0.0145709
722.979	0.0146202
723.057	0.0148308
723.135	0.0148999
723.213	0.0150263
723.291	0.0153151
723.369	0.0153770
723.447	0.0153848
723.526	0.0154887
723.604	0.0155422
723.682	0.0155070
723.760	0.0156400
723.838	0.0157762
723.916	0.0156872
723.994	0.0155395
724.072	0.0156763
724.151	0.0155650
724.229	0.0155762
724.307	0.0155538
724.385	0.0154305
724.463	0.0155132
724.541	0.0154765
724.619	0.0154672
724.697	0.0154971
724.776	0.0154485
724.854	0.0152946
724.932	0.0153294
725.010	0.0151449
725.088	0.0151471
725.166	0.0148667
725.244	0.0147915
725.322	0.0146406
725.401	0.0145745
725.479	0.0144020
725.557	0.0144193
725.635	0.0142560
725.713	0.0142583
725.791	0.0141322
725.869	0.0139616
725.947	0.0138992
726.026	0.0137634
726.104	0.0137195
726.182	0.0137915
726.260	0.0137502
726.338	0.0136575
726.416	0.0137072
726.494	0.0136407
726.572	0.0134904
726.651	0.0136897
726.729	0.0137341
726.807	0.0136289
726.885	0.0137588
726.963	0.0138283
727.041	0.0139558
727.119	0.0139700
727.197	0.0140630
727.276	0.0141539
727.354	0.0141792
727.432	0.0143287
727.510	0.0144837
727.588	0.0147083
727.666	0.0147210
727.744	0.0147482
727.822	0.0149744
727.901	0.0151158
727.979	0.0151684
728.057	0.0153042
728.135	0.0154368
728.213	0.0154800
728.291	0.0157650
728.369	0.0157704
728.447	0.0156929
728.526	0.0159008
728.604	0.0158438
728.682	0.0158729
728.760	0.0157691
728.838	0.0157673
728.916	0.0156632
728.994	0.0157587
729.072	0.0156318
729.151	0.0156269
729.229	0.0153612
729.307	0.0154008
729.385	0.0154676
729.463	0.0152599
729.541	0.0151910
729.619	0.0151545
729.697	0.0150897
729.776	0.0149078
729.854	0.0148791
729.932	0.0147336
730.010	0.0146119
730.088	0.0146171
730.166	0.0143978
730.244	0.0144801
730.322	0.0142779
730.401	0.0144360
730.479	0.0144029
730.557	0.0143174
730.635	0.0140524
730.713	0.0142559
730.791	0.0139442
730.869	0.0139587
730.947	0.0138924
731.026	0.0137860
731.104	0.0138278
731.182	0.0137005
731.260	0.0137109
731.338	0.0136861
731.416	0.0137469
731.494	0.0137026
731.572	0.0137669
731.651	0.0137752
731.729	0.0136642
731.807	0.0139088
731.885	0.0140121
731.963	0.0139468
732.041	0.0139181
732.119	0.0140820
732.197	0.0141118
732.276	0.0142403
732.354	0.0142511
732.432	0.0143235
732.510	0.0144579
732.588	0.0144920
732.666	0.0144299
732.744	0.0146112
732.822	0.0145652
732.901	0.0146937
732.979	0.0146943
733.057	0.0146463
733.135	0.0147989
733.213	0.0148759
733.291	0.0149448
733.369	0.0149226
733.447	0.0150877
733.526	0.0150780
733.604	0.0152516
733.682	0.0153495
733.760	0.0154037
733.838	0.0153237
733.916	0.0154289
733.994	0.0156407
734.072	0.0155492
734.151	0.0159971
734.229	0.0159422
734.307	0.0156522
734.385	0.0157323
734.463	0.0155875
734.541	0.0157608
734.619	0.0156738
734.697	0.0154711
734.776	0.0156734
734.854	0.0154302
734.932	0.0154636
735.010	0.0154144
735.088	0.0152063
735.166	0.0151166
735.244	0.0151498
735.322	0.0151980
735.401	0.0151096
735.479	0.0147253
735.557	0.0148037
735.635	0.0148896
735.713	0.0147579
735.791	0.0147005
735.869	0.0146699
735.947	0.0145351
736.026	0.0144617
736.104	0.0144682
736.182	0.0143525
736.260	0.0142715
736.338	0.0142509
736.416	0.0141711
736.494	0.0140975
736.572	0.0139957
736.651	0.0139989
736.729	0.0140198
736.807	0.0139771
736.885	0.0139740
736.963	0.0138291
737.041	0.0139632
737.119	0.0140363
737.197	0.0139283
737.276	0.0138416
737.354	0.0139299
737.432	0.0140424
737.510	0.0139804
737.588	0.0138411
737.666	0.0141324
737.744	0.0140871
737.822	0.0140516
737.901	0.0141757
737.979	0.0142375
738.057	0.0141833
738.135	0.0143059
738.213	0.0142538
738.291	0.0144816
738.369	0.0145237
738.447	0.0145926
738.526	0.0146796
738.604	0.0148273
738.682	0.0148787
738.760	0.0150172
738.838	0.0150093
738.916	0.0150029
738.994	0.0151564
739.072	0.0152825
739.151	0.0151745
739.229	0.0152323
739.307	0.0153285
739.385	0.0154646
739.463	0.0153835
739.541	0.0154353
739.619	0.0154617
739.697	0.0153979
739.776	0.0152932
739.854	0.0154441
739.932	0.0154414
740.010	0.0154421
740.088	0.0153671
740.166	0.0153093
740.244	0.0152941
740.322	0.0152963
740.401	0.0151476
740.479	0.0151613
740.557	0.0151958
740.635	0.0151583
740.713	0.0151165
740.791	0.0152442
740.869	0.0149750
740.947	0.0148277
741.026	0.0149209
741.104	0.0149577
741.182	0.0148430
741.260	0.0147890
741.338	0.0147495
741.416	0.0146572
741.494	0.0146132
741.572	0.0147514
741.651	0.0145419
741.729	0.0146954
741.807	0.0147489
741.885	0.0145764
741.963	0.0144479
742.041	0.0145538
742.119	0.0144405
742.197	0.0145583
742.276	0.0144022
742.354	0.0144363
742.432	0.0144410
742.510	0.0144395
742.588	0.0143676
742.666	0.0141596
742.744	0.0140233
742.822	0.0142290
742.901	0.0140623
742.979	0.0140555
743.057	0.0140855
743.135	0.0139677
743.213	0.0140061
743.291	0.0141361
743.369	0.0139974
743.447	0.0141698
743.526	0.0140965
743.604	0.0140560
743.682	0.0141631
743.760	0.0141975
743.838	0.0143480
743.916	0.0142347
743.994	0.0142577
744.072	0.0142687
744.151	0.0144736
744.229	0.0143517
744.307	0.0145366
744.385	0.0144299
744.463	0.0144656
744.541	0.0145596
744.619	0.0144033
744.697	0.0146252
744.776	0.0146785
744.854	0.0145847
744.932	0.0146799
745.010	0.0147872
745.088	0.0146576
745.166	0.0146997
745.244	0.0148188
745.322	0.0149099
745.401	0.0149604
745.479	0.0148589
745.557	0.0148558
745.635	0.0149871
745.713	0.0150453
