05/03/2022	20:14:01	Ver.	4.1	UNKNOWN
Optical Delay	660.003261	Delta X		0.078125	Sweeps	1	Scan Rate	0/0
Coordinates	Axis 1	NaN	Axis 2	NaN	Axis 3	NaN	Axis 4	NaN	Axis 5	NaN	Axis 6	0.000000
TX Power	0.000000	RX Power	0.000000

660.003	0.0146525
660.081	0.0146629
660.160	0.0147147
660.238	0.0147734
660.316	0.0147479
660.394	0.0145644
660.472	0.0145782
660.550	0.0146342
660.628	0.0146303
660.706	0.0145216
660.785	0.0146314
660.863	0.0146522
660.941	0.0146685
661.019	0.0147031
661.097	0.0146176
661.175	0.0146792
661.253	0.0147144
661.331	0.0146489
661.410	0.0144909
661.488	0.0147972
661.566	0.0148091
661.644	0.0146966
661.722	0.0147115
661.800	0.0146245
661.878	0.0147007
661.956	0.0147210
662.035	0.0147153
662.113	0.0145775
662.191	0.0146555
662.269	0.0146844
662.347	0.0148017
662.425	0.0147469
662.503	0.0147691
662.581	0.0147374
662.660	0.0146217
662.738	0.0147613
662.816	0.0146678
662.894	0.0147410
662.972	0.0147659
663.050	0.0146629
663.128	0.0144514
663.206	0.0146358
663.285	0.0146233
663.363	0.0146411
663.441	0.0146564
663.519	0.0146181
663.597	0.0145569
663.675	0.0147165
663.753	0.0146928
663.831	0.0146185
663.910	0.0146617
663.988	0.0147034
664.066	0.0145898
664.144	0.0144811
664.222	0.0146545
664.300	0.0147303
664.378	0.0146787
664.456	0.0146436
664.535	0.0146983
664.613	0.0146495
664.691	0.0146397
664.769	0.0146150
664.847	0.0147348
664.925	0.0146965
665.003	0.0146976
665.081	0.0146954
665.160	0.0145480
665.238	0.0145680
665.316	0.0146762
665.394	0.0145962
665.472	0.0146017
665.550	0.0146512
665.628	0.0146068
665.706	0.0145882
665.785	0.0145605
665.863	0.0145330
665.941	0.0146267
666.019	0.0147508
666.097	0.0146655
666.175	0.0146407
666.253	0.0147265
666.331	0.0146323
666.410	0.0147432
666.488	0.0147393
666.566	0.0146239
666.644	0.0146507
666.722	0.0145018
666.800	0.0147157
666.878	0.0147259
666.956	0.0146972
667.035	0.0145875
667.113	0.0147611
667.191	0.0146886
667.269	0.0147295
667.347	0.0146820
667.425	0.0147195
667.503	0.0146583
667.581	0.0145783
667.660	0.0146268
667.738	0.0146930
667.816	0.0145632
667.894	0.0146898
667.972	0.0145480
668.050	0.0146711
668.128	0.0146532
668.206	0.0145631
668.285	0.0146585
668.363	0.0145879
668.441	0.0148274
668.519	0.0146534
668.597	0.0146394
668.675	0.0145865
668.753	0.0147581
668.831	0.0148114
668.910	0.0145324
668.988	0.0144902
669.066	0.0147837
669.144	0.0147024
669.222	0.0146153
669.300	0.0145798
669.378	0.0146816
669.456	0.0145603
669.535	0.0147270
669.613	0.0147711
669.691	0.0145470
669.769	0.0146931
669.847	0.0146846
669.925	0.0146074
670.003	0.0146618
670.081	0.0146609
670.160	0.0146002
670.238	0.0145686
670.316	0.0145631
670.394	0.0145966
670.472	0.0148281
670.550	0.0146489
670.628	0.0146710
670.706	0.0147568
670.785	0.0146935
670.863	0.0146220
670.941	0.0146038
671.019	0.0147151
671.097	0.0146725
671.175	0.0145980
671.253	0.0146088
671.331	0.0146666
671.410	0.0146371
671.488	0.0146341
671.566	0.0146764
671.644	0.0145776
671.722	0.0147447
671.800	0.0146340
671.878	0.0146840
671.956	0.0147345
672.035	0.0146336
672.113	0.0145173
672.191	0.0146079
672.269	0.0146069
672.347	0.0147189
672.425	0.0148244
672.503	0.0146767
672.581	0.0146876
672.660	0.0146989
672.738	0.0146777
672.816	0.0146542
672.894	0.0146084
672.972	0.0146774
673.050	0.0148144
673.128	0.0146121
673.206	0.0147083
673.285	0.0146738
673.363	0.0146821
673.441	0.0146210
673.519	0.0147189
673.597	0.0146135
673.675	0.0146385
673.753	0.0146109
673.831	0.0145585
673.910	0.0147047
673.988	0.0146821
674.066	0.0146187
674.144	0.0147156
674.222	0.0145813
674.300	0.0145680
674.378	0.0145806
674.456	0.0147017
674.535	0.0147253
674.613	0.0147061
674.691	0.0146136
674.769	0.0146092
674.847	0.0146654
674.925	0.0147556
675.003	0.0147176
675.081	0.0146378
675.160	0.0145882
675.238	0.0147460
675.316	0.0147497
675.394	0.0147430
675.472	0.0146925
675.550	0.0147040
675.628	0.0148039
675.706	0.0146564
675.785	0.0146740
675.863	0.0145860
675.941	0.0146926
676.019	0.0147594
676.097	0.0146361
676.175	0.0146497
676.253	0.0146499
676.331	0.0147040
676.410	0.0145757
676.488	0.0145864
676.566	0.0147209
676.644	0.0148156
676.722	0.0145554
676.800	0.0146398
676.878	0.0147202
676.956	0.0146044
677.035	0.0146887
677.113	0.0148407
677.191	0.0148489
677.269	0.0146556
677.347	0.0146286
677.425	0.0146572
677.503	0.0145509
677.581	0.0147562
677.660	0.0148186
677.738	0.0147437
677.816	0.0147209
677.894	0.0146800
677.972	0.0146207
678.050	0.0145318
678.128	0.0147677
678.206	0.0146009
678.285	0.0146786
678.363	0.0146172
678.441	0.0146075
678.519	0.0145732
678.597	0.0147060
678.675	0.0147464
678.753	0.0145892
678.831	0.0147117
678.910	0.0146673
678.988	0.0147389
679.066	0.0146853
679.144	0.0146583
679.222	0.0146683
679.300	0.0146024
679.378	0.0145776
679.456	0.0146494
679.535	0.0147079
679.613	0.0145110
679.691	0.0146273
679.769	0.0146018
679.847	0.0147016
679.925	0.0146607
680.003	0.0146697
680.081	0.0146362
680.160	0.0145160
680.238	0.0146803
680.316	0.0146576
680.394	0.0147451
680.472	0.0146549
680.550	0.0146336
680.628	0.0146779
680.706	0.0146912
680.785	0.0147027
680.863	0.0146800
680.941	0.0148421
681.019	0.0145947
681.097	0.0145698
681.175	0.0146556
681.253	0.0146088
681.331	0.0146578
681.410	0.0145650
681.488	0.0145212
681.566	0.0147333
681.644	0.0146745
681.722	0.0146616
681.800	0.0146764
681.878	0.0147463
681.956	0.0146845
682.035	0.0146957
682.113	0.0145731
682.191	0.0146494
682.269	0.0147097
682.347	0.0146962
682.425	0.0146822
682.503	0.0146425
682.581	0.0148058
682.660	0.0146252
682.738	0.0146806
682.816	0.0146292
682.894	0.0145705
682.972	0.0145202
683.050	0.0146745
683.128	0.0147567
683.206	0.0146906
683.285	0.0146420
683.363	0.0146190
683.441	0.0147246
683.519	0.0147658
683.597	0.0146603
683.675	0.0146511
683.753	0.0146928
683.831	0.0146202
683.910	0.0147524
683.988	0.0148382
684.066	0.0147095
684.144	0.0146325
684.222	0.0147874
684.300	0.0146545
684.378	0.0146461
684.456	0.0146748
684.535	0.0147059
684.613	0.0146505
684.691	0.0145092
684.769	0.0146976
684.847	0.0145646
684.925	0.0147500
685.003	0.0147550
685.081	0.0146827
685.160	0.0147422
685.238	0.0145663
685.316	0.0145732
685.394	0.0145888
685.472	0.0146465
685.550	0.0147104
685.628	0.0146390
685.706	0.0146915
685.785	0.0147233
685.863	0.0146249
685.941	0.0146042
686.019	0.0146200
686.097	0.0147063
686.175	0.0146775
686.253	0.0146055
686.331	0.0145504
686.410	0.0147192
686.488	0.0147301
686.566	0.0144385
686.644	0.0146364
686.722	0.0146758
686.800	0.0147266
686.878	0.0146614
686.956	0.0146305
687.035	0.0145976
687.113	0.0146476
687.191	0.0146144
687.269	0.0145840
687.347	0.0146428
687.425	0.0147090
687.503	0.0144514
687.581	0.0145415
687.660	0.0147299
687.738	0.0145766
687.816	0.0145113
687.894	0.0146935
687.972	0.0146660
688.050	0.0146410
688.128	0.0145324
688.206	0.0145248
688.285	0.0146854
688.363	0.0147106
688.441	0.0145145
688.519	0.0146138
688.597	0.0147565
688.675	0.0147612
688.753	0.0146227
688.831	0.0146150
688.910	0.0145824
688.988	0.0146344
689.066	0.0145222
689.144	0.0146925
689.222	0.0146709
689.300	0.0146698
689.378	0.0147326
689.456	0.0145490
689.535	0.0146529
689.613	0.0145293
689.691	0.0147393
689.769	0.0148403
689.847	0.0146284
689.925	0.0147198
690.003	0.0146664
690.081	0.0145507
690.160	0.0146794
690.238	0.0146414
690.316	0.0146564
690.394	0.0147229
690.472	0.0146906
690.550	0.0146391
690.628	0.0145750
690.706	0.0144553
690.785	0.0145840
690.863	0.0146695
690.941	0.0147042
691.019	0.0145798
691.097	0.0145624
691.175	0.0147025
691.253	0.0146909
691.331	0.0146993
691.410	0.0147105
691.488	0.0146538
691.566	0.0145405
691.644	0.0144857
691.722	0.0147001
691.800	0.0145548
691.878	0.0146273
691.956	0.0147642
692.035	0.0146825
692.113	0.0145934
692.191	0.0146529
692.269	0.0147066
692.347	0.0146164
692.425	0.0146381
692.503	0.0146793
692.581	0.0146015
692.660	0.0146660
692.738	0.0146516
692.816	0.0146629
692.894	0.0145448
692.972	0.0145324
693.050	0.0146297
693.128	0.0148727
693.206	0.0146677
693.285	0.0145347
693.363	0.0144785
693.441	0.0145745
693.519	0.0145482
693.597	0.0145233
693.675	0.0146516
693.753	0.0146753
693.831	0.0146233
693.910	0.0146293
693.988	0.0146114
694.066	0.0147028
694.144	0.0146003
694.222	0.0146455
694.300	0.0145263
694.378	0.0146734
694.456	0.0146970
694.535	0.0146373
694.613	0.0147704
694.691	0.0145937
694.769	0.0146219
694.847	0.0147696
694.925	0.0146242
695.003	0.0146372
695.081	0.0146943
695.160	0.0146083
695.238	0.0145755
695.316	0.0146066
695.394	0.0146347
695.472	0.0144928
695.550	0.0145936
695.628	0.0145300
695.706	0.0145518
695.785	0.0146246
695.863	0.0145770
695.941	0.0146704
696.019	0.0146542
696.097	0.0146198
696.175	0.0146696
696.253	0.0147335
696.331	0.0146420
696.410	0.0146296
696.488	0.0147089
696.566	0.0145541
696.644	0.0146336
696.722	0.0146012
696.800	0.0146531
696.878	0.0145244
696.956	0.0147796
697.035	0.0145820
697.113	0.0145256
697.191	0.0146658
697.269	0.0147496
697.347	0.0146923
697.425	0.0145680
697.503	0.0147578
697.581	0.0146302
697.660	0.0146986
697.738	0.0146654
697.816	0.0147060
697.894	0.0146835
697.972	0.0147231
698.050	0.0146554
698.128	0.0145960
698.206	0.0146791
698.285	0.0146138
698.363	0.0147086
698.441	0.0147742
698.519	0.0148317
698.597	0.0146539
698.675	0.0145340
698.753	0.0147112
698.831	0.0146548
698.910	0.0146590
698.988	0.0146676
699.066	0.0146419
699.144	0.0147371
699.222	0.0146353
699.300	0.0145537
699.378	0.0147512
699.456	0.0147232
699.535	0.0146384
699.613	0.0147433
699.691	0.0147344
699.769	0.0147349
699.847	0.0147983
699.925	0.0147023
700.003	0.0146958
700.081	0.0146690
700.160	0.0146919
700.238	0.0146456
700.316	0.0145378
700.394	0.0146669
700.472	0.0145963
700.550	0.0145911
700.628	0.0146220
700.706	0.0145240
700.785	0.0146961
700.863	0.0146046
700.941	0.0144915
701.019	0.0147343
701.097	0.0146371
701.175	0.0146447
701.253	0.0147491
701.331	0.0147445
701.410	0.0146968
701.488	0.0147221
701.566	0.0147919
701.644	0.0148118
701.722	0.0148055
701.800	0.0148872
701.878	0.0148953
701.956	0.0147762
702.035	0.0147219
702.113	0.0148275
702.191	0.0149428
702.269	0.0148416
702.347	0.0147539
702.425	0.0149171
702.503	0.0148065
702.581	0.0148479
702.660	0.0147895
702.738	0.0148383
702.816	0.0148254
702.894	0.0149382
702.972	0.0147737
703.050	0.0147844
703.128	0.0148524
703.206	0.0148376
703.285	0.0147105
703.363	0.0146378
703.441	0.0146185
703.519	0.0145683
703.597	0.0144329
703.675	0.0143441
703.753	0.0142503
703.831	0.0138623
703.910	0.0136186
703.988	0.0136407
704.066	0.0136862
704.144	0.0137550
704.222	0.0141734
704.300	0.0144740
704.378	0.0150518
704.456	0.0155690
704.535	0.0162153
704.613	0.0165141
704.691	0.0164681
704.769	0.0159797
704.847	0.0153188
704.925	0.0143958
705.003	0.0132540
705.081	0.0119193
705.160	0.0106924
705.238	0.00995224
705.316	0.00935829
705.394	0.00925522
705.472	0.00938553
705.550	0.0102118
705.628	0.0112092
705.706	0.0130769
705.785	0.0151366
705.863	0.0176547
705.941	0.0203054
706.019	0.0229102
706.097	0.0255454
706.175	0.0274483
706.253	0.0283176
706.331	0.0282691
706.410	0.0271152
706.488	0.0246888
706.566	0.0212758
706.644	0.0172424
706.722	0.0126312
706.800	0.00806290
706.878	0.00347771
706.956	0.0000101471
707.035	-0.00267006
707.113	-0.00397964
707.191	-0.00404266
707.269	-0.00294868
707.347	-0.00102051
707.425	0.00180313
707.503	0.00495689
707.581	0.00848206
707.660	0.0122205
707.738	0.0157645
707.816	0.0193639
707.894	0.0228485
707.972	0.0259788
708.050	0.0286257
708.128	0.0304996
708.206	0.0321550
708.285	0.0329758
708.363	0.0328291
708.441	0.0321128
708.519	0.0306785
708.597	0.0284887
708.675	0.0257135
708.753	0.0223734
708.831	0.0184892
708.910	0.0143315
708.988	0.00991600
709.066	0.00588280
709.144	0.00229095
709.222	-0.000312347
709.300	-0.00223419
709.378	-0.00316338
709.456	-0.00345650
709.535	-0.00281876
709.613	-0.00148384
709.691	0.000288544
709.769	0.00246628
709.847	0.00507065
709.925	0.00801308
710.003	0.0109969
710.081	0.0140459
710.160	0.0169054
710.238	0.0192860
710.316	0.0219189
710.394	0.0239007
710.472	0.0254521
710.550	0.0268638
710.628	0.0277188
710.706	0.0284708
710.785	0.0285675
710.863	0.0281887
710.941	0.0272408
711.019	0.0260693
711.097	0.0245790
711.175	0.0227254
711.253	0.0205988
711.331	0.0181725
711.410	0.0157254
711.488	0.0130631
711.566	0.0104042
711.644	0.00813675
711.722	0.00636803
711.800	0.00489044
711.878	0.00407089
711.956	0.00367332
712.035	0.00372307
712.113	0.00415253
712.191	0.00477089
712.269	0.00574196
712.347	0.00677849
712.425	0.00803627
712.503	0.00925064
712.581	0.0105193
712.660	0.0120366
712.738	0.0134838
712.816	0.0149998
712.894	0.0166929
712.972	0.0183463
713.050	0.0197146
713.128	0.0209839
713.206	0.0222832
713.285	0.0229906
713.363	0.0234780
713.441	0.0235410
713.519	0.0232237
713.597	0.0227524
713.675	0.0220847
713.753	0.0209735
713.831	0.0198235
713.910	0.0185482
713.988	0.0175490
714.066	0.0163991
714.144	0.0150780
714.222	0.0137794
714.300	0.0127634
714.378	0.0118429
714.456	0.0107263
714.535	0.00990746
714.613	0.00927589
714.691	0.00866463
714.769	0.00837494
714.847	0.00814590
714.925	0.00820679
715.003	0.00824364
715.081	0.00859451
715.160	0.00902275
715.238	0.00959778
715.316	0.0101263
715.394	0.0106070
715.472	0.0111163
715.550	0.0119189
715.628	0.0126159
715.706	0.0133876
715.785	0.0142839
715.863	0.0150938
715.941	0.0161145
716.019	0.0170496
716.097	0.0179884
716.175	0.0187871
716.253	0.0194563
716.331	0.0202083
716.410	0.0203941
716.488	0.0207464
716.566	0.0209496
716.644	0.0208572
716.722	0.0207813
716.800	0.0204876
716.878	0.0200523
716.956	0.0194794
717.035	0.0188113
717.113	0.0177438
717.191	0.0165981
717.269	0.0155011
717.347	0.0143389
717.425	0.0130688
717.503	0.0122012
717.581	0.0111415
717.660	0.0106357
717.738	0.0102256
717.816	0.00990265
717.894	0.00979271
717.972	0.00989174
718.050	0.0100250
718.128	0.0104533
718.206	0.0107320
718.285	0.0110320
718.363	0.0112671
718.441	0.0118307
718.519	0.0121140
718.597	0.0125746
718.675	0.0127616
718.753	0.0130354
718.831	0.0133626
718.910	0.0138115
718.988	0.0138602
719.066	0.0143542
719.144	0.0147952
719.222	0.0151391
719.300	0.0155125
719.378	0.0159370
719.456	0.0162012
719.535	0.0165760
719.613	0.0169350
719.691	0.0170535
719.769	0.0173198
719.847	0.0172872
719.925	0.0171381
720.003	0.0169585
720.081	0.0168103
720.160	0.0165207
720.238	0.0164644
720.316	0.0163026
720.394	0.0159196
720.472	0.0157340
720.550	0.0155539
720.628	0.0153402
720.706	0.0150276
720.785	0.0149789
720.863	0.0146909
720.941	0.0145361
721.019	0.0145977
721.097	0.0144922
721.175	0.0145180
721.253	0.0146157
721.331	0.0149474
721.410	0.0150873
721.488	0.0151617
721.566	0.0153654
721.644	0.0151572
721.722	0.0149693
721.800	0.0145903
721.878	0.0143296
721.956	0.0139490
722.035	0.0135350
722.113	0.0130618
722.191	0.0126168
722.269	0.0121871
722.347	0.0118650
722.425	0.0114828
722.503	0.0113934
722.581	0.0114298
722.660	0.0115571
722.738	0.0117160
722.816	0.0121996
722.894	0.0127630
722.972	0.0135700
723.050	0.0143345
723.128	0.0149993
723.206	0.0157715
723.285	0.0164392
723.363	0.0168301
723.441	0.0172655
723.519	0.0173637
723.597	0.0173449
723.675	0.0175826
723.753	0.0175822
723.831	0.0174614
723.910	0.0174339
723.988	0.0171456
724.066	0.0168407
724.144	0.0165807
724.222	0.0160650
724.300	0.0156445
724.378	0.0152825
724.456	0.0149381
724.535	0.0147514
724.613	0.0145569
724.691	0.0144929
724.769	0.0143045
724.847	0.0141926
724.925	0.0143652
725.003	0.0141439
725.081	0.0140203
725.160	0.0140612
725.238	0.0140339
725.316	0.0141883
725.394	0.0140017
725.472	0.0140515
725.550	0.0139262
725.628	0.0137914
725.706	0.0136479
725.785	0.0133497
725.863	0.0132043
725.941	0.0130763
726.019	0.0127600
726.097	0.0127173
726.175	0.0128072
726.253	0.0126491
726.331	0.0128825
726.410	0.0130718
726.488	0.0131375
726.566	0.0133327
726.644	0.0135628
726.722	0.0137865
726.800	0.0141764
726.878	0.0145737
726.956	0.0150096
727.035	0.0151553
727.113	0.0154556
727.191	0.0158698
727.269	0.0162477
727.347	0.0163753
727.425	0.0164344
727.503	0.0166814
727.581	0.0166998
727.660	0.0167049
727.738	0.0166837
727.816	0.0165760
727.894	0.0163330
727.972	0.0164534
728.050	0.0162012
728.128	0.0160207
728.206	0.0159380
728.285	0.0158262
728.363	0.0158504
728.441	0.0155482
728.519	0.0155209
728.597	0.0152874
728.675	0.0150676
728.753	0.0151098
728.831	0.0150375
728.910	0.0149292
728.988	0.0148779
729.066	0.0148341
729.144	0.0146677
729.222	0.0144530
729.300	0.0141982
729.378	0.0139870
729.456	0.0136431
729.535	0.0133118
729.613	0.0131935
729.691	0.0129501
729.769	0.0127946
729.847	0.0126643
729.925	0.0125224
730.003	0.0125214
730.081	0.0123289
730.160	0.0125908
730.238	0.0126782
730.316	0.0128745
730.394	0.0130864
730.472	0.0133284
730.550	0.0137484
730.628	0.0139555
730.706	0.0141531
730.785	0.0144603
730.863	0.0146413
730.941	0.0147296
731.019	0.0147678
731.097	0.0149822
731.175	0.0149764
731.253	0.0150204
731.331	0.0150830
731.410	0.0154504
731.488	0.0154301
731.566	0.0156109
731.644	0.0156247
731.722	0.0157173
731.800	0.0159138
731.878	0.0161002
731.956	0.0160903
732.035	0.0161159
732.113	0.0161461
732.191	0.0161710
732.269	0.0160724
732.347	0.0158967
732.425	0.0159975
732.503	0.0157678
732.581	0.0157893
732.660	0.0155769
732.738	0.0153210
732.816	0.0151507
732.894	0.0150922
732.972	0.0151759
733.050	0.0149589
733.128	0.0149844
733.206	0.0149663
733.285	0.0151225
733.363	0.0150035
733.441	0.0150006
733.519	0.0148286
733.597	0.0146770
733.675	0.0146137
733.753	0.0144688
733.831	0.0143590
733.910	0.0140040
733.988	0.0139805
734.066	0.0138187
734.144	0.0137524
734.222	0.0136359
734.300	0.0136102
734.378	0.0135052
734.456	0.0134270
734.535	0.0135117
734.613	0.0135016
734.691	0.0134778
734.769	0.0135654
734.847	0.0134507
734.925	0.0135487
735.003	0.0133230
735.081	0.0134182
735.160	0.0133289
735.238	0.0134602
735.316	0.0135659
735.394	0.0138974
735.472	0.0140986
735.550	0.0140847
735.628	0.0146325
735.706	0.0149126
735.785	0.0154279
735.863	0.0156938
735.941	0.0161652
736.019	0.0164839
736.097	0.0166863
736.175	0.0168079
736.253	0.0166866
736.331	0.0167514
736.410	0.0164778
736.488	0.0161676
736.566	0.0160521
736.644	0.0155928
736.722	0.0153615
736.800	0.0149041
736.878	0.0147839
736.956	0.0144759
737.035	0.0143178
737.113	0.0142325
737.191	0.0142547
737.269	0.0141376
737.347	0.0142121
737.425	0.0141415
737.503	0.0145191
737.581	0.0146063
737.660	0.0146394
737.738	0.0147126
737.816	0.0149430
737.894	0.0151273
737.972	0.0150772
738.050	0.0151835
738.128	0.0150558
738.206	0.0150479
738.285	0.0147729
738.363	0.0146357
738.441	0.0144909
738.519	0.0141961
738.597	0.0140238
738.675	0.0138705
738.753	0.0136270
738.831	0.0133777
738.910	0.0134344
738.988	0.0134314
739.066	0.0134792
739.144	0.0133900
739.222	0.0136028
739.300	0.0138809
739.378	0.0139768
739.456	0.0142066
739.535	0.0145654
739.613	0.0146867
739.691	0.0148238
739.769	0.0150552
739.847	0.0150910
739.925	0.0152918
740.003	0.0153999
740.081	0.0154182
740.160	0.0153092
740.238	0.0152213
740.316	0.0151366
740.394	0.0149452
740.472	0.0148418
740.550	0.0147412
740.628	0.0148776
740.706	0.0147987
740.785	0.0147554
740.863	0.0148717
740.941	0.0149580
741.019	0.0150546
741.097	0.0150651
741.175	0.0150736
741.253	0.0151623
741.331	0.0151770
741.410	0.0151960
741.488	0.0150989
741.566	0.0151334
741.644	0.0150010
741.722	0.0148259
741.800	0.0147050
741.878	0.0147389
741.956	0.0145004
742.035	0.0145335
742.113	0.0144410
742.191	0.0142770
742.269	0.0143124
742.347	0.0142611
742.425	0.0142231
742.503	0.0143441
742.581	0.0140263
742.660	0.0143097
742.738	0.0143655
742.816	0.0142461
742.894	0.0141518
742.972	0.0143228
743.050	0.0143378
743.128	0.0143925
743.206	0.0145845
743.285	0.0145188
743.363	0.0143680
743.441	0.0144931
743.519	0.0144521
743.597	0.0143761
743.675	0.0143312
743.753	0.0143763
743.831	0.0142332
743.910	0.0144891
743.988	0.0144577
744.066	0.0144208
744.144	0.0143587
744.222	0.0143256
744.300	0.0143171
744.378	0.0143766
744.456	0.0143982
744.535	0.0143242
744.613	0.0143805
744.691	0.0142188
744.769	0.0142108
744.847	0.0141219
744.925	0.0142238
745.003	0.0142976
745.081	0.0142240
745.160	0.0144348
745.238	0.0145471
745.316	0.0145460
745.394	0.0145378
