05/03/2022	20:14:21	Ver.	4.1	UNKNOWN
Optical Delay	660.003261	Delta X		0.078125	Sweeps	1	Scan Rate	0/0
Coordinates	Axis 1	NaN	Axis 2	NaN	Axis 3	NaN	Axis 4	NaN	Axis 5	NaN	Axis 6	0.000000
TX Power	0.000000	RX Power	0.000000

660.003	0.0147735
660.081	0.0147598
660.160	0.0146234
660.238	0.0148311
660.316	0.0148536
660.394	0.0147723
660.472	0.0149245
660.550	0.0148684
660.628	0.0147241
660.706	0.0147308
660.785	0.0148654
660.863	0.0148116
660.941	0.0147256
661.019	0.0146849
661.097	0.0148050
661.175	0.0147718
661.253	0.0148574
661.331	0.0148328
661.410	0.0148453
661.488	0.0148506
661.566	0.0147802
661.644	0.0147208
661.722	0.0148230
661.800	0.0147904
661.878	0.0147525
661.956	0.0147697
662.035	0.0147777
662.113	0.0148586
662.191	0.0147558
662.269	0.0147359
662.347	0.0148969
662.425	0.0147990
662.503	0.0147523
662.581	0.0147803
662.660	0.0147565
662.738	0.0147646
662.816	0.0148627
662.894	0.0148106
662.972	0.0147600
663.050	0.0146656
663.128	0.0146932
663.206	0.0148119
663.285	0.0148183
663.363	0.0147530
663.441	0.0147370
663.519	0.0148594
663.597	0.0148074
663.675	0.0146970
663.753	0.0147690
663.831	0.0146629
663.910	0.0146020
663.988	0.0148125
664.066	0.0148106
664.144	0.0147833
664.222	0.0148336
664.300	0.0147176
664.378	0.0148111
664.456	0.0148003
664.535	0.0148621
664.613	0.0148584
664.691	0.0148859
664.769	0.0148846
664.847	0.0148190
664.925	0.0149667
665.003	0.0148237
665.081	0.0147218
665.160	0.0148431
665.238	0.0148947
665.316	0.0147080
665.394	0.0148653
665.472	0.0148318
665.550	0.0147516
665.628	0.0148738
665.706	0.0147855
665.785	0.0150217
665.863	0.0149181
665.941	0.0147982
666.019	0.0147145
666.097	0.0148478
666.175	0.0148612
666.253	0.0147649
666.331	0.0148943
666.410	0.0148321
666.488	0.0147721
666.566	0.0148463
666.644	0.0148618
666.722	0.0149141
666.800	0.0147578
666.878	0.0147266
666.956	0.0147678
667.035	0.0148298
667.113	0.0148270
667.191	0.0147959
667.269	0.0147543
667.347	0.0146897
667.425	0.0147601
667.503	0.0149444
667.581	0.0148280
667.660	0.0147629
667.738	0.0147501
667.816	0.0148240
667.894	0.0147622
667.972	0.0148274
668.050	0.0149124
668.128	0.0149593
668.206	0.0148421
668.285	0.0147598
668.363	0.0146307
668.441	0.0148409
668.519	0.0148667
668.597	0.0147510
668.675	0.0147295
668.753	0.0148266
668.831	0.0148939
668.910	0.0149509
668.988	0.0147741
669.066	0.0146882
669.144	0.0148589
669.222	0.0147217
669.300	0.0147552
669.378	0.0148717
669.456	0.0148537
669.535	0.0147592
669.613	0.0147509
669.691	0.0148287
669.769	0.0148388
669.847	0.0148351
669.925	0.0148870
670.003	0.0147630
670.081	0.0148499
670.160	0.0148719
670.238	0.0148721
670.316	0.0148075
670.394	0.0148495
670.472	0.0148367
670.550	0.0147092
670.628	0.0149520
670.706	0.0149789
670.785	0.0148667
670.863	0.0147882
670.941	0.0148237
671.019	0.0147807
671.097	0.0149111
671.175	0.0148545
671.253	0.0147697
671.331	0.0148016
671.410	0.0148775
671.488	0.0147169
671.566	0.0148849
671.644	0.0148467
671.722	0.0148495
671.800	0.0148715
671.878	0.0148083
671.956	0.0147127
672.035	0.0149425
672.113	0.0147522
672.191	0.0147669
672.269	0.0147886
672.347	0.0148759
672.425	0.0148775
672.503	0.0148032
672.581	0.0147077
672.660	0.0147357
672.738	0.0148379
672.816	0.0148747
672.894	0.0149010
672.972	0.0147376
673.050	0.0148067
673.128	0.0148882
673.206	0.0148129
673.285	0.0147101
673.363	0.0146843
673.441	0.0148102
673.519	0.0148403
673.597	0.0149673
673.675	0.0147684
673.753	0.0147973
673.831	0.0149181
673.910	0.0147924
673.988	0.0147279
674.066	0.0148380
674.144	0.0146960
674.222	0.0146765
674.300	0.0147649
674.378	0.0147636
674.456	0.0148088
674.535	0.0148486
674.613	0.0148238
674.691	0.0147052
674.769	0.0147610
674.847	0.0148595
674.925	0.0147274
675.003	0.0147429
675.081	0.0148483
675.160	0.0149251
675.238	0.0148656
675.316	0.0148392
675.394	0.0147399
675.472	0.0147968
675.550	0.0147678
675.628	0.0148248
675.706	0.0146465
675.785	0.0145316
675.863	0.0147351
675.941	0.0148380
676.019	0.0147984
676.097	0.0147995
676.175	0.0147865
676.253	0.0147644
676.331	0.0147931
676.410	0.0147420
676.488	0.0147128
676.566	0.0147298
676.644	0.0147316
676.722	0.0146432
676.800	0.0147833
676.878	0.0146547
676.956	0.0146848
677.035	0.0148174
677.113	0.0147230
677.191	0.0149596
677.269	0.0147672
677.347	0.0147949
677.425	0.0147719
677.503	0.0147093
677.581	0.0147130
677.660	0.0147498
677.738	0.0148880
677.816	0.0146741
677.894	0.0147200
677.972	0.0149236
678.050	0.0147864
678.128	0.0147711
678.206	0.0148021
678.285	0.0149487
678.363	0.0148219
678.441	0.0146867
678.519	0.0149406
678.597	0.0147968
678.675	0.0147916
678.753	0.0148183
678.831	0.0148927
678.910	0.0148930
678.988	0.0147906
679.066	0.0148974
679.144	0.0148174
679.222	0.0147077
679.300	0.0148775
679.378	0.0148505
679.456	0.0146718
679.535	0.0146915
679.613	0.0149554
679.691	0.0147188
679.769	0.0147763
679.847	0.0147691
679.925	0.0148596
680.003	0.0148671
680.081	0.0146867
680.160	0.0147358
680.238	0.0147972
680.316	0.0146821
680.394	0.0146890
680.472	0.0149083
680.550	0.0148187
680.628	0.0146873
680.706	0.0147323
680.785	0.0147340
680.863	0.0148603
680.941	0.0148505
681.019	0.0147960
681.097	0.0148757
681.175	0.0146439
681.253	0.0147915
681.331	0.0147794
681.410	0.0146272
681.488	0.0148042
681.566	0.0148350
681.644	0.0147326
681.722	0.0148641
681.800	0.0148694
681.878	0.0146220
681.956	0.0147701
682.035	0.0147334
682.113	0.0148356
682.191	0.0147857
682.269	0.0147598
682.347	0.0148331
682.425	0.0148289
682.503	0.0147120
682.581	0.0146414
682.660	0.0147587
682.738	0.0148074
682.816	0.0147605
682.894	0.0146851
682.972	0.0148003
683.050	0.0149238
683.128	0.0147979
683.206	0.0148153
683.285	0.0148077
683.363	0.0146938
683.441	0.0147027
683.519	0.0147708
683.597	0.0146900
683.675	0.0147021
683.753	0.0147002
683.831	0.0147470
683.910	0.0146914
683.988	0.0148225
684.066	0.0148138
684.144	0.0147779
684.222	0.0149096
684.300	0.0148044
684.378	0.0148085
684.456	0.0147459
684.535	0.0147644
684.613	0.0147915
684.691	0.0147634
684.769	0.0147841
684.847	0.0148922
684.925	0.0147047
685.003	0.0146657
685.081	0.0148525
685.160	0.0147896
685.238	0.0148108
685.316	0.0146886
685.394	0.0146890
685.472	0.0148670
685.550	0.0148775
685.628	0.0146672
685.706	0.0147163
685.785	0.0147529
685.863	0.0148141
685.941	0.0147506
686.019	0.0147353
686.097	0.0147880
686.175	0.0148069
686.253	0.0148910
686.331	0.0148117
686.410	0.0149228
686.488	0.0149029
686.566	0.0147645
686.644	0.0146928
686.722	0.0145860
686.800	0.0147453
686.878	0.0148667
686.956	0.0148773
687.035	0.0148296
687.113	0.0148017
687.191	0.0146459
687.269	0.0148799
687.347	0.0148148
687.425	0.0147647
687.503	0.0146832
687.581	0.0146738
687.660	0.0147853
687.738	0.0149074
687.816	0.0147557
687.894	0.0147057
687.972	0.0146060
688.050	0.0147115
688.128	0.0147096
688.206	0.0148138
688.285	0.0146918
688.363	0.0146479
688.441	0.0146321
688.519	0.0147470
688.597	0.0148130
688.675	0.0149098
688.753	0.0148734
688.831	0.0147365
688.910	0.0149729
688.988	0.0147919
689.066	0.0146158
689.144	0.0146960
689.222	0.0148296
689.300	0.0148372
689.378	0.0148352
689.456	0.0147416
689.535	0.0149216
689.613	0.0149150
689.691	0.0146391
689.769	0.0148159
689.847	0.0147812
689.925	0.0147095
690.003	0.0148962
690.081	0.0147340
690.160	0.0146569
690.238	0.0146776
690.316	0.0148477
690.394	0.0148345
690.472	0.0147890
690.550	0.0147377
690.628	0.0147732
690.706	0.0148199
690.785	0.0148377
690.863	0.0147002
690.941	0.0146877
691.019	0.0147903
691.097	0.0147560
691.175	0.0146174
691.253	0.0147818
691.331	0.0147710
691.410	0.0147511
691.488	0.0147092
691.566	0.0146176
691.644	0.0147285
691.722	0.0147696
691.800	0.0146307
691.878	0.0148196
691.956	0.0147889
692.035	0.0147778
692.113	0.0147356
692.191	0.0146260
692.269	0.0147017
692.347	0.0147372
692.425	0.0146876
692.503	0.0147491
692.581	0.0147553
692.660	0.0148152
692.738	0.0145411
692.816	0.0148263
692.894	0.0146899
692.972	0.0146785
693.050	0.0147269
693.128	0.0146828
693.206	0.0147668
693.285	0.0147935
693.363	0.0147796
693.441	0.0146214
693.519	0.0147137
693.597	0.0147009
693.675	0.0148370
693.753	0.0147475
693.831	0.0147670
693.910	0.0148660
693.988	0.0146741
694.066	0.0148287
694.144	0.0147944
694.222	0.0147649
694.300	0.0148537
694.378	0.0148347
694.456	0.0147809
694.535	0.0148244
694.613	0.0147320
694.691	0.0146323
694.769	0.0147130
694.847	0.0146776
694.925	0.0146768
695.003	0.0146835
695.081	0.0146716
695.160	0.0147568
695.238	0.0147982
695.316	0.0147482
695.394	0.0146346
695.472	0.0147199
695.550	0.0148011
695.628	0.0148707
695.706	0.0146783
695.785	0.0147565
695.863	0.0148628
695.941	0.0147340
696.019	0.0148289
696.097	0.0149812
696.175	0.0147175
696.253	0.0149316
696.331	0.0148708
696.410	0.0149100
696.488	0.0148086
696.566	0.0148168
696.644	0.0147057
696.722	0.0146484
696.800	0.0147740
696.878	0.0147050
696.956	0.0147739
697.035	0.0147765
697.113	0.0147473
697.191	0.0147597
697.269	0.0149209
697.347	0.0147744
697.425	0.0146669
697.503	0.0147133
697.581	0.0147397
697.660	0.0147339
697.738	0.0147768
697.816	0.0147137
697.894	0.0148694
697.972	0.0148304
698.050	0.0147732
698.128	0.0147680
698.206	0.0149013
698.285	0.0147183
698.363	0.0147685
698.441	0.0147047
698.519	0.0148055
698.597	0.0148418
698.675	0.0148018
698.753	0.0148650
698.831	0.0148090
698.910	0.0148826
698.988	0.0147147
699.066	0.0147630
699.144	0.0148083
699.222	0.0147311
699.300	0.0146895
699.378	0.0147242
699.456	0.0148866
699.535	0.0147456
699.613	0.0148626
699.691	0.0150001
699.769	0.0147477
699.847	0.0148250
699.925	0.0147923
700.003	0.0148556
700.081	0.0147406
700.160	0.0148358
700.238	0.0147440
700.316	0.0147691
700.394	0.0147610
700.472	0.0147346
700.550	0.0146849
700.628	0.0147680
700.706	0.0148336
700.785	0.0146704
700.863	0.0147425
700.941	0.0148035
701.019	0.0147275
701.097	0.0149615
701.175	0.0147506
701.253	0.0148015
701.331	0.0149416
701.410	0.0148511
701.488	0.0149476
701.566	0.0149230
701.644	0.0149043
701.722	0.0148773
701.800	0.0149133
701.878	0.0149397
701.956	0.0149070
702.035	0.0150208
702.113	0.0148705
702.191	0.0149635
702.269	0.0149935
702.347	0.0149398
702.425	0.0149847
702.503	0.0149091
702.581	0.0146523
702.660	0.0147613
702.738	0.0147914
702.816	0.0148418
702.894	0.0148670
702.972	0.0146432
703.050	0.0146447
703.128	0.0145812
703.206	0.0145512
703.285	0.0142985
703.363	0.0141702
703.441	0.0140031
703.519	0.0139312
703.597	0.0139622
703.675	0.0141501
703.753	0.0144655
703.831	0.0147967
703.910	0.0152826
703.988	0.0157298
704.066	0.0160429
704.144	0.0161644
704.222	0.0159586
704.300	0.0155923
704.378	0.0147632
704.456	0.0139993
704.535	0.0131120
704.613	0.0120371
704.691	0.0113261
704.769	0.0106379
704.847	0.0104196
704.925	0.0103973
705.003	0.0107515
705.081	0.0114199
705.160	0.0124358
705.238	0.0137689
705.316	0.0154361
705.394	0.0174023
705.472	0.0193759
705.550	0.0216705
705.628	0.0236832
705.706	0.0251985
705.785	0.0263399
705.863	0.0265555
705.941	0.0257841
706.019	0.0242247
706.097	0.0217026
706.175	0.0185731
706.253	0.0147222
706.331	0.0105640
706.410	0.00663513
706.488	0.00293686
706.566	-0.0000415802
706.644	-0.00181015
706.722	-0.00255325
706.800	-0.00201851
706.878	-0.000193634
706.956	0.00207161
707.035	0.00493591
707.113	0.00786774
707.191	0.0110728
707.269	0.0142099
707.347	0.0170204
707.425	0.0198051
707.503	0.0225982
707.581	0.0252180
707.660	0.0273212
707.738	0.0292000
707.816	0.0306408
707.894	0.0313615
707.972	0.0317313
708.050	0.0310372
708.128	0.0299457
708.206	0.0284200
708.285	0.0260143
708.363	0.0231026
708.441	0.0195922
708.519	0.0158268
708.597	0.0116992
708.675	0.00755951
708.753	0.00378372
708.831	0.000644073
708.910	-0.00183792
708.988	-0.00323433
709.066	-0.00373970
709.144	-0.00376785
709.222	-0.00263397
709.300	-0.00115669
709.378	0.000881577
709.456	0.00346558
709.535	0.00606125
709.613	0.00902451
709.691	0.0120564
709.769	0.0151308
709.847	0.0179128
709.925	0.0205343
710.003	0.0229608
710.081	0.0249575
710.160	0.0267421
710.238	0.0280867
710.316	0.0287947
710.394	0.0294132
710.472	0.0295606
710.550	0.0291878
710.628	0.0284715
710.706	0.0271510
710.785	0.0256448
710.863	0.0236913
710.941	0.0213443
711.019	0.0187720
711.097	0.0162282
711.175	0.0133972
711.253	0.0106945
711.331	0.00844704
711.410	0.00658302
711.488	0.00502510
711.566	0.00403755
711.644	0.00342613
711.722	0.00339859
711.800	0.00339645
711.878	0.00387398
711.956	0.00456863
712.035	0.00537086
712.113	0.00626823
712.191	0.00764778
712.269	0.00874649
712.347	0.0101188
712.425	0.0114878
712.503	0.0129678
712.581	0.0146628
712.660	0.0162281
712.738	0.0176470
712.816	0.0191145
712.894	0.0206453
712.972	0.0218732
713.050	0.0227910
713.128	0.0235622
713.206	0.0237821
713.285	0.0239572
713.363	0.0237428
713.441	0.0233696
713.519	0.0227348
713.597	0.0219349
713.675	0.0210283
713.753	0.0198841
713.831	0.0187055
713.910	0.0173676
713.988	0.0159396
714.066	0.0144824
714.144	0.0131046
714.222	0.0116725
714.300	0.0107330
714.378	0.00973694
714.456	0.00888199
714.535	0.00818237
714.613	0.00782211
714.691	0.00769852
714.769	0.00741051
714.847	0.00755394
714.925	0.00812645
715.003	0.00849609
715.081	0.00903671
715.160	0.00949509
715.238	0.0103806
715.316	0.0110326
715.394	0.0117195
715.472	0.0124509
715.550	0.0134609
715.628	0.0143330
715.706	0.0151431
715.785	0.0161055
715.863	0.0170818
715.941	0.0179798
716.019	0.0187740
716.097	0.0196288
716.175	0.0200958
716.253	0.0209431
716.331	0.0212836
716.410	0.0214994
716.488	0.0215794
716.566	0.0213039
716.644	0.0210484
716.722	0.0204100
716.800	0.0193822
716.878	0.0184007
716.956	0.0174424
717.035	0.0162453
717.113	0.0151747
717.191	0.0141251
717.269	0.0132517
717.347	0.0126405
717.425	0.0120859
717.503	0.0116604
717.581	0.0113937
717.660	0.0111508
717.738	0.0110773
717.816	0.0107824
717.894	0.0108649
717.972	0.0108412
718.050	0.0110062
718.128	0.0111869
718.206	0.0114070
718.285	0.0116350
718.363	0.0119267
718.441	0.0121047
718.519	0.0124477
718.597	0.0129278
718.675	0.0131507
718.753	0.0134422
718.831	0.0136681
718.910	0.0139107
718.988	0.0143217
719.066	0.0146377
719.144	0.0148614
719.222	0.0150599
719.300	0.0155212
719.378	0.0159146
719.456	0.0161864
719.535	0.0164237
719.613	0.0166993
719.691	0.0168276
719.769	0.0170238
719.847	0.0170050
719.925	0.0171415
720.003	0.0170149
720.081	0.0170753
720.160	0.0170388
720.238	0.0167272
720.316	0.0166296
720.394	0.0164526
720.472	0.0163532
720.550	0.0161891
720.628	0.0162092
720.706	0.0163589
720.785	0.0162586
720.863	0.0163792
720.941	0.0165176
721.019	0.0164245
721.097	0.0163188
721.175	0.0160748
721.253	0.0157779
721.331	0.0149861
721.410	0.0149205
721.488	0.0142864
721.566	0.0138665
721.644	0.0136125
721.722	0.0131916
721.800	0.0126939
721.878	0.0121752
721.956	0.0119605
722.035	0.0116010
722.113	0.0114249
722.191	0.0112399
722.269	0.0113206
722.347	0.0113806
722.425	0.0112742
722.503	0.0116518
722.581	0.0119587
722.660	0.0123899
722.738	0.0128896
722.816	0.0134243
722.894	0.0141840
722.972	0.0146306
723.050	0.0152457
723.128	0.0155943
723.206	0.0160329
723.285	0.0165012
723.363	0.0170068
723.441	0.0172547
723.519	0.0174981
723.597	0.0175669
723.675	0.0177132
723.753	0.0176501
723.831	0.0172645
723.910	0.0170322
723.988	0.0168011
724.066	0.0164559
724.144	0.0162337
724.222	0.0161570
724.300	0.0159981
724.378	0.0159299
724.456	0.0158573
724.535	0.0158323
724.613	0.0156104
724.691	0.0155833
724.769	0.0152135
724.847	0.0150863
724.925	0.0149662
725.003	0.0146928
725.081	0.0146119
725.160	0.0144254
725.238	0.0143246
725.316	0.0141348
725.394	0.0139146
725.472	0.0139693
725.550	0.0137068
725.628	0.0135273
725.706	0.0133728
725.785	0.0133920
725.863	0.0132142
725.941	0.0129622
726.019	0.0128976
726.097	0.0127747
726.175	0.0128195
726.253	0.0128951
726.331	0.0130282
726.410	0.0129436
726.488	0.0130947
726.566	0.0132619
726.644	0.0134309
726.722	0.0135368
726.800	0.0136658
726.878	0.0139213
726.956	0.0140310
727.035	0.0145956
727.113	0.0148343
727.191	0.0153323
727.269	0.0155791
727.347	0.0159993
727.425	0.0162554
727.503	0.0167149
727.581	0.0168781
727.660	0.0171962
727.738	0.0171203
727.816	0.0173306
727.894	0.0173108
727.972	0.0173166
728.050	0.0169827
728.128	0.0165470
728.206	0.0164147
728.285	0.0160419
728.363	0.0157392
728.441	0.0156820
728.519	0.0152814
728.597	0.0153200
728.675	0.0151970
728.753	0.0151051
728.831	0.0149604
728.910	0.0149818
728.988	0.0149635
729.066	0.0147019
729.144	0.0148308
729.222	0.0146856
729.300	0.0144700
729.378	0.0144678
729.456	0.0144016
729.535	0.0140764
729.613	0.0138818
729.691	0.0135672
729.769	0.0132924
729.847	0.0132839
729.925	0.0131539
730.003	0.0127804
730.081	0.0131551
730.160	0.0130818
730.238	0.0129925
730.316	0.0130000
730.394	0.0132621
730.472	0.0134629
730.550	0.0135753
730.628	0.0137771
730.706	0.0138792
730.785	0.0139989
730.863	0.0140514
730.941	0.0140472
731.019	0.0140936
731.097	0.0140739
731.175	0.0140891
731.253	0.0143452
731.331	0.0144460
731.410	0.0147318
731.488	0.0149589
731.566	0.0152335
731.644	0.0154193
731.722	0.0156800
731.800	0.0160258
731.878	0.0162492
731.956	0.0164501
732.035	0.0165665
732.113	0.0166258
732.191	0.0165137
732.269	0.0165572
732.347	0.0162252
732.425	0.0159946
732.503	0.0160326
732.581	0.0159595
732.660	0.0158067
732.738	0.0156400
732.816	0.0158250
732.894	0.0155873
732.972	0.0156568
733.050	0.0156180
733.128	0.0156286
733.206	0.0155754
733.285	0.0153521
733.363	0.0153978
733.441	0.0153716
733.519	0.0151191
733.597	0.0150291
733.675	0.0148030
733.753	0.0146288
733.831	0.0143914
733.910	0.0140792
733.988	0.0139248
734.066	0.0137588
734.144	0.0136316
734.222	0.0134349
734.300	0.0132594
734.378	0.0131663
734.456	0.0129807
734.535	0.0130850
734.613	0.0130334
734.691	0.0131485
734.769	0.0132724
734.847	0.0135176
734.925	0.0135085
735.003	0.0136353
735.081	0.0137171
735.160	0.0137966
735.238	0.0140321
735.316	0.0140350
735.394	0.0141840
735.472	0.0144183
735.550	0.0145670
735.628	0.0149094
735.706	0.0151323
735.785	0.0152856
735.863	0.0154762
735.941	0.0154726
736.019	0.0154803
736.097	0.0156612
736.175	0.0155630
736.253	0.0157787
736.331	0.0156721
736.410	0.0158215
736.488	0.0155476
736.566	0.0153039
736.644	0.0154581
736.722	0.0154800
736.800	0.0153761
736.878	0.0152183
736.956	0.0153258
737.035	0.0150979
737.113	0.0151057
737.191	0.0150327
737.269	0.0149775
737.347	0.0151078
737.425	0.0149437
737.503	0.0149790
737.581	0.0151447
737.660	0.0151862
737.738	0.0154075
737.816	0.0155181
737.894	0.0157490
737.972	0.0157889
738.050	0.0157730
738.128	0.0155311
738.206	0.0154518
738.285	0.0152630
738.363	0.0149220
738.441	0.0146528
738.519	0.0145254
738.597	0.0140569
738.675	0.0139204
738.753	0.0136468
738.831	0.0135454
738.910	0.0134562
738.988	0.0133551
739.066	0.0134836
739.144	0.0135290
739.222	0.0137712
739.300	0.0139306
739.378	0.0141250
739.456	0.0144069
739.535	0.0146794
739.613	0.0147101
739.691	0.0147092
739.769	0.0148622
739.847	0.0150011
739.925	0.0151167
740.003	0.0150068
740.081	0.0148180
740.160	0.0147304
740.238	0.0146125
740.316	0.0147652
740.394	0.0147968
740.472	0.0147249
740.550	0.0148353
740.628	0.0149141
740.706	0.0150565
740.785	0.0150002
740.863	0.0151421
740.941	0.0152570
741.019	0.0152728
741.097	0.0151585
741.175	0.0152254
741.253	0.0150469
741.331	0.0149516
741.410	0.0149442
741.488	0.0147527
741.566	0.0146411
741.644	0.0145554
741.722	0.0144054
741.800	0.0143777
741.878	0.0144473
741.956	0.0144521
742.035	0.0145132
742.113	0.0147488
742.191	0.0146976
742.269	0.0148846
742.347	0.0149712
742.425	0.0150721
742.503	0.0151555
742.581	0.0152046
742.660	0.0150485
742.738	0.0149764
742.816	0.0150788
742.894	0.0150507
742.972	0.0150819
743.050	0.0147721
743.128	0.0147416
743.206	0.0146082
743.285	0.0146135
743.363	0.0146529
743.441	0.0144709
743.519	0.0144859
743.597	0.0145728
743.675	0.0144750
743.753	0.0144519
743.831	0.0144776
743.910	0.0145210
743.988	0.0145809
744.066	0.0144809
744.144	0.0145374
744.222	0.0144364
744.300	0.0144752
744.378	0.0144750
744.456	0.0143358
744.535	0.0143887
744.613	0.0142638
744.691	0.0142216
744.769	0.0142034
744.847	0.0140082
744.925	0.0140380
745.003	0.0141228
745.081	0.0139795
745.160	0.0139664
745.238	0.0140849
745.316	0.0142002
745.394	0.0145171
745.472	0.0147253
