05/03/2022	20:15:06	Ver.	4.1	UNKNOWN
Optical Delay	660.003261	Delta X		0.078125	Sweeps	1	Scan Rate	0/0
Coordinates	Axis 1	NaN	Axis 2	NaN	Axis 3	NaN	Axis 4	NaN	Axis 5	NaN	Axis 6	0.000000
TX Power	0.000000	RX Power	0.000000

660.003	0.0143591
660.081	0.0143185
660.160	0.0143045
660.238	0.0141766
660.316	0.0143456
660.394	0.0143050
660.472	0.0142581
660.550	0.0144127
660.628	0.0144572
660.706	0.0144206
660.785	0.0142016
660.863	0.0143172
660.941	0.0143652
661.019	0.0143335
661.097	0.0144104
661.175	0.0144115
661.253	0.0142267
661.331	0.0143251
661.410	0.0143313
661.488	0.0144209
661.566	0.0143835
661.644	0.0143455
661.722	0.0143179
661.800	0.0142885
661.878	0.0143858
661.956	0.0142534
662.035	0.0142584
662.113	0.0144550
662.191	0.0143655
662.269	0.0145380
662.347	0.0143266
662.425	0.0143768
662.503	0.0143713
662.581	0.0144717
662.660	0.0142536
662.738	0.0142272
662.816	0.0144968
662.894	0.0144300
662.972	0.0143428
663.050	0.0143753
663.128	0.0143972
663.206	0.0143317
663.285	0.0143990
663.363	0.0143834
663.441	0.0143992
663.519	0.0142924
663.597	0.0143666
663.675	0.0142600
663.753	0.0142828
663.831	0.0144975
663.910	0.0143723
663.988	0.0143711
664.066	0.0143373
664.144	0.0143282
664.222	0.0143167
664.300	0.0142851
664.378	0.0143666
664.456	0.0143868
664.535	0.0143216
664.613	0.0143924
664.691	0.0143790
664.769	0.0144173
664.847	0.0143907
664.925	0.0142543
665.003	0.0144485
665.081	0.0143586
665.160	0.0142794
665.238	0.0144204
665.316	0.0144079
665.394	0.0142465
665.472	0.0143683
665.550	0.0143006
665.628	0.0142301
665.706	0.0142207
665.785	0.0143176
665.863	0.0142715
665.941	0.0142921
666.019	0.0143343
666.097	0.0144603
666.175	0.0143022
666.253	0.0143034
666.331	0.0142480
666.410	0.0143147
666.488	0.0144446
666.566	0.0143940
666.644	0.0145293
666.722	0.0143373
666.800	0.0142894
666.878	0.0142867
666.956	0.0143180
667.035	0.0143608
667.113	0.0142288
667.191	0.0142381
667.269	0.0143813
667.347	0.0143513
667.425	0.0142881
667.503	0.0144150
667.581	0.0143239
667.660	0.0142154
667.738	0.0142822
667.816	0.0143094
667.894	0.0143677
667.972	0.0143414
668.050	0.0142677
668.128	0.0143070
668.206	0.0142603
668.285	0.0143593
668.363	0.0143921
668.441	0.0142959
668.519	0.0144776
668.597	0.0142858
668.675	0.0143831
668.753	0.0143336
668.831	0.0142695
668.910	0.0142438
668.988	0.0142142
669.066	0.0144026
669.144	0.0143495
669.222	0.0144565
669.300	0.0142873
669.378	0.0142536
669.456	0.0143559
669.535	0.0142434
669.613	0.0142951
669.691	0.0144057
669.769	0.0142992
669.847	0.0143304
669.925	0.0141859
670.003	0.0143507
670.081	0.0144721
670.160	0.0143732
670.238	0.0142890
670.316	0.0144014
670.394	0.0143494
670.472	0.0143449
670.550	0.0143058
670.628	0.0143380
670.706	0.0143365
670.785	0.0144257
670.863	0.0143759
670.941	0.0142866
671.019	0.0143188
671.097	0.0144489
671.175	0.0142973
671.253	0.0143618
671.331	0.0143532
671.410	0.0143421
671.488	0.0142474
671.566	0.0143227
671.644	0.0144889
671.722	0.0142399
671.800	0.0142921
671.878	0.0143967
671.956	0.0143972
672.035	0.0143136
672.113	0.0143867
672.191	0.0144334
672.269	0.0143042
672.347	0.0144762
672.425	0.0145424
672.503	0.0143348
672.581	0.0142017
672.660	0.0144305
672.738	0.0143448
672.816	0.0144294
672.894	0.0145116
672.972	0.0143493
673.050	0.0144062
673.128	0.0143069
673.206	0.0142820
673.285	0.0143011
673.363	0.0143304
673.441	0.0143185
673.519	0.0143951
673.597	0.0143880
673.675	0.0143459
673.753	0.0142120
673.831	0.0142902
673.910	0.0143354
673.988	0.0143257
674.066	0.0144494
674.144	0.0143571
674.222	0.0142667
674.300	0.0143963
674.378	0.0142591
674.456	0.0143145
674.535	0.0143818
674.613	0.0144408
674.691	0.0142699
674.769	0.0143998
674.847	0.0143507
674.925	0.0143903
675.003	0.0143458
675.081	0.0143386
675.160	0.0144976
675.238	0.0143767
675.316	0.0142606
675.394	0.0144325
675.472	0.0144868
675.550	0.0144012
675.628	0.0143958
675.706	0.0141418
675.785	0.0143399
675.863	0.0143250
675.941	0.0144080
676.019	0.0144010
676.097	0.0142473
676.175	0.0143670
676.253	0.0144576
676.331	0.0142802
676.410	0.0143480
676.488	0.0144016
676.566	0.0143485
676.644	0.0143272
676.722	0.0143549
676.800	0.0143287
676.878	0.0143353
676.956	0.0143432
677.035	0.0143943
677.113	0.0142907
677.191	0.0143164
677.269	0.0142445
677.347	0.0143295
677.425	0.0144016
677.503	0.0144028
677.581	0.0143399
677.660	0.0142852
677.738	0.0143218
677.816	0.0142129
677.894	0.0144289
677.972	0.0143484
678.050	0.0143218
678.128	0.0143262
678.206	0.0143512
678.285	0.0143510
678.363	0.0143481
678.441	0.0142093
678.519	0.0142036
678.597	0.0144216
678.675	0.0143549
678.753	0.0143369
678.831	0.0142765
678.910	0.0143352
678.988	0.0144286
679.066	0.0143047
679.144	0.0143332
679.222	0.0143736
679.300	0.0142499
679.378	0.0142216
679.456	0.0143575
679.535	0.0143481
679.613	0.0142245
679.691	0.0143117
679.769	0.0142503
679.847	0.0142619
679.925	0.0143583
680.003	0.0144180
680.081	0.0142961
680.160	0.0143523
680.238	0.0143805
680.316	0.0143002
680.394	0.0142669
680.472	0.0142670
680.550	0.0142567
680.628	0.0142931
680.706	0.0142134
680.785	0.0145077
680.863	0.0144260
680.941	0.0143477
681.019	0.0143066
681.097	0.0143411
681.175	0.0141840
681.253	0.0143958
681.331	0.0144663
681.410	0.0143792
681.488	0.0142616
681.566	0.0143610
681.644	0.0144317
681.722	0.0143375
681.800	0.0143304
681.878	0.0142904
681.956	0.0144848
682.035	0.0143790
682.113	0.0142072
682.191	0.0144028
682.269	0.0144434
682.347	0.0143975
682.425	0.0142998
682.503	0.0144421
682.581	0.0143772
682.660	0.0143345
682.738	0.0144675
682.816	0.0143761
682.894	0.0142870
682.972	0.0144012
683.050	0.0142712
683.128	0.0143314
683.206	0.0143549
683.285	0.0142977
683.363	0.0143413
683.441	0.0144575
683.519	0.0142926
683.597	0.0143861
683.675	0.0143803
683.753	0.0143014
683.831	0.0142466
683.910	0.0144092
683.988	0.0143420
684.066	0.0142017
684.144	0.0142005
684.222	0.0142772
684.300	0.0143665
684.378	0.0143264
684.456	0.0143880
684.535	0.0144723
684.613	0.0143552
684.691	0.0142968
684.769	0.0143048
684.847	0.0143219
684.925	0.0142355
685.003	0.0142707
685.081	0.0143542
685.160	0.0141409
685.238	0.0144074
685.316	0.0143806
685.394	0.0143994
685.472	0.0143151
685.550	0.0142928
685.628	0.0144840
685.706	0.0144056
685.785	0.0143554
685.863	0.0141658
685.941	0.0142609
686.019	0.0143349
686.097	0.0143287
686.175	0.0141877
686.253	0.0143053
686.331	0.0144832
686.410	0.0142978
686.488	0.0143319
686.566	0.0143933
686.644	0.0143220
686.722	0.0143453
686.800	0.0143764
686.878	0.0142696
686.956	0.0144710
687.035	0.0142635
687.113	0.0143087
687.191	0.0142454
687.269	0.0141844
687.347	0.0144084
687.425	0.0144769
687.503	0.0143196
687.581	0.0143773
687.660	0.0143295
687.738	0.0143993
687.816	0.0142413
687.894	0.0143171
687.972	0.0143845
688.050	0.0142842
688.128	0.0144131
688.206	0.0144447
688.285	0.0142611
688.363	0.0142480
688.441	0.0144079
688.519	0.0144267
688.597	0.0143349
688.675	0.0143069
688.753	0.0142590
688.831	0.0143109
688.910	0.0143621
688.988	0.0143761
689.066	0.0144397
689.144	0.0143674
689.222	0.0143872
689.300	0.0142955
689.378	0.0142779
689.456	0.0143139
689.535	0.0142642
689.613	0.0143055
689.691	0.0143549
689.769	0.0142615
689.847	0.0143422
689.925	0.0142956
690.003	0.0142706
690.081	0.0142442
690.160	0.0142975
690.238	0.0143203
690.316	0.0144525
690.394	0.0144398
690.472	0.0142587
690.550	0.0144291
690.628	0.0143781
690.706	0.0143758
690.785	0.0142651
690.863	0.0143652
690.941	0.0142950
691.019	0.0142928
691.097	0.0143431
691.175	0.0144335
691.253	0.0143512
691.331	0.0143974
691.410	0.0143076
691.488	0.0142835
691.566	0.0143884
691.644	0.0144047
691.722	0.0143517
691.800	0.0145113
691.878	0.0143762
691.956	0.0143761
692.035	0.0143360
692.113	0.0143711
692.191	0.0144648
692.269	0.0143701
692.347	0.0144939
692.425	0.0145528
692.503	0.0144935
692.581	0.0143644
692.660	0.0142966
692.738	0.0144833
692.816	0.0143369
692.894	0.0143902
692.972	0.0143561
693.050	0.0144067
693.128	0.0143764
693.206	0.0146151
693.285	0.0144288
693.363	0.0144093
693.441	0.0143195
693.519	0.0143814
693.597	0.0143954
693.675	0.0144872
693.753	0.0143665
693.831	0.0142729
693.910	0.0143842
693.988	0.0143959
694.066	0.0142444
694.144	0.0143310
694.222	0.0141888
694.300	0.0143623
694.378	0.0142816
694.456	0.0144167
694.535	0.0142565
694.613	0.0143343
694.691	0.0143904
694.769	0.0142310
694.847	0.0143660
694.925	0.0143250
695.003	0.0143821
695.081	0.0143710
695.160	0.0142859
695.238	0.0143703
695.316	0.0144041
695.394	0.0144559
695.472	0.0143370
695.550	0.0142400
695.628	0.0141565
695.706	0.0145113
695.785	0.0143600
695.863	0.0143396
695.941	0.0143909
696.019	0.0142993
696.097	0.0143768
696.175	0.0143507
696.253	0.0143498
696.331	0.0142838
696.410	0.0143288
696.488	0.0142268
696.566	0.0142605
696.644	0.0143097
696.722	0.0143506
696.800	0.0143892
696.878	0.0143012
696.956	0.0143154
697.035	0.0143179
697.113	0.0142873
697.191	0.0143956
697.269	0.0144528
697.347	0.0143430
697.425	0.0143085
697.503	0.0143699
697.581	0.0141901
697.660	0.0143012
697.738	0.0144184
697.816	0.0143658
697.894	0.0142706
697.972	0.0144002
698.050	0.0142672
698.128	0.0142074
698.206	0.0143162
698.285	0.0143578
698.363	0.0143212
698.441	0.0144540
698.519	0.0144181
698.597	0.0142677
698.675	0.0142563
698.753	0.0141504
698.831	0.0143517
698.910	0.0143122
698.988	0.0143816
699.066	0.0143904
699.144	0.0143293
699.222	0.0142767
699.300	0.0142973
699.378	0.0143188
699.456	0.0143661
699.535	0.0142848
699.613	0.0143027
699.691	0.0142891
699.769	0.0143070
699.847	0.0144416
699.925	0.0143861
700.003	0.0143403
700.081	0.0142914
700.160	0.0143753
700.238	0.0142841
700.316	0.0143685
700.394	0.0143617
700.472	0.0144630
700.550	0.0144348
700.628	0.0145981
700.706	0.0145275
700.785	0.0143828
700.863	0.0144665
700.941	0.0144131
701.019	0.0145438
701.097	0.0145583
701.175	0.0144231
701.253	0.0145066
701.331	0.0145399
701.410	0.0144911
701.488	0.0144439
701.566	0.0145294
701.644	0.0144941
701.722	0.0143425
701.800	0.0144038
701.878	0.0144398
701.956	0.0144454
702.035	0.0144167
702.113	0.0143625
702.191	0.0143488
702.269	0.0140844
702.347	0.0140730
702.425	0.0140312
702.503	0.0139814
702.581	0.0139879
702.660	0.0138461
702.738	0.0139124
702.816	0.0139046
702.894	0.0141479
702.972	0.0143478
703.050	0.0145939
703.128	0.0150024
703.206	0.0152621
703.285	0.0153024
703.363	0.0151944
703.441	0.0151687
703.519	0.0145945
703.597	0.0140458
703.675	0.0133385
703.753	0.0126195
703.831	0.0120534
703.910	0.0114709
703.988	0.0114292
704.066	0.0113679
704.144	0.0116465
704.222	0.0118806
704.300	0.0123670
704.378	0.0132628
704.456	0.0141105
704.535	0.0151797
704.613	0.0164717
704.691	0.0177253
704.769	0.0190114
704.847	0.0204053
704.925	0.0213936
705.003	0.0221860
705.081	0.0223879
705.160	0.0222386
705.238	0.0216438
705.316	0.0202415
705.394	0.0182447
705.472	0.0158944
705.550	0.0130200
705.628	0.0100673
705.706	0.00693512
705.785	0.00424469
705.863	0.00212265
705.941	0.000968628
706.019	0.000714188
706.097	0.00157051
706.175	0.00299850
706.253	0.00502975
706.331	0.00751579
706.410	0.0100353
706.488	0.0125296
706.566	0.0148816
706.644	0.0168250
706.722	0.0184035
706.800	0.0201963
706.878	0.0218240
706.956	0.0232967
707.035	0.0245988
707.113	0.0257600
707.191	0.0267239
707.269	0.0272764
707.347	0.0272414
707.425	0.0270918
707.503	0.0261400
707.581	0.0247622
707.660	0.0229531
707.738	0.0207388
707.816	0.0181545
707.894	0.0150910
707.972	0.0118160
708.050	0.00846840
708.128	0.00538895
708.206	0.00253258
708.285	0.000336838
708.363	-0.00111542
708.441	-0.00207420
708.519	-0.00218742
708.597	-0.00157806
708.675	-0.000443726
708.753	0.00115166
708.831	0.00320511
708.910	0.00554512
708.988	0.00795860
709.066	0.0104790
709.144	0.0131441
709.222	0.0157661
709.300	0.0181158
709.378	0.0203677
709.456	0.0223052
709.535	0.0242439
709.613	0.0258456
709.691	0.0268279
709.769	0.0277075
709.847	0.0281704
709.925	0.0283474
710.003	0.0282687
710.081	0.0274757
710.160	0.0265163
710.238	0.0250294
710.316	0.0231705
710.394	0.0211671
710.472	0.0190045
710.550	0.0165947
710.628	0.0142371
710.706	0.0120682
710.785	0.00977219
710.863	0.00760445
710.941	0.00589607
711.019	0.00452751
711.097	0.00358864
711.175	0.00285576
711.253	0.00263786
711.331	0.00288162
711.410	0.00325005
711.488	0.00390724
711.566	0.00474548
711.644	0.00581787
711.722	0.00687355
711.800	0.00802078
711.878	0.00940575
711.956	0.0105986
712.035	0.0117046
712.113	0.0130943
712.191	0.0144486
712.269	0.0157452
712.347	0.0172230
712.425	0.0185832
712.503	0.0201081
712.581	0.0212891
712.660	0.0223622
712.738	0.0234801
712.816	0.0240504
712.894	0.0244658
712.972	0.0246556
713.050	0.0243759
713.128	0.0238158
713.206	0.0232227
713.285	0.0221911
713.363	0.0209595
713.441	0.0196083
713.519	0.0180622
713.597	0.0163689
713.675	0.0147025
713.753	0.0129404
713.831	0.0114488
713.910	0.0101090
713.988	0.00871796
714.066	0.00761368
714.144	0.00688057
714.222	0.00638908
714.300	0.00620438
714.378	0.00606239
714.456	0.00637558
714.535	0.00698700
714.613	0.00758858
714.691	0.00832680
714.769	0.00905403
714.847	0.00989929
714.925	0.0106232
715.003	0.0113511
715.081	0.0120676
715.160	0.0125837
715.238	0.0132092
715.316	0.0137119
715.394	0.0144408
715.472	0.0152843
715.550	0.0159330
715.628	0.0167694
715.706	0.0179533
715.785	0.0189497
715.863	0.0197330
715.941	0.0203624
716.019	0.0208755
716.097	0.0210405
716.175	0.0208232
716.253	0.0206683
716.331	0.0202151
716.410	0.0195324
716.488	0.0186822
716.566	0.0179582
716.644	0.0171068
716.722	0.0163288
716.800	0.0156696
716.878	0.0150867
716.956	0.0143267
717.035	0.0138078
717.113	0.0133061
717.191	0.0126563
717.269	0.0123735
717.347	0.0119164
717.425	0.0114870
717.503	0.0113569
717.581	0.0110341
717.660	0.0107651
717.738	0.0107741
717.816	0.0107151
717.894	0.0108084
717.972	0.0108454
718.050	0.0108950
718.128	0.0110869
718.206	0.0112408
718.285	0.0112275
718.363	0.0115540
718.441	0.0117113
718.519	0.0118862
718.597	0.0121361
718.675	0.0122208
718.753	0.0125243
718.831	0.0126723
718.910	0.0128578
718.988	0.0134692
719.066	0.0138618
719.144	0.0144324
719.222	0.0149377
719.300	0.0157559
719.378	0.0162483
719.456	0.0167377
719.535	0.0172283
719.613	0.0176870
719.691	0.0177857
719.769	0.0180360
719.847	0.0180578
719.925	0.0180299
720.003	0.0179398
720.081	0.0179465
720.160	0.0179907
720.238	0.0180311
720.316	0.0180496
720.394	0.0179424
720.472	0.0177604
720.550	0.0174826
720.628	0.0171530
720.706	0.0167365
720.785	0.0162495
720.863	0.0156902
720.941	0.0150230
721.019	0.0144555
721.097	0.0138360
721.175	0.0132059
721.253	0.0125388
721.331	0.0121040
721.410	0.0117420
721.488	0.0112459
721.566	0.0109946
721.644	0.0107994
721.722	0.0104124
721.800	0.0105621
721.878	0.0105235
721.956	0.0106522
722.035	0.0106019
722.113	0.0109278
722.191	0.0111220
722.269	0.0112395
722.347	0.0116010
722.425	0.0117300
722.503	0.0120638
722.581	0.0122762
722.660	0.0126041
722.738	0.0131721
722.816	0.0136134
722.894	0.0139576
722.972	0.0146188
723.050	0.0151003
723.128	0.0157476
723.206	0.0160946
723.285	0.0165169
723.363	0.0169622
723.441	0.0170980
723.519	0.0173331
723.597	0.0177352
723.675	0.0177378
723.753	0.0177943
723.831	0.0179973
723.910	0.0178423
723.988	0.0175795
724.066	0.0174390
724.144	0.0170605
724.222	0.0168430
724.300	0.0165520
724.378	0.0162824
724.456	0.0158126
724.535	0.0154724
724.613	0.0150497
724.691	0.0149467
724.769	0.0145604
724.847	0.0142825
724.925	0.0140846
725.003	0.0139961
725.081	0.0138976
725.160	0.0137119
725.238	0.0136113
725.316	0.0134544
725.394	0.0133036
725.472	0.0132230
725.550	0.0132135
725.628	0.0129850
725.706	0.0128442
725.785	0.0127570
725.863	0.0124100
725.941	0.0121068
726.019	0.0119570
726.097	0.0117167
726.175	0.0117102
726.253	0.0115089
726.331	0.0116871
726.410	0.0117297
726.488	0.0118301
726.566	0.0120517
726.644	0.0122231
726.722	0.0124553
726.800	0.0128992
726.878	0.0132906
726.956	0.0136451
727.035	0.0141683
727.113	0.0144614
727.191	0.0151682
727.269	0.0156267
727.347	0.0158926
727.425	0.0162952
727.503	0.0165820
727.581	0.0166622
727.660	0.0167276
727.738	0.0167200
727.816	0.0168312
727.894	0.0165958
727.972	0.0162929
728.050	0.0162224
728.128	0.0159471
728.206	0.0159886
728.285	0.0159659
728.363	0.0158105
728.441	0.0157778
728.519	0.0157028
728.597	0.0154852
728.675	0.0155585
728.753	0.0156200
728.831	0.0154686
728.910	0.0152778
728.988	0.0152551
729.066	0.0153267
729.144	0.0150706
729.222	0.0149834
729.300	0.0147202
729.378	0.0144811
729.456	0.0142995
729.535	0.0139659
729.613	0.0136694
729.691	0.0132973
729.769	0.0130430
729.847	0.0128387
729.925	0.0125925
730.003	0.0121759
730.081	0.0122591
730.160	0.0122643
730.238	0.0122813
730.316	0.0120242
730.394	0.0120647
730.472	0.0121911
730.550	0.0123787
730.628	0.0123952
730.706	0.0124017
730.785	0.0125574
730.863	0.0126895
730.941	0.0127918
731.019	0.0129890
731.097	0.0133345
731.175	0.0133150
731.253	0.0135661
731.331	0.0138871
731.410	0.0139113
731.488	0.0141879
731.566	0.0144030
731.644	0.0146957
731.722	0.0149401
731.800	0.0153851
731.878	0.0156504
731.956	0.0158134
732.035	0.0161907
732.113	0.0163876
732.191	0.0164666
732.269	0.0164700
732.347	0.0165701
732.425	0.0165087
732.503	0.0167630
732.581	0.0165827
732.660	0.0163099
732.738	0.0162021
732.816	0.0160992
732.894	0.0159772
732.972	0.0157079
733.050	0.0155049
733.128	0.0154248
733.206	0.0151869
733.285	0.0148589
733.363	0.0146664
733.441	0.0144875
733.519	0.0143034
733.597	0.0142220
733.675	0.0139781
733.753	0.0138608
733.831	0.0137348
733.910	0.0138030
733.988	0.0134720
734.066	0.0133916
734.144	0.0134149
734.222	0.0135104
734.300	0.0133708
734.378	0.0135068
734.456	0.0133980
734.535	0.0132851
734.613	0.0130891
734.691	0.0131985
734.769	0.0133307
734.847	0.0131531
734.925	0.0131636
735.003	0.0129308
735.081	0.0129898
735.160	0.0129402
735.238	0.0130522
735.316	0.0129738
735.394	0.0126450
735.472	0.0128705
735.550	0.0128229
735.628	0.0130926
735.706	0.0132800
735.785	0.0135773
735.863	0.0137203
735.941	0.0142047
736.019	0.0144843
736.097	0.0146706
736.175	0.0149316
736.253	0.0150945
736.331	0.0153015
736.410	0.0156071
736.488	0.0157220
736.566	0.0155386
736.644	0.0157293
736.722	0.0156213
736.800	0.0155870
736.878	0.0155956
736.956	0.0154977
737.035	0.0152300
737.113	0.0152023
737.191	0.0152811
737.269	0.0152521
737.347	0.0153123
737.425	0.0152975
737.503	0.0153268
737.581	0.0154509
737.660	0.0154502
737.738	0.0154570
737.816	0.0155763
737.894	0.0157185
737.972	0.0152463
738.050	0.0152628
738.128	0.0151386
738.206	0.0149464
738.285	0.0146423
738.363	0.0144946
738.441	0.0143162
738.519	0.0141356
738.597	0.0138747
738.675	0.0139500
738.753	0.0137364
738.831	0.0134103
738.910	0.0133615
738.988	0.0132027
739.066	0.0132687
739.144	0.0131330
739.222	0.0132027
739.300	0.0132708
739.378	0.0133935
739.456	0.0134083
739.535	0.0135909
739.613	0.0135721
739.691	0.0137432
739.769	0.0139428
739.847	0.0139103
739.925	0.0140280
740.003	0.0142179
740.081	0.0141989
740.160	0.0141747
740.238	0.0143433
740.316	0.0144246
740.394	0.0144234
740.472	0.0140875
740.550	0.0140064
740.628	0.0141364
740.706	0.0140547
740.785	0.0139289
740.863	0.0138869
740.941	0.0139343
741.019	0.0137926
741.097	0.0139803
741.175	0.0138725
741.253	0.0139935
741.331	0.0140977
741.410	0.0142494
741.488	0.0142612
741.566	0.0143160
741.644	0.0146152
741.722	0.0144176
741.800	0.0146057
741.878	0.0146500
741.956	0.0148026
742.035	0.0150266
742.113	0.0149934
742.191	0.0151385
742.269	0.0151794
742.347	0.0152911
742.425	0.0152629
742.503	0.0152540
742.581	0.0152141
742.660	0.0152135
742.738	0.0153030
742.816	0.0152917
742.894	0.0150918
742.972	0.0148995
743.050	0.0149937
743.128	0.0149879
743.206	0.0149318
743.285	0.0146998
743.363	0.0145255
743.441	0.0143993
743.519	0.0144118
743.597	0.0143496
743.675	0.0141725
743.753	0.0139290
743.831	0.0139404
743.910	0.0139317
743.988	0.0138710
744.066	0.0138892
744.144	0.0138739
744.222	0.0137951
744.300	0.0136904
744.378	0.0136507
744.456	0.0136768
744.535	0.0134975
744.613	0.0134208
744.691	0.0134700
744.769	0.0135390
744.847	0.0135914
744.925	0.0134583
745.003	0.0136763
745.081	0.0136776
745.160	0.0137532
745.238	0.0139965
745.316	0.0140855
745.394	0.0142336
745.472	0.0142205
