05/03/2022	20:16:21	Ver.	4.1	UNKNOWN
Optical Delay	660.003261	Delta X		0.078125	Sweeps	1	Scan Rate	0/0
Coordinates	Axis 1	NaN	Axis 2	NaN	Axis 3	NaN	Axis 4	NaN	Axis 5	NaN	Axis 6	0.000000
TX Power	0.000000	RX Power	0.000000

660.003	0.0143721
660.081	0.0142609
660.160	0.0142864
660.238	0.0143874
660.316	0.0144181
660.394	0.0144527
660.472	0.0144624
660.550	0.0143520
660.628	0.0143929
660.706	0.0143558
660.785	0.0142811
660.863	0.0142638
660.941	0.0142479
661.019	0.0143624
661.097	0.0143267
661.175	0.0143687
661.253	0.0143819
661.331	0.0142598
661.410	0.0142086
661.488	0.0142381
661.566	0.0144010
661.644	0.0143849
661.722	0.0144144
661.800	0.0144347
661.878	0.0143319
661.956	0.0144401
662.035	0.0144470
662.113	0.0144690
662.191	0.0144067
662.269	0.0144205
662.347	0.0143789
662.425	0.0145515
662.503	0.0143170
662.581	0.0143944
662.660	0.0144720
662.738	0.0143705
662.816	0.0144639
662.894	0.0143145
662.972	0.0144999
663.050	0.0146346
663.128	0.0143444
663.206	0.0143064
663.285	0.0143568
663.363	0.0143223
663.441	0.0143236
663.519	0.0144664
663.597	0.0143899
663.675	0.0144800
663.753	0.0143176
663.831	0.0144312
663.910	0.0143578
663.988	0.0144654
664.066	0.0144839
664.144	0.0142846
664.222	0.0142692
664.300	0.0144588
664.378	0.0143282
664.456	0.0143970
664.535	0.0143275
664.613	0.0144284
664.691	0.0144365
664.769	0.0142280
664.847	0.0144312
664.925	0.0145617
665.003	0.0144717
665.081	0.0143050
665.160	0.0145157
665.238	0.0144154
665.316	0.0143126
665.394	0.0144717
665.472	0.0143985
665.550	0.0143252
665.628	0.0143887
665.706	0.0143355
665.785	0.0145280
665.863	0.0144390
665.941	0.0143311
666.019	0.0144674
666.097	0.0142595
666.175	0.0142958
666.253	0.0143994
666.331	0.0144570
666.410	0.0144008
666.488	0.0143850
666.566	0.0143079
666.644	0.0143134
666.722	0.0143285
666.800	0.0144154
666.878	0.0143885
666.956	0.0144997
667.035	0.0142374
667.113	0.0143494
667.191	0.0143999
667.269	0.0144718
667.347	0.0144424
667.425	0.0143961
667.503	0.0143451
667.581	0.0143961
667.660	0.0143818
667.738	0.0143413
667.816	0.0143983
667.894	0.0144142
667.972	0.0142640
668.050	0.0142722
668.128	0.0143750
668.206	0.0143863
668.285	0.0144312
668.363	0.0143523
668.441	0.0145665
668.519	0.0143027
668.597	0.0143168
668.675	0.0143240
668.753	0.0143271
668.831	0.0143362
668.910	0.0143875
668.988	0.0142670
669.066	0.0143562
669.144	0.0144513
669.222	0.0144012
669.300	0.0143800
669.378	0.0143629
669.456	0.0143211
669.535	0.0143827
669.613	0.0143632
669.691	0.0144641
669.769	0.0142819
669.847	0.0143578
669.925	0.0143406
670.003	0.0143405
670.081	0.0143220
670.160	0.0144411
670.238	0.0143420
670.316	0.0142416
670.394	0.0144329
670.472	0.0142776
670.550	0.0143896
670.628	0.0144184
670.706	0.0143780
670.785	0.0143185
670.863	0.0142171
670.941	0.0143524
671.019	0.0143515
671.097	0.0142980
671.175	0.0143432
671.253	0.0143048
671.331	0.0144329
671.410	0.0142981
671.488	0.0143932
671.566	0.0143409
671.644	0.0143997
671.722	0.0142415
671.800	0.0144341
671.878	0.0144128
671.956	0.0143320
672.035	0.0142417
672.113	0.0143822
672.191	0.0143965
672.269	0.0143385
672.347	0.0143322
672.425	0.0143694
672.503	0.0143742
672.581	0.0143725
672.660	0.0143916
672.738	0.0143978
672.816	0.0144216
672.894	0.0144318
672.972	0.0144332
673.050	0.0144322
673.128	0.0142582
673.206	0.0143871
673.285	0.0143113
673.363	0.0143495
673.441	0.0144617
673.519	0.0142484
673.597	0.0143417
673.675	0.0143393
673.753	0.0142960
673.831	0.0143618
673.910	0.0143129
673.988	0.0144408
674.066	0.0142538
674.144	0.0143174
674.222	0.0144151
674.300	0.0143246
674.378	0.0142485
674.456	0.0143536
674.535	0.0144747
674.613	0.0145164
674.691	0.0143547
674.769	0.0142878
674.847	0.0142860
674.925	0.0144122
675.003	0.0141670
675.081	0.0143537
675.160	0.0143101
675.238	0.0143130
675.316	0.0144131
675.394	0.0144141
675.472	0.0143722
675.550	0.0143037
675.628	0.0145319
675.706	0.0144559
675.785	0.0142791
675.863	0.0145149
675.941	0.0144958
676.019	0.0143541
676.097	0.0143502
676.175	0.0143643
676.253	0.0144432
676.331	0.0144708
676.410	0.0143571
676.488	0.0144148
676.566	0.0144263
676.644	0.0142705
676.722	0.0144467
676.800	0.0143607
676.878	0.0142970
676.956	0.0143526
677.035	0.0142647
677.113	0.0143957
677.191	0.0144172
677.269	0.0143921
677.347	0.0143915
677.425	0.0143631
677.503	0.0141766
677.581	0.0143586
677.660	0.0144613
677.738	0.0143689
677.816	0.0144452
677.894	0.0143050
677.972	0.0143391
678.050	0.0143208
678.128	0.0143744
678.206	0.0144024
678.285	0.0142929
678.363	0.0143226
678.441	0.0142363
678.519	0.0143621
678.597	0.0142957
678.675	0.0143917
678.753	0.0142799
678.831	0.0143671
678.910	0.0142720
678.988	0.0143077
679.066	0.0141991
679.144	0.0143295
679.222	0.0143745
679.300	0.0144221
679.378	0.0143839
679.456	0.0143891
679.535	0.0144105
679.613	0.0144413
679.691	0.0143905
679.769	0.0143396
679.847	0.0143565
679.925	0.0143136
680.003	0.0143563
680.081	0.0143527
680.160	0.0143362
680.238	0.0143372
680.316	0.0143487
680.394	0.0143782
680.472	0.0141946
680.550	0.0143148
680.628	0.0144118
680.706	0.0142661
680.785	0.0142498
680.863	0.0143955
680.941	0.0142804
681.019	0.0142787
681.097	0.0143575
681.175	0.0144128
681.253	0.0143176
681.331	0.0144044
681.410	0.0143348
681.488	0.0144233
681.566	0.0143206
681.644	0.0143545
681.722	0.0143787
681.800	0.0144607
681.878	0.0143632
681.956	0.0143146
682.035	0.0143355
682.113	0.0143256
682.191	0.0141779
682.269	0.0143378
682.347	0.0143835
682.425	0.0143162
682.503	0.0144690
682.581	0.0144331
682.660	0.0143684
682.738	0.0143066
682.816	0.0144362
682.894	0.0143314
682.972	0.0143201
683.050	0.0143679
683.128	0.0144375
683.206	0.0143871
683.285	0.0143082
683.363	0.0145028
683.441	0.0142947
683.519	0.0144022
683.597	0.0144334
683.675	0.0142876
683.753	0.0143041
683.831	0.0143997
683.910	0.0143336
683.988	0.0144479
684.066	0.0144058
684.144	0.0143739
684.222	0.0144978
684.300	0.0142671
684.378	0.0144012
684.456	0.0143366
684.535	0.0144687
684.613	0.0143584
684.691	0.0143702
684.769	0.0143223
684.847	0.0143851
684.925	0.0143282
685.003	0.0142804
685.081	0.0143632
685.160	0.0143810
685.238	0.0144222
685.316	0.0144337
685.394	0.0144663
685.472	0.0144632
685.550	0.0144141
685.628	0.0143423
685.706	0.0143922
685.785	0.0144231
685.863	0.0144191
685.941	0.0144929
686.019	0.0142407
686.097	0.0141593
686.175	0.0143591
686.253	0.0142516
686.331	0.0142968
686.410	0.0143105
686.488	0.0143352
686.566	0.0145185
686.644	0.0143439
686.722	0.0144209
686.800	0.0143760
686.878	0.0145628
686.956	0.0143705
687.035	0.0143279
687.113	0.0143011
687.191	0.0143620
687.269	0.0143938
687.347	0.0143806
687.425	0.0143094
687.503	0.0143535
687.581	0.0143758
687.660	0.0144801
687.738	0.0143454
687.816	0.0143375
687.894	0.0143824
687.972	0.0144112
688.050	0.0143391
688.128	0.0143615
688.206	0.0143858
688.285	0.0143658
688.363	0.0143209
688.441	0.0144158
688.519	0.0145434
688.597	0.0144724
688.675	0.0142660
688.753	0.0142012
688.831	0.0143809
688.910	0.0145310
688.988	0.0144285
689.066	0.0143987
689.144	0.0145013
689.222	0.0143972
689.300	0.0142519
689.378	0.0143633
689.456	0.0143241
689.535	0.0143604
689.613	0.0143694
689.691	0.0143318
689.769	0.0143908
689.847	0.0142648
689.925	0.0143054
690.003	0.0144011
690.081	0.0143555
690.160	0.0143118
690.238	0.0142992
690.316	0.0143776
690.394	0.0144642
690.472	0.0144226
690.550	0.0143421
690.628	0.0143956
690.706	0.0142612
690.785	0.0142809
690.863	0.0144821
690.941	0.0143923
691.019	0.0143549
691.097	0.0143703
691.175	0.0143506
691.253	0.0144253
691.331	0.0143799
691.410	0.0145004
691.488	0.0144173
691.566	0.0144606
691.644	0.0144846
691.722	0.0144944
691.800	0.0144148
691.878	0.0143875
691.956	0.0143918
692.035	0.0144611
692.113	0.0144103
692.191	0.0142921
692.269	0.0143512
692.347	0.0143017
692.425	0.0143894
692.503	0.0144578
692.581	0.0144290
692.660	0.0143279
692.738	0.0142488
692.816	0.0144469
692.894	0.0145126
692.972	0.0143909
693.050	0.0143246
693.128	0.0144508
693.206	0.0142745
693.285	0.0144037
693.363	0.0142994
693.441	0.0144746
693.519	0.0144447
693.597	0.0144185
693.675	0.0142036
693.753	0.0144981
693.831	0.0143806
693.910	0.0144034
693.988	0.0145243
694.066	0.0143773
694.144	0.0143233
694.222	0.0145263
694.300	0.0144671
694.378	0.0144616
694.456	0.0143180
694.535	0.0143899
694.613	0.0142543
694.691	0.0144155
694.769	0.0143950
694.847	0.0145513
694.925	0.0144739
695.003	0.0144170
695.081	0.0143234
695.160	0.0145110
695.238	0.0146352
695.316	0.0142933
695.394	0.0143073
695.472	0.0144846
695.550	0.0143129
695.628	0.0144229
695.706	0.0144389
695.785	0.0143247
695.863	0.0143875
695.941	0.0144427
696.019	0.0143494
696.097	0.0144543
696.175	0.0143194
696.253	0.0143406
696.331	0.0143311
696.410	0.0142645
696.488	0.0143807
696.566	0.0144473
696.644	0.0144544
696.722	0.0142849
696.800	0.0141771
696.878	0.0143935
696.956	0.0145148
697.035	0.0142758
697.113	0.0142713
697.191	0.0144139
697.269	0.0143271
697.347	0.0144733
697.425	0.0145832
697.503	0.0143935
697.581	0.0142646
697.660	0.0143097
697.738	0.0144051
697.816	0.0145280
697.894	0.0142372
697.972	0.0142551
698.050	0.0143828
698.128	0.0144967
698.206	0.0143174
698.285	0.0142969
698.363	0.0144146
698.441	0.0143501
698.519	0.0142458
698.597	0.0143065
698.675	0.0143963
698.753	0.0144241
698.831	0.0144441
698.910	0.0143292
698.988	0.0143971
699.066	0.0142970
699.144	0.0143553
699.222	0.0144061
699.300	0.0144792
699.378	0.0144787
699.456	0.0143925
699.535	0.0144890
699.613	0.0143291
699.691	0.0143649
699.769	0.0144901
699.847	0.0145094
699.925	0.0143574
700.003	0.0143730
700.081	0.0145491
700.160	0.0142683
700.238	0.0145096
700.316	0.0144993
700.394	0.0142440
700.472	0.0144862
700.550	0.0144143
700.628	0.0143119
700.706	0.0142245
700.785	0.0142201
700.863	0.0142211
700.941	0.0141660
701.019	0.0140681
701.097	0.0141153
701.175	0.0140531
701.253	0.0140830
701.331	0.0142603
701.410	0.0143439
701.488	0.0145064
701.566	0.0146202
701.644	0.0147292
701.722	0.0149436
701.800	0.0149159
701.878	0.0149092
701.956	0.0146596
702.035	0.0143631
702.113	0.0139240
702.191	0.0135169
702.269	0.0131695
702.347	0.0129981
702.425	0.0128654
702.503	0.0127106
702.581	0.0125603
702.660	0.0128567
702.738	0.0130137
702.816	0.0133361
702.894	0.0137333
702.972	0.0143822
703.050	0.0150363
703.128	0.0157088
703.206	0.0164694
703.285	0.0171803
703.363	0.0176540
703.441	0.0182017
703.519	0.0185733
703.597	0.0187579
703.675	0.0187616
703.753	0.0186636
703.831	0.0179544
703.910	0.0172590
703.988	0.0163508
704.066	0.0149587
704.144	0.0135974
704.222	0.0119650
704.300	0.0102929
704.378	0.00853485
704.456	0.00716431
704.535	0.00633072
704.613	0.00584557
704.691	0.00600578
704.769	0.00654472
704.847	0.00780075
704.925	0.00937614
705.003	0.0110236
705.081	0.0126682
705.160	0.0142200
705.238	0.0155794
705.316	0.0168618
705.394	0.0180210
705.472	0.0186845
705.550	0.0195197
705.628	0.0201874
705.706	0.0208846
705.785	0.0215611
705.863	0.0221404
705.941	0.0227346
706.019	0.0229080
706.097	0.0229950
706.175	0.0224459
706.253	0.0219009
706.331	0.0206773
706.410	0.0191943
706.488	0.0176894
706.566	0.0158137
706.644	0.0138615
706.722	0.0119687
706.800	0.0100224
706.878	0.00829399
706.956	0.00658043
707.035	0.00525681
707.113	0.00421776
707.191	0.00342216
707.269	0.00324699
707.347	0.00331902
707.425	0.00395264
707.503	0.00464752
707.581	0.00568031
707.660	0.00687904
707.738	0.00830788
707.816	0.00995308
707.894	0.0113892
707.972	0.0130287
708.050	0.0145995
708.128	0.0162317
708.206	0.0176633
708.285	0.0191553
708.363	0.0205748
708.441	0.0217812
708.519	0.0230827
708.597	0.0238802
708.675	0.0249056
708.753	0.0254897
708.831	0.0259111
708.910	0.0259253
708.988	0.0258410
709.066	0.0251523
709.144	0.0244181
709.222	0.0231226
709.300	0.0216234
709.378	0.0200174
709.456	0.0181613
709.535	0.0161343
709.613	0.0140253
709.691	0.0117514
709.769	0.00976463
709.847	0.00789246
709.925	0.00596466
710.003	0.00473526
710.081	0.00370811
710.160	0.00300621
710.238	0.00268219
710.316	0.00275375
710.394	0.00312271
710.472	0.00388710
710.550	0.00491165
710.628	0.00602623
710.706	0.00725609
710.785	0.00846344
710.863	0.00966339
710.941	0.0107464
711.019	0.0115629
711.097	0.0126442
711.175	0.0136860
711.253	0.0145996
711.331	0.0155865
711.410	0.0166927
711.488	0.0179401
711.566	0.0191951
711.644	0.0204308
711.722	0.0217307
711.800	0.0229762
711.878	0.0239843
711.956	0.0247005
712.035	0.0253356
712.113	0.0255416
712.191	0.0253355
712.269	0.0249542
712.347	0.0243422
712.425	0.0231289
712.503	0.0216201
712.581	0.0201030
712.660	0.0182991
712.738	0.0163466
712.816	0.0145338
712.894	0.0127267
712.972	0.0110318
713.050	0.00938362
713.128	0.00826073
713.206	0.00742912
713.285	0.00690056
713.363	0.00655113
713.441	0.00652557
713.519	0.00650208
713.597	0.00698555
713.675	0.00729919
713.753	0.00786850
713.831	0.00861565
713.910	0.00911339
713.988	0.00955978
714.066	0.00997131
714.144	0.0103326
714.222	0.0108450
714.300	0.0110837
714.378	0.0112672
714.456	0.0116770
714.535	0.0120250
714.613	0.0127558
714.691	0.0134431
714.769	0.0140408
714.847	0.0150153
714.925	0.0161688
715.003	0.0171753
715.081	0.0181778
715.160	0.0191592
715.238	0.0202191
715.316	0.0210080
715.394	0.0214289
715.472	0.0217657
715.550	0.0218333
715.628	0.0216740
715.706	0.0210736
715.785	0.0202522
715.863	0.0196375
715.941	0.0186980
716.019	0.0178284
716.097	0.0170573
716.175	0.0163669
716.253	0.0160775
716.331	0.0156233
716.410	0.0152496
716.488	0.0148577
716.566	0.0144152
716.644	0.0139501
716.722	0.0134306
716.800	0.0127389
716.878	0.0120161
716.956	0.0115282
717.035	0.0108958
717.113	0.0101491
717.191	0.00967781
717.269	0.00920647
717.347	0.00898544
717.425	0.00899269
717.503	0.00868668
717.581	0.00880791
717.660	0.00901985
717.738	0.00910034
717.816	0.00955566
717.894	0.00981926
717.972	0.0104609
718.050	0.0108434
718.128	0.0115557
718.206	0.0121830
718.285	0.0127912
718.363	0.0134975
718.441	0.0142394
718.519	0.0148917
718.597	0.0156372
718.675	0.0164040
718.753	0.0172042
718.831	0.0178889
718.910	0.0184817
718.988	0.0190015
719.066	0.0193256
719.144	0.0195509
719.222	0.0195670
719.300	0.0195105
719.378	0.0194572
719.456	0.0191853
719.535	0.0189325
719.613	0.0187418
719.691	0.0182679
719.769	0.0181153
719.847	0.0178372
719.925	0.0174108
720.003	0.0171166
720.081	0.0167033
720.160	0.0163186
720.238	0.0157309
720.316	0.0149347
720.394	0.0142060
720.472	0.0137150
720.550	0.0130150
720.628	0.0123662
720.706	0.0120395
720.785	0.0116253
720.863	0.0112794
720.941	0.0112060
721.019	0.0109924
721.097	0.0107293
721.175	0.0107561
721.253	0.0106478
721.331	0.0106978
721.410	0.0106075
721.488	0.0105618
721.566	0.0105167
721.644	0.0106520
721.722	0.0106664
721.800	0.0109239
721.878	0.0111072
721.956	0.0113991
722.035	0.0117485
722.113	0.0119165
722.191	0.0124732
722.269	0.0126929
722.347	0.0131841
722.425	0.0136514
722.503	0.0142956
722.581	0.0149661
722.660	0.0156003
722.738	0.0162079
722.816	0.0168468
722.894	0.0175922
722.972	0.0180038
723.050	0.0183996
723.128	0.0186784
723.206	0.0188239
723.285	0.0188133
723.363	0.0187605
723.441	0.0185609
723.519	0.0181741
723.597	0.0178969
723.675	0.0172771
723.753	0.0168678
723.831	0.0163079
723.910	0.0160780
723.988	0.0156754
724.066	0.0155821
724.144	0.0152995
724.222	0.0152084
724.300	0.0150266
724.378	0.0149139
724.456	0.0148585
724.535	0.0146943
724.613	0.0143778
724.691	0.0142648
724.769	0.0140137
724.847	0.0138526
724.925	0.0135128
725.003	0.0130833
725.081	0.0129384
725.160	0.0126533
725.238	0.0123342
725.316	0.0122349
725.394	0.0119135
725.472	0.0117281
725.550	0.0116249
725.628	0.0115220
725.706	0.0114947
725.785	0.0115293
725.863	0.0115561
725.941	0.0115752
726.019	0.0116124
726.097	0.0118253
726.175	0.0118398
726.253	0.0120561
726.331	0.0124210
726.410	0.0124280
726.488	0.0124377
726.566	0.0127848
726.644	0.0130936
726.722	0.0134340
726.800	0.0138086
726.878	0.0144096
726.956	0.0146835
727.035	0.0151585
727.113	0.0155270
727.191	0.0160159
727.269	0.0163794
727.347	0.0168183
727.425	0.0170995
727.503	0.0172375
727.581	0.0172990
727.660	0.0174477
727.738	0.0173273
727.816	0.0175316
727.894	0.0172716
727.972	0.0173506
728.050	0.0170823
728.128	0.0170018
728.206	0.0169195
728.285	0.0165940
728.363	0.0164601
728.441	0.0162102
728.519	0.0160709
728.597	0.0157648
728.675	0.0154981
728.753	0.0153855
728.831	0.0151360
728.910	0.0147644
728.988	0.0144565
729.066	0.0141340
729.144	0.0139495
729.222	0.0137922
729.300	0.0135986
729.378	0.0132039
729.456	0.0130849
729.535	0.0129520
729.613	0.0127390
729.691	0.0127470
729.769	0.0126193
729.847	0.0125916
729.925	0.0124570
730.003	0.0123263
730.081	0.0123530
730.160	0.0122454
730.238	0.0121748
730.316	0.0122993
730.394	0.0122397
730.472	0.0121488
730.550	0.0120194
730.628	0.0120058
730.706	0.0119960
730.785	0.0118827
730.863	0.0118401
730.941	0.0119698
731.019	0.0121899
731.097	0.0124560
731.175	0.0128819
731.253	0.0132599
731.331	0.0136621
731.410	0.0142116
731.488	0.0147522
731.566	0.0151114
731.644	0.0156200
731.722	0.0161468
731.800	0.0165761
731.878	0.0170483
731.956	0.0173422
732.035	0.0173418
732.113	0.0172261
732.191	0.0171041
732.269	0.0169034
732.347	0.0165766
732.425	0.0163904
732.503	0.0160168
732.581	0.0158089
732.660	0.0157327
732.738	0.0154543
732.816	0.0154756
732.894	0.0153932
732.972	0.0153156
733.050	0.0155408
733.128	0.0154117
733.206	0.0157562
733.285	0.0158507
733.363	0.0159645
733.441	0.0158465
733.519	0.0160140
733.597	0.0158225
733.675	0.0157371
733.753	0.0153890
733.831	0.0150248
733.910	0.0146973
733.988	0.0141919
734.066	0.0135996
734.144	0.0131647
734.222	0.0125909
734.300	0.0122150
734.378	0.0118817
734.456	0.0115265
734.535	0.0114452
734.613	0.0113029
734.691	0.0115425
734.769	0.0116570
734.847	0.0117774
734.925	0.0121486
735.003	0.0123465
735.081	0.0124097
735.160	0.0127672
735.238	0.0129815
735.316	0.0132008
735.394	0.0133651
735.472	0.0134029
735.550	0.0135426
735.628	0.0135335
735.706	0.0137064
735.785	0.0135163
735.863	0.0136562
735.941	0.0136768
736.019	0.0139361
736.097	0.0140639
736.175	0.0141839
736.253	0.0145254
736.331	0.0147047
736.410	0.0150109
736.488	0.0152836
736.566	0.0155097
736.644	0.0158047
736.722	0.0159616
736.800	0.0161079
736.878	0.0160803
736.956	0.0160521
737.035	0.0161847
737.113	0.0160255
737.191	0.0162538
737.269	0.0161218
737.347	0.0160843
737.425	0.0160644
737.503	0.0160915
737.581	0.0160468
737.660	0.0160404
737.738	0.0159033
737.816	0.0160293
737.894	0.0157568
737.972	0.0156924
738.050	0.0155180
738.128	0.0154593
738.206	0.0154397
738.285	0.0153127
738.363	0.0152042
738.441	0.0149354
738.519	0.0147131
738.597	0.0145062
738.675	0.0142731
738.753	0.0140308
738.831	0.0137691
738.910	0.0135438
738.988	0.0135439
739.066	0.0135052
739.144	0.0132942
739.222	0.0131466
739.300	0.0130505
739.378	0.0131590
739.456	0.0130782
739.535	0.0130522
739.613	0.0130412
739.691	0.0130432
739.769	0.0130300
739.847	0.0130732
739.925	0.0129277
740.003	0.0129016
740.081	0.0127645
740.160	0.0127335
740.238	0.0128962
740.316	0.0127824
740.394	0.0125508
740.472	0.0125147
740.550	0.0126318
740.628	0.0126700
740.706	0.0127821
740.785	0.0131846
740.863	0.0133524
740.941	0.0133638
741.019	0.0136712
741.097	0.0140083
741.175	0.0141261
741.253	0.0143563
741.331	0.0145895
741.410	0.0147396
741.488	0.0148340
741.566	0.0150922
741.644	0.0151765
741.722	0.0153969
741.800	0.0155273
741.878	0.0157829
741.956	0.0158555
742.035	0.0159974
742.113	0.0163574
742.191	0.0162222
742.269	0.0162992
742.347	0.0164489
742.425	0.0163319
742.503	0.0164116
742.581	0.0164558
742.660	0.0162853
742.738	0.0163188
742.816	0.0161641
742.894	0.0160381
742.972	0.0158784
743.050	0.0157177
743.128	0.0156621
743.206	0.0153179
743.285	0.0150150
743.363	0.0148231
743.441	0.0147851
743.519	0.0145277
743.597	0.0142849
743.675	0.0142033
743.753	0.0138924
743.831	0.0136261
743.910	0.0136572
743.988	0.0135011
744.066	0.0132724
744.144	0.0131802
744.222	0.0130826
744.300	0.0130628
744.378	0.0128425
744.456	0.0127765
744.535	0.0126498
744.613	0.0125109
744.691	0.0125854
744.769	0.0124090
744.847	0.0123045
744.925	0.0125291
745.003	0.0125010
745.081	0.0126762
745.160	0.0125855
745.238	0.0128616
745.316	0.0131738
745.394	0.0131771
745.472	0.0133809
