05/03/2022	20:16:46	Ver.	4.1	UNKNOWN
Optical Delay	660.003261	Delta X		0.078125	Sweeps	1	Scan Rate	0/0
Coordinates	Axis 1	NaN	Axis 2	NaN	Axis 3	NaN	Axis 4	NaN	Axis 5	NaN	Axis 6	0.000000
TX Power	0.000000	RX Power	0.000000

660.003	0.0145255
660.081	0.0145786
660.160	0.0146535
660.238	0.0145550
660.316	0.0143883
660.394	0.0144550
660.472	0.0145446
660.550	0.0145472
660.628	0.0145696
660.706	0.0146081
660.785	0.0145956
660.863	0.0146310
660.941	0.0145145
661.019	0.0145260
661.097	0.0143279
661.175	0.0145852
661.253	0.0145673
661.331	0.0145945
661.410	0.0145802
661.488	0.0145380
661.566	0.0143837
661.644	0.0145898
661.722	0.0146462
661.800	0.0144798
661.878	0.0145524
661.956	0.0146335
662.035	0.0145835
662.113	0.0146295
662.191	0.0144884
662.269	0.0145201
662.347	0.0145001
662.425	0.0146002
662.503	0.0146612
662.581	0.0146001
662.660	0.0145691
662.738	0.0145422
662.816	0.0146945
662.894	0.0147466
662.972	0.0145198
663.050	0.0145916
663.128	0.0145647
663.206	0.0145103
663.285	0.0145256
663.363	0.0146085
663.441	0.0145417
663.519	0.0146162
663.597	0.0145747
663.675	0.0146104
663.753	0.0146151
663.831	0.0145847
663.910	0.0145242
663.988	0.0146603
664.066	0.0145908
664.144	0.0144868
664.222	0.0146145
664.300	0.0147096
664.378	0.0145395
664.456	0.0145968
664.535	0.0146379
664.613	0.0144877
664.691	0.0145882
664.769	0.0145733
664.847	0.0146744
664.925	0.0144892
665.003	0.0146354
665.081	0.0145295
665.160	0.0145781
665.238	0.0146124
665.316	0.0146009
665.394	0.0145636
665.472	0.0146217
665.550	0.0145942
665.628	0.0146405
665.706	0.0144993
665.785	0.0145504
665.863	0.0145260
665.941	0.0144688
666.019	0.0146214
666.097	0.0145879
666.175	0.0145948
666.253	0.0144682
666.331	0.0145140
666.410	0.0147052
666.488	0.0144762
666.566	0.0143128
666.644	0.0144633
666.722	0.0146368
666.800	0.0145090
666.878	0.0145772
666.956	0.0146329
667.035	0.0146562
667.113	0.0146355
667.191	0.0146102
667.269	0.0145895
667.347	0.0146824
667.425	0.0144823
667.503	0.0144623
667.581	0.0147005
667.660	0.0145622
667.738	0.0145520
667.816	0.0145551
667.894	0.0146088
667.972	0.0146357
668.050	0.0145821
668.128	0.0145872
668.206	0.0146138
668.285	0.0146319
668.363	0.0144636
668.441	0.0147923
668.519	0.0146482
668.597	0.0145776
668.675	0.0145356
668.753	0.0145526
668.831	0.0145304
668.910	0.0145155
668.988	0.0145731
669.066	0.0147033
669.144	0.0144838
669.222	0.0145415
669.300	0.0144735
669.378	0.0143910
669.456	0.0145411
669.535	0.0146937
669.613	0.0145202
669.691	0.0145970
669.769	0.0146079
669.847	0.0145464
669.925	0.0145689
670.003	0.0145633
670.081	0.0145100
670.160	0.0145383
670.238	0.0144902
670.316	0.0143870
670.394	0.0145556
670.472	0.0147481
670.550	0.0145669
670.628	0.0145617
670.706	0.0146748
670.785	0.0146339
670.863	0.0146197
670.941	0.0145556
671.019	0.0146140
671.097	0.0145005
671.175	0.0145780
671.253	0.0145911
671.331	0.0146946
671.410	0.0146549
671.488	0.0146178
671.566	0.0145873
671.644	0.0145960
671.722	0.0146599
671.800	0.0144985
671.878	0.0145330
671.956	0.0144956
672.035	0.0145338
672.113	0.0145429
672.191	0.0144327
672.269	0.0146577
672.347	0.0145388
672.425	0.0145927
672.503	0.0146333
672.581	0.0144921
672.660	0.0145567
672.738	0.0145811
672.816	0.0146444
672.894	0.0144900
672.972	0.0144308
673.050	0.0145875
673.128	0.0145758
673.206	0.0145612
673.285	0.0146352
673.363	0.0147027
673.441	0.0146330
673.519	0.0145193
673.597	0.0146268
673.675	0.0147216
673.753	0.0145568
673.831	0.0145426
673.910	0.0146227
673.988	0.0146696
674.066	0.0146313
674.144	0.0145559
674.222	0.0145945
674.300	0.0146095
674.378	0.0146318
674.456	0.0146112
674.535	0.0145831
674.613	0.0145726
674.691	0.0145856
674.769	0.0145071
674.847	0.0145042
674.925	0.0146946
675.003	0.0146177
675.081	0.0146113
675.160	0.0145719
675.238	0.0146087
675.316	0.0145891
675.394	0.0145953
675.472	0.0145168
675.550	0.0145137
675.628	0.0145914
675.706	0.0147378
675.785	0.0146799
675.863	0.0144222
675.941	0.0144865
676.019	0.0145577
676.097	0.0145806
676.175	0.0145588
676.253	0.0146246
676.331	0.0145706
676.410	0.0145778
676.488	0.0145888
676.566	0.0145815
676.644	0.0146986
676.722	0.0145911
676.800	0.0146715
676.878	0.0145137
676.956	0.0146226
677.035	0.0145560
677.113	0.0144861
677.191	0.0145902
677.269	0.0146859
677.347	0.0145217
677.425	0.0145702
677.503	0.0146193
677.581	0.0145534
677.660	0.0145570
677.738	0.0145103
677.816	0.0145244
677.894	0.0144345
677.972	0.0146393
678.050	0.0145551
678.128	0.0145133
678.206	0.0144932
678.285	0.0146307
678.363	0.0145425
678.441	0.0146667
678.519	0.0145895
678.597	0.0146246
678.675	0.0145696
678.753	0.0146356
678.831	0.0146307
678.910	0.0145291
678.988	0.0145815
679.066	0.0145226
679.144	0.0145284
679.222	0.0147369
679.300	0.0145206
679.378	0.0144894
679.456	0.0145943
679.535	0.0145637
679.613	0.0145210
679.691	0.0145327
679.769	0.0145113
679.847	0.0146489
679.925	0.0146841
680.003	0.0144650
680.081	0.0145142
680.160	0.0145624
680.238	0.0144884
680.316	0.0146140
680.394	0.0145638
680.472	0.0146138
680.550	0.0146329
680.628	0.0146285
680.706	0.0145906
680.785	0.0145699
680.863	0.0144991
680.941	0.0144511
681.019	0.0145270
681.097	0.0147026
681.175	0.0145863
681.253	0.0146658
681.331	0.0144366
681.410	0.0146245
681.488	0.0145072
681.566	0.0145905
681.644	0.0147454
681.722	0.0145779
681.800	0.0146452
681.878	0.0145184
681.956	0.0146469
682.035	0.0145351
682.113	0.0146174
682.191	0.0146249
682.269	0.0146487
682.347	0.0144697
682.425	0.0145959
682.503	0.0147121
682.581	0.0147178
682.660	0.0147584
682.738	0.0146912
682.816	0.0146046
682.894	0.0146761
682.972	0.0146605
683.050	0.0145760
683.128	0.0145746
683.206	0.0145248
683.285	0.0147207
683.363	0.0146508
683.441	0.0145244
683.519	0.0146023
683.597	0.0144022
683.675	0.0144804
683.753	0.0144920
683.831	0.0146984
683.910	0.0146558
683.988	0.0145058
684.066	0.0145271
684.144	0.0145865
684.222	0.0147505
684.300	0.0146487
684.378	0.0146972
684.456	0.0145490
684.535	0.0145176
684.613	0.0145380
684.691	0.0145229
684.769	0.0145055
684.847	0.0146318
684.925	0.0147694
685.003	0.0145927
685.081	0.0145326
685.160	0.0146204
685.238	0.0147440
685.316	0.0145740
685.394	0.0144640
685.472	0.0146785
685.550	0.0146533
685.628	0.0146410
685.706	0.0147437
685.785	0.0146028
685.863	0.0145835
685.941	0.0144927
686.019	0.0145526
686.097	0.0145818
686.175	0.0145885
686.253	0.0146648
686.331	0.0144927
686.410	0.0145808
686.488	0.0145383
686.566	0.0147514
686.644	0.0145960
686.722	0.0145998
686.800	0.0145380
686.878	0.0144499
686.956	0.0146951
687.035	0.0145944
687.113	0.0146545
687.191	0.0145893
687.269	0.0145512
687.347	0.0147747
687.425	0.0145860
687.503	0.0145448
687.581	0.0145884
687.660	0.0145750
687.738	0.0146344
687.816	0.0145381
687.894	0.0146053
687.972	0.0146567
688.050	0.0144778
688.128	0.0145786
688.206	0.0144836
688.285	0.0144702
688.363	0.0145200
688.441	0.0146982
688.519	0.0147228
688.597	0.0147204
688.675	0.0145455
688.753	0.0144807
688.831	0.0146277
688.910	0.0145054
688.988	0.0145181
689.066	0.0146755
689.144	0.0145308
689.222	0.0145852
689.300	0.0146676
689.378	0.0145071
689.456	0.0145878
689.535	0.0146837
689.613	0.0145090
689.691	0.0145023
689.769	0.0147056
689.847	0.0146304
689.925	0.0146284
690.003	0.0145279
690.081	0.0144920
690.160	0.0146603
690.238	0.0145390
690.316	0.0147573
690.394	0.0145039
690.472	0.0146361
690.550	0.0144979
690.628	0.0145135
690.706	0.0146371
690.785	0.0146851
690.863	0.0146635
690.941	0.0146599
691.019	0.0147340
691.097	0.0146236
691.175	0.0146687
691.253	0.0145819
691.331	0.0146199
691.410	0.0147019
691.488	0.0146942
691.566	0.0146082
691.644	0.0145397
691.722	0.0145976
691.800	0.0145841
691.878	0.0145384
691.956	0.0146939
692.035	0.0146886
692.113	0.0147171
692.191	0.0144433
692.269	0.0144997
692.347	0.0145041
692.425	0.0146397
692.503	0.0145499
692.581	0.0145812
692.660	0.0145622
692.738	0.0146292
692.816	0.0145995
692.894	0.0144870
692.972	0.0146571
693.050	0.0145097
693.128	0.0146240
693.206	0.0146666
693.285	0.0145591
693.363	0.0146571
693.441	0.0144631
693.519	0.0146097
693.597	0.0147063
693.675	0.0145631
693.753	0.0145277
693.831	0.0147135
693.910	0.0146376
693.988	0.0146120
694.066	0.0145694
694.144	0.0146600
694.222	0.0146915
694.300	0.0146414
694.378	0.0145824
694.456	0.0145912
694.535	0.0145956
694.613	0.0146209
694.691	0.0145560
694.769	0.0146391
694.847	0.0145167
694.925	0.0146092
695.003	0.0145017
695.081	0.0145745
695.160	0.0144984
695.238	0.0145455
695.316	0.0146534
695.394	0.0147362
695.472	0.0146552
695.550	0.0145589
695.628	0.0146365
695.706	0.0146289
695.785	0.0146554
695.863	0.0146375
695.941	0.0145791
696.019	0.0147053
696.097	0.0144650
696.175	0.0147420
696.253	0.0146639
696.331	0.0145256
696.410	0.0145351
696.488	0.0145940
696.566	0.0145188
696.644	0.0145640
696.722	0.0146728
696.800	0.0146286
696.878	0.0145923
696.956	0.0146058
697.035	0.0145347
697.113	0.0145315
697.191	0.0145387
697.269	0.0145837
697.347	0.0145026
697.425	0.0146378
697.503	0.0146179
697.581	0.0145380
697.660	0.0145290
697.738	0.0145396
697.816	0.0145033
697.894	0.0145695
697.972	0.0144558
698.050	0.0145821
698.128	0.0145353
698.206	0.0145633
698.285	0.0146301
698.363	0.0145155
698.441	0.0146194
698.519	0.0146277
698.597	0.0146401
698.675	0.0147417
698.753	0.0147604
698.831	0.0145581
698.910	0.0145153
698.988	0.0145856
699.066	0.0147372
699.144	0.0144978
699.222	0.0146895
699.300	0.0147056
699.378	0.0146360
699.456	0.0146333
699.535	0.0146855
699.613	0.0146529
699.691	0.0145792
699.769	0.0147384
699.847	0.0147103
699.925	0.0146230
700.003	0.0144893
700.081	0.0145444
700.160	0.0145130
700.238	0.0145287
700.316	0.0143051
700.394	0.0143985
700.472	0.0144010
700.550	0.0143358
700.628	0.0143050
700.706	0.0143930
700.785	0.0146636
700.863	0.0146127
700.941	0.0148427
701.019	0.0150246
701.097	0.0151335
701.175	0.0150690
701.253	0.0149445
701.331	0.0148674
701.410	0.0146732
701.488	0.0143317
701.566	0.0139789
701.644	0.0137811
701.722	0.0136065
701.800	0.0133975
701.878	0.0132341
701.956	0.0132344
702.035	0.0133102
702.113	0.0135279
702.191	0.0136661
702.269	0.0139371
702.347	0.0144561
702.425	0.0150624
702.503	0.0155052
702.581	0.0159464
702.660	0.0165465
702.738	0.0171922
702.816	0.0176584
702.894	0.0179108
702.972	0.0180396
703.050	0.0181158
703.128	0.0180116
703.206	0.0176314
703.285	0.0171095
703.363	0.0163917
703.441	0.0156100
703.519	0.0144083
703.597	0.0134310
703.675	0.0120164
703.753	0.0106317
703.831	0.00955353
703.910	0.00834328
703.988	0.00761795
704.066	0.00748589
704.144	0.00764969
704.222	0.00830505
704.300	0.00940094
704.378	0.0105818
704.456	0.0120047
704.535	0.0135386
704.613	0.0148865
704.691	0.0160047
704.769	0.0169803
704.847	0.0179021
704.925	0.0185488
705.003	0.0190768
705.081	0.0195856
705.160	0.0201379
705.238	0.0206323
705.316	0.0211106
705.394	0.0214767
705.472	0.0216649
705.550	0.0218059
705.628	0.0215573
705.706	0.0208456
705.785	0.0199732
705.863	0.0187135
705.941	0.0174067
706.019	0.0158270
706.097	0.0140544
706.175	0.0124273
706.253	0.0109732
706.331	0.00947510
706.410	0.00810539
706.488	0.00685410
706.566	0.00617767
706.644	0.00565941
706.722	0.00529465
706.800	0.00542046
706.878	0.00575493
706.956	0.00635849
707.035	0.00717751
707.113	0.00814049
707.191	0.00917747
707.269	0.0103141
707.347	0.0114268
707.425	0.0125831
707.503	0.0139445
707.581	0.0150668
707.660	0.0163371
707.738	0.0176399
707.816	0.0188165
707.894	0.0197635
707.972	0.0209105
708.050	0.0219833
708.128	0.0227221
708.206	0.0236560
708.285	0.0244378
708.363	0.0249184
708.441	0.0251283
708.519	0.0250270
708.597	0.0249033
708.675	0.0242666
708.753	0.0231493
708.831	0.0217767
708.910	0.0202209
708.988	0.0185519
709.066	0.0166061
709.144	0.0147811
709.222	0.0125495
709.300	0.0104903
709.378	0.00859024
709.456	0.00695763
709.535	0.00552658
709.613	0.00427597
709.691	0.00364853
709.769	0.00331474
709.847	0.00342979
709.925	0.00386292
710.003	0.00440994
710.081	0.00546333
710.160	0.00647064
710.238	0.00758858
710.316	0.00874657
710.394	0.0100536
710.472	0.0109053
710.550	0.0118300
710.628	0.0128082
710.706	0.0135218
710.785	0.0143107
710.863	0.0150011
710.941	0.0160044
711.019	0.0168768
711.097	0.0180357
711.175	0.0191145
711.253	0.0204993
711.331	0.0219091
711.410	0.0228991
711.488	0.0241882
711.566	0.0248756
711.644	0.0253745
711.722	0.0255808
711.800	0.0254729
711.878	0.0248923
711.956	0.0240682
712.035	0.0229192
712.113	0.0216374
712.191	0.0198763
712.269	0.0180978
712.347	0.0164494
712.425	0.0146703
712.503	0.0130847
712.581	0.0114640
712.660	0.00998367
712.738	0.00904564
712.816	0.00819389
712.894	0.00775429
712.972	0.00730568
713.050	0.00701874
713.128	0.00701347
713.206	0.00734009
713.285	0.00759712
713.363	0.00791183
713.441	0.00830269
713.519	0.00888794
713.597	0.00912918
713.675	0.00969437
713.753	0.00998520
713.831	0.0105228
713.910	0.0106926
713.988	0.0111376
714.066	0.0115324
714.144	0.0119650
714.222	0.0124008
714.300	0.0129643
714.378	0.0136987
714.456	0.0146156
714.535	0.0156474
714.613	0.0165083
714.691	0.0177181
714.769	0.0189307
714.847	0.0199199
714.925	0.0209743
715.003	0.0218505
715.081	0.0221927
715.160	0.0224593
715.238	0.0224982
715.316	0.0218921
715.394	0.0213788
715.472	0.0204764
715.550	0.0197291
715.628	0.0189204
715.706	0.0182847
715.785	0.0176414
715.863	0.0169069
715.941	0.0166879
716.019	0.0161040
716.097	0.0156078
716.175	0.0153269
716.253	0.0146607
716.331	0.0140132
716.410	0.0133781
716.488	0.0125203
716.566	0.0117542
716.644	0.0109801
716.722	0.0103423
716.800	0.00966774
716.878	0.00904152
716.956	0.00867409
717.035	0.00843422
717.113	0.00846428
717.191	0.00862831
717.269	0.00873245
717.347	0.00883667
717.425	0.00932335
717.503	0.00995285
717.581	0.0104943
717.660	0.0110441
717.738	0.0115559
717.816	0.0122275
717.894	0.0127473
717.972	0.0131868
718.050	0.0139252
718.128	0.0145080
718.206	0.0150543
718.285	0.0157207
718.363	0.0165285
718.441	0.0171242
718.519	0.0175947
718.597	0.0182386
718.675	0.0187782
718.753	0.0195633
718.831	0.0197973
718.910	0.0198403
718.988	0.0197672
719.066	0.0197688
719.144	0.0196605
719.222	0.0195443
719.300	0.0191763
719.378	0.0188600
719.456	0.0186301
719.535	0.0182557
719.613	0.0179475
719.691	0.0173823
719.769	0.0168890
719.847	0.0164508
719.925	0.0157051
720.003	0.0150202
720.081	0.0145052
720.160	0.0139375
720.238	0.0133434
720.316	0.0129524
720.394	0.0124946
720.472	0.0121054
720.550	0.0118121
720.628	0.0115379
720.706	0.0111261
720.785	0.0110687
720.863	0.0109924
720.941	0.0109287
721.019	0.0108842
721.097	0.0107990
721.175	0.0109420
721.253	0.0108799
721.331	0.0109207
721.410	0.0109382
721.488	0.0110226
721.566	0.0112372
721.644	0.0113889
721.722	0.0117199
721.800	0.0120514
721.878	0.0124907
721.956	0.0127471
722.035	0.0132432
722.113	0.0136704
722.191	0.0141901
722.269	0.0147871
722.347	0.0154120
722.425	0.0159693
722.503	0.0164224
722.581	0.0169883
722.660	0.0173852
722.738	0.0178892
722.816	0.0182397
722.894	0.0185800
722.972	0.0187327
723.050	0.0188814
723.128	0.0187166
723.206	0.0185798
723.285	0.0183257
723.363	0.0178083
723.441	0.0175089
723.519	0.0172202
723.597	0.0167599
723.675	0.0164857
723.753	0.0162701
723.831	0.0161954
723.910	0.0159182
723.988	0.0156400
724.066	0.0155246
724.144	0.0154367
724.222	0.0152957
724.300	0.0149644
724.378	0.0147120
724.456	0.0144489
724.535	0.0141159
724.613	0.0139707
724.691	0.0137258
724.769	0.0132620
724.847	0.0130170
724.925	0.0127806
725.003	0.0125571
725.081	0.0121897
725.160	0.0120036
725.238	0.0119099
725.316	0.0119473
725.394	0.0118224
725.472	0.0118872
725.550	0.0118221
725.628	0.0119426
725.706	0.0121346
725.785	0.0120671
725.863	0.0120523
725.941	0.0120177
726.019	0.0122972
726.097	0.0123241
726.175	0.0123286
726.253	0.0125414
726.331	0.0126716
726.410	0.0128854
726.488	0.0132078
726.566	0.0135540
726.644	0.0140638
726.722	0.0144397
726.800	0.0148637
726.878	0.0152930
726.956	0.0158226
727.035	0.0161034
727.113	0.0165553
727.191	0.0171056
727.269	0.0173338
727.347	0.0175468
727.425	0.0177003
727.503	0.0179102
727.581	0.0179173
727.660	0.0177792
727.738	0.0177990
727.816	0.0177410
727.894	0.0176090
727.972	0.0174189
728.050	0.0171011
728.128	0.0169464
728.206	0.0167496
728.285	0.0163848
728.363	0.0161185
728.441	0.0157677
728.519	0.0156560
728.597	0.0153303
728.675	0.0150708
728.753	0.0148531
728.831	0.0146349
728.910	0.0144076
728.988	0.0142873
729.066	0.0141506
729.144	0.0140382
729.222	0.0139857
729.300	0.0137878
729.378	0.0136352
729.456	0.0135470
729.535	0.0133521
729.613	0.0131641
729.691	0.0129569
729.769	0.0127131
729.847	0.0126624
729.925	0.0124529
730.003	0.0122735
730.081	0.0121733
730.160	0.0120519
730.238	0.0118487
730.316	0.0117199
730.394	0.0117374
730.472	0.0115124
730.550	0.0115885
730.628	0.0117790
730.706	0.0120282
730.785	0.0121812
730.863	0.0125595
730.941	0.0127906
731.019	0.0132555
731.097	0.0135770
731.175	0.0141565
731.253	0.0147793
731.331	0.0151006
731.410	0.0156178
731.488	0.0160464
731.566	0.0162945
731.644	0.0165906
731.722	0.0166573
731.800	0.0166097
731.878	0.0168434
731.956	0.0168939
732.035	0.0167737
732.113	0.0167322
732.191	0.0167282
732.269	0.0165897
732.347	0.0164617
732.425	0.0165252
732.503	0.0164229
732.581	0.0164274
732.660	0.0162355
732.738	0.0163246
732.816	0.0164193
732.894	0.0164619
732.972	0.0165778
733.050	0.0165686
733.128	0.0166259
733.206	0.0165810
733.285	0.0164528
733.363	0.0161572
733.441	0.0158672
733.519	0.0156091
733.597	0.0153060
733.675	0.0147553
733.753	0.0144485
733.831	0.0140018
733.910	0.0135035
733.988	0.0132094
734.066	0.0128925
734.144	0.0125164
734.222	0.0123368
734.300	0.0121162
734.378	0.0120742
734.456	0.0120353
734.535	0.0120370
734.613	0.0122800
734.691	0.0123610
734.769	0.0123009
734.847	0.0125859
734.925	0.0126633
735.003	0.0128500
735.081	0.0129616
735.160	0.0129903
735.238	0.0130569
735.316	0.0131590
735.394	0.0132079
735.472	0.0130980
735.550	0.0131783
735.628	0.0132859
735.706	0.0134187
735.785	0.0136649
735.863	0.0136968
735.941	0.0138868
736.019	0.0142576
736.097	0.0146156
736.175	0.0146760
736.253	0.0149197
736.331	0.0151540
736.410	0.0154189
736.488	0.0155790
736.566	0.0158793
736.644	0.0160666
736.722	0.0160455
736.800	0.0161485
736.878	0.0162199
736.956	0.0162552
737.035	0.0164488
737.113	0.0165372
737.191	0.0165388
737.269	0.0166155
737.347	0.0166852
737.425	0.0167589
737.503	0.0166275
737.581	0.0165165
737.660	0.0165904
737.738	0.0165842
737.816	0.0164973
737.894	0.0162900
737.972	0.0162132
738.050	0.0160498
738.128	0.0159601
738.206	0.0158990
738.285	0.0155086
738.363	0.0152142
738.441	0.0151631
738.519	0.0149765
738.597	0.0146732
738.675	0.0144309
738.753	0.0142281
738.831	0.0140191
738.910	0.0136374
738.988	0.0135475
739.066	0.0133267
739.144	0.0131399
739.222	0.0131344
739.300	0.0129820
739.378	0.0129115
739.456	0.0129246
739.535	0.0128810
739.613	0.0128496
739.691	0.0127710
739.769	0.0127793
739.847	0.0126504
739.925	0.0125277
740.003	0.0124274
740.081	0.0124049
740.160	0.0123179
740.238	0.0121937
740.316	0.0123328
740.394	0.0123661
740.472	0.0124958
740.550	0.0126070
740.628	0.0128481
740.706	0.0131320
740.785	0.0134512
740.863	0.0137937
740.941	0.0141705
741.019	0.0144908
741.097	0.0147288
741.175	0.0149383
741.253	0.0150805
741.331	0.0152827
741.410	0.0156146
741.488	0.0157281
741.566	0.0158318
741.644	0.0161295
741.722	0.0162678
741.800	0.0163657
741.878	0.0163717
741.956	0.0166436
742.035	0.0169274
742.113	0.0171194
742.191	0.0171947
742.269	0.0171588
742.347	0.0172078
742.425	0.0170562
742.503	0.0171642
742.581	0.0169307
742.660	0.0168558
742.738	0.0166573
742.816	0.0164804
742.894	0.0162093
742.972	0.0160273
743.050	0.0158555
743.128	0.0155545
743.206	0.0153884
743.285	0.0152239
743.363	0.0148759
743.441	0.0146970
743.519	0.0145319
743.597	0.0141914
743.675	0.0139719
743.753	0.0137910
743.831	0.0135355
743.910	0.0131876
743.988	0.0130181
744.066	0.0127540
744.144	0.0125858
744.222	0.0124732
744.300	0.0125050
744.378	0.0124272
744.456	0.0123578
744.535	0.0124553
744.613	0.0122349
744.691	0.0123187
744.769	0.0123724
744.847	0.0123898
744.925	0.0125037
745.003	0.0127986
745.081	0.0128683
745.160	0.0131833
745.238	0.0133807
745.316	0.0136140
745.394	0.0138342
745.472	0.0140628
