05/03/2022	19:56:35	Ver.	4.1	UNKNOWN
Optical Delay	660.009933	Delta X		0.078125	Sweeps	1	Scan Rate	0/0
Coordinates	Axis 1	NaN	Axis 2	NaN	Axis 3	NaN	Axis 4	NaN	Axis 5	NaN	Axis 6	0.000000
TX Power	0.000000	RX Power	0.000000

660.010	0.0149113
660.088	0.0148952
660.166	0.0149096
660.244	0.0147720
660.322	0.0149693
660.401	0.0149639
660.479	0.0150336
660.557	0.0151109
660.635	0.0149766
660.713	0.0149834
660.791	0.0148389
660.869	0.0149426
660.947	0.0150482
661.026	0.0149344
661.104	0.0149615
661.182	0.0149732
661.260	0.0149747
661.338	0.0149230
661.416	0.0149450
661.494	0.0149811
661.572	0.0148637
661.651	0.0149068
661.729	0.0149162
661.807	0.0149420
661.885	0.0150297
661.963	0.0150011
662.041	0.0149015
662.119	0.0149306
662.197	0.0148425
662.276	0.0150408
662.354	0.0150668
662.432	0.0147968
662.510	0.0148777
662.588	0.0149230
662.666	0.0150029
662.744	0.0148131
662.822	0.0149942
662.901	0.0149164
662.979	0.0148295
663.057	0.0149654
663.135	0.0149493
663.213	0.0150883
663.291	0.0149625
663.369	0.0150282
663.447	0.0149139
663.526	0.0149542
663.604	0.0149490
663.682	0.0149619
663.760	0.0149298
663.838	0.0148835
663.916	0.0149911
663.994	0.0149104
664.072	0.0149065
664.151	0.0149122
664.229	0.0149392
664.307	0.0148628
664.385	0.0149345
664.463	0.0149764
664.541	0.0151301
664.619	0.0149571
664.697	0.0150074
664.776	0.0148563
664.854	0.0149114
664.932	0.0149934
665.010	0.0149284
665.088	0.0148461
665.166	0.0149061
665.244	0.0149888
665.322	0.0149964
665.401	0.0149723
665.479	0.0149617
665.557	0.0148332
665.635	0.0149369
665.713	0.0147806
665.791	0.0147601
665.869	0.0148274
665.947	0.0150172
666.026	0.0149150
666.104	0.0150245
666.182	0.0150166
666.260	0.0148993
666.338	0.0147942
666.416	0.0149123
666.494	0.0150211
666.572	0.0149995
666.651	0.0148356
666.729	0.0150262
666.807	0.0149477
666.885	0.0149580
666.963	0.0149138
667.041	0.0148509
667.119	0.0150047
667.197	0.0148711
667.276	0.0150288
667.354	0.0149368
667.432	0.0149434
667.510	0.0150721
667.588	0.0149133
667.666	0.0148535
667.744	0.0148752
667.822	0.0148395
667.901	0.0149380
667.979	0.0149371
668.057	0.0148753
668.135	0.0149377
668.213	0.0149477
668.291	0.0150313
668.369	0.0149739
668.447	0.0149860
668.526	0.0149081
668.604	0.0149449
668.682	0.0148495
668.760	0.0149055
668.838	0.0150309
668.916	0.0149566
668.994	0.0148573
669.072	0.0149033
669.151	0.0149637
669.229	0.0150140
669.307	0.0149425
669.385	0.0149573
669.463	0.0148336
669.541	0.0148832
669.619	0.0149660
669.697	0.0148000
669.776	0.0149401
669.854	0.0149612
669.932	0.0150175
670.010	0.0150245
670.088	0.0148587
670.166	0.0148991
670.244	0.0150430
670.322	0.0148796
670.401	0.0148417
670.479	0.0147972
670.557	0.0149722
670.635	0.0149648
670.713	0.0149894
670.791	0.0148959
670.869	0.0149048
670.947	0.0150318
671.026	0.0150018
671.104	0.0149337
671.182	0.0149313
671.260	0.0148940
671.338	0.0149216
671.416	0.0150268
671.494	0.0150806
671.572	0.0149591
671.651	0.0147965
671.729	0.0148022
671.807	0.0149281
671.885	0.0148829
671.963	0.0149020
672.041	0.0149065
672.119	0.0149335
672.197	0.0149976
672.276	0.0150945
672.354	0.0151856
672.432	0.0148811
672.510	0.0149358
672.588	0.0148927
672.666	0.0148509
672.744	0.0149657
672.822	0.0149876
672.901	0.0149191
672.979	0.0149893
673.057	0.0148380
673.135	0.0149529
673.213	0.0149232
673.291	0.0148702
673.369	0.0149489
673.447	0.0149348
673.526	0.0149288
673.604	0.0149843
673.682	0.0148832
673.760	0.0149303
673.838	0.0149436
673.916	0.0150169
673.994	0.0150002
674.072	0.0151080
674.151	0.0150456
674.229	0.0148425
674.307	0.0149464
674.385	0.0150396
674.463	0.0150314
674.541	0.0147495
674.619	0.0149335
674.697	0.0150493
674.776	0.0148950
674.854	0.0149309
674.932	0.0150082
675.010	0.0149199
675.088	0.0149809
675.166	0.0149001
675.244	0.0149416
675.322	0.0149427
675.401	0.0148116
675.479	0.0149642
675.557	0.0148709
675.635	0.0149908
675.713	0.0149585
675.791	0.0149676
675.869	0.0150051
675.947	0.0150930
676.026	0.0150642
676.104	0.0148974
676.182	0.0149525
676.260	0.0149072
676.338	0.0149202
676.416	0.0149075
676.494	0.0148776
676.572	0.0149696
676.651	0.0149991
676.729	0.0151048
676.807	0.0149232
676.885	0.0149212
676.963	0.0149156
677.041	0.0149240
677.119	0.0149651
677.197	0.0150336
677.276	0.0149403
677.354	0.0149142
677.432	0.0149588
677.510	0.0147667
677.588	0.0149841
677.666	0.0149740
677.744	0.0149971
677.822	0.0148820
677.901	0.0150302
677.979	0.0148795
678.057	0.0148755
678.135	0.0148784
678.213	0.0150164
678.291	0.0150583
678.369	0.0148634
678.447	0.0148198
678.526	0.0150060
678.604	0.0150577
678.682	0.0150941
678.760	0.0149608
678.838	0.0148910
678.916	0.0148548
678.994	0.0149360
679.072	0.0149954
679.151	0.0150342
679.229	0.0149723
679.307	0.0149694
679.385	0.0150086
679.463	0.0150024
679.541	0.0149578
679.619	0.0148158
679.697	0.0150700
679.776	0.0149314
679.854	0.0148580
679.932	0.0149886
680.010	0.0149939
680.088	0.0149500
680.166	0.0149423
680.244	0.0149977
680.322	0.0150123
680.401	0.0148820
680.479	0.0150523
680.557	0.0149899
680.635	0.0148019
680.713	0.0149073
680.791	0.0150008
680.869	0.0147995
680.947	0.0149370
681.026	0.0149711
681.104	0.0149177
681.182	0.0149222
681.260	0.0149749
681.338	0.0148949
681.416	0.0149730
681.494	0.0149436
681.572	0.0149660
681.651	0.0149314
681.729	0.0148289
681.807	0.0148494
681.885	0.0148769
681.963	0.0147929
682.041	0.0148556
682.119	0.0148617
682.197	0.0149978
682.276	0.0150159
682.354	0.0149667
682.432	0.0148779
682.510	0.0148624
682.588	0.0148055
682.666	0.0148531
682.744	0.0149152
682.822	0.0147601
682.901	0.0148711
682.979	0.0148502
683.057	0.0148201
683.135	0.0148557
683.213	0.0149656
683.291	0.0150287
683.369	0.0149435
683.447	0.0148639
683.526	0.0149824
683.604	0.0149847
683.682	0.0149593
683.760	0.0148751
683.838	0.0149216
683.916	0.0149511
683.994	0.0148710
684.072	0.0149485
684.151	0.0149115
684.229	0.0146930
684.307	0.0150181
684.385	0.0150191
684.463	0.0148663
684.541	0.0148297
684.619	0.0149527
684.697	0.0148047
684.776	0.0148120
684.854	0.0147134
684.932	0.0148653
685.010	0.0149090
685.088	0.0149624
685.166	0.0149719
685.244	0.0149694
685.322	0.0148422
685.401	0.0147766
685.479	0.0149882
685.557	0.0149917
685.635	0.0148959
685.713	0.0148573
685.791	0.0148367
685.869	0.0149390
685.947	0.0149969
686.026	0.0148792
686.104	0.0148488
686.182	0.0147991
686.260	0.0147827
686.338	0.0147725
686.416	0.0149084
686.494	0.0149792
686.572	0.0149702
686.651	0.0149104
686.729	0.0148019
686.807	0.0149222
686.885	0.0149217
686.963	0.0149408
687.041	0.0149571
687.119	0.0148102
687.197	0.0149693
687.276	0.0149123
687.354	0.0147546
687.432	0.0150044
687.510	0.0147469
687.588	0.0148705
687.666	0.0150163
687.744	0.0148444
687.822	0.0150798
687.901	0.0150152
687.979	0.0149039
688.057	0.0150471
688.135	0.0149155
688.213	0.0148483
688.291	0.0149543
688.369	0.0148826
688.447	0.0149905
688.526	0.0148656
688.604	0.0149646
688.682	0.0150725
688.760	0.0150095
688.838	0.0149171
688.916	0.0149622
688.994	0.0149355
689.072	0.0150155
689.151	0.0149879
689.229	0.0149775
689.307	0.0150388
689.385	0.0147867
689.463	0.0148059
689.541	0.0150428
689.619	0.0149512
689.697	0.0150526
689.776	0.0149624
689.854	0.0147672
689.932	0.0149034
690.010	0.0148768
690.088	0.0148524
690.166	0.0149043
690.244	0.0148843
690.322	0.0149550
690.401	0.0149792
690.479	0.0149071
690.557	0.0149078
690.635	0.0149320
690.713	0.0150228
690.791	0.0150475
690.869	0.0148801
690.947	0.0149096
691.026	0.0150271
691.104	0.0149486
691.182	0.0149784
691.260	0.0149532
691.338	0.0149550
691.416	0.0150652
691.494	0.0149291
691.572	0.0149538
691.651	0.0149794
691.729	0.0150104
691.807	0.0150063
691.885	0.0149744
691.963	0.0150095
692.041	0.0148244
692.119	0.0148336
692.197	0.0150743
692.276	0.0148279
692.354	0.0149579
692.432	0.0151051
692.510	0.0150570
692.588	0.0150723
692.666	0.0149551
692.744	0.0149699
692.822	0.0147041
692.901	0.0148734
692.979	0.0148623
693.057	0.0149255
693.135	0.0149733
693.213	0.0149670
693.291	0.0149166
693.369	0.0149159
693.447	0.0149590
693.526	0.0147533
693.604	0.0149164
693.682	0.0148816
693.760	0.0148619
693.838	0.0150496
693.916	0.0149597
693.994	0.0149096
694.072	0.0149023
694.151	0.0149089
694.229	0.0151371
694.307	0.0149461
694.385	0.0149494
694.463	0.0149174
694.541	0.0149561
694.619	0.0148278
694.697	0.0147840
694.776	0.0148444
694.854	0.0148915
694.932	0.0148510
695.010	0.0150440
695.088	0.0150826
695.166	0.0148644
695.244	0.0149956
695.322	0.0148937
695.401	0.0148378
695.479	0.0149573
695.557	0.0149725
695.635	0.0149458
695.713	0.0149234
695.791	0.0149854
695.869	0.0148848
695.947	0.0149297
696.026	0.0149799
696.104	0.0149905
696.182	0.0150024
696.260	0.0150089
696.338	0.0150385
696.416	0.0149908
696.494	0.0149120
696.572	0.0150577
696.651	0.0150137
696.729	0.0148977
696.807	0.0150231
696.885	0.0148856
696.963	0.0148843
697.041	0.0149927
697.119	0.0149737
697.197	0.0148949
697.276	0.0150057
697.354	0.0150372
697.432	0.0149210
697.510	0.0148244
697.588	0.0149261
697.666	0.0150027
697.744	0.0150375
697.822	0.0149747
697.901	0.0149986
697.979	0.0149335
698.057	0.0149442
698.135	0.0149683
698.213	0.0148785
698.291	0.0149628
698.369	0.0150261
698.447	0.0148641
698.526	0.0149773
698.604	0.0150276
698.682	0.0150359
698.760	0.0149033
698.838	0.0148681
698.916	0.0150430
698.994	0.0149622
699.072	0.0149554
699.151	0.0148745
699.229	0.0150431
699.307	0.0149147
699.385	0.0149672
699.463	0.0151110
699.541	0.0149838
699.619	0.0149788
699.697	0.0149904
699.776	0.0148891
699.854	0.0149987
699.932	0.0150477
700.010	0.0150216
700.088	0.0149026
700.166	0.0148588
700.244	0.0150241
700.322	0.0149954
700.401	0.0148806
700.479	0.0149743
700.557	0.0148588
700.635	0.0149097
700.713	0.0150235
700.791	0.0149071
700.869	0.0149618
700.947	0.0149554
701.026	0.0151109
701.104	0.0149456
701.182	0.0149339
701.260	0.0149810
701.338	0.0148153
701.416	0.0148614
701.494	0.0149638
701.572	0.0149705
701.651	0.0149292
701.729	0.0149765
701.807	0.0150222
701.885	0.0150578
701.963	0.0149908
702.041	0.0149235
702.119	0.0151305
702.197	0.0149609
702.276	0.0150319
702.354	0.0149908
702.432	0.0150239
702.510	0.0149654
702.588	0.0149371
702.666	0.0150092
702.744	0.0150397
702.822	0.0149685
702.901	0.0149506
702.979	0.0148879
703.057	0.0148667
703.135	0.0148442
703.213	0.0149106
703.291	0.0149651
703.369	0.0149744
703.447	0.0149744
703.526	0.0149515
703.604	0.0147812
703.682	0.0149904
703.760	0.0149377
703.838	0.0148644
703.916	0.0149796
703.994	0.0151162
704.072	0.0150697
704.151	0.0149453
704.229	0.0149251
704.307	0.0149864
704.385	0.0149176
704.463	0.0149886
704.541	0.0149795
704.619	0.0150038
704.697	0.0149432
704.776	0.0149896
704.854	0.0149262
704.932	0.0149584
705.010	0.0149235
705.088	0.0148628
705.166	0.0149635
705.244	0.0149901
705.322	0.0149093
705.401	0.0149300
705.479	0.0151781
705.557	0.0150214
705.635	0.0149347
705.713	0.0150867
705.791	0.0150048
705.869	0.0151167
705.947	0.0150845
706.026	0.0151452
706.104	0.0151882
706.182	0.0149502
706.260	0.0150012
706.338	0.0149059
706.416	0.0150143
706.494	0.0150020
706.572	0.0149372
706.651	0.0148631
706.729	0.0146870
706.807	0.0147249
706.885	0.0148362
706.963	0.0148210
707.041	0.0149581
707.119	0.0148672
707.197	0.0148057
707.276	0.0149615
707.354	0.0149355
707.432	0.0150901
707.510	0.0150579
707.588	0.0150887
707.666	0.0150378
707.744	0.0149699
707.822	0.0152230
707.901	0.0150493
707.979	0.0150298
708.057	0.0150646
708.135	0.0149952
708.213	0.0149834
708.291	0.0150012
708.369	0.0150605
708.447	0.0149731
708.526	0.0148649
708.604	0.0147494
708.682	0.0147614
708.760	0.0146329
708.838	0.0146508
708.916	0.0143869
708.994	0.0143007
709.072	0.0142027
709.151	0.0140220
709.229	0.0140178
709.307	0.0141348
709.385	0.0142388
709.463	0.0144279
709.541	0.0147041
709.619	0.0151274
709.697	0.0151744
709.776	0.0154620
709.854	0.0157764
709.932	0.0156477
710.010	0.0155341
710.088	0.0154176
710.166	0.0151694
710.244	0.0149696
710.322	0.0144640
710.401	0.0142767
710.479	0.0139980
710.557	0.0140832
710.635	0.0140112
710.713	0.0140164
710.791	0.0140493
710.869	0.0143333
710.947	0.0147023
711.026	0.0148818
711.104	0.0151052
711.182	0.0153642
711.260	0.0155657
711.338	0.0157320
711.416	0.0158644
711.494	0.0159553
711.572	0.0159430
711.651	0.0159889
711.729	0.0160737
711.807	0.0159931
711.885	0.0160210
711.963	0.0158090
712.041	0.0156997
712.119	0.0155151
712.197	0.0154034
712.276	0.0152632
712.354	0.0150932
712.432	0.0148903
712.510	0.0148881
712.588	0.0147562
712.666	0.0145775
712.744	0.0145747
712.822	0.0144946
712.901	0.0146257
712.979	0.0143771
713.057	0.0143925
713.135	0.0146011
713.213	0.0143764
713.291	0.0145130
713.369	0.0146366
713.447	0.0145824
713.526	0.0147565
713.604	0.0148513
713.682	0.0149916
713.760	0.0152261
713.838	0.0153004
713.916	0.0154129
713.994	0.0153636
714.072	0.0154592
714.151	0.0154040
714.229	0.0151003
714.307	0.0152263
714.385	0.0150301
714.463	0.0148180
714.541	0.0146507
714.619	0.0142414
714.697	0.0140150
714.776	0.0138310
714.854	0.0136909
714.932	0.0135378
715.010	0.0136001
715.088	0.0136194
715.166	0.0136527
715.244	0.0138680
715.322	0.0140942
715.401	0.0143594
715.479	0.0145768
715.557	0.0148513
715.635	0.0152026
715.713	0.0155846
715.791	0.0159102
715.869	0.0160301
715.947	0.0161347
716.026	0.0163228
716.104	0.0164387
716.182	0.0164354
716.260	0.0164112
716.338	0.0163686
716.416	0.0162218
716.494	0.0160627
716.572	0.0159641
716.651	0.0158714
716.729	0.0157529
716.807	0.0154385
716.885	0.0154659
716.963	0.0151289
717.041	0.0149241
717.119	0.0147590
717.197	0.0145963
717.276	0.0144539
717.354	0.0140604
717.432	0.0139601
717.510	0.0139273
717.588	0.0138555
717.666	0.0136419
717.744	0.0135263
717.822	0.0136531
717.901	0.0134427
717.979	0.0134160
718.057	0.0135780
718.135	0.0137853
718.213	0.0138262
718.291	0.0139282
718.369	0.0142322
718.447	0.0144489
718.526	0.0148370
718.604	0.0148675
718.682	0.0151923
718.760	0.0156367
718.838	0.0157310
718.916	0.0158041
718.994	0.0160089
719.072	0.0162601
719.151	0.0164481
719.229	0.0163969
719.307	0.0163974
719.385	0.0165749
719.463	0.0166026
719.541	0.0163909
719.619	0.0161890
719.697	0.0160252
719.776	0.0160455
719.854	0.0159361
719.932	0.0154549
720.010	0.0153490
720.088	0.0151408
720.166	0.0149615
720.244	0.0148569
720.322	0.0146133
720.401	0.0145235
720.479	0.0143059
720.557	0.0143512
720.635	0.0141032
720.713	0.0140889
720.791	0.0140619
720.869	0.0140193
720.947	0.0140672
721.026	0.0139845
721.104	0.0140176
721.182	0.0137965
721.260	0.0138437
721.338	0.0139521
721.416	0.0138919
721.494	0.0138333
721.572	0.0137487
721.651	0.0138457
721.729	0.0138436
721.807	0.0138769
721.885	0.0137080
721.963	0.0139399
722.041	0.0138646
722.119	0.0139436
722.197	0.0140898
722.276	0.0142407
722.354	0.0145036
722.432	0.0145650
722.510	0.0147054
722.588	0.0149606
722.666	0.0152279
722.744	0.0154592
722.822	0.0156522
722.901	0.0157570
722.979	0.0157463
723.057	0.0161477
723.135	0.0161966
723.213	0.0162718
723.291	0.0162296
723.369	0.0162041
723.447	0.0164115
723.526	0.0163990
723.604	0.0162156
723.682	0.0162252
723.760	0.0160885
723.838	0.0161313
723.916	0.0158886
723.994	0.0160401
724.072	0.0159386
724.151	0.0158900
724.229	0.0157910
724.307	0.0157780
724.385	0.0156021
724.463	0.0154344
724.541	0.0154642
724.619	0.0153864
724.697	0.0151273
724.776	0.0149672
724.854	0.0148589
724.932	0.0148652
725.010	0.0146845
725.088	0.0145340
725.166	0.0144057
725.244	0.0143428
725.322	0.0141930
725.401	0.0141180
725.479	0.0142448
725.557	0.0139117
725.635	0.0139710
725.713	0.0137472
725.791	0.0136388
725.869	0.0136498
725.947	0.0137390
726.026	0.0137037
726.104	0.0135753
726.182	0.0136141
726.260	0.0137337
726.338	0.0138000
726.416	0.0137815
726.494	0.0139172
726.572	0.0138481
726.651	0.0140422
726.729	0.0141705
726.807	0.0142265
726.885	0.0142506
726.963	0.0143548
727.041	0.0144183
727.119	0.0146257
727.197	0.0146862
727.276	0.0147595
727.354	0.0150033
727.432	0.0149371
727.510	0.0150929
727.588	0.0153011
727.666	0.0156095
727.744	0.0158875
727.822	0.0159391
727.901	0.0161891
727.979	0.0161916
728.057	0.0161774
728.135	0.0164024
728.213	0.0164126
728.291	0.0164713
728.369	0.0165459
728.447	0.0163998
728.526	0.0164022
728.604	0.0163931
728.682	0.0162271
728.760	0.0161500
728.838	0.0161200
728.916	0.0159793
728.994	0.0159132
729.072	0.0158006
729.151	0.0157378
729.229	0.0155975
729.307	0.0154693
729.385	0.0152117
729.463	0.0151624
729.541	0.0150872
729.619	0.0149989
729.697	0.0148932
729.776	0.0148164
729.854	0.0147143
729.932	0.0146538
730.010	0.0145100
730.088	0.0145727
730.166	0.0144139
730.244	0.0143587
730.322	0.0142390
730.401	0.0141537
730.479	0.0141232
730.557	0.0140462
730.635	0.0138818
730.713	0.0137443
730.791	0.0138097
730.869	0.0137254
730.947	0.0135133
731.026	0.0137012
731.104	0.0136858
731.182	0.0134637
731.260	0.0136376
731.338	0.0137450
731.416	0.0136667
731.494	0.0136724
731.572	0.0138367
731.651	0.0139146
731.729	0.0139589
731.807	0.0141576
731.885	0.0143749
731.963	0.0145033
732.041	0.0145126
732.119	0.0144542
732.197	0.0146128
732.276	0.0146575
732.354	0.0146487
732.432	0.0148518
732.510	0.0149593
732.588	0.0149107
732.666	0.0150268
732.744	0.0152031
732.822	0.0152359
732.901	0.0152686
732.979	0.0153252
733.057	0.0154543
733.135	0.0156310
733.213	0.0155205
733.291	0.0157169
733.369	0.0157564
733.447	0.0159098
733.526	0.0159249
733.604	0.0160495
733.682	0.0161016
733.760	0.0161893
733.838	0.0160980
733.916	0.0162615
733.994	0.0161707
734.072	0.0162968
734.151	0.0162013
734.229	0.0161992
734.307	0.0162613
734.385	0.0160556
734.463	0.0160141
734.541	0.0160660
734.619	0.0159746
734.697	0.0158214
734.776	0.0155774
734.854	0.0153902
734.932	0.0151911
735.010	0.0152379
735.088	0.0149673
735.166	0.0149073
735.244	0.0149258
735.322	0.0148586
735.401	0.0147516
735.479	0.0145937
735.557	0.0146528
735.635	0.0146639
735.713	0.0144882
735.791	0.0144441
735.869	0.0144121
735.947	0.0143111
736.026	0.0143855
736.104	0.0142371
736.182	0.0143102
736.260	0.0141763
736.338	0.0140728
736.416	0.0139883
736.494	0.0141736
736.572	0.0139493
736.651	0.0139573
736.729	0.0138293
736.807	0.0139914
736.885	0.0139009
736.963	0.0139718
737.041	0.0139456
737.119	0.0139247
737.197	0.0140747
737.276	0.0140347
737.354	0.0141084
737.432	0.0142849
737.510	0.0140038
737.588	0.0143073
737.666	0.0144285
737.744	0.0143741
737.822	0.0144768
737.901	0.0145442
737.979	0.0145016
738.057	0.0146980
738.135	0.0147983
738.213	0.0150872
738.291	0.0149669
738.369	0.0152118
738.447	0.0151789
738.526	0.0151853
738.604	0.0152856
738.682	0.0154743
738.760	0.0155248
738.838	0.0156373
738.916	0.0156856
738.994	0.0156000
739.072	0.0158191
739.151	0.0157337
739.229	0.0157818
739.307	0.0158426
739.385	0.0158701
739.463	0.0158491
739.541	0.0159176
739.619	0.0158701
739.697	0.0158949
739.776	0.0158479
739.854	0.0157882
739.932	0.0157437
740.010	0.0157906
740.088	0.0156041
740.166	0.0156298
740.244	0.0156017
740.322	0.0154927
740.401	0.0154034
740.479	0.0153555
740.557	0.0153581
740.635	0.0152727
740.713	0.0150625
740.791	0.0150796
740.869	0.0151501
740.947	0.0150360
741.026	0.0149621
741.104	0.0147050
741.182	0.0147543
741.260	0.0148692
741.338	0.0148824
741.416	0.0146805
741.494	0.0147124
741.572	0.0146971
741.651	0.0146046
741.729	0.0148241
741.807	0.0146790
741.885	0.0146186
741.963	0.0146237
742.041	0.0146783
742.119	0.0145319
742.197	0.0144859
742.276	0.0144107
742.354	0.0143436
742.432	0.0141588
742.510	0.0143414
742.588	0.0142382
742.666	0.0139578
742.744	0.0140560
742.822	0.0140332
742.901	0.0140042
742.979	0.0139688
743.057	0.0140408
743.135	0.0140324
743.213	0.0142155
743.291	0.0141853
743.369	0.0140380
743.447	0.0143294
743.526	0.0143339
743.604	0.0144332
743.682	0.0143810
743.760	0.0144923
743.838	0.0145287
743.916	0.0146691
743.994	0.0145378
744.072	0.0146117
744.151	0.0146738
744.229	0.0148338
744.307	0.0147635
744.385	0.0147484
744.463	0.0147758
744.541	0.0149172
744.619	0.0148757
744.697	0.0151179
744.776	0.0150395
744.854	0.0150771
744.932	0.0152675
745.010	0.0151987
745.088	0.0153190
745.166	0.0153053
745.244	0.0152048
745.322	0.0153506
745.401	0.0154627
745.479	0.0154402
745.557	0.0154216
745.635	0.0154472
745.713	0.0155692
