05/03/2022	20:18:41	Ver.	4.1	UNKNOWN
Optical Delay	660.003261	Delta X		0.078125	Sweeps	1	Scan Rate	0/0
Coordinates	Axis 1	NaN	Axis 2	NaN	Axis 3	NaN	Axis 4	NaN	Axis 5	NaN	Axis 6	0.000000
TX Power	0.000000	RX Power	0.000000

660.003	0.0146436
660.081	0.0146539
660.160	0.0146635
660.238	0.0147990
660.316	0.0146638
660.394	0.0145314
660.472	0.0146976
660.550	0.0145134
660.628	0.0146479
660.706	0.0148584
660.785	0.0147766
660.863	0.0145539
660.941	0.0145178
661.019	0.0146741
661.097	0.0145997
661.175	0.0147361
661.253	0.0146854
661.331	0.0146162
661.410	0.0145646
661.488	0.0146566
661.566	0.0146487
661.644	0.0147199
661.722	0.0146823
661.800	0.0146046
661.878	0.0146838
661.956	0.0146157
662.035	0.0147345
662.113	0.0147508
662.191	0.0146687
662.269	0.0146361
662.347	0.0145805
662.425	0.0147237
662.503	0.0147482
662.581	0.0147099
662.660	0.0146749
662.738	0.0147533
662.816	0.0145601
662.894	0.0147466
662.972	0.0147997
663.050	0.0147766
663.128	0.0148067
663.206	0.0146433
663.285	0.0147421
663.363	0.0146162
663.441	0.0146455
663.519	0.0147007
663.597	0.0147140
663.675	0.0147369
663.753	0.0146756
663.831	0.0146045
663.910	0.0146876
663.988	0.0146008
664.066	0.0145228
664.144	0.0145995
664.222	0.0147415
664.300	0.0146777
664.378	0.0147562
664.456	0.0145405
664.535	0.0145261
664.613	0.0146938
664.691	0.0146057
664.769	0.0146844
664.847	0.0146892
664.925	0.0146351
665.003	0.0146149
665.081	0.0146574
665.160	0.0147563
665.238	0.0146281
665.316	0.0146502
665.394	0.0146297
665.472	0.0146356
665.550	0.0145674
665.628	0.0146915
665.706	0.0147070
665.785	0.0146323
665.863	0.0146853
665.941	0.0147595
666.019	0.0146715
666.097	0.0145883
666.175	0.0146612
666.253	0.0145604
666.331	0.0146629
666.410	0.0148008
666.488	0.0147016
666.566	0.0146723
666.644	0.0146072
666.722	0.0147099
666.800	0.0147322
666.878	0.0146850
666.956	0.0146975
667.035	0.0148323
667.113	0.0146700
667.191	0.0147187
667.269	0.0146508
667.347	0.0146960
667.425	0.0148413
667.503	0.0146002
667.581	0.0148016
667.660	0.0146705
667.738	0.0148191
667.816	0.0147294
667.894	0.0146778
667.972	0.0146692
668.050	0.0147076
668.128	0.0147352
668.206	0.0146532
668.285	0.0147794
668.363	0.0146566
668.441	0.0145594
668.519	0.0147155
668.597	0.0145872
668.675	0.0146311
668.753	0.0147167
668.831	0.0147973
668.910	0.0146727
668.988	0.0146655
669.066	0.0147192
669.144	0.0146571
669.222	0.0146176
669.300	0.0145934
669.378	0.0145551
669.456	0.0146074
669.535	0.0147199
669.613	0.0146848
669.691	0.0147088
669.769	0.0147327
669.847	0.0147245
669.925	0.0147212
670.003	0.0146702
670.081	0.0145584
670.160	0.0146004
670.238	0.0147250
670.316	0.0147256
670.394	0.0147989
670.472	0.0147478
670.550	0.0147780
670.628	0.0146245
670.706	0.0145838
670.785	0.0148656
670.863	0.0148009
670.941	0.0146915
671.019	0.0147303
671.097	0.0148076
671.175	0.0147646
671.253	0.0147436
671.331	0.0146677
671.410	0.0147639
671.488	0.0147375
671.566	0.0146469
671.644	0.0145718
671.722	0.0147013
671.800	0.0147527
671.878	0.0146096
671.956	0.0147300
672.035	0.0146957
672.113	0.0147363
672.191	0.0145594
672.269	0.0146378
672.347	0.0147354
672.425	0.0147585
672.503	0.0146052
672.581	0.0146635
672.660	0.0147131
672.738	0.0145475
672.816	0.0146210
672.894	0.0147855
672.972	0.0148058
673.050	0.0147527
673.128	0.0147871
673.206	0.0147144
673.285	0.0147237
673.363	0.0145688
673.441	0.0146150
673.519	0.0148024
673.597	0.0147259
673.675	0.0147263
673.753	0.0148343
673.831	0.0146301
673.910	0.0145668
673.988	0.0147358
674.066	0.0146285
674.144	0.0148048
674.222	0.0146621
674.300	0.0145470
674.378	0.0146963
674.456	0.0146706
674.535	0.0148727
674.613	0.0148428
674.691	0.0146706
674.769	0.0146426
674.847	0.0146109
674.925	0.0147079
675.003	0.0147133
675.081	0.0147108
675.160	0.0145177
675.238	0.0146479
675.316	0.0147697
675.394	0.0146615
675.472	0.0146896
675.550	0.0146532
675.628	0.0146597
675.706	0.0146342
675.785	0.0146662
675.863	0.0146122
675.941	0.0146232
676.019	0.0147214
676.097	0.0145906
676.175	0.0146726
676.253	0.0147450
676.331	0.0146515
676.410	0.0147952
676.488	0.0146596
676.566	0.0146711
676.644	0.0146544
676.722	0.0145412
676.800	0.0147129
676.878	0.0147934
676.956	0.0146620
677.035	0.0146777
677.113	0.0146252
677.191	0.0146495
677.269	0.0146117
677.347	0.0146949
677.425	0.0146410
677.503	0.0145951
677.581	0.0145917
677.660	0.0146256
677.738	0.0145750
677.816	0.0146658
677.894	0.0145286
677.972	0.0147131
678.050	0.0144967
678.128	0.0146581
678.206	0.0147167
678.285	0.0146440
678.363	0.0146835
678.441	0.0145050
678.519	0.0148432
678.597	0.0146627
678.675	0.0147413
678.753	0.0147989
678.831	0.0148351
678.910	0.0146846
678.988	0.0146812
679.066	0.0147086
679.144	0.0146079
679.222	0.0146246
679.300	0.0145748
679.378	0.0146583
679.456	0.0146782
679.535	0.0146754
679.613	0.0148995
679.691	0.0147076
679.769	0.0145033
679.847	0.0147453
679.925	0.0145648
680.003	0.0147086
680.081	0.0147228
680.160	0.0147692
680.238	0.0147092
680.316	0.0146543
680.394	0.0146759
680.472	0.0147157
680.550	0.0146638
680.628	0.0146087
680.706	0.0146391
680.785	0.0147150
680.863	0.0147418
680.941	0.0146513
681.019	0.0147599
681.097	0.0147517
681.175	0.0145912
681.253	0.0146978
681.331	0.0146662
681.410	0.0146565
681.488	0.0147152
681.566	0.0145306
681.644	0.0147893
681.722	0.0148773
681.800	0.0147241
681.878	0.0147389
681.956	0.0148499
682.035	0.0148020
682.113	0.0145936
682.191	0.0147297
682.269	0.0146848
682.347	0.0146762
682.425	0.0147498
682.503	0.0147555
682.581	0.0147109
682.660	0.0147489
682.738	0.0147277
682.816	0.0147292
682.894	0.0148164
682.972	0.0145827
683.050	0.0147281
683.128	0.0148346
683.206	0.0147025
683.285	0.0146851
683.363	0.0145677
683.441	0.0147350
683.519	0.0147373
683.597	0.0147227
683.675	0.0147237
683.753	0.0147452
683.831	0.0146608
683.910	0.0147880
683.988	0.0146957
684.066	0.0146143
684.144	0.0147546
684.222	0.0148264
684.300	0.0147925
684.378	0.0147320
684.456	0.0145898
684.535	0.0146957
684.613	0.0148096
684.691	0.0147256
684.769	0.0146606
684.847	0.0147238
684.925	0.0146149
685.003	0.0147002
685.081	0.0147303
685.160	0.0149185
685.238	0.0146397
685.316	0.0145764
685.394	0.0146538
685.472	0.0146907
685.550	0.0147081
685.628	0.0147469
685.706	0.0147245
685.785	0.0147207
685.863	0.0147070
685.941	0.0146566
686.019	0.0147869
686.097	0.0146992
686.175	0.0147330
686.253	0.0148141
686.331	0.0146731
686.410	0.0146743
686.488	0.0146315
686.566	0.0145588
686.644	0.0147498
686.722	0.0147053
686.800	0.0148235
686.878	0.0147188
686.956	0.0145316
687.035	0.0146534
687.113	0.0147602
687.191	0.0145850
687.269	0.0147425
687.347	0.0148704
687.425	0.0146899
687.503	0.0147572
687.581	0.0147423
687.660	0.0146989
687.738	0.0146841
687.816	0.0146793
687.894	0.0148668
687.972	0.0148023
688.050	0.0147354
688.128	0.0148218
688.206	0.0147573
688.285	0.0146449
688.363	0.0145764
688.441	0.0146449
688.519	0.0147310
688.597	0.0145837
688.675	0.0145452
688.753	0.0147048
688.831	0.0147775
688.910	0.0147057
688.988	0.0147824
689.066	0.0147212
689.144	0.0147530
689.222	0.0146764
689.300	0.0147311
689.378	0.0144770
689.456	0.0147061
689.535	0.0147083
689.613	0.0146163
689.691	0.0147554
689.769	0.0145549
689.847	0.0146184
689.925	0.0147328
690.003	0.0147538
690.081	0.0145033
690.160	0.0145866
690.238	0.0145904
690.316	0.0146789
690.394	0.0145991
690.472	0.0145543
690.550	0.0146208
690.628	0.0145921
690.706	0.0147404
690.785	0.0146455
690.863	0.0145840
690.941	0.0146913
691.019	0.0146815
691.097	0.0146595
691.175	0.0146445
691.253	0.0146396
691.331	0.0146060
691.410	0.0146401
691.488	0.0145602
691.566	0.0147066
691.644	0.0147456
691.722	0.0146291
691.800	0.0146888
691.878	0.0147556
691.956	0.0147533
692.035	0.0147978
692.113	0.0146929
692.191	0.0147346
692.269	0.0146151
692.347	0.0147981
692.425	0.0148208
692.503	0.0145940
692.581	0.0147015
692.660	0.0147451
692.738	0.0147353
692.816	0.0146889
692.894	0.0146784
692.972	0.0146015
693.050	0.0147815
693.128	0.0147454
693.206	0.0146663
693.285	0.0146284
693.363	0.0146930
693.441	0.0146529
693.519	0.0147206
693.597	0.0146186
693.675	0.0146759
693.753	0.0146291
693.831	0.0146039
693.910	0.0147353
693.988	0.0146768
694.066	0.0147286
694.144	0.0146143
694.222	0.0146908
694.300	0.0146972
694.378	0.0146889
694.456	0.0147469
694.535	0.0147048
694.613	0.0147099
694.691	0.0145650
694.769	0.0147751
694.847	0.0147802
694.925	0.0147240
695.003	0.0146957
695.081	0.0148133
695.160	0.0146560
695.238	0.0147857
695.316	0.0147207
695.394	0.0146381
695.472	0.0146931
695.550	0.0147343
695.628	0.0147112
695.706	0.0146452
695.785	0.0146426
695.863	0.0147118
695.941	0.0148183
696.019	0.0148009
696.097	0.0147894
696.175	0.0147247
696.253	0.0146753
696.331	0.0146883
696.410	0.0147042
696.488	0.0146627
696.566	0.0146561
696.644	0.0147771
696.722	0.0147560
696.800	0.0146354
696.878	0.0147013
696.956	0.0147214
697.035	0.0146626
697.113	0.0145055
697.191	0.0147086
697.269	0.0146080
697.347	0.0147264
697.425	0.0146507
697.503	0.0146575
697.581	0.0146564
697.660	0.0145693
697.738	0.0146260
697.816	0.0146775
697.894	0.0147681
697.972	0.0145404
698.050	0.0144966
698.128	0.0146232
698.206	0.0147301
698.285	0.0145820
698.363	0.0145667
698.441	0.0146296
698.519	0.0144997
698.597	0.0145004
698.675	0.0146355
698.753	0.0146008
698.831	0.0146279
698.910	0.0145451
698.988	0.0145636
699.066	0.0146474
699.144	0.0145817
699.222	0.0145957
699.300	0.0147935
699.378	0.0147776
699.456	0.0147960
699.535	0.0150523
699.613	0.0150522
699.691	0.0149868
699.769	0.0148531
699.847	0.0149295
699.925	0.0146271
700.003	0.0145213
700.081	0.0143914
700.160	0.0141203
700.238	0.0138607
700.316	0.0138409
700.394	0.0138215
700.472	0.0138515
700.550	0.0138274
700.628	0.0140829
700.706	0.0142163
700.785	0.0143650
700.863	0.0145170
700.941	0.0147031
701.019	0.0152197
701.097	0.0154420
701.175	0.0156368
701.253	0.0159538
701.331	0.0161237
701.410	0.0163345
701.488	0.0163531
701.566	0.0166087
701.644	0.0165934
701.722	0.0164774
701.800	0.0161249
701.878	0.0158428
701.956	0.0155620
702.035	0.0149996
702.113	0.0142580
702.191	0.0135654
702.269	0.0128804
702.347	0.0122694
702.425	0.0115808
702.503	0.0109639
702.581	0.0105758
702.660	0.0105334
702.738	0.0104665
702.816	0.0107130
702.894	0.0112498
702.972	0.0118430
703.050	0.0129431
703.128	0.0138396
703.206	0.0146135
703.285	0.0154736
703.363	0.0161774
703.441	0.0168188
703.519	0.0171460
703.597	0.0176287
703.675	0.0181351
703.753	0.0183669
703.831	0.0185283
703.910	0.0188451
703.988	0.0189689
704.066	0.0192245
704.144	0.0192121
704.222	0.0190639
704.300	0.0187778
704.378	0.0183352
704.456	0.0177366
704.535	0.0165810
704.613	0.0157372
704.691	0.0149714
704.769	0.0140512
704.847	0.0131737
704.925	0.0121632
705.003	0.0113513
705.081	0.0105756
705.160	0.0100804
705.238	0.00959648
705.316	0.00915726
705.394	0.00893654
705.472	0.00879051
705.550	0.00895638
705.628	0.00937332
705.706	0.00975990
705.785	0.0104987
705.863	0.0111440
705.941	0.0116726
706.019	0.0124567
706.097	0.0131237
706.175	0.0138496
706.253	0.0144421
706.331	0.0151263
706.410	0.0156040
706.488	0.0160973
706.566	0.0167565
706.644	0.0172224
706.722	0.0178110
706.800	0.0184703
706.878	0.0189625
706.956	0.0198031
707.035	0.0205666
707.113	0.0212881
707.191	0.0219729
707.269	0.0224772
707.347	0.0225923
707.425	0.0226781
707.503	0.0224423
707.581	0.0217153
707.660	0.0206895
707.738	0.0195018
707.816	0.0180620
707.894	0.0165630
707.972	0.0149787
708.050	0.0132996
708.128	0.0115495
708.206	0.0102287
708.285	0.00895767
708.363	0.00793152
708.441	0.00711029
708.519	0.00646515
708.597	0.00614563
708.675	0.00611328
708.753	0.00641800
708.831	0.00689102
708.910	0.00743767
708.988	0.00811005
709.066	0.00886452
709.144	0.00968307
709.222	0.0104276
709.300	0.0112209
709.378	0.0119871
709.456	0.0127092
709.535	0.0133869
709.613	0.0138040
709.691	0.0145975
709.769	0.0151370
709.847	0.0156590
709.925	0.0160428
710.003	0.0166288
710.081	0.0174461
710.160	0.0181683
710.238	0.0191080
710.316	0.0203142
710.394	0.0211115
710.472	0.0219776
710.550	0.0228816
710.628	0.0233060
710.706	0.0234545
710.785	0.0234297
710.863	0.0229816
710.941	0.0223166
711.019	0.0215865
711.097	0.0205884
711.175	0.0193027
711.253	0.0182679
711.331	0.0170705
711.410	0.0157809
711.488	0.0146450
711.566	0.0133186
711.644	0.0123388
711.722	0.0112714
711.800	0.0105836
711.878	0.00965668
711.956	0.00907158
712.035	0.00857941
712.113	0.00800682
712.191	0.00775620
712.269	0.00769089
712.347	0.00773331
712.425	0.00781281
712.503	0.00788582
712.581	0.00855621
712.660	0.00899940
712.738	0.00924164
712.816	0.00985855
712.894	0.0104422
712.972	0.0109402
713.050	0.0114938
713.128	0.0118354
713.206	0.0124100
713.285	0.0129116
713.363	0.0134148
713.441	0.0138814
713.519	0.0145123
713.597	0.0152180
713.675	0.0160391
713.753	0.0170959
713.831	0.0180779
713.910	0.0191431
713.988	0.0200716
714.066	0.0208815
714.144	0.0215689
714.222	0.0220449
714.300	0.0222556
714.378	0.0221253
714.456	0.0218797
714.535	0.0213612
714.613	0.0206070
714.691	0.0199260
714.769	0.0193163
714.847	0.0185883
714.925	0.0178308
715.003	0.0170648
715.081	0.0165149
715.160	0.0157410
715.238	0.0151873
715.316	0.0146603
715.394	0.0140992
715.472	0.0135168
715.550	0.0129193
715.628	0.0119620
715.706	0.0114254
715.785	0.0106662
715.863	0.0101492
715.941	0.00962517
716.019	0.00923271
716.097	0.00903694
716.175	0.00891495
716.253	0.00900650
716.331	0.00930138
716.410	0.00950096
716.488	0.00997559
716.566	0.0102331
716.644	0.0108100
716.722	0.0113487
716.800	0.0117951
716.878	0.0121440
716.956	0.0125598
717.035	0.0129056
717.113	0.0134094
717.191	0.0137235
717.269	0.0140342
717.347	0.0144356
717.425	0.0148251
717.503	0.0151266
717.581	0.0156590
717.660	0.0160569
717.738	0.0167177
717.816	0.0173029
717.894	0.0180560
717.972	0.0186546
718.050	0.0193565
718.128	0.0196132
718.206	0.0200936
718.285	0.0202904
718.363	0.0202464
718.441	0.0197475
718.519	0.0196214
718.597	0.0192709
718.675	0.0187217
718.753	0.0181280
718.831	0.0176334
718.910	0.0171304
718.988	0.0164787
719.066	0.0160067
719.144	0.0155556
719.222	0.0150961
719.300	0.0146511
719.378	0.0142197
719.456	0.0138748
719.535	0.0134303
719.613	0.0130431
719.691	0.0126884
719.769	0.0124115
719.847	0.0121590
719.925	0.0119102
720.003	0.0117301
720.081	0.0116223
720.160	0.0113315
720.238	0.0112494
720.316	0.0110812
720.394	0.0111056
720.472	0.0110574
720.550	0.0111000
720.628	0.0111881
720.706	0.0115453
720.785	0.0116799
720.863	0.0120069
720.941	0.0123343
721.019	0.0125874
721.097	0.0129234
721.175	0.0130309
721.253	0.0133382
721.331	0.0135804
721.410	0.0139561
721.488	0.0139781
721.566	0.0140222
721.644	0.0145434
721.722	0.0148804
721.800	0.0152242
721.878	0.0154565
721.956	0.0160159
722.035	0.0164325
722.113	0.0167847
722.191	0.0172576
722.269	0.0175866
722.347	0.0180608
722.425	0.0182521
722.503	0.0183546
722.581	0.0185494
722.660	0.0184409
722.738	0.0183510
722.816	0.0181351
722.894	0.0179667
722.972	0.0175533
723.050	0.0173956
723.128	0.0171351
723.206	0.0168498
723.285	0.0165474
723.363	0.0163479
723.441	0.0160617
723.519	0.0157091
723.597	0.0155600
723.675	0.0149895
723.753	0.0147749
723.831	0.0143900
723.910	0.0140380
723.988	0.0136655
724.066	0.0134454
724.144	0.0132418
724.222	0.0129872
724.300	0.0128745
724.378	0.0126360
724.456	0.0125523
724.535	0.0124762
724.613	0.0125455
724.691	0.0126314
724.769	0.0126782
724.847	0.0125017
724.925	0.0124998
725.003	0.0122867
725.081	0.0121085
725.160	0.0120977
725.238	0.0119047
725.316	0.0119685
725.394	0.0120001
725.472	0.0118829
725.550	0.0119485
725.628	0.0119879
725.706	0.0121169
725.785	0.0122676
725.863	0.0126173
725.941	0.0127710
726.019	0.0131691
726.097	0.0138425
726.175	0.0139759
726.253	0.0145257
726.331	0.0151973
726.410	0.0156906
726.488	0.0162119
726.566	0.0166526
726.644	0.0170426
726.722	0.0174254
726.800	0.0178282
726.878	0.0181506
726.956	0.0181885
727.035	0.0181375
727.113	0.0182555
727.191	0.0179395
727.269	0.0178219
727.347	0.0176546
727.425	0.0173383
727.503	0.0170907
727.581	0.0168188
727.660	0.0165701
727.738	0.0166167
727.816	0.0163747
727.894	0.0162740
727.972	0.0162272
728.050	0.0162288
728.128	0.0163200
728.206	0.0161922
728.285	0.0160777
728.363	0.0161283
728.441	0.0157677
728.519	0.0155399
728.597	0.0154405
728.675	0.0150918
728.753	0.0147882
728.831	0.0142741
728.910	0.0140800
728.988	0.0137218
729.066	0.0133244
729.144	0.0128770
729.222	0.0124724
729.300	0.0119780
729.378	0.0116137
729.456	0.0114559
729.535	0.0112173
729.613	0.0112180
729.691	0.0110007
729.769	0.0109702
729.847	0.0113697
729.925	0.0115810
730.003	0.0118440
730.081	0.0120277
730.160	0.0123226
730.238	0.0124968
730.316	0.0126891
730.394	0.0129665
730.472	0.0131979
730.550	0.0132970
730.628	0.0133566
730.706	0.0136043
730.785	0.0138246
730.863	0.0141030
730.941	0.0142259
731.019	0.0144753
731.097	0.0148889
731.175	0.0152385
731.253	0.0153358
731.331	0.0157744
731.410	0.0161635
731.488	0.0164085
731.566	0.0167262
731.644	0.0169460
731.722	0.0171017
731.800	0.0174059
731.878	0.0175462
731.956	0.0175584
732.035	0.0176472
732.113	0.0177663
732.191	0.0176273
732.269	0.0175339
732.347	0.0174288
732.425	0.0173362
732.503	0.0172943
732.581	0.0171810
732.660	0.0169315
732.738	0.0168458
732.816	0.0168974
732.894	0.0167049
732.972	0.0163066
733.050	0.0161206
733.128	0.0159431
733.206	0.0155035
733.285	0.0151793
733.363	0.0147856
733.441	0.0145394
733.519	0.0142094
733.597	0.0139255
733.675	0.0135597
733.753	0.0132647
733.831	0.0131044
733.910	0.0129688
733.988	0.0125854
734.066	0.0123513
734.144	0.0122811
734.222	0.0122190
734.300	0.0121535
734.378	0.0121349
734.456	0.0120217
734.535	0.0120253
734.613	0.0121835
734.691	0.0122722
734.769	0.0122348
734.847	0.0121950
734.925	0.0123025
735.003	0.0122264
735.081	0.0123358
735.160	0.0119846
735.238	0.0122365
735.316	0.0122897
735.394	0.0123991
735.472	0.0126866
735.550	0.0128483
735.628	0.0132627
735.706	0.0136562
735.785	0.0140682
735.863	0.0144360
735.941	0.0148352
736.019	0.0151511
736.097	0.0155589
736.175	0.0160492
736.253	0.0164050
736.331	0.0165292
736.410	0.0170329
736.488	0.0170982
736.566	0.0171473
736.644	0.0172097
736.722	0.0173737
736.800	0.0176713
736.878	0.0175450
736.956	0.0176367
737.035	0.0177113
737.113	0.0175709
737.191	0.0175746
737.269	0.0175380
737.347	0.0175093
737.425	0.0173685
737.503	0.0173033
737.581	0.0173238
737.660	0.0171349
737.738	0.0167410
737.816	0.0165237
737.894	0.0165376
737.972	0.0160995
738.050	0.0158947
738.128	0.0156424
738.206	0.0152070
738.285	0.0148166
738.363	0.0145464
738.441	0.0141584
738.519	0.0137571
738.597	0.0134850
738.675	0.0132448
738.753	0.0129381
738.831	0.0125336
738.910	0.0123470
738.988	0.0121170
739.066	0.0119625
739.144	0.0118214
739.222	0.0116267
739.300	0.0114713
739.378	0.0115668
739.456	0.0115679
739.535	0.0115001
739.613	0.0114950
739.691	0.0116062
739.769	0.0117188
739.847	0.0117707
739.925	0.0120336
740.003	0.0123382
740.081	0.0123425
740.160	0.0126378
740.238	0.0130090
740.316	0.0132823
740.394	0.0135390
740.472	0.0138811
740.550	0.0140412
740.628	0.0143987
740.706	0.0145114
740.785	0.0148809
740.863	0.0150863
740.941	0.0153021
741.019	0.0156052
741.097	0.0159741
741.175	0.0160990
741.253	0.0165073
741.331	0.0167873
741.410	0.0170013
741.488	0.0172491
741.566	0.0173852
741.644	0.0175256
741.722	0.0177153
741.800	0.0179431
741.878	0.0179957
741.956	0.0177605
742.035	0.0176551
742.113	0.0177243
742.191	0.0174065
742.269	0.0171999
742.347	0.0169301
742.425	0.0165321
742.503	0.0163850
742.581	0.0162147
742.660	0.0160530
742.738	0.0157979
742.816	0.0155517
742.894	0.0152603
742.972	0.0149547
743.050	0.0147667
743.128	0.0145774
743.206	0.0144685
743.285	0.0140359
743.363	0.0137121
743.441	0.0135815
743.519	0.0133261
743.597	0.0130556
743.675	0.0129777
743.753	0.0130034
743.831	0.0127098
743.910	0.0126289
743.988	0.0125821
744.066	0.0126175
744.144	0.0123837
744.222	0.0125294
744.300	0.0126134
744.378	0.0125850
744.456	0.0126368
744.535	0.0127612
744.613	0.0129292
744.691	0.0129415
744.769	0.0130978
744.847	0.0132493
744.925	0.0136053
745.003	0.0138458
745.081	0.0139729
745.160	0.0141114
745.238	0.0141591
745.316	0.0142141
745.394	0.0143803
745.472	0.0145371
745.550	0.0148560
