05/03/2022	20:19:07	Ver.	4.1	UNKNOWN
Optical Delay	660.003261	Delta X		0.078125	Sweeps	1	Scan Rate	0/0
Coordinates	Axis 1	NaN	Axis 2	NaN	Axis 3	NaN	Axis 4	NaN	Axis 5	NaN	Axis 6	0.000000
TX Power	0.000000	RX Power	0.000000

660.003	0.0144699
660.081	0.0144348
660.160	0.0144163
660.238	0.0144252
660.316	0.0143231
660.394	0.0143382
660.472	0.0145159
660.550	0.0144911
660.628	0.0145551
660.706	0.0145523
660.785	0.0144852
660.863	0.0144788
660.941	0.0144807
661.019	0.0146082
661.097	0.0146244
661.175	0.0144286
661.253	0.0144740
661.331	0.0144820
661.410	0.0145481
661.488	0.0145137
661.566	0.0143745
661.644	0.0144132
661.722	0.0145545
661.800	0.0145290
661.878	0.0144845
661.956	0.0146045
662.035	0.0145738
662.113	0.0145155
662.191	0.0144807
662.269	0.0143745
662.347	0.0144549
662.425	0.0145179
662.503	0.0146577
662.581	0.0146017
662.660	0.0145765
662.738	0.0144881
662.816	0.0145075
662.894	0.0145267
662.972	0.0144676
663.050	0.0144672
663.128	0.0145287
663.206	0.0145417
663.285	0.0145567
663.363	0.0144866
663.441	0.0144939
663.519	0.0143793
663.597	0.0144860
663.675	0.0144419
663.753	0.0144582
663.831	0.0146271
663.910	0.0145995
663.988	0.0144353
664.066	0.0145858
664.144	0.0146006
664.222	0.0143819
664.300	0.0145570
664.378	0.0144693
664.456	0.0145068
664.535	0.0145743
664.613	0.0145333
664.691	0.0144687
664.769	0.0145210
664.847	0.0144801
664.925	0.0144459
665.003	0.0143264
665.081	0.0146062
665.160	0.0144702
665.238	0.0145200
665.316	0.0144845
665.394	0.0145860
665.472	0.0144041
665.550	0.0143243
665.628	0.0144347
665.706	0.0143443
665.785	0.0145510
665.863	0.0144750
665.941	0.0144505
666.019	0.0144324
666.097	0.0144245
666.175	0.0144765
666.253	0.0145346
666.331	0.0143922
666.410	0.0143417
666.488	0.0143906
666.566	0.0144733
666.644	0.0143080
666.722	0.0144708
666.800	0.0144439
666.878	0.0144841
666.956	0.0144958
667.035	0.0144201
667.113	0.0143771
667.191	0.0145280
667.269	0.0145561
667.347	0.0144138
667.425	0.0144984
667.503	0.0144411
667.581	0.0143202
667.660	0.0144270
667.738	0.0143703
667.816	0.0144657
667.894	0.0145303
667.972	0.0145194
668.050	0.0145166
668.128	0.0145210
668.206	0.0143636
668.285	0.0144337
668.363	0.0144419
668.441	0.0144207
668.519	0.0146545
668.597	0.0144487
668.675	0.0144025
668.753	0.0144458
668.831	0.0145150
668.910	0.0144954
668.988	0.0143972
669.066	0.0145104
669.144	0.0145726
669.222	0.0145474
669.300	0.0146252
669.378	0.0144981
669.456	0.0145792
669.535	0.0144735
669.613	0.0144105
669.691	0.0145317
669.769	0.0145621
669.847	0.0144629
669.925	0.0143390
670.003	0.0146415
670.081	0.0145125
670.160	0.0145226
670.238	0.0144025
670.316	0.0145322
670.394	0.0144432
670.472	0.0144254
670.550	0.0145471
670.628	0.0143188
670.706	0.0144955
670.785	0.0145271
670.863	0.0144818
670.941	0.0144702
671.019	0.0144046
671.097	0.0143975
671.175	0.0144649
671.253	0.0145945
671.331	0.0143267
671.410	0.0144890
671.488	0.0145670
671.566	0.0145349
671.644	0.0143937
671.722	0.0145652
671.800	0.0144257
671.878	0.0143863
671.956	0.0144862
672.035	0.0144746
672.113	0.0144479
672.191	0.0144761
672.269	0.0144258
672.347	0.0144652
672.425	0.0144642
672.503	0.0144119
672.581	0.0146359
672.660	0.0144937
672.738	0.0144698
672.816	0.0145055
672.894	0.0144347
672.972	0.0144451
673.050	0.0144946
673.128	0.0145033
673.206	0.0144530
673.285	0.0144691
673.363	0.0146417
673.441	0.0145544
673.519	0.0144910
673.597	0.0143395
673.675	0.0144384
673.753	0.0144898
673.831	0.0144212
673.910	0.0145718
673.988	0.0145129
674.066	0.0146189
674.144	0.0144666
674.222	0.0145306
674.300	0.0144894
674.378	0.0144395
674.456	0.0145785
674.535	0.0145375
674.613	0.0145235
674.691	0.0145293
674.769	0.0145326
674.847	0.0144576
674.925	0.0144521
675.003	0.0144593
675.081	0.0145473
675.160	0.0145104
675.238	0.0144485
675.316	0.0143717
675.394	0.0145264
675.472	0.0144389
675.550	0.0144870
675.628	0.0144466
675.706	0.0144135
675.785	0.0146185
675.863	0.0145410
675.941	0.0144294
676.019	0.0145299
676.097	0.0145596
676.175	0.0144468
676.253	0.0144421
676.331	0.0143535
676.410	0.0143378
676.488	0.0144724
676.566	0.0145019
676.644	0.0144240
676.722	0.0145283
676.800	0.0144432
676.878	0.0145415
676.956	0.0145396
677.035	0.0145139
677.113	0.0142985
677.191	0.0144099
677.269	0.0143951
677.347	0.0145149
677.425	0.0145277
677.503	0.0145070
677.581	0.0145566
677.660	0.0144894
677.738	0.0144709
677.816	0.0144349
677.894	0.0144424
677.972	0.0144023
678.050	0.0144743
678.128	0.0145187
678.206	0.0144962
678.285	0.0146994
678.363	0.0144697
678.441	0.0143838
678.519	0.0143871
678.597	0.0145529
678.675	0.0144660
678.753	0.0145140
678.831	0.0144918
678.910	0.0145570
678.988	0.0145284
679.066	0.0144241
679.144	0.0146117
679.222	0.0145074
679.300	0.0143993
679.378	0.0144764
679.456	0.0144675
679.535	0.0144533
679.613	0.0146053
679.691	0.0144839
679.769	0.0145704
679.847	0.0144853
679.925	0.0144559
680.003	0.0144614
680.081	0.0144833
680.160	0.0146075
680.238	0.0145215
680.316	0.0144115
680.394	0.0145058
680.472	0.0145723
680.550	0.0145776
680.628	0.0144003
680.706	0.0145231
680.785	0.0145073
680.863	0.0145656
680.941	0.0144037
681.019	0.0144705
681.097	0.0146088
681.175	0.0145006
681.253	0.0144785
681.331	0.0144453
681.410	0.0145600
681.488	0.0144566
681.566	0.0145380
681.644	0.0145869
681.722	0.0145982
681.800	0.0144127
681.878	0.0144403
681.956	0.0145338
682.035	0.0144967
682.113	0.0145287
682.191	0.0144533
682.269	0.0144984
682.347	0.0145129
682.425	0.0144668
682.503	0.0144630
682.581	0.0144463
682.660	0.0145330
682.738	0.0144836
682.816	0.0145386
682.894	0.0145443
682.972	0.0144080
683.050	0.0144546
683.128	0.0145148
683.206	0.0144270
683.285	0.0145652
683.363	0.0146858
683.441	0.0145377
683.519	0.0144552
683.597	0.0144357
683.675	0.0144840
683.753	0.0144351
683.831	0.0144906
683.910	0.0145623
683.988	0.0144857
684.066	0.0143748
684.144	0.0144270
684.222	0.0145266
684.300	0.0145142
684.378	0.0145554
684.456	0.0145068
684.535	0.0145611
684.613	0.0144630
684.691	0.0145941
684.769	0.0145177
684.847	0.0144791
684.925	0.0145790
685.003	0.0145018
685.081	0.0145419
685.160	0.0144390
685.238	0.0145161
685.316	0.0144949
685.394	0.0145068
685.472	0.0146005
685.550	0.0145760
685.628	0.0145882
685.706	0.0145335
685.785	0.0144289
685.863	0.0145702
685.941	0.0144475
686.019	0.0142567
686.097	0.0146012
686.175	0.0144579
686.253	0.0144917
686.331	0.0145811
686.410	0.0144462
686.488	0.0144448
686.566	0.0144469
686.644	0.0145284
686.722	0.0145477
686.800	0.0143744
686.878	0.0144295
686.956	0.0144093
687.035	0.0145076
687.113	0.0146043
687.191	0.0145190
687.269	0.0145346
687.347	0.0145586
687.425	0.0145482
687.503	0.0145563
687.581	0.0143369
687.660	0.0143925
687.738	0.0145437
687.816	0.0142772
687.894	0.0143859
687.972	0.0145402
688.050	0.0144804
688.128	0.0144675
688.206	0.0145396
688.285	0.0143987
688.363	0.0146399
688.441	0.0144733
688.519	0.0143452
688.597	0.0143900
688.675	0.0144904
688.753	0.0143625
688.831	0.0143329
688.910	0.0142941
688.988	0.0146019
689.066	0.0145403
689.144	0.0144157
689.222	0.0144428
689.300	0.0144148
689.378	0.0143874
689.456	0.0145145
689.535	0.0146017
689.613	0.0144064
689.691	0.0144399
689.769	0.0146206
689.847	0.0144118
689.925	0.0145421
690.003	0.0144680
690.081	0.0144299
690.160	0.0145424
690.238	0.0144784
690.316	0.0144703
690.394	0.0144920
690.472	0.0145541
690.550	0.0144907
690.628	0.0144369
690.706	0.0143090
690.785	0.0145479
690.863	0.0147273
690.941	0.0146040
691.019	0.0145727
691.097	0.0145084
691.175	0.0145400
691.253	0.0144812
691.331	0.0144729
691.410	0.0145104
691.488	0.0144215
691.566	0.0144709
691.644	0.0144952
691.722	0.0146149
691.800	0.0144490
691.878	0.0146359
691.956	0.0145614
692.035	0.0144756
692.113	0.0145770
692.191	0.0144760
692.269	0.0145363
692.347	0.0144448
692.425	0.0145935
692.503	0.0143964
692.581	0.0146069
692.660	0.0145436
692.738	0.0144561
692.816	0.0144073
692.894	0.0145637
692.972	0.0144998
693.050	0.0145641
693.128	0.0145199
693.206	0.0144401
693.285	0.0144888
693.363	0.0145239
693.441	0.0145032
693.519	0.0144852
693.597	0.0147401
693.675	0.0144942
693.753	0.0144730
693.831	0.0144818
693.910	0.0144420
693.988	0.0145104
694.066	0.0145176
694.144	0.0142947
694.222	0.0146035
694.300	0.0145499
694.378	0.0144830
694.456	0.0144511
694.535	0.0144141
694.613	0.0146198
694.691	0.0144873
694.769	0.0145137
694.847	0.0143453
694.925	0.0144981
695.003	0.0145341
695.081	0.0146243
695.160	0.0144419
695.238	0.0144066
695.316	0.0145232
695.394	0.0146015
695.472	0.0145541
695.550	0.0144339
695.628	0.0145484
695.706	0.0146680
695.785	0.0146089
695.863	0.0144978
695.941	0.0145329
696.019	0.0145296
696.097	0.0144185
696.175	0.0145468
696.253	0.0144524
696.331	0.0144877
696.410	0.0145277
696.488	0.0144746
696.566	0.0146049
696.644	0.0144271
696.722	0.0145377
696.800	0.0144168
696.878	0.0145545
696.956	0.0144561
697.035	0.0145463
697.113	0.0145206
697.191	0.0144531
697.269	0.0143745
697.347	0.0145213
697.425	0.0144211
697.503	0.0143700
697.581	0.0143523
697.660	0.0143851
697.738	0.0145234
697.816	0.0144828
697.894	0.0144501
697.972	0.0143608
698.050	0.0143200
698.128	0.0142860
698.206	0.0144473
698.285	0.0144053
698.363	0.0143497
698.441	0.0143132
698.519	0.0144160
698.597	0.0144547
698.675	0.0144436
698.753	0.0142338
698.831	0.0144780
698.910	0.0145418
698.988	0.0147053
699.066	0.0147222
699.144	0.0147265
699.222	0.0147684
699.300	0.0147947
699.378	0.0148301
699.456	0.0147171
699.535	0.0144560
699.613	0.0142519
699.691	0.0142240
699.769	0.0140806
699.847	0.0139550
699.925	0.0137820
700.003	0.0138332
700.081	0.0138326
700.160	0.0137883
700.238	0.0139550
700.316	0.0142093
700.394	0.0142113
700.472	0.0144514
700.550	0.0145818
700.628	0.0149431
700.706	0.0151524
700.785	0.0154332
700.863	0.0157396
700.941	0.0158189
701.019	0.0158963
701.097	0.0160258
701.175	0.0160137
701.253	0.0158360
701.331	0.0158709
701.410	0.0156486
701.488	0.0152083
701.566	0.0151149
701.644	0.0148129
701.722	0.0143813
701.800	0.0136261
701.878	0.0131351
701.956	0.0125844
702.035	0.0121260
702.113	0.0116234
702.191	0.0110793
702.269	0.0111280
702.347	0.0110409
702.425	0.0112189
702.503	0.0114361
702.581	0.0121615
702.660	0.0128034
702.738	0.0134696
702.816	0.0142067
702.894	0.0149729
702.972	0.0156168
703.050	0.0162688
703.128	0.0168165
703.206	0.0171712
703.285	0.0175427
703.363	0.0177586
703.441	0.0179294
703.519	0.0182172
703.597	0.0184064
703.675	0.0185073
703.753	0.0185715
703.831	0.0183784
703.910	0.0181309
703.988	0.0178065
704.066	0.0173019
704.144	0.0164745
704.222	0.0155613
704.300	0.0148511
704.378	0.0141226
704.456	0.0134756
704.535	0.0125576
704.613	0.0119080
704.691	0.0112263
704.769	0.0106719
704.847	0.0103259
704.925	0.00983635
705.003	0.00961418
705.081	0.00953438
705.160	0.00964027
705.238	0.00984756
705.316	0.0100829
705.394	0.0107472
705.472	0.0109462
705.550	0.0117337
705.628	0.0123071
705.706	0.0129208
705.785	0.0134531
705.863	0.0139748
705.941	0.0145518
706.019	0.0148989
706.097	0.0151829
706.175	0.0158160
706.253	0.0162166
706.331	0.0166135
706.410	0.0170807
706.488	0.0176124
706.566	0.0181315
706.644	0.0188340
706.722	0.0195490
706.800	0.0202489
706.878	0.0208778
706.956	0.0214693
707.035	0.0217273
707.113	0.0218206
707.191	0.0216595
707.269	0.0210786
707.347	0.0201661
707.425	0.0190568
707.503	0.0176420
707.581	0.0163293
707.660	0.0148054
707.738	0.0130894
707.816	0.0117281
707.894	0.0102853
707.972	0.00914452
708.050	0.00826538
708.128	0.00770035
708.206	0.00725922
708.285	0.00693192
708.363	0.00713982
708.441	0.00722206
708.519	0.00755241
708.597	0.00796387
708.675	0.00847687
708.753	0.00902672
708.831	0.00966927
708.910	0.0102398
708.988	0.0109667
709.066	0.0117199
709.144	0.0123083
709.222	0.0130557
709.300	0.0136329
709.378	0.0142596
709.456	0.0147829
709.535	0.0151106
709.613	0.0156173
709.691	0.0159355
709.769	0.0165221
709.847	0.0171995
709.925	0.0180194
710.003	0.0185918
710.081	0.0193743
710.160	0.0203968
710.238	0.0211695
710.316	0.0217311
710.394	0.0222248
710.472	0.0223618
710.550	0.0224117
710.628	0.0220383
710.706	0.0214168
710.785	0.0207781
710.863	0.0198506
710.941	0.0189897
711.019	0.0178039
711.097	0.0167448
711.175	0.0156737
711.253	0.0145254
711.331	0.0134129
711.410	0.0125331
711.488	0.0116943
711.566	0.0108685
711.644	0.00993843
711.722	0.00929016
711.800	0.00869736
711.878	0.00821625
711.956	0.00784203
712.035	0.00751228
712.113	0.00758034
712.191	0.00765556
712.269	0.00791458
712.347	0.00840294
712.425	0.00873314
712.503	0.00916130
712.581	0.00976822
712.660	0.0103365
712.738	0.0108194
712.816	0.0115160
712.894	0.0117896
712.972	0.0122656
713.050	0.0128210
713.128	0.0133622
713.206	0.0137772
713.285	0.0143637
713.363	0.0150200
713.441	0.0158113
713.519	0.0166903
713.597	0.0175552
713.675	0.0185053
713.753	0.0193199
713.831	0.0201781
713.910	0.0207698
713.988	0.0213528
714.066	0.0218851
714.144	0.0219847
714.222	0.0218568
714.300	0.0213914
714.378	0.0208234
714.456	0.0200845
714.535	0.0193182
714.613	0.0184396
714.691	0.0176884
714.769	0.0169137
714.847	0.0163214
714.925	0.0156310
715.003	0.0149863
715.081	0.0144988
715.160	0.0139570
715.238	0.0135081
715.316	0.0127418
715.394	0.0121275
715.472	0.0116431
715.550	0.0109726
715.628	0.0104016
715.706	0.0100675
715.785	0.00958885
715.863	0.00923203
715.941	0.00924850
716.019	0.00922661
716.097	0.00938637
716.175	0.00961014
716.253	0.00995979
716.331	0.0103238
716.410	0.0104673
716.488	0.0110048
716.566	0.0113683
716.644	0.0117617
716.722	0.0121693
716.800	0.0126143
716.878	0.0129089
716.956	0.0132845
717.035	0.0136518
717.113	0.0138215
717.191	0.0142225
717.269	0.0143925
717.347	0.0149014
717.425	0.0153768
717.503	0.0157933
717.581	0.0164036
717.660	0.0169577
717.738	0.0175595
717.816	0.0182096
717.894	0.0187737
717.972	0.0193884
718.050	0.0197516
718.128	0.0198608
718.206	0.0198225
718.285	0.0196869
718.363	0.0194350
718.441	0.0189977
718.519	0.0184489
718.597	0.0180209
718.675	0.0174448
718.753	0.0169202
718.831	0.0163161
718.910	0.0157162
718.988	0.0152708
719.066	0.0148322
719.144	0.0143512
719.222	0.0140436
719.300	0.0137430
719.378	0.0133945
719.456	0.0130306
719.535	0.0127592
719.613	0.0124273
719.691	0.0120036
719.769	0.0118394
719.847	0.0115271
719.925	0.0113173
720.003	0.0110967
720.081	0.0109396
720.160	0.0109192
720.238	0.0109185
720.316	0.0109657
720.394	0.0110510
720.472	0.0113375
720.550	0.0114799
720.628	0.0118801
720.706	0.0121635
720.785	0.0124719
720.863	0.0126036
720.941	0.0129629
721.019	0.0131878
721.097	0.0133010
721.175	0.0134512
721.253	0.0135329
721.331	0.0137267
721.410	0.0137035
721.488	0.0139159
721.566	0.0140852
721.644	0.0143554
721.722	0.0145392
721.800	0.0150882
721.878	0.0155968
721.956	0.0159492
722.035	0.0165692
722.113	0.0171453
722.191	0.0174779
722.269	0.0179272
722.347	0.0180981
722.425	0.0183186
722.503	0.0185124
722.581	0.0184715
722.660	0.0182680
722.738	0.0178603
722.816	0.0176586
722.894	0.0175323
722.972	0.0171799
723.050	0.0167135
723.128	0.0166482
723.206	0.0162754
723.285	0.0158686
723.363	0.0156617
723.441	0.0152611
723.519	0.0150478
723.597	0.0146282
723.675	0.0143588
723.753	0.0140226
723.831	0.0137864
723.910	0.0135292
723.988	0.0132735
724.066	0.0131023
724.144	0.0128920
724.222	0.0128636
724.300	0.0127419
724.378	0.0124746
724.456	0.0124841
724.535	0.0124479
724.613	0.0124168
724.691	0.0124104
724.769	0.0121536
724.847	0.0120135
724.925	0.0119307
725.003	0.0117683
725.081	0.0115873
725.160	0.0114204
725.238	0.0114732
725.316	0.0115469
725.394	0.0114559
725.472	0.0116514
725.550	0.0117416
725.628	0.0119619
725.706	0.0122469
725.785	0.0126299
725.863	0.0128690
725.941	0.0132922
726.019	0.0137923
726.097	0.0140829
726.175	0.0145904
726.253	0.0151398
726.331	0.0156484
726.410	0.0159619
726.488	0.0164127
726.566	0.0167638
726.644	0.0170512
726.722	0.0172153
726.800	0.0174008
726.878	0.0175117
726.956	0.0175305
727.035	0.0175488
727.113	0.0175204
727.191	0.0175448
727.269	0.0172800
727.347	0.0169257
727.425	0.0168336
727.503	0.0168647
727.581	0.0169057
727.660	0.0167839
727.738	0.0166801
727.816	0.0167863
727.894	0.0166057
727.972	0.0166018
728.050	0.0164871
728.128	0.0163989
728.206	0.0162156
728.285	0.0160396
728.363	0.0156795
728.441	0.0154989
728.519	0.0151421
728.597	0.0146868
728.675	0.0142979
728.753	0.0137533
728.831	0.0134342
728.910	0.0130826
728.988	0.0126416
729.066	0.0123834
729.144	0.0120659
729.222	0.0115900
729.300	0.0113622
729.378	0.0110397
729.456	0.0111637
729.535	0.0110098
729.613	0.0109534
729.691	0.0111372
729.769	0.0113355
729.847	0.0113162
729.925	0.0117253
730.003	0.0120623
730.081	0.0120049
730.160	0.0122067
730.238	0.0124093
730.316	0.0124786
730.394	0.0127432
730.472	0.0127003
730.550	0.0128171
730.628	0.0130182
730.706	0.0132495
730.785	0.0135075
730.863	0.0136449
730.941	0.0138715
731.019	0.0142347
731.097	0.0144821
731.175	0.0148977
731.253	0.0154506
731.331	0.0157935
731.410	0.0161299
731.488	0.0166035
731.566	0.0168093
731.644	0.0170952
731.722	0.0173842
731.800	0.0176791
731.878	0.0175571
731.956	0.0177286
732.035	0.0177327
732.113	0.0176160
732.191	0.0175813
732.269	0.0176164
732.347	0.0173926
732.425	0.0173267
732.503	0.0172131
732.581	0.0171158
732.660	0.0168851
732.738	0.0168816
732.816	0.0165279
732.894	0.0163896
732.972	0.0162123
733.050	0.0160751
733.128	0.0156384
733.206	0.0152725
733.285	0.0150873
733.363	0.0146396
733.441	0.0141830
733.519	0.0140105
733.597	0.0137689
733.675	0.0134220
733.753	0.0129562
733.831	0.0128535
733.910	0.0127003
733.988	0.0123032
734.066	0.0121356
734.144	0.0120407
734.222	0.0118032
734.300	0.0117605
734.378	0.0116653
734.456	0.0116364
734.535	0.0116640
734.613	0.0115115
734.691	0.0115701
734.769	0.0115888
734.847	0.0115014
734.925	0.0114128
735.003	0.0114258
735.081	0.0115828
735.160	0.0116880
735.238	0.0117179
735.316	0.0117847
735.394	0.0120627
735.472	0.0123518
735.550	0.0126711
735.628	0.0132684
735.706	0.0135648
735.785	0.0141056
735.863	0.0145882
735.941	0.0149651
736.019	0.0152489
736.097	0.0157522
736.175	0.0160905
736.253	0.0164169
736.331	0.0166082
736.410	0.0167310
736.488	0.0170598
736.566	0.0172511
736.644	0.0173206
736.722	0.0173463
736.800	0.0174658
736.878	0.0176335
736.956	0.0176296
737.035	0.0177119
737.113	0.0177726
737.191	0.0177396
737.269	0.0176262
737.347	0.0175121
737.425	0.0174984
737.503	0.0173717
737.581	0.0172549
737.660	0.0169866
737.738	0.0167140
737.816	0.0164378
737.894	0.0161708
737.972	0.0158950
738.050	0.0156405
738.128	0.0153267
738.206	0.0149471
738.285	0.0144680
738.363	0.0141553
738.441	0.0137132
738.519	0.0133757
738.597	0.0130603
738.675	0.0127672
738.753	0.0123920
738.831	0.0121649
738.910	0.0118874
738.988	0.0115991
739.066	0.0115255
739.144	0.0114030
739.222	0.0113348
739.300	0.0112675
739.378	0.0112363
739.456	0.0113325
739.535	0.0114156
739.613	0.0115136
739.691	0.0115236
739.769	0.0116261
739.847	0.0119051
739.925	0.0120226
740.003	0.0120715
740.081	0.0122434
740.160	0.0126126
740.238	0.0127500
740.316	0.0131348
740.394	0.0132612
740.472	0.0134682
740.550	0.0138803
740.628	0.0141789
740.706	0.0143481
740.785	0.0145290
740.863	0.0149347
740.941	0.0152606
741.019	0.0155927
741.097	0.0160043
741.175	0.0162267
741.253	0.0164481
741.331	0.0168724
741.410	0.0169475
741.488	0.0172348
741.566	0.0172929
741.644	0.0175780
741.722	0.0175881
741.800	0.0174904
741.878	0.0174229
741.956	0.0173937
742.035	0.0174444
742.113	0.0171770
742.191	0.0169676
742.269	0.0167753
742.347	0.0164343
742.425	0.0162492
742.503	0.0160388
742.581	0.0157632
742.660	0.0156371
742.738	0.0153584
742.816	0.0151643
742.894	0.0149965
742.972	0.0149250
743.050	0.0146089
743.128	0.0143746
743.206	0.0141746
743.285	0.0141869
743.363	0.0137553
743.441	0.0134807
743.519	0.0133853
743.597	0.0130711
743.675	0.0129892
743.753	0.0128763
743.831	0.0127063
743.910	0.0124989
743.988	0.0125692
744.066	0.0124493
744.144	0.0122828
744.222	0.0123306
744.300	0.0123232
744.378	0.0124660
744.456	0.0124548
744.535	0.0125884
744.613	0.0126698
744.691	0.0128087
744.769	0.0131628
744.847	0.0132055
744.925	0.0134286
745.003	0.0135592
745.081	0.0136240
745.160	0.0137534
745.238	0.0139594
745.316	0.0139921
745.394	0.0141530
745.472	0.0142410
745.550	0.0143861
