05/03/2022	20:19:32	Ver.	4.1	UNKNOWN
Optical Delay	660.003261	Delta X		0.078125	Sweeps	1	Scan Rate	0/0
Coordinates	Axis 1	NaN	Axis 2	NaN	Axis 3	NaN	Axis 4	NaN	Axis 5	NaN	Axis 6	0.000000
TX Power	0.000000	RX Power	0.000000

660.003	0.0145341
660.081	0.0146225
660.160	0.0145223
660.238	0.0143970
660.316	0.0145558
660.394	0.0145357
660.472	0.0145736
660.550	0.0144473
660.628	0.0145702
660.706	0.0143945
660.785	0.0144265
660.863	0.0145567
660.941	0.0145863
661.019	0.0146054
661.097	0.0145634
661.175	0.0145000
661.253	0.0145213
661.331	0.0146463
661.410	0.0145252
661.488	0.0144507
661.566	0.0144075
661.644	0.0145293
661.722	0.0145798
661.800	0.0144586
661.878	0.0145083
661.956	0.0147049
662.035	0.0145396
662.113	0.0145374
662.191	0.0145805
662.269	0.0144102
662.347	0.0144703
662.425	0.0144915
662.503	0.0145620
662.581	0.0145426
662.660	0.0145684
662.738	0.0145911
662.816	0.0145127
662.894	0.0146399
662.972	0.0146449
663.050	0.0145649
663.128	0.0145421
663.206	0.0145201
663.285	0.0145171
663.363	0.0145972
663.441	0.0145837
663.519	0.0146357
663.597	0.0146672
663.675	0.0144623
663.753	0.0145325
663.831	0.0144454
663.910	0.0144049
663.988	0.0143875
664.066	0.0144388
664.144	0.0144880
664.222	0.0145215
664.300	0.0143416
664.378	0.0145593
664.456	0.0144596
664.535	0.0145517
664.613	0.0146007
664.691	0.0146167
664.769	0.0145158
664.847	0.0144560
664.925	0.0145090
665.003	0.0144132
665.081	0.0143208
665.160	0.0144108
665.238	0.0146038
665.316	0.0144965
665.394	0.0144331
665.472	0.0145595
665.550	0.0143694
665.628	0.0144358
665.706	0.0144878
665.785	0.0143835
665.863	0.0144945
665.941	0.0146294
666.019	0.0144521
666.097	0.0145546
666.175	0.0146304
666.253	0.0145595
666.331	0.0145465
666.410	0.0143726
666.488	0.0144668
666.566	0.0145319
666.644	0.0145710
666.722	0.0145992
666.800	0.0145058
666.878	0.0145280
666.956	0.0144699
667.035	0.0146020
667.113	0.0145829
667.191	0.0144633
667.269	0.0144390
667.347	0.0145638
667.425	0.0144703
667.503	0.0144885
667.581	0.0146179
667.660	0.0144823
667.738	0.0144431
667.816	0.0145164
667.894	0.0146549
667.972	0.0145451
668.050	0.0144490
668.128	0.0146056
668.206	0.0144917
668.285	0.0146471
668.363	0.0146036
668.441	0.0145408
668.519	0.0143787
668.597	0.0145399
668.675	0.0146732
668.753	0.0144833
668.831	0.0146213
668.910	0.0146042
668.988	0.0145731
669.066	0.0144766
669.144	0.0144258
669.222	0.0145400
669.300	0.0145341
669.378	0.0144781
669.456	0.0146306
669.535	0.0144672
669.613	0.0145428
669.691	0.0144968
669.769	0.0145446
669.847	0.0146226
669.925	0.0146159
670.003	0.0145928
670.081	0.0144332
670.160	0.0145400
670.238	0.0145860
670.316	0.0145218
670.394	0.0144476
670.472	0.0145196
670.550	0.0144728
670.628	0.0145875
670.706	0.0144203
670.785	0.0145245
670.863	0.0143481
670.941	0.0145052
671.019	0.0145223
671.097	0.0144920
671.175	0.0144775
671.253	0.0144638
671.331	0.0145196
671.410	0.0145248
671.488	0.0144310
671.566	0.0145783
671.644	0.0144212
671.722	0.0143726
671.800	0.0144485
671.878	0.0144579
671.956	0.0144850
672.035	0.0145082
672.113	0.0144272
672.191	0.0145207
672.269	0.0143494
672.347	0.0144141
672.425	0.0144790
672.503	0.0145342
672.581	0.0144010
672.660	0.0144872
672.738	0.0143754
672.816	0.0144834
672.894	0.0144692
672.972	0.0144613
673.050	0.0145626
673.128	0.0145275
673.206	0.0144737
673.285	0.0145170
673.363	0.0143992
673.441	0.0144153
673.519	0.0144737
673.597	0.0144936
673.675	0.0143162
673.753	0.0144754
673.831	0.0146082
673.910	0.0144219
673.988	0.0145161
674.066	0.0145667
674.144	0.0144731
674.222	0.0145760
674.300	0.0144881
674.378	0.0144911
674.456	0.0145814
674.535	0.0146494
674.613	0.0143713
674.691	0.0144797
674.769	0.0146649
674.847	0.0145799
674.925	0.0146918
675.003	0.0144865
675.081	0.0143382
675.160	0.0143857
675.238	0.0145205
675.316	0.0146552
675.394	0.0145094
675.472	0.0145967
675.550	0.0144879
675.628	0.0144637
675.706	0.0146365
675.785	0.0145303
675.863	0.0145338
675.941	0.0144799
676.019	0.0144362
676.097	0.0144545
676.175	0.0144936
676.253	0.0145031
676.331	0.0146213
676.410	0.0145381
676.488	0.0143800
676.566	0.0146068
676.644	0.0144614
676.722	0.0144907
676.800	0.0145396
676.878	0.0144485
676.956	0.0144791
677.035	0.0145409
677.113	0.0143756
677.191	0.0145220
677.269	0.0145610
677.347	0.0145293
677.425	0.0145346
677.503	0.0145393
677.581	0.0144897
677.660	0.0145913
677.738	0.0144568
677.816	0.0145245
677.894	0.0146764
677.972	0.0144872
678.050	0.0143867
678.128	0.0146158
678.206	0.0145933
678.285	0.0145034
678.363	0.0145465
678.441	0.0144367
678.519	0.0145462
678.597	0.0145454
678.675	0.0146953
678.753	0.0146082
678.831	0.0145791
678.910	0.0144732
678.988	0.0144386
679.066	0.0145586
679.144	0.0145702
679.222	0.0145394
679.300	0.0144456
679.378	0.0146103
679.456	0.0144967
679.535	0.0144076
679.613	0.0146288
679.691	0.0145805
679.769	0.0145878
679.847	0.0146205
679.925	0.0144363
680.003	0.0146035
680.081	0.0146731
680.160	0.0145257
680.238	0.0144641
680.316	0.0146311
680.394	0.0145178
680.472	0.0145021
680.550	0.0145350
680.628	0.0145898
680.706	0.0144309
680.785	0.0145139
680.863	0.0146621
680.941	0.0146657
681.019	0.0145734
681.097	0.0144922
681.175	0.0145602
681.253	0.0145142
681.331	0.0144285
681.410	0.0145367
681.488	0.0144917
681.566	0.0144905
681.644	0.0145224
681.722	0.0145937
681.800	0.0144815
681.878	0.0143718
681.956	0.0145643
682.035	0.0145018
682.113	0.0145554
682.191	0.0145325
682.269	0.0145744
682.347	0.0144463
682.425	0.0146053
682.503	0.0145378
682.581	0.0144067
682.660	0.0145289
682.738	0.0144296
682.816	0.0145583
682.894	0.0145319
682.972	0.0143238
683.050	0.0145447
683.128	0.0145659
683.206	0.0145894
683.285	0.0144846
683.363	0.0145052
683.441	0.0144617
683.519	0.0144910
683.597	0.0144543
683.675	0.0145265
683.753	0.0145647
683.831	0.0145088
683.910	0.0144980
683.988	0.0144997
684.066	0.0144878
684.144	0.0144404
684.222	0.0145614
684.300	0.0146358
684.378	0.0144923
684.456	0.0144868
684.535	0.0144582
684.613	0.0144522
684.691	0.0144603
684.769	0.0144456
684.847	0.0143281
684.925	0.0144762
685.003	0.0146056
685.081	0.0144904
685.160	0.0145248
685.238	0.0144852
685.316	0.0144804
685.394	0.0145080
685.472	0.0144630
685.550	0.0144254
685.628	0.0144792
685.706	0.0144650
685.785	0.0144781
685.863	0.0144540
685.941	0.0145418
686.019	0.0144301
686.097	0.0142846
686.175	0.0145602
686.253	0.0144394
686.331	0.0143584
686.410	0.0143845
686.488	0.0144906
686.566	0.0144576
686.644	0.0142842
686.722	0.0146223
686.800	0.0144559
686.878	0.0144019
686.956	0.0143454
687.035	0.0143877
687.113	0.0145102
687.191	0.0145530
687.269	0.0145721
687.347	0.0144664
687.425	0.0145451
687.503	0.0144017
687.581	0.0144898
687.660	0.0145003
687.738	0.0145722
687.816	0.0145946
687.894	0.0145535
687.972	0.0145595
688.050	0.0145513
688.128	0.0143995
688.206	0.0144424
688.285	0.0144986
688.363	0.0145103
688.441	0.0145967
688.519	0.0144849
688.597	0.0145564
688.675	0.0144933
688.753	0.0145325
688.831	0.0145080
688.910	0.0145593
688.988	0.0144516
689.066	0.0144778
689.144	0.0145445
689.222	0.0144103
689.300	0.0144704
689.378	0.0145807
689.456	0.0145702
689.535	0.0144296
689.613	0.0144931
689.691	0.0143327
689.769	0.0143839
689.847	0.0145903
689.925	0.0146197
690.003	0.0145727
690.081	0.0146159
690.160	0.0144382
690.238	0.0145825
690.316	0.0145026
690.394	0.0145426
690.472	0.0144978
690.550	0.0145517
690.628	0.0143887
690.706	0.0145783
690.785	0.0146121
690.863	0.0144381
690.941	0.0144551
691.019	0.0145448
691.097	0.0146204
691.175	0.0143901
691.253	0.0145364
691.331	0.0146097
691.410	0.0146326
691.488	0.0145255
691.566	0.0144786
691.644	0.0144589
691.722	0.0144557
691.800	0.0145404
691.878	0.0145399
691.956	0.0146766
692.035	0.0145930
692.113	0.0144082
692.191	0.0145435
692.269	0.0144888
692.347	0.0143786
692.425	0.0145223
692.503	0.0143768
692.581	0.0144077
692.660	0.0145410
692.738	0.0144421
692.816	0.0144702
692.894	0.0145349
692.972	0.0144774
693.050	0.0145150
693.128	0.0144589
693.206	0.0145148
693.285	0.0145186
693.363	0.0144144
693.441	0.0145449
693.519	0.0144621
693.597	0.0143896
693.675	0.0145157
693.753	0.0145387
693.831	0.0144685
693.910	0.0144806
693.988	0.0145545
694.066	0.0144744
694.144	0.0144361
694.222	0.0146169
694.300	0.0143822
694.378	0.0145607
694.456	0.0145045
694.535	0.0144816
694.613	0.0146216
694.691	0.0145637
694.769	0.0144575
694.847	0.0144147
694.925	0.0145192
695.003	0.0146880
695.081	0.0145328
695.160	0.0146326
695.238	0.0145150
695.316	0.0144757
695.394	0.0144102
695.472	0.0145799
695.550	0.0145926
695.628	0.0145683
695.706	0.0143775
695.785	0.0143969
695.863	0.0145336
695.941	0.0144320
696.019	0.0144709
696.097	0.0145737
696.175	0.0145303
696.253	0.0146389
696.331	0.0143760
696.410	0.0143872
696.488	0.0144843
696.566	0.0144594
696.644	0.0144212
696.722	0.0144796
696.800	0.0144619
696.878	0.0144262
696.956	0.0145261
697.035	0.0144033
697.113	0.0145450
697.191	0.0145825
697.269	0.0144570
697.347	0.0145679
697.425	0.0142711
697.503	0.0144888
697.581	0.0144005
697.660	0.0144980
697.738	0.0144734
697.816	0.0143211
697.894	0.0144450
697.972	0.0143153
698.050	0.0144773
698.128	0.0145012
698.206	0.0143544
698.285	0.0145352
698.363	0.0145515
698.441	0.0146613
698.519	0.0146335
698.597	0.0148054
698.675	0.0147578
698.753	0.0147884
698.831	0.0145907
698.910	0.0145885
698.988	0.0146705
699.066	0.0144547
699.144	0.0142879
699.222	0.0143928
699.300	0.0140635
699.378	0.0139194
699.456	0.0139795
699.535	0.0138304
699.613	0.0138551
699.691	0.0139811
699.769	0.0140089
699.847	0.0143127
699.925	0.0144334
700.003	0.0145535
700.081	0.0148760
700.160	0.0150317
700.238	0.0150475
700.316	0.0154796
700.394	0.0156259
700.472	0.0157449
700.550	0.0158107
700.628	0.0159625
700.706	0.0158656
700.785	0.0156902
700.863	0.0157113
700.941	0.0154600
701.019	0.0151576
701.097	0.0147986
701.175	0.0145815
701.253	0.0141669
701.331	0.0138264
701.410	0.0133978
701.488	0.0130093
701.566	0.0126154
701.644	0.0121379
701.722	0.0120135
701.800	0.0117085
701.878	0.0116791
701.956	0.0117232
702.035	0.0118942
702.113	0.0123704
702.191	0.0128015
702.269	0.0132571
702.347	0.0140649
702.425	0.0147805
702.503	0.0152973
702.581	0.0158626
702.660	0.0162913
702.738	0.0167271
702.816	0.0169749
702.894	0.0173262
702.972	0.0176000
703.050	0.0178171
703.128	0.0179623
703.206	0.0179988
703.285	0.0179153
703.363	0.0179346
703.441	0.0177811
703.519	0.0174934
703.597	0.0169032
703.675	0.0162373
703.753	0.0155999
703.831	0.0148814
703.910	0.0141447
703.988	0.0135922
704.066	0.0128752
704.144	0.0122568
704.222	0.0119209
704.300	0.0113403
704.378	0.0108804
704.456	0.0106047
704.535	0.0103969
704.613	0.0102308
704.691	0.0102218
704.769	0.0103847
704.847	0.0106406
704.925	0.0110270
705.003	0.0114468
705.081	0.0120338
705.160	0.0124310
705.238	0.0129437
705.316	0.0135052
705.394	0.0139902
705.472	0.0144135
705.550	0.0147240
705.628	0.0151414
705.706	0.0154179
705.785	0.0157449
705.863	0.0158317
705.941	0.0163963
706.019	0.0166672
706.097	0.0170916
706.175	0.0177408
706.253	0.0181988
706.331	0.0189519
706.410	0.0196361
706.488	0.0201775
706.566	0.0205727
706.644	0.0209669
706.722	0.0211682
706.800	0.0209039
706.878	0.0204001
706.956	0.0194703
707.035	0.0186127
707.113	0.0173773
707.191	0.0159702
707.269	0.0144852
707.347	0.0131434
707.425	0.0117688
707.503	0.0106493
707.581	0.00958488
707.660	0.00888252
707.738	0.00829842
707.816	0.00792717
707.894	0.00789612
707.972	0.00800705
708.050	0.00813995
708.128	0.00853767
708.206	0.00886688
708.285	0.00925766
708.363	0.00959854
708.441	0.0100681
708.519	0.0104690
708.597	0.0110481
708.675	0.0116569
708.753	0.0123531
708.831	0.0129553
708.910	0.0135870
708.988	0.0142456
709.066	0.0147657
709.144	0.0150761
709.222	0.0155768
709.300	0.0161106
709.378	0.0163227
709.456	0.0169640
709.535	0.0173693
709.613	0.0179897
709.691	0.0185120
709.769	0.0190653
709.847	0.0198675
709.925	0.0206358
710.003	0.0210053
710.081	0.0213534
710.160	0.0215149
710.238	0.0215649
710.316	0.0212363
710.394	0.0207334
710.472	0.0200362
710.550	0.0194178
710.628	0.0183992
710.706	0.0175858
710.785	0.0165395
710.863	0.0155566
710.941	0.0144521
711.019	0.0135538
711.097	0.0126495
711.175	0.0116368
711.253	0.0108217
711.331	0.0101765
711.410	0.00951805
711.488	0.00879662
711.566	0.00830261
711.644	0.00807266
711.722	0.00796242
711.800	0.00793121
711.878	0.00814011
711.956	0.00826164
712.035	0.00873306
712.113	0.00910408
712.191	0.00948410
712.269	0.0102187
712.347	0.0107207
712.425	0.0111750
712.503	0.0117837
712.581	0.0121372
712.660	0.0127010
712.738	0.0130920
712.816	0.0136071
712.894	0.0140335
712.972	0.0147312
713.050	0.0151210
713.128	0.0157832
713.206	0.0165459
713.285	0.0172508
713.363	0.0180508
713.441	0.0188053
713.519	0.0196358
713.597	0.0204010
713.675	0.0210020
713.753	0.0214200
713.831	0.0216048
713.910	0.0215264
713.988	0.0215330
714.066	0.0208364
714.144	0.0200294
714.222	0.0191993
714.300	0.0185754
714.378	0.0178204
714.456	0.0168488
714.535	0.0162325
714.613	0.0154943
714.691	0.0149262
714.769	0.0144642
714.847	0.0138348
714.925	0.0132835
715.003	0.0128551
715.081	0.0122887
715.160	0.0118506
715.238	0.0114984
715.316	0.0108018
715.394	0.0102941
715.472	0.0100385
715.550	0.00978966
715.628	0.00969948
715.706	0.00976608
715.785	0.00978592
715.863	0.00979607
715.941	0.0101153
716.019	0.0103698
716.097	0.0106860
716.175	0.0109022
716.253	0.0112976
716.331	0.0116864
716.410	0.0120119
716.488	0.0124410
716.566	0.0127504
716.644	0.0131882
716.722	0.0133046
716.800	0.0137860
716.878	0.0139717
716.956	0.0142091
717.035	0.0145492
717.113	0.0150680
717.191	0.0154271
717.269	0.0158869
717.347	0.0165320
717.425	0.0169553
717.503	0.0174794
717.581	0.0180681
717.660	0.0188237
717.738	0.0191836
717.816	0.0194611
717.894	0.0196741
717.972	0.0195866
718.050	0.0195171
718.128	0.0192364
718.206	0.0189105
718.285	0.0183668
718.363	0.0178816
718.441	0.0173976
718.519	0.0167052
718.597	0.0160784
718.675	0.0155752
718.753	0.0149396
718.831	0.0146924
718.910	0.0143836
718.988	0.0139670
719.066	0.0137067
719.144	0.0134077
719.222	0.0130821
719.300	0.0127184
719.378	0.0124800
719.456	0.0121506
719.535	0.0117931
719.613	0.0115451
719.691	0.0112203
719.769	0.0110511
719.847	0.0109022
719.925	0.0109309
720.003	0.0110522
720.081	0.0112991
720.160	0.0114364
720.238	0.0116174
720.316	0.0119744
720.394	0.0121810
720.472	0.0126299
720.550	0.0128072
720.628	0.0129861
720.706	0.0131649
720.785	0.0132494
720.863	0.0132516
720.941	0.0134541
721.019	0.0133690
721.097	0.0134818
721.175	0.0135059
721.253	0.0134047
721.331	0.0138932
721.410	0.0140615
721.488	0.0143378
721.566	0.0147459
721.644	0.0151915
721.722	0.0157833
721.800	0.0163105
721.878	0.0169868
721.956	0.0173300
722.035	0.0177689
722.113	0.0181176
722.191	0.0183271
722.269	0.0186642
722.347	0.0184338
722.425	0.0184676
722.503	0.0183107
722.581	0.0178779
722.660	0.0175742
722.738	0.0173872
722.816	0.0169560
722.894	0.0165274
722.972	0.0160983
723.050	0.0159395
723.128	0.0157142
723.206	0.0153786
723.285	0.0150333
723.363	0.0148957
723.441	0.0145985
723.519	0.0141293
723.597	0.0140681
723.675	0.0137975
723.753	0.0135206
723.831	0.0133436
723.910	0.0130365
723.988	0.0129112
724.066	0.0128559
724.144	0.0126810
724.222	0.0125503
724.300	0.0123907
724.378	0.0122590
724.456	0.0120909
724.535	0.0120486
724.613	0.0118899
724.691	0.0116306
724.769	0.0116721
724.847	0.0115615
724.925	0.0113701
725.003	0.0114442
725.081	0.0115631
725.160	0.0115647
725.238	0.0116864
725.316	0.0118980
725.394	0.0122401
725.472	0.0124271
725.550	0.0127568
725.628	0.0130592
725.706	0.0135290
725.785	0.0138854
725.863	0.0142314
725.941	0.0146497
726.019	0.0150182
726.097	0.0153150
726.175	0.0155991
726.253	0.0159184
726.331	0.0163535
726.410	0.0163871
726.488	0.0165842
726.566	0.0169578
726.644	0.0170406
726.722	0.0172023
726.800	0.0172163
726.878	0.0174090
726.956	0.0175185
727.035	0.0173625
727.113	0.0173543
727.191	0.0175042
727.269	0.0174725
727.347	0.0174773
727.425	0.0171925
727.503	0.0172273
727.581	0.0171929
727.660	0.0171740
727.738	0.0170347
727.816	0.0168930
727.894	0.0167735
727.972	0.0164675
728.050	0.0161607
728.128	0.0158044
728.206	0.0155779
728.285	0.0150749
728.363	0.0146843
728.441	0.0143463
728.519	0.0139000
728.597	0.0134890
728.675	0.0129729
728.753	0.0126883
728.831	0.0124662
728.910	0.0121735
728.988	0.0117610
729.066	0.0115027
729.144	0.0115176
729.222	0.0113123
729.300	0.0111064
729.378	0.0113155
729.456	0.0110480
729.535	0.0114572
729.613	0.0114417
729.691	0.0116886
729.769	0.0117418
729.847	0.0118218
729.925	0.0119230
730.003	0.0121008
730.081	0.0121374
730.160	0.0122667
730.238	0.0123499
730.316	0.0124425
730.394	0.0125193
730.472	0.0127126
730.550	0.0130036
730.628	0.0131738
730.706	0.0134567
730.785	0.0139405
730.863	0.0141343
730.941	0.0144561
731.019	0.0150098
731.097	0.0155115
731.175	0.0158308
731.253	0.0163876
731.331	0.0167635
731.410	0.0170979
731.488	0.0175298
731.566	0.0174102
731.644	0.0175671
731.722	0.0179140
731.800	0.0177623
731.878	0.0176541
731.956	0.0177345
732.035	0.0178106
732.113	0.0175240
732.191	0.0175661
732.269	0.0173882
732.347	0.0174246
732.425	0.0173108
732.503	0.0170476
732.581	0.0167818
732.660	0.0167954
732.738	0.0166547
732.816	0.0162836
732.894	0.0161213
732.972	0.0157702
733.050	0.0154456
733.128	0.0150317
733.206	0.0148329
733.285	0.0143790
733.363	0.0141809
733.441	0.0139746
733.519	0.0134795
733.597	0.0131948
733.675	0.0128472
733.753	0.0126407
733.831	0.0122899
733.910	0.0120551
733.988	0.0118658
734.066	0.0115972
734.144	0.0115051
734.222	0.0114690
734.300	0.0114099
734.378	0.0112772
734.456	0.0112317
734.535	0.0110888
734.613	0.0111707
734.691	0.0110767
734.769	0.0111317
734.847	0.0111900
734.925	0.0111848
735.003	0.0112247
735.081	0.0114730
735.160	0.0117101
735.238	0.0118858
735.316	0.0122609
735.394	0.0126458
735.472	0.0131838
735.550	0.0135265
735.628	0.0140213
735.706	0.0145383
735.785	0.0147946
735.863	0.0152942
735.941	0.0156987
736.019	0.0159989
736.097	0.0163082
736.175	0.0165849
736.253	0.0167342
736.331	0.0169270
736.410	0.0173244
736.488	0.0173175
736.566	0.0176492
736.644	0.0176858
736.722	0.0179157
736.800	0.0179666
736.878	0.0180136
736.956	0.0180197
737.035	0.0178610
737.113	0.0179234
737.191	0.0179185
737.269	0.0176001
737.347	0.0174295
737.425	0.0174891
737.503	0.0173370
737.581	0.0167798
737.660	0.0165556
737.738	0.0162709
737.816	0.0161178
737.894	0.0158216
737.972	0.0153170
738.050	0.0148575
738.128	0.0145068
738.206	0.0142864
738.285	0.0138872
738.363	0.0134997
738.441	0.0131119
738.519	0.0127822
738.597	0.0124901
738.675	0.0122198
738.753	0.0120241
738.831	0.0118459
738.910	0.0114825
738.988	0.0114082
739.066	0.0113569
739.144	0.0113445
739.222	0.0114468
739.300	0.0112730
739.378	0.0113276
739.456	0.0114414
739.535	0.0115087
739.613	0.0116500
739.691	0.0118443
739.769	0.0120753
739.847	0.0119505
739.925	0.0122913
740.003	0.0123872
740.081	0.0127451
740.160	0.0127441
740.238	0.0131239
740.316	0.0134390
740.394	0.0136126
740.472	0.0138853
740.550	0.0141028
740.628	0.0145811
740.706	0.0147680
740.785	0.0152522
740.863	0.0156973
740.941	0.0157631
741.019	0.0161256
741.097	0.0163956
741.175	0.0166312
741.253	0.0167924
741.331	0.0170490
741.410	0.0172006
741.488	0.0171969
741.566	0.0172845
741.644	0.0172958
741.722	0.0172532
741.800	0.0172475
741.878	0.0171729
741.956	0.0169944
742.035	0.0168645
742.113	0.0168026
742.191	0.0165813
742.269	0.0163596
742.347	0.0160984
742.425	0.0159678
742.503	0.0158035
742.581	0.0156465
742.660	0.0154424
742.738	0.0152612
742.816	0.0151122
742.894	0.0150141
742.972	0.0148318
743.050	0.0145824
743.128	0.0143467
743.206	0.0142046
743.285	0.0138138
743.363	0.0137590
743.441	0.0135233
743.519	0.0133458
743.597	0.0131596
743.675	0.0129210
743.753	0.0128272
743.831	0.0125488
743.910	0.0126309
743.988	0.0125510
744.066	0.0126405
744.144	0.0123421
744.222	0.0123750
744.300	0.0126397
744.378	0.0126178
744.456	0.0128467
744.535	0.0128816
744.613	0.0131612
744.691	0.0133246
744.769	0.0133177
744.847	0.0135613
744.925	0.0136977
745.003	0.0137057
745.081	0.0138268
745.160	0.0137976
745.238	0.0138868
745.316	0.0141024
745.394	0.0139294
745.472	0.0138341
745.550	0.0138605
745.628	0.0140699
