05/03/2022	20:20:02	Ver.	4.1	UNKNOWN
Optical Delay	660.003261	Delta X		0.078125	Sweeps	1	Scan Rate	0/0
Coordinates	Axis 1	NaN	Axis 2	NaN	Axis 3	NaN	Axis 4	NaN	Axis 5	NaN	Axis 6	0.000000
TX Power	0.000000	RX Power	0.000000

660.003	0.0146236
660.081	0.0145286
660.160	0.0146355
660.238	0.0146478
660.316	0.0146574
660.394	0.0147068
660.472	0.0146913
660.550	0.0146437
660.628	0.0146157
660.706	0.0146382
660.785	0.0145487
660.863	0.0147329
660.941	0.0146343
661.019	0.0145605
661.097	0.0147251
661.175	0.0146290
661.253	0.0147588
661.331	0.0145491
661.410	0.0146653
661.488	0.0146281
661.566	0.0144635
661.644	0.0147134
661.722	0.0146090
661.800	0.0146441
661.878	0.0147121
661.956	0.0145647
662.035	0.0145811
662.113	0.0146362
662.191	0.0145874
662.269	0.0146712
662.347	0.0145893
662.425	0.0145718
662.503	0.0145726
662.581	0.0147739
662.660	0.0147151
662.738	0.0146275
662.816	0.0145768
662.894	0.0144608
662.972	0.0146773
663.050	0.0146249
663.128	0.0145512
663.206	0.0144572
663.285	0.0145650
663.363	0.0146646
663.441	0.0146197
663.519	0.0146398
663.597	0.0147671
663.675	0.0145720
663.753	0.0146099
663.831	0.0146220
663.910	0.0145274
663.988	0.0144795
664.066	0.0146970
664.144	0.0146878
664.222	0.0146922
664.300	0.0146777
664.378	0.0145649
664.456	0.0145435
664.535	0.0144336
664.613	0.0146755
664.691	0.0147275
664.769	0.0145609
664.847	0.0145805
664.925	0.0145551
665.003	0.0146597
665.081	0.0145441
665.160	0.0145757
665.238	0.0146469
665.316	0.0146172
665.394	0.0145692
665.472	0.0147147
665.550	0.0145745
665.628	0.0145593
665.706	0.0145415
665.785	0.0146068
665.863	0.0146548
665.941	0.0145770
666.019	0.0145458
666.097	0.0145131
666.175	0.0146063
666.253	0.0146851
666.331	0.0146300
666.410	0.0145421
666.488	0.0144720
666.566	0.0146507
666.644	0.0146888
666.722	0.0145728
666.800	0.0147355
666.878	0.0145126
666.956	0.0146083
667.035	0.0147170
667.113	0.0144864
667.191	0.0145924
667.269	0.0146137
667.347	0.0146388
667.425	0.0146342
667.503	0.0145244
667.581	0.0146096
667.660	0.0146356
667.738	0.0146740
667.816	0.0146352
667.894	0.0146770
667.972	0.0145569
668.050	0.0145684
668.128	0.0146111
668.206	0.0145982
668.285	0.0146313
668.363	0.0145888
668.441	0.0145783
668.519	0.0145324
668.597	0.0145863
668.675	0.0146873
668.753	0.0145440
668.831	0.0145663
668.910	0.0144978
668.988	0.0147220
669.066	0.0148046
669.144	0.0145934
669.222	0.0146268
669.300	0.0146352
669.378	0.0146609
669.456	0.0147595
669.535	0.0145604
669.613	0.0144772
669.691	0.0146445
669.769	0.0146504
669.847	0.0145076
669.925	0.0145775
670.003	0.0146656
670.081	0.0146698
670.160	0.0146866
670.238	0.0146423
670.316	0.0145056
670.394	0.0144942
670.472	0.0146263
670.550	0.0145984
670.628	0.0145894
670.706	0.0147418
670.785	0.0145744
670.863	0.0145478
670.941	0.0145548
671.019	0.0145233
671.097	0.0146127
671.175	0.0145450
671.253	0.0144621
671.331	0.0145218
671.410	0.0145907
671.488	0.0145612
671.566	0.0146294
671.644	0.0145583
671.722	0.0145812
671.800	0.0147341
671.878	0.0145361
671.956	0.0145776
672.035	0.0146818
672.113	0.0144836
672.191	0.0145541
672.269	0.0146403
672.347	0.0146327
672.425	0.0145988
672.503	0.0146809
672.581	0.0144899
672.660	0.0143624
672.738	0.0147128
672.816	0.0147197
672.894	0.0146288
672.972	0.0146194
673.050	0.0145797
673.128	0.0145795
673.206	0.0145779
673.285	0.0145591
673.363	0.0145874
673.441	0.0146843
673.519	0.0145676
673.597	0.0146571
673.675	0.0146161
673.753	0.0146713
673.831	0.0145691
673.910	0.0146144
673.988	0.0146589
674.066	0.0145178
674.144	0.0146255
674.222	0.0145855
674.300	0.0146088
674.378	0.0145389
674.456	0.0146129
674.535	0.0147508
674.613	0.0146744
674.691	0.0145940
674.769	0.0145882
674.847	0.0144276
674.925	0.0146213
675.003	0.0145363
675.081	0.0147368
675.160	0.0146513
675.238	0.0145956
675.316	0.0145858
675.394	0.0146679
675.472	0.0146172
675.550	0.0146658
675.628	0.0147542
675.706	0.0145615
675.785	0.0146023
675.863	0.0145649
675.941	0.0145377
676.019	0.0146733
676.097	0.0146291
676.175	0.0146422
676.253	0.0146180
676.331	0.0145442
676.410	0.0146754
676.488	0.0147412
676.566	0.0147366
676.644	0.0147124
676.722	0.0145692
676.800	0.0145572
676.878	0.0147075
676.956	0.0145767
677.035	0.0145863
677.113	0.0147181
677.191	0.0146291
677.269	0.0145854
677.347	0.0146339
677.425	0.0146497
677.503	0.0146816
677.581	0.0147456
677.660	0.0146236
677.738	0.0146358
677.816	0.0147813
677.894	0.0146480
677.972	0.0147425
678.050	0.0146150
678.128	0.0145185
678.206	0.0146178
678.285	0.0147638
678.363	0.0147077
678.441	0.0144592
678.519	0.0144865
678.597	0.0147129
678.675	0.0147544
678.753	0.0146158
678.831	0.0147470
678.910	0.0146607
678.988	0.0146669
679.066	0.0147594
679.144	0.0147365
679.222	0.0145860
679.300	0.0147257
679.378	0.0146536
679.456	0.0146592
679.535	0.0146534
679.613	0.0146809
679.691	0.0145818
679.769	0.0147009
679.847	0.0146725
679.925	0.0145795
680.003	0.0146088
680.081	0.0146580
680.160	0.0146185
680.238	0.0146590
680.316	0.0146945
680.394	0.0145311
680.472	0.0146886
680.550	0.0147240
680.628	0.0145719
680.706	0.0146203
680.785	0.0147016
680.863	0.0146581
680.941	0.0146200
681.019	0.0147012
681.097	0.0146451
681.175	0.0146412
681.253	0.0146001
681.331	0.0146142
681.410	0.0145844
681.488	0.0146404
681.566	0.0146496
681.644	0.0146331
681.722	0.0146281
681.800	0.0145343
681.878	0.0146733
681.956	0.0147620
682.035	0.0146236
682.113	0.0145406
682.191	0.0146548
682.269	0.0145409
682.347	0.0145829
682.425	0.0146788
682.503	0.0146429
682.581	0.0146539
682.660	0.0146759
682.738	0.0146007
682.816	0.0144668
682.894	0.0145701
682.972	0.0146018
683.050	0.0146538
683.128	0.0146172
683.206	0.0145792
683.285	0.0145809
683.363	0.0145896
683.441	0.0145842
683.519	0.0146774
683.597	0.0145052
683.675	0.0145212
683.753	0.0146153
683.831	0.0145859
683.910	0.0145040
683.988	0.0146176
684.066	0.0145794
684.144	0.0145450
684.222	0.0146291
684.300	0.0146037
684.378	0.0146508
684.456	0.0146701
684.535	0.0144176
684.613	0.0145908
684.691	0.0145313
684.769	0.0145734
684.847	0.0145946
684.925	0.0147160
685.003	0.0146377
685.081	0.0146250
685.160	0.0145326
685.238	0.0144230
685.316	0.0146114
685.394	0.0147581
685.472	0.0145153
685.550	0.0144663
685.628	0.0144906
685.706	0.0145334
685.785	0.0144131
685.863	0.0146555
685.941	0.0146559
686.019	0.0146169
686.097	0.0147922
686.175	0.0146244
686.253	0.0146022
686.331	0.0144688
686.410	0.0146423
686.488	0.0145950
686.566	0.0147443
686.644	0.0145637
686.722	0.0146355
686.800	0.0146681
686.878	0.0146434
686.956	0.0144987
687.035	0.0146316
687.113	0.0147212
687.191	0.0146681
687.269	0.0146118
687.347	0.0146899
687.425	0.0145393
687.503	0.0146529
687.581	0.0147657
687.660	0.0145850
687.738	0.0145917
687.816	0.0147030
687.894	0.0147885
687.972	0.0147156
688.050	0.0146357
688.128	0.0145793
688.206	0.0144604
688.285	0.0146347
688.363	0.0145935
688.441	0.0148325
688.519	0.0146959
688.597	0.0146165
688.675	0.0145971
688.753	0.0146973
688.831	0.0146816
688.910	0.0146785
688.988	0.0146545
689.066	0.0147269
689.144	0.0146674
689.222	0.0146664
689.300	0.0146963
689.378	0.0147450
689.456	0.0146740
689.535	0.0145638
689.613	0.0145885
689.691	0.0146233
689.769	0.0146855
689.847	0.0145986
689.925	0.0147549
690.003	0.0146896
690.081	0.0145845
690.160	0.0146326
690.238	0.0146632
690.316	0.0146509
690.394	0.0145766
690.472	0.0146455
690.550	0.0145480
690.628	0.0146017
690.706	0.0146652
690.785	0.0146248
690.863	0.0146106
690.941	0.0146925
691.019	0.0146771
691.097	0.0146606
691.175	0.0144956
691.253	0.0144685
691.331	0.0148042
691.410	0.0149239
691.488	0.0146721
691.566	0.0146754
691.644	0.0146495
691.722	0.0147012
691.800	0.0146074
691.878	0.0146878
691.956	0.0146142
692.035	0.0145841
692.113	0.0145329
692.191	0.0145774
692.269	0.0147231
692.347	0.0146695
692.425	0.0145645
692.503	0.0145200
692.581	0.0144487
692.660	0.0145731
692.738	0.0146072
692.816	0.0146587
692.894	0.0145627
692.972	0.0145963
693.050	0.0145389
693.128	0.0146636
693.206	0.0144900
693.285	0.0145940
693.363	0.0145433
693.441	0.0146008
693.519	0.0145881
693.597	0.0145177
693.675	0.0146494
693.753	0.0145226
693.831	0.0146528
693.910	0.0145988
693.988	0.0145174
694.066	0.0145799
694.144	0.0145338
694.222	0.0146226
694.300	0.0146291
694.378	0.0146153
694.456	0.0146637
694.535	0.0146413
694.613	0.0146908
694.691	0.0147861
694.769	0.0145517
694.847	0.0144905
694.925	0.0146653
695.003	0.0145901
695.081	0.0145750
695.160	0.0145066
695.238	0.0146690
695.316	0.0145634
695.394	0.0144709
695.472	0.0145727
695.550	0.0145563
695.628	0.0145921
695.706	0.0146976
695.785	0.0146331
695.863	0.0145718
695.941	0.0146973
696.019	0.0146024
696.097	0.0145521
696.175	0.0146581
696.253	0.0147614
696.331	0.0146455
696.410	0.0145827
696.488	0.0145229
696.566	0.0146021
696.644	0.0146809
696.722	0.0146491
696.800	0.0145757
696.878	0.0144736
696.956	0.0145233
697.035	0.0145390
697.113	0.0146033
697.191	0.0144839
697.269	0.0145802
697.347	0.0145099
697.425	0.0145710
697.503	0.0146090
697.581	0.0145802
697.660	0.0145778
697.738	0.0146178
697.816	0.0145450
697.894	0.0146688
697.972	0.0146770
698.050	0.0147370
698.128	0.0147598
698.206	0.0150301
698.285	0.0149286
698.363	0.0148562
698.441	0.0149747
698.519	0.0148497
698.597	0.0148952
698.675	0.0146759
698.753	0.0145141
698.831	0.0144700
698.910	0.0142902
698.988	0.0141734
699.066	0.0140009
699.144	0.0141048
699.222	0.0141214
699.300	0.0141797
699.378	0.0141183
699.456	0.0142899
699.535	0.0144925
699.613	0.0146074
699.691	0.0147865
699.769	0.0151847
699.847	0.0151602
699.925	0.0154061
700.003	0.0155874
700.081	0.0157033
700.160	0.0157496
700.238	0.0157593
700.316	0.0158215
700.394	0.0157246
700.472	0.0156291
700.550	0.0155232
700.628	0.0153275
700.706	0.0150527
700.785	0.0147685
700.863	0.0144935
700.941	0.0141060
701.019	0.0138863
701.097	0.0136343
701.175	0.0132038
701.253	0.0130672
701.331	0.0127317
701.410	0.0124527
701.488	0.0123663
701.566	0.0123157
701.644	0.0123075
701.722	0.0125584
701.800	0.0126843
701.878	0.0131796
701.956	0.0136096
702.035	0.0140985
702.113	0.0147478
702.191	0.0152374
702.269	0.0157687
702.347	0.0160638
702.425	0.0165936
702.503	0.0169881
702.581	0.0172225
702.660	0.0174802
702.738	0.0176591
702.816	0.0176479
702.894	0.0179882
702.972	0.0178857
703.050	0.0176023
703.128	0.0176286
703.206	0.0172702
703.285	0.0168077
703.363	0.0162753
703.441	0.0156702
703.519	0.0147450
703.597	0.0143174
703.675	0.0136839
703.753	0.0131637
703.831	0.0125860
703.910	0.0122945
703.988	0.0117615
704.066	0.0113774
704.144	0.0113303
704.222	0.0111154
704.300	0.0108730
704.378	0.0108700
704.456	0.0109875
704.535	0.0111968
704.613	0.0115126
704.691	0.0118846
704.769	0.0124974
704.847	0.0129237
704.925	0.0133037
705.003	0.0136849
705.081	0.0140617
705.160	0.0144884
705.238	0.0147595
705.316	0.0150674
705.394	0.0153265
705.472	0.0154481
705.550	0.0156869
705.628	0.0159694
705.706	0.0163151
705.785	0.0167761
705.863	0.0170251
705.941	0.0175532
706.019	0.0181855
706.097	0.0187140
706.175	0.0193201
706.253	0.0199104
706.331	0.0204615
706.410	0.0206033
706.488	0.0205652
706.566	0.0202319
706.644	0.0197060
706.722	0.0188659
706.800	0.0177494
706.878	0.0167115
706.956	0.0153688
707.035	0.0140073
707.113	0.0127442
707.191	0.0117843
707.269	0.0108441
707.347	0.0100150
707.425	0.00961250
707.503	0.00910217
707.581	0.00882751
707.660	0.00891243
707.738	0.00893646
707.816	0.00901428
707.894	0.00932930
707.972	0.00973877
708.050	0.00997459
708.128	0.0103359
708.206	0.0107768
708.285	0.0111662
708.363	0.0115937
708.441	0.0121459
708.519	0.0127219
708.597	0.0133437
708.675	0.0137908
708.753	0.0142595
708.831	0.0147932
708.910	0.0152496
708.988	0.0157790
709.066	0.0160485
709.144	0.0163019
709.222	0.0167285
709.300	0.0171815
709.378	0.0176352
709.456	0.0182933
709.535	0.0186604
709.613	0.0191867
709.691	0.0197852
709.769	0.0203952
709.847	0.0206561
709.925	0.0208174
710.003	0.0210628
710.081	0.0208674
710.160	0.0206697
710.238	0.0201388
710.316	0.0195643
710.394	0.0187890
710.472	0.0179548
710.550	0.0172387
710.628	0.0163309
710.706	0.0152795
710.785	0.0142807
710.863	0.0132334
710.941	0.0124899
711.019	0.0116908
711.097	0.0107851
711.175	0.0100814
711.253	0.00938354
711.331	0.00894615
711.410	0.00865936
711.488	0.00826012
711.566	0.00809341
711.644	0.00830246
711.722	0.00853012
711.800	0.00884773
711.878	0.00914589
711.956	0.00962296
712.035	0.0101633
712.113	0.0107848
712.191	0.0112953
712.269	0.0117452
712.347	0.0121783
712.425	0.0125588
712.503	0.0130757
712.581	0.0135729
712.660	0.0139581
712.738	0.0144823
712.816	0.0149165
712.894	0.0154349
712.972	0.0159897
713.050	0.0165967
713.128	0.0174498
713.206	0.0180392
713.285	0.0186267
713.363	0.0194301
713.441	0.0203497
713.519	0.0207161
713.597	0.0211652
713.675	0.0214879
713.753	0.0214769
713.831	0.0212526
713.910	0.0207784
713.988	0.0202457
714.066	0.0193740
714.144	0.0185754
714.222	0.0177682
714.300	0.0169012
714.378	0.0162508
714.456	0.0157199
714.535	0.0148460
714.613	0.0142265
714.691	0.0137009
714.769	0.0133620
714.847	0.0128555
714.925	0.0124277
715.003	0.0118848
715.081	0.0117416
715.160	0.0114516
715.238	0.0109008
715.316	0.0107967
715.394	0.0103909
715.472	0.0103020
715.550	0.0101347
715.628	0.0101066
715.706	0.0101543
715.785	0.0102792
715.863	0.0104871
715.941	0.0107603
716.019	0.0110180
716.097	0.0113704
716.175	0.0116125
716.253	0.0120982
716.331	0.0123188
716.410	0.0126368
716.488	0.0131261
716.566	0.0133135
716.644	0.0136185
716.722	0.0140113
716.800	0.0143924
716.878	0.0146559
716.956	0.0149279
717.035	0.0152978
717.113	0.0157477
717.191	0.0161687
717.269	0.0164731
717.347	0.0171194
717.425	0.0177093
717.503	0.0182796
717.581	0.0187022
717.660	0.0190881
717.738	0.0194386
717.816	0.0195319
717.894	0.0196905
717.972	0.0196751
718.050	0.0192695
718.128	0.0189851
718.206	0.0183627
718.285	0.0177554
718.363	0.0173433
718.441	0.0166446
718.519	0.0159606
718.597	0.0154723
718.675	0.0150224
718.753	0.0148550
718.831	0.0144692
718.910	0.0141058
718.988	0.0138624
719.066	0.0135615
719.144	0.0132163
719.222	0.0129913
719.300	0.0126465
719.378	0.0121146
719.456	0.0117720
719.535	0.0117338
719.613	0.0114383
719.691	0.0112624
719.769	0.0112213
719.847	0.0111797
719.925	0.0112901
720.003	0.0116019
720.081	0.0116686
720.160	0.0118977
720.238	0.0122617
720.316	0.0126664
720.394	0.0128831
720.472	0.0130911
720.550	0.0133313
720.628	0.0133325
720.706	0.0133462
720.785	0.0133946
720.863	0.0134163
720.941	0.0132804
721.019	0.0132751
721.097	0.0133734
721.175	0.0134859
721.253	0.0137979
721.331	0.0139830
721.410	0.0143820
721.488	0.0148647
721.566	0.0153594
721.644	0.0158820
721.722	0.0163754
721.800	0.0170377
721.878	0.0174722
721.956	0.0177903
722.035	0.0182624
722.113	0.0185880
722.191	0.0186211
722.269	0.0187112
722.347	0.0186401
722.425	0.0182834
722.503	0.0182134
722.581	0.0178101
722.660	0.0174138
722.738	0.0169324
722.816	0.0166743
722.894	0.0163098
722.972	0.0161147
723.050	0.0159068
723.128	0.0156873
723.206	0.0154893
723.285	0.0152218
723.363	0.0149445
723.441	0.0148787
723.519	0.0144131
723.597	0.0141656
723.675	0.0138652
723.753	0.0137765
723.831	0.0135545
723.910	0.0132787
723.988	0.0129488
724.066	0.0127316
724.144	0.0126182
724.222	0.0123166
724.300	0.0121363
724.378	0.0120647
724.456	0.0119700
724.535	0.0117030
724.613	0.0117756
724.691	0.0117655
724.769	0.0116199
724.847	0.0116469
724.925	0.0117406
725.003	0.0117966
725.081	0.0120374
725.160	0.0120409
725.238	0.0123042
725.316	0.0125769
725.394	0.0129321
725.472	0.0131635
725.550	0.0131942
725.628	0.0136352
725.706	0.0140794
725.785	0.0143040
725.863	0.0146684
725.941	0.0149313
726.019	0.0150787
726.097	0.0152480
726.175	0.0154225
726.253	0.0158562
726.331	0.0160728
726.410	0.0161274
726.488	0.0164835
726.566	0.0168712
726.644	0.0170774
726.722	0.0173108
726.800	0.0175749
726.878	0.0177198
726.956	0.0179278
727.035	0.0178410
727.113	0.0179795
727.191	0.0181010
727.269	0.0179485
727.347	0.0179289
727.425	0.0180191
727.503	0.0178508
727.581	0.0176083
727.660	0.0172446
727.738	0.0171792
727.816	0.0169805
727.894	0.0166284
727.972	0.0164520
728.050	0.0161120
728.128	0.0154980
728.206	0.0150913
728.285	0.0148790
728.363	0.0143344
728.441	0.0140359
728.519	0.0136295
728.597	0.0131488
728.675	0.0129888
728.753	0.0125230
728.831	0.0122196
728.910	0.0121358
728.988	0.0119401
729.066	0.0117491
729.144	0.0116540
729.222	0.0115761
729.300	0.0116108
729.378	0.0116943
729.456	0.0117421
729.535	0.0116010
729.613	0.0116462
729.691	0.0116094
729.769	0.0116881
729.847	0.0116689
729.925	0.0118259
730.003	0.0120721
730.081	0.0120841
730.160	0.0122654
730.238	0.0123141
730.316	0.0124007
730.394	0.0125513
730.472	0.0127779
730.550	0.0130194
730.628	0.0131480
730.706	0.0135078
730.785	0.0141003
730.863	0.0144234
730.941	0.0147531
731.019	0.0153416
731.097	0.0157372
731.175	0.0161366
731.253	0.0166551
731.331	0.0170195
731.410	0.0172140
731.488	0.0174358
731.566	0.0178822
731.644	0.0179074
731.722	0.0179105
731.800	0.0180248
731.878	0.0182011
731.956	0.0181895
732.035	0.0181285
732.113	0.0179804
732.191	0.0179700
732.269	0.0180180
732.347	0.0178164
732.425	0.0176096
732.503	0.0174419
732.581	0.0173104
732.660	0.0170920
732.738	0.0167175
732.816	0.0164611
732.894	0.0162797
732.972	0.0160372
733.050	0.0156474
733.128	0.0153608
733.206	0.0149994
733.285	0.0147403
733.363	0.0144049
733.441	0.0140657
733.519	0.0136879
733.597	0.0133151
733.675	0.0129855
733.753	0.0125709
733.831	0.0122176
733.910	0.0120505
733.988	0.0119022
734.066	0.0114131
734.144	0.0113870
734.222	0.0112938
734.300	0.0112017
734.378	0.0111033
734.456	0.0110352
734.535	0.0110447
734.613	0.0109016
734.691	0.0110546
734.769	0.0111255
734.847	0.0110853
734.925	0.0111998
735.003	0.0114139
735.081	0.0116115
735.160	0.0117699
735.238	0.0121683
735.316	0.0124654
735.394	0.0129392
735.472	0.0134657
735.550	0.0138974
735.628	0.0142870
735.706	0.0146672
735.785	0.0150183
735.863	0.0154610
735.941	0.0157341
736.019	0.0162144
736.097	0.0164182
736.175	0.0167538
736.253	0.0169398
736.331	0.0171752
736.410	0.0176119
736.488	0.0177348
736.566	0.0178024
736.644	0.0180109
736.722	0.0179923
736.800	0.0181533
736.878	0.0183001
736.956	0.0183051
737.035	0.0182231
737.113	0.0183143
737.191	0.0180204
737.269	0.0178418
737.347	0.0177120
737.425	0.0174908
737.503	0.0171746
737.581	0.0168262
737.660	0.0167465
737.738	0.0163545
737.816	0.0160270
737.894	0.0156911
737.972	0.0154430
738.050	0.0149684
738.128	0.0147906
738.206	0.0144823
738.285	0.0141831
738.363	0.0137117
738.441	0.0133656
738.519	0.0130230
738.597	0.0127668
738.675	0.0125095
738.753	0.0123460
738.831	0.0119366
738.910	0.0117718
738.988	0.0116707
739.066	0.0116692
739.144	0.0116560
739.222	0.0115706
739.300	0.0116370
739.378	0.0114542
739.456	0.0115269
739.535	0.0117408
739.613	0.0117856
739.691	0.0119585
739.769	0.0119760
739.847	0.0121366
739.925	0.0123672
740.003	0.0124785
740.081	0.0127129
740.160	0.0128186
740.238	0.0131604
740.316	0.0132818
740.394	0.0133884
740.472	0.0136855
740.550	0.0140810
740.628	0.0145378
740.706	0.0147552
740.785	0.0150185
740.863	0.0154444
740.941	0.0157684
741.019	0.0159570
741.097	0.0162404
741.175	0.0164474
741.253	0.0165663
741.331	0.0167947
741.410	0.0169537
741.488	0.0170282
741.566	0.0172619
741.644	0.0172036
741.722	0.0173405
741.800	0.0171220
741.878	0.0171416
741.956	0.0171295
742.035	0.0169270
742.113	0.0167973
742.191	0.0168195
742.269	0.0164774
742.347	0.0163534
742.425	0.0163094
742.503	0.0161739
742.581	0.0160054
742.660	0.0158321
742.738	0.0156818
742.816	0.0155862
742.894	0.0153723
742.972	0.0152747
743.050	0.0151402
743.128	0.0149345
743.206	0.0147803
743.285	0.0145379
743.363	0.0142830
743.441	0.0140285
743.519	0.0138417
743.597	0.0135598
743.675	0.0136308
743.753	0.0134357
743.831	0.0131291
743.910	0.0130422
743.988	0.0130106
744.066	0.0128424
744.144	0.0129298
744.222	0.0128196
744.300	0.0128686
744.378	0.0128851
744.456	0.0131264
744.535	0.0131853
744.613	0.0132162
744.691	0.0132973
744.769	0.0135038
744.847	0.0134994
744.925	0.0134303
745.003	0.0135233
745.081	0.0135073
745.160	0.0135307
745.238	0.0136543
745.316	0.0133363
745.394	0.0133698
745.472	0.0135613
745.550	0.0134869
745.628	0.0136469
