05/03/2022	20:21:57	Ver.	4.1	UNKNOWN
Optical Delay	660.003261	Delta X		0.078125	Sweeps	1	Scan Rate	0/0
Coordinates	Axis 1	NaN	Axis 2	NaN	Axis 3	NaN	Axis 4	NaN	Axis 5	NaN	Axis 6	0.000000
TX Power	0.000000	RX Power	0.000000

660.003	0.0144157
660.081	0.0145522
660.160	0.0144764
660.238	0.0144279
660.316	0.0144508
660.394	0.0143610
660.472	0.0144464
660.550	0.0144102
660.628	0.0143875
660.706	0.0143140
660.785	0.0144449
660.863	0.0143842
660.941	0.0142910
661.019	0.0143533
661.097	0.0143574
661.175	0.0143472
661.253	0.0143858
661.331	0.0143514
661.410	0.0143736
661.488	0.0145172
661.566	0.0143859
661.644	0.0144617
661.722	0.0144661
661.800	0.0144601
661.878	0.0144044
661.956	0.0143510
662.035	0.0144448
662.113	0.0143957
662.191	0.0144202
662.269	0.0144595
662.347	0.0144678
662.425	0.0145017
662.503	0.0141744
662.581	0.0144427
662.660	0.0144621
662.738	0.0144604
662.816	0.0144784
662.894	0.0144279
662.972	0.0144249
663.050	0.0145528
663.128	0.0144417
663.206	0.0145724
663.285	0.0144317
663.363	0.0144478
663.441	0.0144067
663.519	0.0144357
663.597	0.0144736
663.675	0.0144136
663.753	0.0144530
663.831	0.0143542
663.910	0.0144522
663.988	0.0144888
664.066	0.0144736
664.144	0.0143655
664.222	0.0144432
664.300	0.0144585
664.378	0.0144751
664.456	0.0145488
664.535	0.0144737
664.613	0.0144209
664.691	0.0144795
664.769	0.0142889
664.847	0.0142924
664.925	0.0143898
665.003	0.0145913
665.081	0.0143491
665.160	0.0143637
665.238	0.0145026
665.316	0.0144090
665.394	0.0144156
665.472	0.0144476
665.550	0.0144130
665.628	0.0144730
665.706	0.0144388
665.785	0.0144935
665.863	0.0144229
665.941	0.0143549
666.019	0.0142979
666.097	0.0143942
666.175	0.0144742
666.253	0.0144514
666.331	0.0143487
666.410	0.0143820
666.488	0.0144303
666.566	0.0143108
666.644	0.0142485
666.722	0.0143891
666.800	0.0143777
666.878	0.0144824
666.956	0.0145503
667.035	0.0143540
667.113	0.0144041
667.191	0.0144588
667.269	0.0144234
667.347	0.0145267
667.425	0.0144192
667.503	0.0146019
667.581	0.0144520
667.660	0.0143602
667.738	0.0144482
667.816	0.0145300
667.894	0.0144871
667.972	0.0143759
668.050	0.0144028
668.128	0.0144935
668.206	0.0144075
668.285	0.0145242
668.363	0.0144711
668.441	0.0144524
668.519	0.0145338
668.597	0.0144225
668.675	0.0144490
668.753	0.0144731
668.831	0.0145027
668.910	0.0143430
668.988	0.0145521
669.066	0.0144408
669.144	0.0144991
669.222	0.0144636
669.300	0.0143406
669.378	0.0144584
669.456	0.0145191
669.535	0.0144066
669.613	0.0144127
669.691	0.0143799
669.769	0.0144419
669.847	0.0144765
669.925	0.0143848
670.003	0.0144069
670.081	0.0142967
670.160	0.0143748
670.238	0.0143793
670.316	0.0144692
670.394	0.0144566
670.472	0.0143674
670.550	0.0144538
670.628	0.0144155
670.706	0.0143653
670.785	0.0144615
670.863	0.0143701
670.941	0.0145114
671.019	0.0144288
671.097	0.0144065
671.175	0.0144254
671.253	0.0144805
671.331	0.0144124
671.410	0.0145180
671.488	0.0145497
671.566	0.0145713
671.644	0.0144049
671.722	0.0145786
671.800	0.0146294
671.878	0.0144539
671.956	0.0145501
672.035	0.0145916
672.113	0.0143225
672.191	0.0144730
672.269	0.0146043
672.347	0.0145102
672.425	0.0143065
672.503	0.0145416
672.581	0.0144205
672.660	0.0144099
672.738	0.0144688
672.816	0.0144942
672.894	0.0144826
672.972	0.0144263
673.050	0.0144073
673.128	0.0144066
673.206	0.0144793
673.285	0.0144825
673.363	0.0145076
673.441	0.0144858
673.519	0.0143823
673.597	0.0145016
673.675	0.0143619
673.753	0.0143533
673.831	0.0145771
673.910	0.0145419
673.988	0.0144333
674.066	0.0144778
674.144	0.0145760
674.222	0.0143865
674.300	0.0144425
674.378	0.0145831
674.456	0.0145377
674.535	0.0145774
674.613	0.0144361
674.691	0.0143390
674.769	0.0144589
674.847	0.0145275
674.925	0.0144993
675.003	0.0143988
675.081	0.0143761
675.160	0.0145148
675.238	0.0145945
675.316	0.0143917
675.394	0.0144482
675.472	0.0144432
675.550	0.0144131
675.628	0.0144812
675.706	0.0145955
675.785	0.0144291
675.863	0.0144695
675.941	0.0143858
676.019	0.0145224
676.097	0.0145449
676.175	0.0143700
676.253	0.0143691
676.331	0.0144018
676.410	0.0144535
676.488	0.0144266
676.566	0.0145758
676.644	0.0144897
676.722	0.0143726
676.800	0.0144636
676.878	0.0145511
676.956	0.0145353
677.035	0.0145522
677.113	0.0144604
677.191	0.0143318
677.269	0.0143285
677.347	0.0143871
677.425	0.0144476
677.503	0.0143215
677.581	0.0144778
677.660	0.0143566
677.738	0.0144821
677.816	0.0145438
677.894	0.0145531
677.972	0.0143269
678.050	0.0142107
678.128	0.0143877
678.206	0.0144086
678.285	0.0144761
678.363	0.0143795
678.441	0.0143582
678.519	0.0143929
678.597	0.0144476
678.675	0.0144048
678.753	0.0143904
678.831	0.0145133
678.910	0.0145396
678.988	0.0145068
679.066	0.0144012
679.144	0.0144234
679.222	0.0143681
679.300	0.0143763
679.378	0.0144376
679.456	0.0142108
679.535	0.0144377
679.613	0.0144301
679.691	0.0144732
679.769	0.0145705
679.847	0.0143536
679.925	0.0142845
680.003	0.0144540
680.081	0.0143385
680.160	0.0143223
680.238	0.0143470
680.316	0.0145464
680.394	0.0144698
680.472	0.0144341
680.550	0.0143326
680.628	0.0144955
680.706	0.0145377
680.785	0.0143697
680.863	0.0144006
680.941	0.0143594
681.019	0.0144192
681.097	0.0144432
681.175	0.0143461
681.253	0.0143333
681.331	0.0144040
681.410	0.0144520
681.488	0.0143996
681.566	0.0144423
681.644	0.0143410
681.722	0.0142904
681.800	0.0144640
681.878	0.0144605
681.956	0.0143108
682.035	0.0145119
682.113	0.0144372
682.191	0.0143455
682.269	0.0143707
682.347	0.0143491
682.425	0.0144983
682.503	0.0143955
682.581	0.0144257
682.660	0.0145020
682.738	0.0144815
682.816	0.0143573
682.894	0.0143719
682.972	0.0144675
683.050	0.0145185
683.128	0.0144908
683.206	0.0143713
683.285	0.0144447
683.363	0.0144149
683.441	0.0143391
683.519	0.0144324
683.597	0.0142890
683.675	0.0143696
683.753	0.0145173
683.831	0.0145098
683.910	0.0143674
683.988	0.0144451
684.066	0.0143513
684.144	0.0144122
684.222	0.0144077
684.300	0.0143565
684.378	0.0144083
684.456	0.0143811
684.535	0.0143951
684.613	0.0143623
684.691	0.0144660
684.769	0.0144157
684.847	0.0145364
684.925	0.0145760
685.003	0.0145770
685.081	0.0144594
685.160	0.0144602
685.238	0.0145069
685.316	0.0145026
685.394	0.0143314
685.472	0.0144065
685.550	0.0144128
685.628	0.0144695
685.706	0.0144321
685.785	0.0146090
685.863	0.0144964
685.941	0.0143295
686.019	0.0143080
686.097	0.0144172
686.175	0.0143464
686.253	0.0144099
686.331	0.0143865
686.410	0.0143561
686.488	0.0143781
686.566	0.0143300
686.644	0.0144722
686.722	0.0144200
686.800	0.0144203
686.878	0.0142853
686.956	0.0142812
687.035	0.0142361
687.113	0.0144045
687.191	0.0145837
687.269	0.0144083
687.347	0.0142879
687.425	0.0142876
687.503	0.0144282
687.581	0.0143906
687.660	0.0144651
687.738	0.0144324
687.816	0.0143755
687.894	0.0144636
687.972	0.0143789
688.050	0.0144260
688.128	0.0144635
688.206	0.0143385
688.285	0.0142706
688.363	0.0144453
688.441	0.0144493
688.519	0.0143061
688.597	0.0144625
688.675	0.0143211
688.753	0.0142861
688.831	0.0144635
688.910	0.0142908
688.988	0.0143672
689.066	0.0143990
689.144	0.0144120
689.222	0.0143604
689.300	0.0142591
689.378	0.0143633
689.456	0.0143961
689.535	0.0145154
689.613	0.0143814
689.691	0.0144054
689.769	0.0143885
689.847	0.0143532
689.925	0.0143503
690.003	0.0144767
690.081	0.0144121
690.160	0.0144436
690.238	0.0145367
690.316	0.0144765
690.394	0.0145309
690.472	0.0144423
690.550	0.0144376
690.628	0.0143848
690.706	0.0144090
690.785	0.0145034
690.863	0.0144022
690.941	0.0144441
691.019	0.0143569
691.097	0.0143912
691.175	0.0143629
691.253	0.0145368
691.331	0.0143823
691.410	0.0143111
691.488	0.0144974
691.566	0.0143903
691.644	0.0144205
691.722	0.0144392
691.800	0.0143035
691.878	0.0144180
691.956	0.0144964
692.035	0.0143819
692.113	0.0145439
692.191	0.0145215
692.269	0.0143745
692.347	0.0143830
692.425	0.0144124
692.503	0.0143795
692.581	0.0144080
692.660	0.0144458
692.738	0.0144668
692.816	0.0143314
692.894	0.0144291
692.972	0.0144884
693.050	0.0145605
693.128	0.0144240
693.206	0.0143597
693.285	0.0143549
693.363	0.0144906
693.441	0.0144563
693.519	0.0144291
693.597	0.0145512
693.675	0.0144831
693.753	0.0144990
693.831	0.0144267
693.910	0.0145643
693.988	0.0146193
694.066	0.0144612
694.144	0.0144419
694.222	0.0144830
694.300	0.0145052
694.378	0.0145129
694.456	0.0145184
694.535	0.0144925
694.613	0.0145129
694.691	0.0144873
694.769	0.0145425
694.847	0.0145550
694.925	0.0144039
695.003	0.0144739
695.081	0.0145371
695.160	0.0145474
695.238	0.0144398
695.316	0.0144970
695.394	0.0144888
695.472	0.0143970
695.550	0.0144405
695.628	0.0145023
695.706	0.0144464
695.785	0.0145173
695.863	0.0144515
695.941	0.0144968
696.019	0.0143968
696.097	0.0144862
696.175	0.0144329
696.253	0.0144693
696.331	0.0143841
696.410	0.0143665
696.488	0.0142364
696.566	0.0143749
696.644	0.0143171
696.722	0.0143550
696.800	0.0144008
696.878	0.0145550
696.956	0.0146059
697.035	0.0146321
697.113	0.0145805
697.191	0.0146296
697.269	0.0147476
697.347	0.0147154
697.425	0.0146878
697.503	0.0146021
697.581	0.0144378
697.660	0.0144987
697.738	0.0142773
697.816	0.0143026
697.894	0.0141156
697.972	0.0140260
698.050	0.0140170
698.128	0.0141634
698.206	0.0141751
698.285	0.0140707
698.363	0.0141332
698.441	0.0142355
698.519	0.0143089
698.597	0.0144806
698.675	0.0146739
698.753	0.0147614
698.831	0.0149336
698.910	0.0151299
698.988	0.0152992
699.066	0.0152567
699.144	0.0152204
699.222	0.0153963
699.300	0.0152975
699.378	0.0151585
699.456	0.0151057
699.535	0.0150597
699.613	0.0148489
699.691	0.0146273
699.769	0.0142293
699.847	0.0140361
699.925	0.0138402
700.003	0.0137044
700.081	0.0135233
700.160	0.0133018
700.238	0.0131789
700.316	0.0130610
700.394	0.0129453
700.472	0.0128890
700.550	0.0130328
700.628	0.0129205
700.706	0.0131234
700.785	0.0133564
700.863	0.0134499
700.941	0.0138307
701.019	0.0140047
701.097	0.0142163
701.175	0.0145992
701.253	0.0150063
701.331	0.0153848
701.410	0.0156821
701.488	0.0160725
701.566	0.0162794
701.644	0.0165283
701.722	0.0166591
701.800	0.0168226
701.878	0.0170148
701.956	0.0170754
702.035	0.0168496
702.113	0.0168597
702.191	0.0165319
702.269	0.0162473
702.347	0.0157391
702.425	0.0152526
702.503	0.0147926
702.581	0.0141692
702.660	0.0136425
702.738	0.0131578
702.816	0.0128904
702.894	0.0125867
702.972	0.0121603
703.050	0.0119872
703.128	0.0117881
703.206	0.0117651
703.285	0.0118186
703.363	0.0117390
703.441	0.0116470
703.519	0.0119324
703.597	0.0120914
703.675	0.0123055
703.753	0.0126725
703.831	0.0130292
703.910	0.0133691
703.988	0.0136623
704.066	0.0139217
704.144	0.0141740
704.222	0.0143010
704.300	0.0146685
704.378	0.0147433
704.456	0.0149717
704.535	0.0151579
704.613	0.0152210
704.691	0.0155088
704.769	0.0154856
704.847	0.0157279
704.925	0.0160821
705.003	0.0163791
705.081	0.0166805
705.160	0.0171896
705.238	0.0178058
705.316	0.0181909
705.394	0.0186361
705.472	0.0189323
705.550	0.0191393
705.628	0.0191586
705.706	0.0188953
705.785	0.0181342
705.863	0.0173224
705.941	0.0162475
706.019	0.0151875
706.097	0.0141248
706.175	0.0129842
706.253	0.0122362
706.331	0.0113852
706.410	0.0109589
706.488	0.0105401
706.566	0.0103791
706.644	0.0102419
706.722	0.0101503
706.800	0.0103009
706.878	0.0105099
706.956	0.0106004
707.035	0.0108971
707.113	0.0111384
707.191	0.0111153
707.269	0.0111766
707.347	0.0114899
707.425	0.0117613
707.503	0.0119051
707.581	0.0122393
707.660	0.0127594
707.738	0.0133098
707.816	0.0137202
707.894	0.0140578
707.972	0.0144485
708.050	0.0148853
708.128	0.0151137
708.206	0.0154865
708.285	0.0156889
708.363	0.0161068
708.441	0.0161904
708.519	0.0163138
708.597	0.0165388
708.675	0.0167998
708.753	0.0171564
708.831	0.0175108
708.910	0.0179929
708.988	0.0184798
709.066	0.0189158
709.144	0.0193727
709.222	0.0197155
709.300	0.0197754
709.378	0.0197950
709.456	0.0196154
709.535	0.0191468
709.613	0.0185979
709.691	0.0178642
709.769	0.0170384
709.847	0.0161477
709.925	0.0150914
710.003	0.0141149
710.081	0.0134520
710.160	0.0126179
710.238	0.0116565
710.316	0.0109800
710.394	0.0103336
710.472	0.00991280
710.550	0.00955887
710.628	0.00911942
710.706	0.00908180
710.785	0.00888908
710.863	0.00907906
710.941	0.00918526
711.019	0.00935547
711.097	0.00967308
711.175	0.0101953
711.253	0.0104971
711.331	0.0109361
711.410	0.0114017
711.488	0.0117410
711.566	0.0122060
711.644	0.0125797
711.722	0.0129713
711.800	0.0133734
711.878	0.0139045
711.956	0.0143217
712.035	0.0146833
712.113	0.0152946
712.191	0.0154867
712.269	0.0158088
712.347	0.0162980
712.425	0.0166261
712.503	0.0170222
712.581	0.0175275
712.660	0.0179946
712.738	0.0184818
712.816	0.0190781
712.894	0.0194868
712.972	0.0196416
713.050	0.0200002
713.128	0.0201958
713.206	0.0200687
713.285	0.0196924
713.363	0.0192358
713.441	0.0185649
713.519	0.0176620
713.597	0.0168869
713.675	0.0163183
713.753	0.0155357
713.831	0.0148294
713.910	0.0143314
713.988	0.0138387
714.066	0.0133788
714.144	0.0131167
714.222	0.0127082
714.300	0.0125585
714.378	0.0123775
714.456	0.0121814
714.535	0.0119663
714.613	0.0114930
714.691	0.0111714
714.769	0.0108839
714.847	0.0106915
714.925	0.0105156
715.003	0.0103587
715.081	0.0104108
715.160	0.0104874
715.238	0.0106179
715.316	0.0106222
715.394	0.0109810
715.472	0.0112132
715.550	0.0116634
715.628	0.0120764
715.706	0.0123492
715.785	0.0127235
715.863	0.0130808
715.941	0.0134875
716.019	0.0137642
716.097	0.0141426
716.175	0.0144231
716.253	0.0146275
716.331	0.0148381
716.410	0.0149780
716.488	0.0152210
716.566	0.0152376
716.644	0.0155473
716.722	0.0158707
716.800	0.0161203
716.878	0.0167329
716.956	0.0173166
717.035	0.0177319
717.113	0.0183554
717.191	0.0187239
717.269	0.0189104
717.347	0.0190653
717.425	0.0190369
717.503	0.0188996
717.581	0.0186313
717.660	0.0179662
717.738	0.0175757
717.816	0.0171679
717.894	0.0164271
717.972	0.0158132
718.050	0.0154744
718.128	0.0150240
718.206	0.0146921
718.285	0.0143394
718.363	0.0140288
718.441	0.0137064
718.519	0.0135231
718.597	0.0132951
718.675	0.0130629
718.753	0.0127480
718.831	0.0124601
718.910	0.0121339
718.988	0.0117862
719.066	0.0115587
719.144	0.0114021
719.222	0.0112228
719.300	0.0112970
719.378	0.0113494
719.456	0.0114303
719.535	0.0115197
719.613	0.0119428
719.691	0.0121572
719.769	0.0124717
719.847	0.0127040
719.925	0.0131360
720.003	0.0131209
720.081	0.0132014
720.160	0.0131664
720.238	0.0132162
720.316	0.0131170
720.394	0.0131451
720.472	0.0132410
720.550	0.0132735
720.628	0.0133252
720.706	0.0136322
720.785	0.0138904
720.863	0.0140032
720.941	0.0144234
721.019	0.0147113
721.097	0.0151067
721.175	0.0154262
721.253	0.0160007
721.331	0.0164776
721.410	0.0168201
721.488	0.0173631
721.566	0.0176665
721.644	0.0178468
721.722	0.0179333
721.800	0.0181641
721.878	0.0179830
721.956	0.0177796
722.035	0.0176620
722.113	0.0173927
722.191	0.0171567
722.269	0.0167924
722.347	0.0166732
722.425	0.0164115
722.503	0.0161934
722.581	0.0160946
722.660	0.0160052
722.738	0.0157768
722.816	0.0154044
722.894	0.0151651
722.972	0.0149268
723.050	0.0145886
723.128	0.0142892
723.206	0.0139240
723.285	0.0135973
723.363	0.0131396
723.441	0.0127924
723.519	0.0125195
723.597	0.0123055
723.675	0.0120302
723.753	0.0118144
723.831	0.0116652
723.910	0.0115883
723.988	0.0113740
724.066	0.0114017
724.144	0.0114273
724.222	0.0114884
724.300	0.0116952
724.378	0.0116956
724.456	0.0119334
724.535	0.0121506
724.613	0.0123197
724.691	0.0124020
724.769	0.0127311
724.847	0.0128315
724.925	0.0130678
725.003	0.0132812
725.081	0.0132548
725.160	0.0134295
725.238	0.0136213
725.316	0.0136092
725.394	0.0137581
725.472	0.0139023
725.550	0.0138448
725.628	0.0140064
725.706	0.0143007
725.785	0.0144891
725.863	0.0148888
725.941	0.0153805
726.019	0.0157784
726.097	0.0161193
726.175	0.0165840
726.253	0.0170676
726.331	0.0174018
726.410	0.0176143
726.488	0.0180107
726.566	0.0182192
726.644	0.0185431
726.722	0.0185671
726.800	0.0184565
726.878	0.0183691
726.956	0.0181781
727.035	0.0179273
727.113	0.0176897
727.191	0.0173982
727.269	0.0172173
727.347	0.0168171
727.425	0.0163528
727.503	0.0158768
727.581	0.0154924
727.660	0.0151521
727.738	0.0147591
727.816	0.0144566
727.894	0.0139149
727.972	0.0135748
728.050	0.0133212
728.128	0.0131796
728.206	0.0129801
728.285	0.0126433
728.363	0.0124691
728.441	0.0124245
728.519	0.0122088
728.597	0.0121004
728.675	0.0120197
728.753	0.0118164
728.831	0.0117657
728.910	0.0116534
728.988	0.0115518
729.066	0.0114058
729.144	0.0113366
729.222	0.0113036
729.300	0.0111661
729.378	0.0111407
729.456	0.0112357
729.535	0.0116498
729.613	0.0116273
729.691	0.0117029
729.769	0.0118723
729.847	0.0119238
729.925	0.0121423
730.003	0.0123817
730.081	0.0126022
730.160	0.0129124
730.238	0.0133478
730.316	0.0135379
730.394	0.0139194
730.472	0.0141824
730.550	0.0145267
730.628	0.0151114
730.706	0.0154237
730.785	0.0158549
730.863	0.0162712
730.941	0.0166333
731.019	0.0169368
731.097	0.0171436
731.175	0.0175274
731.253	0.0176762
731.331	0.0179302
731.410	0.0180273
731.488	0.0181486
731.566	0.0183189
731.644	0.0182461
731.722	0.0183053
731.800	0.0180353
731.878	0.0179171
731.956	0.0178037
732.035	0.0175440
732.113	0.0174946
732.191	0.0172183
732.269	0.0168538
732.347	0.0168054
732.425	0.0163264
732.503	0.0162313
732.581	0.0159986
732.660	0.0157037
732.738	0.0153834
732.816	0.0150312
732.894	0.0147038
732.972	0.0144571
733.050	0.0139144
733.128	0.0134810
733.206	0.0131393
733.285	0.0127223
733.363	0.0124032
733.441	0.0120750
733.519	0.0116984
733.597	0.0113857
733.675	0.0110988
733.753	0.0107996
733.831	0.0106999
733.910	0.0106619
733.988	0.0104179
734.066	0.0103880
734.144	0.0102858
734.222	0.0106029
734.300	0.0105317
734.378	0.0106766
734.456	0.0108640
734.535	0.0111869
734.613	0.0112417
734.691	0.0115347
734.769	0.0117330
734.847	0.0119855
734.925	0.0124807
735.003	0.0128287
735.081	0.0130010
735.160	0.0133267
735.238	0.0137912
735.316	0.0141557
735.394	0.0143851
735.472	0.0148170
735.550	0.0150327
735.628	0.0154647
735.706	0.0157928
735.785	0.0162079
735.863	0.0165308
735.941	0.0165137
736.019	0.0168562
736.097	0.0173153
736.175	0.0174951
736.253	0.0177070
736.331	0.0178281
736.410	0.0180768
736.488	0.0179368
736.566	0.0180431
736.644	0.0179865
736.722	0.0180559
736.800	0.0177505
736.878	0.0177999
736.956	0.0174660
737.035	0.0172204
737.113	0.0170961
737.191	0.0168690
737.269	0.0167081
737.347	0.0163869
737.425	0.0161549
737.503	0.0160252
737.581	0.0156739
737.660	0.0155676
737.738	0.0152615
737.816	0.0150523
737.894	0.0147247
737.972	0.0144104
738.050	0.0140613
738.128	0.0136961
738.206	0.0133575
738.285	0.0129985
738.363	0.0126775
738.441	0.0125337
738.519	0.0122630
738.597	0.0121880
738.675	0.0120409
738.753	0.0117907
738.831	0.0117777
738.910	0.0116518
738.988	0.0115727
739.066	0.0116439
739.144	0.0117426
739.222	0.0116461
739.300	0.0116753
739.378	0.0117762
739.456	0.0120293
739.535	0.0120160
739.613	0.0120952
739.691	0.0122664
739.769	0.0122924
739.847	0.0124662
739.925	0.0126161
740.003	0.0126761
740.081	0.0129800
740.160	0.0130816
740.238	0.0131178
740.316	0.0134628
740.394	0.0136616
740.472	0.0140190
740.550	0.0142525
740.628	0.0146399
740.706	0.0148986
740.785	0.0150687
740.863	0.0155095
740.941	0.0156619
741.019	0.0160452
741.097	0.0160815
741.175	0.0160706
741.253	0.0162270
741.331	0.0163642
741.410	0.0164620
741.488	0.0165542
741.566	0.0167043
741.644	0.0165749
741.722	0.0165638
741.800	0.0165832
741.878	0.0166714
741.956	0.0165486
742.035	0.0164577
742.113	0.0165507
742.191	0.0164699
742.269	0.0163123
742.347	0.0163839
742.425	0.0161694
742.503	0.0160652
742.581	0.0160329
742.660	0.0159432
742.738	0.0158621
742.816	0.0157035
742.894	0.0154873
742.972	0.0153326
743.050	0.0151104
743.128	0.0150453
743.206	0.0148160
743.285	0.0146178
743.363	0.0145043
743.441	0.0142261
743.519	0.0141716
743.597	0.0139799
743.675	0.0137530
743.753	0.0135828
743.831	0.0134360
743.910	0.0134714
743.988	0.0133892
744.066	0.0131542
744.144	0.0129659
744.222	0.0128204
744.300	0.0126976
744.378	0.0125684
744.456	0.0124281
744.535	0.0123328
744.613	0.0123104
744.691	0.0122258
744.769	0.0120535
744.847	0.0120854
744.925	0.0118655
745.003	0.0120036
745.081	0.0122392
745.160	0.0122514
745.238	0.0123207
745.316	0.0125112
745.394	0.0127859
745.472	0.0129700
745.550	0.0131113
745.628	0.0134084
745.706	0.0136744
