05/03/2022	20:22:22	Ver.	4.1	UNKNOWN
Optical Delay	660.003261	Delta X		0.078125	Sweeps	1	Scan Rate	0/0
Coordinates	Axis 1	NaN	Axis 2	NaN	Axis 3	NaN	Axis 4	NaN	Axis 5	NaN	Axis 6	0.000000
TX Power	0.000000	RX Power	0.000000

660.003	0.0144761
660.081	0.0145564
660.160	0.0144387
660.238	0.0144014
660.316	0.0145984
660.394	0.0144691
660.472	0.0144073
660.550	0.0145633
660.628	0.0146053
660.706	0.0144714
660.785	0.0145878
660.863	0.0144763
660.941	0.0143477
661.019	0.0145142
661.097	0.0144556
661.175	0.0144537
661.253	0.0146336
661.331	0.0145559
661.410	0.0145133
661.488	0.0144141
661.566	0.0143506
661.644	0.0145274
661.722	0.0144823
661.800	0.0144363
661.878	0.0144477
661.956	0.0145753
662.035	0.0144353
662.113	0.0144164
662.191	0.0145386
662.269	0.0144585
662.347	0.0144073
662.425	0.0145729
662.503	0.0143803
662.581	0.0144325
662.660	0.0145142
662.738	0.0144898
662.816	0.0144629
662.894	0.0142970
662.972	0.0143504
663.050	0.0144573
663.128	0.0143576
663.206	0.0144546
663.285	0.0145039
663.363	0.0144816
663.441	0.0143849
663.519	0.0145177
663.597	0.0145840
663.675	0.0145571
663.753	0.0144093
663.831	0.0145166
663.910	0.0145428
663.988	0.0143911
664.066	0.0144138
664.144	0.0145320
664.222	0.0145724
664.300	0.0143895
664.378	0.0145715
664.456	0.0145358
664.535	0.0144267
664.613	0.0143887
664.691	0.0144668
664.769	0.0144205
664.847	0.0144700
664.925	0.0142991
665.003	0.0144833
665.081	0.0144305
665.160	0.0144556
665.238	0.0144197
665.316	0.0144372
665.394	0.0145520
665.472	0.0146135
665.550	0.0145074
665.628	0.0143540
665.706	0.0144032
665.785	0.0143407
665.863	0.0145519
665.941	0.0144852
666.019	0.0145069
666.097	0.0143822
666.175	0.0143616
666.253	0.0144980
666.331	0.0145804
666.410	0.0144463
666.488	0.0144786
666.566	0.0144868
666.644	0.0145129
666.722	0.0144467
666.800	0.0144337
666.878	0.0144418
666.956	0.0144865
667.035	0.0144730
667.113	0.0145342
667.191	0.0144576
667.269	0.0145368
667.347	0.0146696
667.425	0.0143992
667.503	0.0144720
667.581	0.0144788
667.660	0.0145179
667.738	0.0145976
667.816	0.0146313
667.894	0.0145059
667.972	0.0144917
668.050	0.0144894
668.128	0.0145612
668.206	0.0145167
668.285	0.0145113
668.363	0.0145285
668.441	0.0145171
668.519	0.0144829
668.597	0.0144575
668.675	0.0146387
668.753	0.0144942
668.831	0.0144770
668.910	0.0145761
668.988	0.0145626
669.066	0.0145950
669.144	0.0144925
669.222	0.0144315
669.300	0.0144578
669.378	0.0144946
669.456	0.0144512
669.535	0.0144860
669.613	0.0145016
669.691	0.0144620
669.769	0.0147245
669.847	0.0146198
669.925	0.0145084
670.003	0.0144576
670.081	0.0144722
670.160	0.0145995
670.238	0.0145205
670.316	0.0146319
670.394	0.0144839
670.472	0.0145488
670.550	0.0144487
670.628	0.0145171
670.706	0.0146101
670.785	0.0144997
670.863	0.0145037
670.941	0.0145262
671.019	0.0145908
671.097	0.0145780
671.175	0.0144334
671.253	0.0145161
671.331	0.0145244
671.410	0.0145297
671.488	0.0145782
671.566	0.0146002
671.644	0.0146609
671.722	0.0146115
671.800	0.0143948
671.878	0.0144554
671.956	0.0146777
672.035	0.0145737
672.113	0.0144250
672.191	0.0147190
672.269	0.0145491
672.347	0.0144675
672.425	0.0145525
672.503	0.0145815
672.581	0.0144662
672.660	0.0143862
672.738	0.0144411
672.816	0.0143304
672.894	0.0145486
672.972	0.0146277
673.050	0.0146854
673.128	0.0144542
673.206	0.0144385
673.285	0.0145549
673.363	0.0144487
673.441	0.0145831
673.519	0.0145013
673.597	0.0145955
673.675	0.0145461
673.753	0.0144729
673.831	0.0143693
673.910	0.0144585
673.988	0.0144885
674.066	0.0146297
674.144	0.0145068
674.222	0.0146025
674.300	0.0143619
674.378	0.0144501
674.456	0.0143632
674.535	0.0144683
674.613	0.0144678
674.691	0.0145065
674.769	0.0145690
674.847	0.0145064
674.925	0.0144077
675.003	0.0145824
675.081	0.0145142
675.160	0.0144240
675.238	0.0145970
675.316	0.0145934
675.394	0.0144566
675.472	0.0144229
675.550	0.0143899
675.628	0.0142935
675.706	0.0144238
675.785	0.0144862
675.863	0.0144054
675.941	0.0143427
676.019	0.0144073
676.097	0.0143839
676.175	0.0144847
676.253	0.0144562
676.331	0.0143589
676.410	0.0144157
676.488	0.0144446
676.566	0.0145015
676.644	0.0143293
676.722	0.0143906
676.800	0.0144475
676.878	0.0144046
676.956	0.0145205
677.035	0.0144731
677.113	0.0143970
677.191	0.0144769
677.269	0.0144087
677.347	0.0144495
677.425	0.0143578
677.503	0.0144260
677.581	0.0144306
677.660	0.0143057
677.738	0.0144728
677.816	0.0143707
677.894	0.0144957
677.972	0.0145592
678.050	0.0145026
678.128	0.0143552
678.206	0.0143983
678.285	0.0144486
678.363	0.0143511
678.441	0.0144801
678.519	0.0145017
678.597	0.0144320
678.675	0.0145334
678.753	0.0144331
678.831	0.0145079
678.910	0.0145168
678.988	0.0142262
679.066	0.0145458
679.144	0.0146078
679.222	0.0142804
679.300	0.0143936
679.378	0.0144212
679.456	0.0144270
679.535	0.0144369
679.613	0.0145653
679.691	0.0144866
679.769	0.0144408
679.847	0.0144765
679.925	0.0144991
680.003	0.0145198
680.081	0.0145200
680.160	0.0144064
680.238	0.0146391
680.316	0.0144422
680.394	0.0144788
680.472	0.0145743
680.550	0.0146628
680.628	0.0145675
680.706	0.0144215
680.785	0.0143706
680.863	0.0144250
680.941	0.0144798
681.019	0.0145656
681.097	0.0145485
681.175	0.0145006
681.253	0.0143962
681.331	0.0144638
681.410	0.0144876
681.488	0.0144926
681.566	0.0144506
681.644	0.0144400
681.722	0.0144977
681.800	0.0144486
681.878	0.0145436
681.956	0.0145870
682.035	0.0144238
682.113	0.0144328
682.191	0.0144067
682.269	0.0144961
682.347	0.0145545
682.425	0.0144788
682.503	0.0145520
682.581	0.0144406
682.660	0.0144441
682.738	0.0146130
682.816	0.0143477
682.894	0.0144198
682.972	0.0144643
683.050	0.0145840
683.128	0.0145001
683.206	0.0145956
683.285	0.0145258
683.363	0.0143614
683.441	0.0143745
683.519	0.0144132
683.597	0.0144248
683.675	0.0144479
683.753	0.0144517
683.831	0.0145733
683.910	0.0144381
683.988	0.0145017
684.066	0.0144326
684.144	0.0146355
684.222	0.0146089
684.300	0.0143923
684.378	0.0144501
684.456	0.0144814
684.535	0.0145784
684.613	0.0145667
684.691	0.0145009
684.769	0.0145087
684.847	0.0143381
684.925	0.0143294
685.003	0.0145114
685.081	0.0145358
685.160	0.0144678
685.238	0.0144475
685.316	0.0145368
685.394	0.0146384
685.472	0.0144443
685.550	0.0142427
685.628	0.0145288
685.706	0.0145124
685.785	0.0144642
685.863	0.0144846
685.941	0.0146678
686.019	0.0145005
686.097	0.0144749
686.175	0.0144847
686.253	0.0144518
686.331	0.0144645
686.410	0.0145353
686.488	0.0144923
686.566	0.0143554
686.644	0.0145462
686.722	0.0145905
686.800	0.0144154
686.878	0.0145848
686.956	0.0144616
687.035	0.0145260
687.113	0.0145561
687.191	0.0145154
687.269	0.0144508
687.347	0.0144038
687.425	0.0145284
687.503	0.0143373
687.581	0.0144130
687.660	0.0144857
687.738	0.0144099
687.816	0.0144884
687.894	0.0143823
687.972	0.0145724
688.050	0.0144802
688.128	0.0145293
688.206	0.0146098
688.285	0.0145089
688.363	0.0145078
688.441	0.0144606
688.519	0.0144187
688.597	0.0146027
688.675	0.0145142
688.753	0.0144012
688.831	0.0144519
688.910	0.0144246
688.988	0.0145766
689.066	0.0146030
689.144	0.0145177
689.222	0.0145821
689.300	0.0146259
689.378	0.0144722
689.456	0.0144173
689.535	0.0145876
689.613	0.0146089
689.691	0.0145406
689.769	0.0145294
689.847	0.0145329
689.925	0.0144235
690.003	0.0145249
690.081	0.0145879
690.160	0.0144946
690.238	0.0145496
690.316	0.0144323
690.394	0.0145336
690.472	0.0146616
690.550	0.0146512
690.628	0.0144926
690.706	0.0145427
690.785	0.0146486
690.863	0.0145808
690.941	0.0144379
691.019	0.0146212
691.097	0.0145358
691.175	0.0145824
691.253	0.0144620
691.331	0.0144814
691.410	0.0144617
691.488	0.0145538
691.566	0.0145242
691.644	0.0146707
691.722	0.0145530
691.800	0.0145559
691.878	0.0145062
691.956	0.0145051
692.035	0.0145214
692.113	0.0146123
692.191	0.0146059
692.269	0.0146301
692.347	0.0144807
692.425	0.0144044
692.503	0.0144313
692.581	0.0147046
692.660	0.0146593
692.738	0.0147117
692.816	0.0143587
692.894	0.0144189
692.972	0.0144827
693.050	0.0144926
693.128	0.0145576
693.206	0.0145625
693.285	0.0145287
693.363	0.0146139
693.441	0.0146167
693.519	0.0146452
693.597	0.0145192
693.675	0.0145255
693.753	0.0146376
693.831	0.0145567
693.910	0.0144794
693.988	0.0144861
694.066	0.0146046
694.144	0.0145071
694.222	0.0144668
694.300	0.0143639
694.378	0.0145335
694.456	0.0144521
694.535	0.0144987
694.613	0.0145299
694.691	0.0144651
694.769	0.0144287
694.847	0.0144664
694.925	0.0144183
695.003	0.0144284
695.081	0.0145023
695.160	0.0144038
695.238	0.0144818
695.316	0.0145140
695.394	0.0145052
695.472	0.0144556
695.550	0.0144966
695.628	0.0145193
695.706	0.0143430
695.785	0.0143256
695.863	0.0144932
695.941	0.0145537
696.019	0.0144839
696.097	0.0144941
696.175	0.0145930
696.253	0.0145299
696.331	0.0145293
696.410	0.0146524
696.488	0.0146877
696.566	0.0147239
696.644	0.0146726
696.722	0.0146745
696.800	0.0144877
696.878	0.0143444
696.956	0.0142610
697.035	0.0144365
697.113	0.0141801
697.191	0.0141200
697.269	0.0141487
697.347	0.0141431
697.425	0.0140292
697.503	0.0142412
697.581	0.0141932
697.660	0.0143864
697.738	0.0145206
697.816	0.0143975
697.894	0.0145242
697.972	0.0148061
698.050	0.0148120
698.128	0.0150802
698.206	0.0152446
698.285	0.0151412
698.363	0.0152949
698.441	0.0152647
698.519	0.0151277
698.597	0.0151040
698.675	0.0150858
698.753	0.0149986
698.831	0.0149307
698.910	0.0146642
698.988	0.0145534
699.066	0.0143257
699.144	0.0141395
699.222	0.0138653
699.300	0.0137656
699.378	0.0136392
699.456	0.0132925
699.535	0.0132649
699.613	0.0133809
699.691	0.0132567
699.769	0.0132189
699.847	0.0134017
699.925	0.0134355
700.003	0.0136288
700.081	0.0136459
700.160	0.0138754
700.238	0.0141703
700.316	0.0142646
700.394	0.0146047
700.472	0.0147809
700.550	0.0149660
700.628	0.0151376
700.706	0.0154514
700.785	0.0158805
700.863	0.0160090
700.941	0.0162496
701.019	0.0164443
701.097	0.0166669
701.175	0.0166832
701.253	0.0166652
701.331	0.0166173
701.410	0.0165596
701.488	0.0162214
701.566	0.0159564
701.644	0.0153461
701.722	0.0150505
701.800	0.0145447
701.878	0.0141890
701.956	0.0138014
702.035	0.0134835
702.113	0.0131503
702.191	0.0127228
702.269	0.0124721
702.347	0.0122590
702.425	0.0119952
702.503	0.0120193
702.581	0.0120190
702.660	0.0121001
702.738	0.0122568
702.816	0.0123163
702.894	0.0125461
702.972	0.0127806
703.050	0.0131382
703.128	0.0133540
703.206	0.0136655
703.285	0.0139760
703.363	0.0141391
703.441	0.0142699
703.519	0.0145023
703.597	0.0147464
703.675	0.0147318
703.753	0.0148725
703.831	0.0150472
703.910	0.0152698
703.988	0.0153253
704.066	0.0154715
704.144	0.0157749
704.222	0.0159911
704.300	0.0160817
704.378	0.0163422
704.456	0.0165804
704.535	0.0170940
704.613	0.0174971
704.691	0.0178153
704.769	0.0182036
704.847	0.0183356
704.925	0.0184261
705.003	0.0182853
705.081	0.0178831
705.160	0.0171444
705.238	0.0162704
705.316	0.0152475
705.394	0.0145103
705.472	0.0134356
705.550	0.0127464
705.628	0.0119269
705.706	0.0114691
705.785	0.0111238
705.863	0.0110413
705.941	0.0108438
706.019	0.0109070
706.097	0.0111497
706.175	0.0112772
706.253	0.0112891
706.331	0.0116113
706.410	0.0115684
706.488	0.0116687
706.566	0.0116738
706.644	0.0118585
706.722	0.0121654
706.800	0.0124500
706.878	0.0126680
706.956	0.0127907
707.035	0.0132458
707.113	0.0135742
707.191	0.0139169
707.269	0.0143491
707.347	0.0145361
707.425	0.0147977
707.503	0.0153323
707.581	0.0154047
707.660	0.0157876
707.738	0.0159911
707.816	0.0161125
707.894	0.0161642
707.972	0.0162872
708.050	0.0165536
708.128	0.0166814
708.206	0.0169539
708.285	0.0173388
708.363	0.0177060
708.441	0.0180391
708.519	0.0185651
708.597	0.0188825
708.675	0.0190482
708.753	0.0192982
708.831	0.0192052
708.910	0.0189487
708.988	0.0184629
709.066	0.0178091
709.144	0.0169865
709.222	0.0162405
709.300	0.0153263
709.378	0.0143347
709.456	0.0135085
709.535	0.0127068
709.613	0.0119820
709.691	0.0113957
709.769	0.0107227
709.847	0.0105355
709.925	0.00992950
710.003	0.00971458
710.081	0.00966812
710.160	0.00957085
710.238	0.00972496
710.316	0.00977272
710.394	0.0100220
710.472	0.0104365
710.550	0.0105800
710.628	0.0109792
710.706	0.0113274
710.785	0.0116208
710.863	0.0120319
710.941	0.0124688
711.019	0.0127989
711.097	0.0133751
711.175	0.0134956
711.253	0.0139658
711.331	0.0143726
711.410	0.0147330
711.488	0.0150389
711.566	0.0155781
711.644	0.0158971
711.722	0.0159521
711.800	0.0161262
711.878	0.0164542
711.956	0.0167439
712.035	0.0170844
712.113	0.0172867
712.191	0.0176315
712.269	0.0183359
712.347	0.0185621
712.425	0.0190240
712.503	0.0192587
712.581	0.0195988
712.660	0.0195730
712.738	0.0193627
712.816	0.0189339
712.894	0.0183184
712.972	0.0177235
713.050	0.0169456
713.128	0.0163972
713.206	0.0157047
713.285	0.0150220
713.363	0.0145200
713.441	0.0141110
713.519	0.0137060
713.597	0.0135105
713.675	0.0130167
713.753	0.0127663
713.831	0.0126926
713.910	0.0124030
713.988	0.0120030
714.066	0.0116854
714.144	0.0115617
714.222	0.0113121
714.300	0.0110403
714.378	0.0107390
714.456	0.0108115
714.535	0.0108409
714.613	0.0108050
714.691	0.0107671
714.769	0.0109283
714.847	0.0112011
714.925	0.0115134
715.003	0.0117772
715.081	0.0121666
715.160	0.0125378
715.238	0.0129439
715.316	0.0134489
715.394	0.0138958
715.472	0.0142243
715.550	0.0144263
715.628	0.0145471
715.706	0.0147547
715.785	0.0148222
715.863	0.0149095
715.941	0.0150451
716.019	0.0150297
716.097	0.0152125
716.175	0.0155412
716.253	0.0156818
716.331	0.0159620
716.410	0.0165845
716.488	0.0170860
716.566	0.0174075
716.644	0.0180995
716.722	0.0184164
716.800	0.0186431
716.878	0.0187130
716.956	0.0187600
717.035	0.0184086
717.113	0.0181763
717.191	0.0179325
717.269	0.0173341
717.347	0.0169676
717.425	0.0165102
717.503	0.0159165
717.581	0.0155472
717.660	0.0150398
717.738	0.0148312
717.816	0.0144966
717.894	0.0140981
717.972	0.0139652
718.050	0.0137491
718.128	0.0135379
718.206	0.0132336
718.285	0.0129503
718.363	0.0125597
718.441	0.0121146
718.519	0.0119003
718.597	0.0117508
718.675	0.0114274
718.753	0.0112602
718.831	0.0114104
718.910	0.0114355
718.988	0.0114441
719.066	0.0116875
719.144	0.0119522
719.222	0.0121368
719.300	0.0125366
719.378	0.0127022
719.456	0.0129227
719.535	0.0132026
719.613	0.0133524
719.691	0.0132005
719.769	0.0134058
719.847	0.0135779
719.925	0.0135313
720.003	0.0136994
720.081	0.0137267
720.160	0.0136910
720.238	0.0138883
720.316	0.0138275
720.394	0.0140280
720.472	0.0143829
720.550	0.0145211
720.628	0.0147666
720.706	0.0150665
720.785	0.0156824
720.863	0.0160508
720.941	0.0163804
721.019	0.0167663
721.097	0.0171080
721.175	0.0172688
721.253	0.0175886
721.331	0.0177391
721.410	0.0177414
721.488	0.0177206
721.566	0.0174381
721.644	0.0173378
721.722	0.0173155
721.800	0.0172247
721.878	0.0170234
721.956	0.0166270
722.035	0.0164381
722.113	0.0162756
722.191	0.0159977
722.269	0.0158309
722.347	0.0157030
722.425	0.0154111
722.503	0.0151199
722.581	0.0146671
722.660	0.0143360
722.738	0.0138977
722.816	0.0136124
722.894	0.0132921
722.972	0.0129456
723.050	0.0124599
723.128	0.0121780
723.206	0.0119338
723.285	0.0118264
723.363	0.0115858
723.441	0.0115770
723.519	0.0115793
723.597	0.0115221
723.675	0.0117007
723.753	0.0118261
723.831	0.0118196
723.910	0.0120027
723.988	0.0122503
724.066	0.0124619
724.144	0.0125224
724.222	0.0127949
724.300	0.0129062
724.378	0.0130600
724.456	0.0131489
724.535	0.0133576
724.613	0.0134811
724.691	0.0133775
724.769	0.0134688
724.847	0.0135099
724.925	0.0135452
725.003	0.0134574
725.081	0.0137074
725.160	0.0139114
725.238	0.0141876
725.316	0.0142898
725.394	0.0147129
725.472	0.0151311
725.550	0.0153806
725.628	0.0158441
725.706	0.0163986
725.785	0.0168582
725.863	0.0172827
725.941	0.0176321
726.019	0.0179824
726.097	0.0182753
726.175	0.0183984
726.253	0.0184313
726.331	0.0185300
726.410	0.0183133
726.488	0.0184085
726.566	0.0181712
726.644	0.0175687
726.722	0.0174329
726.800	0.0170396
726.878	0.0166428
726.956	0.0162743
727.035	0.0160090
727.113	0.0156649
727.191	0.0151910
727.269	0.0147823
727.347	0.0143036
727.425	0.0140734
727.503	0.0139060
727.581	0.0135786
727.660	0.0133707
727.738	0.0131005
727.816	0.0128931
727.894	0.0127967
727.972	0.0126900
728.050	0.0126109
728.128	0.0124785
728.206	0.0122617
728.285	0.0121206
728.363	0.0119250
728.441	0.0118742
728.519	0.0117185
728.597	0.0115492
728.675	0.0114761
728.753	0.0112503
728.831	0.0112786
728.910	0.0112599
728.988	0.0111446
729.066	0.0114546
729.144	0.0115828
729.222	0.0117496
729.300	0.0118404
729.378	0.0121641
729.456	0.0122018
729.535	0.0123896
729.613	0.0127265
729.691	0.0130020
729.769	0.0130735
729.847	0.0134003
729.925	0.0135935
730.003	0.0139202
730.081	0.0145263
730.160	0.0148280
730.238	0.0153063
730.316	0.0156179
730.394	0.0159068
730.472	0.0163460
730.550	0.0165833
730.628	0.0168556
730.706	0.0172318
730.785	0.0176370
730.863	0.0178840
730.941	0.0179428
731.019	0.0180865
731.097	0.0181096
731.175	0.0181966
731.253	0.0181585
731.331	0.0181655
731.410	0.0180240
731.488	0.0178492
731.566	0.0177464
731.644	0.0175806
731.722	0.0174124
731.800	0.0170765
731.878	0.0169886
731.956	0.0167554
732.035	0.0165771
732.113	0.0163515
732.191	0.0159792
732.269	0.0157458
732.347	0.0153079
732.425	0.0149757
732.503	0.0147090
732.581	0.0142865
732.660	0.0137463
732.738	0.0134292
732.816	0.0131112
732.894	0.0126287
732.972	0.0121975
733.050	0.0119644
733.128	0.0117173
733.206	0.0112688
733.285	0.0111485
733.363	0.0108959
733.441	0.0107396
733.519	0.0104888
733.597	0.0106163
733.675	0.0107143
733.753	0.0106930
733.831	0.0108154
733.910	0.0109912
733.988	0.0109850
734.066	0.0111126
734.144	0.0114648
734.222	0.0116441
734.300	0.0118661
734.378	0.0122109
734.456	0.0123933
734.535	0.0126871
734.613	0.0129560
734.691	0.0133540
734.769	0.0134608
734.847	0.0137851
734.925	0.0141360
735.003	0.0143785
735.081	0.0144881
735.160	0.0149016
735.238	0.0152832
735.316	0.0154480
735.394	0.0157901
735.472	0.0161600
735.550	0.0165624
735.628	0.0168572
735.706	0.0169710
735.785	0.0174390
735.863	0.0174840
735.941	0.0177246
736.019	0.0177969
736.097	0.0178655
736.175	0.0181303
736.253	0.0179079
736.331	0.0177843
736.410	0.0176877
736.488	0.0175474
736.566	0.0175136
736.644	0.0173144
736.722	0.0170264
736.800	0.0169736
736.878	0.0167292
736.956	0.0165405
737.035	0.0163611
737.113	0.0161536
737.191	0.0159696
737.269	0.0157408
737.347	0.0154620
737.425	0.0153417
737.503	0.0150879
737.581	0.0148340
737.660	0.0145725
737.738	0.0141839
737.816	0.0138129
737.894	0.0135233
737.972	0.0133665
738.050	0.0129825
738.128	0.0127256
738.206	0.0125171
738.285	0.0123558
738.363	0.0120734
738.441	0.0119907
738.519	0.0119421
738.597	0.0118882
738.675	0.0117297
738.753	0.0117752
738.831	0.0119039
738.910	0.0119572
738.988	0.0118124
739.066	0.0119273
739.144	0.0120609
739.222	0.0120805
739.300	0.0121472
739.378	0.0121684
739.456	0.0122762
739.535	0.0123098
739.613	0.0124910
739.691	0.0126527
739.769	0.0127065
739.847	0.0128869
739.925	0.0131008
740.003	0.0131815
740.081	0.0135177
740.160	0.0139238
740.238	0.0142045
740.316	0.0144521
740.394	0.0146591
740.472	0.0149716
740.550	0.0152374
740.628	0.0153468
740.706	0.0155190
740.785	0.0159060
740.863	0.0159258
740.941	0.0162424
741.019	0.0162244
741.097	0.0162862
741.175	0.0164679
741.253	0.0165355
741.331	0.0166171
741.410	0.0167470
741.488	0.0168577
741.566	0.0167787
741.644	0.0167182
741.722	0.0167466
741.800	0.0167502
741.878	0.0165650
741.956	0.0166039
742.035	0.0164929
742.113	0.0164214
742.191	0.0164417
742.269	0.0164147
742.347	0.0162125
742.425	0.0162642
742.503	0.0160328
742.581	0.0158317
742.660	0.0157938
742.738	0.0157553
742.816	0.0154469
742.894	0.0152954
742.972	0.0151204
743.050	0.0150888
743.128	0.0148637
743.206	0.0146503
743.285	0.0142893
743.363	0.0142052
743.441	0.0138597
743.519	0.0136159
743.597	0.0134812
743.675	0.0132256
743.753	0.0128574
743.831	0.0127820
743.910	0.0125054
743.988	0.0121824
744.066	0.0121503
744.144	0.0119122
744.222	0.0119695
744.300	0.0117115
744.378	0.0116495
744.456	0.0118494
744.535	0.0118060
744.613	0.0117822
744.691	0.0120325
744.769	0.0120169
744.847	0.0120125
744.925	0.0123409
745.003	0.0124377
745.081	0.0127764
745.160	0.0131477
745.238	0.0133372
745.316	0.0134426
745.394	0.0136036
745.472	0.0138312
745.550	0.0141354
745.628	0.0142651
745.706	0.0144518
