05/03/2022	20:23:07	Ver.	4.1	UNKNOWN
Optical Delay	660.003261	Delta X		0.078125	Sweeps	1	Scan Rate	0/0
Coordinates	Axis 1	NaN	Axis 2	NaN	Axis 3	NaN	Axis 4	NaN	Axis 5	NaN	Axis 6	0.000000
TX Power	0.000000	RX Power	0.000000

660.003	0.0143481
660.081	0.0143535
660.160	0.0143378
660.238	0.0142857
660.316	0.0144492
660.394	0.0142778
660.472	0.0142883
660.550	0.0143233
660.628	0.0143080
660.706	0.0143987
660.785	0.0144913
660.863	0.0142912
660.941	0.0143058
661.019	0.0142145
661.097	0.0142852
661.175	0.0143616
661.253	0.0143625
661.331	0.0142359
661.410	0.0143865
661.488	0.0143323
661.566	0.0142676
661.644	0.0143342
661.722	0.0145709
661.800	0.0144021
661.878	0.0142699
661.956	0.0142009
662.035	0.0142253
662.113	0.0143422
662.191	0.0144255
662.269	0.0144101
662.347	0.0143231
662.425	0.0144121
662.503	0.0143405
662.581	0.0144521
662.660	0.0143361
662.738	0.0143396
662.816	0.0143921
662.894	0.0144297
662.972	0.0144574
663.050	0.0143225
663.128	0.0142274
663.206	0.0143185
663.285	0.0143522
663.363	0.0144462
663.441	0.0145181
663.519	0.0143025
663.597	0.0143912
663.675	0.0143616
663.753	0.0144379
663.831	0.0142272
663.910	0.0143050
663.988	0.0143768
664.066	0.0143055
664.144	0.0143268
664.222	0.0142745
664.300	0.0144512
664.378	0.0143353
664.456	0.0143359
664.535	0.0143637
664.613	0.0143318
664.691	0.0142628
664.769	0.0143574
664.847	0.0143847
664.925	0.0144080
665.003	0.0144133
665.081	0.0142018
665.160	0.0142319
665.238	0.0145164
665.316	0.0143062
665.394	0.0142583
665.472	0.0142594
665.550	0.0143225
665.628	0.0143177
665.706	0.0144757
665.785	0.0141705
665.863	0.0144147
665.941	0.0144163
666.019	0.0144231
666.097	0.0143728
666.175	0.0143300
666.253	0.0143872
666.331	0.0143227
666.410	0.0144071
666.488	0.0143285
666.566	0.0143593
666.644	0.0142825
666.722	0.0143826
666.800	0.0143943
666.878	0.0144045
666.956	0.0145112
667.035	0.0143771
667.113	0.0144872
667.191	0.0144464
667.269	0.0142208
667.347	0.0144069
667.425	0.0144938
667.503	0.0143514
667.581	0.0144342
667.660	0.0143658
667.738	0.0143791
667.816	0.0145351
667.894	0.0143864
667.972	0.0144658
668.050	0.0143529
668.128	0.0143275
668.206	0.0143946
668.285	0.0144366
668.363	0.0142986
668.441	0.0143838
668.519	0.0144264
668.597	0.0144573
668.675	0.0143191
668.753	0.0144019
668.831	0.0144328
668.910	0.0142915
668.988	0.0143490
669.066	0.0144877
669.144	0.0143483
669.222	0.0144807
669.300	0.0143528
669.378	0.0144495
669.456	0.0145091
669.535	0.0143887
669.613	0.0143813
669.691	0.0143755
669.769	0.0143981
669.847	0.0144849
669.925	0.0145022
670.003	0.0145185
670.081	0.0144945
670.160	0.0144812
670.238	0.0143701
670.316	0.0144418
670.394	0.0144549
670.472	0.0143612
670.550	0.0143525
670.628	0.0144202
670.706	0.0143681
670.785	0.0143816
670.863	0.0142448
670.941	0.0143071
671.019	0.0145445
671.097	0.0142834
671.175	0.0143214
671.253	0.0144080
671.331	0.0144971
671.410	0.0145094
671.488	0.0143327
671.566	0.0143906
671.644	0.0143746
671.722	0.0142907
671.800	0.0144312
671.878	0.0143117
671.956	0.0144499
672.035	0.0144065
672.113	0.0142570
672.191	0.0145292
672.269	0.0142900
672.347	0.0142972
672.425	0.0144523
672.503	0.0143369
672.581	0.0143906
672.660	0.0144391
672.738	0.0142820
672.816	0.0143796
672.894	0.0144914
672.972	0.0143899
673.050	0.0144057
673.128	0.0143488
673.206	0.0144067
673.285	0.0142927
673.363	0.0143501
673.441	0.0143518
673.519	0.0144260
673.597	0.0143311
673.675	0.0142606
673.753	0.0144472
673.831	0.0143852
673.910	0.0141577
673.988	0.0142031
674.066	0.0143142
674.144	0.0143114
674.222	0.0141886
674.300	0.0143829
674.378	0.0143115
674.456	0.0142615
674.535	0.0143682
674.613	0.0143045
674.691	0.0141256
674.769	0.0143150
674.847	0.0144762
674.925	0.0142446
675.003	0.0142879
675.081	0.0143436
675.160	0.0144258
675.238	0.0144175
675.316	0.0143566
675.394	0.0143904
675.472	0.0143108
675.550	0.0143756
675.628	0.0142973
675.706	0.0143176
675.785	0.0143715
675.863	0.0142672
675.941	0.0142595
676.019	0.0143925
676.097	0.0143552
676.175	0.0143671
676.253	0.0142494
676.331	0.0142599
676.410	0.0143250
676.488	0.0144629
676.566	0.0143349
676.644	0.0143932
676.722	0.0144859
676.800	0.0143837
676.878	0.0144073
676.956	0.0143086
677.035	0.0142569
677.113	0.0144623
677.191	0.0143952
677.269	0.0143377
677.347	0.0144643
677.425	0.0143906
677.503	0.0143505
677.581	0.0144016
677.660	0.0143034
677.738	0.0143840
677.816	0.0144552
677.894	0.0144707
677.972	0.0144939
678.050	0.0143157
678.128	0.0143967
678.206	0.0144565
678.285	0.0143591
678.363	0.0144499
678.441	0.0143732
678.519	0.0143460
678.597	0.0143855
678.675	0.0144058
678.753	0.0143925
678.831	0.0143215
678.910	0.0143852
678.988	0.0145253
679.066	0.0144933
679.144	0.0144283
679.222	0.0144487
679.300	0.0144115
679.378	0.0144850
679.456	0.0143382
679.535	0.0144872
679.613	0.0145514
679.691	0.0145264
679.769	0.0144491
679.847	0.0144180
679.925	0.0143953
680.003	0.0143917
680.081	0.0143778
680.160	0.0144659
680.238	0.0144526
680.316	0.0143676
680.394	0.0145685
680.472	0.0144351
680.550	0.0145750
680.628	0.0144231
680.706	0.0143601
680.785	0.0144634
680.863	0.0144028
680.941	0.0143835
681.019	0.0143232
681.097	0.0143091
681.175	0.0143700
681.253	0.0144192
681.331	0.0144974
681.410	0.0143295
681.488	0.0143840
681.566	0.0143398
681.644	0.0144143
681.722	0.0143276
681.800	0.0142966
681.878	0.0143474
681.956	0.0143734
682.035	0.0143495
682.113	0.0143624
682.191	0.0144087
682.269	0.0144531
682.347	0.0143788
682.425	0.0143265
682.503	0.0144389
682.581	0.0144079
682.660	0.0142089
682.738	0.0142905
682.816	0.0143643
682.894	0.0143896
682.972	0.0142747
683.050	0.0142713
683.128	0.0142950
683.206	0.0145032
683.285	0.0143779
683.363	0.0143861
683.441	0.0143967
683.519	0.0144456
683.597	0.0144083
683.675	0.0143947
683.753	0.0142401
683.831	0.0143050
683.910	0.0143687
683.988	0.0144479
684.066	0.0142937
684.144	0.0144125
684.222	0.0144788
684.300	0.0144534
684.378	0.0143113
684.456	0.0142216
684.535	0.0143164
684.613	0.0142662
684.691	0.0142794
684.769	0.0144526
684.847	0.0143753
684.925	0.0143738
685.003	0.0144429
685.081	0.0144545
685.160	0.0143380
685.238	0.0143188
685.316	0.0144389
685.394	0.0142562
685.472	0.0144360
685.550	0.0144052
685.628	0.0143633
685.706	0.0143639
685.785	0.0143272
685.863	0.0143977
685.941	0.0145370
686.019	0.0142534
686.097	0.0143673
686.175	0.0144133
686.253	0.0144651
686.331	0.0142978
686.410	0.0142638
686.488	0.0143040
686.566	0.0143243
686.644	0.0143746
686.722	0.0143958
686.800	0.0144030
686.878	0.0143311
686.956	0.0145482
687.035	0.0143456
687.113	0.0144025
687.191	0.0143468
687.269	0.0144556
687.347	0.0145564
687.425	0.0142977
687.503	0.0144619
687.581	0.0143255
687.660	0.0143318
687.738	0.0144315
687.816	0.0145077
687.894	0.0144708
687.972	0.0143005
688.050	0.0143229
688.128	0.0144389
688.206	0.0144421
688.285	0.0144807
688.363	0.0143044
688.441	0.0145061
688.519	0.0143844
688.597	0.0143851
688.675	0.0144257
688.753	0.0143440
688.831	0.0144115
688.910	0.0143628
688.988	0.0144374
689.066	0.0145117
689.144	0.0144749
689.222	0.0143884
689.300	0.0143459
689.378	0.0144387
689.456	0.0144049
689.535	0.0142226
689.613	0.0143510
689.691	0.0143704
689.769	0.0144166
689.847	0.0144701
689.925	0.0144208
690.003	0.0144806
690.081	0.0142226
690.160	0.0144298
690.238	0.0144173
690.316	0.0142911
690.394	0.0143374
690.472	0.0145356
690.550	0.0143835
690.628	0.0143584
690.706	0.0144010
690.785	0.0144788
690.863	0.0143689
690.941	0.0144212
691.019	0.0144102
691.097	0.0143618
691.175	0.0145419
691.253	0.0145271
691.331	0.0143650
691.410	0.0143231
691.488	0.0144314
691.566	0.0144159
691.644	0.0143139
691.722	0.0144759
691.800	0.0143176
691.878	0.0145945
691.956	0.0146152
692.035	0.0144543
692.113	0.0144254
692.191	0.0145472
692.269	0.0142673
692.347	0.0144285
692.425	0.0144897
692.503	0.0143795
692.581	0.0143804
692.660	0.0144330
692.738	0.0144152
692.816	0.0143970
692.894	0.0144345
692.972	0.0144293
693.050	0.0143499
693.128	0.0143768
693.206	0.0145069
693.285	0.0142826
693.363	0.0143709
693.441	0.0143158
693.519	0.0143967
693.597	0.0143116
693.675	0.0144831
693.753	0.0143711
693.831	0.0144064
693.910	0.0143300
693.988	0.0145419
694.066	0.0142533
694.144	0.0143104
694.222	0.0144251
694.300	0.0143847
694.378	0.0144088
694.456	0.0144118
694.535	0.0144085
694.613	0.0144394
694.691	0.0143940
694.769	0.0143942
694.847	0.0143997
694.925	0.0143447
695.003	0.0143490
695.081	0.0143892
695.160	0.0143661
695.238	0.0144595
695.316	0.0143077
695.394	0.0144846
695.472	0.0143163
695.550	0.0144128
695.628	0.0144461
695.706	0.0144657
695.785	0.0144831
695.863	0.0144350
695.941	0.0144441
696.019	0.0145644
696.097	0.0145566
696.175	0.0145364
696.253	0.0145063
696.331	0.0145626
696.410	0.0145503
696.488	0.0144456
696.566	0.0143529
696.644	0.0141988
696.722	0.0141573
696.800	0.0139794
696.878	0.0141271
696.956	0.0140415
697.035	0.0139899
697.113	0.0140310
697.191	0.0140841
697.269	0.0141152
697.347	0.0142521
697.425	0.0143866
697.503	0.0144150
697.581	0.0145155
697.660	0.0145835
697.738	0.0147623
697.816	0.0148788
697.894	0.0150064
697.972	0.0150923
698.050	0.0151637
698.128	0.0150084
698.206	0.0150111
698.285	0.0150495
698.363	0.0148888
698.441	0.0147764
698.519	0.0146765
698.597	0.0144040
698.675	0.0142683
698.753	0.0142705
698.831	0.0140634
698.910	0.0137627
698.988	0.0136995
699.066	0.0134208
699.144	0.0133401
699.222	0.0132211
699.300	0.0133229
699.378	0.0133128
699.456	0.0133341
699.535	0.0133862
699.613	0.0133661
699.691	0.0134461
699.769	0.0136378
699.847	0.0139367
699.925	0.0140769
700.003	0.0142390
700.081	0.0144294
700.160	0.0146016
700.238	0.0148690
700.316	0.0149912
700.394	0.0152642
700.472	0.0155551
700.550	0.0157948
700.628	0.0159657
700.706	0.0161742
700.785	0.0161609
700.863	0.0163161
700.941	0.0164588
701.019	0.0164595
701.097	0.0163039
701.175	0.0160264
701.253	0.0157452
701.331	0.0152797
701.410	0.0149398
701.488	0.0144664
701.566	0.0140697
701.644	0.0137199
701.722	0.0133292
701.800	0.0131738
701.878	0.0128075
701.956	0.0125468
702.035	0.0124491
702.113	0.0122447
702.191	0.0121422
702.269	0.0121541
702.347	0.0121254
702.425	0.0123617
702.503	0.0123870
702.581	0.0126099
702.660	0.0128899
702.738	0.0130700
702.816	0.0132871
702.894	0.0135993
702.972	0.0140650
703.050	0.0141503
703.128	0.0143293
703.206	0.0143591
703.285	0.0144762
703.363	0.0147145
703.441	0.0147240
703.519	0.0148067
703.597	0.0150745
703.675	0.0150847
703.753	0.0152567
703.831	0.0154137
703.910	0.0155892
703.988	0.0156577
704.066	0.0160005
704.144	0.0163680
704.222	0.0165816
704.300	0.0168747
704.378	0.0173203
704.456	0.0176810
704.535	0.0179256
704.613	0.0180122
704.691	0.0178786
704.769	0.0175647
704.847	0.0170585
704.925	0.0163063
705.003	0.0155385
705.081	0.0146783
705.160	0.0136931
705.238	0.0128922
705.316	0.0122747
705.394	0.0117484
705.472	0.0113519
705.550	0.0109805
705.628	0.0111178
705.706	0.0112898
705.785	0.0112655
705.863	0.0114629
705.941	0.0117516
706.019	0.0116211
706.097	0.0117096
706.175	0.0120033
706.253	0.0119326
706.331	0.0121127
706.410	0.0122301
706.488	0.0122511
706.566	0.0124570
706.644	0.0127070
706.722	0.0129185
706.800	0.0132615
706.878	0.0135725
706.956	0.0138609
707.035	0.0142065
707.113	0.0145176
707.191	0.0147744
707.269	0.0150677
707.347	0.0154005
707.425	0.0154834
707.503	0.0157805
707.581	0.0157279
707.660	0.0158567
707.738	0.0161043
707.816	0.0161536
707.894	0.0164059
707.972	0.0165269
708.050	0.0168288
708.128	0.0171759
708.206	0.0176391
708.285	0.0178824
708.363	0.0183309
708.441	0.0185181
708.519	0.0187421
708.597	0.0188143
708.675	0.0185615
708.753	0.0182155
708.831	0.0176257
708.910	0.0167896
708.988	0.0161400
709.066	0.0154059
709.144	0.0144759
709.222	0.0136688
709.300	0.0129649
709.378	0.0122521
709.456	0.0115543
709.535	0.0110268
709.613	0.0105479
709.691	0.0101858
709.769	0.00996696
709.847	0.00982819
709.925	0.00978355
710.003	0.00984406
710.081	0.0100420
710.160	0.0101864
710.238	0.0104626
710.316	0.0107500
710.394	0.0109376
710.472	0.0113642
710.550	0.0118197
710.628	0.0121484
710.706	0.0124561
710.785	0.0129331
710.863	0.0131314
710.941	0.0134797
711.019	0.0139893
711.097	0.0144677
711.175	0.0147880
711.253	0.0152612
711.331	0.0154964
711.410	0.0157957
711.488	0.0158845
711.566	0.0159270
711.644	0.0160261
711.722	0.0162582
711.800	0.0163124
711.878	0.0163229
711.956	0.0167538
712.035	0.0171260
712.113	0.0175996
712.191	0.0179778
712.269	0.0184007
712.347	0.0188729
712.425	0.0189545
712.503	0.0190949
712.581	0.0189194
712.660	0.0184689
712.738	0.0180955
712.816	0.0174160
712.894	0.0166589
712.972	0.0162128
713.050	0.0155161
713.128	0.0150693
713.206	0.0144073
713.285	0.0140835
713.363	0.0137013
713.441	0.0133529
713.519	0.0130421
713.597	0.0126477
713.675	0.0124392
713.753	0.0122984
713.831	0.0119405
713.910	0.0117420
713.988	0.0114656
714.066	0.0113620
714.144	0.0110126
714.222	0.0109032
714.300	0.0106764
714.378	0.0108617
714.456	0.0108086
714.535	0.0108490
714.613	0.0109998
714.691	0.0112366
714.769	0.0114989
714.847	0.0119250
714.925	0.0123380
715.003	0.0126701
715.081	0.0132072
715.160	0.0135680
715.238	0.0140000
715.316	0.0142718
715.394	0.0144919
715.472	0.0148183
715.550	0.0147855
715.628	0.0147313
715.706	0.0146832
715.785	0.0146980
715.863	0.0148858
715.941	0.0149538
716.019	0.0152503
716.097	0.0154517
716.175	0.0157176
716.253	0.0161150
716.331	0.0164825
716.410	0.0169367
716.488	0.0176527
716.566	0.0178291
716.644	0.0180135
716.722	0.0182175
716.800	0.0183027
716.878	0.0181448
716.956	0.0181110
717.035	0.0178149
717.113	0.0175089
717.191	0.0168911
717.269	0.0164561
717.347	0.0161227
717.425	0.0157122
717.503	0.0153423
717.581	0.0150106
717.660	0.0146084
717.738	0.0144074
717.816	0.0140565
717.894	0.0138277
717.972	0.0136014
718.050	0.0133077
718.128	0.0129783
718.206	0.0126692
718.285	0.0122844
718.363	0.0119541
718.441	0.0116772
718.519	0.0113712
718.597	0.0113187
718.675	0.0112698
718.753	0.0112649
718.831	0.0113352
718.910	0.0114772
718.988	0.0116294
719.066	0.0119710
719.144	0.0121639
719.222	0.0125125
719.300	0.0127398
719.378	0.0130874
719.456	0.0133825
719.535	0.0135950
719.613	0.0136105
719.691	0.0140036
719.769	0.0137993
719.847	0.0139124
719.925	0.0140147
720.003	0.0136948
720.081	0.0137624
720.160	0.0138708
720.238	0.0138513
720.316	0.0139294
720.394	0.0140544
720.472	0.0143905
720.550	0.0146716
720.628	0.0148825
720.706	0.0154333
720.785	0.0156551
720.863	0.0161833
720.941	0.0164543
721.019	0.0166701
721.097	0.0169157
721.175	0.0172757
721.253	0.0175356
721.331	0.0174163
721.410	0.0174297
721.488	0.0176443
721.566	0.0175191
721.644	0.0173598
721.722	0.0169875
721.800	0.0169461
721.878	0.0168301
721.956	0.0164832
722.035	0.0163073
722.113	0.0159343
722.191	0.0157660
722.269	0.0155434
722.347	0.0151298
722.425	0.0146819
722.503	0.0144682
722.581	0.0139812
722.660	0.0136836
722.738	0.0133137
722.816	0.0129131
722.894	0.0125893
722.972	0.0123233
723.050	0.0121462
723.128	0.0118231
723.206	0.0117079
723.285	0.0115770
723.363	0.0115291
723.441	0.0115086
723.519	0.0114574
723.597	0.0117523
723.675	0.0118019
723.753	0.0119030
723.831	0.0121132
723.910	0.0122490
723.988	0.0125375
724.066	0.0128223
724.144	0.0129771
724.222	0.0130614
724.300	0.0131229
724.378	0.0130913
724.456	0.0132665
724.535	0.0134049
724.613	0.0133184
724.691	0.0131886
724.769	0.0133027
724.847	0.0133401
724.925	0.0135100
725.003	0.0136861
725.081	0.0139115
725.160	0.0141176
725.238	0.0143456
725.316	0.0147884
725.394	0.0150148
725.472	0.0153392
725.550	0.0159724
725.628	0.0162605
725.706	0.0166061
725.785	0.0171492
725.863	0.0174456
725.941	0.0178302
726.019	0.0181091
726.097	0.0182658
726.175	0.0182714
726.253	0.0183701
726.331	0.0182040
726.410	0.0180096
726.488	0.0177621
726.566	0.0177750
726.644	0.0171602
726.722	0.0166373
726.800	0.0164937
726.878	0.0160732
726.956	0.0157218
727.035	0.0152859
727.113	0.0149597
727.191	0.0146424
727.269	0.0144043
727.347	0.0140476
727.425	0.0137613
727.503	0.0136425
727.581	0.0134190
727.660	0.0132904
727.738	0.0130889
727.816	0.0129975
727.894	0.0125458
727.972	0.0124842
728.050	0.0122057
728.128	0.0121500
728.206	0.0119505
728.285	0.0118750
728.363	0.0115816
728.441	0.0114520
728.519	0.0112521
728.597	0.0111583
728.675	0.0111723
728.753	0.0112241
728.831	0.0112154
728.910	0.0112354
728.988	0.0114556
729.066	0.0115566
729.144	0.0116892
729.222	0.0119514
729.300	0.0121973
729.378	0.0123192
729.456	0.0123801
729.535	0.0126796
729.613	0.0127972
729.691	0.0131828
729.769	0.0135000
729.847	0.0135405
729.925	0.0139124
730.003	0.0144343
730.081	0.0147115
730.160	0.0149215
730.238	0.0154773
730.316	0.0157756
730.394	0.0161184
730.472	0.0165189
730.550	0.0167956
730.628	0.0170262
730.706	0.0174391
730.785	0.0176839
730.863	0.0179172
730.941	0.0178288
731.019	0.0178561
731.097	0.0178770
731.175	0.0179042
731.253	0.0177907
731.331	0.0180421
731.410	0.0178680
731.488	0.0175932
731.566	0.0174617
731.644	0.0174268
731.722	0.0173056
731.800	0.0170133
731.878	0.0167130
731.956	0.0165543
732.035	0.0161242
732.113	0.0157796
732.191	0.0155657
732.269	0.0153271
732.347	0.0150005
732.425	0.0145660
732.503	0.0141094
732.581	0.0136224
732.660	0.0133771
732.738	0.0131429
732.816	0.0126009
732.894	0.0122750
732.972	0.0119744
733.050	0.0116057
733.128	0.0112515
733.206	0.0111503
733.285	0.0110937
733.363	0.0107590
733.441	0.0108344
733.519	0.0107223
733.597	0.0108118
733.675	0.0108351
733.753	0.0108453
733.831	0.0110322
733.910	0.0110410
733.988	0.0113654
734.066	0.0115759
734.144	0.0118008
734.222	0.0119062
734.300	0.0121333
734.378	0.0122578
734.456	0.0125593
734.535	0.0128501
734.613	0.0129802
734.691	0.0131659
734.769	0.0134204
734.847	0.0138066
734.925	0.0140350
735.003	0.0142195
735.081	0.0144944
735.160	0.0147732
735.238	0.0151125
735.316	0.0153947
735.394	0.0157928
735.472	0.0161582
735.550	0.0164812
735.628	0.0168037
735.706	0.0170173
735.785	0.0172771
735.863	0.0173073
735.941	0.0173167
736.019	0.0175038
736.097	0.0176891
736.175	0.0175220
736.253	0.0175682
736.331	0.0175016
736.410	0.0173533
736.488	0.0172346
736.566	0.0171503
736.644	0.0170043
736.722	0.0167904
736.800	0.0165308
736.878	0.0164775
736.956	0.0163157
737.035	0.0162558
737.113	0.0161364
737.191	0.0158443
737.269	0.0156387
737.347	0.0156190
737.425	0.0153123
737.503	0.0149845
737.581	0.0147626
737.660	0.0145219
737.738	0.0141238
737.816	0.0138820
737.894	0.0137427
737.972	0.0135307
738.050	0.0130358
738.128	0.0129478
738.206	0.0128394
738.285	0.0123613
738.363	0.0123381
738.441	0.0120963
738.519	0.0119498
738.597	0.0118840
738.675	0.0117187
738.753	0.0117545
738.831	0.0116035
738.910	0.0116180
738.988	0.0116789
739.066	0.0116812
739.144	0.0117554
739.222	0.0118831
739.300	0.0118362
739.378	0.0119304
739.456	0.0121226
739.535	0.0119698
739.613	0.0121677
739.691	0.0122718
739.769	0.0125068
739.847	0.0125883
739.925	0.0128469
740.003	0.0129520
740.081	0.0134121
740.160	0.0135159
740.238	0.0138082
740.316	0.0140111
740.394	0.0143710
740.472	0.0146507
740.550	0.0148990
740.628	0.0150967
740.706	0.0153070
740.785	0.0154805
740.863	0.0156142
740.941	0.0158368
741.019	0.0159045
741.097	0.0161306
741.175	0.0163285
741.253	0.0164077
741.331	0.0165794
741.410	0.0167009
741.488	0.0168237
741.566	0.0168224
741.644	0.0168858
741.722	0.0168110
741.800	0.0167417
741.878	0.0168110
741.956	0.0166660
742.035	0.0165764
742.113	0.0165789
742.191	0.0166513
742.269	0.0164543
742.347	0.0165234
742.425	0.0163394
742.503	0.0163264
742.581	0.0160945
742.660	0.0160664
742.738	0.0159547
742.816	0.0156737
742.894	0.0156477
742.972	0.0153115
743.050	0.0151711
743.128	0.0148705
743.206	0.0147319
743.285	0.0144885
743.363	0.0141570
743.441	0.0137296
743.519	0.0134219
743.597	0.0132214
743.675	0.0129669
743.753	0.0125200
743.831	0.0122752
743.910	0.0120520
743.988	0.0118454
744.066	0.0117231
744.144	0.0116078
744.222	0.0114975
744.300	0.0113511
744.378	0.0112590
744.456	0.0113338
744.535	0.0116034
744.613	0.0116602
744.691	0.0116201
744.769	0.0118026
744.847	0.0119145
744.925	0.0122461
745.003	0.0124032
745.081	0.0125593
745.160	0.0127500
745.238	0.0128614
745.316	0.0131655
745.394	0.0132985
745.472	0.0135316
745.550	0.0136955
745.628	0.0139649
745.706	0.0140697
