05/03/2022	20:24:07	Ver.	4.1	UNKNOWN
Optical Delay	660.003261	Delta X		0.078125	Sweeps	1	Scan Rate	0/0
Coordinates	Axis 1	NaN	Axis 2	NaN	Axis 3	NaN	Axis 4	NaN	Axis 5	NaN	Axis 6	0.000000
TX Power	0.000000	RX Power	0.000000

660.003	0.0143555
660.081	0.0143970
660.160	0.0143677
660.238	0.0144439
660.316	0.0143925
660.394	0.0144882
660.472	0.0145193
660.550	0.0142555
660.628	0.0145261
660.706	0.0145215
660.785	0.0144939
660.863	0.0143489
660.941	0.0142719
661.019	0.0144760
661.097	0.0144124
661.175	0.0143785
661.253	0.0143282
661.331	0.0143941
661.410	0.0145102
661.488	0.0143835
661.566	0.0142913
661.644	0.0143122
661.722	0.0144093
661.800	0.0145965
661.878	0.0144808
661.956	0.0143372
662.035	0.0145886
662.113	0.0144337
662.191	0.0144074
662.269	0.0143343
662.347	0.0144097
662.425	0.0143293
662.503	0.0143926
662.581	0.0144382
662.660	0.0144309
662.738	0.0144417
662.816	0.0145329
662.894	0.0144587
662.972	0.0144253
663.050	0.0143122
663.128	0.0144861
663.206	0.0145473
663.285	0.0144980
663.363	0.0143954
663.441	0.0144340
663.519	0.0144100
663.597	0.0145399
663.675	0.0145123
663.753	0.0144788
663.831	0.0143819
663.910	0.0143233
663.988	0.0144536
664.066	0.0143266
664.144	0.0143524
664.222	0.0145519
664.300	0.0145341
664.378	0.0143399
664.456	0.0143295
664.535	0.0143148
664.613	0.0143473
664.691	0.0144006
664.769	0.0143697
664.847	0.0143044
664.925	0.0142673
665.003	0.0143890
665.081	0.0144830
665.160	0.0143273
665.238	0.0143073
665.316	0.0143077
665.394	0.0143255
665.472	0.0143518
665.550	0.0143210
665.628	0.0143249
665.706	0.0144878
665.785	0.0143545
665.863	0.0143300
665.941	0.0143560
666.019	0.0143462
666.097	0.0144240
666.175	0.0143665
666.253	0.0143860
666.331	0.0144358
666.410	0.0142438
666.488	0.0143000
666.566	0.0143367
666.644	0.0143831
666.722	0.0144065
666.800	0.0144051
666.878	0.0144527
666.956	0.0144506
667.035	0.0143167
667.113	0.0143673
667.191	0.0143679
667.269	0.0143729
667.347	0.0144360
667.425	0.0143332
667.503	0.0143855
667.581	0.0143691
667.660	0.0143488
667.738	0.0143819
667.816	0.0142778
667.894	0.0144909
667.972	0.0143307
668.050	0.0142976
668.128	0.0142239
668.206	0.0143240
668.285	0.0143985
668.363	0.0144463
668.441	0.0142036
668.519	0.0141491
668.597	0.0143207
668.675	0.0143322
668.753	0.0142496
668.831	0.0143155
668.910	0.0142649
668.988	0.0143261
669.066	0.0143623
669.144	0.0142198
669.222	0.0142981
669.300	0.0143098
669.378	0.0141477
669.456	0.0142504
669.535	0.0144221
669.613	0.0142269
669.691	0.0142358
669.769	0.0142744
669.847	0.0143627
669.925	0.0142354
670.003	0.0141622
670.081	0.0141610
670.160	0.0143459
670.238	0.0143199
670.316	0.0142033
670.394	0.0142318
670.472	0.0143365
670.550	0.0142438
670.628	0.0143855
670.706	0.0143252
670.785	0.0142915
670.863	0.0143212
670.941	0.0142500
671.019	0.0143390
671.097	0.0142741
671.175	0.0141575
671.253	0.0142429
671.331	0.0143263
671.410	0.0143820
671.488	0.0142454
671.566	0.0141468
671.644	0.0141327
671.722	0.0141859
671.800	0.0144534
671.878	0.0143671
671.956	0.0142487
672.035	0.0143972
672.113	0.0143684
672.191	0.0142735
672.269	0.0143224
672.347	0.0144979
672.425	0.0143744
672.503	0.0143861
672.581	0.0143523
672.660	0.0143349
672.738	0.0145000
672.816	0.0142618
672.894	0.0143323
672.972	0.0144155
673.050	0.0143458
673.128	0.0144192
673.206	0.0143474
673.285	0.0143452
673.363	0.0143613
673.441	0.0141994
673.519	0.0142613
673.597	0.0143625
673.675	0.0142375
673.753	0.0143945
673.831	0.0143814
673.910	0.0144461
673.988	0.0144436
674.066	0.0143460
674.144	0.0145000
674.222	0.0143158
674.300	0.0142589
674.378	0.0144341
674.456	0.0145155
674.535	0.0143574
674.613	0.0144778
674.691	0.0142359
674.769	0.0144859
674.847	0.0145282
674.925	0.0144032
675.003	0.0143391
675.081	0.0142751
675.160	0.0143729
675.238	0.0144315
675.316	0.0144070
675.394	0.0145052
675.472	0.0143515
675.550	0.0144781
675.628	0.0144067
675.706	0.0143533
675.785	0.0144562
675.863	0.0145260
675.941	0.0143648
676.019	0.0144852
676.097	0.0143916
676.175	0.0144642
676.253	0.0143835
676.331	0.0142681
676.410	0.0143401
676.488	0.0142184
676.566	0.0144065
676.644	0.0143562
676.722	0.0143427
676.800	0.0143950
676.878	0.0143069
676.956	0.0144350
677.035	0.0142786
677.113	0.0142225
677.191	0.0142751
677.269	0.0145068
677.347	0.0143497
677.425	0.0142522
677.503	0.0141534
677.581	0.0143215
677.660	0.0144455
677.738	0.0143929
677.816	0.0143755
677.894	0.0143951
677.972	0.0142155
678.050	0.0143848
678.128	0.0144517
678.206	0.0144377
678.285	0.0144618
678.363	0.0142651
678.441	0.0142583
678.519	0.0144034
678.597	0.0142856
678.675	0.0143806
678.753	0.0143661
678.831	0.0143044
678.910	0.0145304
678.988	0.0144128
679.066	0.0144025
679.144	0.0143774
679.222	0.0143543
679.300	0.0144412
679.378	0.0142776
679.456	0.0143199
679.535	0.0143110
679.613	0.0142680
679.691	0.0143495
679.769	0.0143625
679.847	0.0142588
679.925	0.0141796
680.003	0.0143143
680.081	0.0143737
680.160	0.0144587
680.238	0.0143157
680.316	0.0143165
680.394	0.0143148
680.472	0.0142490
680.550	0.0143240
680.628	0.0144041
680.706	0.0142470
680.785	0.0142785
680.863	0.0143346
680.941	0.0144852
681.019	0.0143951
681.097	0.0141814
681.175	0.0142253
681.253	0.0144070
681.331	0.0142522
681.410	0.0143661
681.488	0.0144878
681.566	0.0142973
681.644	0.0143617
681.722	0.0143887
681.800	0.0143211
681.878	0.0144170
681.956	0.0144070
682.035	0.0143638
682.113	0.0143140
682.191	0.0144829
682.269	0.0144609
682.347	0.0142489
682.425	0.0142597
682.503	0.0143935
682.581	0.0142367
682.660	0.0143513
682.738	0.0143451
682.816	0.0142612
682.894	0.0143213
682.972	0.0142902
683.050	0.0144070
683.128	0.0143696
683.206	0.0143997
683.285	0.0143813
683.363	0.0143671
683.441	0.0143047
683.519	0.0144811
683.597	0.0144106
683.675	0.0144061
683.753	0.0144259
683.831	0.0142372
683.910	0.0144370
683.988	0.0142812
684.066	0.0144640
684.144	0.0144575
684.222	0.0143911
684.300	0.0143848
684.378	0.0143915
684.456	0.0143934
684.535	0.0144938
684.613	0.0143998
684.691	0.0144454
684.769	0.0144463
684.847	0.0144320
684.925	0.0142731
685.003	0.0143866
685.081	0.0145139
685.160	0.0144709
685.238	0.0143778
685.316	0.0144410
685.394	0.0143801
685.472	0.0143314
685.550	0.0143198
685.628	0.0143611
685.706	0.0144632
685.785	0.0143684
685.863	0.0142916
685.941	0.0144840
686.019	0.0142999
686.097	0.0143182
686.175	0.0143695
686.253	0.0144334
686.331	0.0143122
686.410	0.0143960
686.488	0.0144568
686.566	0.0143198
686.644	0.0144024
686.722	0.0144649
686.800	0.0143733
686.878	0.0144686
686.956	0.0142472
687.035	0.0143911
687.113	0.0145345
687.191	0.0144151
687.269	0.0143600
687.347	0.0143945
687.425	0.0142355
687.503	0.0144601
687.581	0.0143176
687.660	0.0143621
687.738	0.0143616
687.816	0.0145056
687.894	0.0144260
687.972	0.0143856
688.050	0.0143536
688.128	0.0142979
688.206	0.0143169
688.285	0.0143435
688.363	0.0143310
688.441	0.0142632
688.519	0.0143079
688.597	0.0143521
688.675	0.0143212
688.753	0.0143652
688.831	0.0144875
688.910	0.0143046
688.988	0.0143954
689.066	0.0142476
689.144	0.0144101
689.222	0.0143544
689.300	0.0144047
689.378	0.0142640
689.456	0.0143225
689.535	0.0144645
689.613	0.0142458
689.691	0.0143819
689.769	0.0142377
689.847	0.0143721
689.925	0.0144288
690.003	0.0143275
690.081	0.0143146
690.160	0.0143467
690.238	0.0143465
690.316	0.0143930
690.394	0.0142680
690.472	0.0143357
690.550	0.0142786
690.628	0.0144303
690.706	0.0143284
690.785	0.0144228
690.863	0.0142908
690.941	0.0143664
691.019	0.0144034
691.097	0.0142827
691.175	0.0141759
691.253	0.0144698
691.331	0.0143761
691.410	0.0143951
691.488	0.0143733
691.566	0.0145943
691.644	0.0143603
691.722	0.0142278
691.800	0.0142494
691.878	0.0142841
691.956	0.0144274
692.035	0.0143169
692.113	0.0143825
692.191	0.0143890
692.269	0.0143276
692.347	0.0144752
692.425	0.0142159
692.503	0.0142782
692.581	0.0143520
692.660	0.0142962
692.738	0.0143129
692.816	0.0142368
692.894	0.0143578
692.972	0.0143851
693.050	0.0141925
693.128	0.0143005
693.206	0.0143595
693.285	0.0143553
693.363	0.0143644
693.441	0.0142404
693.519	0.0143308
693.597	0.0142614
693.675	0.0143274
693.753	0.0143174
693.831	0.0142428
693.910	0.0142612
693.988	0.0141936
694.066	0.0142288
694.144	0.0143375
694.222	0.0142333
694.300	0.0142094
694.378	0.0142191
694.456	0.0143439
694.535	0.0143995
694.613	0.0144325
694.691	0.0143641
694.769	0.0143807
694.847	0.0143622
694.925	0.0143636
695.003	0.0144568
695.081	0.0143403
695.160	0.0144167
695.238	0.0144058
695.316	0.0143731
695.394	0.0144292
695.472	0.0143433
695.550	0.0141711
695.628	0.0142661
695.706	0.0141130
695.785	0.0140559
695.863	0.0141420
695.941	0.0139426
696.019	0.0140902
696.097	0.0141491
696.175	0.0141941
696.253	0.0142707
696.331	0.0142344
696.410	0.0143351
696.488	0.0143674
696.566	0.0146059
696.644	0.0147855
696.722	0.0146389
696.800	0.0147546
696.878	0.0148872
696.956	0.0149081
697.035	0.0149475
697.113	0.0147742
697.191	0.0147626
697.269	0.0147665
697.347	0.0146351
697.425	0.0144811
697.503	0.0142460
697.581	0.0142374
697.660	0.0141880
697.738	0.0140085
697.816	0.0140556
697.894	0.0137119
697.972	0.0136307
698.050	0.0136425
698.128	0.0136510
698.206	0.0134237
698.285	0.0135292
698.363	0.0138184
698.441	0.0137382
698.519	0.0136372
698.597	0.0138626
698.675	0.0138683
698.753	0.0138897
698.831	0.0140975
698.910	0.0141112
698.988	0.0142521
699.066	0.0144472
699.144	0.0145773
699.222	0.0145781
699.300	0.0148024
699.378	0.0151035
699.456	0.0151194
699.535	0.0153303
699.613	0.0154343
699.691	0.0158447
699.769	0.0157738
699.847	0.0157780
699.925	0.0158098
700.003	0.0158130
700.081	0.0156175
700.160	0.0154471
700.238	0.0151328
700.316	0.0148217
700.394	0.0146156
700.472	0.0142529
700.550	0.0141747
700.628	0.0137115
700.706	0.0134719
700.785	0.0133878
700.863	0.0129506
700.941	0.0129860
701.019	0.0128708
701.097	0.0125500
701.175	0.0125788
701.253	0.0125311
701.331	0.0126195
701.410	0.0127383
701.488	0.0128059
701.566	0.0131251
701.644	0.0131998
701.722	0.0134644
701.800	0.0138592
701.878	0.0141904
701.956	0.0143127
702.035	0.0144551
702.113	0.0144888
702.191	0.0145110
702.269	0.0145896
702.347	0.0146346
702.425	0.0144987
702.503	0.0146294
702.581	0.0147440
702.660	0.0148674
702.738	0.0149160
702.816	0.0149982
702.894	0.0153638
702.972	0.0155088
703.050	0.0155537
703.128	0.0157732
703.206	0.0160120
703.285	0.0161066
703.363	0.0163624
703.441	0.0164954
703.519	0.0168135
703.597	0.0168993
703.675	0.0169150
703.753	0.0167101
703.831	0.0165721
703.910	0.0159567
703.988	0.0154171
704.066	0.0148130
704.144	0.0140248
704.222	0.0133897
704.300	0.0129883
704.378	0.0124300
704.456	0.0120274
704.535	0.0120591
704.613	0.0121170
704.691	0.0120481
704.769	0.0120534
704.847	0.0124410
704.925	0.0125681
705.003	0.0126015
705.081	0.0127550
705.160	0.0127927
705.238	0.0128349
705.316	0.0128452
705.394	0.0128991
705.472	0.0129888
705.550	0.0130796
705.628	0.0131319
705.706	0.0132101
705.785	0.0133236
705.863	0.0135910
705.941	0.0138462
706.019	0.0137952
706.097	0.0140849
706.175	0.0142529
706.253	0.0143916
706.331	0.0146346
706.410	0.0147634
706.488	0.0150345
706.566	0.0153263
706.644	0.0153526
706.722	0.0155633
706.800	0.0156401
706.878	0.0157228
706.956	0.0158140
707.035	0.0159825
707.113	0.0160583
707.191	0.0161835
707.269	0.0163421
707.347	0.0165730
707.425	0.0168388
707.503	0.0171384
707.581	0.0173371
707.660	0.0175863
707.738	0.0178934
707.816	0.0177303
707.894	0.0174792
707.972	0.0171938
708.050	0.0164807
708.128	0.0159545
708.206	0.0152730
708.285	0.0144873
708.363	0.0139242
708.441	0.0133404
708.519	0.0125638
708.597	0.0121056
708.675	0.0117523
708.753	0.0113969
708.831	0.0113493
708.910	0.0110642
708.988	0.0110773
709.066	0.0110764
709.144	0.0110076
709.222	0.0113669
709.300	0.0115736
709.378	0.0116013
709.456	0.0116650
709.535	0.0118523
709.613	0.0120043
709.691	0.0121421
709.769	0.0124654
709.847	0.0125552
709.925	0.0129890
710.003	0.0132564
710.081	0.0137296
710.160	0.0139788
710.238	0.0144006
710.316	0.0146920
710.394	0.0150425
710.472	0.0152775
710.550	0.0154533
710.628	0.0154176
710.706	0.0154324
710.785	0.0154978
710.863	0.0154395
710.941	0.0151964
711.019	0.0153506
711.097	0.0153361
711.175	0.0154042
711.253	0.0154509
711.331	0.0157551
711.410	0.0160282
711.488	0.0165889
711.566	0.0169395
711.644	0.0172420
711.722	0.0175855
711.800	0.0179037
711.878	0.0180568
711.956	0.0180371
712.035	0.0178249
712.113	0.0176085
712.191	0.0173174
712.269	0.0169575
712.347	0.0164443
712.425	0.0158635
712.503	0.0152437
712.581	0.0145734
712.660	0.0141373
712.738	0.0136439
712.816	0.0132059
712.894	0.0125907
712.972	0.0123496
713.050	0.0121114
713.128	0.0117811
713.206	0.0116817
713.285	0.0115259
713.363	0.0113874
713.441	0.0114375
713.519	0.0115018
713.597	0.0113184
713.675	0.0114858
713.753	0.0113660
713.831	0.0114236
713.910	0.0114805
713.988	0.0117159
714.066	0.0120793
714.144	0.0122967
714.222	0.0125115
714.300	0.0129659
714.378	0.0135314
714.456	0.0138157
714.535	0.0140114
714.613	0.0143248
714.691	0.0144327
714.769	0.0144761
714.847	0.0145621
714.925	0.0146700
715.003	0.0146442
715.081	0.0145497
715.160	0.0144681
715.238	0.0145559
715.316	0.0146155
715.394	0.0145982
715.472	0.0148879
715.550	0.0150965
715.628	0.0152142
715.706	0.0155143
715.785	0.0158011
715.863	0.0161760
715.941	0.0165256
716.019	0.0167710
716.097	0.0171071
716.175	0.0173334
716.253	0.0175646
716.331	0.0175349
716.410	0.0174091
716.488	0.0173327
716.566	0.0173048
716.644	0.0170305
716.722	0.0167027
716.800	0.0164056
716.878	0.0159095
716.956	0.0155641
717.035	0.0153324
717.113	0.0149860
717.191	0.0146209
717.269	0.0142867
717.347	0.0139428
717.425	0.0137537
717.503	0.0133855
717.581	0.0132330
717.660	0.0127263
717.738	0.0124220
717.816	0.0122676
717.894	0.0120958
717.972	0.0118318
718.050	0.0115635
718.128	0.0113866
718.206	0.0112354
718.285	0.0113723
718.363	0.0114763
718.441	0.0115286
718.519	0.0118533
718.597	0.0121343
718.675	0.0126166
718.753	0.0130804
718.831	0.0131800
718.910	0.0136153
718.988	0.0138702
719.066	0.0140985
719.144	0.0141425
719.222	0.0142944
719.300	0.0142299
719.378	0.0140684
719.456	0.0141006
719.535	0.0139475
719.613	0.0137927
719.691	0.0136339
719.769	0.0138056
719.847	0.0138033
719.925	0.0138666
720.003	0.0140066
720.081	0.0139974
720.160	0.0143318
720.238	0.0148894
720.316	0.0151619
720.394	0.0153851
720.472	0.0158104
720.550	0.0162119
720.628	0.0164250
720.706	0.0167905
720.785	0.0173017
720.863	0.0174054
720.941	0.0175124
721.019	0.0174915
721.097	0.0174151
721.175	0.0175388
721.253	0.0173860
721.331	0.0171553
721.410	0.0168275
721.488	0.0164931
721.566	0.0160663
721.644	0.0158080
721.722	0.0155329
721.800	0.0152817
721.878	0.0148000
721.956	0.0144745
722.035	0.0142762
722.113	0.0140948
722.191	0.0138194
722.269	0.0137506
722.347	0.0133078
722.425	0.0128807
722.503	0.0128182
722.581	0.0125590
722.660	0.0120973
722.738	0.0119408
722.816	0.0119120
722.894	0.0118639
722.972	0.0116916
723.050	0.0119213
723.128	0.0119781
723.206	0.0121292
723.285	0.0123275
723.363	0.0123927
723.441	0.0127074
723.519	0.0128477
723.597	0.0130440
723.675	0.0131689
723.753	0.0132768
723.831	0.0133017
723.910	0.0133030
723.988	0.0133640
724.066	0.0134239
724.144	0.0134873
724.222	0.0134212
724.300	0.0134678
724.378	0.0133663
724.456	0.0133723
724.535	0.0136763
724.613	0.0138464
724.691	0.0137702
724.769	0.0140206
724.847	0.0143268
724.925	0.0146889
725.003	0.0148490
725.081	0.0153185
725.160	0.0156666
725.238	0.0159832
725.316	0.0163611
725.394	0.0165601
725.472	0.0169086
725.550	0.0171265
725.628	0.0175843
725.706	0.0175233
725.785	0.0177080
725.863	0.0177559
725.941	0.0173874
726.019	0.0173470
726.097	0.0173824
726.175	0.0170607
726.253	0.0168576
726.331	0.0164956
726.410	0.0161219
726.488	0.0159867
726.566	0.0158591
726.644	0.0155812
726.722	0.0153361
726.800	0.0149196
726.878	0.0148756
726.956	0.0144554
727.035	0.0141753
727.113	0.0139777
727.191	0.0134503
727.269	0.0131036
727.347	0.0129430
727.425	0.0125629
727.503	0.0124706
727.581	0.0121154
727.660	0.0120413
727.738	0.0118538
727.816	0.0118076
727.894	0.0117254
727.972	0.0116438
728.050	0.0115999
728.128	0.0117123
728.206	0.0117641
728.285	0.0117588
728.363	0.0118745
728.441	0.0120146
728.519	0.0121265
728.597	0.0121131
728.675	0.0121249
728.753	0.0122929
728.831	0.0125043
728.910	0.0124606
728.988	0.0127355
729.066	0.0129095
729.144	0.0130256
729.222	0.0131581
729.300	0.0134029
729.378	0.0134593
729.456	0.0137617
729.535	0.0141745
729.613	0.0144093
729.691	0.0144782
729.769	0.0146682
729.847	0.0151781
729.925	0.0154202
730.003	0.0156769
730.081	0.0158703
730.160	0.0160368
730.238	0.0163538
730.316	0.0165533
730.394	0.0166435
730.472	0.0168591
730.550	0.0171524
730.628	0.0173702
730.706	0.0173566
730.785	0.0175965
730.863	0.0175383
730.941	0.0175231
731.019	0.0174449
731.097	0.0174908
731.175	0.0173520
731.253	0.0171191
731.331	0.0171790
731.410	0.0169553
731.488	0.0166597
731.566	0.0163964
731.644	0.0161198
731.722	0.0157310
731.800	0.0155576
731.878	0.0151827
731.956	0.0145283
732.035	0.0144265
732.113	0.0141251
732.191	0.0138575
732.269	0.0134243
732.347	0.0131104
732.425	0.0129156
732.503	0.0126351
732.581	0.0123471
732.660	0.0122470
732.738	0.0122948
732.816	0.0120142
732.894	0.0118668
732.972	0.0118891
733.050	0.0119310
733.128	0.0117918
733.206	0.0116811
733.285	0.0116591
733.363	0.0115625
733.441	0.0117877
733.519	0.0117419
733.597	0.0118398
733.675	0.0117683
733.753	0.0117991
733.831	0.0120036
733.910	0.0121729
733.988	0.0120708
734.066	0.0124100
734.144	0.0124429
734.222	0.0126732
734.300	0.0129578
734.378	0.0131041
734.456	0.0134481
734.535	0.0136046
734.613	0.0138956
734.691	0.0139951
734.769	0.0142245
734.847	0.0145883
734.925	0.0148367
735.003	0.0150596
735.081	0.0152450
735.160	0.0154356
735.238	0.0158432
735.316	0.0160801
735.394	0.0163100
735.472	0.0164045
735.550	0.0163676
735.628	0.0165650
735.706	0.0167195
735.785	0.0168117
735.863	0.0169254
735.941	0.0169557
736.019	0.0169644
736.097	0.0169292
736.175	0.0169364
736.253	0.0171265
736.331	0.0169724
736.410	0.0169065
736.488	0.0167616
736.566	0.0166494
736.644	0.0167903
736.722	0.0165286
736.800	0.0163521
736.878	0.0161771
736.956	0.0161107
737.035	0.0159538
737.113	0.0156921
737.191	0.0156253
737.269	0.0154218
737.347	0.0151254
737.425	0.0150597
737.503	0.0147704
737.581	0.0144485
737.660	0.0143105
737.738	0.0140461
737.816	0.0137730
737.894	0.0134515
737.972	0.0131145
738.050	0.0128787
738.128	0.0125867
738.206	0.0124398
738.285	0.0121852
738.363	0.0119343
738.441	0.0117225
738.519	0.0115098
738.597	0.0114784
738.675	0.0113969
738.753	0.0114242
738.831	0.0113245
738.910	0.0113844
738.988	0.0115956
739.066	0.0115300
739.144	0.0116327
739.222	0.0117795
739.300	0.0118952
739.378	0.0121267
739.456	0.0121486
739.535	0.0121771
739.613	0.0125642
739.691	0.0127676
739.769	0.0127887
739.847	0.0130106
739.925	0.0133277
740.003	0.0135260
740.081	0.0136540
740.160	0.0139314
740.238	0.0140983
740.316	0.0143265
740.394	0.0145127
740.472	0.0149013
740.550	0.0150911
740.628	0.0153029
740.706	0.0154240
740.785	0.0157758
740.863	0.0158855
740.941	0.0160934
741.019	0.0163091
741.097	0.0165206
741.175	0.0166609
741.253	0.0170090
741.331	0.0171414
741.410	0.0172013
741.488	0.0172198
741.566	0.0173079
741.644	0.0173935
741.722	0.0175278
741.800	0.0173110
741.878	0.0173888
741.956	0.0173817
742.035	0.0170600
742.113	0.0170977
742.191	0.0168613
742.269	0.0167168
742.347	0.0165719
742.425	0.0164986
742.503	0.0164487
742.581	0.0160674
742.660	0.0160211
742.738	0.0158601
742.816	0.0156964
742.894	0.0154413
742.972	0.0150329
743.050	0.0147353
743.128	0.0144464
743.206	0.0140604
743.285	0.0137225
743.363	0.0133640
743.441	0.0128735
743.519	0.0125740
743.597	0.0123545
743.675	0.0118211
743.753	0.0118259
743.831	0.0114531
743.910	0.0112655
743.988	0.0112350
744.066	0.0112479
744.144	0.0111113
744.222	0.0110197
744.300	0.0110561
744.378	0.0112862
744.456	0.0112777
744.535	0.0115387
744.613	0.0117768
744.691	0.0119540
744.769	0.0120377
744.847	0.0121931
744.925	0.0122591
745.003	0.0123851
745.081	0.0125269
745.160	0.0128691
745.238	0.0130683
745.316	0.0133170
745.394	0.0134381
745.472	0.0136019
745.550	0.0137677
745.628	0.0139552
745.706	0.0143412
