05/03/2022	20:24:57	Ver.	4.1	UNKNOWN
Optical Delay	660.003261	Delta X		0.078125	Sweeps	1	Scan Rate	0/0
Coordinates	Axis 1	NaN	Axis 2	NaN	Axis 3	NaN	Axis 4	NaN	Axis 5	NaN	Axis 6	0.000000
TX Power	0.000000	RX Power	0.000000

660.003	0.0141113
660.081	0.0140671
660.160	0.0140004
660.238	0.0140193
660.316	0.0140220
660.394	0.0142029
660.472	0.0140527
660.550	0.0139208
660.628	0.0141088
660.706	0.0141212
660.785	0.0141185
660.863	0.0141747
660.941	0.0140817
661.019	0.0142017
661.097	0.0140246
661.175	0.0140086
661.253	0.0139017
661.331	0.0141851
661.410	0.0142503
661.488	0.0140767
661.566	0.0141046
661.644	0.0141795
661.722	0.0140544
661.800	0.0140366
661.878	0.0142136
661.956	0.0142043
662.035	0.0140274
662.113	0.0141177
662.191	0.0141943
662.269	0.0140810
662.347	0.0140255
662.425	0.0141897
662.503	0.0140846
662.581	0.0140467
662.660	0.0140586
662.738	0.0140845
662.816	0.0140855
662.894	0.0141106
662.972	0.0139523
663.050	0.0140965
663.128	0.0140174
663.206	0.0139287
663.285	0.0140225
663.363	0.0139305
663.441	0.0138987
663.519	0.0140290
663.597	0.0139437
663.675	0.0139268
663.753	0.0140628
663.831	0.0139237
663.910	0.0139813
663.988	0.0139870
664.066	0.0140028
664.144	0.0138732
664.222	0.0140176
664.300	0.0138777
664.378	0.0138769
664.456	0.0140148
664.535	0.0140250
664.613	0.0139104
664.691	0.0139459
664.769	0.0140131
664.847	0.0139506
664.925	0.0139755
665.003	0.0140167
665.081	0.0140902
665.160	0.0138991
665.238	0.0139971
665.316	0.0139735
665.394	0.0139819
665.472	0.0140989
665.550	0.0138938
665.628	0.0139310
665.706	0.0139467
665.785	0.0139220
665.863	0.0139825
665.941	0.0140141
666.019	0.0141412
666.097	0.0139716
666.175	0.0138703
666.253	0.0141403
666.331	0.0139828
666.410	0.0140436
666.488	0.0140392
666.566	0.0140448
666.644	0.0141149
666.722	0.0140830
666.800	0.0140648
666.878	0.0139103
666.956	0.0140586
667.035	0.0140472
667.113	0.0139539
667.191	0.0139648
667.269	0.0140900
667.347	0.0140993
667.425	0.0141018
667.503	0.0140920
667.581	0.0139895
667.660	0.0141206
667.738	0.0141521
667.816	0.0141013
667.894	0.0140096
667.972	0.0141785
668.050	0.0141522
668.128	0.0139579
668.206	0.0141228
668.285	0.0140367
668.363	0.0140423
668.441	0.0140195
668.519	0.0140283
668.597	0.0142297
668.675	0.0140840
668.753	0.0143353
668.831	0.0141830
668.910	0.0140881
668.988	0.0141312
669.066	0.0140408
669.144	0.0140494
669.222	0.0141621
669.300	0.0141309
669.378	0.0140086
669.456	0.0141077
669.535	0.0140907
669.613	0.0140060
669.691	0.0140841
669.769	0.0141501
669.847	0.0141171
669.925	0.0140784
670.003	0.0140417
670.081	0.0139813
670.160	0.0142122
670.238	0.0141700
670.316	0.0141238
670.394	0.0139815
670.472	0.0141134
670.550	0.0139476
670.628	0.0140372
670.706	0.0141348
670.785	0.0140349
670.863	0.0139967
670.941	0.0141924
671.019	0.0141776
671.097	0.0140336
671.175	0.0139854
671.253	0.0140206
671.331	0.0142341
671.410	0.0140621
671.488	0.0141199
671.566	0.0140904
671.644	0.0139811
671.722	0.0140634
671.800	0.0139965
671.878	0.0139385
671.956	0.0140601
672.035	0.0141335
672.113	0.0140561
672.191	0.0140258
672.269	0.0140379
672.347	0.0140436
672.425	0.0140724
672.503	0.0141000
672.581	0.0140736
672.660	0.0140022
672.738	0.0139682
672.816	0.0141288
672.894	0.0140326
672.972	0.0140780
673.050	0.0140318
673.128	0.0139548
673.206	0.0140263
673.285	0.0139734
673.363	0.0139327
673.441	0.0140450
673.519	0.0141782
673.597	0.0140924
673.675	0.0140966
673.753	0.0139706
673.831	0.0140589
673.910	0.0139217
673.988	0.0142477
674.066	0.0141098
674.144	0.0140262
674.222	0.0140933
674.300	0.0140690
674.378	0.0141490
674.456	0.0139687
674.535	0.0140986
674.613	0.0140242
674.691	0.0141267
674.769	0.0139815
674.847	0.0139932
674.925	0.0140830
675.003	0.0138835
675.081	0.0142052
675.160	0.0139835
675.238	0.0139981
675.316	0.0139542
675.394	0.0139769
675.472	0.0140887
675.550	0.0141036
675.628	0.0140873
675.706	0.0139590
675.785	0.0139501
675.863	0.0140466
675.941	0.0141441
676.019	0.0140456
676.097	0.0139930
676.175	0.0140709
676.253	0.0141239
676.331	0.0139745
676.410	0.0140181
676.488	0.0141182
676.566	0.0141570
676.644	0.0140680
676.722	0.0137726
676.800	0.0141261
676.878	0.0141235
676.956	0.0140805
677.035	0.0139692
677.113	0.0140541
677.191	0.0140124
677.269	0.0142080
677.347	0.0141486
677.425	0.0138783
677.503	0.0140883
677.581	0.0142490
677.660	0.0140989
677.738	0.0140891
677.816	0.0140836
677.894	0.0138843
677.972	0.0140539
678.050	0.0141504
678.128	0.0141284
678.206	0.0141159
678.285	0.0142577
678.363	0.0141321
678.441	0.0140806
678.519	0.0140361
678.597	0.0140414
678.675	0.0140012
678.753	0.0141658
678.831	0.0141247
678.910	0.0140835
678.988	0.0141203
679.066	0.0140503
679.144	0.0141837
679.222	0.0142393
679.300	0.0141300
679.378	0.0140897
679.456	0.0140726
679.535	0.0141436
679.613	0.0141351
679.691	0.0139841
679.769	0.0140543
679.847	0.0141583
679.925	0.0141125
680.003	0.0139967
680.081	0.0140804
680.160	0.0140335
680.238	0.0139206
680.316	0.0139072
680.394	0.0141172
680.472	0.0141412
680.550	0.0138994
680.628	0.0140151
680.706	0.0141790
680.785	0.0142578
680.863	0.0139025
680.941	0.0141562
681.019	0.0141058
681.097	0.0140515
681.175	0.0142818
681.253	0.0141840
681.331	0.0141204
681.410	0.0141500
681.488	0.0140681
681.566	0.0141392
681.644	0.0140674
681.722	0.0141689
681.800	0.0140990
681.878	0.0141860
681.956	0.0140583
682.035	0.0139468
682.113	0.0140353
682.191	0.0140585
682.269	0.0142451
682.347	0.0142528
682.425	0.0140765
682.503	0.0140946
682.581	0.0140759
682.660	0.0140830
682.738	0.0140038
682.816	0.0142007
682.894	0.0141254
682.972	0.0141323
683.050	0.0140352
683.128	0.0140986
683.206	0.0141160
683.285	0.0140655
683.363	0.0139862
683.441	0.0141250
683.519	0.0141199
683.597	0.0140818
683.675	0.0141019
683.753	0.0141154
683.831	0.0140918
683.910	0.0141171
683.988	0.0140750
684.066	0.0139120
684.144	0.0140945
684.222	0.0141888
684.300	0.0143018
684.378	0.0141969
684.456	0.0139613
684.535	0.0141342
684.613	0.0141062
684.691	0.0139872
684.769	0.0140375
684.847	0.0140712
684.925	0.0140550
685.003	0.0141238
685.081	0.0141197
685.160	0.0139796
685.238	0.0140692
685.316	0.0141687
685.394	0.0140807
685.472	0.0141669
685.550	0.0140888
685.628	0.0140342
685.706	0.0141103
685.785	0.0141093
685.863	0.0139977
685.941	0.0141519
686.019	0.0139871
686.097	0.0141506
686.175	0.0139897
686.253	0.0140247
686.331	0.0140240
686.410	0.0140773
686.488	0.0140217
686.566	0.0139853
686.644	0.0139989
686.722	0.0139293
686.800	0.0140822
686.878	0.0141292
686.956	0.0139955
687.035	0.0140584
687.113	0.0139989
687.191	0.0140596
687.269	0.0139974
687.347	0.0140547
687.425	0.0141608
687.503	0.0139758
687.581	0.0137852
687.660	0.0140096
687.738	0.0140273
687.816	0.0140290
687.894	0.0140807
687.972	0.0141647
688.050	0.0139413
688.128	0.0140056
688.206	0.0139690
688.285	0.0141016
688.363	0.0139221
688.441	0.0140728
688.519	0.0139851
688.597	0.0139552
688.675	0.0139724
688.753	0.0140509
688.831	0.0139246
688.910	0.0140459
688.988	0.0139581
689.066	0.0139384
689.144	0.0139980
689.222	0.0139931
689.300	0.0139275
689.378	0.0140688
689.456	0.0140414
689.535	0.0140837
689.613	0.0140232
689.691	0.0139842
689.769	0.0139259
689.847	0.0139552
689.925	0.0140292
690.003	0.0141042
690.081	0.0140406
690.160	0.0139885
690.238	0.0140408
690.316	0.0140763
690.394	0.0139883
690.472	0.0139996
690.550	0.0140546
690.628	0.0140129
690.706	0.0141766
690.785	0.0138979
690.863	0.0139814
690.941	0.0140962
691.019	0.0140105
691.097	0.0139647
691.175	0.0141026
691.253	0.0139470
691.331	0.0140152
691.410	0.0139850
691.488	0.0140118
691.566	0.0140499
691.644	0.0141788
691.722	0.0139956
691.800	0.0140142
691.878	0.0139449
691.956	0.0140070
692.035	0.0141277
692.113	0.0139147
692.191	0.0140038
692.269	0.0140020
692.347	0.0139594
692.425	0.0140757
692.503	0.0140398
692.581	0.0141267
692.660	0.0139763
692.738	0.0139558
692.816	0.0141267
692.894	0.0140643
692.972	0.0138966
693.050	0.0139756
693.128	0.0140225
693.206	0.0141639
693.285	0.0140663
693.363	0.0140303
693.441	0.0141126
693.519	0.0140675
693.597	0.0141423
693.675	0.0142498
693.753	0.0140996
693.831	0.0141995
693.910	0.0141624
693.988	0.0141286
694.066	0.0141206
694.144	0.0140619
694.222	0.0140092
694.300	0.0140833
694.378	0.0139539
694.456	0.0137840
694.535	0.0138319
694.613	0.0138634
694.691	0.0136880
694.769	0.0135963
694.847	0.0137746
694.925	0.0139040
695.003	0.0139620
695.081	0.0139172
695.160	0.0139457
695.238	0.0139709
695.316	0.0141891
695.394	0.0140990
695.472	0.0142708
695.550	0.0141726
695.628	0.0143671
695.706	0.0144106
695.785	0.0144897
695.863	0.0144144
695.941	0.0144547
696.019	0.0143725
696.097	0.0143681
696.175	0.0143140
696.253	0.0142624
696.331	0.0141573
696.410	0.0140899
696.488	0.0138380
696.566	0.0138019
696.644	0.0137199
696.722	0.0137279
696.800	0.0136595
696.878	0.0136363
696.956	0.0134802
697.035	0.0133383
697.113	0.0135855
697.191	0.0134450
697.269	0.0133892
697.347	0.0134646
697.425	0.0136392
697.503	0.0137132
697.581	0.0137125
697.660	0.0139096
697.738	0.0139277
697.816	0.0139478
697.894	0.0141854
697.972	0.0142005
698.050	0.0141949
698.128	0.0143336
698.206	0.0144318
698.285	0.0143130
698.363	0.0145823
698.441	0.0147618
698.519	0.0148388
698.597	0.0150629
698.675	0.0151222
698.753	0.0151385
698.831	0.0152789
698.910	0.0152235
698.988	0.0151482
699.066	0.0151995
699.144	0.0147880
699.222	0.0145868
699.300	0.0144611
699.378	0.0140599
699.456	0.0138141
699.535	0.0134998
699.613	0.0133611
699.691	0.0131126
699.769	0.0129505
699.847	0.0129585
699.925	0.0130049
700.003	0.0127296
700.081	0.0126337
700.160	0.0126150
700.238	0.0126917
700.316	0.0127307
700.394	0.0127557
700.472	0.0129301
700.550	0.0131190
700.628	0.0133107
700.706	0.0136351
700.785	0.0137301
700.863	0.0137884
700.941	0.0139638
701.019	0.0142039
701.097	0.0142492
701.175	0.0142969
701.253	0.0144966
701.331	0.0144878
701.410	0.0146018
701.488	0.0145013
701.566	0.0145074
701.644	0.0146260
701.722	0.0146339
701.800	0.0145791
701.878	0.0148326
701.956	0.0149779
702.035	0.0150334
702.113	0.0151602
702.191	0.0152496
702.269	0.0154077
702.347	0.0154242
702.425	0.0156880
702.503	0.0159035
702.581	0.0160541
702.660	0.0160573
702.738	0.0157924
702.816	0.0155756
702.894	0.0153365
702.972	0.0148602
703.050	0.0142287
703.128	0.0136036
703.206	0.0131201
703.285	0.0128112
703.363	0.0123293
703.441	0.0121002
703.519	0.0120651
703.597	0.0121329
703.675	0.0123128
703.753	0.0124776
703.831	0.0124603
703.910	0.0126344
703.988	0.0129325
704.066	0.0130853
704.144	0.0132126
704.222	0.0131709
704.300	0.0130410
704.378	0.0132858
704.456	0.0133721
704.535	0.0132893
704.613	0.0133730
704.691	0.0133514
704.769	0.0135101
704.847	0.0134645
704.925	0.0134875
705.003	0.0136139
705.081	0.0136709
705.160	0.0137511
705.238	0.0139160
705.316	0.0140530
705.394	0.0140623
705.472	0.0141623
705.550	0.0143702
705.628	0.0144521
705.706	0.0145640
705.785	0.0147074
705.863	0.0148364
705.941	0.0151810
706.019	0.0152760
706.097	0.0153149
706.175	0.0155328
706.253	0.0154945
706.331	0.0158156
706.410	0.0159702
706.488	0.0160275
706.566	0.0162158
706.644	0.0164673
706.722	0.0165896
706.800	0.0166287
706.878	0.0165146
706.956	0.0164623
707.035	0.0160498
707.113	0.0156258
707.191	0.0151985
707.269	0.0147604
707.347	0.0143169
707.425	0.0136713
707.503	0.0130612
707.581	0.0126256
707.660	0.0121333
707.738	0.0118359
707.816	0.0115690
707.894	0.0113316
707.972	0.0113832
708.050	0.0115146
708.128	0.0115621
708.206	0.0116007
708.285	0.0116531
708.363	0.0118839
708.441	0.0120666
708.519	0.0122190
708.597	0.0123148
708.675	0.0123414
708.753	0.0124707
708.831	0.0126949
708.910	0.0129087
708.988	0.0131155
709.066	0.0133324
709.144	0.0137665
709.222	0.0140767
709.300	0.0143176
709.378	0.0147112
709.456	0.0148598
709.535	0.0147829
709.613	0.0149131
709.691	0.0149432
709.769	0.0147933
709.847	0.0146626
709.925	0.0146229
710.003	0.0144382
710.081	0.0143707
710.160	0.0142425
710.238	0.0142592
710.316	0.0141969
710.394	0.0143330
710.472	0.0144468
710.550	0.0147687
710.628	0.0150964
710.706	0.0153613
710.785	0.0158282
710.863	0.0161699
710.941	0.0164215
711.019	0.0166990
711.097	0.0170142
711.175	0.0172680
711.253	0.0173215
711.331	0.0174029
711.410	0.0171330
711.488	0.0168101
711.566	0.0165200
711.644	0.0159029
711.722	0.0153758
711.800	0.0145837
711.878	0.0140110
711.956	0.0134090
712.035	0.0130399
712.113	0.0126073
712.191	0.0121971
712.269	0.0119450
712.347	0.0116512
712.425	0.0115485
712.503	0.0114296
712.581	0.0114206
712.660	0.0114366
712.738	0.0112682
712.816	0.0112995
712.894	0.0113648
712.972	0.0115952
713.050	0.0117627
713.128	0.0118774
713.206	0.0120477
713.285	0.0123434
713.363	0.0125082
713.441	0.0127426
713.519	0.0130191
713.597	0.0132298
713.675	0.0133337
713.753	0.0135333
713.831	0.0137931
713.910	0.0141273
713.988	0.0142487
714.066	0.0143044
714.144	0.0144987
714.222	0.0145100
714.300	0.0144963
714.378	0.0145139
714.456	0.0143924
714.535	0.0143304
714.613	0.0145058
714.691	0.0145104
714.769	0.0144494
714.847	0.0145216
714.925	0.0145538
715.003	0.0146223
715.081	0.0147423
715.160	0.0150306
715.238	0.0154627
715.316	0.0156449
715.394	0.0160201
715.472	0.0163605
715.550	0.0165521
715.628	0.0167838
715.706	0.0168877
715.785	0.0168412
715.863	0.0169780
715.941	0.0167678
716.019	0.0163927
716.097	0.0162594
716.175	0.0158861
716.253	0.0156718
716.331	0.0152949
716.410	0.0149689
716.488	0.0145509
716.566	0.0144028
716.644	0.0139664
716.722	0.0136709
716.800	0.0134747
716.878	0.0132782
716.956	0.0129936
717.035	0.0127158
717.113	0.0124628
717.191	0.0122997
717.269	0.0120416
717.347	0.0116656
717.425	0.0114459
717.503	0.0114326
717.581	0.0112675
717.660	0.0115128
717.738	0.0115765
717.816	0.0117447
717.894	0.0120515
717.972	0.0121030
718.050	0.0124658
718.128	0.0126420
718.206	0.0129189
718.285	0.0132665
718.363	0.0132758
718.441	0.0137309
718.519	0.0138673
718.597	0.0137926
718.675	0.0139948
718.753	0.0140186
718.831	0.0139298
718.910	0.0138084
718.988	0.0138255
719.066	0.0137765
719.144	0.0137611
719.222	0.0136060
719.300	0.0136879
719.378	0.0136884
719.456	0.0138415
719.535	0.0140096
719.613	0.0143832
719.691	0.0144073
719.769	0.0147841
719.847	0.0149343
719.925	0.0152205
720.003	0.0156416
720.081	0.0160656
720.160	0.0162837
720.238	0.0164697
720.316	0.0166870
720.394	0.0167918
720.472	0.0168662
720.550	0.0168385
720.628	0.0168063
720.706	0.0166714
720.785	0.0163634
720.863	0.0162773
720.941	0.0159566
721.019	0.0156656
721.097	0.0155251
721.175	0.0151501
721.253	0.0148719
721.331	0.0146653
721.410	0.0144427
721.488	0.0141894
721.566	0.0138062
721.644	0.0135564
721.722	0.0134304
721.800	0.0132577
721.878	0.0129195
721.956	0.0126056
722.035	0.0122514
722.113	0.0120119
722.191	0.0118543
722.269	0.0117393
722.347	0.0116941
722.425	0.0115550
722.503	0.0117146
722.581	0.0117443
722.660	0.0121007
722.738	0.0122317
722.816	0.0123759
722.894	0.0125872
722.972	0.0126044
723.050	0.0128623
723.128	0.0130626
723.206	0.0130909
723.285	0.0131632
723.363	0.0131998
723.441	0.0132682
723.519	0.0132906
723.597	0.0133744
723.675	0.0133000
723.753	0.0132126
723.831	0.0133792
723.910	0.0133498
723.988	0.0133257
724.066	0.0135003
724.144	0.0136462
724.222	0.0137097
724.300	0.0139719
724.378	0.0141730
724.456	0.0144555
724.535	0.0145515
724.613	0.0148653
724.691	0.0149435
724.769	0.0154764
724.847	0.0155208
724.925	0.0158685
725.003	0.0161042
725.081	0.0163438
725.160	0.0164552
725.238	0.0166676
725.316	0.0168679
725.394	0.0167799
725.472	0.0167191
725.550	0.0166705
725.628	0.0167505
725.706	0.0166461
725.785	0.0164486
725.863	0.0161386
725.941	0.0159722
726.019	0.0158904
726.097	0.0156507
726.175	0.0152667
726.253	0.0148360
726.331	0.0144971
726.410	0.0141752
726.488	0.0139407
726.566	0.0135996
726.644	0.0133137
726.722	0.0131300
726.800	0.0129620
726.878	0.0126771
726.956	0.0124368
727.035	0.0124042
727.113	0.0121449
727.191	0.0121188
727.269	0.0121236
727.347	0.0119839
727.425	0.0121404
727.503	0.0120836
727.581	0.0119122
727.660	0.0120246
727.738	0.0120576
727.816	0.0120509
727.894	0.0121281
727.972	0.0120914
728.050	0.0121658
728.128	0.0122897
728.206	0.0124108
728.285	0.0124577
728.363	0.0125992
728.441	0.0126626
728.519	0.0128320
728.597	0.0129329
728.675	0.0131599
728.753	0.0132495
728.831	0.0134041
728.910	0.0135811
728.988	0.0138095
729.066	0.0140228
729.144	0.0141087
729.222	0.0141512
729.300	0.0142377
729.378	0.0144252
729.456	0.0145638
729.535	0.0145642
729.613	0.0148046
729.691	0.0150007
729.769	0.0151958
729.847	0.0157308
729.925	0.0157984
730.003	0.0161833
730.081	0.0163174
730.160	0.0164920
730.238	0.0166031
730.316	0.0165778
730.394	0.0166231
730.472	0.0167480
730.550	0.0168615
730.628	0.0168079
730.706	0.0167265
730.785	0.0165253
730.863	0.0163874
730.941	0.0161047
731.019	0.0157503
731.097	0.0155565
731.175	0.0153040
731.253	0.0150391
731.331	0.0148645
731.410	0.0147583
731.488	0.0144603
731.566	0.0141586
731.644	0.0140237
731.722	0.0139009
731.800	0.0138257
731.878	0.0135540
731.956	0.0133858
732.035	0.0132030
732.113	0.0130123
732.191	0.0128596
732.269	0.0125996
732.347	0.0125396
732.425	0.0124235
732.503	0.0122741
732.581	0.0121241
732.660	0.0120022
732.738	0.0119131
732.816	0.0119180
732.894	0.0118801
732.972	0.0118611
733.050	0.0118377
733.128	0.0116528
733.206	0.0118245
733.285	0.0117381
733.363	0.0118162
733.441	0.0120918
733.519	0.0121145
733.597	0.0124665
733.675	0.0125198
733.753	0.0126957
733.831	0.0126892
733.910	0.0128564
733.988	0.0131695
734.066	0.0130678
734.144	0.0133598
734.222	0.0136965
734.300	0.0137186
734.378	0.0136340
734.456	0.0139075
734.535	0.0141373
734.613	0.0143324
734.691	0.0145321
734.769	0.0148295
734.847	0.0149989
734.925	0.0151317
735.003	0.0155244
735.081	0.0157217
735.160	0.0158244
735.238	0.0159029
735.316	0.0160954
735.394	0.0164039
735.472	0.0163778
735.550	0.0163987
735.628	0.0163786
735.706	0.0165002
735.785	0.0165767
735.863	0.0165577
735.941	0.0165678
736.019	0.0164998
736.097	0.0165117
736.175	0.0162771
736.253	0.0160867
736.331	0.0161770
736.410	0.0161137
736.488	0.0160843
736.566	0.0158875
736.644	0.0156688
736.722	0.0155281
736.800	0.0154797
736.878	0.0153972
736.956	0.0151709
737.035	0.0149944
737.113	0.0147622
737.191	0.0146075
737.269	0.0145135
737.347	0.0142796
737.425	0.0139874
737.503	0.0136491
737.581	0.0131852
737.660	0.0129240
737.738	0.0126260
737.816	0.0124242
737.894	0.0120144
737.972	0.0117441
738.050	0.0115667
738.128	0.0112636
738.206	0.0111204
738.285	0.0110047
738.363	0.0109349
738.441	0.0109821
738.519	0.0110707
738.597	0.0110981
738.675	0.0111532
738.753	0.0113082
738.831	0.0115491
738.910	0.0116367
738.988	0.0118845
739.066	0.0121321
739.144	0.0122603
739.222	0.0123505
739.300	0.0125404
739.378	0.0127505
739.456	0.0127892
739.535	0.0129995
739.613	0.0130499
739.691	0.0132157
739.769	0.0134217
739.847	0.0135888
739.925	0.0137046
740.003	0.0139913
740.081	0.0140662
740.160	0.0143885
740.238	0.0144311
740.316	0.0147099
740.394	0.0149204
740.472	0.0152065
740.550	0.0155198
740.628	0.0158958
740.706	0.0160732
740.785	0.0163459
740.863	0.0165231
740.941	0.0168015
741.019	0.0169610
741.097	0.0170159
741.175	0.0170508
741.253	0.0170811
741.331	0.0170674
741.410	0.0170045
741.488	0.0167549
741.566	0.0167360
741.644	0.0166119
741.722	0.0166398
741.800	0.0165238
741.878	0.0163945
741.956	0.0161989
742.035	0.0162027
742.113	0.0162166
742.191	0.0160593
742.269	0.0158762
742.347	0.0156360
742.425	0.0154457
742.503	0.0151495
742.581	0.0149342
742.660	0.0148449
742.738	0.0144989
742.816	0.0140158
742.894	0.0136047
742.972	0.0133398
743.050	0.0129697
743.128	0.0126038
743.206	0.0122359
743.285	0.0120026
743.363	0.0117138
743.441	0.0114435
743.519	0.0111446
743.597	0.0110843
743.675	0.0109097
743.753	0.0108779
743.831	0.0109367
743.910	0.0107939
743.988	0.0107967
744.066	0.0109943
744.144	0.0111272
744.222	0.0112230
744.300	0.0116113
744.378	0.0116960
744.456	0.0118156
744.535	0.0119792
744.613	0.0121587
744.691	0.0124926
744.769	0.0125150
744.847	0.0128221
744.925	0.0128682
745.003	0.0129781
745.081	0.0131257
745.160	0.0131522
745.238	0.0131937
745.316	0.0134967
745.394	0.0137580
745.472	0.0138816
745.550	0.0140625
745.628	0.0143144
745.706	0.0143903
