05/03/2022	20:25:22	Ver.	4.1	UNKNOWN
Optical Delay	660.003261	Delta X		0.078125	Sweeps	1	Scan Rate	0/0
Coordinates	Axis 1	NaN	Axis 2	NaN	Axis 3	NaN	Axis 4	NaN	Axis 5	NaN	Axis 6	0.000000
TX Power	0.000000	RX Power	0.000000

660.003	0.0145155
660.081	0.0143404
660.160	0.0144833
660.238	0.0144452
660.316	0.0143966
660.394	0.0145078
660.472	0.0144258
660.550	0.0143895
660.628	0.0144794
660.706	0.0143883
660.785	0.0144425
660.863	0.0144503
660.941	0.0144438
661.019	0.0145377
661.097	0.0145509
661.175	0.0144829
661.253	0.0145363
661.331	0.0143787
661.410	0.0144431
661.488	0.0144421
661.566	0.0144555
661.644	0.0144730
661.722	0.0144558
661.800	0.0144260
661.878	0.0144250
661.956	0.0145467
662.035	0.0144704
662.113	0.0143150
662.191	0.0145045
662.269	0.0143244
662.347	0.0143590
662.425	0.0144968
662.503	0.0144939
662.581	0.0144551
662.660	0.0145110
662.738	0.0144394
662.816	0.0144356
662.894	0.0144601
662.972	0.0144490
663.050	0.0145409
663.128	0.0144379
663.206	0.0144387
663.285	0.0144566
663.363	0.0145416
663.441	0.0145404
663.519	0.0144094
663.597	0.0144716
663.675	0.0144263
663.753	0.0143639
663.831	0.0144395
663.910	0.0144581
663.988	0.0144478
664.066	0.0144093
664.144	0.0143343
664.222	0.0144252
664.300	0.0145472
664.378	0.0144186
664.456	0.0143945
664.535	0.0145993
664.613	0.0144448
664.691	0.0144608
664.769	0.0144083
664.847	0.0145302
664.925	0.0144779
665.003	0.0143574
665.081	0.0145496
665.160	0.0145489
665.238	0.0145672
665.316	0.0146558
665.394	0.0145512
665.472	0.0145401
665.550	0.0144850
665.628	0.0145246
665.706	0.0145770
665.785	0.0145370
665.863	0.0145300
665.941	0.0145185
666.019	0.0144361
666.097	0.0146162
666.175	0.0145279
666.253	0.0144047
666.331	0.0145592
666.410	0.0144950
666.488	0.0144766
666.566	0.0145126
666.644	0.0145842
666.722	0.0144067
666.800	0.0144993
666.878	0.0146353
666.956	0.0146110
667.035	0.0144363
667.113	0.0145387
667.191	0.0145030
667.269	0.0144340
667.347	0.0146281
667.425	0.0145619
667.503	0.0146649
667.581	0.0145628
667.660	0.0145499
667.738	0.0146344
667.816	0.0144978
667.894	0.0144479
667.972	0.0145788
668.050	0.0145329
668.128	0.0146635
668.206	0.0146551
668.285	0.0144492
668.363	0.0144293
668.441	0.0145912
668.519	0.0144451
668.597	0.0144759
668.675	0.0145317
668.753	0.0144135
668.831	0.0146585
668.910	0.0146321
668.988	0.0144273
669.066	0.0144209
669.144	0.0144405
669.222	0.0145448
669.300	0.0144465
669.378	0.0145953
669.456	0.0145650
669.535	0.0143230
669.613	0.0145277
669.691	0.0145511
669.769	0.0144588
669.847	0.0143543
669.925	0.0143130
670.003	0.0145701
670.081	0.0143906
670.160	0.0143890
670.238	0.0145813
670.316	0.0145908
670.394	0.0145331
670.472	0.0144561
670.550	0.0143487
670.628	0.0145592
670.706	0.0144400
670.785	0.0144956
670.863	0.0145090
670.941	0.0145121
671.019	0.0145644
671.097	0.0143844
671.175	0.0146025
671.253	0.0145187
671.331	0.0145045
671.410	0.0144955
671.488	0.0144288
671.566	0.0144299
671.644	0.0144904
671.722	0.0145394
671.800	0.0144144
671.878	0.0144112
671.956	0.0145173
672.035	0.0145850
672.113	0.0144525
672.191	0.0144585
672.269	0.0143990
672.347	0.0144286
672.425	0.0145699
672.503	0.0144694
672.581	0.0145707
672.660	0.0144423
672.738	0.0144544
672.816	0.0144751
672.894	0.0144950
672.972	0.0145454
673.050	0.0143909
673.128	0.0144333
673.206	0.0144135
673.285	0.0143637
673.363	0.0143182
673.441	0.0144418
673.519	0.0144190
673.597	0.0144882
673.675	0.0143866
673.753	0.0144602
673.831	0.0144379
673.910	0.0143189
673.988	0.0143652
674.066	0.0144588
674.144	0.0144828
674.222	0.0144983
674.300	0.0143988
674.378	0.0144579
674.456	0.0145335
674.535	0.0145559
674.613	0.0143615
674.691	0.0145326
674.769	0.0144456
674.847	0.0144569
674.925	0.0142592
675.003	0.0143394
675.081	0.0145046
675.160	0.0144682
675.238	0.0144458
675.316	0.0143778
675.394	0.0143753
675.472	0.0145167
675.550	0.0144746
675.628	0.0144090
675.706	0.0144884
675.785	0.0146880
675.863	0.0144390
675.941	0.0145337
676.019	0.0145600
676.097	0.0145374
676.175	0.0144009
676.253	0.0144037
676.331	0.0146149
676.410	0.0146377
676.488	0.0145250
676.566	0.0145003
676.644	0.0145132
676.722	0.0145942
676.800	0.0143918
676.878	0.0145602
676.956	0.0145344
677.035	0.0144856
677.113	0.0145379
677.191	0.0143916
677.269	0.0145939
677.347	0.0146168
677.425	0.0145660
677.503	0.0145029
677.581	0.0144450
677.660	0.0144770
677.738	0.0146747
677.816	0.0146422
677.894	0.0145255
677.972	0.0145508
678.050	0.0144044
678.128	0.0144888
678.206	0.0144410
678.285	0.0143845
678.363	0.0145107
678.441	0.0144990
678.519	0.0145309
678.597	0.0146073
678.675	0.0145633
678.753	0.0144055
678.831	0.0144564
678.910	0.0146014
678.988	0.0145721
679.066	0.0145602
679.144	0.0145550
679.222	0.0145631
679.300	0.0145613
679.378	0.0146023
679.456	0.0145177
679.535	0.0144473
679.613	0.0145329
679.691	0.0145438
679.769	0.0144099
679.847	0.0146255
679.925	0.0144162
680.003	0.0144592
680.081	0.0145223
680.160	0.0145368
680.238	0.0146519
680.316	0.0145930
680.394	0.0144765
680.472	0.0145348
680.550	0.0144984
680.628	0.0144769
680.706	0.0145187
680.785	0.0144595
680.863	0.0144737
680.941	0.0145409
681.019	0.0144045
681.097	0.0145216
681.175	0.0146000
681.253	0.0144489
681.331	0.0145811
681.410	0.0143566
681.488	0.0143757
681.566	0.0145640
681.644	0.0144642
681.722	0.0144419
681.800	0.0144812
681.878	0.0144996
681.956	0.0143769
682.035	0.0143922
682.113	0.0144728
682.191	0.0145419
682.269	0.0145469
682.347	0.0144106
682.425	0.0144457
682.503	0.0145524
682.581	0.0144882
682.660	0.0144093
682.738	0.0145443
682.816	0.0146252
682.894	0.0144859
682.972	0.0143983
683.050	0.0143230
683.128	0.0145223
683.206	0.0144932
683.285	0.0146014
683.363	0.0143476
683.441	0.0145787
683.519	0.0144891
683.597	0.0143927
683.675	0.0145489
683.753	0.0144763
683.831	0.0143556
683.910	0.0146111
683.988	0.0144744
684.066	0.0144798
684.144	0.0144289
684.222	0.0145085
684.300	0.0146426
684.378	0.0145168
684.456	0.0145195
684.535	0.0144418
684.613	0.0144090
684.691	0.0145236
684.769	0.0144632
684.847	0.0145155
684.925	0.0145274
685.003	0.0145121
685.081	0.0143900
685.160	0.0144611
685.238	0.0144781
685.316	0.0144513
685.394	0.0145298
685.472	0.0144201
685.550	0.0145091
685.628	0.0144942
685.706	0.0144997
685.785	0.0144039
685.863	0.0144135
685.941	0.0144848
686.019	0.0146283
686.097	0.0144923
686.175	0.0145170
686.253	0.0145260
686.331	0.0144827
686.410	0.0146279
686.488	0.0144678
686.566	0.0144250
686.644	0.0144468
686.722	0.0144170
686.800	0.0144541
686.878	0.0145080
686.956	0.0145100
687.035	0.0145327
687.113	0.0144926
687.191	0.0144382
687.269	0.0145213
687.347	0.0145122
687.425	0.0143920
687.503	0.0144707
687.581	0.0143756
687.660	0.0144678
687.738	0.0145457
687.816	0.0143513
687.894	0.0142724
687.972	0.0144134
688.050	0.0145927
688.128	0.0144889
688.206	0.0144302
688.285	0.0145756
688.363	0.0144440
688.441	0.0144283
688.519	0.0144525
688.597	0.0145703
688.675	0.0145225
688.753	0.0143414
688.831	0.0144614
688.910	0.0144768
688.988	0.0145033
689.066	0.0144554
689.144	0.0144144
689.222	0.0144951
689.300	0.0144720
689.378	0.0145426
689.456	0.0144385
689.535	0.0144560
689.613	0.0144649
689.691	0.0144952
689.769	0.0144901
689.847	0.0145859
689.925	0.0144568
690.003	0.0143301
690.081	0.0144727
690.160	0.0144563
690.238	0.0143900
690.316	0.0144862
690.394	0.0144437
690.472	0.0145116
690.550	0.0144041
690.628	0.0145718
690.706	0.0144460
690.785	0.0144788
690.863	0.0145724
690.941	0.0144121
691.019	0.0144556
691.097	0.0145744
691.175	0.0144681
691.253	0.0144605
691.331	0.0145189
691.410	0.0144126
691.488	0.0144955
691.566	0.0144437
691.644	0.0144289
691.722	0.0145272
691.800	0.0146005
691.878	0.0144690
691.956	0.0144143
692.035	0.0145284
692.113	0.0144953
692.191	0.0143759
692.269	0.0144060
692.347	0.0145626
692.425	0.0145655
692.503	0.0143819
692.581	0.0143501
692.660	0.0144582
692.738	0.0145367
692.816	0.0144733
692.894	0.0146291
692.972	0.0146176
693.050	0.0145903
693.128	0.0144277
693.206	0.0146041
693.285	0.0145585
693.363	0.0145354
693.441	0.0146144
693.519	0.0145965
693.597	0.0145997
693.675	0.0144816
693.753	0.0144656
693.831	0.0145132
693.910	0.0143385
693.988	0.0142979
694.066	0.0143654
694.144	0.0143159
694.222	0.0141843
694.300	0.0143065
694.378	0.0143475
694.456	0.0142862
694.535	0.0141985
694.613	0.0142622
694.691	0.0144052
694.769	0.0144771
694.847	0.0145375
694.925	0.0145498
695.003	0.0147429
695.081	0.0146206
695.160	0.0146660
695.238	0.0147881
695.316	0.0149960
695.394	0.0148429
695.472	0.0147864
695.550	0.0148597
695.628	0.0146146
695.706	0.0147410
695.785	0.0146684
695.863	0.0145013
695.941	0.0144398
696.019	0.0141631
696.097	0.0142155
696.175	0.0140463
696.253	0.0139930
696.331	0.0139899
696.410	0.0139993
696.488	0.0138248
696.566	0.0138719
696.644	0.0139146
696.722	0.0140060
696.800	0.0139711
696.878	0.0141397
696.956	0.0140848
697.035	0.0142707
697.113	0.0143382
697.191	0.0145439
697.269	0.0144835
697.347	0.0145441
697.425	0.0146051
697.503	0.0147748
697.581	0.0148978
697.660	0.0148077
697.738	0.0147755
697.816	0.0148827
697.894	0.0149223
697.972	0.0152711
698.050	0.0152821
698.128	0.0152654
698.206	0.0154129
698.285	0.0154455
698.363	0.0155544
698.441	0.0154842
698.519	0.0155894
698.597	0.0152534
698.675	0.0151836
698.753	0.0149033
698.831	0.0148166
698.910	0.0146107
698.988	0.0141428
699.066	0.0139560
699.144	0.0138430
699.222	0.0135860
699.300	0.0135138
699.378	0.0135133
699.456	0.0134305
699.535	0.0131955
699.613	0.0130917
699.691	0.0132487
699.769	0.0132403
699.847	0.0133396
699.925	0.0132944
700.003	0.0134219
700.081	0.0136848
700.160	0.0139368
700.238	0.0140874
700.316	0.0142145
700.394	0.0144093
700.472	0.0144971
700.550	0.0147390
700.628	0.0148261
700.706	0.0147968
700.785	0.0148251
700.863	0.0148885
700.941	0.0148682
701.019	0.0149475
701.097	0.0149934
701.175	0.0149990
701.253	0.0149576
701.331	0.0153039
701.410	0.0153723
701.488	0.0152775
701.566	0.0154439
701.644	0.0155068
701.722	0.0156862
701.800	0.0156420
701.878	0.0159139
701.956	0.0159848
702.035	0.0159409
702.113	0.0160699
702.191	0.0160071
702.269	0.0158942
702.347	0.0157732
702.425	0.0154798
702.503	0.0149260
702.581	0.0144888
702.660	0.0137706
702.738	0.0136445
702.816	0.0131777
702.894	0.0127758
702.972	0.0126527
703.050	0.0125700
703.128	0.0125714
703.206	0.0127623
703.285	0.0128741
703.363	0.0132226
703.441	0.0132954
703.519	0.0134035
703.597	0.0137493
703.675	0.0138084
703.753	0.0138179
703.831	0.0138392
703.910	0.0138226
703.988	0.0139424
704.066	0.0140276
704.144	0.0138423
704.222	0.0140032
704.300	0.0140170
704.378	0.0141212
704.456	0.0142903
704.535	0.0143123
704.613	0.0140745
704.691	0.0143645
704.769	0.0144167
704.847	0.0144153
704.925	0.0145284
705.003	0.0145865
705.081	0.0145531
705.160	0.0147652
705.238	0.0149075
705.316	0.0151710
705.394	0.0152261
705.472	0.0152742
705.550	0.0156043
705.628	0.0158134
705.706	0.0156673
705.785	0.0158030
705.863	0.0160731
705.941	0.0162384
706.019	0.0163865
706.097	0.0165748
706.175	0.0166411
706.253	0.0166182
706.331	0.0166973
706.410	0.0166893
706.488	0.0165111
706.566	0.0164707
706.644	0.0160912
706.722	0.0156383
706.800	0.0152991
706.878	0.0148442
706.956	0.0141501
707.035	0.0136220
707.113	0.0133029
707.191	0.0127164
707.269	0.0125111
707.347	0.0121989
707.425	0.0120695
707.503	0.0118991
707.581	0.0118824
707.660	0.0121704
707.738	0.0122333
707.816	0.0123084
707.894	0.0126058
707.972	0.0127561
708.050	0.0128411
708.128	0.0128970
708.206	0.0130714
708.285	0.0131630
708.363	0.0132470
708.441	0.0134660
708.519	0.0137008
708.597	0.0139585
708.675	0.0142642
708.753	0.0144342
708.831	0.0148221
708.910	0.0150042
708.988	0.0152969
709.066	0.0152335
709.144	0.0153772
709.222	0.0152627
709.300	0.0153198
709.378	0.0151252
709.456	0.0149556
709.535	0.0147070
709.613	0.0146365
709.691	0.0145822
709.769	0.0145798
709.847	0.0144390
709.925	0.0144390
710.003	0.0146413
710.081	0.0149283
710.160	0.0150764
710.238	0.0152459
710.316	0.0155336
710.394	0.0160350
710.472	0.0163002
710.550	0.0166184
710.628	0.0170721
710.706	0.0173019
710.785	0.0173528
710.863	0.0176363
710.941	0.0176687
711.019	0.0174747
711.097	0.0170976
711.175	0.0166732
711.253	0.0160182
711.331	0.0155564
711.410	0.0148578
711.488	0.0144666
711.566	0.0139270
711.644	0.0134035
711.722	0.0129269
711.800	0.0124821
711.878	0.0124428
711.956	0.0122388
712.035	0.0120526
712.113	0.0120942
712.191	0.0119609
712.269	0.0119729
712.347	0.0118491
712.425	0.0120863
712.503	0.0122406
712.581	0.0123385
712.660	0.0123224
712.738	0.0126917
712.816	0.0126854
712.894	0.0128398
712.972	0.0131911
713.050	0.0133492
713.128	0.0133386
713.206	0.0136243
713.285	0.0139907
713.363	0.0140449
713.441	0.0142000
713.519	0.0144152
713.597	0.0146497
713.675	0.0149364
713.753	0.0148553
713.831	0.0149159
713.910	0.0149739
713.988	0.0150362
714.066	0.0148817
714.144	0.0148309
714.222	0.0147533
714.300	0.0147768
714.378	0.0148051
714.456	0.0145863
714.535	0.0147346
714.613	0.0149429
714.691	0.0150594
714.769	0.0151660
714.847	0.0154800
714.925	0.0157283
715.003	0.0161208
715.081	0.0163356
715.160	0.0166174
715.238	0.0168605
715.316	0.0170523
715.394	0.0171873
715.472	0.0171117
715.550	0.0170815
715.628	0.0169492
715.706	0.0167893
715.785	0.0165417
715.863	0.0161684
715.941	0.0159044
716.019	0.0154992
716.097	0.0151062
716.175	0.0148096
716.253	0.0147182
716.331	0.0144905
716.410	0.0140686
716.488	0.0139001
716.566	0.0134868
716.644	0.0132599
716.722	0.0130473
716.800	0.0127190
716.878	0.0126226
716.956	0.0124789
717.035	0.0121353
717.113	0.0119504
717.191	0.0118401
717.269	0.0119373
717.347	0.0120535
717.425	0.0121721
717.503	0.0124097
717.581	0.0125169
717.660	0.0125652
717.738	0.0129560
717.816	0.0132012
717.894	0.0132809
717.972	0.0135487
718.050	0.0137756
718.128	0.0141063
718.206	0.0143141
718.285	0.0144428
718.363	0.0145166
718.441	0.0145035
718.519	0.0144006
718.597	0.0145417
718.675	0.0143761
718.753	0.0143520
718.831	0.0143282
718.910	0.0141528
718.988	0.0142245
719.066	0.0143369
719.144	0.0142786
719.222	0.0143575
719.300	0.0145517
719.378	0.0148516
719.456	0.0150308
719.535	0.0154978
719.613	0.0158352
719.691	0.0159818
719.769	0.0161657
719.847	0.0163162
719.925	0.0166811
720.003	0.0168751
720.081	0.0170412
720.160	0.0170751
720.238	0.0170836
720.316	0.0170388
720.394	0.0167462
720.472	0.0166077
720.550	0.0165885
720.628	0.0162909
720.706	0.0161278
720.785	0.0156867
720.863	0.0154804
720.941	0.0152794
721.019	0.0151089
721.097	0.0148627
721.175	0.0144181
721.253	0.0141635
721.331	0.0140392
721.410	0.0137614
721.488	0.0135394
721.566	0.0132582
721.644	0.0131197
721.722	0.0127346
721.800	0.0127480
721.878	0.0124832
721.956	0.0123170
722.035	0.0122314
722.113	0.0122059
722.191	0.0122487
722.269	0.0122960
722.347	0.0126219
722.425	0.0124977
722.503	0.0128638
722.581	0.0130433
722.660	0.0131326
722.738	0.0133615
722.816	0.0134618
722.894	0.0136549
722.972	0.0137754
723.050	0.0137474
723.128	0.0139169
723.206	0.0137340
723.285	0.0138002
723.363	0.0137561
723.441	0.0137127
723.519	0.0137154
723.597	0.0137953
723.675	0.0138351
723.753	0.0139091
723.831	0.0141526
723.910	0.0141253
723.988	0.0141968
724.066	0.0146253
724.144	0.0148218
724.222	0.0149493
724.300	0.0152054
724.378	0.0154720
724.456	0.0156245
724.535	0.0159503
724.613	0.0161207
724.691	0.0162670
724.769	0.0165121
724.847	0.0166725
724.925	0.0169063
725.003	0.0170268
725.081	0.0167770
725.160	0.0169753
725.238	0.0169939
725.316	0.0169112
725.394	0.0168687
725.472	0.0167507
725.550	0.0164653
725.628	0.0161756
725.706	0.0160245
725.785	0.0157560
725.863	0.0154097
725.941	0.0151950
726.019	0.0148648
726.097	0.0146075
726.175	0.0143359
726.253	0.0140781
726.331	0.0138309
726.410	0.0136470
726.488	0.0135691
726.566	0.0133739
726.644	0.0132459
726.722	0.0130408
726.800	0.0128267
726.878	0.0129099
726.956	0.0127342
727.035	0.0126970
727.113	0.0126812
727.191	0.0127239
727.269	0.0126028
727.347	0.0124616
727.425	0.0124517
727.503	0.0125266
727.581	0.0125629
727.660	0.0126160
727.738	0.0127829
727.816	0.0129335
727.894	0.0130009
727.972	0.0131387
728.050	0.0130920
728.128	0.0133783
728.206	0.0134460
728.285	0.0134949
728.363	0.0136443
728.441	0.0136905
728.519	0.0139808
728.597	0.0140962
728.675	0.0141366
728.753	0.0143427
728.831	0.0142779
728.910	0.0143471
728.988	0.0145959
729.066	0.0148368
729.144	0.0146609
729.222	0.0146697
729.300	0.0151563
729.378	0.0153996
729.456	0.0156214
729.535	0.0158276
729.613	0.0158569
729.691	0.0161574
729.769	0.0163586
729.847	0.0167039
729.925	0.0168246
730.003	0.0167828
730.081	0.0169685
730.160	0.0169156
730.238	0.0169286
730.316	0.0170654
730.394	0.0167745
730.472	0.0165049
730.550	0.0165076
730.628	0.0161478
730.706	0.0160387
730.785	0.0158625
730.863	0.0158308
730.941	0.0155125
731.019	0.0153302
731.097	0.0151054
731.175	0.0150677
731.253	0.0147787
731.331	0.0146508
731.410	0.0144063
731.488	0.0143604
731.566	0.0142538
731.644	0.0140572
731.722	0.0140060
731.800	0.0136848
731.878	0.0134662
731.956	0.0133508
732.035	0.0131438
732.113	0.0129877
732.191	0.0128689
732.269	0.0127617
732.347	0.0125818
732.425	0.0125703
732.503	0.0124410
732.581	0.0124295
732.660	0.0122684
732.738	0.0124088
732.816	0.0123128
732.894	0.0123844
732.972	0.0124014
733.050	0.0124619
733.128	0.0124093
733.206	0.0126099
733.285	0.0127969
733.363	0.0127840
733.441	0.0129559
733.519	0.0133133
733.597	0.0133575
733.675	0.0135468
733.753	0.0136771
733.831	0.0138457
733.910	0.0140177
733.988	0.0141314
734.066	0.0142429
734.144	0.0142299
734.222	0.0144478
734.300	0.0147005
734.378	0.0148875
734.456	0.0149533
734.535	0.0150285
734.613	0.0153379
734.691	0.0156087
734.769	0.0156731
734.847	0.0160287
734.925	0.0160558
735.003	0.0162333
735.081	0.0163362
735.160	0.0164294
735.238	0.0165441
735.316	0.0165880
735.394	0.0166979
735.472	0.0167253
735.550	0.0169444
735.628	0.0168612
735.706	0.0168757
735.785	0.0167423
735.863	0.0167609
735.941	0.0167139
736.019	0.0165758
736.097	0.0165125
736.175	0.0162609
736.253	0.0160108
736.331	0.0161024
736.410	0.0160341
736.488	0.0158559
736.566	0.0156850
736.644	0.0156246
736.722	0.0155206
736.800	0.0154308
736.878	0.0151192
736.956	0.0148813
737.035	0.0145952
737.113	0.0145052
737.191	0.0142129
737.269	0.0139616
737.347	0.0136339
737.425	0.0133485
737.503	0.0129372
737.581	0.0124496
737.660	0.0123151
737.738	0.0120948
737.816	0.0118771
737.894	0.0116691
737.972	0.0115238
738.050	0.0114436
738.128	0.0115563
738.206	0.0114601
738.285	0.0115317
738.363	0.0116269
738.441	0.0117650
738.519	0.0118590
738.597	0.0120487
738.675	0.0122818
738.753	0.0124977
738.831	0.0127866
738.910	0.0128063
738.988	0.0130152
739.066	0.0130881
739.144	0.0130402
739.222	0.0134769
739.300	0.0136285
739.378	0.0136353
739.456	0.0137202
739.535	0.0138588
739.613	0.0140833
739.691	0.0140429
739.769	0.0143124
739.847	0.0143926
739.925	0.0146814
740.003	0.0150633
740.081	0.0150665
740.160	0.0154507
740.238	0.0158028
740.316	0.0159573
740.394	0.0162566
740.472	0.0164565
740.550	0.0167908
740.628	0.0171084
740.706	0.0172928
740.785	0.0172683
740.863	0.0172381
740.941	0.0173946
741.019	0.0174265
741.097	0.0172984
741.175	0.0170757
741.253	0.0170479
741.331	0.0169713
741.410	0.0169852
741.488	0.0168221
741.566	0.0166627
741.644	0.0167465
741.722	0.0167067
741.800	0.0165919
741.878	0.0163863
741.956	0.0161069
742.035	0.0161089
742.113	0.0159861
742.191	0.0158318
742.269	0.0155988
742.347	0.0153595
742.425	0.0149947
742.503	0.0147161
742.581	0.0142532
742.660	0.0139922
742.738	0.0136179
742.816	0.0132675
742.894	0.0131330
742.972	0.0126845
743.050	0.0123560
743.128	0.0121527
743.206	0.0119881
743.285	0.0117502
743.363	0.0116866
743.441	0.0114046
743.519	0.0114552
743.597	0.0115573
743.675	0.0113833
743.753	0.0113312
743.831	0.0115180
743.910	0.0117728
743.988	0.0118993
744.066	0.0118909
744.144	0.0120993
744.222	0.0124686
744.300	0.0127033
744.378	0.0126789
744.456	0.0127554
744.535	0.0129514
744.613	0.0131222
744.691	0.0133089
744.769	0.0133925
744.847	0.0136251
744.925	0.0136149
745.003	0.0137484
745.081	0.0139240
745.160	0.0140321
745.238	0.0142481
745.316	0.0144310
745.394	0.0145268
745.472	0.0148904
745.550	0.0148951
745.628	0.0152399
745.706	0.0151234
