05/03/2022	20:27:02	Ver.	4.1	UNKNOWN
Optical Delay	660.003261	Delta X		0.078125	Sweeps	1	Scan Rate	0/0
Coordinates	Axis 1	NaN	Axis 2	NaN	Axis 3	NaN	Axis 4	NaN	Axis 5	NaN	Axis 6	0.000000
TX Power	0.000000	RX Power	0.000000

660.003	0.0146169
660.081	0.0145830
660.160	0.0146559
660.238	0.0146442
660.316	0.0147144
660.394	0.0147491
660.472	0.0147363
660.550	0.0145940
660.628	0.0145695
660.706	0.0146345
660.785	0.0146832
660.863	0.0146921
660.941	0.0147714
661.019	0.0147535
661.097	0.0146210
661.175	0.0146877
661.253	0.0146336
661.331	0.0146970
661.410	0.0145250
661.488	0.0147278
661.566	0.0147006
661.644	0.0146687
661.722	0.0146664
661.800	0.0148446
661.878	0.0147030
661.956	0.0147479
662.035	0.0147272
662.113	0.0146239
662.191	0.0145541
662.269	0.0145995
662.347	0.0146420
662.425	0.0148015
662.503	0.0145583
662.581	0.0145229
662.660	0.0146350
662.738	0.0146738
662.816	0.0145694
662.894	0.0145815
662.972	0.0146668
663.050	0.0145746
663.128	0.0145846
663.206	0.0145795
663.285	0.0146668
663.363	0.0146983
663.441	0.0146468
663.519	0.0146850
663.597	0.0146564
663.675	0.0145238
663.753	0.0145991
663.831	0.0145754
663.910	0.0146433
663.988	0.0147089
664.066	0.0145171
664.144	0.0146593
664.222	0.0145489
664.300	0.0146162
664.378	0.0145821
664.456	0.0145762
664.535	0.0146071
664.613	0.0146902
664.691	0.0145700
664.769	0.0146069
664.847	0.0147211
664.925	0.0144515
665.003	0.0145374
665.081	0.0146254
665.160	0.0148031
665.238	0.0145734
665.316	0.0146955
665.394	0.0146557
665.472	0.0145737
665.550	0.0145364
665.628	0.0147375
665.706	0.0146002
665.785	0.0146663
665.863	0.0144913
665.941	0.0145504
666.019	0.0146966
666.097	0.0146614
666.175	0.0145329
666.253	0.0147232
666.331	0.0145806
666.410	0.0145991
666.488	0.0144891
666.566	0.0146336
666.644	0.0146533
666.722	0.0145426
666.800	0.0145106
666.878	0.0145818
666.956	0.0147240
667.035	0.0146520
667.113	0.0145341
667.191	0.0145922
667.269	0.0145641
667.347	0.0144945
667.425	0.0145487
667.503	0.0146403
667.581	0.0146941
667.660	0.0145971
667.738	0.0146139
667.816	0.0145127
667.894	0.0145266
667.972	0.0146577
668.050	0.0145798
668.128	0.0145680
668.206	0.0146020
668.285	0.0145142
668.363	0.0145995
668.441	0.0146305
668.519	0.0145811
668.597	0.0145718
668.675	0.0146915
668.753	0.0146633
668.831	0.0146189
668.910	0.0146010
668.988	0.0145848
669.066	0.0145539
669.144	0.0145423
669.222	0.0146306
669.300	0.0147343
669.378	0.0145697
669.456	0.0145548
669.535	0.0146203
669.613	0.0145253
669.691	0.0146323
669.769	0.0147189
669.847	0.0146053
669.925	0.0145226
670.003	0.0147514
670.081	0.0146700
670.160	0.0145210
670.238	0.0145728
670.316	0.0146964
670.394	0.0146850
670.472	0.0145282
670.550	0.0146970
670.628	0.0146518
670.706	0.0146753
670.785	0.0145383
670.863	0.0146423
670.941	0.0147411
671.019	0.0147337
671.097	0.0145158
671.175	0.0146365
671.253	0.0147066
671.331	0.0146296
671.410	0.0146300
671.488	0.0146294
671.566	0.0146031
671.644	0.0147776
671.722	0.0146208
671.800	0.0146723
671.878	0.0145795
671.956	0.0145705
672.035	0.0146400
672.113	0.0147513
672.191	0.0145311
672.269	0.0145801
672.347	0.0146181
672.425	0.0145963
672.503	0.0145945
672.581	0.0146458
672.660	0.0145813
672.738	0.0145374
672.816	0.0145776
672.894	0.0146644
672.972	0.0147294
673.050	0.0147176
673.128	0.0146885
673.206	0.0146480
673.285	0.0147815
673.363	0.0145052
673.441	0.0146744
673.519	0.0145483
673.597	0.0145833
673.675	0.0146557
673.753	0.0146687
673.831	0.0145801
673.910	0.0146348
673.988	0.0146534
674.066	0.0146760
674.144	0.0147504
674.222	0.0146217
674.300	0.0146851
674.378	0.0145801
674.456	0.0146104
674.535	0.0145879
674.613	0.0147038
674.691	0.0145840
674.769	0.0145632
674.847	0.0147097
674.925	0.0145528
675.003	0.0145831
675.081	0.0145227
675.160	0.0146854
675.238	0.0146667
675.316	0.0145898
675.394	0.0147731
675.472	0.0145811
675.550	0.0146268
675.628	0.0145544
675.706	0.0145895
675.785	0.0146536
675.863	0.0146731
675.941	0.0146633
676.019	0.0145204
676.097	0.0146156
676.175	0.0147337
676.253	0.0146008
676.331	0.0146739
676.410	0.0146189
676.488	0.0146036
676.566	0.0145860
676.644	0.0147619
676.722	0.0147432
676.800	0.0145233
676.878	0.0144153
676.956	0.0146458
677.035	0.0146070
677.113	0.0145226
677.191	0.0145835
677.269	0.0147137
677.347	0.0146860
677.425	0.0146170
677.503	0.0145760
677.581	0.0146408
677.660	0.0146187
677.738	0.0145850
677.816	0.0144785
677.894	0.0146190
677.972	0.0145685
678.050	0.0144578
678.128	0.0147515
678.206	0.0146720
678.285	0.0145959
678.363	0.0145679
678.441	0.0146082
678.519	0.0145616
678.597	0.0145837
678.675	0.0146112
678.753	0.0145631
678.831	0.0147540
678.910	0.0146545
678.988	0.0146487
679.066	0.0146703
679.144	0.0145088
679.222	0.0146275
679.300	0.0145228
679.378	0.0145970
679.456	0.0146204
679.535	0.0145720
679.613	0.0145921
679.691	0.0146854
679.769	0.0147369
679.847	0.0146865
679.925	0.0144975
680.003	0.0146451
680.081	0.0147308
680.160	0.0146498
680.238	0.0146281
680.316	0.0145590
680.394	0.0146836
680.472	0.0146148
680.550	0.0146684
680.628	0.0144975
680.706	0.0146261
680.785	0.0146585
680.863	0.0146786
680.941	0.0145415
681.019	0.0146173
681.097	0.0147179
681.175	0.0145170
681.253	0.0146363
681.331	0.0146281
681.410	0.0145953
681.488	0.0146775
681.566	0.0146399
681.644	0.0145148
681.722	0.0145979
681.800	0.0145229
681.878	0.0144823
681.956	0.0146922
682.035	0.0147197
682.113	0.0146967
682.191	0.0144019
682.269	0.0146436
682.347	0.0146494
682.425	0.0145415
682.503	0.0145399
682.581	0.0146379
682.660	0.0147057
682.738	0.0144958
682.816	0.0145889
682.894	0.0146599
682.972	0.0145537
683.050	0.0144804
683.128	0.0145947
683.206	0.0145366
683.285	0.0145663
683.363	0.0145551
683.441	0.0146004
683.519	0.0146124
683.597	0.0145930
683.675	0.0145145
683.753	0.0147004
683.831	0.0146490
683.910	0.0145555
683.988	0.0146534
684.066	0.0144453
684.144	0.0147388
684.222	0.0145774
684.300	0.0143987
684.378	0.0146001
684.456	0.0145840
684.535	0.0144881
684.613	0.0145947
684.691	0.0146712
684.769	0.0145756
684.847	0.0145443
684.925	0.0145334
685.003	0.0147098
685.081	0.0145818
685.160	0.0145448
685.238	0.0143829
685.316	0.0146960
685.394	0.0146873
685.472	0.0145454
685.550	0.0145657
685.628	0.0146249
685.706	0.0145573
685.785	0.0146095
685.863	0.0145010
685.941	0.0145948
686.019	0.0145881
686.097	0.0146200
686.175	0.0145758
686.253	0.0145078
686.331	0.0144559
686.410	0.0147562
686.488	0.0145692
686.566	0.0144811
686.644	0.0145514
686.722	0.0145251
686.800	0.0144936
686.878	0.0145933
686.956	0.0146282
687.035	0.0145872
687.113	0.0146011
687.191	0.0144566
687.269	0.0144465
687.347	0.0145456
687.425	0.0144849
687.503	0.0146603
687.581	0.0145457
687.660	0.0145323
687.738	0.0145592
687.816	0.0146163
687.894	0.0144717
687.972	0.0145573
688.050	0.0144868
688.128	0.0146188
688.206	0.0145092
688.285	0.0144541
688.363	0.0146329
688.441	0.0145985
688.519	0.0146843
688.597	0.0145055
688.675	0.0145077
688.753	0.0144572
688.831	0.0144956
688.910	0.0145674
688.988	0.0144912
689.066	0.0145898
689.144	0.0145774
689.222	0.0145725
689.300	0.0146831
689.378	0.0146095
689.456	0.0144932
689.535	0.0146237
689.613	0.0144814
689.691	0.0145181
689.769	0.0146821
689.847	0.0145802
689.925	0.0144549
690.003	0.0146413
690.081	0.0146440
690.160	0.0146644
690.238	0.0147826
690.316	0.0146409
690.394	0.0145273
690.472	0.0146419
690.550	0.0147335
690.628	0.0146235
690.706	0.0145167
690.785	0.0146984
690.863	0.0144837
690.941	0.0145764
691.019	0.0147070
691.097	0.0147593
691.175	0.0147186
691.253	0.0146234
691.331	0.0146465
691.410	0.0147099
691.488	0.0146938
691.566	0.0147700
691.644	0.0146928
691.722	0.0144953
691.800	0.0146430
691.878	0.0146528
691.956	0.0144540
692.035	0.0146069
692.113	0.0145350
692.191	0.0144991
692.269	0.0143796
692.347	0.0143387
692.425	0.0144881
692.503	0.0143606
692.581	0.0143950
692.660	0.0145834
692.738	0.0146015
692.816	0.0146680
692.894	0.0147488
692.972	0.0146014
693.050	0.0148379
693.128	0.0148717
693.206	0.0147885
693.285	0.0149958
693.363	0.0150277
693.441	0.0150076
693.519	0.0150125
693.597	0.0148883
693.675	0.0148161
693.753	0.0148123
693.831	0.0147939
693.910	0.0148026
693.988	0.0146471
694.066	0.0145345
694.144	0.0145542
694.222	0.0145430
694.300	0.0143380
694.378	0.0142498
694.456	0.0143220
694.535	0.0142543
694.613	0.0143369
694.691	0.0142104
694.769	0.0141574
694.847	0.0142189
694.925	0.0142413
695.003	0.0143690
695.081	0.0142886
695.160	0.0143893
695.238	0.0144394
695.316	0.0145385
695.394	0.0147546
695.472	0.0146629
695.550	0.0147286
695.628	0.0147040
695.706	0.0147552
695.785	0.0150293
695.863	0.0149927
695.941	0.0150520
696.019	0.0149049
696.097	0.0151039
696.175	0.0150549
696.253	0.0151837
696.331	0.0152996
696.410	0.0151622
696.488	0.0152649
696.566	0.0153027
696.644	0.0151484
696.722	0.0150590
696.800	0.0150940
696.878	0.0150086
696.956	0.0147221
697.035	0.0146373
697.113	0.0145870
697.191	0.0144499
697.269	0.0145122
697.347	0.0142921
697.425	0.0141007
697.503	0.0139677
697.581	0.0138801
697.660	0.0138835
697.738	0.0138361
697.816	0.0137340
697.894	0.0137748
697.972	0.0136328
698.050	0.0137423
698.128	0.0138349
698.206	0.0138189
698.285	0.0140993
698.363	0.0141102
698.441	0.0140423
698.519	0.0143250
698.597	0.0144856
698.675	0.0145567
698.753	0.0147430
698.831	0.0147667
698.910	0.0147384
698.988	0.0149444
699.066	0.0149320
699.144	0.0150916
699.222	0.0151222
699.300	0.0151166
699.378	0.0151583
699.456	0.0151602
699.535	0.0151756
699.613	0.0154181
699.691	0.0155099
699.769	0.0153785
699.847	0.0154898
699.925	0.0153978
700.003	0.0155660
700.081	0.0156347
700.160	0.0157047
700.238	0.0156465
700.316	0.0155733
700.394	0.0156312
700.472	0.0156938
700.550	0.0155240
700.628	0.0152297
700.706	0.0149709
700.785	0.0146970
700.863	0.0143434
700.941	0.0139700
701.019	0.0137132
701.097	0.0133339
701.175	0.0131166
701.253	0.0130031
701.331	0.0130415
701.410	0.0129910
701.488	0.0131026
701.566	0.0131937
701.644	0.0134312
701.722	0.0136583
701.800	0.0138810
701.878	0.0139584
701.956	0.0141680
702.035	0.0143506
702.113	0.0145399
702.191	0.0145601
702.269	0.0145563
702.347	0.0146177
702.425	0.0146808
702.503	0.0147280
702.581	0.0148094
702.660	0.0148325
702.738	0.0147195
702.816	0.0145710
702.894	0.0146720
702.972	0.0146439
703.050	0.0145248
703.128	0.0145254
703.206	0.0144925
703.285	0.0143959
703.363	0.0144669
703.441	0.0145657
703.519	0.0146746
703.597	0.0145795
703.675	0.0148670
703.753	0.0149706
703.831	0.0149699
703.910	0.0150853
703.988	0.0152890
704.066	0.0153929
704.144	0.0155419
704.222	0.0157516
704.300	0.0158814
704.378	0.0160524
704.456	0.0160550
704.535	0.0161674
704.613	0.0162476
704.691	0.0161366
704.769	0.0161052
704.847	0.0160286
704.925	0.0158249
705.003	0.0156279
705.081	0.0153392
705.160	0.0149894
705.238	0.0147117
705.316	0.0144123
705.394	0.0141708
705.472	0.0136575
705.550	0.0134286
705.628	0.0131425
705.706	0.0130060
705.785	0.0130308
705.863	0.0126924
705.941	0.0126048
706.019	0.0126506
706.097	0.0128537
706.175	0.0128942
706.253	0.0130644
706.331	0.0131578
706.410	0.0133721
706.488	0.0134969
706.566	0.0136028
706.644	0.0137940
706.722	0.0138988
706.800	0.0141597
706.878	0.0143723
706.956	0.0144877
707.035	0.0147743
707.113	0.0150714
707.191	0.0153059
707.269	0.0155144
707.347	0.0154733
707.425	0.0154742
707.503	0.0153730
707.581	0.0153779
707.660	0.0152476
707.738	0.0150654
707.816	0.0150027
707.894	0.0148930
707.972	0.0145657
708.050	0.0144128
708.128	0.0142842
708.206	0.0143105
708.285	0.0143533
708.363	0.0143970
708.441	0.0144269
708.519	0.0145678
708.597	0.0146024
708.675	0.0149660
708.753	0.0150981
708.831	0.0150811
708.910	0.0155476
708.988	0.0158751
709.066	0.0161434
709.144	0.0162701
709.222	0.0166054
709.300	0.0168532
709.378	0.0169647
709.456	0.0169070
709.535	0.0166581
709.613	0.0166827
709.691	0.0163410
709.769	0.0160750
709.847	0.0157818
709.925	0.0153317
710.003	0.0149322
710.081	0.0144648
710.160	0.0140831
710.238	0.0139075
710.316	0.0135800
710.394	0.0132964
710.472	0.0131172
710.550	0.0128119
710.628	0.0127422
710.706	0.0127843
710.785	0.0127338
710.863	0.0129108
710.941	0.0126728
711.019	0.0127541
711.097	0.0129111
711.175	0.0130073
711.253	0.0130254
711.331	0.0132444
711.410	0.0132355
711.488	0.0134184
711.566	0.0135529
711.644	0.0136245
711.722	0.0138947
711.800	0.0140073
711.878	0.0141926
711.956	0.0146729
712.035	0.0145158
712.113	0.0149106
712.191	0.0149651
712.269	0.0150648
712.347	0.0152831
712.425	0.0153288
712.503	0.0152911
712.581	0.0151521
712.660	0.0152017
712.738	0.0149358
712.816	0.0148866
712.894	0.0149401
712.972	0.0147563
713.050	0.0147076
713.128	0.0145692
713.206	0.0146285
713.285	0.0146092
713.363	0.0148305
713.441	0.0150072
713.519	0.0149803
713.597	0.0153557
713.675	0.0154714
713.753	0.0155338
713.831	0.0158138
713.910	0.0159603
713.988	0.0161200
714.066	0.0163791
714.144	0.0165525
714.222	0.0167110
714.300	0.0165865
714.378	0.0166143
714.456	0.0162630
714.535	0.0163322
714.613	0.0160962
714.691	0.0159612
714.769	0.0157469
714.847	0.0154597
714.925	0.0150388
715.003	0.0148235
715.081	0.0145872
715.160	0.0143261
715.238	0.0138792
715.316	0.0137036
715.394	0.0135778
715.472	0.0133034
715.550	0.0131378
715.628	0.0130663
715.706	0.0128192
715.785	0.0128335
715.863	0.0126820
715.941	0.0126460
716.019	0.0125967
716.097	0.0126569
716.175	0.0127747
716.253	0.0127816
716.331	0.0130428
716.410	0.0131280
716.488	0.0133866
716.566	0.0135783
716.644	0.0138045
716.722	0.0140936
716.800	0.0142178
716.878	0.0142201
716.956	0.0144014
717.035	0.0146349
717.113	0.0146525
717.191	0.0146496
717.269	0.0147417
717.347	0.0150097
717.425	0.0148893
717.503	0.0147849
717.581	0.0146999
717.660	0.0148558
717.738	0.0147762
717.816	0.0145792
717.894	0.0148095
717.972	0.0148115
718.050	0.0148296
718.128	0.0148260
718.206	0.0148930
718.285	0.0152012
718.363	0.0153103
718.441	0.0151859
718.519	0.0155114
718.597	0.0155850
718.675	0.0157465
718.753	0.0159473
718.831	0.0161008
718.910	0.0163218
718.988	0.0163010
719.066	0.0164590
719.144	0.0165111
719.222	0.0166146
719.300	0.0164511
719.378	0.0164179
719.456	0.0162289
719.535	0.0161730
719.613	0.0159471
719.691	0.0157314
719.769	0.0155933
719.847	0.0153757
719.925	0.0150935
720.003	0.0149220
720.081	0.0146285
720.160	0.0146186
720.238	0.0143169
720.316	0.0141611
720.394	0.0140077
720.472	0.0138770
720.550	0.0135553
720.628	0.0132475
720.706	0.0132696
720.785	0.0130817
720.863	0.0129095
720.941	0.0129031
721.019	0.0127504
721.097	0.0127615
721.175	0.0130163
721.253	0.0129810
721.331	0.0130087
721.410	0.0133305
721.488	0.0134062
721.566	0.0135949
721.644	0.0136694
721.722	0.0139765
721.800	0.0139341
721.878	0.0140688
721.956	0.0141747
722.035	0.0141475
722.113	0.0140578
722.191	0.0140525
722.269	0.0142192
722.347	0.0141921
722.425	0.0141888
722.503	0.0142124
722.581	0.0142036
722.660	0.0143761
722.738	0.0145138
722.816	0.0146262
722.894	0.0147134
722.972	0.0147284
723.050	0.0149522
723.128	0.0150977
723.206	0.0150666
723.285	0.0154018
723.363	0.0155000
723.441	0.0156218
723.519	0.0157172
723.597	0.0158646
723.675	0.0159566
723.753	0.0160960
723.831	0.0160460
723.910	0.0161809
723.988	0.0162152
724.066	0.0163940
724.144	0.0163063
724.222	0.0163257
724.300	0.0161819
724.378	0.0163425
724.456	0.0163209
724.535	0.0160349
724.613	0.0161015
724.691	0.0158974
724.769	0.0158057
724.847	0.0157265
724.925	0.0153934
725.003	0.0152692
725.081	0.0151299
725.160	0.0149141
725.238	0.0147168
725.316	0.0144732
725.394	0.0144614
725.472	0.0142713
725.550	0.0138911
725.628	0.0138366
725.706	0.0136942
725.785	0.0134860
725.863	0.0132964
725.941	0.0132199
726.019	0.0130905
726.097	0.0130299
726.175	0.0131226
726.253	0.0132131
726.331	0.0132238
726.410	0.0132117
726.488	0.0133752
726.566	0.0133829
726.644	0.0135741
726.722	0.0136863
726.800	0.0136589
726.878	0.0137277
726.956	0.0138527
727.035	0.0139967
727.113	0.0140044
727.191	0.0139414
727.269	0.0139648
727.347	0.0139332
727.425	0.0139147
727.503	0.0139831
727.581	0.0141408
727.660	0.0140741
727.738	0.0142945
727.816	0.0143711
727.894	0.0142826
727.972	0.0145425
728.050	0.0146449
728.128	0.0147779
728.206	0.0149342
728.285	0.0147917
728.363	0.0149423
728.441	0.0152048
728.519	0.0153056
728.597	0.0153069
728.675	0.0153654
728.753	0.0156200
728.831	0.0158270
728.910	0.0158558
728.988	0.0159894
729.066	0.0160751
729.144	0.0162296
729.222	0.0162915
729.300	0.0163129
729.378	0.0162634
729.456	0.0163011
729.535	0.0164444
729.613	0.0162644
729.691	0.0163103
729.769	0.0162180
729.847	0.0160641
729.925	0.0159787
730.003	0.0156007
730.081	0.0155259
730.160	0.0154510
730.238	0.0153429
730.316	0.0151801
730.394	0.0151147
730.472	0.0152139
730.550	0.0149333
730.628	0.0147691
730.706	0.0146014
730.785	0.0145019
730.863	0.0144046
730.941	0.0141981
731.019	0.0140751
731.097	0.0139048
731.175	0.0137466
731.253	0.0136128
731.331	0.0134364
731.410	0.0131375
731.488	0.0129440
731.566	0.0129919
731.644	0.0128629
731.722	0.0126786
731.800	0.0127138
731.878	0.0127396
731.956	0.0126433
732.035	0.0128121
732.113	0.0128057
732.191	0.0129478
732.269	0.0129838
732.347	0.0131863
732.425	0.0134848
732.503	0.0136587
732.581	0.0138609
732.660	0.0139459
732.738	0.0142165
732.816	0.0142379
732.894	0.0143546
732.972	0.0142976
733.050	0.0144129
733.128	0.0145815
733.206	0.0146041
733.285	0.0146469
733.363	0.0146152
733.441	0.0146449
733.519	0.0147026
733.597	0.0146482
733.675	0.0147512
733.753	0.0147412
733.831	0.0150042
733.910	0.0151853
733.988	0.0153562
734.066	0.0155149
734.144	0.0155304
734.222	0.0157381
734.300	0.0160784
734.378	0.0161591
734.456	0.0162383
734.535	0.0163725
734.613	0.0166103
734.691	0.0167840
734.769	0.0168301
734.847	0.0166986
734.925	0.0165530
735.003	0.0166142
735.081	0.0164895
735.160	0.0164129
735.238	0.0164941
735.316	0.0162857
735.394	0.0161472
735.472	0.0158689
735.550	0.0157792
735.628	0.0156085
735.706	0.0155483
735.785	0.0154735
735.863	0.0153146
735.941	0.0150537
736.019	0.0150477
736.097	0.0148065
736.175	0.0147097
736.253	0.0146301
736.331	0.0143237
736.410	0.0141381
736.488	0.0139394
736.566	0.0138225
736.644	0.0133438
736.722	0.0131108
736.800	0.0130095
736.878	0.0126379
736.956	0.0125594
737.035	0.0124015
737.113	0.0123080
737.191	0.0122005
737.269	0.0121590
737.347	0.0121336
737.425	0.0122961
737.503	0.0123017
737.581	0.0123616
737.660	0.0125130
737.738	0.0126312
737.816	0.0127742
737.894	0.0128974
737.972	0.0132383
738.050	0.0133575
738.128	0.0135027
738.206	0.0137595
738.285	0.0138864
738.363	0.0139661
738.441	0.0140417
738.519	0.0142841
738.597	0.0144273
738.675	0.0144636
738.753	0.0142886
738.831	0.0143757
738.910	0.0146295
738.988	0.0146088
739.066	0.0147201
739.144	0.0147916
739.222	0.0148569
739.300	0.0151836
739.378	0.0153673
739.456	0.0153336
739.535	0.0158176
739.613	0.0159108
739.691	0.0160145
739.769	0.0161654
739.847	0.0164796
739.925	0.0166026
740.003	0.0167806
740.081	0.0168971
740.160	0.0170867
740.238	0.0171024
740.316	0.0170504
740.394	0.0169202
740.472	0.0170558
740.550	0.0168676
740.628	0.0166636
740.706	0.0166174
740.785	0.0164851
740.863	0.0163798
740.941	0.0161832
741.019	0.0160022
741.097	0.0158764
741.175	0.0156709
741.253	0.0157883
741.331	0.0156384
741.410	0.0155405
741.488	0.0152361
741.566	0.0151127
741.644	0.0149898
741.722	0.0148239
741.800	0.0146778
741.878	0.0144647
741.956	0.0141259
742.035	0.0139462
742.113	0.0137741
742.191	0.0136212
742.269	0.0134698
742.347	0.0133802
742.425	0.0130315
742.503	0.0128016
742.581	0.0127406
742.660	0.0125447
742.738	0.0123715
742.816	0.0123048
742.894	0.0122974
742.972	0.0123222
743.050	0.0123502
743.128	0.0123826
743.206	0.0124957
743.285	0.0124418
743.363	0.0127528
743.441	0.0129586
743.519	0.0131967
743.597	0.0131213
743.675	0.0133715
743.753	0.0134216
743.831	0.0134635
743.910	0.0136346
743.988	0.0136651
744.066	0.0137725
744.144	0.0137866
744.222	0.0139664
744.300	0.0139552
744.378	0.0139549
744.456	0.0140424
744.535	0.0141694
744.613	0.0143338
744.691	0.0143542
744.769	0.0145835
744.847	0.0147867
744.925	0.0150021
745.003	0.0153191
745.081	0.0155537
745.160	0.0158289
745.238	0.0159277
745.316	0.0160898
745.394	0.0162495
745.472	0.0165814
745.550	0.0166637
745.628	0.0166911
745.706	0.0169299
