05/03/2022	20:27:27	Ver.	4.1	UNKNOWN
Optical Delay	660.003261	Delta X		0.078125	Sweeps	1	Scan Rate	0/0
Coordinates	Axis 1	NaN	Axis 2	NaN	Axis 3	NaN	Axis 4	NaN	Axis 5	NaN	Axis 6	0.000000
TX Power	0.000000	RX Power	0.000000

660.003	0.0148654
660.081	0.0148629
660.160	0.0149767
660.238	0.0149100
660.316	0.0148653
660.394	0.0147908
660.472	0.0149673
660.550	0.0148868
660.628	0.0148316
660.706	0.0149702
660.785	0.0149413
660.863	0.0149413
660.941	0.0148904
661.019	0.0148048
661.097	0.0149512
661.175	0.0147155
661.253	0.0147890
661.331	0.0149350
661.410	0.0149065
661.488	0.0148179
661.566	0.0147757
661.644	0.0149052
661.722	0.0148385
661.800	0.0146379
661.878	0.0149371
661.956	0.0149258
662.035	0.0148981
662.113	0.0147215
662.191	0.0149030
662.269	0.0148813
662.347	0.0148052
662.425	0.0148338
662.503	0.0148851
662.581	0.0148310
662.660	0.0148305
662.738	0.0149451
662.816	0.0147794
662.894	0.0148296
662.972	0.0149230
663.050	0.0148384
663.128	0.0148629
663.206	0.0146731
663.285	0.0148099
663.363	0.0148164
663.441	0.0147216
663.519	0.0148940
663.597	0.0148018
663.675	0.0148587
663.753	0.0148365
663.831	0.0148859
663.910	0.0147661
663.988	0.0148634
664.066	0.0147939
664.144	0.0146778
664.222	0.0148660
664.300	0.0147311
664.378	0.0146394
664.456	0.0148872
664.535	0.0147687
664.613	0.0148156
664.691	0.0147711
664.769	0.0147185
664.847	0.0149078
664.925	0.0147708
665.003	0.0148524
665.081	0.0148100
665.160	0.0148554
665.238	0.0148435
665.316	0.0149489
665.394	0.0147180
665.472	0.0149374
665.550	0.0146931
665.628	0.0148277
665.706	0.0149368
665.785	0.0148957
665.863	0.0148328
665.941	0.0148988
666.019	0.0148167
666.097	0.0148853
666.175	0.0147723
666.253	0.0148223
666.331	0.0147888
666.410	0.0148733
666.488	0.0149686
666.566	0.0149358
666.644	0.0148678
666.722	0.0149367
666.800	0.0148784
666.878	0.0149459
666.956	0.0148107
667.035	0.0149957
667.113	0.0150227
667.191	0.0148863
667.269	0.0147867
667.347	0.0147787
667.425	0.0149964
667.503	0.0149220
667.581	0.0149197
667.660	0.0149511
667.738	0.0148458
667.816	0.0148697
667.894	0.0150481
667.972	0.0147662
668.050	0.0148201
668.128	0.0150072
668.206	0.0149099
668.285	0.0148939
668.363	0.0148712
668.441	0.0149084
668.519	0.0149315
668.597	0.0149150
668.675	0.0148663
668.753	0.0148822
668.831	0.0149249
668.910	0.0149300
668.988	0.0149448
669.066	0.0147674
669.144	0.0148481
669.222	0.0150100
669.300	0.0147552
669.378	0.0148478
669.456	0.0149943
669.535	0.0148261
669.613	0.0149557
669.691	0.0148013
669.769	0.0148831
669.847	0.0149636
669.925	0.0148904
670.003	0.0149078
670.081	0.0149569
670.160	0.0149185
670.238	0.0148094
670.316	0.0148823
670.394	0.0149978
670.472	0.0149467
670.550	0.0148438
670.628	0.0150033
670.706	0.0148860
670.785	0.0148966
670.863	0.0149274
670.941	0.0148698
671.019	0.0147915
671.097	0.0150368
671.175	0.0149080
671.253	0.0149063
671.331	0.0148269
671.410	0.0149393
671.488	0.0149258
671.566	0.0149873
671.644	0.0148276
671.722	0.0148984
671.800	0.0148494
671.878	0.0148057
671.956	0.0149467
672.035	0.0149661
672.113	0.0149503
672.191	0.0147706
672.269	0.0148054
672.347	0.0148965
672.425	0.0150133
672.503	0.0150047
672.581	0.0149052
672.660	0.0148328
672.738	0.0148910
672.816	0.0149464
672.894	0.0149154
672.972	0.0149536
673.050	0.0149220
673.128	0.0148292
673.206	0.0148860
673.285	0.0147720
673.363	0.0149276
673.441	0.0148649
673.519	0.0148360
673.597	0.0149704
673.675	0.0147671
673.753	0.0149178
673.831	0.0149321
673.910	0.0147610
673.988	0.0147983
674.066	0.0148227
674.144	0.0148547
674.222	0.0148264
674.300	0.0149185
674.378	0.0148177
674.456	0.0148176
674.535	0.0147956
674.613	0.0148274
674.691	0.0148847
674.769	0.0149107
674.847	0.0147312
674.925	0.0146839
675.003	0.0147349
675.081	0.0149280
675.160	0.0148453
675.238	0.0147263
675.316	0.0147516
675.394	0.0149061
675.472	0.0148519
675.550	0.0147575
675.628	0.0148956
675.706	0.0148581
675.785	0.0148859
675.863	0.0148142
675.941	0.0148790
676.019	0.0147623
676.097	0.0146610
676.175	0.0147933
676.253	0.0146587
676.331	0.0148175
676.410	0.0147734
676.488	0.0147323
676.566	0.0147072
676.644	0.0148484
676.722	0.0149696
676.800	0.0147560
676.878	0.0147753
676.956	0.0147691
677.035	0.0147750
677.113	0.0147877
677.191	0.0149019
677.269	0.0149490
677.347	0.0146657
677.425	0.0147986
677.503	0.0148047
677.581	0.0148002
677.660	0.0149196
677.738	0.0148760
677.816	0.0147923
677.894	0.0147198
677.972	0.0149196
678.050	0.0147877
678.128	0.0148615
678.206	0.0148632
678.285	0.0149168
678.363	0.0148967
678.441	0.0148681
678.519	0.0149548
678.597	0.0148859
678.675	0.0148009
678.753	0.0148308
678.831	0.0149384
678.910	0.0148235
678.988	0.0148647
679.066	0.0148972
679.144	0.0147589
679.222	0.0147963
679.300	0.0148478
679.378	0.0148336
679.456	0.0148799
679.535	0.0148025
679.613	0.0148370
679.691	0.0148226
679.769	0.0147738
679.847	0.0148495
679.925	0.0148446
680.003	0.0148758
680.081	0.0146754
680.160	0.0147861
680.238	0.0147099
680.316	0.0148606
680.394	0.0146977
680.472	0.0148215
680.550	0.0147501
680.628	0.0147267
680.706	0.0146957
680.785	0.0148354
680.863	0.0147605
680.941	0.0147363
681.019	0.0146960
681.097	0.0147818
681.175	0.0147916
681.253	0.0147810
681.331	0.0147945
681.410	0.0146493
681.488	0.0147622
681.566	0.0147751
681.644	0.0149429
681.722	0.0148670
681.800	0.0148991
681.878	0.0147892
681.956	0.0148432
682.035	0.0147504
682.113	0.0147744
682.191	0.0147086
682.269	0.0147656
682.347	0.0148552
682.425	0.0148323
682.503	0.0146714
682.581	0.0148009
682.660	0.0147162
682.738	0.0148710
682.816	0.0147961
682.894	0.0149049
682.972	0.0147482
683.050	0.0148079
683.128	0.0148080
683.206	0.0148914
683.285	0.0147298
683.363	0.0148820
683.441	0.0148908
683.519	0.0148677
683.597	0.0148291
683.675	0.0146926
683.753	0.0147637
683.831	0.0148625
683.910	0.0147599
683.988	0.0147711
684.066	0.0147322
684.144	0.0148421
684.222	0.0148609
684.300	0.0147868
684.378	0.0147855
684.456	0.0148083
684.535	0.0147077
684.613	0.0148997
684.691	0.0149414
684.769	0.0148119
684.847	0.0147393
684.925	0.0148539
685.003	0.0147681
685.081	0.0148847
685.160	0.0148550
685.238	0.0148319
685.316	0.0149175
685.394	0.0147478
685.472	0.0148583
685.550	0.0147536
685.628	0.0147987
685.706	0.0148090
685.785	0.0147803
685.863	0.0147846
685.941	0.0148116
686.019	0.0148871
686.097	0.0147746
686.175	0.0147523
686.253	0.0148390
686.331	0.0148129
686.410	0.0148633
686.488	0.0148386
686.566	0.0147869
686.644	0.0147712
686.722	0.0148814
686.800	0.0148345
686.878	0.0148563
686.956	0.0147746
687.035	0.0149291
687.113	0.0148891
687.191	0.0149689
687.269	0.0149697
687.347	0.0148971
687.425	0.0148138
687.503	0.0147845
687.581	0.0148537
687.660	0.0147522
687.738	0.0149131
687.816	0.0149071
687.894	0.0146799
687.972	0.0148115
688.050	0.0149126
688.128	0.0148843
688.206	0.0148229
688.285	0.0149306
688.363	0.0149019
688.441	0.0148595
688.519	0.0149219
688.597	0.0149334
688.675	0.0149390
688.753	0.0149146
688.831	0.0148752
688.910	0.0147799
688.988	0.0147799
689.066	0.0147624
689.144	0.0147993
689.222	0.0148834
689.300	0.0146953
689.378	0.0148427
689.456	0.0148837
689.535	0.0148726
689.613	0.0148676
689.691	0.0150267
689.769	0.0148312
689.847	0.0147937
689.925	0.0148432
690.003	0.0149876
690.081	0.0148296
690.160	0.0149712
690.238	0.0149168
690.316	0.0148996
690.394	0.0149102
690.472	0.0149844
690.550	0.0149668
690.628	0.0148524
690.706	0.0149664
690.785	0.0149732
690.863	0.0148450
690.941	0.0149751
691.019	0.0149216
691.097	0.0150311
691.175	0.0149944
691.253	0.0148369
691.331	0.0149384
691.410	0.0146976
691.488	0.0148292
691.566	0.0147888
691.644	0.0148269
691.722	0.0148569
691.800	0.0147548
691.878	0.0147278
691.956	0.0146763
692.035	0.0147298
692.113	0.0147900
692.191	0.0148013
692.269	0.0149031
692.347	0.0149831
692.425	0.0149873
692.503	0.0150388
692.581	0.0151551
692.660	0.0150465
692.738	0.0150246
692.816	0.0152363
692.894	0.0151440
692.972	0.0151445
693.050	0.0150554
693.128	0.0149916
693.206	0.0151167
693.285	0.0150788
693.363	0.0148419
693.441	0.0149269
693.519	0.0148586
693.597	0.0147590
693.675	0.0147130
693.753	0.0147510
693.831	0.0145934
693.910	0.0146367
693.988	0.0143879
694.066	0.0144484
694.144	0.0144651
694.222	0.0144352
694.300	0.0145299
694.378	0.0145490
694.456	0.0144455
694.535	0.0147194
694.613	0.0146001
694.691	0.0146117
694.769	0.0148466
694.847	0.0149178
694.925	0.0148576
695.003	0.0149812
695.081	0.0149805
695.160	0.0151135
695.238	0.0151453
695.316	0.0150565
695.394	0.0151744
695.472	0.0151712
695.550	0.0152372
695.628	0.0151952
695.706	0.0153067
695.785	0.0154367
695.863	0.0155427
695.941	0.0153778
696.019	0.0154709
696.097	0.0153551
696.175	0.0153277
696.253	0.0152888
696.331	0.0151781
696.410	0.0151122
696.488	0.0150803
696.566	0.0148006
696.644	0.0147423
696.722	0.0146563
696.800	0.0146180
696.878	0.0145000
696.956	0.0143029
697.035	0.0143722
697.113	0.0143453
697.191	0.0141573
697.269	0.0140391
697.347	0.0142299
697.425	0.0140981
697.503	0.0141542
697.581	0.0143449
697.660	0.0142358
697.738	0.0143204
697.816	0.0144150
697.894	0.0145223
697.972	0.0145128
698.050	0.0145854
698.128	0.0148107
698.206	0.0148428
698.285	0.0149862
698.363	0.0149865
698.441	0.0149574
698.519	0.0149837
698.597	0.0151201
698.675	0.0152431
698.753	0.0153809
698.831	0.0152673
698.910	0.0152611
698.988	0.0153372
699.066	0.0155093
699.144	0.0154089
699.222	0.0155727
699.300	0.0156412
699.378	0.0156078
699.456	0.0156430
699.535	0.0156039
699.613	0.0156652
699.691	0.0158035
699.769	0.0158105
699.847	0.0158990
699.925	0.0157972
700.003	0.0156429
700.081	0.0153266
700.160	0.0151311
700.238	0.0150611
700.316	0.0146955
700.394	0.0143657
700.472	0.0140952
700.550	0.0139019
700.628	0.0136446
700.706	0.0134736
700.785	0.0134597
700.863	0.0134576
700.941	0.0133382
701.019	0.0133685
701.097	0.0136503
701.175	0.0138584
701.253	0.0140221
701.331	0.0140898
701.410	0.0142461
701.488	0.0144331
701.566	0.0145479
701.644	0.0146552
701.722	0.0148859
701.800	0.0148366
701.878	0.0150543
701.956	0.0150130
702.035	0.0151030
702.113	0.0150777
702.191	0.0152448
702.269	0.0151168
702.347	0.0150916
702.425	0.0148490
702.503	0.0149229
702.581	0.0147858
702.660	0.0146901
702.738	0.0147501
702.816	0.0149148
702.894	0.0146452
702.972	0.0146955
703.050	0.0149674
703.128	0.0148037
703.206	0.0148717
703.285	0.0149799
703.363	0.0151069
703.441	0.0152217
703.519	0.0154040
703.597	0.0155891
703.675	0.0156402
703.753	0.0157472
703.831	0.0159169
703.910	0.0161422
703.988	0.0160571
704.066	0.0162257
704.144	0.0162186
704.222	0.0161569
704.300	0.0161545
704.378	0.0158456
704.456	0.0159618
704.535	0.0157066
704.613	0.0153675
704.691	0.0150686
704.769	0.0146044
704.847	0.0146360
704.925	0.0144593
705.003	0.0139869
705.081	0.0138782
705.160	0.0138940
705.238	0.0135622
705.316	0.0132545
705.394	0.0131612
705.472	0.0133833
705.550	0.0131498
705.628	0.0133179
705.706	0.0133701
705.785	0.0134895
705.863	0.0135224
705.941	0.0136678
706.019	0.0137998
706.097	0.0138445
706.175	0.0139420
706.253	0.0141392
706.331	0.0143833
706.410	0.0146211
706.488	0.0148502
706.566	0.0150330
706.644	0.0154255
706.722	0.0155443
706.800	0.0156526
706.878	0.0156570
706.956	0.0156777
707.035	0.0157481
707.113	0.0155112
707.191	0.0152440
707.269	0.0152268
707.347	0.0149660
707.425	0.0150635
707.503	0.0148270
707.581	0.0147609
707.660	0.0145874
707.738	0.0146542
707.816	0.0146381
707.894	0.0145257
707.972	0.0146259
708.050	0.0146610
708.128	0.0147741
708.206	0.0149658
708.285	0.0150776
708.363	0.0152309
708.441	0.0154881
708.519	0.0156547
708.597	0.0158678
708.675	0.0161719
708.753	0.0163213
708.831	0.0164903
708.910	0.0166783
708.988	0.0167749
709.066	0.0166210
709.144	0.0165757
709.222	0.0164614
709.300	0.0163472
709.378	0.0159222
709.456	0.0157787
709.535	0.0152593
709.613	0.0149874
709.691	0.0147097
709.769	0.0143086
709.847	0.0141342
709.925	0.0137521
710.003	0.0135580
710.081	0.0135149
710.160	0.0133690
710.238	0.0131501
710.316	0.0131056
710.394	0.0131822
710.472	0.0132329
710.550	0.0132867
710.628	0.0132546
710.706	0.0133467
710.785	0.0134235
710.863	0.0134231
710.941	0.0133667
711.019	0.0135825
711.097	0.0135626
711.175	0.0137363
711.253	0.0138728
711.331	0.0141865
711.410	0.0142708
711.488	0.0143711
711.566	0.0145643
711.644	0.0146725
711.722	0.0149609
711.800	0.0151106
711.878	0.0153671
711.956	0.0155411
712.035	0.0154510
712.113	0.0154711
712.191	0.0154292
712.269	0.0155200
712.347	0.0153621
712.425	0.0152116
712.503	0.0152328
712.581	0.0149246
712.660	0.0150003
712.738	0.0149375
712.816	0.0148126
712.894	0.0148401
712.972	0.0148322
713.050	0.0148946
713.128	0.0149346
713.206	0.0152479
713.285	0.0154642
713.363	0.0155205
713.441	0.0156136
713.519	0.0157764
713.597	0.0161316
713.675	0.0162023
713.753	0.0163829
713.831	0.0165777
713.910	0.0166704
713.988	0.0167986
714.066	0.0166270
714.144	0.0167368
714.222	0.0165673
714.300	0.0163141
714.378	0.0160737
714.456	0.0159294
714.535	0.0155807
714.613	0.0151271
714.691	0.0149039
714.769	0.0146590
714.847	0.0142548
714.925	0.0140076
715.003	0.0138441
715.081	0.0136900
715.160	0.0136274
715.238	0.0133898
715.316	0.0133185
715.394	0.0133017
715.472	0.0131463
715.550	0.0130059
715.628	0.0129714
715.706	0.0131052
715.785	0.0130677
715.863	0.0131145
715.941	0.0131538
716.019	0.0134225
716.097	0.0136530
716.175	0.0137086
716.253	0.0138974
716.331	0.0140054
716.410	0.0143485
716.488	0.0143189
716.566	0.0143893
716.644	0.0145788
716.722	0.0147408
716.800	0.0147229
716.878	0.0147623
716.956	0.0149880
717.035	0.0149654
717.113	0.0149342
717.191	0.0149030
717.269	0.0150591
717.347	0.0148495
717.425	0.0150452
717.503	0.0149790
717.581	0.0148936
717.660	0.0150911
717.738	0.0150510
717.816	0.0150788
717.894	0.0150633
717.972	0.0151843
718.050	0.0151775
718.128	0.0155422
718.206	0.0154916
718.285	0.0156631
718.363	0.0158391
718.441	0.0158977
718.519	0.0161063
718.597	0.0161517
718.675	0.0161680
718.753	0.0164101
718.831	0.0165601
718.910	0.0164541
718.988	0.0165345
719.066	0.0164623
719.144	0.0162801
719.222	0.0162652
719.300	0.0161943
719.378	0.0159469
719.456	0.0160550
719.535	0.0158089
719.613	0.0154750
719.691	0.0152752
719.769	0.0151672
719.847	0.0149726
719.925	0.0148312
720.003	0.0145762
720.081	0.0142924
720.160	0.0141447
720.238	0.0141045
720.316	0.0137578
720.394	0.0135565
720.472	0.0135392
720.550	0.0133260
720.628	0.0133264
720.706	0.0131985
720.785	0.0131245
720.863	0.0131310
720.941	0.0130248
721.019	0.0132835
721.097	0.0136584
721.175	0.0136938
721.253	0.0138638
721.331	0.0139725
721.410	0.0139440
721.488	0.0143022
721.566	0.0143830
721.644	0.0144072
721.722	0.0144888
721.800	0.0146139
721.878	0.0145938
721.956	0.0145058
722.035	0.0145583
722.113	0.0146201
722.191	0.0145935
722.269	0.0146736
722.347	0.0147857
722.425	0.0145876
722.503	0.0147432
722.581	0.0149068
722.660	0.0148991
722.738	0.0149541
722.816	0.0150532
722.894	0.0151645
722.972	0.0153743
723.050	0.0154576
723.128	0.0153925
723.206	0.0154128
723.285	0.0154878
723.363	0.0156110
723.441	0.0159053
723.519	0.0160627
723.597	0.0162017
723.675	0.0161394
723.753	0.0162385
723.831	0.0163003
723.910	0.0163038
723.988	0.0163143
724.066	0.0163715
724.144	0.0164412
724.222	0.0164013
724.300	0.0164125
724.378	0.0162504
724.456	0.0162183
724.535	0.0161466
724.613	0.0159559
724.691	0.0156807
724.769	0.0154360
724.847	0.0153127
724.925	0.0152036
725.003	0.0150394
725.081	0.0147983
725.160	0.0144930
725.238	0.0145235
725.316	0.0143578
725.394	0.0141540
725.472	0.0139712
725.550	0.0139792
725.628	0.0138502
725.706	0.0136671
725.785	0.0134499
725.863	0.0134138
725.941	0.0136216
726.019	0.0134991
726.097	0.0135342
726.175	0.0136243
726.253	0.0137634
726.331	0.0137228
726.410	0.0137482
726.488	0.0138274
726.566	0.0140011
726.644	0.0140561
726.722	0.0140459
726.800	0.0140754
726.878	0.0141624
726.956	0.0141569
727.035	0.0142644
727.113	0.0141637
727.191	0.0142505
727.269	0.0143690
727.347	0.0143000
727.425	0.0143986
727.503	0.0145155
727.581	0.0145803
727.660	0.0146300
727.738	0.0147709
727.816	0.0149151
727.894	0.0148940
727.972	0.0148947
728.050	0.0149536
728.128	0.0150263
728.206	0.0150540
728.285	0.0151436
728.363	0.0152392
728.441	0.0153234
728.519	0.0154620
728.597	0.0155753
728.675	0.0156217
728.753	0.0157821
728.831	0.0157457
728.910	0.0161653
728.988	0.0161961
729.066	0.0161694
729.144	0.0163618
729.222	0.0165003
729.300	0.0164970
729.378	0.0164505
729.456	0.0164164
729.535	0.0163821
729.613	0.0163024
729.691	0.0161494
729.769	0.0159802
729.847	0.0158263
729.925	0.0159248
730.003	0.0156260
730.081	0.0156251
730.160	0.0154738
730.238	0.0153478
730.316	0.0152658
730.394	0.0151589
730.472	0.0150314
730.550	0.0149984
730.628	0.0147797
730.706	0.0146142
730.785	0.0143757
730.863	0.0142873
730.941	0.0140359
731.019	0.0138012
731.097	0.0137679
731.175	0.0138007
731.253	0.0134096
731.331	0.0132219
731.410	0.0129610
731.488	0.0130894
731.566	0.0131769
731.644	0.0130754
731.722	0.0131666
731.800	0.0131418
731.878	0.0132224
731.956	0.0133849
732.035	0.0134224
732.113	0.0136558
732.191	0.0139189
732.269	0.0138622
732.347	0.0139760
732.425	0.0141261
732.503	0.0143063
732.581	0.0144465
732.660	0.0145667
732.738	0.0145451
732.816	0.0147108
732.894	0.0146857
732.972	0.0147936
733.050	0.0146270
733.128	0.0146770
733.206	0.0146285
733.285	0.0146786
733.363	0.0147227
733.441	0.0146674
733.519	0.0148073
733.597	0.0149944
733.675	0.0150239
733.753	0.0151389
733.831	0.0152510
733.910	0.0155524
733.988	0.0156439
734.066	0.0157761
734.144	0.0160179
734.222	0.0161196
734.300	0.0163477
734.378	0.0163730
734.456	0.0165284
734.535	0.0167455
734.613	0.0168202
734.691	0.0166946
734.769	0.0167155
734.847	0.0168287
734.925	0.0166821
735.003	0.0163943
735.081	0.0164474
735.160	0.0162048
735.238	0.0161193
735.316	0.0160888
735.394	0.0158265
735.472	0.0157515
735.550	0.0155872
735.628	0.0155943
735.706	0.0154603
735.785	0.0153896
735.863	0.0152984
735.941	0.0151128
736.019	0.0149380
736.097	0.0148089
736.175	0.0147015
736.253	0.0145682
736.331	0.0142828
736.410	0.0138772
736.488	0.0137847
736.566	0.0135829
736.644	0.0134290
736.722	0.0132962
736.800	0.0129992
736.878	0.0129330
736.956	0.0127815
737.035	0.0127708
737.113	0.0128233
737.191	0.0126296
737.269	0.0126933
737.347	0.0127283
737.425	0.0128149
737.503	0.0128705
737.581	0.0130257
737.660	0.0132566
737.738	0.0133376
737.816	0.0136900
737.894	0.0138096
737.972	0.0140707
738.050	0.0142362
738.128	0.0144760
738.206	0.0144846
738.285	0.0144846
738.363	0.0145528
738.441	0.0146794
738.519	0.0145942
738.597	0.0145648
738.675	0.0146862
738.753	0.0146588
738.831	0.0145390
738.910	0.0147134
738.988	0.0146684
739.066	0.0149777
739.144	0.0152378
739.222	0.0153327
739.300	0.0154678
739.378	0.0156529
739.456	0.0159274
739.535	0.0159468
739.613	0.0163155
739.691	0.0165246
739.769	0.0166911
739.847	0.0168677
739.925	0.0169952
740.003	0.0169871
740.081	0.0170978
740.160	0.0171432
740.238	0.0169710
740.316	0.0168096
740.394	0.0168671
740.472	0.0167164
740.550	0.0165806
740.628	0.0165276
740.706	0.0163911
740.785	0.0164108
740.863	0.0161700
740.941	0.0159399
741.019	0.0158588
741.097	0.0157389
741.175	0.0156793
741.253	0.0155956
741.331	0.0155720
741.410	0.0152541
741.488	0.0152703
741.566	0.0151048
741.644	0.0149249
741.722	0.0148217
741.800	0.0145972
741.878	0.0145600
741.956	0.0143349
742.035	0.0140871
742.113	0.0139394
742.191	0.0136663
742.269	0.0134297
742.347	0.0132516
742.425	0.0133179
742.503	0.0131445
742.581	0.0129402
742.660	0.0128889
742.738	0.0127602
742.816	0.0127008
742.894	0.0127400
742.972	0.0128475
743.050	0.0128271
743.128	0.0129552
743.206	0.0130790
743.285	0.0131252
743.363	0.0133636
743.441	0.0132957
743.519	0.0135066
743.597	0.0134864
743.675	0.0136335
743.753	0.0137954
743.831	0.0138782
743.910	0.0138588
743.988	0.0139326
744.066	0.0139571
744.144	0.0140132
744.222	0.0141558
744.300	0.0142112
744.378	0.0143650
744.456	0.0144304
744.535	0.0147405
744.613	0.0147491
744.691	0.0149418
744.769	0.0150874
744.847	0.0155260
744.925	0.0154691
745.003	0.0158098
745.081	0.0160636
745.160	0.0161847
745.238	0.0163773
745.316	0.0165699
745.394	0.0166311
745.472	0.0168198
745.550	0.0169024
745.628	0.0171017
745.706	0.0171228
