05/03/2022	19:58:20	Ver.	4.1	UNKNOWN
Optical Delay	660.003261	Delta X		0.078125	Sweeps	1	Scan Rate	0/0
Coordinates	Axis 1	NaN	Axis 2	NaN	Axis 3	NaN	Axis 4	NaN	Axis 5	NaN	Axis 6	0.000000
TX Power	0.000000	RX Power	0.000000

660.003	0.0143041
660.081	0.0143603
660.160	0.0143317
660.238	0.0142693
660.316	0.0143162
660.394	0.0142883
660.472	0.0143703
660.550	0.0143283
660.628	0.0142148
660.706	0.0142725
660.785	0.0142522
660.863	0.0142968
660.941	0.0143464
661.019	0.0142427
661.097	0.0143993
661.175	0.0143215
661.253	0.0143159
661.331	0.0143467
661.410	0.0141536
661.488	0.0143689
661.566	0.0144398
661.644	0.0141798
661.722	0.0142860
661.800	0.0142627
661.878	0.0142856
661.956	0.0141869
662.035	0.0142477
662.113	0.0143133
662.191	0.0142744
662.269	0.0143848
662.347	0.0143917
662.425	0.0142863
662.503	0.0142094
662.581	0.0143179
662.660	0.0142274
662.738	0.0141602
662.816	0.0143587
662.894	0.0143609
662.972	0.0142273
663.050	0.0141685
663.128	0.0142553
663.206	0.0143548
663.285	0.0144038
663.363	0.0142548
663.441	0.0143449
663.519	0.0143163
663.597	0.0142716
663.675	0.0143474
663.753	0.0142226
663.831	0.0142908
663.910	0.0142736
663.988	0.0144011
664.066	0.0143416
664.144	0.0141829
664.222	0.0142976
664.300	0.0142535
664.378	0.0142777
664.456	0.0143275
664.535	0.0143525
664.613	0.0143430
664.691	0.0142981
664.769	0.0142452
664.847	0.0143322
664.925	0.0144165
665.003	0.0143544
665.081	0.0143423
665.160	0.0142159
665.238	0.0142711
665.316	0.0143033
665.394	0.0143520
665.472	0.0144182
665.550	0.0142622
665.628	0.0142182
665.706	0.0143975
665.785	0.0142709
665.863	0.0142665
665.941	0.0143522
666.019	0.0141109
666.097	0.0142152
666.175	0.0144730
666.253	0.0142799
666.331	0.0144508
666.410	0.0143561
666.488	0.0142947
666.566	0.0142126
666.644	0.0142638
666.722	0.0143625
666.800	0.0143221
666.878	0.0142831
666.956	0.0143731
667.035	0.0142783
667.113	0.0143272
667.191	0.0143121
667.269	0.0141036
667.347	0.0142316
667.425	0.0142332
667.503	0.0142531
667.581	0.0142686
667.660	0.0141612
667.738	0.0142675
667.816	0.0143339
667.894	0.0143618
667.972	0.0142818
668.050	0.0143011
668.128	0.0143266
668.206	0.0143959
668.285	0.0143391
668.363	0.0143734
668.441	0.0141782
668.519	0.0142194
668.597	0.0142457
668.675	0.0141700
668.753	0.0142332
668.831	0.0143108
668.910	0.0141920
668.988	0.0142052
669.066	0.0142755
669.144	0.0142116
669.222	0.0142386
669.300	0.0143015
669.378	0.0143999
669.456	0.0143327
669.535	0.0142551
669.613	0.0142686
669.691	0.0142672
669.769	0.0142846
669.847	0.0142274
669.925	0.0143134
670.003	0.0142652
670.081	0.0142491
670.160	0.0142747
670.238	0.0143446
670.316	0.0143179
670.394	0.0143268
670.472	0.0141553
670.550	0.0142016
670.628	0.0142343
670.706	0.0142371
670.785	0.0142544
670.863	0.0141319
670.941	0.0142874
671.019	0.0144203
671.097	0.0142287
671.175	0.0142474
671.253	0.0143773
671.331	0.0142949
671.410	0.0143114
671.488	0.0142293
671.566	0.0141845
671.644	0.0142651
671.722	0.0143332
671.800	0.0142615
671.878	0.0143448
671.956	0.0143632
672.035	0.0141946
672.113	0.0142897
672.191	0.0143651
672.269	0.0142698
672.347	0.0141529
672.425	0.0142751
672.503	0.0143324
672.581	0.0143016
672.660	0.0143424
672.738	0.0142716
672.816	0.0143358
672.894	0.0143367
672.972	0.0142889
673.050	0.0141891
673.128	0.0142918
673.206	0.0142633
673.285	0.0142648
673.363	0.0142615
673.441	0.0142776
673.519	0.0142234
673.597	0.0142585
673.675	0.0143631
673.753	0.0141841
673.831	0.0143195
673.910	0.0143421
673.988	0.0143463
674.066	0.0142796
674.144	0.0142410
674.222	0.0142974
674.300	0.0143388
674.378	0.0143909
674.456	0.0143459
674.535	0.0143848
674.613	0.0141730
674.691	0.0142995
674.769	0.0143253
674.847	0.0143053
674.925	0.0144346
675.003	0.0142963
675.081	0.0141716
675.160	0.0142596
675.238	0.0141965
675.316	0.0144088
675.394	0.0142979
675.472	0.0142020
675.550	0.0142556
675.628	0.0143167
675.706	0.0144005
675.785	0.0141908
675.863	0.0143200
675.941	0.0142332
676.019	0.0142714
676.097	0.0143127
676.175	0.0142620
676.253	0.0143178
676.331	0.0142483
676.410	0.0142744
676.488	0.0143861
676.566	0.0143335
676.644	0.0143767
676.722	0.0143407
676.800	0.0144195
676.878	0.0142731
676.956	0.0141891
677.035	0.0142117
677.113	0.0142329
677.191	0.0142812
677.269	0.0142654
677.347	0.0143155
677.425	0.0141821
677.503	0.0142353
677.581	0.0143155
677.660	0.0142526
677.738	0.0143414
677.816	0.0143142
677.894	0.0142182
677.972	0.0142619
678.050	0.0143351
678.128	0.0142436
678.206	0.0142456
678.285	0.0141665
678.363	0.0142950
678.441	0.0143291
678.519	0.0141667
678.597	0.0143150
678.675	0.0142562
678.753	0.0142707
678.831	0.0141464
678.910	0.0142860
678.988	0.0141982
679.066	0.0142539
679.144	0.0142009
679.222	0.0142440
679.300	0.0141770
679.378	0.0142516
679.456	0.0142020
679.535	0.0142210
679.613	0.0142686
679.691	0.0141992
679.769	0.0143044
679.847	0.0143715
679.925	0.0141203
680.003	0.0141333
680.081	0.0142368
680.160	0.0143633
680.238	0.0142902
680.316	0.0142245
680.394	0.0142613
680.472	0.0143121
680.550	0.0142822
680.628	0.0142162
680.706	0.0141423
680.785	0.0142297
680.863	0.0142277
680.941	0.0143113
681.019	0.0142783
681.097	0.0142703
681.175	0.0142024
681.253	0.0142715
681.331	0.0143336
681.410	0.0142963
681.488	0.0141560
681.566	0.0141859
681.644	0.0142976
681.722	0.0143302
681.800	0.0143122
681.878	0.0142875
681.956	0.0142452
682.035	0.0143031
682.113	0.0142532
682.191	0.0141950
682.269	0.0141706
682.347	0.0142870
682.425	0.0144619
682.503	0.0142946
682.581	0.0142052
682.660	0.0143141
682.738	0.0143161
682.816	0.0141503
682.894	0.0142660
682.972	0.0143559
683.050	0.0143076
683.128	0.0142414
683.206	0.0142144
683.285	0.0142886
683.363	0.0142931
683.441	0.0144397
683.519	0.0142583
683.597	0.0143048
683.675	0.0144000
683.753	0.0142908
683.831	0.0142328
683.910	0.0142716
683.988	0.0141913
684.066	0.0141226
684.144	0.0142501
684.222	0.0142566
684.300	0.0141924
684.378	0.0143565
684.456	0.0143813
684.535	0.0142980
684.613	0.0144185
684.691	0.0142012
684.769	0.0141994
684.847	0.0143944
684.925	0.0143785
685.003	0.0142557
685.081	0.0141061
685.160	0.0142649
685.238	0.0143247
685.316	0.0141891
685.394	0.0142229
685.472	0.0142990
685.550	0.0142214
685.628	0.0143613
685.706	0.0143307
685.785	0.0142930
685.863	0.0141492
685.941	0.0142989
686.019	0.0143433
686.097	0.0142097
686.175	0.0142498
686.253	0.0143407
686.331	0.0142354
686.410	0.0143602
686.488	0.0142870
686.566	0.0142141
686.644	0.0143903
686.722	0.0143889
686.800	0.0143900
686.878	0.0143932
686.956	0.0143771
687.035	0.0141725
687.113	0.0141795
687.191	0.0142613
687.269	0.0143155
687.347	0.0142856
687.425	0.0142123
687.503	0.0144350
687.581	0.0143636
687.660	0.0142103
687.738	0.0142653
687.816	0.0143971
687.894	0.0142672
687.972	0.0143704
688.050	0.0141833
688.128	0.0141483
688.206	0.0141762
688.285	0.0142464
688.363	0.0141943
688.441	0.0142017
688.519	0.0142382
688.597	0.0143011
688.675	0.0142004
688.753	0.0143734
688.831	0.0142725
688.910	0.0144065
688.988	0.0141183
689.066	0.0142422
689.144	0.0143678
689.222	0.0142824
689.300	0.0142564
689.378	0.0143458
689.456	0.0142429
689.535	0.0142776
689.613	0.0142849
689.691	0.0142318
689.769	0.0143264
689.847	0.0142501
689.925	0.0143019
690.003	0.0143695
690.081	0.0142563
690.160	0.0141563
690.238	0.0143137
690.316	0.0143365
690.394	0.0143307
690.472	0.0143063
690.550	0.0142579
690.628	0.0144260
690.706	0.0143197
690.785	0.0143733
690.863	0.0142889
690.941	0.0142902
691.019	0.0143191
691.097	0.0141903
691.175	0.0142249
691.253	0.0143068
691.331	0.0141667
691.410	0.0143286
691.488	0.0142606
691.566	0.0143760
691.644	0.0144737
691.722	0.0142856
691.800	0.0142729
691.878	0.0142721
691.956	0.0142799
692.035	0.0142688
692.113	0.0141907
692.191	0.0141682
692.269	0.0141889
692.347	0.0142619
692.425	0.0142386
692.503	0.0143033
692.581	0.0143604
692.660	0.0143739
692.738	0.0144622
692.816	0.0142800
692.894	0.0143163
692.972	0.0142300
693.050	0.0142452
693.128	0.0142619
693.206	0.0143300
693.285	0.0143774
693.363	0.0143076
693.441	0.0143045
693.519	0.0142826
693.597	0.0142314
693.675	0.0143681
693.753	0.0143784
693.831	0.0142914
693.910	0.0143002
693.988	0.0143774
694.066	0.0142884
694.144	0.0144009
694.222	0.0143224
694.300	0.0142208
694.378	0.0143333
694.456	0.0143337
694.535	0.0141570
694.613	0.0142319
694.691	0.0143505
694.769	0.0144413
694.847	0.0142528
694.925	0.0142365
695.003	0.0141138
695.081	0.0141588
695.160	0.0141681
695.238	0.0142702
695.316	0.0142728
695.394	0.0143124
695.472	0.0141967
695.550	0.0142737
695.628	0.0143457
695.706	0.0144193
695.785	0.0143595
695.863	0.0142798
695.941	0.0143645
696.019	0.0143027
696.097	0.0143603
696.175	0.0142686
696.253	0.0143176
696.331	0.0144080
696.410	0.0142449
696.488	0.0141211
696.566	0.0143312
696.644	0.0142795
696.722	0.0142744
696.800	0.0143150
696.878	0.0143507
696.956	0.0142475
697.035	0.0142260
697.113	0.0144125
697.191	0.0143953
697.269	0.0142957
697.347	0.0141920
697.425	0.0143886
697.503	0.0143021
697.581	0.0142961
697.660	0.0142936
697.738	0.0143002
697.816	0.0142509
697.894	0.0141756
697.972	0.0143242
698.050	0.0142320
698.128	0.0141765
698.206	0.0142233
698.285	0.0142525
698.363	0.0142996
698.441	0.0141712
698.519	0.0141881
698.597	0.0143269
698.675	0.0142995
698.753	0.0143053
698.831	0.0141614
698.910	0.0141798
698.988	0.0142719
699.066	0.0143008
699.144	0.0143529
699.222	0.0142019
699.300	0.0141640
699.378	0.0143478
699.456	0.0143555
699.535	0.0141874
699.613	0.0143518
699.691	0.0142826
699.769	0.0142718
699.847	0.0143658
699.925	0.0143678
700.003	0.0142311
700.081	0.0142880
700.160	0.0143761
700.238	0.0143226
700.316	0.0142726
700.394	0.0141930
700.472	0.0142942
700.550	0.0142634
700.628	0.0142587
700.706	0.0142194
700.785	0.0142240
700.863	0.0142744
700.941	0.0143362
701.019	0.0141723
701.097	0.0141657
701.175	0.0142749
701.253	0.0141742
701.331	0.0141279
701.410	0.0141143
701.488	0.0142996
701.566	0.0141884
701.644	0.0143156
701.722	0.0143938
701.800	0.0142676
701.878	0.0143391
701.956	0.0143561
702.035	0.0141992
702.113	0.0140488
702.191	0.0142215
702.269	0.0142999
702.347	0.0144138
702.425	0.0142354
702.503	0.0142458
702.581	0.0142720
702.660	0.0143658
702.738	0.0142317
702.816	0.0142768
702.894	0.0141953
702.972	0.0142333
703.050	0.0144045
703.128	0.0142458
703.206	0.0141921
703.285	0.0142215
703.363	0.0141583
703.441	0.0142915
703.519	0.0142899
703.597	0.0143620
703.675	0.0142510
703.753	0.0142495
703.831	0.0142793
703.910	0.0143864
703.988	0.0142249
704.066	0.0142120
704.144	0.0142536
704.222	0.0143063
704.300	0.0143400
704.378	0.0143057
704.456	0.0141830
704.535	0.0142727
704.613	0.0142830
704.691	0.0142889
704.769	0.0141673
704.847	0.0143083
704.925	0.0143731
705.003	0.0143557
705.081	0.0143748
705.160	0.0144128
705.238	0.0145132
705.316	0.0144034
705.394	0.0143542
705.472	0.0145036
705.550	0.0144358
705.628	0.0144193
705.706	0.0144608
705.785	0.0141864
705.863	0.0141622
705.941	0.0142358
706.019	0.0143577
706.097	0.0142263
706.175	0.0142298
706.253	0.0142430
706.331	0.0142455
706.410	0.0142704
706.488	0.0142634
706.566	0.0142102
706.644	0.0142448
706.722	0.0143804
706.800	0.0144048
706.878	0.0144495
706.956	0.0143860
707.035	0.0144631
707.113	0.0144950
707.191	0.0144678
707.269	0.0145033
707.347	0.0143745
707.425	0.0145085
707.503	0.0145296
707.581	0.0145152
707.660	0.0144488
707.738	0.0144289
707.816	0.0143475
707.894	0.0143471
707.972	0.0143990
708.050	0.0143053
708.128	0.0142868
708.206	0.0142264
708.285	0.0141121
708.363	0.0140472
708.441	0.0140492
708.519	0.0139270
708.597	0.0137555
708.675	0.0137672
708.753	0.0136526
708.831	0.0133434
708.910	0.0132555
708.988	0.0130686
709.066	0.0127805
709.144	0.0128535
709.222	0.0127330
709.300	0.0127416
709.378	0.0129738
709.456	0.0131470
709.535	0.0136241
709.613	0.0140136
709.691	0.0145161
709.769	0.0152337
709.847	0.0155981
709.925	0.0156032
710.003	0.0156947
710.081	0.0155238
710.160	0.0153008
710.238	0.0150089
710.316	0.0144408
710.394	0.0139156
710.472	0.0136410
710.550	0.0134241
710.628	0.0131577
710.706	0.0130036
710.785	0.0131754
710.863	0.0132921
710.941	0.0137129
711.019	0.0139776
711.097	0.0141934
711.175	0.0145823
711.253	0.0148862
711.331	0.0151172
711.410	0.0156577
711.488	0.0159528
711.566	0.0158810
711.644	0.0162289
711.722	0.0163032
711.800	0.0164626
711.878	0.0165782
711.956	0.0163285
712.035	0.0162146
712.113	0.0158440
712.191	0.0154913
712.269	0.0151420
712.347	0.0146732
712.425	0.0142841
712.503	0.0139487
712.581	0.0136793
712.660	0.0134231
712.738	0.0131765
712.816	0.0129630
712.894	0.0129111
712.972	0.0127056
713.050	0.0127486
713.128	0.0127217
713.206	0.0126862
713.285	0.0127991
713.363	0.0129364
713.441	0.0128842
713.519	0.0130547
713.597	0.0132757
713.675	0.0132645
713.753	0.0134381
713.831	0.0136214
713.910	0.0137664
713.988	0.0136641
714.066	0.0138116
714.144	0.0139446
714.222	0.0141844
714.300	0.0142888
714.378	0.0142504
714.456	0.0142830
714.535	0.0144048
714.613	0.0144209
714.691	0.0146636
714.769	0.0146934
714.847	0.0148536
714.925	0.0149572
715.003	0.0151952
715.081	0.0153429
715.160	0.0154933
715.238	0.0155383
715.316	0.0156048
715.394	0.0158353
715.472	0.0159166
715.550	0.0158829
715.628	0.0157611
715.706	0.0159081
715.785	0.0157663
715.863	0.0155300
715.941	0.0154520
716.019	0.0151769
716.097	0.0149586
716.175	0.0146838
716.253	0.0144328
716.331	0.0141922
716.410	0.0138670
716.488	0.0135004
716.566	0.0131313
716.644	0.0131718
716.722	0.0129592
716.800	0.0129100
716.878	0.0127406
716.956	0.0127638
717.035	0.0127421
717.113	0.0127384
717.191	0.0128610
717.269	0.0129452
717.347	0.0128696
717.425	0.0128544
717.503	0.0130794
717.581	0.0131636
717.660	0.0133103
717.738	0.0134399
717.816	0.0135866
717.894	0.0137605
717.972	0.0140462
718.050	0.0143322
718.128	0.0143972
718.206	0.0146716
718.285	0.0150367
718.363	0.0153301
718.441	0.0156036
718.519	0.0160483
718.597	0.0163141
718.675	0.0164114
718.753	0.0167446
718.831	0.0167305
718.910	0.0166560
718.988	0.0168600
719.066	0.0168269
719.144	0.0167467
719.222	0.0163900
719.300	0.0162547
719.378	0.0158466
719.456	0.0156234
719.535	0.0151720
719.613	0.0147897
719.691	0.0146428
719.769	0.0142468
719.847	0.0137455
719.925	0.0134795
720.003	0.0132240
720.081	0.0129514
720.160	0.0128458
720.238	0.0126389
720.316	0.0125974
720.394	0.0125057
720.472	0.0123475
720.550	0.0124144
720.628	0.0121915
720.706	0.0123782
720.785	0.0123161
720.863	0.0123972
720.941	0.0123553
721.019	0.0125866
721.097	0.0126020
721.175	0.0126501
721.253	0.0128230
721.331	0.0130972
721.410	0.0130874
721.488	0.0130454
721.566	0.0131886
721.644	0.0134518
721.722	0.0135586
721.800	0.0135616
721.878	0.0136951
721.956	0.0140031
722.035	0.0141348
722.113	0.0143728
722.191	0.0147011
722.269	0.0150363
722.347	0.0151931
722.425	0.0155300
722.503	0.0156258
722.581	0.0159035
722.660	0.0161352
722.738	0.0162207
722.816	0.0162132
722.894	0.0162892
722.972	0.0162193
723.050	0.0163633
723.128	0.0163289
723.206	0.0162383
723.285	0.0160788
723.363	0.0159029
723.441	0.0158669
723.519	0.0158182
723.597	0.0157383
723.675	0.0154491
723.753	0.0154317
723.831	0.0154339
723.910	0.0151764
723.988	0.0149809
724.066	0.0148656
724.144	0.0145326
724.222	0.0144246
724.300	0.0143386
724.378	0.0139236
724.456	0.0138035
724.535	0.0137558
724.613	0.0135248
724.691	0.0132409
724.769	0.0133258
724.847	0.0131863
724.925	0.0130556
725.003	0.0130334
725.081	0.0129031
725.160	0.0130560
725.238	0.0129755
725.316	0.0127627
725.394	0.0127812
725.472	0.0127143
725.550	0.0126083
725.628	0.0126230
725.706	0.0126188
725.785	0.0127952
725.863	0.0128033
725.941	0.0127162
726.019	0.0129108
726.097	0.0130121
726.175	0.0131008
726.253	0.0130727
726.331	0.0132992
726.410	0.0134502
726.488	0.0137105
726.566	0.0139050
726.644	0.0141100
726.722	0.0142513
726.800	0.0143053
726.878	0.0144144
726.956	0.0146149
727.035	0.0145868
727.113	0.0148046
727.191	0.0151783
727.269	0.0152085
727.347	0.0153070
727.425	0.0153944
727.503	0.0157206
727.581	0.0159335
727.660	0.0159052
727.738	0.0159988
727.816	0.0161726
727.894	0.0161440
727.972	0.0160288
728.050	0.0161120
728.128	0.0161429
728.206	0.0160795
728.285	0.0160358
728.363	0.0159888
728.441	0.0160883
728.519	0.0158773
728.597	0.0157719
728.675	0.0157951
728.753	0.0156057
728.831	0.0153828
728.910	0.0153010
728.988	0.0150997
729.066	0.0148681
729.144	0.0146980
729.222	0.0146285
729.300	0.0144074
729.378	0.0142102
729.456	0.0141847
729.535	0.0140233
729.613	0.0139587
729.691	0.0138147
729.769	0.0137738
729.847	0.0135769
729.925	0.0133296
730.003	0.0132324
730.081	0.0131706
730.160	0.0128986
730.238	0.0129597
730.316	0.0129288
730.394	0.0126762
730.472	0.0126120
730.550	0.0126757
730.628	0.0125146
730.706	0.0125303
730.785	0.0125739
730.863	0.0125743
730.941	0.0124491
731.019	0.0126966
731.097	0.0127297
731.175	0.0127486
731.253	0.0128268
731.331	0.0129888
731.410	0.0130010
731.488	0.0130410
731.566	0.0131458
731.644	0.0133863
731.722	0.0135065
731.800	0.0137711
731.878	0.0138595
731.956	0.0140498
732.035	0.0141611
732.113	0.0145573
732.191	0.0146911
732.269	0.0147652
732.347	0.0149419
732.425	0.0150971
732.503	0.0151289
732.581	0.0153206
732.660	0.0152924
732.738	0.0154115
732.816	0.0156478
732.894	0.0155657
732.972	0.0158924
733.050	0.0158243
733.128	0.0157140
733.206	0.0159407
733.285	0.0157844
733.363	0.0159167
733.441	0.0158433
733.519	0.0158595
733.597	0.0160783
733.675	0.0158620
733.753	0.0157394
733.831	0.0157951
733.910	0.0158262
733.988	0.0157691
734.066	0.0157956
734.144	0.0157536
734.222	0.0156480
734.300	0.0155514
734.378	0.0154881
734.456	0.0151695
734.535	0.0150794
734.613	0.0148786
734.691	0.0145338
734.769	0.0143955
734.847	0.0141917
734.925	0.0140382
735.003	0.0138455
735.081	0.0135836
735.160	0.0135055
735.238	0.0135490
735.316	0.0134126
735.394	0.0133839
735.472	0.0133629
735.550	0.0134238
735.628	0.0133624
735.706	0.0133627
735.785	0.0134215
735.863	0.0134704
735.941	0.0132108
736.019	0.0132587
736.097	0.0132368
736.175	0.0131824
736.253	0.0132187
736.331	0.0131966
736.410	0.0131985
736.488	0.0132034
736.566	0.0130470
736.644	0.0131725
736.722	0.0132355
736.800	0.0130383
736.878	0.0131184
736.956	0.0132472
737.035	0.0133137
737.113	0.0133724
737.191	0.0133978
737.269	0.0134880
737.347	0.0135875
737.425	0.0137883
737.503	0.0137027
737.581	0.0140800
737.660	0.0141547
737.738	0.0142426
737.816	0.0143690
737.894	0.0146966
737.972	0.0147187
738.050	0.0146497
738.128	0.0148180
738.206	0.0149078
738.285	0.0149499
738.363	0.0150926
738.441	0.0152526
738.519	0.0151978
738.597	0.0153061
738.675	0.0153226
738.753	0.0154405
738.831	0.0154612
738.910	0.0152744
738.988	0.0153117
739.066	0.0155042
739.144	0.0155773
739.222	0.0156221
739.300	0.0154577
739.378	0.0155930
739.456	0.0154578
739.535	0.0153891
739.613	0.0155016
739.691	0.0155044
739.769	0.0152607
739.847	0.0151571
739.925	0.0151394
740.003	0.0152473
740.081	0.0150574
740.160	0.0149348
740.238	0.0148309
740.316	0.0148119
740.394	0.0147688
740.472	0.0144662
740.550	0.0144835
740.628	0.0145406
740.706	0.0142426
740.785	0.0142041
740.863	0.0142414
740.941	0.0139994
741.019	0.0139841
741.097	0.0139240
741.175	0.0140943
741.253	0.0137880
741.331	0.0138657
741.410	0.0138007
741.488	0.0138080
741.566	0.0139967
741.644	0.0137329
741.722	0.0136655
741.800	0.0136002
741.878	0.0136286
741.956	0.0135487
742.035	0.0134606
742.113	0.0134721
742.191	0.0133656
742.269	0.0134043
742.347	0.0133491
742.425	0.0132076
742.503	0.0132201
742.581	0.0132102
742.660	0.0132104
742.738	0.0131136
742.816	0.0130740
742.894	0.0130759
742.972	0.0131664
743.050	0.0132282
743.128	0.0134087
743.206	0.0135197
743.285	0.0135525
743.363	0.0135310
743.441	0.0136004
743.519	0.0136445
743.597	0.0137460
743.675	0.0140039
743.753	0.0139121
743.831	0.0140020
743.910	0.0140114
743.988	0.0141595
744.066	0.0142455
744.144	0.0142171
744.222	0.0143358
744.300	0.0144409
744.378	0.0144373
744.456	0.0146715
744.535	0.0146683
744.613	0.0147087
744.691	0.0148244
744.769	0.0147508
744.847	0.0149405
744.925	0.0151508
745.003	0.0151108
745.081	0.0150941
745.160	0.0152483
745.238	0.0150508
745.316	0.0152396
745.394	0.0152565
745.472	0.0152921
745.550	0.0152415
745.628	0.0151941
745.706	0.0151626
