05/03/2022	20:28:37	Ver.	4.1	UNKNOWN
Optical Delay	660.003261	Delta X		0.078125	Sweeps	1	Scan Rate	0/0
Coordinates	Axis 1	NaN	Axis 2	NaN	Axis 3	NaN	Axis 4	NaN	Axis 5	NaN	Axis 6	0.000000
TX Power	0.000000	RX Power	0.000000

660.003	0.0148700
660.081	0.0149483
660.160	0.0148801
660.238	0.0148706
660.316	0.0148102
660.394	0.0148624
660.472	0.0148065
660.550	0.0148063
660.628	0.0148041
660.706	0.0149184
660.785	0.0149026
660.863	0.0148198
660.941	0.0149866
661.019	0.0148505
661.097	0.0147319
661.175	0.0149335
661.253	0.0149309
661.331	0.0148996
661.410	0.0149057
661.488	0.0147736
661.566	0.0148302
661.644	0.0149821
661.722	0.0149066
661.800	0.0149605
661.878	0.0148799
661.956	0.0149570
662.035	0.0147090
662.113	0.0149506
662.191	0.0150705
662.269	0.0151724
662.347	0.0148972
662.425	0.0147427
662.503	0.0149073
662.581	0.0150176
662.660	0.0149575
662.738	0.0148943
662.816	0.0151342
662.894	0.0151372
662.972	0.0149469
663.050	0.0149372
663.128	0.0149585
663.206	0.0148776
663.285	0.0149454
663.363	0.0150111
663.441	0.0149532
663.519	0.0149467
663.597	0.0149613
663.675	0.0149525
663.753	0.0149223
663.831	0.0149363
663.910	0.0150467
663.988	0.0150006
664.066	0.0149672
664.144	0.0149583
664.222	0.0150392
664.300	0.0150304
664.378	0.0149949
664.456	0.0149599
664.535	0.0149905
664.613	0.0149224
664.691	0.0150349
664.769	0.0150648
664.847	0.0151167
664.925	0.0148746
665.003	0.0150918
665.081	0.0150215
665.160	0.0150611
665.238	0.0148420
665.316	0.0149884
665.394	0.0151140
665.472	0.0149979
665.550	0.0149601
665.628	0.0150867
665.706	0.0150291
665.785	0.0149291
665.863	0.0150026
665.941	0.0151275
666.019	0.0150833
666.097	0.0148598
666.175	0.0149731
666.253	0.0149408
666.331	0.0148194
666.410	0.0149063
666.488	0.0149609
666.566	0.0149470
666.644	0.0149522
666.722	0.0149470
666.800	0.0149703
666.878	0.0149372
666.956	0.0150034
667.035	0.0150403
667.113	0.0149937
667.191	0.0150123
667.269	0.0148365
667.347	0.0148927
667.425	0.0150597
667.503	0.0147382
667.581	0.0149426
667.660	0.0149458
667.738	0.0148598
667.816	0.0148639
667.894	0.0149332
667.972	0.0148378
668.050	0.0148469
668.128	0.0149887
668.206	0.0149854
668.285	0.0149282
668.363	0.0148698
668.441	0.0149861
668.519	0.0150479
668.597	0.0148917
668.675	0.0149155
668.753	0.0148463
668.831	0.0148753
668.910	0.0150606
668.988	0.0149016
669.066	0.0149062
669.144	0.0149104
669.222	0.0149918
669.300	0.0148730
669.378	0.0148324
669.456	0.0147994
669.535	0.0150330
669.613	0.0149475
669.691	0.0149295
669.769	0.0149281
669.847	0.0148846
669.925	0.0149223
670.003	0.0150681
670.081	0.0148714
670.160	0.0148035
670.238	0.0148719
670.316	0.0148827
670.394	0.0148513
670.472	0.0149044
670.550	0.0149168
670.628	0.0147875
670.706	0.0147906
670.785	0.0148522
670.863	0.0149488
670.941	0.0148261
671.019	0.0148925
671.097	0.0149939
671.175	0.0149604
671.253	0.0148451
671.331	0.0147539
671.410	0.0147815
671.488	0.0148322
671.566	0.0148623
671.644	0.0147780
671.722	0.0148096
671.800	0.0148436
671.878	0.0149539
671.956	0.0148819
672.035	0.0147448
672.113	0.0148543
672.191	0.0148898
672.269	0.0149920
672.347	0.0150079
672.425	0.0148829
672.503	0.0149003
672.581	0.0147861
672.660	0.0149570
672.738	0.0149087
672.816	0.0148393
672.894	0.0148115
672.972	0.0148418
673.050	0.0148375
673.128	0.0148844
673.206	0.0149860
673.285	0.0149396
673.363	0.0148744
673.441	0.0148119
673.519	0.0148022
673.597	0.0148556
673.675	0.0147734
673.753	0.0149403
673.831	0.0150166
673.910	0.0149383
673.988	0.0148586
674.066	0.0147623
674.144	0.0148269
674.222	0.0148715
674.300	0.0147765
674.378	0.0148566
674.456	0.0149230
674.535	0.0147946
674.613	0.0147755
674.691	0.0148353
674.769	0.0148181
674.847	0.0149553
674.925	0.0148319
675.003	0.0148353
675.081	0.0148277
675.160	0.0149091
675.238	0.0148547
675.316	0.0148754
675.394	0.0147855
675.472	0.0149173
675.550	0.0148439
675.628	0.0148222
675.706	0.0150220
675.785	0.0149052
675.863	0.0147773
675.941	0.0147681
676.019	0.0148712
676.097	0.0148554
676.175	0.0148508
676.253	0.0149588
676.331	0.0147964
676.410	0.0148863
676.488	0.0148133
676.566	0.0149385
676.644	0.0148339
676.722	0.0149532
676.800	0.0147446
676.878	0.0147953
676.956	0.0147953
677.035	0.0148247
677.113	0.0149097
677.191	0.0149760
677.269	0.0148795
677.347	0.0147821
677.425	0.0148518
677.503	0.0150173
677.581	0.0148631
677.660	0.0148494
677.738	0.0149434
677.816	0.0149292
677.894	0.0148138
677.972	0.0149319
678.050	0.0150773
678.128	0.0148402
678.206	0.0149821
678.285	0.0148519
678.363	0.0147849
678.441	0.0148798
678.519	0.0147731
678.597	0.0149223
678.675	0.0150662
678.753	0.0149017
678.831	0.0148930
678.910	0.0149271
678.988	0.0149995
679.066	0.0149384
679.144	0.0148115
679.222	0.0148418
679.300	0.0148937
679.378	0.0150185
679.456	0.0148344
679.535	0.0148557
679.613	0.0150029
679.691	0.0148980
679.769	0.0150698
679.847	0.0149014
679.925	0.0149286
680.003	0.0149484
680.081	0.0150147
680.160	0.0149625
680.238	0.0148773
680.316	0.0147855
680.394	0.0149051
680.472	0.0149053
680.550	0.0148515
680.628	0.0147891
680.706	0.0150315
680.785	0.0148505
680.863	0.0147472
680.941	0.0148662
681.019	0.0149551
681.097	0.0148125
681.175	0.0149115
681.253	0.0148789
681.331	0.0148259
681.410	0.0149132
681.488	0.0148103
681.566	0.0148113
681.644	0.0149610
681.722	0.0149438
681.800	0.0149138
681.878	0.0149162
681.956	0.0149915
682.035	0.0148269
682.113	0.0148543
682.191	0.0148031
682.269	0.0148450
682.347	0.0149694
682.425	0.0150861
682.503	0.0149921
682.581	0.0148682
682.660	0.0149443
682.738	0.0148630
682.816	0.0147694
682.894	0.0149332
682.972	0.0150224
683.050	0.0148801
683.128	0.0150020
683.206	0.0149296
683.285	0.0149550
683.363	0.0148697
683.441	0.0148730
683.519	0.0148321
683.597	0.0148757
683.675	0.0149664
683.753	0.0149238
683.831	0.0148531
683.910	0.0148444
683.988	0.0150114
684.066	0.0148589
684.144	0.0148217
684.222	0.0149467
684.300	0.0148792
684.378	0.0149201
684.456	0.0149946
684.535	0.0148245
684.613	0.0148043
684.691	0.0149791
684.769	0.0149274
684.847	0.0148199
684.925	0.0149992
685.003	0.0149938
685.081	0.0148396
685.160	0.0148933
685.238	0.0149307
685.316	0.0150296
685.394	0.0148954
685.472	0.0149835
685.550	0.0148442
685.628	0.0148798
685.706	0.0150523
685.785	0.0149101
685.863	0.0148331
685.941	0.0149059
686.019	0.0148986
686.097	0.0149020
686.175	0.0148205
686.253	0.0149218
686.331	0.0148312
686.410	0.0148631
686.488	0.0147982
686.566	0.0149495
686.644	0.0147694
686.722	0.0148679
686.800	0.0149358
686.878	0.0148846
686.956	0.0148723
687.035	0.0148679
687.113	0.0149337
687.191	0.0149240
687.269	0.0148985
687.347	0.0148754
687.425	0.0149168
687.503	0.0150961
687.581	0.0149004
687.660	0.0149983
687.738	0.0148563
687.816	0.0149809
687.894	0.0149207
687.972	0.0147713
688.050	0.0149929
688.128	0.0149067
688.206	0.0148722
688.285	0.0148247
688.363	0.0149681
688.441	0.0149429
688.519	0.0150031
688.597	0.0149870
688.675	0.0149348
688.753	0.0149190
688.831	0.0148207
688.910	0.0148536
688.988	0.0149596
689.066	0.0149686
689.144	0.0148114
689.222	0.0148541
689.300	0.0148663
689.378	0.0150045
689.456	0.0147920
689.535	0.0148750
689.613	0.0149909
689.691	0.0149018
689.769	0.0149451
689.847	0.0149097
689.925	0.0149070
690.003	0.0149998
690.081	0.0148180
690.160	0.0149574
690.238	0.0149619
690.316	0.0149333
690.394	0.0148222
690.472	0.0148676
690.550	0.0148449
690.628	0.0148048
690.706	0.0149818
690.785	0.0147816
690.863	0.0147467
690.941	0.0147430
691.019	0.0147717
691.097	0.0147651
691.175	0.0148116
691.253	0.0147756
691.331	0.0150623
691.410	0.0149190
691.488	0.0149985
691.566	0.0149088
691.644	0.0150838
691.722	0.0152183
691.800	0.0150802
691.878	0.0150268
691.956	0.0151958
692.035	0.0151965
692.113	0.0150453
692.191	0.0150912
692.269	0.0151864
692.347	0.0150705
692.425	0.0150632
692.503	0.0149140
692.581	0.0147414
692.660	0.0149411
692.738	0.0148911
692.816	0.0147443
692.894	0.0148248
692.972	0.0146214
693.050	0.0146786
693.128	0.0145945
693.206	0.0147279
693.285	0.0144836
693.363	0.0145107
693.441	0.0145052
693.519	0.0147350
693.597	0.0146783
693.675	0.0146918
693.753	0.0146130
693.831	0.0148335
693.910	0.0148833
693.988	0.0148828
694.066	0.0148843
694.144	0.0151064
694.222	0.0151813
694.300	0.0151212
694.378	0.0151400
694.456	0.0152383
694.535	0.0152036
694.613	0.0152019
694.691	0.0152878
694.769	0.0153555
694.847	0.0154133
694.925	0.0153463
695.003	0.0152331
695.081	0.0153502
695.160	0.0151268
695.238	0.0150916
695.316	0.0151558
695.394	0.0152165
695.472	0.0149669
695.550	0.0149728
695.628	0.0148717
695.706	0.0148630
695.785	0.0147319
695.863	0.0146162
695.941	0.0145407
696.019	0.0146410
696.097	0.0145136
696.175	0.0144352
696.253	0.0143761
696.331	0.0143345
696.410	0.0144389
696.488	0.0145287
696.566	0.0144357
696.644	0.0144069
696.722	0.0144610
696.800	0.0145829
696.878	0.0144930
696.956	0.0144970
697.035	0.0147532
697.113	0.0147127
697.191	0.0146998
697.269	0.0148591
697.347	0.0150611
697.425	0.0150444
697.503	0.0149776
697.581	0.0150024
697.660	0.0149361
697.738	0.0151040
697.816	0.0152381
697.894	0.0151939
697.972	0.0153653
698.050	0.0154241
698.128	0.0153897
698.206	0.0155250
698.285	0.0155976
698.363	0.0156439
698.441	0.0156496
698.519	0.0155993
698.597	0.0155299
698.675	0.0156607
698.753	0.0156432
698.831	0.0156611
698.910	0.0157121
698.988	0.0155065
699.066	0.0156450
699.144	0.0155468
699.222	0.0152930
699.300	0.0152753
699.378	0.0150437
699.456	0.0148857
699.535	0.0147807
699.613	0.0145338
699.691	0.0142528
699.769	0.0140023
699.847	0.0138721
699.925	0.0138782
700.003	0.0136690
700.081	0.0136382
700.160	0.0138450
700.238	0.0137835
700.316	0.0138885
700.394	0.0142086
700.472	0.0142789
700.550	0.0144036
700.628	0.0145751
700.706	0.0146255
700.785	0.0148776
700.863	0.0149384
700.941	0.0149098
701.019	0.0150508
701.097	0.0152042
701.175	0.0152728
701.253	0.0151704
701.331	0.0151698
701.410	0.0152266
701.488	0.0152953
701.566	0.0152524
701.644	0.0152466
701.722	0.0150531
701.800	0.0151091
701.878	0.0150243
701.956	0.0149725
702.035	0.0149814
702.113	0.0151329
702.191	0.0149866
702.269	0.0149276
702.347	0.0150175
702.425	0.0148228
702.503	0.0149802
702.581	0.0150089
702.660	0.0150378
702.738	0.0152364
702.816	0.0155149
702.894	0.0154652
702.972	0.0156799
703.050	0.0158395
703.128	0.0159734
703.206	0.0158191
703.285	0.0159806
703.363	0.0160596
703.441	0.0161278
703.519	0.0159936
703.597	0.0158900
703.675	0.0157371
703.753	0.0155249
703.831	0.0153468
703.910	0.0150908
703.988	0.0147381
704.066	0.0145905
704.144	0.0145503
704.222	0.0143664
704.300	0.0139967
704.378	0.0138377
704.456	0.0137173
704.535	0.0136834
704.613	0.0137048
704.691	0.0136264
704.769	0.0135872
704.847	0.0137928
704.925	0.0137668
705.003	0.0139709
705.081	0.0140096
705.160	0.0141151
705.238	0.0143607
705.316	0.0142056
705.394	0.0142742
705.472	0.0145415
705.550	0.0146223
705.628	0.0148031
705.706	0.0149855
705.785	0.0151957
705.863	0.0154213
705.941	0.0154710
706.019	0.0155994
706.097	0.0157079
706.175	0.0156939
706.253	0.0156020
706.331	0.0154822
706.410	0.0152196
706.488	0.0152516
706.566	0.0149577
706.644	0.0146043
706.722	0.0147573
706.800	0.0148666
706.878	0.0144633
706.956	0.0145032
707.035	0.0145145
707.113	0.0146922
707.191	0.0147668
707.269	0.0147265
707.347	0.0146749
707.425	0.0150782
707.503	0.0151142
707.581	0.0151342
707.660	0.0153438
707.738	0.0152754
707.816	0.0156338
707.894	0.0158936
707.972	0.0159552
708.050	0.0161709
708.128	0.0163718
708.206	0.0162820
708.285	0.0162885
708.363	0.0163067
708.441	0.0162613
708.519	0.0161065
708.597	0.0159185
708.675	0.0158280
708.753	0.0155223
708.831	0.0153360
708.910	0.0152038
708.988	0.0149490
709.066	0.0147635
709.144	0.0147214
709.222	0.0145584
709.300	0.0141841
709.378	0.0140311
709.456	0.0139733
709.535	0.0138686
709.613	0.0137064
709.691	0.0138502
709.769	0.0137215
709.847	0.0137574
709.925	0.0138321
710.003	0.0136577
710.081	0.0135565
710.160	0.0137541
710.238	0.0137989
710.316	0.0138091
710.394	0.0139027
710.472	0.0140291
710.550	0.0141212
710.628	0.0142876
710.706	0.0144834
710.785	0.0145320
710.863	0.0147140
710.941	0.0149379
711.019	0.0151286
711.097	0.0153001
711.175	0.0154462
711.253	0.0154663
711.331	0.0155782
711.410	0.0154700
711.488	0.0154385
711.566	0.0155653
711.644	0.0154251
711.722	0.0152583
711.800	0.0152046
711.878	0.0151482
711.956	0.0151717
712.035	0.0151112
712.113	0.0149134
712.191	0.0148521
712.269	0.0150707
712.347	0.0148207
712.425	0.0150347
712.503	0.0151169
712.581	0.0151012
712.660	0.0152029
712.738	0.0154592
712.816	0.0155692
712.894	0.0156918
712.972	0.0159273
713.050	0.0160739
713.128	0.0161425
713.206	0.0162040
713.285	0.0163820
713.363	0.0165168
713.441	0.0165161
713.519	0.0165929
713.597	0.0166183
713.675	0.0163792
713.753	0.0161079
713.831	0.0158539
713.910	0.0157253
713.988	0.0153920
714.066	0.0149691
714.144	0.0148138
714.222	0.0145222
714.300	0.0142573
714.378	0.0142685
714.456	0.0141204
714.535	0.0140565
714.613	0.0139556
714.691	0.0136900
714.769	0.0137625
714.847	0.0135999
714.925	0.0135489
715.003	0.0136217
715.081	0.0135480
715.160	0.0136774
715.238	0.0136169
715.316	0.0136819
715.394	0.0139382
715.472	0.0138772
715.550	0.0140228
715.628	0.0142016
715.706	0.0141232
715.785	0.0142305
715.863	0.0145402
715.941	0.0145329
716.019	0.0146552
716.097	0.0146537
716.175	0.0148446
716.253	0.0149149
716.331	0.0149953
716.410	0.0149085
716.488	0.0151632
716.566	0.0151295
716.644	0.0151518
716.722	0.0151584
716.800	0.0152042
716.878	0.0152011
716.956	0.0151633
717.035	0.0151177
717.113	0.0151390
717.191	0.0153142
717.269	0.0151833
717.347	0.0150800
717.425	0.0151936
717.503	0.0152666
717.581	0.0153614
717.660	0.0153030
717.738	0.0154057
717.816	0.0153729
717.894	0.0156491
717.972	0.0157384
718.050	0.0158946
718.128	0.0158877
718.206	0.0158327
718.285	0.0158962
718.363	0.0160563
718.441	0.0162569
718.519	0.0162189
718.597	0.0162605
718.675	0.0163744
718.753	0.0162133
718.831	0.0161100
718.910	0.0161446
718.988	0.0160011
719.066	0.0160060
719.144	0.0159083
719.222	0.0155561
719.300	0.0152020
719.378	0.0151691
719.456	0.0148725
719.535	0.0147390
719.613	0.0146408
719.691	0.0143882
719.769	0.0142067
719.847	0.0142157
719.925	0.0140794
720.003	0.0139662
720.081	0.0136449
720.160	0.0135598
720.238	0.0134773
720.316	0.0133688
720.394	0.0133518
720.472	0.0133554
720.550	0.0133921
720.628	0.0135149
720.706	0.0136431
720.785	0.0138540
720.863	0.0138393
720.941	0.0139622
721.019	0.0142275
721.097	0.0144242
721.175	0.0146359
721.253	0.0146839
721.331	0.0148592
721.410	0.0149226
721.488	0.0148750
721.566	0.0150014
721.644	0.0149485
721.722	0.0149875
721.800	0.0149140
721.878	0.0149254
721.956	0.0149025
722.035	0.0146704
722.113	0.0148180
722.191	0.0147645
722.269	0.0148372
722.347	0.0148379
722.425	0.0149892
722.503	0.0149651
722.581	0.0148866
722.660	0.0150326
722.738	0.0149807
722.816	0.0151244
722.894	0.0152377
722.972	0.0154076
723.050	0.0155888
723.128	0.0156089
723.206	0.0157182
723.285	0.0158302
723.363	0.0160544
723.441	0.0161073
723.519	0.0161568
723.597	0.0162643
723.675	0.0163686
723.753	0.0164434
723.831	0.0164264
723.910	0.0163467
723.988	0.0162782
724.066	0.0161123
724.144	0.0160493
724.222	0.0157828
724.300	0.0158336
724.378	0.0155006
724.456	0.0153836
724.535	0.0152695
724.613	0.0150257
724.691	0.0150146
724.769	0.0148577
724.847	0.0148792
724.925	0.0148654
725.003	0.0144984
725.081	0.0143627
725.160	0.0143990
725.238	0.0143052
725.316	0.0141664
725.394	0.0140810
725.472	0.0139963
725.550	0.0139465
725.628	0.0137834
725.706	0.0137196
725.785	0.0135720
725.863	0.0134164
725.941	0.0136372
726.019	0.0134385
726.097	0.0136917
726.175	0.0138805
726.253	0.0138915
726.331	0.0139600
726.410	0.0140634
726.488	0.0142104
726.566	0.0142570
726.644	0.0143456
726.722	0.0145275
726.800	0.0145982
726.878	0.0147153
726.956	0.0146281
727.035	0.0147372
727.113	0.0147178
727.191	0.0146744
727.269	0.0146648
727.347	0.0147305
727.425	0.0148191
727.503	0.0147329
727.581	0.0147094
727.660	0.0148496
727.738	0.0147298
727.816	0.0146570
727.894	0.0147199
727.972	0.0148631
728.050	0.0146615
728.128	0.0148008
728.206	0.0149961
728.285	0.0150613
728.363	0.0151987
728.441	0.0153663
728.519	0.0155273
728.597	0.0157761
728.675	0.0159223
728.753	0.0161955
728.831	0.0161926
728.910	0.0163821
728.988	0.0164188
729.066	0.0164139
729.144	0.0164374
729.222	0.0164086
729.300	0.0163680
729.378	0.0162719
729.456	0.0162605
729.535	0.0159755
729.613	0.0160181
729.691	0.0158431
729.769	0.0156487
729.847	0.0155240
729.925	0.0154372
730.003	0.0153375
730.081	0.0151085
730.160	0.0150568
730.238	0.0149926
730.316	0.0148893
730.394	0.0146536
730.472	0.0145608
730.550	0.0144478
730.628	0.0143850
730.706	0.0142591
730.785	0.0140778
730.863	0.0139608
730.941	0.0138977
731.019	0.0138484
731.097	0.0135968
731.175	0.0134929
731.253	0.0134641
731.331	0.0134500
731.410	0.0135012
731.488	0.0135519
731.566	0.0136271
731.644	0.0135721
731.722	0.0137147
731.800	0.0137946
731.878	0.0139651
731.956	0.0141195
732.035	0.0141454
732.113	0.0142790
732.191	0.0144869
732.269	0.0145304
732.347	0.0145434
732.425	0.0146088
732.503	0.0145287
732.581	0.0147087
732.660	0.0148112
732.738	0.0147150
732.816	0.0147346
732.894	0.0147172
732.972	0.0147307
733.050	0.0147949
733.128	0.0146469
733.206	0.0146583
733.285	0.0147684
733.363	0.0147737
733.441	0.0148155
733.519	0.0149671
733.597	0.0153216
733.675	0.0153997
733.753	0.0154729
733.831	0.0157656
733.910	0.0158429
733.988	0.0160765
734.066	0.0162151
734.144	0.0163036
734.222	0.0164793
734.300	0.0165284
734.378	0.0164880
734.456	0.0166240
734.535	0.0167211
734.613	0.0163802
734.691	0.0163970
734.769	0.0163725
734.847	0.0162885
734.925	0.0161892
735.003	0.0161646
735.081	0.0160012
735.160	0.0157219
735.238	0.0156527
735.316	0.0155827
735.394	0.0155591
735.472	0.0155360
735.550	0.0153999
735.628	0.0153041
735.706	0.0151490
735.785	0.0152092
735.863	0.0151010
735.941	0.0148446
736.019	0.0147271
736.097	0.0146362
736.175	0.0145009
736.253	0.0144061
736.331	0.0141906
736.410	0.0139951
736.488	0.0138152
736.566	0.0136973
736.644	0.0136916
736.722	0.0134838
736.800	0.0132871
736.878	0.0132523
736.956	0.0133751
737.035	0.0131522
737.113	0.0133315
737.191	0.0133106
737.269	0.0133632
737.347	0.0134795
737.425	0.0134959
737.503	0.0136212
737.581	0.0139486
737.660	0.0141665
737.738	0.0142854
737.816	0.0144273
737.894	0.0145365
737.972	0.0146285
738.050	0.0146291
738.128	0.0146970
738.206	0.0148339
738.285	0.0146070
738.363	0.0147598
738.441	0.0146277
738.519	0.0147771
738.597	0.0146632
738.675	0.0146410
738.753	0.0147965
738.831	0.0148187
738.910	0.0150713
738.988	0.0151810
739.066	0.0153131
739.144	0.0154110
739.222	0.0156021
739.300	0.0158411
739.378	0.0159191
739.456	0.0161214
739.535	0.0162187
739.613	0.0164423
739.691	0.0164321
739.769	0.0164733
739.847	0.0164970
739.925	0.0165201
740.003	0.0165288
740.081	0.0164646
740.160	0.0165660
740.238	0.0165928
740.316	0.0163583
740.394	0.0163831
740.472	0.0163641
740.550	0.0162060
740.628	0.0161208
740.706	0.0159258
740.785	0.0159518
740.863	0.0157661
740.941	0.0158302
741.019	0.0155872
741.097	0.0154340
741.175	0.0154595
741.253	0.0153146
741.331	0.0152106
741.410	0.0152140
741.488	0.0151316
741.566	0.0149099
741.644	0.0148941
741.722	0.0148210
741.800	0.0147565
741.878	0.0144981
741.956	0.0144202
742.035	0.0143001
742.113	0.0141343
742.191	0.0139877
742.269	0.0139834
742.347	0.0139092
742.425	0.0135381
742.503	0.0134664
742.581	0.0132903
742.660	0.0133018
742.738	0.0131925
742.816	0.0130099
742.894	0.0132344
742.972	0.0131329
743.050	0.0133192
743.128	0.0134028
743.206	0.0133818
743.285	0.0135169
743.363	0.0135015
743.441	0.0136449
743.519	0.0137722
743.597	0.0139520
743.675	0.0138196
743.753	0.0139703
743.831	0.0140553
743.910	0.0141602
743.988	0.0142729
744.066	0.0143604
744.144	0.0145692
744.222	0.0145970
744.300	0.0147247
744.378	0.0147221
744.456	0.0149812
744.535	0.0150353
744.613	0.0152292
744.691	0.0153930
744.769	0.0154688
744.847	0.0156352
744.925	0.0158977
745.003	0.0160450
745.081	0.0159511
745.160	0.0162881
745.238	0.0162773
745.316	0.0164365
745.394	0.0164397
745.472	0.0163965
745.550	0.0165596
745.628	0.0165350
745.706	0.0165081
