05/03/2022	20:29:37	Ver.	4.1	UNKNOWN
Optical Delay	660.003261	Delta X		0.078125	Sweeps	1	Scan Rate	0/0
Coordinates	Axis 1	NaN	Axis 2	NaN	Axis 3	NaN	Axis 4	NaN	Axis 5	NaN	Axis 6	0.000000
TX Power	0.000000	RX Power	0.000000

660.003	0.0149120
660.081	0.0150179
660.160	0.0149856
660.238	0.0149093
660.316	0.0150673
660.394	0.0149380
660.472	0.0148684
660.550	0.0149654
660.628	0.0149686
660.706	0.0150710
660.785	0.0148994
660.863	0.0149081
660.941	0.0148465
661.019	0.0148949
661.097	0.0149190
661.175	0.0148145
661.253	0.0148270
661.331	0.0148847
661.410	0.0149242
661.488	0.0148732
661.566	0.0148494
661.644	0.0147918
661.722	0.0148253
661.800	0.0147600
661.878	0.0149415
661.956	0.0149108
662.035	0.0148875
662.113	0.0149213
662.191	0.0149112
662.269	0.0147362
662.347	0.0148489
662.425	0.0149934
662.503	0.0149921
662.581	0.0148515
662.660	0.0148907
662.738	0.0148489
662.816	0.0148678
662.894	0.0148186
662.972	0.0148628
663.050	0.0148656
663.128	0.0149319
663.206	0.0148739
663.285	0.0149635
663.363	0.0148064
663.441	0.0147975
663.519	0.0149475
663.597	0.0147218
663.675	0.0147677
663.753	0.0148169
663.831	0.0149236
663.910	0.0148147
663.988	0.0148622
664.066	0.0147976
664.144	0.0149194
664.222	0.0148777
664.300	0.0147908
664.378	0.0148580
664.456	0.0148611
664.535	0.0147775
664.613	0.0147951
664.691	0.0148899
664.769	0.0148076
664.847	0.0147784
664.925	0.0148654
665.003	0.0149841
665.081	0.0148906
665.160	0.0147910
665.238	0.0148287
665.316	0.0147363
665.394	0.0148832
665.472	0.0148608
665.550	0.0147558
665.628	0.0148568
665.706	0.0149497
665.785	0.0147934
665.863	0.0147916
665.941	0.0148566
666.019	0.0148427
666.097	0.0148622
666.175	0.0149593
666.253	0.0148095
666.331	0.0147519
666.410	0.0148946
666.488	0.0147310
666.566	0.0149151
666.644	0.0148832
666.722	0.0147830
666.800	0.0147152
666.878	0.0148711
666.956	0.0147820
667.035	0.0149524
667.113	0.0147246
667.191	0.0148398
667.269	0.0148134
667.347	0.0148299
667.425	0.0147784
667.503	0.0148331
667.581	0.0148863
667.660	0.0148137
667.738	0.0149387
667.816	0.0147255
667.894	0.0148685
667.972	0.0149451
668.050	0.0147810
668.128	0.0147005
668.206	0.0148069
668.285	0.0146857
668.363	0.0148693
668.441	0.0148856
668.519	0.0149344
668.597	0.0147472
668.675	0.0147895
668.753	0.0149198
668.831	0.0147353
668.910	0.0148322
668.988	0.0148680
669.066	0.0147936
669.144	0.0147934
669.222	0.0149117
669.300	0.0148663
669.378	0.0147279
669.456	0.0147989
669.535	0.0147875
669.613	0.0148109
669.691	0.0150211
669.769	0.0147941
669.847	0.0147422
669.925	0.0148413
670.003	0.0149030
670.081	0.0149931
670.160	0.0147630
670.238	0.0147895
670.316	0.0148722
670.394	0.0149012
670.472	0.0148471
670.550	0.0147476
670.628	0.0148705
670.706	0.0149857
670.785	0.0147618
670.863	0.0147964
670.941	0.0147975
671.019	0.0148922
671.097	0.0150131
671.175	0.0149385
671.253	0.0148546
671.331	0.0148663
671.410	0.0148450
671.488	0.0149325
671.566	0.0149525
671.644	0.0147298
671.722	0.0149633
671.800	0.0148603
671.878	0.0148421
671.956	0.0148956
672.035	0.0148165
672.113	0.0147951
672.191	0.0148741
672.269	0.0148813
672.347	0.0148320
672.425	0.0147851
672.503	0.0149504
672.581	0.0149049
672.660	0.0150089
672.738	0.0148745
672.816	0.0148627
672.894	0.0148236
672.972	0.0149518
673.050	0.0148380
673.128	0.0148178
673.206	0.0148685
673.285	0.0148918
673.363	0.0147553
673.441	0.0148613
673.519	0.0148446
673.597	0.0150352
673.675	0.0148162
673.753	0.0147565
673.831	0.0147665
673.910	0.0147991
673.988	0.0149130
674.066	0.0148682
674.144	0.0148293
674.222	0.0148214
674.300	0.0149593
674.378	0.0147917
674.456	0.0148856
674.535	0.0148270
674.613	0.0148300
674.691	0.0147827
674.769	0.0148457
674.847	0.0148425
674.925	0.0147851
675.003	0.0148266
675.081	0.0150529
675.160	0.0149672
675.238	0.0147591
675.316	0.0147653
675.394	0.0148926
675.472	0.0148946
675.550	0.0148322
675.628	0.0148444
675.706	0.0147511
675.785	0.0147855
675.863	0.0148582
675.941	0.0147859
676.019	0.0147681
676.097	0.0149561
676.175	0.0147727
676.253	0.0150461
676.331	0.0146873
676.410	0.0147973
676.488	0.0149398
676.566	0.0148678
676.644	0.0147738
676.722	0.0148016
676.800	0.0148853
676.878	0.0149516
676.956	0.0148711
677.035	0.0148559
677.113	0.0147496
677.191	0.0148307
677.269	0.0148391
677.347	0.0147751
677.425	0.0148602
677.503	0.0148016
677.581	0.0148956
677.660	0.0148247
677.738	0.0149445
677.816	0.0148914
677.894	0.0148122
677.972	0.0149747
678.050	0.0147881
678.128	0.0149638
678.206	0.0148898
678.285	0.0149556
678.363	0.0149193
678.441	0.0149229
678.519	0.0148895
678.597	0.0148882
678.675	0.0148628
678.753	0.0149116
678.831	0.0149588
678.910	0.0149574
678.988	0.0148518
679.066	0.0148156
679.144	0.0149008
679.222	0.0149573
679.300	0.0148363
679.378	0.0148492
679.456	0.0147949
679.535	0.0149200
679.613	0.0148996
679.691	0.0148790
679.769	0.0148647
679.847	0.0148912
679.925	0.0150130
680.003	0.0148923
680.081	0.0148952
680.160	0.0151056
680.238	0.0149305
680.316	0.0148796
680.394	0.0149764
680.472	0.0148488
680.550	0.0150167
680.628	0.0150802
680.706	0.0149908
680.785	0.0149688
680.863	0.0149489
680.941	0.0149618
681.019	0.0149190
681.097	0.0148569
681.175	0.0149037
681.253	0.0150161
681.331	0.0148830
681.410	0.0148932
681.488	0.0148751
681.566	0.0148942
681.644	0.0149010
681.722	0.0148123
681.800	0.0149444
681.878	0.0149147
681.956	0.0148971
682.035	0.0149448
682.113	0.0150294
682.191	0.0149641
682.269	0.0148116
682.347	0.0149319
682.425	0.0149470
682.503	0.0148473
682.581	0.0148752
682.660	0.0147784
682.738	0.0148731
682.816	0.0147896
682.894	0.0150287
682.972	0.0149211
683.050	0.0147353
683.128	0.0148421
683.206	0.0149720
683.285	0.0150853
683.363	0.0150355
683.441	0.0147939
683.519	0.0147406
683.597	0.0149162
683.675	0.0149857
683.753	0.0148911
683.831	0.0148731
683.910	0.0149407
683.988	0.0148540
684.066	0.0149298
684.144	0.0148517
684.222	0.0148576
684.300	0.0148454
684.378	0.0148254
684.456	0.0149001
684.535	0.0149902
684.613	0.0149197
684.691	0.0150059
684.769	0.0147353
684.847	0.0149982
684.925	0.0148600
685.003	0.0149405
685.081	0.0149225
685.160	0.0148758
685.238	0.0148763
685.316	0.0149488
685.394	0.0148368
685.472	0.0149123
685.550	0.0149009
685.628	0.0148541
685.706	0.0147977
685.785	0.0148843
685.863	0.0147932
685.941	0.0148215
686.019	0.0149063
686.097	0.0148779
686.175	0.0149541
686.253	0.0148962
686.331	0.0147756
686.410	0.0148724
686.488	0.0149596
686.566	0.0148018
686.644	0.0149210
686.722	0.0148362
686.800	0.0147519
686.878	0.0149826
686.956	0.0149987
687.035	0.0149690
687.113	0.0149532
687.191	0.0148264
687.269	0.0147765
687.347	0.0147956
687.425	0.0148901
687.503	0.0148328
687.581	0.0148742
687.660	0.0149726
687.738	0.0148428
687.816	0.0149334
687.894	0.0148132
687.972	0.0147771
688.050	0.0148567
688.128	0.0148411
688.206	0.0149854
688.285	0.0149015
688.363	0.0148897
688.441	0.0148544
688.519	0.0150656
688.597	0.0148144
688.675	0.0149802
688.753	0.0148727
688.831	0.0149225
688.910	0.0149553
688.988	0.0148492
689.066	0.0148851
689.144	0.0148801
689.222	0.0148277
689.300	0.0147450
689.378	0.0147402
689.456	0.0148249
689.535	0.0146756
689.613	0.0147138
689.691	0.0147073
689.769	0.0147846
689.847	0.0147061
689.925	0.0146259
690.003	0.0147705
690.081	0.0147927
690.160	0.0147698
690.238	0.0148953
690.316	0.0147894
690.394	0.0147884
690.472	0.0149454
690.550	0.0151059
690.628	0.0150408
690.706	0.0151333
690.785	0.0149612
690.863	0.0151469
690.941	0.0149979
691.019	0.0150246
691.097	0.0150212
691.175	0.0149848
691.253	0.0148817
691.331	0.0149924
691.410	0.0148701
691.488	0.0147965
691.566	0.0147446
691.644	0.0147768
691.722	0.0147400
691.800	0.0146072
691.878	0.0146310
691.956	0.0145467
692.035	0.0146024
692.113	0.0144839
692.191	0.0147230
692.269	0.0146439
692.347	0.0147266
692.425	0.0147252
692.503	0.0146623
692.581	0.0146442
692.660	0.0148560
692.738	0.0148515
692.816	0.0148847
692.894	0.0149215
692.972	0.0147379
693.050	0.0149358
693.128	0.0150467
693.206	0.0149548
693.285	0.0149680
693.363	0.0151030
693.441	0.0150057
693.519	0.0152248
693.597	0.0152003
693.675	0.0153002
693.753	0.0152576
693.831	0.0151645
693.910	0.0152228
693.988	0.0152247
694.066	0.0151737
694.144	0.0151192
694.222	0.0150928
694.300	0.0150232
694.378	0.0149397
694.456	0.0149589
694.535	0.0148289
694.613	0.0147589
694.691	0.0146324
694.769	0.0148523
694.847	0.0146143
694.925	0.0146490
695.003	0.0145093
695.081	0.0145859
695.160	0.0144334
695.238	0.0144431
695.316	0.0144537
695.394	0.0144899
695.472	0.0143601
695.550	0.0144323
695.628	0.0144407
695.706	0.0144479
695.785	0.0143951
695.863	0.0145166
695.941	0.0146429
696.019	0.0145612
696.097	0.0147815
696.175	0.0147275
696.253	0.0147786
696.331	0.0149054
696.410	0.0148405
696.488	0.0149493
696.566	0.0150201
696.644	0.0149879
696.722	0.0150591
696.800	0.0150846
696.878	0.0152269
696.956	0.0152071
697.035	0.0152734
697.113	0.0153816
697.191	0.0153577
697.269	0.0154380
697.347	0.0153687
697.425	0.0153143
697.503	0.0153168
697.581	0.0155406
697.660	0.0156904
697.738	0.0154197
697.816	0.0154128
697.894	0.0154134
697.972	0.0153883
698.050	0.0153659
698.128	0.0152361
698.206	0.0151816
698.285	0.0148629
698.363	0.0148810
698.441	0.0147875
698.519	0.0146553
698.597	0.0143543
698.675	0.0142442
698.753	0.0141438
698.831	0.0142277
698.910	0.0140939
698.988	0.0140932
699.066	0.0139949
699.144	0.0139119
699.222	0.0140958
699.300	0.0141174
699.378	0.0141875
699.456	0.0143842
699.535	0.0144225
699.613	0.0144876
699.691	0.0144717
699.769	0.0145068
699.847	0.0147639
699.925	0.0149473
700.003	0.0147435
700.081	0.0149998
700.160	0.0149866
700.238	0.0148543
700.316	0.0150422
700.394	0.0149519
700.472	0.0150358
700.550	0.0150227
700.628	0.0149119
700.706	0.0149878
700.785	0.0150808
700.863	0.0149636
700.941	0.0149300
701.019	0.0149408
701.097	0.0149072
701.175	0.0149699
701.253	0.0149300
701.331	0.0149834
701.410	0.0150047
701.488	0.0149127
701.566	0.0149058
701.644	0.0149089
701.722	0.0149749
701.800	0.0151370
701.878	0.0151433
701.956	0.0152835
702.035	0.0151848
702.113	0.0154767
702.191	0.0155659
702.269	0.0156834
702.347	0.0156036
702.425	0.0156582
702.503	0.0156132
702.581	0.0155926
702.660	0.0155896
702.738	0.0153358
702.816	0.0153431
702.894	0.0150974
702.972	0.0149480
703.050	0.0149003
703.128	0.0147853
703.206	0.0145979
703.285	0.0144416
703.363	0.0141834
703.441	0.0140809
703.519	0.0141827
703.597	0.0141539
703.675	0.0139305
703.753	0.0139735
703.831	0.0139548
703.910	0.0139546
703.988	0.0141728
704.066	0.0141283
704.144	0.0143307
704.222	0.0142642
704.300	0.0142465
704.378	0.0144200
704.456	0.0144251
704.535	0.0144051
704.613	0.0146047
704.691	0.0148373
704.769	0.0149785
704.847	0.0152368
704.925	0.0152790
705.003	0.0154954
705.081	0.0156129
705.160	0.0155633
705.238	0.0156400
705.316	0.0155474
705.394	0.0153432
705.472	0.0152149
705.550	0.0150939
705.628	0.0150483
705.706	0.0148011
705.785	0.0147077
705.863	0.0145603
705.941	0.0147690
706.019	0.0145555
706.097	0.0146915
706.175	0.0145264
706.253	0.0146716
706.331	0.0149097
706.410	0.0149101
706.488	0.0149773
706.566	0.0150877
706.644	0.0151548
706.722	0.0149715
706.800	0.0150740
706.878	0.0154268
706.956	0.0155325
707.035	0.0155155
707.113	0.0155318
707.191	0.0157569
707.269	0.0158321
707.347	0.0158527
707.425	0.0156159
707.503	0.0156790
707.581	0.0157294
707.660	0.0156686
707.738	0.0155175
707.816	0.0154632
707.894	0.0153278
707.972	0.0151250
708.050	0.0150552
708.128	0.0150170
708.206	0.0148266
708.285	0.0146043
708.363	0.0146547
708.441	0.0144509
708.519	0.0143120
708.597	0.0141935
708.675	0.0141041
708.753	0.0140884
708.831	0.0140681
708.910	0.0138850
708.988	0.0137637
709.066	0.0137739
709.144	0.0139332
709.222	0.0137853
709.300	0.0138551
709.378	0.0138891
709.456	0.0139592
709.535	0.0140343
709.613	0.0140667
709.691	0.0142005
709.769	0.0144377
709.847	0.0145109
709.925	0.0147333
710.003	0.0147376
710.081	0.0149010
710.160	0.0151670
710.238	0.0152721
710.316	0.0151979
710.394	0.0153550
710.472	0.0155846
710.550	0.0155434
710.628	0.0154224
710.706	0.0154834
710.785	0.0153848
710.863	0.0152308
710.941	0.0151410
711.019	0.0149783
711.097	0.0149705
711.175	0.0147769
711.253	0.0147707
711.331	0.0146825
711.410	0.0147418
711.488	0.0145483
711.566	0.0147349
711.644	0.0147043
711.722	0.0147731
711.800	0.0151056
711.878	0.0151309
711.956	0.0152112
712.035	0.0153661
712.113	0.0156023
712.191	0.0156177
712.269	0.0158474
712.347	0.0158978
712.425	0.0160030
712.503	0.0161363
712.581	0.0161043
712.660	0.0162240
712.738	0.0161114
712.816	0.0159798
712.894	0.0159759
712.972	0.0157541
713.050	0.0155048
713.128	0.0154066
713.206	0.0150705
713.285	0.0149406
713.363	0.0147704
713.441	0.0146459
713.519	0.0144756
713.597	0.0143819
713.675	0.0142231
713.753	0.0142857
713.831	0.0141376
713.910	0.0140166
713.988	0.0141174
714.066	0.0139923
714.144	0.0140099
714.222	0.0139120
714.300	0.0140843
714.378	0.0139605
714.456	0.0138870
714.535	0.0139285
714.613	0.0138729
714.691	0.0138956
714.769	0.0138264
714.847	0.0138453
714.925	0.0138458
715.003	0.0139201
715.081	0.0140823
715.160	0.0140272
715.238	0.0141464
715.316	0.0144164
715.394	0.0147398
715.472	0.0147388
715.550	0.0149443
715.628	0.0150401
715.706	0.0150983
715.785	0.0152528
715.863	0.0152778
715.941	0.0151116
716.019	0.0153722
716.097	0.0153208
716.175	0.0151352
716.253	0.0152426
716.331	0.0151327
716.410	0.0151112
716.488	0.0150578
716.566	0.0150156
716.644	0.0149290
716.722	0.0149809
716.800	0.0150622
716.878	0.0148797
716.956	0.0150240
717.035	0.0150360
717.113	0.0152456
717.191	0.0153337
717.269	0.0153165
717.347	0.0153344
717.425	0.0154603
717.503	0.0154154
717.581	0.0153811
717.660	0.0156844
717.738	0.0157618
717.816	0.0157103
717.894	0.0157895
717.972	0.0158801
718.050	0.0158294
718.128	0.0157869
718.206	0.0160301
718.285	0.0158586
718.363	0.0157762
718.441	0.0158304
718.519	0.0156793
718.597	0.0155145
718.675	0.0154012
718.753	0.0151910
718.831	0.0151221
718.910	0.0149200
718.988	0.0147077
719.066	0.0145075
719.144	0.0144028
719.222	0.0142976
719.300	0.0140655
719.378	0.0140079
719.456	0.0138880
719.535	0.0138800
719.613	0.0137318
719.691	0.0137624
719.769	0.0136087
719.847	0.0136145
719.925	0.0136867
720.003	0.0136311
720.081	0.0136219
720.160	0.0137355
720.238	0.0138975
720.316	0.0141536
720.394	0.0142113
720.472	0.0143076
720.550	0.0143949
720.628	0.0146622
720.706	0.0145293
720.785	0.0146780
720.863	0.0148142
720.941	0.0148124
721.019	0.0148718
721.097	0.0148959
721.175	0.0148857
721.253	0.0147671
721.331	0.0148042
721.410	0.0147136
721.488	0.0146336
721.566	0.0147465
721.644	0.0146712
721.722	0.0145384
721.800	0.0145329
721.878	0.0145792
721.956	0.0146292
722.035	0.0146361
722.113	0.0148090
722.191	0.0147195
722.269	0.0148657
722.347	0.0149511
722.425	0.0150896
722.503	0.0152921
722.581	0.0153444
722.660	0.0155057
722.738	0.0157535
722.816	0.0156285
722.894	0.0159631
722.972	0.0160046
723.050	0.0160371
723.128	0.0160031
723.206	0.0159908
723.285	0.0160651
723.363	0.0159357
723.441	0.0158772
723.519	0.0157263
723.597	0.0157820
723.675	0.0155795
723.753	0.0154475
723.831	0.0154222
723.910	0.0153707
723.988	0.0153089
724.066	0.0152411
724.144	0.0150771
724.222	0.0150910
724.300	0.0150219
724.378	0.0150916
724.456	0.0149744
724.535	0.0148812
724.613	0.0147245
724.691	0.0145963
724.769	0.0146001
724.847	0.0144527
724.925	0.0141194
725.003	0.0140989
725.081	0.0139156
725.160	0.0139275
725.238	0.0136829
725.316	0.0135445
725.394	0.0133533
725.472	0.0135395
725.550	0.0135563
725.628	0.0135550
725.706	0.0136878
725.785	0.0137727
725.863	0.0140228
725.941	0.0141545
726.019	0.0142831
726.097	0.0142870
726.175	0.0144493
726.253	0.0145732
726.331	0.0147577
726.410	0.0147117
726.488	0.0146857
726.566	0.0148435
726.644	0.0145994
726.722	0.0146985
726.800	0.0147024
726.878	0.0147599
726.956	0.0145935
727.035	0.0146047
727.113	0.0145747
727.191	0.0144523
727.269	0.0145210
727.347	0.0145331
727.425	0.0145873
727.503	0.0146063
727.581	0.0147117
727.660	0.0148586
727.738	0.0147031
727.816	0.0148567
727.894	0.0150355
727.972	0.0152079
728.050	0.0153537
728.128	0.0155471
728.206	0.0157067
728.285	0.0158562
728.363	0.0160477
728.441	0.0161154
728.519	0.0161963
728.597	0.0163259
728.675	0.0163271
728.753	0.0162660
728.831	0.0163835
728.910	0.0162594
728.988	0.0163345
729.066	0.0161514
729.144	0.0159782
729.222	0.0159306
729.300	0.0156903
729.378	0.0156022
729.456	0.0155628
729.535	0.0152769
729.613	0.0151476
729.691	0.0151881
729.769	0.0151070
729.847	0.0149972
729.925	0.0148501
730.003	0.0149660
730.081	0.0149158
730.160	0.0147805
730.238	0.0147612
730.316	0.0146812
730.394	0.0144493
730.472	0.0145948
730.550	0.0142783
730.628	0.0141368
730.706	0.0139122
730.785	0.0138556
730.863	0.0136832
730.941	0.0138525
731.019	0.0137205
731.097	0.0138077
731.175	0.0135482
731.253	0.0136272
731.331	0.0136979
731.410	0.0137523
731.488	0.0138764
731.566	0.0139971
731.644	0.0140460
731.722	0.0140884
731.800	0.0142778
731.878	0.0144427
731.956	0.0145012
732.035	0.0146621
732.113	0.0147732
732.191	0.0146724
732.269	0.0147848
732.347	0.0147418
732.425	0.0147453
732.503	0.0147108
732.581	0.0147799
732.660	0.0147050
732.738	0.0146087
732.816	0.0146622
732.894	0.0145979
732.972	0.0147156
733.050	0.0148822
733.128	0.0148869
733.206	0.0150229
733.285	0.0149917
733.363	0.0152492
733.441	0.0154025
733.519	0.0154511
733.597	0.0154462
733.675	0.0156105
733.753	0.0159834
733.831	0.0159706
733.910	0.0160356
733.988	0.0161491
734.066	0.0163062
734.144	0.0162296
734.222	0.0162616
734.300	0.0162304
734.378	0.0163120
734.456	0.0162113
734.535	0.0161289
734.613	0.0159840
734.691	0.0158430
734.769	0.0158326
734.847	0.0155511
734.925	0.0155429
735.003	0.0153675
735.081	0.0152670
735.160	0.0152818
735.238	0.0152137
735.316	0.0151413
735.394	0.0150405
735.472	0.0149554
735.550	0.0150945
735.628	0.0149413
735.706	0.0147857
735.785	0.0148701
735.863	0.0148455
735.941	0.0147462
736.019	0.0146625
736.097	0.0146069
736.175	0.0143574
736.253	0.0143359
736.331	0.0141203
736.410	0.0140049
736.488	0.0138760
736.566	0.0136638
736.644	0.0135707
736.722	0.0134962
736.800	0.0134506
736.878	0.0135873
736.956	0.0136413
737.035	0.0133915
737.113	0.0135032
737.191	0.0136575
737.269	0.0136693
737.347	0.0139314
737.425	0.0140826
737.503	0.0141383
737.581	0.0143277
737.660	0.0143713
737.738	0.0144656
737.816	0.0144666
737.894	0.0144596
737.972	0.0145438
738.050	0.0144670
738.128	0.0147009
738.206	0.0147408
738.285	0.0146784
738.363	0.0146460
738.441	0.0147833
738.519	0.0148036
738.597	0.0147157
738.675	0.0147977
738.753	0.0147839
738.831	0.0150559
738.910	0.0150523
738.988	0.0150722
739.066	0.0152871
739.144	0.0152861
739.222	0.0155604
739.300	0.0156545
739.378	0.0158324
739.456	0.0159644
739.535	0.0160349
739.613	0.0160243
739.691	0.0161598
739.769	0.0161093
739.847	0.0161991
739.925	0.0161637
740.003	0.0161845
740.081	0.0160384
740.160	0.0159004
740.238	0.0158254
740.316	0.0158488
740.394	0.0156210
740.472	0.0155453
740.550	0.0154349
740.628	0.0154279
740.706	0.0154395
740.785	0.0152292
740.863	0.0151062
740.941	0.0151897
741.019	0.0151152
741.097	0.0152310
741.175	0.0152215
741.253	0.0150406
741.331	0.0150368
741.410	0.0149744
741.488	0.0149666
741.566	0.0147374
741.644	0.0147069
741.722	0.0146091
741.800	0.0145100
741.878	0.0143872
741.956	0.0142066
742.035	0.0140730
742.113	0.0138673
742.191	0.0137948
742.269	0.0136264
742.347	0.0134449
742.425	0.0135213
742.503	0.0133895
742.581	0.0133350
742.660	0.0133372
742.738	0.0132139
742.816	0.0132735
742.894	0.0133984
742.972	0.0133885
743.050	0.0134465
743.128	0.0135854
743.206	0.0137014
743.285	0.0138005
743.363	0.0137761
743.441	0.0139458
743.519	0.0140454
743.597	0.0141119
743.675	0.0143782
743.753	0.0144209
743.831	0.0144363
743.910	0.0145665
743.988	0.0146926
744.066	0.0148065
744.144	0.0147260
744.222	0.0147942
744.300	0.0149882
744.378	0.0149131
744.456	0.0150864
744.535	0.0150674
744.613	0.0150582
744.691	0.0152796
744.769	0.0153960
744.847	0.0153996
744.925	0.0155676
745.003	0.0155116
745.081	0.0156380
745.160	0.0157785
745.238	0.0159549
745.316	0.0159406
745.394	0.0159438
745.472	0.0159569
745.550	0.0160926
745.628	0.0160978
745.706	0.0161494
