05/03/2022	20:32:42	Ver.	4.1	UNKNOWN
Optical Delay	660.003261	Delta X		0.078125	Sweeps	1	Scan Rate	0/0
Coordinates	Axis 1	NaN	Axis 2	NaN	Axis 3	NaN	Axis 4	NaN	Axis 5	NaN	Axis 6	0.000000
TX Power	0.000000	RX Power	0.000000

660.003	0.0142205
660.081	0.0142085
660.160	0.0142690
660.238	0.0142006
660.316	0.0142227
660.394	0.0142642
660.472	0.0143034
660.550	0.0143539
660.628	0.0142813
660.706	0.0143041
660.785	0.0141430
660.863	0.0142101
660.941	0.0142068
661.019	0.0144724
661.097	0.0142696
661.175	0.0141486
661.253	0.0142141
661.331	0.0142766
661.410	0.0143924
661.488	0.0141003
661.566	0.0141820
661.644	0.0141501
661.722	0.0143156
661.800	0.0143018
661.878	0.0142110
661.956	0.0141190
662.035	0.0142200
662.113	0.0142038
662.191	0.0141390
662.269	0.0141704
662.347	0.0143784
662.425	0.0142275
662.503	0.0142403
662.581	0.0142809
662.660	0.0142635
662.738	0.0141975
662.816	0.0142730
662.894	0.0143265
662.972	0.0142473
663.050	0.0141682
663.128	0.0143239
663.206	0.0143127
663.285	0.0144282
663.363	0.0143196
663.441	0.0141583
663.519	0.0142389
663.597	0.0142709
663.675	0.0142657
663.753	0.0143756
663.831	0.0143838
663.910	0.0143646
663.988	0.0143380
664.066	0.0143211
664.144	0.0143005
664.222	0.0143770
664.300	0.0143127
664.378	0.0141483
664.456	0.0142445
664.535	0.0142307
664.613	0.0142746
664.691	0.0143800
664.769	0.0142591
664.847	0.0142187
664.925	0.0143197
665.003	0.0143269
665.081	0.0143542
665.160	0.0143238
665.238	0.0142471
665.316	0.0144697
665.394	0.0143516
665.472	0.0142786
665.550	0.0143786
665.628	0.0142712
665.706	0.0143752
665.785	0.0144350
665.863	0.0142989
665.941	0.0144073
666.019	0.0142451
666.097	0.0143565
666.175	0.0144365
666.253	0.0142467
666.331	0.0143375
666.410	0.0142471
666.488	0.0142097
666.566	0.0143037
666.644	0.0143686
666.722	0.0143250
666.800	0.0142685
666.878	0.0144169
666.956	0.0143291
667.035	0.0142731
667.113	0.0143479
667.191	0.0142403
667.269	0.0142794
667.347	0.0141671
667.425	0.0142694
667.503	0.0143919
667.581	0.0144073
667.660	0.0142470
667.738	0.0142862
667.816	0.0141897
667.894	0.0143431
667.972	0.0143762
668.050	0.0142098
668.128	0.0143185
668.206	0.0142196
668.285	0.0143214
668.363	0.0144215
668.441	0.0142081
668.519	0.0143228
668.597	0.0143459
668.675	0.0142244
668.753	0.0142795
668.831	0.0144146
668.910	0.0142992
668.988	0.0144597
669.066	0.0143276
669.144	0.0142873
669.222	0.0143564
669.300	0.0142875
669.378	0.0143066
669.456	0.0142866
669.535	0.0143270
669.613	0.0142511
669.691	0.0143604
669.769	0.0144636
669.847	0.0143311
669.925	0.0142957
670.003	0.0143278
670.081	0.0144341
670.160	0.0144070
670.238	0.0142918
670.316	0.0144001
670.394	0.0141943
670.472	0.0141794
670.550	0.0143194
670.628	0.0142705
670.706	0.0142799
670.785	0.0142114
670.863	0.0144570
670.941	0.0143330
671.019	0.0141573
671.097	0.0143012
671.175	0.0141273
671.253	0.0144016
671.331	0.0143218
671.410	0.0142960
671.488	0.0141617
671.566	0.0142619
671.644	0.0141830
671.722	0.0140797
671.800	0.0142223
671.878	0.0143680
671.956	0.0143266
672.035	0.0142895
672.113	0.0142648
672.191	0.0142690
672.269	0.0141783
672.347	0.0142728
672.425	0.0143430
672.503	0.0141907
672.581	0.0142292
672.660	0.0143217
672.738	0.0142230
672.816	0.0142419
672.894	0.0142803
672.972	0.0142740
673.050	0.0142915
673.128	0.0141881
673.206	0.0141979
673.285	0.0143183
673.363	0.0143160
673.441	0.0142419
673.519	0.0142842
673.597	0.0143454
673.675	0.0143044
673.753	0.0143328
673.831	0.0143639
673.910	0.0143172
673.988	0.0142255
674.066	0.0142291
674.144	0.0141423
674.222	0.0142679
674.300	0.0142406
674.378	0.0143340
674.456	0.0143037
674.535	0.0143856
674.613	0.0142663
674.691	0.0142429
674.769	0.0142826
674.847	0.0143056
674.925	0.0141753
675.003	0.0143899
675.081	0.0143239
675.160	0.0142821
675.238	0.0141028
675.316	0.0141512
675.394	0.0143266
675.472	0.0143052
675.550	0.0141348
675.628	0.0142769
675.706	0.0141669
675.785	0.0142178
675.863	0.0141606
675.941	0.0141803
676.019	0.0142448
676.097	0.0142107
676.175	0.0143004
676.253	0.0140375
676.331	0.0142234
676.410	0.0142342
676.488	0.0141068
676.566	0.0143356
676.644	0.0141766
676.722	0.0141267
676.800	0.0142255
676.878	0.0143419
676.956	0.0142070
677.035	0.0141125
677.113	0.0143217
677.191	0.0141696
677.269	0.0141579
677.347	0.0140351
677.425	0.0141899
677.503	0.0142493
677.581	0.0143292
677.660	0.0142440
677.738	0.0143347
677.816	0.0142760
677.894	0.0143118
677.972	0.0143453
678.050	0.0142452
678.128	0.0142159
678.206	0.0144123
678.285	0.0143105
678.363	0.0141698
678.441	0.0142286
678.519	0.0142609
678.597	0.0142773
678.675	0.0143563
678.753	0.0142676
678.831	0.0141699
678.910	0.0140861
678.988	0.0143700
679.066	0.0142516
679.144	0.0142550
679.222	0.0141553
679.300	0.0142413
679.378	0.0144579
679.456	0.0142902
679.535	0.0141821
679.613	0.0142876
679.691	0.0142429
679.769	0.0143372
679.847	0.0143188
679.925	0.0144168
680.003	0.0142428
680.081	0.0142133
680.160	0.0142837
680.238	0.0142722
680.316	0.0142857
680.394	0.0142546
680.472	0.0143808
680.550	0.0143972
680.628	0.0142317
680.706	0.0143230
680.785	0.0142341
680.863	0.0142687
680.941	0.0142572
681.019	0.0142857
681.097	0.0142319
681.175	0.0142154
681.253	0.0143456
681.331	0.0142015
681.410	0.0144100
681.488	0.0142685
681.566	0.0142471
681.644	0.0142613
681.722	0.0143255
681.800	0.0142737
681.878	0.0143005
681.956	0.0142971
682.035	0.0143531
682.113	0.0143163
682.191	0.0142773
682.269	0.0143568
682.347	0.0142943
682.425	0.0142550
682.503	0.0142976
682.581	0.0143720
682.660	0.0143219
682.738	0.0140874
682.816	0.0142324
682.894	0.0143202
682.972	0.0142446
683.050	0.0143494
683.128	0.0142902
683.206	0.0142937
683.285	0.0142156
683.363	0.0143362
683.441	0.0143889
683.519	0.0142624
683.597	0.0141718
683.675	0.0141193
683.753	0.0143348
683.831	0.0143726
683.910	0.0143112
683.988	0.0142909
684.066	0.0142294
684.144	0.0143040
684.222	0.0142963
684.300	0.0142989
684.378	0.0143481
684.456	0.0143363
684.535	0.0143909
684.613	0.0141829
684.691	0.0142658
684.769	0.0142863
684.847	0.0141904
684.925	0.0142867
685.003	0.0142240
685.081	0.0142346
685.160	0.0142578
685.238	0.0142278
685.316	0.0142359
685.394	0.0143266
685.472	0.0141757
685.550	0.0141282
685.628	0.0141304
685.706	0.0142345
685.785	0.0143110
685.863	0.0142387
685.941	0.0142699
686.019	0.0142856
686.097	0.0143274
686.175	0.0143731
686.253	0.0143408
686.331	0.0143550
686.410	0.0143010
686.488	0.0144598
686.566	0.0144728
686.644	0.0144048
686.722	0.0144138
686.800	0.0145234
686.878	0.0143929
686.956	0.0141660
687.035	0.0143014
687.113	0.0143602
687.191	0.0142221
687.269	0.0141468
687.347	0.0142944
687.425	0.0141563
687.503	0.0141331
687.581	0.0140964
687.660	0.0140648
687.738	0.0141259
687.816	0.0140599
687.894	0.0140817
687.972	0.0141026
688.050	0.0140388
688.128	0.0141109
688.206	0.0141765
688.285	0.0142676
688.363	0.0140974
688.441	0.0142200
688.519	0.0142141
688.597	0.0142706
688.675	0.0142008
688.753	0.0142818
688.831	0.0143592
688.910	0.0144540
688.988	0.0143635
689.066	0.0144053
689.144	0.0144819
689.222	0.0145644
689.300	0.0145605
689.378	0.0143416
689.456	0.0144517
689.535	0.0145227
689.613	0.0145584
689.691	0.0145943
689.769	0.0145098
689.847	0.0144273
689.925	0.0143816
690.003	0.0142273
690.081	0.0142700
690.160	0.0142214
690.238	0.0142819
690.316	0.0141215
690.394	0.0142586
690.472	0.0141201
690.550	0.0141370
690.628	0.0141192
690.706	0.0140494
690.785	0.0141008
690.863	0.0141254
690.941	0.0141122
691.019	0.0142551
691.097	0.0141406
691.175	0.0141287
691.253	0.0141723
691.331	0.0141771
691.410	0.0142616
691.488	0.0141767
691.566	0.0141133
691.644	0.0140829
691.722	0.0141953
691.800	0.0141961
691.878	0.0140969
691.956	0.0141389
692.035	0.0142789
692.113	0.0142038
692.191	0.0142485
692.269	0.0142332
692.347	0.0143239
692.425	0.0142911
692.503	0.0142953
692.581	0.0143848
692.660	0.0144937
692.738	0.0144749
692.816	0.0144091
692.894	0.0144908
692.972	0.0145067
693.050	0.0145210
693.128	0.0146859
693.206	0.0146416
693.285	0.0147346
693.363	0.0146474
693.441	0.0147253
693.519	0.0147178
693.597	0.0147282
693.675	0.0147457
693.753	0.0146375
693.831	0.0145784
693.910	0.0145181
693.988	0.0143508
694.066	0.0144406
694.144	0.0142674
694.222	0.0142764
694.300	0.0140675
694.378	0.0139361
694.456	0.0140806
694.535	0.0140376
694.613	0.0137629
694.691	0.0138237
694.769	0.0138332
694.847	0.0137665
694.925	0.0137485
695.003	0.0138051
695.081	0.0139098
695.160	0.0138905
695.238	0.0140072
695.316	0.0139316
695.394	0.0141560
695.472	0.0141296
695.550	0.0142121
695.628	0.0143195
695.706	0.0144060
695.785	0.0144109
695.863	0.0144027
695.941	0.0145941
696.019	0.0145414
696.097	0.0147177
696.175	0.0146237
696.253	0.0145484
696.331	0.0145812
696.410	0.0147131
696.488	0.0145584
696.566	0.0145933
696.644	0.0144965
696.722	0.0144692
696.800	0.0144410
696.878	0.0144705
696.956	0.0145818
697.035	0.0145021
697.113	0.0146613
697.191	0.0145535
697.269	0.0144691
697.347	0.0145902
697.425	0.0144007
697.503	0.0143509
697.581	0.0145289
697.660	0.0146555
697.738	0.0145691
697.816	0.0144878
697.894	0.0146450
697.972	0.0146381
698.050	0.0145654
698.128	0.0146783
698.206	0.0146013
698.285	0.0147285
698.363	0.0146775
698.441	0.0145777
698.519	0.0146175
698.597	0.0144569
698.675	0.0144192
698.753	0.0143834
698.831	0.0142897
698.910	0.0140968
698.988	0.0140784
699.066	0.0139996
699.144	0.0140897
699.222	0.0138568
699.300	0.0138837
699.378	0.0137702
699.456	0.0138320
699.535	0.0138457
699.613	0.0137327
699.691	0.0137922
699.769	0.0139390
699.847	0.0137650
699.925	0.0139252
700.003	0.0140558
700.081	0.0140250
700.160	0.0140144
700.238	0.0142705
700.316	0.0143491
700.394	0.0142811
700.472	0.0143716
700.550	0.0143536
700.628	0.0145551
700.706	0.0144561
700.785	0.0145385
700.863	0.0147422
700.941	0.0147542
701.019	0.0146210
701.097	0.0146999
701.175	0.0146408
701.253	0.0145702
701.331	0.0144685
701.410	0.0143919
701.488	0.0141586
701.566	0.0141106
701.644	0.0139370
701.722	0.0140388
701.800	0.0140981
701.878	0.0139503
701.956	0.0138876
702.035	0.0140997
702.113	0.0140726
702.191	0.0141627
702.269	0.0142535
702.347	0.0144662
702.425	0.0144432
702.503	0.0145029
702.581	0.0144945
702.660	0.0146985
702.738	0.0148064
702.816	0.0147479
702.894	0.0146805
702.972	0.0145895
703.050	0.0147377
703.128	0.0147628
703.206	0.0148401
703.285	0.0147755
703.363	0.0146329
703.441	0.0145818
703.519	0.0145846
703.597	0.0143507
703.675	0.0142230
703.753	0.0143004
703.831	0.0143134
703.910	0.0143037
703.988	0.0143012
704.066	0.0142839
704.144	0.0141704
704.222	0.0141312
704.300	0.0142004
704.378	0.0141986
704.456	0.0142000
704.535	0.0140260
704.613	0.0140698
704.691	0.0139981
704.769	0.0139223
704.847	0.0138242
704.925	0.0139821
705.003	0.0136528
705.081	0.0136192
705.160	0.0137421
705.238	0.0136514
705.316	0.0135793
705.394	0.0136919
705.472	0.0136319
705.550	0.0137390
705.628	0.0138301
705.706	0.0137100
705.785	0.0139070
705.863	0.0137440
705.941	0.0138934
706.019	0.0139752
706.097	0.0141003
706.175	0.0141952
706.253	0.0145397
706.331	0.0144009
706.410	0.0144386
706.488	0.0146575
706.566	0.0145620
706.644	0.0145449
706.722	0.0146870
706.800	0.0145903
706.878	0.0144780
706.956	0.0143488
707.035	0.0144202
707.113	0.0142667
707.191	0.0143320
707.269	0.0139653
707.347	0.0139941
707.425	0.0139337
707.503	0.0139453
707.581	0.0139636
707.660	0.0138288
707.738	0.0140227
707.816	0.0140632
707.894	0.0140591
707.972	0.0141840
708.050	0.0141821
708.128	0.0141756
708.206	0.0144860
708.285	0.0146014
708.363	0.0146185
708.441	0.0145188
708.519	0.0147015
708.597	0.0147142
708.675	0.0148034
708.753	0.0148634
708.831	0.0146700
708.910	0.0145367
708.988	0.0146609
709.066	0.0146215
709.144	0.0142348
709.222	0.0142669
709.300	0.0141074
709.378	0.0142796
709.456	0.0143221
709.535	0.0141252
709.613	0.0140937
709.691	0.0142651
709.769	0.0142719
709.847	0.0141270
709.925	0.0144072
710.003	0.0143320
710.081	0.0142348
710.160	0.0142922
710.238	0.0143668
710.316	0.0144355
710.394	0.0142587
710.472	0.0142576
710.550	0.0140108
710.628	0.0138012
710.706	0.0139041
710.785	0.0139327
710.863	0.0136177
710.941	0.0135515
711.019	0.0136492
711.097	0.0135389
711.175	0.0134275
711.253	0.0136816
711.331	0.0135883
711.410	0.0136507
711.488	0.0137333
711.566	0.0139218
711.644	0.0138469
711.722	0.0140409
711.800	0.0141356
711.878	0.0143102
711.956	0.0144758
712.035	0.0145560
712.113	0.0146265
712.191	0.0145821
712.269	0.0145832
712.347	0.0146574
712.425	0.0147169
712.503	0.0145727
712.581	0.0145995
712.660	0.0145705
712.738	0.0144971
712.816	0.0146560
712.894	0.0145255
712.972	0.0143967
713.050	0.0143158
713.128	0.0143417
713.206	0.0141011
713.285	0.0140964
713.363	0.0142718
713.441	0.0140929
713.519	0.0142168
713.597	0.0142899
713.675	0.0144177
713.753	0.0142960
713.831	0.0144157
713.910	0.0145852
713.988	0.0146542
714.066	0.0145982
714.144	0.0148226
714.222	0.0149248
714.300	0.0148733
714.378	0.0150185
714.456	0.0149340
714.535	0.0149743
714.613	0.0149821
714.691	0.0149254
714.769	0.0148051
714.847	0.0147189
714.925	0.0146832
715.003	0.0145687
715.081	0.0144959
715.160	0.0143442
715.238	0.0143789
715.316	0.0141209
715.394	0.0141505
715.472	0.0141336
715.550	0.0142610
715.628	0.0142422
715.706	0.0143642
715.785	0.0143786
715.863	0.0143668
715.941	0.0143155
716.019	0.0144822
716.097	0.0144880
716.175	0.0143896
716.253	0.0144833
716.331	0.0144823
716.410	0.0142981
716.488	0.0143130
716.566	0.0143150
716.644	0.0140392
716.722	0.0138899
716.800	0.0137804
716.878	0.0137189
716.956	0.0136184
717.035	0.0135139
717.113	0.0134612
717.191	0.0134333
717.269	0.0135224
717.347	0.0135825
717.425	0.0136752
717.503	0.0137540
717.581	0.0138580
717.660	0.0140826
717.738	0.0141883
717.816	0.0144240
717.894	0.0144191
717.972	0.0145290
718.050	0.0144824
718.128	0.0145942
718.206	0.0148003
718.285	0.0146077
718.363	0.0145829
718.441	0.0145507
718.519	0.0146551
718.597	0.0144050
718.675	0.0143968
718.753	0.0144205
718.831	0.0143776
718.910	0.0142657
718.988	0.0144778
719.066	0.0142957
719.144	0.0142371
719.222	0.0142239
719.300	0.0144246
719.378	0.0144199
719.456	0.0143379
719.535	0.0144380
719.613	0.0145684
719.691	0.0145235
719.769	0.0147642
719.847	0.0147824
719.925	0.0147100
720.003	0.0147076
720.081	0.0147357
720.160	0.0149175
720.238	0.0147409
720.316	0.0148728
720.394	0.0148445
720.472	0.0148452
720.550	0.0148369
720.628	0.0148379
720.706	0.0147563
720.785	0.0148508
720.863	0.0147552
720.941	0.0145960
721.019	0.0145207
721.097	0.0145949
721.175	0.0146323
721.253	0.0144971
721.331	0.0143286
721.410	0.0142143
721.488	0.0141494
721.566	0.0141975
721.644	0.0141599
721.722	0.0142027
721.800	0.0140919
721.878	0.0140006
721.956	0.0141132
722.035	0.0140213
722.113	0.0141342
722.191	0.0140061
722.269	0.0139776
722.347	0.0141184
722.425	0.0140552
722.503	0.0138834
722.581	0.0139738
722.660	0.0139336
722.738	0.0139091
722.816	0.0136853
722.894	0.0135965
722.972	0.0136647
723.050	0.0135201
723.128	0.0134910
723.206	0.0135255
723.285	0.0135387
723.363	0.0134026
723.441	0.0134894
723.519	0.0135875
723.597	0.0138274
723.675	0.0138834
723.753	0.0138900
723.831	0.0140518
723.910	0.0141809
723.988	0.0141456
724.066	0.0143419
724.144	0.0142612
724.222	0.0142063
724.300	0.0143374
724.378	0.0143734
724.456	0.0144685
724.535	0.0143057
724.613	0.0143848
724.691	0.0142326
724.769	0.0141726
724.847	0.0141735
724.925	0.0141434
725.003	0.0141744
725.081	0.0141500
725.160	0.0142529
725.238	0.0142919
725.316	0.0142729
725.394	0.0143584
725.472	0.0144389
725.550	0.0145601
725.628	0.0146761
725.706	0.0147701
725.785	0.0146880
725.863	0.0148158
725.941	0.0148315
726.019	0.0148305
726.097	0.0149467
726.175	0.0148450
726.253	0.0146713
726.331	0.0146701
726.410	0.0147684
726.488	0.0147712
726.566	0.0147444
726.644	0.0146169
726.722	0.0145577
726.800	0.0145135
726.878	0.0145123
726.956	0.0145576
727.035	0.0143798
727.113	0.0144009
727.191	0.0143897
727.269	0.0145007
727.347	0.0144072
727.425	0.0144004
727.503	0.0143504
727.581	0.0142463
727.660	0.0141618
727.738	0.0142424
727.816	0.0139944
727.894	0.0141395
727.972	0.0140372
728.050	0.0138126
728.128	0.0138354
728.206	0.0139266
728.285	0.0135615
728.363	0.0134918
728.441	0.0137418
728.519	0.0135789
728.597	0.0135247
728.675	0.0134802
728.753	0.0134290
728.831	0.0133877
728.910	0.0134377
728.988	0.0133810
729.066	0.0134280
729.144	0.0135830
729.222	0.0136183
729.300	0.0135915
729.378	0.0137033
729.456	0.0136736
729.535	0.0137041
729.613	0.0138413
729.691	0.0140026
729.769	0.0140721
729.847	0.0139838
729.925	0.0142056
730.003	0.0140392
730.081	0.0139788
730.160	0.0141002
730.238	0.0141392
730.316	0.0141972
730.394	0.0142399
730.472	0.0140709
730.550	0.0141851
730.628	0.0139638
730.706	0.0142455
730.785	0.0141875
730.863	0.0141084
730.941	0.0142301
731.019	0.0141550
731.097	0.0143916
731.175	0.0143642
731.253	0.0144573
731.331	0.0144377
731.410	0.0144331
731.488	0.0146320
731.566	0.0147338
731.644	0.0146634
731.722	0.0147893
731.800	0.0148997
731.878	0.0148653
731.956	0.0149907
732.035	0.0149835
732.113	0.0151103
732.191	0.0150089
732.269	0.0149346
732.347	0.0150068
732.425	0.0149729
732.503	0.0148192
732.581	0.0148466
732.660	0.0147762
732.738	0.0146658
732.816	0.0146751
732.894	0.0146009
732.972	0.0145393
733.050	0.0145275
733.128	0.0143788
733.206	0.0144920
733.285	0.0145258
733.363	0.0145772
733.441	0.0143663
733.519	0.0144385
733.597	0.0144572
733.675	0.0144361
733.753	0.0143813
733.831	0.0144765
733.910	0.0143762
733.988	0.0143494
734.066	0.0142702
734.144	0.0141122
734.222	0.0140940
734.300	0.0140543
734.378	0.0139436
734.456	0.0137785
734.535	0.0136473
734.613	0.0134910
734.691	0.0135023
734.769	0.0134886
734.847	0.0133932
734.925	0.0133002
735.003	0.0134263
735.081	0.0134338
735.160	0.0136480
735.238	0.0136452
735.316	0.0137305
735.394	0.0136762
735.472	0.0137708
735.550	0.0138103
735.628	0.0139572
735.706	0.0139399
735.785	0.0139257
735.863	0.0141204
735.941	0.0141043
736.019	0.0142917
736.097	0.0141592
736.175	0.0141159
736.253	0.0142493
736.331	0.0143578
736.410	0.0142870
736.488	0.0142311
736.566	0.0143172
736.644	0.0142541
736.722	0.0141875
736.800	0.0142452
736.878	0.0142173
736.956	0.0142375
737.035	0.0142970
737.113	0.0142560
737.191	0.0144337
737.269	0.0145349
737.347	0.0145933
737.425	0.0145933
737.503	0.0146947
737.581	0.0146450
737.660	0.0146703
737.738	0.0147076
737.816	0.0149393
737.894	0.0147928
737.972	0.0148675
738.050	0.0149831
738.128	0.0150633
738.206	0.0149670
738.285	0.0150365
738.363	0.0147635
738.441	0.0147203
738.519	0.0148928
738.597	0.0147340
738.675	0.0145728
738.753	0.0145032
738.831	0.0143699
738.910	0.0144857
738.988	0.0144216
739.066	0.0143876
739.144	0.0144831
739.222	0.0144778
739.300	0.0144975
739.378	0.0145889
739.456	0.0145968
739.535	0.0145274
739.613	0.0145228
739.691	0.0144669
739.769	0.0145656
739.847	0.0146628
739.925	0.0145798
740.003	0.0143906
740.081	0.0144331
740.160	0.0142738
740.238	0.0141486
740.316	0.0140405
740.394	0.0139210
740.472	0.0139573
740.550	0.0135582
740.628	0.0136730
740.706	0.0136480
740.785	0.0136006
740.863	0.0136043
740.941	0.0135017
741.019	0.0135088
741.097	0.0135835
741.175	0.0136250
741.253	0.0135317
741.331	0.0134854
741.410	0.0135603
741.488	0.0136905
741.566	0.0137074
741.644	0.0137256
741.722	0.0137305
741.800	0.0137686
741.878	0.0138697
741.956	0.0139577
742.035	0.0139510
742.113	0.0138749
742.191	0.0140794
742.269	0.0141934
742.347	0.0143853
742.425	0.0141608
742.503	0.0143292
742.581	0.0142316
742.660	0.0142158
742.738	0.0143633
742.816	0.0142832
742.894	0.0144817
742.972	0.0144646
743.050	0.0143781
743.128	0.0144786
743.206	0.0144477
743.285	0.0144781
743.363	0.0146253
743.441	0.0144562
743.519	0.0146585
743.597	0.0147284
743.675	0.0148677
743.753	0.0148154
743.831	0.0149510
743.910	0.0149472
743.988	0.0149943
744.066	0.0149731
744.144	0.0150426
744.222	0.0150348
744.300	0.0149509
744.378	0.0149880
744.456	0.0149683
744.535	0.0149266
744.613	0.0148096
744.691	0.0147894
744.769	0.0146868
744.847	0.0145138
744.925	0.0144553
745.003	0.0144714
745.081	0.0143375
745.160	0.0143589
745.238	0.0143547
745.316	0.0143174
745.394	0.0142955
745.472	0.0143879
745.550	0.0143464
745.628	0.0143835
745.706	0.0143365
