05/03/2022	20:33:47	Ver.	4.1	UNKNOWN
Optical Delay	660.003261	Delta X		0.078125	Sweeps	1	Scan Rate	0/0
Coordinates	Axis 1	NaN	Axis 2	NaN	Axis 3	NaN	Axis 4	NaN	Axis 5	NaN	Axis 6	0.000000
TX Power	0.000000	RX Power	0.000000

660.003	0.0144164
660.081	0.0144139
660.160	0.0145210
660.238	0.0144871
660.316	0.0145705
660.394	0.0145132
660.472	0.0144445
660.550	0.0143499
660.628	0.0143893
660.706	0.0143360
660.785	0.0144743
660.863	0.0145837
660.941	0.0145315
661.019	0.0143168
661.097	0.0144175
661.175	0.0144141
661.253	0.0144853
661.331	0.0144649
661.410	0.0143978
661.488	0.0144152
661.566	0.0143529
661.644	0.0143752
661.722	0.0144592
661.800	0.0144186
661.878	0.0145039
661.956	0.0144306
662.035	0.0143104
662.113	0.0143728
662.191	0.0144152
662.269	0.0143994
662.347	0.0144241
662.425	0.0144653
662.503	0.0144154
662.581	0.0144381
662.660	0.0145063
662.738	0.0146088
662.816	0.0144282
662.894	0.0143052
662.972	0.0144592
663.050	0.0144048
663.128	0.0144508
663.206	0.0144271
663.285	0.0144437
663.363	0.0144026
663.441	0.0144194
663.519	0.0144601
663.597	0.0144109
663.675	0.0143608
663.753	0.0143208
663.831	0.0143880
663.910	0.0144357
663.988	0.0144566
664.066	0.0144318
664.144	0.0142818
664.222	0.0142146
664.300	0.0144077
664.378	0.0145412
664.456	0.0144171
664.535	0.0143940
664.613	0.0143782
664.691	0.0143805
664.769	0.0142453
664.847	0.0143864
664.925	0.0144728
665.003	0.0144518
665.081	0.0143378
665.160	0.0143626
665.238	0.0144212
665.316	0.0144712
665.394	0.0143752
665.472	0.0144675
665.550	0.0144881
665.628	0.0143542
665.706	0.0144296
665.785	0.0143085
665.863	0.0144337
665.941	0.0144155
666.019	0.0143651
666.097	0.0144355
666.175	0.0143865
666.253	0.0143344
666.331	0.0143403
666.410	0.0142929
666.488	0.0144510
666.566	0.0145446
666.644	0.0145174
666.722	0.0144007
666.800	0.0144991
666.878	0.0144118
666.956	0.0142873
667.035	0.0143915
667.113	0.0143996
667.191	0.0144834
667.269	0.0144813
667.347	0.0141579
667.425	0.0143678
667.503	0.0145110
667.581	0.0144010
667.660	0.0143649
667.738	0.0145020
667.816	0.0144704
667.894	0.0143620
667.972	0.0143847
668.050	0.0143799
668.128	0.0143163
668.206	0.0143008
668.285	0.0143085
668.363	0.0144179
668.441	0.0143979
668.519	0.0143841
668.597	0.0142924
668.675	0.0143710
668.753	0.0143954
668.831	0.0143138
668.910	0.0143211
668.988	0.0144978
669.066	0.0143776
669.144	0.0142959
669.222	0.0143546
669.300	0.0143524
669.378	0.0144278
669.456	0.0144024
669.535	0.0143808
669.613	0.0144241
669.691	0.0144333
669.769	0.0143964
669.847	0.0143208
669.925	0.0143976
670.003	0.0144071
670.081	0.0144662
670.160	0.0144541
670.238	0.0143094
670.316	0.0142515
670.394	0.0143079
670.472	0.0144784
670.550	0.0143704
670.628	0.0143011
670.706	0.0142757
670.785	0.0144246
670.863	0.0143340
670.941	0.0142209
671.019	0.0143764
671.097	0.0142443
671.175	0.0143176
671.253	0.0142751
671.331	0.0142788
671.410	0.0143143
671.488	0.0142774
671.566	0.0143454
671.644	0.0143507
671.722	0.0143430
671.800	0.0143497
671.878	0.0142029
671.956	0.0142502
672.035	0.0143957
672.113	0.0143672
672.191	0.0143517
672.269	0.0144506
672.347	0.0144741
672.425	0.0143247
672.503	0.0142739
672.581	0.0143803
672.660	0.0143479
672.738	0.0142841
672.816	0.0142062
672.894	0.0141628
672.972	0.0142725
673.050	0.0144252
673.128	0.0142240
673.206	0.0142232
673.285	0.0143250
673.363	0.0144219
673.441	0.0142750
673.519	0.0143304
673.597	0.0142790
673.675	0.0141490
673.753	0.0143457
673.831	0.0143907
673.910	0.0143012
673.988	0.0143459
674.066	0.0142458
674.144	0.0143235
674.222	0.0143520
674.300	0.0144016
674.378	0.0144502
674.456	0.0144286
674.535	0.0143051
674.613	0.0142567
674.691	0.0144049
674.769	0.0144004
674.847	0.0143937
674.925	0.0144610
675.003	0.0144132
675.081	0.0143233
675.160	0.0143272
675.238	0.0142303
675.316	0.0142713
675.394	0.0143082
675.472	0.0142668
675.550	0.0143899
675.628	0.0144869
675.706	0.0144317
675.785	0.0143430
675.863	0.0145286
675.941	0.0142743
676.019	0.0143036
676.097	0.0144925
676.175	0.0143647
676.253	0.0142750
676.331	0.0144067
676.410	0.0142439
676.488	0.0144617
676.566	0.0144303
676.644	0.0142684
676.722	0.0142181
676.800	0.0144425
676.878	0.0143884
676.956	0.0144405
677.035	0.0144669
677.113	0.0143258
677.191	0.0143546
677.269	0.0143086
677.347	0.0143896
677.425	0.0144644
677.503	0.0143106
677.581	0.0142551
677.660	0.0144785
677.738	0.0142969
677.816	0.0143242
677.894	0.0142456
677.972	0.0143085
678.050	0.0142873
678.128	0.0144509
678.206	0.0143546
678.285	0.0141032
678.363	0.0142774
678.441	0.0143769
678.519	0.0142758
678.597	0.0144745
678.675	0.0143891
678.753	0.0143328
678.831	0.0142041
678.910	0.0143584
678.988	0.0144861
679.066	0.0143641
679.144	0.0143019
679.222	0.0143862
679.300	0.0143279
679.378	0.0142078
679.456	0.0142992
679.535	0.0143111
679.613	0.0144355
679.691	0.0143340
679.769	0.0141552
679.847	0.0142728
679.925	0.0143730
680.003	0.0143892
680.081	0.0143107
680.160	0.0143467
680.238	0.0142539
680.316	0.0142439
680.394	0.0143106
680.472	0.0144173
680.550	0.0145087
680.628	0.0143918
680.706	0.0142950
680.785	0.0143341
680.863	0.0143954
680.941	0.0144049
681.019	0.0144088
681.097	0.0144313
681.175	0.0145124
681.253	0.0143833
681.331	0.0145631
681.410	0.0145085
681.488	0.0142624
681.566	0.0143966
681.644	0.0144079
681.722	0.0142927
681.800	0.0142307
681.878	0.0144554
681.956	0.0144697
682.035	0.0144500
682.113	0.0144668
682.191	0.0144881
682.269	0.0143736
682.347	0.0143541
682.425	0.0144872
682.503	0.0144338
682.581	0.0145189
682.660	0.0145314
682.738	0.0145044
682.816	0.0143546
682.894	0.0143484
682.972	0.0144416
683.050	0.0143969
683.128	0.0142608
683.206	0.0144098
683.285	0.0143915
683.363	0.0144331
683.441	0.0143335
683.519	0.0143715
683.597	0.0143360
683.675	0.0143171
683.753	0.0144183
683.831	0.0144157
683.910	0.0142658
683.988	0.0144933
684.066	0.0143062
684.144	0.0144353
684.222	0.0144852
684.300	0.0144268
684.378	0.0143817
684.456	0.0144687
684.535	0.0144817
684.613	0.0145028
684.691	0.0143584
684.769	0.0143716
684.847	0.0146233
684.925	0.0145084
685.003	0.0144815
685.081	0.0145829
685.160	0.0144315
685.238	0.0144291
685.316	0.0144814
685.394	0.0144193
685.472	0.0143255
685.550	0.0144422
685.628	0.0143801
685.706	0.0144250
685.785	0.0143801
685.863	0.0143205
685.941	0.0142754
686.019	0.0143550
686.097	0.0141203
686.175	0.0142859
686.253	0.0144052
686.331	0.0143230
686.410	0.0142410
686.488	0.0143462
686.566	0.0143433
686.644	0.0144379
686.722	0.0143782
686.800	0.0142101
686.878	0.0143523
686.956	0.0145517
687.035	0.0144300
687.113	0.0144074
687.191	0.0144603
687.269	0.0145636
687.347	0.0145377
687.425	0.0145924
687.503	0.0144433
687.581	0.0144971
687.660	0.0144251
687.738	0.0145887
687.816	0.0144890
687.894	0.0146133
687.972	0.0146236
688.050	0.0144855
688.128	0.0145161
688.206	0.0145409
688.285	0.0145281
688.363	0.0145193
688.441	0.0145104
688.519	0.0144450
688.597	0.0143572
688.675	0.0142422
688.753	0.0143336
688.831	0.0143044
688.910	0.0143146
688.988	0.0142491
689.066	0.0142122
689.144	0.0142968
689.222	0.0142671
689.300	0.0142606
689.378	0.0143761
689.456	0.0142274
689.535	0.0143498
689.613	0.0143744
689.691	0.0143760
689.769	0.0143163
689.847	0.0142550
689.925	0.0143636
690.003	0.0143369
690.081	0.0144199
690.160	0.0144311
690.238	0.0143263
690.316	0.0143395
690.394	0.0143828
690.472	0.0143993
690.550	0.0144621
690.628	0.0142973
690.706	0.0144858
690.785	0.0143893
690.863	0.0144368
690.941	0.0145310
691.019	0.0144898
691.097	0.0146778
691.175	0.0147043
691.253	0.0145922
691.331	0.0146385
691.410	0.0147185
691.488	0.0147553
691.566	0.0147258
691.644	0.0147935
691.722	0.0148557
691.800	0.0149512
691.878	0.0148958
691.956	0.0148843
692.035	0.0147982
692.113	0.0148711
692.191	0.0149287
692.269	0.0146705
692.347	0.0145950
692.425	0.0145714
692.503	0.0145036
692.581	0.0143890
692.660	0.0144149
692.738	0.0143211
692.816	0.0141077
692.894	0.0140132
692.972	0.0139925
693.050	0.0140601
693.128	0.0140914
693.206	0.0139232
693.285	0.0140527
693.363	0.0138296
693.441	0.0140057
693.519	0.0139590
693.597	0.0138927
693.675	0.0141629
693.753	0.0140408
693.831	0.0140091
693.910	0.0141228
693.988	0.0142730
694.066	0.0143360
694.144	0.0143128
694.222	0.0144052
694.300	0.0146004
694.378	0.0144376
694.456	0.0144719
694.535	0.0145348
694.613	0.0145969
694.691	0.0145815
694.769	0.0145226
694.847	0.0144510
694.925	0.0144696
695.003	0.0145945
695.081	0.0144579
695.160	0.0144946
695.238	0.0144354
695.316	0.0145544
695.394	0.0144224
695.472	0.0142757
695.550	0.0142702
695.628	0.0143570
695.706	0.0143422
695.785	0.0143450
695.863	0.0144732
695.941	0.0144734
696.019	0.0144531
696.097	0.0145794
696.175	0.0143664
696.253	0.0144182
696.331	0.0145362
696.410	0.0145197
696.488	0.0147155
696.566	0.0146819
696.644	0.0146079
696.722	0.0145906
696.800	0.0145238
696.878	0.0145911
696.956	0.0144438
697.035	0.0143724
697.113	0.0143740
697.191	0.0143885
697.269	0.0142351
697.347	0.0142025
697.425	0.0141202
697.503	0.0139436
697.581	0.0140496
697.660	0.0139764
697.738	0.0139237
697.816	0.0138289
697.894	0.0139429
697.972	0.0139311
698.050	0.0138038
698.128	0.0136867
698.206	0.0137916
698.285	0.0139259
698.363	0.0139153
698.441	0.0138153
698.519	0.0140042
698.597	0.0140709
698.675	0.0140704
698.753	0.0142055
698.831	0.0144792
698.910	0.0144453
698.988	0.0144981
699.066	0.0145980
699.144	0.0146365
699.222	0.0146064
699.300	0.0147557
699.378	0.0147482
699.456	0.0147726
699.535	0.0147531
699.613	0.0147065
699.691	0.0144869
699.769	0.0146487
699.847	0.0143936
699.925	0.0141712
700.003	0.0141923
700.081	0.0141276
700.160	0.0140559
700.238	0.0139501
700.316	0.0140559
700.394	0.0141310
700.472	0.0140008
700.550	0.0139912
700.628	0.0142902
700.706	0.0142513
700.785	0.0143792
700.863	0.0144238
700.941	0.0144830
701.019	0.0146571
701.097	0.0145196
701.175	0.0145271
701.253	0.0145872
701.331	0.0146776
701.410	0.0147378
701.488	0.0147268
701.566	0.0146562
701.644	0.0146843
701.722	0.0146792
701.800	0.0146225
701.878	0.0145160
701.956	0.0146660
702.035	0.0145588
702.113	0.0144000
702.191	0.0145016
702.269	0.0144684
702.347	0.0144221
702.425	0.0144262
702.503	0.0144137
702.581	0.0143667
702.660	0.0144474
702.738	0.0143989
702.816	0.0144508
702.894	0.0144215
702.972	0.0142820
703.050	0.0142663
703.128	0.0141942
703.206	0.0143510
703.285	0.0142016
703.363	0.0140495
703.441	0.0142263
703.519	0.0140334
703.597	0.0140359
703.675	0.0140108
703.753	0.0139790
703.831	0.0139302
703.910	0.0139126
703.988	0.0140765
704.066	0.0139606
704.144	0.0141183
704.222	0.0141191
704.300	0.0141206
704.378	0.0142008
704.456	0.0141925
704.535	0.0142601
704.613	0.0143416
704.691	0.0144091
704.769	0.0144875
704.847	0.0146660
704.925	0.0147584
705.003	0.0148562
705.081	0.0148344
705.160	0.0147379
705.238	0.0148840
705.316	0.0147890
705.394	0.0146458
705.472	0.0147060
705.550	0.0147006
705.628	0.0145657
705.706	0.0144575
705.785	0.0144290
705.863	0.0142442
705.941	0.0142725
706.019	0.0142563
706.097	0.0142249
706.175	0.0142677
706.253	0.0142787
706.331	0.0142952
706.410	0.0143668
706.488	0.0143879
706.566	0.0145446
706.644	0.0145774
706.722	0.0146528
706.800	0.0147373
706.878	0.0148302
706.956	0.0148821
707.035	0.0149675
707.113	0.0150272
707.191	0.0149009
707.269	0.0149834
707.347	0.0147390
707.425	0.0146973
707.503	0.0148373
707.581	0.0144890
707.660	0.0144404
707.738	0.0143208
707.816	0.0143582
707.894	0.0143790
707.972	0.0143297
708.050	0.0143843
708.128	0.0144914
708.206	0.0145551
708.285	0.0145149
708.363	0.0144817
708.441	0.0145463
708.519	0.0146784
708.597	0.0146684
708.675	0.0145438
708.753	0.0144563
708.831	0.0146078
708.910	0.0143756
708.988	0.0143968
709.066	0.0143604
709.144	0.0141961
709.222	0.0140557
709.300	0.0139373
709.378	0.0139304
709.456	0.0139451
709.535	0.0139429
709.613	0.0138492
709.691	0.0137952
709.769	0.0137596
709.847	0.0139342
709.925	0.0139648
710.003	0.0140376
710.081	0.0140888
710.160	0.0142651
710.238	0.0143642
710.316	0.0144220
710.394	0.0144331
710.472	0.0144666
710.550	0.0147136
710.628	0.0146982
710.706	0.0146230
710.785	0.0146837
710.863	0.0146638
710.941	0.0147283
711.019	0.0147656
711.097	0.0146709
711.175	0.0146470
711.253	0.0146416
711.331	0.0146180
711.410	0.0145506
711.488	0.0144553
711.566	0.0144833
711.644	0.0143688
711.722	0.0143219
711.800	0.0144230
711.878	0.0142067
711.956	0.0142015
712.035	0.0144269
712.113	0.0143110
712.191	0.0142952
712.269	0.0144040
712.347	0.0143998
712.425	0.0145479
712.503	0.0145569
712.581	0.0146361
712.660	0.0147728
712.738	0.0149203
712.816	0.0150336
712.894	0.0149535
712.972	0.0149631
713.050	0.0150048
713.128	0.0150494
713.206	0.0150764
713.285	0.0148488
713.363	0.0147544
713.441	0.0146796
713.519	0.0146180
713.597	0.0144112
713.675	0.0145436
713.753	0.0143525
713.831	0.0141003
713.910	0.0140457
713.988	0.0141194
714.066	0.0141503
714.144	0.0143137
714.222	0.0143892
714.300	0.0143578
714.378	0.0144728
714.456	0.0145145
714.535	0.0145977
714.613	0.0145850
714.691	0.0147494
714.769	0.0147497
714.847	0.0145984
714.925	0.0145998
715.003	0.0144101
715.081	0.0144005
715.160	0.0142876
715.238	0.0139951
715.316	0.0139626
715.394	0.0138860
715.472	0.0138735
715.550	0.0135897
715.628	0.0136459
715.706	0.0135390
715.785	0.0135810
715.863	0.0136547
715.941	0.0138579
716.019	0.0138120
716.097	0.0138959
716.175	0.0139818
716.253	0.0139429
716.331	0.0141952
716.410	0.0142135
716.488	0.0141472
716.566	0.0145093
716.644	0.0144855
716.722	0.0142794
716.800	0.0145873
716.878	0.0144688
716.956	0.0145382
717.035	0.0145937
717.113	0.0146187
717.191	0.0144848
717.269	0.0146156
717.347	0.0146144
717.425	0.0144800
717.503	0.0145844
717.581	0.0145303
717.660	0.0145530
717.738	0.0144767
717.816	0.0144204
717.894	0.0144417
717.972	0.0145992
718.050	0.0144685
718.128	0.0143251
718.206	0.0145366
718.285	0.0145879
718.363	0.0144128
718.441	0.0144972
718.519	0.0145279
718.597	0.0146887
718.675	0.0146468
718.753	0.0146119
718.831	0.0147403
718.910	0.0148161
718.988	0.0146808
719.066	0.0147704
719.144	0.0147747
719.222	0.0146806
719.300	0.0146463
719.378	0.0147236
719.456	0.0147445
719.535	0.0146220
719.613	0.0145562
719.691	0.0142941
719.769	0.0142994
719.847	0.0144513
719.925	0.0142742
720.003	0.0143021
720.081	0.0141752
720.160	0.0142683
720.238	0.0143935
720.316	0.0143990
720.394	0.0143266
720.472	0.0142853
720.550	0.0142795
720.628	0.0143581
720.706	0.0144626
720.785	0.0144643
720.863	0.0143496
720.941	0.0145138
721.019	0.0143517
721.097	0.0143216
721.175	0.0142360
721.253	0.0141581
721.331	0.0141823
721.410	0.0139582
721.488	0.0138968
721.566	0.0137906
721.644	0.0137749
721.722	0.0137103
721.800	0.0135460
721.878	0.0136776
721.956	0.0136982
722.035	0.0136480
722.113	0.0137176
722.191	0.0139306
722.269	0.0139396
722.347	0.0140533
722.425	0.0141405
722.503	0.0142740
722.581	0.0143251
722.660	0.0144508
722.738	0.0144153
722.816	0.0144505
722.894	0.0146938
722.972	0.0145895
723.050	0.0146930
723.128	0.0146570
723.206	0.0146297
723.285	0.0145394
723.363	0.0145541
723.441	0.0144007
723.519	0.0144189
723.597	0.0143617
723.675	0.0143498
723.753	0.0145391
723.831	0.0144507
723.910	0.0143105
723.988	0.0143958
724.066	0.0145450
724.144	0.0147564
724.222	0.0146751
724.300	0.0147863
724.378	0.0148790
724.456	0.0148879
724.535	0.0149142
724.613	0.0149127
724.691	0.0150337
724.769	0.0149310
724.847	0.0149946
724.925	0.0150582
725.003	0.0149685
725.081	0.0148652
725.160	0.0149438
725.238	0.0149872
725.316	0.0148463
725.394	0.0148165
725.472	0.0148025
725.550	0.0146294
725.628	0.0146400
725.706	0.0146371
725.785	0.0146430
725.863	0.0145670
725.941	0.0144729
726.019	0.0145232
726.097	0.0143796
726.175	0.0145124
726.253	0.0146201
726.331	0.0145043
726.410	0.0143226
726.488	0.0144643
726.566	0.0144968
726.644	0.0142882
726.722	0.0143987
726.800	0.0143849
726.878	0.0144067
726.956	0.0143331
727.035	0.0141521
727.113	0.0144132
727.191	0.0143173
727.269	0.0141599
727.347	0.0141941
727.425	0.0139767
727.503	0.0140141
727.581	0.0140705
727.660	0.0139102
727.738	0.0140610
727.816	0.0139313
727.894	0.0137634
727.972	0.0138804
728.050	0.0139346
728.128	0.0139986
728.206	0.0139068
728.285	0.0139463
728.363	0.0139908
728.441	0.0140848
728.519	0.0141614
728.597	0.0141520
728.675	0.0141871
728.753	0.0142973
728.831	0.0143369
728.910	0.0143425
728.988	0.0144294
729.066	0.0145406
729.144	0.0145102
729.222	0.0145464
729.300	0.0144722
729.378	0.0145734
729.456	0.0145676
729.535	0.0144114
729.613	0.0144468
729.691	0.0144293
729.769	0.0145522
729.847	0.0144668
729.925	0.0145412
730.003	0.0145515
730.081	0.0144891
730.160	0.0145341
730.238	0.0146579
730.316	0.0145550
730.394	0.0147246
730.472	0.0147022
730.550	0.0148245
730.628	0.0148940
730.706	0.0148039
730.785	0.0150209
730.863	0.0150839
730.941	0.0150861
731.019	0.0150687
731.097	0.0149960
731.175	0.0149512
731.253	0.0150495
731.331	0.0149374
731.410	0.0147555
731.488	0.0148273
731.566	0.0146858
731.644	0.0146305
731.722	0.0146001
731.800	0.0146093
731.878	0.0143823
731.956	0.0144256
732.035	0.0143333
732.113	0.0144080
732.191	0.0144264
732.269	0.0144982
732.347	0.0144129
732.425	0.0144138
732.503	0.0144698
732.581	0.0144816
732.660	0.0144183
732.738	0.0144527
732.816	0.0144346
732.894	0.0143793
732.972	0.0142689
733.050	0.0142860
733.128	0.0141302
733.206	0.0140996
733.285	0.0140121
733.363	0.0139139
733.441	0.0139105
733.519	0.0137331
733.597	0.0137314
733.675	0.0138845
733.753	0.0137322
733.831	0.0136802
733.910	0.0137583
733.988	0.0138092
734.066	0.0137550
734.144	0.0138529
734.222	0.0138868
734.300	0.0140904
734.378	0.0139506
734.456	0.0140617
734.535	0.0141610
734.613	0.0141241
734.691	0.0140723
734.769	0.0140811
734.847	0.0141061
734.925	0.0141718
735.003	0.0142025
735.081	0.0141988
735.160	0.0143888
735.238	0.0141309
735.316	0.0141301
735.394	0.0142443
735.472	0.0143842
735.550	0.0141908
735.628	0.0142206
735.706	0.0142118
735.785	0.0143885
735.863	0.0144276
735.941	0.0143265
736.019	0.0144966
736.097	0.0144946
736.175	0.0145473
736.253	0.0145722
736.331	0.0145208
736.410	0.0147059
736.488	0.0147710
736.566	0.0147620
736.644	0.0147274
736.722	0.0147543
736.800	0.0149935
736.878	0.0149786
736.956	0.0149285
737.035	0.0149094
737.113	0.0149274
737.191	0.0150086
737.269	0.0149113
737.347	0.0148938
737.425	0.0148923
737.503	0.0150131
737.581	0.0148668
737.660	0.0147707
737.738	0.0149699
737.816	0.0147383
737.894	0.0148341
737.972	0.0147939
738.050	0.0147645
738.128	0.0145847
738.206	0.0146236
738.285	0.0145456
738.363	0.0147693
738.441	0.0146857
738.519	0.0146624
738.597	0.0146821
738.675	0.0147691
738.753	0.0147377
738.831	0.0145835
738.910	0.0146165
738.988	0.0145305
739.066	0.0144418
739.144	0.0143851
739.222	0.0143871
739.300	0.0142957
739.378	0.0140709
739.456	0.0141061
739.535	0.0140145
739.613	0.0139636
739.691	0.0138696
739.769	0.0137991
739.847	0.0137260
739.925	0.0136706
740.003	0.0138244
740.081	0.0139188
740.160	0.0138806
740.238	0.0138871
740.316	0.0138395
740.394	0.0137119
740.472	0.0139073
740.550	0.0139548
740.628	0.0139715
740.706	0.0140125
740.785	0.0139045
740.863	0.0139121
740.941	0.0140509
741.019	0.0139756
741.097	0.0140784
741.175	0.0140417
741.253	0.0141616
741.331	0.0140249
741.410	0.0143403
741.488	0.0142841
741.566	0.0142842
741.644	0.0143410
741.722	0.0143708
741.800	0.0142879
741.878	0.0142551
741.956	0.0145525
742.035	0.0146152
742.113	0.0145139
742.191	0.0144504
742.269	0.0143861
742.347	0.0143182
742.425	0.0145090
742.503	0.0145856
742.581	0.0145598
742.660	0.0146549
742.738	0.0146411
742.816	0.0147468
742.894	0.0148827
742.972	0.0147601
743.050	0.0147746
743.128	0.0149081
743.206	0.0149521
743.285	0.0149570
743.363	0.0150402
743.441	0.0150628
743.519	0.0149939
743.597	0.0149218
743.675	0.0148695
743.753	0.0148135
743.831	0.0147846
743.910	0.0147544
743.988	0.0146201
744.066	0.0145678
744.144	0.0144350
744.222	0.0144844
744.300	0.0143909
744.378	0.0144187
744.456	0.0145097
744.535	0.0145441
744.613	0.0146442
744.691	0.0146185
744.769	0.0145717
744.847	0.0146045
744.925	0.0146868
745.003	0.0145872
745.081	0.0146052
745.160	0.0147181
745.238	0.0146036
745.316	0.0145827
745.394	0.0144456
745.472	0.0144822
745.550	0.0142796
745.628	0.0142684
745.706	0.0141325
