05/03/2022	20:34:17	Ver.	4.1	UNKNOWN
Optical Delay	660.003261	Delta X		0.078125	Sweeps	1	Scan Rate	0/0
Coordinates	Axis 1	NaN	Axis 2	NaN	Axis 3	NaN	Axis 4	NaN	Axis 5	NaN	Axis 6	0.000000
TX Power	0.000000	RX Power	0.000000

660.003	0.0144863
660.081	0.0143586
660.160	0.0144196
660.238	0.0145197
660.316	0.0144758
660.394	0.0145114
660.472	0.0145223
660.550	0.0143951
660.628	0.0144936
660.706	0.0144422
660.785	0.0144343
660.863	0.0143612
660.941	0.0143534
661.019	0.0144212
661.097	0.0142817
661.175	0.0144200
661.253	0.0144393
661.331	0.0143981
661.410	0.0143851
661.488	0.0143095
661.566	0.0144559
661.644	0.0145582
661.722	0.0144530
661.800	0.0143404
661.878	0.0144767
661.956	0.0144562
662.035	0.0144318
662.113	0.0143642
662.191	0.0144413
662.269	0.0142891
662.347	0.0144973
662.425	0.0144904
662.503	0.0142716
662.581	0.0144051
662.660	0.0143723
662.738	0.0144663
662.816	0.0143425
662.894	0.0144397
662.972	0.0144710
663.050	0.0144362
663.128	0.0143282
663.206	0.0143539
663.285	0.0144003
663.363	0.0143052
663.441	0.0143036
663.519	0.0143655
663.597	0.0145090
663.675	0.0144101
663.753	0.0143482
663.831	0.0144147
663.910	0.0143601
663.988	0.0143483
664.066	0.0143790
664.144	0.0144561
664.222	0.0143375
664.300	0.0143401
664.378	0.0144459
664.456	0.0144391
664.535	0.0144760
664.613	0.0143275
664.691	0.0144291
664.769	0.0143966
664.847	0.0144333
664.925	0.0143837
665.003	0.0143409
665.081	0.0145161
665.160	0.0143266
665.238	0.0144646
665.316	0.0144313
665.394	0.0143793
665.472	0.0144857
665.550	0.0143430
665.628	0.0143435
665.706	0.0144045
665.785	0.0144316
665.863	0.0142859
665.941	0.0144010
666.019	0.0144931
666.097	0.0144483
666.175	0.0141761
666.253	0.0144959
666.331	0.0144804
666.410	0.0143396
666.488	0.0143848
666.566	0.0143911
666.644	0.0143639
666.722	0.0143550
666.800	0.0145052
666.878	0.0143594
666.956	0.0142500
667.035	0.0143400
667.113	0.0142992
667.191	0.0143545
667.269	0.0142461
667.347	0.0143942
667.425	0.0142667
667.503	0.0144294
667.581	0.0145345
667.660	0.0143961
667.738	0.0143341
667.816	0.0143531
667.894	0.0143106
667.972	0.0142561
668.050	0.0143450
668.128	0.0142870
668.206	0.0144257
668.285	0.0144079
668.363	0.0142700
668.441	0.0145341
668.519	0.0143005
668.597	0.0142128
668.675	0.0143181
668.753	0.0142168
668.831	0.0143860
668.910	0.0142680
668.988	0.0144009
669.066	0.0142975
669.144	0.0142652
669.222	0.0141857
669.300	0.0142348
669.378	0.0142422
669.456	0.0145450
669.535	0.0143583
669.613	0.0142891
669.691	0.0144540
669.769	0.0141947
669.847	0.0142576
669.925	0.0143165
670.003	0.0143633
670.081	0.0144349
670.160	0.0142860
670.238	0.0143015
670.316	0.0142535
670.394	0.0144875
670.472	0.0144339
670.550	0.0143526
670.628	0.0141921
670.706	0.0142957
670.785	0.0142918
670.863	0.0143957
670.941	0.0143794
671.019	0.0144283
671.097	0.0145039
671.175	0.0143860
671.253	0.0142960
671.331	0.0143259
671.410	0.0144675
671.488	0.0143341
671.566	0.0143469
671.644	0.0143947
671.722	0.0144381
671.800	0.0143601
671.878	0.0143926
671.956	0.0144984
672.035	0.0143459
672.113	0.0143120
672.191	0.0144415
672.269	0.0144907
672.347	0.0143696
672.425	0.0144258
672.503	0.0143604
672.581	0.0144040
672.660	0.0143831
672.738	0.0144846
672.816	0.0143702
672.894	0.0143221
672.972	0.0143342
673.050	0.0144943
673.128	0.0142691
673.206	0.0144058
673.285	0.0143955
673.363	0.0143143
673.441	0.0142460
673.519	0.0142889
673.597	0.0143456
673.675	0.0143561
673.753	0.0144215
673.831	0.0144992
673.910	0.0143407
673.988	0.0143632
674.066	0.0143153
674.144	0.0143314
674.222	0.0144048
674.300	0.0143420
674.378	0.0143789
674.456	0.0143099
674.535	0.0143693
674.613	0.0144119
674.691	0.0143515
674.769	0.0142278
674.847	0.0143770
674.925	0.0141715
675.003	0.0141990
675.081	0.0142989
675.160	0.0144040
675.238	0.0143332
675.316	0.0144627
675.394	0.0144977
675.472	0.0144102
675.550	0.0142759
675.628	0.0143508
675.706	0.0143410
675.785	0.0143402
675.863	0.0143614
675.941	0.0144137
676.019	0.0142806
676.097	0.0144170
676.175	0.0143756
676.253	0.0144189
676.331	0.0144114
676.410	0.0143990
676.488	0.0144411
676.566	0.0143099
676.644	0.0143254
676.722	0.0142795
676.800	0.0144012
676.878	0.0143982
676.956	0.0145912
677.035	0.0144712
677.113	0.0143715
677.191	0.0143825
677.269	0.0144515
677.347	0.0145004
677.425	0.0144899
677.503	0.0144287
677.581	0.0144814
677.660	0.0144997
677.738	0.0143494
677.816	0.0144315
677.894	0.0144257
677.972	0.0145834
678.050	0.0143756
678.128	0.0144016
678.206	0.0144576
678.285	0.0143049
678.363	0.0144328
678.441	0.0144687
678.519	0.0143788
678.597	0.0144091
678.675	0.0142366
678.753	0.0143629
678.831	0.0145137
678.910	0.0144044
678.988	0.0142733
679.066	0.0143846
679.144	0.0142966
679.222	0.0143080
679.300	0.0143447
679.378	0.0144448
679.456	0.0143464
679.535	0.0144194
679.613	0.0143650
679.691	0.0143293
679.769	0.0144277
679.847	0.0143996
679.925	0.0144608
680.003	0.0143430
680.081	0.0144521
680.160	0.0143391
680.238	0.0143814
680.316	0.0143894
680.394	0.0143426
680.472	0.0143966
680.550	0.0143697
680.628	0.0144017
680.706	0.0143013
680.785	0.0144014
680.863	0.0143007
680.941	0.0143125
681.019	0.0143192
681.097	0.0143562
681.175	0.0144344
681.253	0.0143666
681.331	0.0143400
681.410	0.0145096
681.488	0.0144663
681.566	0.0143673
681.644	0.0144377
681.722	0.0144214
681.800	0.0143954
681.878	0.0144884
681.956	0.0145346
682.035	0.0145152
682.113	0.0144604
682.191	0.0144955
682.269	0.0144238
682.347	0.0145663
682.425	0.0145142
682.503	0.0145486
682.581	0.0144949
682.660	0.0144343
682.738	0.0144559
682.816	0.0144176
682.894	0.0144575
682.972	0.0145154
683.050	0.0144773
683.128	0.0142880
683.206	0.0144849
683.285	0.0142680
683.363	0.0143950
683.441	0.0143261
683.519	0.0142697
683.597	0.0146017
683.675	0.0144396
683.753	0.0143788
683.831	0.0143764
683.910	0.0143964
683.988	0.0145065
684.066	0.0145383
684.144	0.0145557
684.222	0.0146130
684.300	0.0145093
684.378	0.0145825
684.456	0.0147062
684.535	0.0145900
684.613	0.0144833
684.691	0.0145509
684.769	0.0145564
684.847	0.0144768
684.925	0.0143195
685.003	0.0143804
685.081	0.0144529
685.160	0.0144933
685.238	0.0142950
685.316	0.0143616
685.394	0.0143188
685.472	0.0142918
685.550	0.0142616
685.628	0.0142613
685.706	0.0143369
685.785	0.0142886
685.863	0.0143259
685.941	0.0143044
686.019	0.0142290
686.097	0.0142335
686.175	0.0142229
686.253	0.0144331
686.331	0.0142493
686.410	0.0144226
686.488	0.0145145
686.566	0.0145199
686.644	0.0145063
686.722	0.0144056
686.800	0.0144207
686.878	0.0145532
686.956	0.0145929
687.035	0.0146438
687.113	0.0145319
687.191	0.0146151
687.269	0.0145138
687.347	0.0146996
687.425	0.0146021
687.503	0.0146040
687.581	0.0145715
687.660	0.0147271
687.738	0.0147126
687.816	0.0145395
687.894	0.0145567
687.972	0.0144361
688.050	0.0144128
688.128	0.0142388
688.206	0.0143458
688.285	0.0143356
688.363	0.0143021
688.441	0.0143319
688.519	0.0143340
688.597	0.0143083
688.675	0.0144933
688.753	0.0143881
688.831	0.0143114
688.910	0.0144548
688.988	0.0144358
689.066	0.0143818
689.144	0.0144760
689.222	0.0144172
689.300	0.0144240
689.378	0.0144411
689.456	0.0145296
689.535	0.0145093
689.613	0.0143696
689.691	0.0145463
689.769	0.0144965
689.847	0.0143941
689.925	0.0143047
690.003	0.0144110
690.081	0.0145205
690.160	0.0144502
690.238	0.0144578
690.316	0.0144694
690.394	0.0144045
690.472	0.0144717
690.550	0.0144450
690.628	0.0145757
690.706	0.0145313
690.785	0.0144897
690.863	0.0146625
690.941	0.0146810
691.019	0.0146075
691.097	0.0147261
691.175	0.0147332
691.253	0.0147199
691.331	0.0147536
691.410	0.0148195
691.488	0.0147395
691.566	0.0147184
691.644	0.0145061
691.722	0.0144361
691.800	0.0143927
691.878	0.0144149
691.956	0.0143749
692.035	0.0143250
692.113	0.0142823
692.191	0.0142182
692.269	0.0141299
692.347	0.0141285
692.425	0.0140215
692.503	0.0139111
692.581	0.0138586
692.660	0.0139685
692.738	0.0141389
692.816	0.0139876
692.894	0.0139621
692.972	0.0138716
693.050	0.0140642
693.128	0.0140565
693.206	0.0141172
693.285	0.0141685
693.363	0.0140092
693.441	0.0141812
693.519	0.0142036
693.597	0.0142610
693.675	0.0143789
693.753	0.0143925
693.831	0.0143928
693.910	0.0144331
693.988	0.0145683
694.066	0.0145709
694.144	0.0144401
694.222	0.0145752
694.300	0.0143928
694.378	0.0143333
694.456	0.0144601
694.535	0.0143349
694.613	0.0143462
694.691	0.0143661
694.769	0.0144254
694.847	0.0142831
694.925	0.0144318
695.003	0.0144926
695.081	0.0143317
695.160	0.0144019
695.238	0.0142823
695.316	0.0144736
695.394	0.0144797
695.472	0.0143005
695.550	0.0144313
695.628	0.0143937
695.706	0.0144767
695.785	0.0145950
695.863	0.0146124
695.941	0.0146771
696.019	0.0145921
696.097	0.0145615
696.175	0.0146042
696.253	0.0146396
696.331	0.0146131
696.410	0.0145599
696.488	0.0144005
696.566	0.0144511
696.644	0.0142905
696.722	0.0143832
696.800	0.0143094
696.878	0.0141419
696.956	0.0141358
697.035	0.0141141
697.113	0.0140908
697.191	0.0139463
697.269	0.0138522
697.347	0.0139286
697.425	0.0141077
697.503	0.0140417
697.581	0.0140753
697.660	0.0141135
697.738	0.0140022
697.816	0.0141697
697.894	0.0140291
697.972	0.0142274
698.050	0.0142406
698.128	0.0142665
698.206	0.0142177
698.285	0.0143728
698.363	0.0143639
698.441	0.0144469
698.519	0.0146471
698.597	0.0146326
698.675	0.0146618
698.753	0.0146762
698.831	0.0147703
698.910	0.0147537
698.988	0.0147785
699.066	0.0145183
699.144	0.0146200
699.222	0.0146159
699.300	0.0144189
699.378	0.0144150
699.456	0.0141371
699.535	0.0140537
699.613	0.0140493
699.691	0.0140797
699.769	0.0141700
699.847	0.0141160
699.925	0.0140575
700.003	0.0139983
700.081	0.0142462
700.160	0.0143040
700.238	0.0143513
700.316	0.0144550
700.394	0.0145236
700.472	0.0145826
700.550	0.0145917
700.628	0.0147041
700.706	0.0146879
700.785	0.0148123
700.863	0.0147855
700.941	0.0149010
701.019	0.0148868
701.097	0.0146867
701.175	0.0146946
701.253	0.0146426
701.331	0.0147271
701.410	0.0145425
701.488	0.0145339
701.566	0.0145554
701.644	0.0144450
701.722	0.0145074
701.800	0.0145278
701.878	0.0144080
701.956	0.0144364
702.035	0.0142908
702.113	0.0144279
702.191	0.0145291
702.269	0.0143974
702.347	0.0144247
702.425	0.0144408
702.503	0.0146021
702.581	0.0143204
702.660	0.0142339
702.738	0.0143420
702.816	0.0144524
702.894	0.0142392
702.972	0.0142644
703.050	0.0142838
703.128	0.0142072
703.206	0.0141987
703.285	0.0140384
703.363	0.0141180
703.441	0.0142027
703.519	0.0141185
703.597	0.0142339
703.675	0.0143597
703.753	0.0143672
703.831	0.0142208
703.910	0.0144327
703.988	0.0143658
704.066	0.0143856
704.144	0.0145592
704.222	0.0144875
704.300	0.0145016
704.378	0.0144463
704.456	0.0146093
704.535	0.0148476
704.613	0.0148320
704.691	0.0147581
704.769	0.0146615
704.847	0.0148923
704.925	0.0146755
705.003	0.0146613
705.081	0.0145011
705.160	0.0145712
705.238	0.0143427
705.316	0.0144788
705.394	0.0144134
705.472	0.0144990
705.550	0.0143564
705.628	0.0142696
705.706	0.0144113
705.785	0.0143361
705.863	0.0144292
705.941	0.0144712
706.019	0.0145668
706.097	0.0144602
706.175	0.0145045
706.253	0.0148145
706.331	0.0148347
706.410	0.0149300
706.488	0.0148339
706.566	0.0147734
706.644	0.0147658
706.722	0.0148730
706.800	0.0147678
706.878	0.0146402
706.956	0.0145638
707.035	0.0144794
707.113	0.0144366
707.191	0.0142957
707.269	0.0143369
707.347	0.0143322
707.425	0.0142120
707.503	0.0142980
707.581	0.0143803
707.660	0.0145760
707.738	0.0146204
707.816	0.0146266
707.894	0.0147285
707.972	0.0147179
708.050	0.0146033
708.128	0.0146040
708.206	0.0147146
708.285	0.0146391
708.363	0.0145319
708.441	0.0144418
708.519	0.0142413
708.597	0.0142912
708.675	0.0140594
708.753	0.0140585
708.831	0.0140816
708.910	0.0139391
708.988	0.0139042
709.066	0.0138264
709.144	0.0140425
709.222	0.0139008
709.300	0.0138794
709.378	0.0138863
709.456	0.0140558
709.535	0.0140371
709.613	0.0141133
709.691	0.0141766
709.769	0.0143468
709.847	0.0142799
709.925	0.0143858
710.003	0.0145522
710.081	0.0144695
710.160	0.0144537
710.238	0.0144526
710.316	0.0145891
710.394	0.0147115
710.472	0.0145366
710.550	0.0146616
710.628	0.0147055
710.706	0.0145317
710.785	0.0147655
710.863	0.0145734
710.941	0.0143760
711.019	0.0145055
711.097	0.0143679
711.175	0.0142859
711.253	0.0143330
711.331	0.0142138
711.410	0.0143379
711.488	0.0142216
711.566	0.0142722
711.644	0.0143848
711.722	0.0143387
711.800	0.0142234
711.878	0.0144271
711.956	0.0145405
712.035	0.0146323
712.113	0.0146378
712.191	0.0147588
712.269	0.0149557
712.347	0.0149391
712.425	0.0148421
712.503	0.0151328
712.581	0.0151541
712.660	0.0149042
712.738	0.0149060
712.816	0.0147575
712.894	0.0147073
712.972	0.0146599
713.050	0.0145192
713.128	0.0144493
713.206	0.0144032
713.285	0.0143867
713.363	0.0143041
713.441	0.0142670
713.519	0.0142088
713.597	0.0142298
713.675	0.0143222
713.753	0.0144817
713.831	0.0143893
713.910	0.0144825
713.988	0.0146728
714.066	0.0146051
714.144	0.0147507
714.222	0.0147060
714.300	0.0148724
714.378	0.0146484
714.456	0.0146356
714.535	0.0145684
714.613	0.0143273
714.691	0.0143260
714.769	0.0141879
714.847	0.0140723
714.925	0.0139965
715.003	0.0139960
715.081	0.0137234
715.160	0.0137150
715.238	0.0137463
715.316	0.0138004
715.394	0.0138572
715.472	0.0136664
715.550	0.0139002
715.628	0.0139569
715.706	0.0139148
715.785	0.0141715
715.863	0.0141709
715.941	0.0140974
716.019	0.0141444
716.097	0.0143343
716.175	0.0142783
716.253	0.0143442
716.331	0.0144837
716.410	0.0144894
716.488	0.0144304
716.566	0.0144902
716.644	0.0146171
716.722	0.0147235
716.800	0.0145947
716.878	0.0146905
716.956	0.0146455
717.035	0.0145495
717.113	0.0145908
717.191	0.0145600
717.269	0.0144784
717.347	0.0144783
717.425	0.0145033
717.503	0.0144505
717.581	0.0143762
717.660	0.0144611
717.738	0.0145608
717.816	0.0145911
717.894	0.0145847
717.972	0.0146390
718.050	0.0147379
718.128	0.0146220
718.206	0.0148026
718.285	0.0147964
718.363	0.0150189
718.441	0.0148986
718.519	0.0147921
718.597	0.0148866
718.675	0.0149517
718.753	0.0148437
718.831	0.0149090
718.910	0.0148749
718.988	0.0148000
719.066	0.0146149
719.144	0.0147022
719.222	0.0144250
719.300	0.0144926
719.378	0.0144045
719.456	0.0143575
719.535	0.0143510
719.613	0.0143645
719.691	0.0144062
719.769	0.0144192
719.847	0.0143515
719.925	0.0144952
720.003	0.0144399
720.081	0.0145502
720.160	0.0145425
720.238	0.0145872
720.316	0.0146403
720.394	0.0144736
720.472	0.0145126
720.550	0.0145401
720.628	0.0144507
720.706	0.0143690
720.785	0.0143512
720.863	0.0142899
720.941	0.0140265
721.019	0.0139049
721.097	0.0138922
721.175	0.0136817
721.253	0.0137645
721.331	0.0136613
721.410	0.0135936
721.488	0.0136227
721.566	0.0137200
721.644	0.0136079
721.722	0.0137512
721.800	0.0139278
721.878	0.0139097
721.956	0.0140463
722.035	0.0142248
722.113	0.0142552
722.191	0.0142197
722.269	0.0144010
722.347	0.0144802
722.425	0.0145909
722.503	0.0146719
722.581	0.0145272
722.660	0.0146306
722.738	0.0145450
722.816	0.0145435
722.894	0.0146317
722.972	0.0145316
723.050	0.0145094
723.128	0.0145031
723.206	0.0145258
723.285	0.0144110
723.363	0.0144335
723.441	0.0144228
723.519	0.0145055
723.597	0.0144807
723.675	0.0145878
723.753	0.0147139
723.831	0.0148080
723.910	0.0147121
723.988	0.0148993
724.066	0.0149738
724.144	0.0148624
724.222	0.0150010
724.300	0.0150755
724.378	0.0150486
724.456	0.0151129
724.535	0.0150817
724.613	0.0150179
724.691	0.0151232
724.769	0.0148869
724.847	0.0148650
724.925	0.0149539
725.003	0.0148239
725.081	0.0148393
725.160	0.0147031
725.238	0.0146069
725.316	0.0145335
725.394	0.0145171
725.472	0.0146500
725.550	0.0145083
725.628	0.0145023
725.706	0.0145140
725.785	0.0145991
725.863	0.0144634
725.941	0.0142548
726.019	0.0145563
726.097	0.0146044
726.175	0.0144208
726.253	0.0145039
726.331	0.0142556
726.410	0.0143371
726.488	0.0143713
726.566	0.0143607
726.644	0.0142657
726.722	0.0141524
726.800	0.0142460
726.878	0.0142599
726.956	0.0139841
727.035	0.0140730
727.113	0.0140698
727.191	0.0140028
727.269	0.0138997
727.347	0.0139676
727.425	0.0140133
727.503	0.0138831
727.581	0.0137870
727.660	0.0139896
727.738	0.0138937
727.816	0.0138158
727.894	0.0139519
727.972	0.0140294
728.050	0.0140623
728.128	0.0139844
728.206	0.0140150
728.285	0.0141671
728.363	0.0143290
728.441	0.0142581
728.519	0.0142310
728.597	0.0144551
728.675	0.0144476
728.753	0.0145128
728.831	0.0145113
728.910	0.0144852
728.988	0.0145895
729.066	0.0144246
729.144	0.0145151
729.222	0.0145330
729.300	0.0146004
729.378	0.0145216
729.456	0.0145097
729.535	0.0144447
729.613	0.0143336
729.691	0.0144485
729.769	0.0145707
729.847	0.0145132
729.925	0.0146719
730.003	0.0147128
730.081	0.0148370
730.160	0.0147818
730.238	0.0148681
730.316	0.0150425
730.394	0.0149826
730.472	0.0150340
730.550	0.0150621
730.628	0.0150666
730.706	0.0151909
730.785	0.0149949
730.863	0.0148641
730.941	0.0148767
731.019	0.0147580
731.097	0.0146586
731.175	0.0145139
731.253	0.0144900
731.331	0.0144142
731.410	0.0143833
731.488	0.0146201
731.566	0.0144812
731.644	0.0143569
731.722	0.0142645
731.800	0.0143044
731.878	0.0144146
731.956	0.0144762
732.035	0.0143199
732.113	0.0143417
732.191	0.0143623
732.269	0.0143987
732.347	0.0145126
732.425	0.0145148
732.503	0.0142291
732.581	0.0143244
732.660	0.0143401
732.738	0.0142293
732.816	0.0140564
732.894	0.0141247
732.972	0.0139710
733.050	0.0139137
733.128	0.0139093
733.206	0.0137994
733.285	0.0138887
733.363	0.0138683
733.441	0.0138228
733.519	0.0138044
733.597	0.0140200
733.675	0.0139362
733.753	0.0139893
733.831	0.0140028
733.910	0.0139673
733.988	0.0141792
734.066	0.0141370
734.144	0.0140856
734.222	0.0141962
734.300	0.0142485
734.378	0.0142479
734.456	0.0141940
734.535	0.0141669
734.613	0.0143027
734.691	0.0143444
734.769	0.0142857
734.847	0.0142921
734.925	0.0143800
735.003	0.0144934
735.081	0.0143014
735.160	0.0144268
735.238	0.0145721
735.316	0.0144721
735.394	0.0144666
735.472	0.0145492
735.550	0.0144881
735.628	0.0146413
735.706	0.0145911
735.785	0.0146373
735.863	0.0147530
735.941	0.0147639
736.019	0.0147408
736.097	0.0146754
736.175	0.0146506
736.253	0.0147956
736.331	0.0147843
736.410	0.0148573
736.488	0.0149094
736.566	0.0148348
736.644	0.0149065
736.722	0.0149852
736.800	0.0150037
736.878	0.0150172
736.956	0.0149075
737.035	0.0150457
737.113	0.0149529
737.191	0.0148810
737.269	0.0150430
737.347	0.0148940
737.425	0.0147642
737.503	0.0147573
737.581	0.0147505
737.660	0.0148431
737.738	0.0147012
737.816	0.0147118
737.894	0.0144022
737.972	0.0145473
738.050	0.0145329
738.128	0.0145842
738.206	0.0146277
738.285	0.0146486
738.363	0.0146654
738.441	0.0146181
738.519	0.0145594
738.597	0.0146250
738.675	0.0145367
738.753	0.0143408
738.831	0.0144428
738.910	0.0143132
738.988	0.0140421
739.066	0.0141892
739.144	0.0140957
739.222	0.0139914
739.300	0.0138008
739.378	0.0137970
739.456	0.0138408
739.535	0.0137110
739.613	0.0136684
739.691	0.0136920
739.769	0.0138762
739.847	0.0139409
739.925	0.0139611
740.003	0.0138734
740.081	0.0139051
740.160	0.0139397
740.238	0.0141183
740.316	0.0140971
740.394	0.0141264
740.472	0.0140223
740.550	0.0140834
740.628	0.0141026
740.706	0.0140327
740.785	0.0140356
740.863	0.0141578
740.941	0.0141194
741.019	0.0142789
741.097	0.0142762
741.175	0.0144149
741.253	0.0144895
741.331	0.0143874
741.410	0.0144496
741.488	0.0144400
741.566	0.0144597
741.644	0.0143393
741.722	0.0144599
741.800	0.0144495
741.878	0.0143457
741.956	0.0145429
742.035	0.0145618
742.113	0.0146268
742.191	0.0146051
742.269	0.0145337
742.347	0.0146150
742.425	0.0146438
742.503	0.0146302
742.581	0.0147514
742.660	0.0148498
742.738	0.0148179
742.816	0.0149809
742.894	0.0149986
742.972	0.0148508
743.050	0.0149316
743.128	0.0149945
743.206	0.0148990
743.285	0.0149020
743.363	0.0149065
743.441	0.0149693
743.519	0.0147260
743.597	0.0146581
743.675	0.0145972
743.753	0.0145905
743.831	0.0145144
743.910	0.0144542
743.988	0.0144247
744.066	0.0143912
744.144	0.0144643
744.222	0.0146928
744.300	0.0145525
744.378	0.0144794
744.456	0.0145778
744.535	0.0146813
744.613	0.0145752
744.691	0.0146736
744.769	0.0147108
744.847	0.0145383
744.925	0.0145898
745.003	0.0146070
745.081	0.0146159
745.160	0.0144772
745.238	0.0143634
745.316	0.0142809
745.394	0.0142327
745.472	0.0142899
745.550	0.0141352
745.628	0.0139889
745.706	0.0139624
