05/03/2022	20:37:17	Ver.	4.1	UNKNOWN
Optical Delay	660.003261	Delta X		0.078125	Sweeps	1	Scan Rate	0/0
Coordinates	Axis 1	NaN	Axis 2	NaN	Axis 3	NaN	Axis 4	NaN	Axis 5	NaN	Axis 6	0.000000
TX Power	0.000000	RX Power	0.000000

660.003	0.0144879
660.081	0.0145171
660.160	0.0145264
660.238	0.0144701
660.316	0.0143710
660.394	0.0144820
660.472	0.0145930
660.550	0.0145596
660.628	0.0145544
660.706	0.0145933
660.785	0.0143782
660.863	0.0144717
660.941	0.0144979
661.019	0.0145102
661.097	0.0145347
661.175	0.0143391
661.253	0.0144947
661.331	0.0143595
661.410	0.0145877
661.488	0.0145087
661.566	0.0145244
661.644	0.0144639
661.722	0.0145419
661.800	0.0145018
661.878	0.0145703
661.956	0.0145421
662.035	0.0144684
662.113	0.0146045
662.191	0.0145381
662.269	0.0144446
662.347	0.0145081
662.425	0.0144080
662.503	0.0144778
662.581	0.0144658
662.660	0.0146940
662.738	0.0144630
662.816	0.0143949
662.894	0.0143602
662.972	0.0144901
663.050	0.0143804
663.128	0.0143141
663.206	0.0144836
663.285	0.0144393
663.363	0.0144748
663.441	0.0145339
663.519	0.0145122
663.597	0.0145972
663.675	0.0144337
663.753	0.0144484
663.831	0.0145627
663.910	0.0145419
663.988	0.0144698
664.066	0.0145509
664.144	0.0145206
664.222	0.0145313
664.300	0.0143980
664.378	0.0145963
664.456	0.0145203
664.535	0.0144888
664.613	0.0146501
664.691	0.0144788
664.769	0.0144405
664.847	0.0144793
664.925	0.0145355
665.003	0.0146239
665.081	0.0145638
665.160	0.0144404
665.238	0.0147138
665.316	0.0145606
665.394	0.0145484
665.472	0.0146243
665.550	0.0146161
665.628	0.0145686
665.706	0.0145046
665.785	0.0146040
665.863	0.0145779
665.941	0.0145551
666.019	0.0146126
666.097	0.0145358
666.175	0.0144119
666.253	0.0143265
666.331	0.0144157
666.410	0.0144447
666.488	0.0144963
666.566	0.0144753
666.644	0.0145719
666.722	0.0144038
666.800	0.0143861
666.878	0.0143784
666.956	0.0143668
667.035	0.0143796
667.113	0.0144440
667.191	0.0143790
667.269	0.0145804
667.347	0.0145139
667.425	0.0146189
667.503	0.0144419
667.581	0.0144909
667.660	0.0144934
667.738	0.0145264
667.816	0.0144712
667.894	0.0144962
667.972	0.0144401
668.050	0.0144904
668.128	0.0144988
668.206	0.0144930
668.285	0.0145261
668.363	0.0145303
668.441	0.0146022
668.519	0.0144855
668.597	0.0145322
668.675	0.0144599
668.753	0.0145678
668.831	0.0145679
668.910	0.0145564
668.988	0.0146365
669.066	0.0144117
669.144	0.0145598
669.222	0.0144238
669.300	0.0144592
669.378	0.0144350
669.456	0.0144885
669.535	0.0144746
669.613	0.0144747
669.691	0.0143714
669.769	0.0143858
669.847	0.0144588
669.925	0.0144063
670.003	0.0145923
670.081	0.0145069
670.160	0.0144320
670.238	0.0144825
670.316	0.0143513
670.394	0.0143792
670.472	0.0143584
670.550	0.0144527
670.628	0.0144156
670.706	0.0145211
670.785	0.0144181
670.863	0.0143942
670.941	0.0143378
671.019	0.0143815
671.097	0.0144232
671.175	0.0143575
671.253	0.0143499
671.331	0.0144425
671.410	0.0143821
671.488	0.0144374
671.566	0.0143510
671.644	0.0144940
671.722	0.0143833
671.800	0.0144797
671.878	0.0144381
671.956	0.0144066
672.035	0.0144470
672.113	0.0144202
672.191	0.0144486
672.269	0.0143595
672.347	0.0143369
672.425	0.0144635
672.503	0.0144926
672.581	0.0142500
672.660	0.0143991
672.738	0.0144899
672.816	0.0143270
672.894	0.0144062
672.972	0.0143694
673.050	0.0144162
673.128	0.0144361
673.206	0.0145345
673.285	0.0144595
673.363	0.0144552
673.441	0.0144212
673.519	0.0142961
673.597	0.0143713
673.675	0.0144272
673.753	0.0144630
673.831	0.0144266
673.910	0.0144599
673.988	0.0145345
674.066	0.0143747
674.144	0.0144283
674.222	0.0144494
674.300	0.0145020
674.378	0.0144736
674.456	0.0144671
674.535	0.0143570
674.613	0.0143722
674.691	0.0144606
674.769	0.0144506
674.847	0.0143745
674.925	0.0144621
675.003	0.0144997
675.081	0.0145518
675.160	0.0145004
675.238	0.0145063
675.316	0.0144263
675.394	0.0143922
675.472	0.0144408
675.550	0.0145228
675.628	0.0144765
675.706	0.0145181
675.785	0.0145136
675.863	0.0144242
675.941	0.0144813
676.019	0.0144791
676.097	0.0145652
676.175	0.0145457
676.253	0.0145114
676.331	0.0144302
676.410	0.0144535
676.488	0.0144391
676.566	0.0144179
676.644	0.0144229
676.722	0.0144699
676.800	0.0144186
676.878	0.0144194
676.956	0.0144382
677.035	0.0145446
677.113	0.0144235
677.191	0.0143549
677.269	0.0143909
677.347	0.0145318
677.425	0.0145267
677.503	0.0144631
677.581	0.0144283
677.660	0.0144231
677.738	0.0144859
677.816	0.0144144
677.894	0.0145450
677.972	0.0145156
678.050	0.0145213
678.128	0.0144655
678.206	0.0146529
678.285	0.0144988
678.363	0.0146254
678.441	0.0145554
678.519	0.0145766
678.597	0.0145718
678.675	0.0145568
678.753	0.0146373
678.831	0.0146540
678.910	0.0145422
678.988	0.0145272
679.066	0.0146152
679.144	0.0144894
679.222	0.0144443
679.300	0.0145218
679.378	0.0146107
679.456	0.0147342
679.535	0.0146970
679.613	0.0147076
679.691	0.0145910
679.769	0.0146605
679.847	0.0146474
679.925	0.0146806
680.003	0.0146619
680.081	0.0146149
680.160	0.0147781
680.238	0.0146693
680.316	0.0145217
680.394	0.0146772
680.472	0.0146130
680.550	0.0145661
680.628	0.0146845
680.706	0.0148013
680.785	0.0146101
680.863	0.0145947
680.941	0.0146770
681.019	0.0146447
681.097	0.0145818
681.175	0.0146476
681.253	0.0145160
681.331	0.0145286
681.410	0.0144890
681.488	0.0144685
681.566	0.0146073
681.644	0.0146645
681.722	0.0146579
681.800	0.0147637
681.878	0.0146942
681.956	0.0146358
682.035	0.0147196
682.113	0.0147657
682.191	0.0147374
682.269	0.0147005
682.347	0.0147541
682.425	0.0147246
682.503	0.0146639
682.581	0.0146025
682.660	0.0146900
682.738	0.0146874
682.816	0.0144398
682.894	0.0146182
682.972	0.0145078
683.050	0.0144534
683.128	0.0144620
683.206	0.0142567
683.285	0.0144499
683.363	0.0143965
683.441	0.0143892
683.519	0.0144523
683.597	0.0144381
683.675	0.0143306
683.753	0.0143143
683.831	0.0143066
683.910	0.0144054
683.988	0.0145309
684.066	0.0144933
684.144	0.0144478
684.222	0.0144176
684.300	0.0144215
684.378	0.0144965
684.456	0.0144967
684.535	0.0144579
684.613	0.0145152
684.691	0.0146968
684.769	0.0145618
684.847	0.0145334
684.925	0.0144613
685.003	0.0145123
685.081	0.0145667
685.160	0.0146593
685.238	0.0146228
685.316	0.0145834
685.394	0.0145939
685.472	0.0145436
685.550	0.0145686
685.628	0.0144979
685.706	0.0145408
685.785	0.0145015
685.863	0.0145465
685.941	0.0145935
686.019	0.0145107
686.097	0.0144211
686.175	0.0143358
686.253	0.0143626
686.331	0.0143343
686.410	0.0143591
686.488	0.0143324
686.566	0.0142713
686.644	0.0143395
686.722	0.0143791
686.800	0.0143888
686.878	0.0144312
686.956	0.0144398
687.035	0.0144239
687.113	0.0145092
687.191	0.0144329
687.269	0.0144534
687.347	0.0145438
687.425	0.0144562
687.503	0.0145426
687.581	0.0145668
687.660	0.0145847
687.738	0.0144579
687.816	0.0144305
687.894	0.0144669
687.972	0.0143808
688.050	0.0143875
688.128	0.0144681
688.206	0.0144683
688.285	0.0143684
688.363	0.0144080
688.441	0.0145338
688.519	0.0144976
688.597	0.0144028
688.675	0.0144901
688.753	0.0143641
688.831	0.0143975
688.910	0.0144730
688.988	0.0145274
689.066	0.0144821
689.144	0.0145100
689.222	0.0146646
689.300	0.0147095
689.378	0.0147214
689.456	0.0146152
689.535	0.0146786
689.613	0.0145853
689.691	0.0146107
689.769	0.0145668
689.847	0.0145779
689.925	0.0144854
690.003	0.0144626
690.081	0.0143394
690.160	0.0143832
690.238	0.0144752
690.316	0.0142356
690.394	0.0142357
690.472	0.0140807
690.550	0.0141677
690.628	0.0142662
690.706	0.0141517
690.785	0.0141758
690.863	0.0142747
690.941	0.0140929
691.019	0.0141793
691.097	0.0141624
691.175	0.0142567
691.253	0.0142546
691.331	0.0142263
691.410	0.0142395
691.488	0.0142344
691.566	0.0144051
691.644	0.0142991
691.722	0.0144282
691.800	0.0144576
691.878	0.0145055
691.956	0.0145609
692.035	0.0144726
692.113	0.0146393
692.191	0.0146018
692.269	0.0146501
692.347	0.0146705
692.425	0.0146886
692.503	0.0146768
692.581	0.0146684
692.660	0.0145700
692.738	0.0145014
692.816	0.0145649
692.894	0.0145275
692.972	0.0145003
693.050	0.0145765
693.128	0.0146014
693.206	0.0145145
693.285	0.0145563
693.363	0.0146980
693.441	0.0145676
693.519	0.0146682
693.597	0.0144590
693.675	0.0146156
693.753	0.0146236
693.831	0.0145779
693.910	0.0145608
693.988	0.0146628
694.066	0.0147233
694.144	0.0147052
694.222	0.0145123
694.300	0.0145885
694.378	0.0144889
694.456	0.0146166
694.535	0.0145387
694.613	0.0145378
694.691	0.0146031
694.769	0.0144849
694.847	0.0143792
694.925	0.0144850
695.003	0.0143944
695.081	0.0142310
695.160	0.0142738
695.238	0.0142941
695.316	0.0141840
695.394	0.0141541
695.472	0.0141415
695.550	0.0142429
695.628	0.0141620
695.706	0.0142426
695.785	0.0141210
695.863	0.0141669
695.941	0.0142732
696.019	0.0143369
696.097	0.0143771
696.175	0.0144701
696.253	0.0144787
696.331	0.0145009
696.410	0.0144377
696.488	0.0146864
696.566	0.0146105
696.644	0.0146729
696.722	0.0147768
696.800	0.0148579
696.878	0.0149596
696.956	0.0148593
697.035	0.0148128
697.113	0.0148666
697.191	0.0148769
697.269	0.0148074
697.347	0.0146653
697.425	0.0147245
697.503	0.0146109
697.581	0.0144725
697.660	0.0145238
697.738	0.0145696
697.816	0.0143564
697.894	0.0143356
697.972	0.0144479
698.050	0.0143455
698.128	0.0144225
698.206	0.0145927
698.285	0.0145399
698.363	0.0146593
698.441	0.0144559
698.519	0.0145197
698.597	0.0146231
698.675	0.0148248
698.753	0.0148601
698.831	0.0147478
698.910	0.0147160
698.988	0.0146914
699.066	0.0149378
699.144	0.0148164
699.222	0.0147669
699.300	0.0147216
699.378	0.0149351
699.456	0.0148155
699.535	0.0148439
699.613	0.0147880
699.691	0.0149168
699.769	0.0148520
699.847	0.0147230
699.925	0.0149857
700.003	0.0148265
700.081	0.0147247
700.160	0.0147243
700.238	0.0146100
700.316	0.0145462
700.394	0.0144778
700.472	0.0146093
700.550	0.0145796
700.628	0.0144862
700.706	0.0145325
700.785	0.0144286
700.863	0.0144447
700.941	0.0144441
701.019	0.0144289
701.097	0.0143151
701.175	0.0143055
701.253	0.0143875
701.331	0.0143960
701.410	0.0144591
701.488	0.0143456
701.566	0.0143761
701.644	0.0146799
701.722	0.0144736
701.800	0.0144481
701.878	0.0144703
701.956	0.0146245
702.035	0.0146278
702.113	0.0146990
702.191	0.0146695
702.269	0.0147331
702.347	0.0148135
702.425	0.0148677
702.503	0.0147553
702.581	0.0148196
702.660	0.0148361
702.738	0.0148380
702.816	0.0148220
702.894	0.0147759
702.972	0.0146581
703.050	0.0146023
703.128	0.0146405
703.206	0.0145478
703.285	0.0146443
703.363	0.0145914
703.441	0.0144428
703.519	0.0145667
703.597	0.0144559
703.675	0.0145033
703.753	0.0143970
703.831	0.0145079
703.910	0.0148045
703.988	0.0146675
704.066	0.0146348
704.144	0.0147762
704.222	0.0148309
704.300	0.0147163
704.378	0.0147489
704.456	0.0148515
704.535	0.0147762
704.613	0.0148876
704.691	0.0148954
704.769	0.0147416
704.847	0.0148780
704.925	0.0146535
705.003	0.0146337
705.081	0.0144940
705.160	0.0144989
705.238	0.0144109
705.316	0.0144653
705.394	0.0142878
705.472	0.0142946
705.550	0.0144320
705.628	0.0143513
705.706	0.0144907
705.785	0.0145820
705.863	0.0146417
705.941	0.0145302
706.019	0.0147337
706.097	0.0147033
706.175	0.0147102
706.253	0.0148727
706.331	0.0148695
706.410	0.0147498
706.488	0.0145806
706.566	0.0144982
706.644	0.0145004
706.722	0.0145008
706.800	0.0146104
706.878	0.0144423
706.956	0.0143149
707.035	0.0141444
707.113	0.0141995
707.191	0.0141644
707.269	0.0140569
707.347	0.0142670
707.425	0.0140905
707.503	0.0140707
707.581	0.0142966
707.660	0.0142496
707.738	0.0143626
707.816	0.0142782
707.894	0.0143375
707.972	0.0143650
708.050	0.0143471
708.128	0.0144254
708.206	0.0143825
708.285	0.0145038
708.363	0.0146177
708.441	0.0145888
708.519	0.0145910
708.597	0.0146590
708.675	0.0147551
708.753	0.0147255
708.831	0.0146793
708.910	0.0148054
708.988	0.0146262
709.066	0.0146680
709.144	0.0145959
709.222	0.0147161
709.300	0.0146392
709.378	0.0144698
709.456	0.0144489
709.535	0.0144918
709.613	0.0144953
709.691	0.0144349
709.769	0.0143731
709.847	0.0143647
709.925	0.0145016
710.003	0.0143724
710.081	0.0143163
710.160	0.0144424
710.238	0.0145357
710.316	0.0145224
710.394	0.0145640
710.472	0.0144723
710.550	0.0147435
710.628	0.0146336
710.706	0.0147729
710.785	0.0148703
710.863	0.0146555
710.941	0.0147991
711.019	0.0145697
711.097	0.0145192
711.175	0.0145321
711.253	0.0142630
711.331	0.0142371
711.410	0.0142410
711.488	0.0141187
711.566	0.0141462
711.644	0.0141883
711.722	0.0141951
711.800	0.0141859
711.878	0.0143520
711.956	0.0143569
712.035	0.0145194
712.113	0.0146523
712.191	0.0146333
712.269	0.0146680
712.347	0.0146209
712.425	0.0147801
712.503	0.0145231
712.581	0.0145865
712.660	0.0145432
712.738	0.0144255
712.816	0.0144054
712.894	0.0142308
712.972	0.0142705
713.050	0.0141824
713.128	0.0141715
713.206	0.0141888
713.285	0.0139596
713.363	0.0140077
713.441	0.0140408
713.519	0.0140608
713.597	0.0140906
713.675	0.0140782
713.753	0.0141376
713.831	0.0141693
713.910	0.0141477
713.988	0.0143382
714.066	0.0142758
714.144	0.0143784
714.222	0.0142945
714.300	0.0142290
714.378	0.0143359
714.456	0.0141708
714.535	0.0144218
714.613	0.0144925
714.691	0.0143880
714.769	0.0144987
714.847	0.0145206
714.925	0.0147129
715.003	0.0146496
715.081	0.0146684
715.160	0.0147521
715.238	0.0147282
715.316	0.0146362
715.394	0.0146487
715.472	0.0147264
715.550	0.0146382
715.628	0.0144469
715.706	0.0146472
715.785	0.0145399
715.863	0.0144187
715.941	0.0144408
716.019	0.0144939
716.097	0.0145576
716.175	0.0145162
716.253	0.0146032
716.331	0.0145622
716.410	0.0146602
716.488	0.0148117
716.566	0.0148486
716.644	0.0148003
716.722	0.0147327
716.800	0.0149465
716.878	0.0147705
716.956	0.0148634
717.035	0.0148595
717.113	0.0148685
717.191	0.0148643
717.269	0.0146913
717.347	0.0147702
717.425	0.0144749
717.503	0.0145395
717.581	0.0145807
717.660	0.0143175
717.738	0.0142312
717.816	0.0143935
717.894	0.0143764
717.972	0.0145330
718.050	0.0143108
718.128	0.0144917
718.206	0.0145390
718.285	0.0147002
718.363	0.0148979
718.441	0.0147761
718.519	0.0148294
718.597	0.0147855
718.675	0.0147363
718.753	0.0147668
718.831	0.0149397
718.910	0.0146906
718.988	0.0146503
719.066	0.0146494
719.144	0.0145108
719.222	0.0143319
719.300	0.0142956
719.378	0.0140894
719.456	0.0141954
719.535	0.0141533
719.613	0.0138950
719.691	0.0139027
719.769	0.0140353
719.847	0.0140356
719.925	0.0138477
720.003	0.0140926
720.081	0.0141891
720.160	0.0141259
720.238	0.0140804
720.316	0.0142747
720.394	0.0143233
720.472	0.0144122
720.550	0.0142567
720.628	0.0144020
720.706	0.0143851
720.785	0.0144199
720.863	0.0144752
720.941	0.0143760
721.019	0.0143892
721.097	0.0144215
721.175	0.0144483
721.253	0.0145896
721.331	0.0144773
721.410	0.0145939
721.488	0.0144109
721.566	0.0145197
721.644	0.0145354
721.722	0.0145348
721.800	0.0145589
721.878	0.0144850
721.956	0.0145884
722.035	0.0147471
722.113	0.0145212
722.191	0.0145722
722.269	0.0146363
722.347	0.0146748
722.425	0.0147328
722.503	0.0147215
722.581	0.0147983
722.660	0.0148876
722.738	0.0148382
722.816	0.0146456
722.894	0.0148263
722.972	0.0149150
723.050	0.0148804
723.128	0.0147726
723.206	0.0150204
723.285	0.0148720
723.363	0.0147837
723.441	0.0147819
723.519	0.0147375
723.597	0.0147562
723.675	0.0148161
723.753	0.0145638
723.831	0.0145315
723.910	0.0145419
723.988	0.0145839
724.066	0.0145467
724.144	0.0145377
724.222	0.0143482
724.300	0.0143891
724.378	0.0144330
724.456	0.0145203
724.535	0.0145547
724.613	0.0145623
724.691	0.0145377
724.769	0.0144604
724.847	0.0146461
724.925	0.0146192
725.003	0.0146082
725.081	0.0145459
725.160	0.0146512
725.238	0.0147330
725.316	0.0146560
725.394	0.0145708
725.472	0.0144740
725.550	0.0145583
725.628	0.0146022
725.706	0.0144942
725.785	0.0142020
725.863	0.0142053
725.941	0.0142059
726.019	0.0141738
726.097	0.0140753
726.175	0.0140945
726.253	0.0142265
726.331	0.0140432
726.410	0.0140437
726.488	0.0139880
726.566	0.0141844
726.644	0.0141109
726.722	0.0141698
726.800	0.0143201
726.878	0.0144628
726.956	0.0143888
727.035	0.0143357
727.113	0.0144003
727.191	0.0144180
727.269	0.0144966
727.347	0.0144585
727.425	0.0144281
727.503	0.0144391
727.581	0.0144482
727.660	0.0146229
727.738	0.0145466
727.816	0.0145953
727.894	0.0145068
727.972	0.0145760
728.050	0.0146684
728.128	0.0147067
728.206	0.0144627
728.285	0.0146374
728.363	0.0145301
728.441	0.0146198
728.519	0.0148014
728.597	0.0148556
728.675	0.0146552
728.753	0.0147620
728.831	0.0148898
728.910	0.0148338
728.988	0.0149164
729.066	0.0149377
729.144	0.0150400
729.222	0.0150081
729.300	0.0147920
729.378	0.0150599
729.456	0.0151733
729.535	0.0149230
729.613	0.0149012
729.691	0.0148940
729.769	0.0149519
729.847	0.0148740
729.925	0.0147303
730.003	0.0147521
730.081	0.0146250
730.160	0.0145943
730.238	0.0146033
730.316	0.0146775
730.394	0.0144942
730.472	0.0145094
730.550	0.0143163
730.628	0.0144150
730.706	0.0145191
730.785	0.0144018
730.863	0.0144094
730.941	0.0144286
731.019	0.0144695
731.097	0.0144865
731.175	0.0144083
731.253	0.0145806
731.331	0.0144094
731.410	0.0145016
731.488	0.0144226
731.566	0.0143410
731.644	0.0143829
731.722	0.0144385
731.800	0.0144523
731.878	0.0143670
731.956	0.0141135
732.035	0.0143272
732.113	0.0143174
732.191	0.0141784
732.269	0.0142221
732.347	0.0142102
732.425	0.0141113
732.503	0.0140256
732.581	0.0139892
732.660	0.0140768
732.738	0.0140684
732.816	0.0138830
732.894	0.0140844
732.972	0.0140284
733.050	0.0140286
733.128	0.0140195
733.206	0.0142242
733.285	0.0140981
733.363	0.0141219
733.441	0.0142729
733.519	0.0142964
733.597	0.0141451
733.675	0.0143323
733.753	0.0144648
733.831	0.0143807
733.910	0.0143848
733.988	0.0144698
734.066	0.0144144
734.144	0.0144787
734.222	0.0144041
734.300	0.0144176
734.378	0.0144144
734.456	0.0144963
734.535	0.0144136
734.613	0.0144458
734.691	0.0143892
734.769	0.0144915
734.847	0.0146152
734.925	0.0146665
735.003	0.0145242
735.081	0.0146188
735.160	0.0147993
735.238	0.0148561
735.316	0.0148244
735.394	0.0150278
735.472	0.0150836
735.550	0.0150503
735.628	0.0152146
735.706	0.0151800
735.785	0.0151398
735.863	0.0151716
735.941	0.0152060
736.019	0.0151146
736.097	0.0150671
736.175	0.0150622
736.253	0.0149927
736.331	0.0150230
736.410	0.0150666
736.488	0.0148084
736.566	0.0148397
736.644	0.0147568
736.722	0.0147617
736.800	0.0145631
736.878	0.0146228
736.956	0.0145513
737.035	0.0145576
737.113	0.0143996
737.191	0.0144585
737.269	0.0145933
737.347	0.0144239
737.425	0.0146185
737.503	0.0146481
737.581	0.0144337
737.660	0.0143318
737.738	0.0144395
737.816	0.0144318
737.894	0.0144896
737.972	0.0142492
738.050	0.0144079
738.128	0.0143354
738.206	0.0143557
738.285	0.0144329
738.363	0.0142613
738.441	0.0140705
738.519	0.0140651
738.597	0.0141065
738.675	0.0141860
738.753	0.0141759
738.831	0.0141061
738.910	0.0140687
738.988	0.0141479
739.066	0.0142243
739.144	0.0139694
739.222	0.0141402
739.300	0.0141199
739.378	0.0141258
739.456	0.0140447
739.535	0.0142318
739.613	0.0141251
739.691	0.0141648
739.769	0.0141006
739.847	0.0142143
739.925	0.0141355
740.003	0.0141107
740.081	0.0142367
740.160	0.0140701
740.238	0.0141081
740.316	0.0141512
740.394	0.0141594
740.472	0.0142401
740.550	0.0143539
740.628	0.0141757
740.706	0.0142381
740.785	0.0143601
740.863	0.0143406
740.941	0.0142853
741.019	0.0143060
741.097	0.0143628
741.175	0.0144856
741.253	0.0143866
741.331	0.0144641
741.410	0.0145045
741.488	0.0144918
741.566	0.0146040
741.644	0.0145232
741.722	0.0144231
741.800	0.0147141
741.878	0.0146441
741.956	0.0146880
742.035	0.0147860
742.113	0.0148129
742.191	0.0148389
742.269	0.0147900
742.347	0.0150458
742.425	0.0150061
742.503	0.0150495
742.581	0.0150660
742.660	0.0148914
742.738	0.0149758
742.816	0.0148539
742.894	0.0147765
742.972	0.0148696
743.050	0.0146697
743.128	0.0147695
743.206	0.0147640
743.285	0.0145229
743.363	0.0146548
743.441	0.0146532
743.519	0.0145490
743.597	0.0143781
743.675	0.0144396
743.753	0.0144273
743.831	0.0145829
743.910	0.0145171
743.988	0.0143748
744.066	0.0145560
744.144	0.0145281
744.222	0.0143129
744.300	0.0143408
744.378	0.0143140
744.456	0.0143868
744.535	0.0142673
744.613	0.0142886
744.691	0.0141339
744.769	0.0141202
744.847	0.0140372
744.925	0.0140280
745.003	0.0139980
745.081	0.0141540
745.160	0.0140785
745.238	0.0140348
745.316	0.0141371
745.394	0.0140777
745.472	0.0140334
745.550	0.0139872
745.628	0.0140398
745.706	0.0141755
