05/03/2022	20:40:08	Ver.	4.1	UNKNOWN
Optical Delay	660.003261	Delta X		0.078125	Sweeps	1	Scan Rate	0/0
Coordinates	Axis 1	NaN	Axis 2	NaN	Axis 3	NaN	Axis 4	NaN	Axis 5	NaN	Axis 6	0.000000
TX Power	0.000000	RX Power	0.000000

660.003	0.0140635
660.081	0.0141161
660.160	0.0141438
660.238	0.0141469
660.316	0.0140523
660.394	0.0140709
660.472	0.0139944
660.550	0.0140733
660.628	0.0141997
660.706	0.0140994
660.785	0.0141022
660.863	0.0141817
660.941	0.0140922
661.019	0.0140894
661.097	0.0140968
661.175	0.0139769
661.253	0.0140644
661.331	0.0140934
661.410	0.0140746
661.488	0.0141427
661.566	0.0141528
661.644	0.0140434
661.722	0.0140776
661.800	0.0141867
661.878	0.0141187
661.956	0.0141732
662.035	0.0141758
662.113	0.0140653
662.191	0.0139861
662.269	0.0141284
662.347	0.0143275
662.425	0.0142211
662.503	0.0140210
662.581	0.0140752
662.660	0.0139880
662.738	0.0141348
662.816	0.0142739
662.894	0.0141541
662.972	0.0141635
663.050	0.0141399
663.128	0.0140721
663.206	0.0141695
663.285	0.0142287
663.363	0.0143176
663.441	0.0140195
663.519	0.0140511
663.597	0.0141788
663.675	0.0140643
663.753	0.0142622
663.831	0.0142628
663.910	0.0141291
663.988	0.0142960
664.066	0.0141519
664.144	0.0141762
664.222	0.0142094
664.300	0.0142264
664.378	0.0141448
664.456	0.0141179
664.535	0.0142117
664.613	0.0141481
664.691	0.0141438
664.769	0.0141445
664.847	0.0142285
664.925	0.0142496
665.003	0.0142529
665.081	0.0141990
665.160	0.0143190
665.238	0.0142679
665.316	0.0142888
665.394	0.0142793
665.472	0.0143365
665.550	0.0142259
665.628	0.0142605
665.706	0.0143163
665.785	0.0143484
665.863	0.0142708
665.941	0.0141949
666.019	0.0143069
666.097	0.0144247
666.175	0.0142111
666.253	0.0141843
666.331	0.0143277
666.410	0.0143411
666.488	0.0142580
666.566	0.0142702
666.644	0.0141116
666.722	0.0141088
666.800	0.0142909
666.878	0.0142217
666.956	0.0142255
667.035	0.0140867
667.113	0.0140963
667.191	0.0141716
667.269	0.0141087
667.347	0.0142834
667.425	0.0143031
667.503	0.0142470
667.581	0.0141292
667.660	0.0143327
667.738	0.0141892
667.816	0.0142561
667.894	0.0142596
667.972	0.0142712
668.050	0.0143475
668.128	0.0142729
668.206	0.0141851
668.285	0.0141919
668.363	0.0142928
668.441	0.0143075
668.519	0.0142524
668.597	0.0144452
668.675	0.0142904
668.753	0.0142729
668.831	0.0142384
668.910	0.0142126
668.988	0.0141693
669.066	0.0142735
669.144	0.0143092
669.222	0.0141344
669.300	0.0142194
669.378	0.0139399
669.456	0.0140764
669.535	0.0141386
669.613	0.0142828
669.691	0.0141123
669.769	0.0141908
669.847	0.0142620
669.925	0.0141824
670.003	0.0141098
670.081	0.0140552
670.160	0.0142268
670.238	0.0140965
670.316	0.0140574
670.394	0.0141342
670.472	0.0141161
670.550	0.0140992
670.628	0.0140428
670.706	0.0139395
670.785	0.0140418
670.863	0.0141571
670.941	0.0140034
671.019	0.0141213
671.097	0.0140421
671.175	0.0141309
671.253	0.0140590
671.331	0.0139731
671.410	0.0140444
671.488	0.0139896
671.566	0.0140807
671.644	0.0140133
671.722	0.0140437
671.800	0.0142173
671.878	0.0140822
671.956	0.0140635
672.035	0.0140622
672.113	0.0140959
672.191	0.0141268
672.269	0.0140711
672.347	0.0139951
672.425	0.0139814
672.503	0.0139220
672.581	0.0140820
672.660	0.0138545
672.738	0.0139481
672.816	0.0140864
672.894	0.0139669
672.972	0.0139912
673.050	0.0139502
673.128	0.0140679
673.206	0.0140364
673.285	0.0140267
673.363	0.0139429
673.441	0.0140646
673.519	0.0140556
673.597	0.0140808
673.675	0.0141326
673.753	0.0140421
673.831	0.0140002
673.910	0.0139791
673.988	0.0140059
674.066	0.0138960
674.144	0.0138964
674.222	0.0140888
674.300	0.0141650
674.378	0.0138753
674.456	0.0140045
674.535	0.0141343
674.613	0.0140215
674.691	0.0139178
674.769	0.0139941
674.847	0.0139161
674.925	0.0139973
675.003	0.0140347
675.081	0.0139636
675.160	0.0140446
675.238	0.0140913
675.316	0.0139377
675.394	0.0140446
675.472	0.0140371
675.550	0.0140391
675.628	0.0139902
675.706	0.0139182
675.785	0.0141141
675.863	0.0140369
675.941	0.0139989
676.019	0.0140173
676.097	0.0139429
676.175	0.0140440
676.253	0.0141395
676.331	0.0140533
676.410	0.0141360
676.488	0.0141069
676.566	0.0141351
676.644	0.0140998
676.722	0.0141373
676.800	0.0140546
676.878	0.0139356
676.956	0.0140355
677.035	0.0141118
677.113	0.0140469
677.191	0.0140054
677.269	0.0140127
677.347	0.0141196
677.425	0.0141354
677.503	0.0139577
677.581	0.0140554
677.660	0.0140864
677.738	0.0141480
677.816	0.0140483
677.894	0.0140629
677.972	0.0140648
678.050	0.0140225
678.128	0.0141599
678.206	0.0140977
678.285	0.0140698
678.363	0.0140797
678.441	0.0140340
678.519	0.0140543
678.597	0.0139647
678.675	0.0140219
678.753	0.0140162
678.831	0.0141122
678.910	0.0140665
678.988	0.0140214
679.066	0.0140416
679.144	0.0139983
679.222	0.0140809
679.300	0.0140074
679.378	0.0140119
679.456	0.0139556
679.535	0.0139789
679.613	0.0139291
679.691	0.0140231
679.769	0.0138202
679.847	0.0140580
679.925	0.0140635
680.003	0.0139780
680.081	0.0140224
680.160	0.0141181
680.238	0.0140337
680.316	0.0139215
680.394	0.0139413
680.472	0.0140092
680.550	0.0141162
680.628	0.0141145
680.706	0.0141103
680.785	0.0140874
680.863	0.0141482
680.941	0.0140421
681.019	0.0142239
681.097	0.0140472
681.175	0.0141109
681.253	0.0140665
681.331	0.0141695
681.410	0.0140702
681.488	0.0140743
681.566	0.0140771
681.644	0.0140833
681.722	0.0140132
681.800	0.0140036
681.878	0.0139442
681.956	0.0140142
682.035	0.0139984
682.113	0.0141222
682.191	0.0140166
682.269	0.0140387
682.347	0.0139974
682.425	0.0139680
682.503	0.0139223
682.581	0.0139111
682.660	0.0139535
682.738	0.0142402
682.816	0.0140120
682.894	0.0140095
682.972	0.0140853
683.050	0.0140528
683.128	0.0141694
683.206	0.0142330
683.285	0.0142170
683.363	0.0142068
683.441	0.0140961
683.519	0.0141874
683.597	0.0141957
683.675	0.0143143
683.753	0.0142888
683.831	0.0142366
683.910	0.0143024
683.988	0.0142111
684.066	0.0141756
684.144	0.0142734
684.222	0.0142002
684.300	0.0141330
684.378	0.0141486
684.456	0.0141480
684.535	0.0143074
684.613	0.0142061
684.691	0.0143120
684.769	0.0142956
684.847	0.0143079
684.925	0.0143396
685.003	0.0143050
685.081	0.0142386
685.160	0.0144195
685.238	0.0143227
685.316	0.0144511
685.394	0.0144052
685.472	0.0143028
685.550	0.0142709
685.628	0.0143433
685.706	0.0142768
685.785	0.0142098
685.863	0.0141958
685.941	0.0141343
686.019	0.0142539
686.097	0.0141814
686.175	0.0141740
686.253	0.0142001
686.331	0.0141054
686.410	0.0142731
686.488	0.0141660
686.566	0.0142358
686.644	0.0142352
686.722	0.0141832
686.800	0.0141637
686.878	0.0141996
686.956	0.0142004
687.035	0.0141884
687.113	0.0142320
687.191	0.0142321
687.269	0.0142440
687.347	0.0142277
687.425	0.0143729
687.503	0.0142491
687.581	0.0142824
687.660	0.0142827
687.738	0.0141795
687.816	0.0142615
687.894	0.0143123
687.972	0.0143630
688.050	0.0143375
688.128	0.0142541
688.206	0.0142760
688.285	0.0143581
688.363	0.0144288
688.441	0.0143732
688.519	0.0142242
688.597	0.0142614
688.675	0.0143285
688.753	0.0142286
688.831	0.0144125
688.910	0.0144103
688.988	0.0143749
689.066	0.0143672
689.144	0.0142216
689.222	0.0143883
689.300	0.0142565
689.378	0.0143899
689.456	0.0143343
689.535	0.0143867
689.613	0.0142444
689.691	0.0143484
689.769	0.0143328
689.847	0.0142928
689.925	0.0142928
690.003	0.0142162
690.081	0.0142088
690.160	0.0144323
690.238	0.0142905
690.316	0.0142677
690.394	0.0141515
690.472	0.0141697
690.550	0.0141823
690.628	0.0140367
690.706	0.0141613
690.785	0.0140365
690.863	0.0140989
690.941	0.0140984
691.019	0.0140497
691.097	0.0139371
691.175	0.0139041
691.253	0.0139692
691.331	0.0139384
691.410	0.0140511
691.488	0.0140129
691.566	0.0140741
691.644	0.0140509
691.722	0.0140165
691.800	0.0140127
691.878	0.0138997
691.956	0.0139946
692.035	0.0141872
692.113	0.0141548
692.191	0.0142858
692.269	0.0142779
692.347	0.0143456
692.425	0.0143108
692.503	0.0141954
692.581	0.0141206
692.660	0.0142426
692.738	0.0143578
692.816	0.0141567
692.894	0.0142500
692.972	0.0141864
693.050	0.0142725
693.128	0.0141355
693.206	0.0141251
693.285	0.0141808
693.363	0.0139420
693.441	0.0138552
693.519	0.0140307
693.597	0.0140546
693.675	0.0139868
693.753	0.0139074
693.831	0.0138515
693.910	0.0139877
693.988	0.0140942
694.066	0.0141513
694.144	0.0139676
694.222	0.0140374
694.300	0.0141292
694.378	0.0140030
694.456	0.0139955
694.535	0.0140562
694.613	0.0141146
694.691	0.0141299
694.769	0.0140655
694.847	0.0141488
694.925	0.0140292
695.003	0.0141228
695.081	0.0140989
695.160	0.0141288
695.238	0.0139693
695.316	0.0141611
695.394	0.0142323
695.472	0.0141409
695.550	0.0141041
695.628	0.0141627
695.706	0.0140651
695.785	0.0141720
695.863	0.0141615
695.941	0.0141181
696.019	0.0139602
696.097	0.0139988
696.175	0.0141443
696.253	0.0140085
696.331	0.0141672
696.410	0.0139657
696.488	0.0138607
696.566	0.0138777
696.644	0.0139616
696.722	0.0139079
696.800	0.0138108
696.878	0.0137845
696.956	0.0138014
697.035	0.0139234
697.113	0.0137175
697.191	0.0138757
697.269	0.0138785
697.347	0.0139833
697.425	0.0139275
697.503	0.0140405
697.581	0.0138587
697.660	0.0140704
697.738	0.0140695
697.816	0.0141251
697.894	0.0142786
697.972	0.0140720
698.050	0.0141811
698.128	0.0141654
698.206	0.0142118
698.285	0.0142433
698.363	0.0141064
698.441	0.0140721
698.519	0.0142045
698.597	0.0141867
698.675	0.0139593
698.753	0.0139333
698.831	0.0139860
698.910	0.0139500
698.988	0.0139243
699.066	0.0138776
699.144	0.0138599
699.222	0.0138648
699.300	0.0139019
699.378	0.0138025
699.456	0.0139217
699.535	0.0139378
699.613	0.0140535
699.691	0.0139281
699.769	0.0139796
699.847	0.0139725
699.925	0.0140977
700.003	0.0140174
700.081	0.0140227
700.160	0.0142420
700.238	0.0143121
700.316	0.0142677
700.394	0.0142158
700.472	0.0142464
700.550	0.0142970
700.628	0.0142175
700.706	0.0140929
700.785	0.0141151
700.863	0.0140715
700.941	0.0138605
701.019	0.0139689
701.097	0.0138392
701.175	0.0137811
701.253	0.0138803
701.331	0.0137896
701.410	0.0139418
701.488	0.0138600
701.566	0.0138532
701.644	0.0139364
701.722	0.0140346
701.800	0.0141569
701.878	0.0139645
701.956	0.0139726
702.035	0.0141654
702.113	0.0142016
702.191	0.0141129
702.269	0.0142236
702.347	0.0141884
702.425	0.0141286
702.503	0.0139870
702.581	0.0141026
702.660	0.0141552
702.738	0.0141473
702.816	0.0139589
702.894	0.0138668
702.972	0.0138389
703.050	0.0139902
703.128	0.0139494
703.206	0.0139722
703.285	0.0140220
703.363	0.0139167
703.441	0.0141545
703.519	0.0141257
703.597	0.0141169
703.675	0.0141211
703.753	0.0142104
703.831	0.0141864
703.910	0.0141186
703.988	0.0140268
704.066	0.0140501
704.144	0.0142587
704.222	0.0141685
704.300	0.0140582
704.378	0.0141190
704.456	0.0141843
704.535	0.0141589
704.613	0.0140743
704.691	0.0141255
704.769	0.0141053
704.847	0.0140656
704.925	0.0142001
705.003	0.0142145
705.081	0.0142487
705.160	0.0142955
705.238	0.0141766
705.316	0.0143237
705.394	0.0141354
705.472	0.0142823
705.550	0.0141718
705.628	0.0142082
705.706	0.0142410
705.785	0.0142035
705.863	0.0141504
705.941	0.0142020
706.019	0.0142332
706.097	0.0141969
706.175	0.0142605
706.253	0.0143544
706.331	0.0142189
706.410	0.0142424
706.488	0.0142197
706.566	0.0142624
706.644	0.0142882
706.722	0.0142545
706.800	0.0142220
706.878	0.0141611
706.956	0.0143069
707.035	0.0140474
707.113	0.0141366
707.191	0.0141739
707.269	0.0140662
707.347	0.0139400
707.425	0.0139899
707.503	0.0140242
707.581	0.0141103
707.660	0.0141088
707.738	0.0141135
707.816	0.0142097
707.894	0.0142815
707.972	0.0143784
708.050	0.0142345
708.128	0.0144341
708.206	0.0145036
708.285	0.0143849
708.363	0.0143416
708.441	0.0142808
708.519	0.0141576
708.597	0.0141096
708.675	0.0141111
708.753	0.0138929
708.831	0.0140323
708.910	0.0139333
708.988	0.0138930
709.066	0.0140025
709.144	0.0138824
709.222	0.0140145
709.300	0.0140194
709.378	0.0140942
709.456	0.0140489
709.535	0.0139035
709.613	0.0140354
709.691	0.0140529
709.769	0.0140067
709.847	0.0141015
709.925	0.0141394
710.003	0.0141509
710.081	0.0140041
710.160	0.0139996
710.238	0.0141558
710.316	0.0140729
710.394	0.0140623
710.472	0.0141983
710.550	0.0142069
710.628	0.0141483
710.706	0.0141594
710.785	0.0141784
710.863	0.0143219
710.941	0.0143611
711.019	0.0141566
711.097	0.0142677
711.175	0.0142693
711.253	0.0143317
711.331	0.0142967
711.410	0.0142881
711.488	0.0142619
711.566	0.0141948
711.644	0.0142684
711.722	0.0142363
711.800	0.0142767
711.878	0.0142237
711.956	0.0141670
712.035	0.0141793
712.113	0.0141862
712.191	0.0141847
712.269	0.0143890
712.347	0.0142249
712.425	0.0141746
712.503	0.0143805
712.581	0.0143618
712.660	0.0144230
712.738	0.0143732
712.816	0.0143845
712.894	0.0143894
712.972	0.0144579
713.050	0.0144288
713.128	0.0144157
713.206	0.0143375
713.285	0.0142543
713.363	0.0143665
713.441	0.0142318
713.519	0.0140676
713.597	0.0140190
713.675	0.0140863
713.753	0.0140710
713.831	0.0140669
713.910	0.0139457
713.988	0.0141483
714.066	0.0139028
714.144	0.0140768
714.222	0.0141415
714.300	0.0142443
714.378	0.0142155
714.456	0.0142310
714.535	0.0142520
714.613	0.0141160
714.691	0.0141922
714.769	0.0143252
714.847	0.0142801
714.925	0.0141529
715.003	0.0140965
715.081	0.0140506
715.160	0.0138920
715.238	0.0138821
715.316	0.0137363
715.394	0.0137846
715.472	0.0136287
715.550	0.0135937
715.628	0.0137894
715.706	0.0139545
715.785	0.0137360
715.863	0.0136905
715.941	0.0138562
716.019	0.0139233
716.097	0.0139350
716.175	0.0140278
716.253	0.0140016
716.331	0.0140298
716.410	0.0139072
716.488	0.0138802
716.566	0.0138433
716.644	0.0139587
716.722	0.0138687
716.800	0.0138159
716.878	0.0140170
716.956	0.0138800
717.035	0.0137788
717.113	0.0138971
717.191	0.0138805
717.269	0.0138815
717.347	0.0140772
717.425	0.0140773
717.503	0.0141730
717.581	0.0141010
717.660	0.0141375
717.738	0.0142124
717.816	0.0142756
717.894	0.0142494
717.972	0.0143080
718.050	0.0141912
718.128	0.0142911
718.206	0.0141473
718.285	0.0142792
718.363	0.0143363
718.441	0.0141789
718.519	0.0142147
718.597	0.0142796
718.675	0.0142694
718.753	0.0143348
718.831	0.0143011
718.910	0.0143151
718.988	0.0142021
719.066	0.0142612
719.144	0.0142577
719.222	0.0141901
719.300	0.0143353
719.378	0.0142474
719.456	0.0141779
719.535	0.0141644
719.613	0.0141518
719.691	0.0141311
719.769	0.0142071
719.847	0.0142119
719.925	0.0142677
720.003	0.0140487
720.081	0.0140105
720.160	0.0140408
720.238	0.0140962
720.316	0.0141473
720.394	0.0140343
720.472	0.0139544
720.550	0.0140511
720.628	0.0140285
720.706	0.0140185
720.785	0.0140717
720.863	0.0142502
720.941	0.0142792
721.019	0.0140081
721.097	0.0141014
721.175	0.0142356
721.253	0.0141815
721.331	0.0142551
721.410	0.0142342
721.488	0.0140386
721.566	0.0141389
721.644	0.0140070
721.722	0.0140018
721.800	0.0140580
721.878	0.0140324
721.956	0.0138864
722.035	0.0139841
722.113	0.0140159
722.191	0.0137531
722.269	0.0137915
722.347	0.0136375
722.425	0.0137712
722.503	0.0139642
722.581	0.0138201
722.660	0.0137154
722.738	0.0138041
722.816	0.0138668
722.894	0.0138681
722.972	0.0139204
723.050	0.0140027
723.128	0.0139968
723.206	0.0140256
723.285	0.0138607
723.363	0.0138419
723.441	0.0139585
723.519	0.0139674
723.597	0.0139745
723.675	0.0140805
723.753	0.0139690
723.831	0.0140361
723.910	0.0140585
723.988	0.0139780
724.066	0.0139986
724.144	0.0139501
724.222	0.0141178
724.300	0.0140530
724.378	0.0141609
724.456	0.0141790
724.535	0.0141806
724.613	0.0142043
724.691	0.0140939
724.769	0.0142020
724.847	0.0142670
724.925	0.0141218
725.003	0.0142117
725.081	0.0143269
725.160	0.0143362
725.238	0.0140758
725.316	0.0142013
725.394	0.0144422
725.472	0.0142686
725.550	0.0142706
725.628	0.0143798
725.706	0.0142544
725.785	0.0143771
725.863	0.0144279
725.941	0.0143028
726.019	0.0142419
726.097	0.0142403
726.175	0.0142154
726.253	0.0141302
726.331	0.0141330
726.410	0.0141510
726.488	0.0142274
726.566	0.0141859
726.644	0.0140671
726.722	0.0140675
726.800	0.0141421
726.878	0.0142043
726.956	0.0140476
727.035	0.0140648
727.113	0.0140447
727.191	0.0141288
727.269	0.0142308
727.347	0.0141152
727.425	0.0139809
727.503	0.0141099
727.581	0.0141094
727.660	0.0142146
727.738	0.0141866
727.816	0.0140935
727.894	0.0141469
727.972	0.0142155
728.050	0.0141602
728.128	0.0141433
728.206	0.0141761
728.285	0.0143039
728.363	0.0140643
728.441	0.0141046
728.519	0.0140975
728.597	0.0140276
728.675	0.0139225
728.753	0.0139083
728.831	0.0138726
728.910	0.0137290
728.988	0.0137282
729.066	0.0139500
729.144	0.0139047
729.222	0.0138487
729.300	0.0139549
729.378	0.0139864
729.456	0.0140638
729.535	0.0139462
729.613	0.0139320
729.691	0.0140987
729.769	0.0141737
729.847	0.0140814
729.925	0.0140071
730.003	0.0140527
730.081	0.0141210
730.160	0.0140141
730.238	0.0139966
730.316	0.0138589
730.394	0.0139754
730.472	0.0140408
730.550	0.0139349
730.628	0.0141132
730.706	0.0139285
730.785	0.0140414
730.863	0.0140839
730.941	0.0141514
731.019	0.0141103
731.097	0.0142371
731.175	0.0143685
731.253	0.0143271
731.331	0.0142469
731.410	0.0144640
731.488	0.0143790
731.566	0.0142833
731.644	0.0143520
731.722	0.0144305
731.800	0.0144521
731.878	0.0144077
731.956	0.0143307
732.035	0.0144562
732.113	0.0143551
732.191	0.0141223
732.269	0.0144451
732.347	0.0144704
732.425	0.0143481
732.503	0.0144404
732.581	0.0141412
732.660	0.0143415
732.738	0.0142808
732.816	0.0141770
732.894	0.0143335
732.972	0.0141744
733.050	0.0141503
733.128	0.0141561
733.206	0.0141279
733.285	0.0140256
733.363	0.0140046
733.441	0.0141429
733.519	0.0140480
733.597	0.0140945
733.675	0.0140845
733.753	0.0140143
733.831	0.0140337
733.910	0.0139925
733.988	0.0140854
734.066	0.0138994
734.144	0.0139935
734.222	0.0139365
734.300	0.0141663
734.378	0.0141224
734.456	0.0140414
734.535	0.0140730
734.613	0.0141544
734.691	0.0140517
734.769	0.0140961
734.847	0.0141785
734.925	0.0141114
735.003	0.0140345
735.081	0.0139471
735.160	0.0139903
735.238	0.0139835
735.316	0.0139804
735.394	0.0140748
735.472	0.0139101
735.550	0.0139496
735.628	0.0139668
735.706	0.0138311
735.785	0.0138198
735.863	0.0138323
735.941	0.0138708
736.019	0.0138099
736.097	0.0138511
736.175	0.0138966
736.253	0.0138837
736.331	0.0139418
736.410	0.0139513
736.488	0.0138903
736.566	0.0139542
736.644	0.0139117
736.722	0.0138796
736.800	0.0138593
736.878	0.0139420
736.956	0.0140297
737.035	0.0138642
737.113	0.0138960
737.191	0.0138364
737.269	0.0138159
737.347	0.0138790
737.425	0.0139046
737.503	0.0139735
737.581	0.0139758
737.660	0.0139329
737.738	0.0139995
737.816	0.0140977
737.894	0.0141473
737.972	0.0142936
738.050	0.0141936
738.128	0.0144043
738.206	0.0143514
738.285	0.0144368
738.363	0.0145456
738.441	0.0144028
738.519	0.0144809
738.597	0.0143718
738.675	0.0144476
738.753	0.0143835
738.831	0.0144814
738.910	0.0145146
738.988	0.0143892
739.066	0.0144331
739.144	0.0144880
739.222	0.0145440
739.300	0.0145589
739.378	0.0144102
739.456	0.0143784
739.535	0.0143736
739.613	0.0144122
739.691	0.0142303
739.769	0.0142459
739.847	0.0142980
739.925	0.0142657
740.003	0.0140036
740.081	0.0141370
740.160	0.0140511
740.238	0.0140786
740.316	0.0140434
740.394	0.0141388
740.472	0.0140459
740.550	0.0139924
740.628	0.0139234
740.706	0.0141254
740.785	0.0140529
740.863	0.0140163
740.941	0.0139612
741.019	0.0140845
741.097	0.0140961
741.175	0.0140314
741.253	0.0140598
741.331	0.0140084
741.410	0.0139230
741.488	0.0139935
741.566	0.0140176
741.644	0.0141470
741.722	0.0139843
741.800	0.0138658
741.878	0.0140707
741.956	0.0140348
742.035	0.0139816
742.113	0.0140318
742.191	0.0139034
742.269	0.0137154
742.347	0.0139339
742.425	0.0139307
742.503	0.0139442
742.581	0.0139384
742.660	0.0139602
742.738	0.0139021
742.816	0.0138078
742.894	0.0138422
742.972	0.0140102
743.050	0.0139602
743.128	0.0139360
743.206	0.0139320
743.285	0.0139857
743.363	0.0139736
743.441	0.0140267
743.519	0.0140149
743.597	0.0139148
743.675	0.0139322
743.753	0.0141145
743.831	0.0139909
743.910	0.0139461
743.988	0.0140094
744.066	0.0141292
744.144	0.0140465
744.222	0.0139919
744.300	0.0141862
744.378	0.0140780
744.456	0.0141373
744.535	0.0142136
744.613	0.0141616
744.691	0.0142184
744.769	0.0142603
744.847	0.0143879
744.925	0.0142562
745.003	0.0142809
745.081	0.0143513
745.160	0.0144522
745.238	0.0145378
745.316	0.0145414
745.394	0.0144555
745.472	0.0145493
745.550	0.0145406
745.628	0.0145448
745.706	0.0145520
