05/03/2022	20:41:13	Ver.	4.1	UNKNOWN
Optical Delay	660.003261	Delta X		0.078125	Sweeps	1	Scan Rate	0/0
Coordinates	Axis 1	NaN	Axis 2	NaN	Axis 3	NaN	Axis 4	NaN	Axis 5	NaN	Axis 6	0.000000
TX Power	0.000000	RX Power	0.000000

660.003	0.0140733
660.081	0.0140046
660.160	0.0139984
660.238	0.0140477
660.316	0.0140346
660.394	0.0141111
660.472	0.0141637
660.550	0.0140560
660.628	0.0141295
660.706	0.0139920
660.785	0.0139614
660.863	0.0141471
660.941	0.0140551
661.019	0.0140944
661.097	0.0138700
661.175	0.0140214
661.253	0.0140857
661.331	0.0140644
661.410	0.0140594
661.488	0.0140146
661.566	0.0140513
661.644	0.0140121
661.722	0.0139844
661.800	0.0139554
661.878	0.0139795
661.956	0.0140415
662.035	0.0138713
662.113	0.0138960
662.191	0.0140188
662.269	0.0141444
662.347	0.0140986
662.425	0.0140126
662.503	0.0140285
662.581	0.0139368
662.660	0.0139678
662.738	0.0140439
662.816	0.0141115
662.894	0.0139279
662.972	0.0140096
663.050	0.0138942
663.128	0.0140544
663.206	0.0139938
663.285	0.0140652
663.363	0.0139616
663.441	0.0138797
663.519	0.0139288
663.597	0.0138718
663.675	0.0139453
663.753	0.0140405
663.831	0.0138709
663.910	0.0140396
663.988	0.0138058
664.066	0.0138139
664.144	0.0139674
664.222	0.0138876
664.300	0.0138319
664.378	0.0138236
664.456	0.0139465
664.535	0.0138935
664.613	0.0137875
664.691	0.0138552
664.769	0.0138226
664.847	0.0138020
664.925	0.0137124
665.003	0.0139155
665.081	0.0138593
665.160	0.0137534
665.238	0.0138492
665.316	0.0138403
665.394	0.0137978
665.472	0.0137191
665.550	0.0137208
665.628	0.0138428
665.706	0.0138752
665.785	0.0138600
665.863	0.0138594
665.941	0.0139145
666.019	0.0137717
666.097	0.0137628
666.175	0.0139166
666.253	0.0138979
666.331	0.0138560
666.410	0.0138711
666.488	0.0136820
666.566	0.0138556
666.644	0.0139141
666.722	0.0138419
666.800	0.0138206
666.878	0.0138184
666.956	0.0138599
667.035	0.0137620
667.113	0.0136952
667.191	0.0137539
667.269	0.0138985
667.347	0.0138132
667.425	0.0138492
667.503	0.0138790
667.581	0.0138368
667.660	0.0139370
667.738	0.0138461
667.816	0.0138778
667.894	0.0137504
667.972	0.0138430
668.050	0.0138835
668.128	0.0138870
668.206	0.0139075
668.285	0.0138196
668.363	0.0138609
668.441	0.0138772
668.519	0.0139266
668.597	0.0138947
668.675	0.0138844
668.753	0.0139427
668.831	0.0138890
668.910	0.0139582
668.988	0.0139130
669.066	0.0140154
669.144	0.0138779
669.222	0.0139104
669.300	0.0139159
669.378	0.0139498
669.456	0.0139920
669.535	0.0140783
669.613	0.0140047
669.691	0.0137713
669.769	0.0137884
669.847	0.0138583
669.925	0.0138884
670.003	0.0139989
670.081	0.0138396
670.160	0.0138690
670.238	0.0138934
670.316	0.0140040
670.394	0.0140607
670.472	0.0138862
670.550	0.0138847
670.628	0.0139345
670.706	0.0138482
670.785	0.0139921
670.863	0.0138857
670.941	0.0138987
671.019	0.0139973
671.097	0.0140189
671.175	0.0139941
671.253	0.0139240
671.331	0.0140090
671.410	0.0140823
671.488	0.0140289
671.566	0.0139483
671.644	0.0140087
671.722	0.0140488
671.800	0.0138927
671.878	0.0140477
671.956	0.0139257
672.035	0.0139785
672.113	0.0139919
672.191	0.0139693
672.269	0.0140404
672.347	0.0139233
672.425	0.0139803
672.503	0.0139862
672.581	0.0139697
672.660	0.0140270
672.738	0.0141941
672.816	0.0139986
672.894	0.0140296
672.972	0.0140097
673.050	0.0140585
673.128	0.0140063
673.206	0.0142762
673.285	0.0140828
673.363	0.0139022
673.441	0.0141352
673.519	0.0139640
673.597	0.0139733
673.675	0.0139303
673.753	0.0140149
673.831	0.0141388
673.910	0.0139881
673.988	0.0141716
674.066	0.0139583
674.144	0.0141396
674.222	0.0141811
674.300	0.0140906
674.378	0.0140211
674.456	0.0140574
674.535	0.0140143
674.613	0.0140237
674.691	0.0139967
674.769	0.0139549
674.847	0.0139782
674.925	0.0140739
675.003	0.0140765
675.081	0.0140917
675.160	0.0141039
675.238	0.0142135
675.316	0.0139817
675.394	0.0140543
675.472	0.0140734
675.550	0.0139922
675.628	0.0140385
675.706	0.0141513
675.785	0.0141215
675.863	0.0141090
675.941	0.0140502
676.019	0.0140572
676.097	0.0140230
676.175	0.0141732
676.253	0.0142354
676.331	0.0140510
676.410	0.0140647
676.488	0.0140657
676.566	0.0140880
676.644	0.0140547
676.722	0.0140993
676.800	0.0139585
676.878	0.0142204
676.956	0.0141731
677.035	0.0140955
677.113	0.0140936
677.191	0.0141415
677.269	0.0142068
677.347	0.0140740
677.425	0.0140686
677.503	0.0140149
677.581	0.0141515
677.660	0.0142574
677.738	0.0140997
677.816	0.0139406
677.894	0.0140574
677.972	0.0140752
678.050	0.0140856
678.128	0.0140481
678.206	0.0140353
678.285	0.0142560
678.363	0.0140636
678.441	0.0140460
678.519	0.0142515
678.597	0.0142066
678.675	0.0141426
678.753	0.0141858
678.831	0.0141468
678.910	0.0141707
678.988	0.0141996
679.066	0.0141437
679.144	0.0140802
679.222	0.0143378
679.300	0.0141992
679.378	0.0142517
679.456	0.0142755
679.535	0.0141741
679.613	0.0141628
679.691	0.0141753
679.769	0.0140460
679.847	0.0140838
679.925	0.0140232
680.003	0.0142213
680.081	0.0142286
680.160	0.0140845
680.238	0.0138440
680.316	0.0138451
680.394	0.0139966
680.472	0.0140104
680.550	0.0139443
680.628	0.0139658
680.706	0.0140954
680.785	0.0138377
680.863	0.0139818
680.941	0.0140374
681.019	0.0139846
681.097	0.0140120
681.175	0.0139655
681.253	0.0140121
681.331	0.0140267
681.410	0.0141103
681.488	0.0142505
681.566	0.0141241
681.644	0.0141333
681.722	0.0141550
681.800	0.0140697
681.878	0.0141215
681.956	0.0141022
682.035	0.0141918
682.113	0.0141768
682.191	0.0140355
682.269	0.0139778
682.347	0.0140255
682.425	0.0141637
682.503	0.0142624
682.581	0.0141113
682.660	0.0140968
682.738	0.0141234
682.816	0.0142410
682.894	0.0142418
682.972	0.0140924
683.050	0.0142352
683.128	0.0141926
683.206	0.0143841
683.285	0.0142903
683.363	0.0142117
683.441	0.0142013
683.519	0.0142528
683.597	0.0142212
683.675	0.0143056
683.753	0.0142334
683.831	0.0141937
683.910	0.0140894
683.988	0.0140393
684.066	0.0139951
684.144	0.0141492
684.222	0.0139816
684.300	0.0139686
684.378	0.0140528
684.456	0.0139818
684.535	0.0139650
684.613	0.0139539
684.691	0.0137984
684.769	0.0138487
684.847	0.0139312
684.925	0.0138612
685.003	0.0140594
685.081	0.0139169
685.160	0.0138749
685.238	0.0138573
685.316	0.0138490
685.394	0.0137605
685.472	0.0138979
685.550	0.0138811
685.628	0.0138893
685.706	0.0138578
685.785	0.0138445
685.863	0.0139809
685.941	0.0140785
686.019	0.0140694
686.097	0.0139209
686.175	0.0139261
686.253	0.0140763
686.331	0.0138997
686.410	0.0139145
686.488	0.0139695
686.566	0.0139867
686.644	0.0140383
686.722	0.0140285
686.800	0.0141134
686.878	0.0139490
686.956	0.0139567
687.035	0.0140658
687.113	0.0140006
687.191	0.0139175
687.269	0.0138910
687.347	0.0140335
687.425	0.0141184
687.503	0.0141262
687.581	0.0139771
687.660	0.0139674
687.738	0.0140441
687.816	0.0138637
687.894	0.0139673
687.972	0.0140175
688.050	0.0138323
688.128	0.0138638
688.206	0.0139339
688.285	0.0138069
688.363	0.0139127
688.441	0.0139999
688.519	0.0139684
688.597	0.0139461
688.675	0.0139080
688.753	0.0137791
688.831	0.0139181
688.910	0.0138799
688.988	0.0138485
689.066	0.0139026
689.144	0.0138299
689.222	0.0138439
689.300	0.0137552
689.378	0.0138158
689.456	0.0137901
689.535	0.0137506
689.613	0.0136433
689.691	0.0136426
689.769	0.0135790
689.847	0.0136391
689.925	0.0139258
690.003	0.0137964
690.081	0.0138463
690.160	0.0138462
690.238	0.0137743
690.316	0.0138085
690.394	0.0139812
690.472	0.0139845
690.550	0.0139545
690.628	0.0139588
690.706	0.0139137
690.785	0.0140313
690.863	0.0141977
690.941	0.0140639
691.019	0.0141492
691.097	0.0141756
691.175	0.0142087
691.253	0.0141697
691.331	0.0140495
691.410	0.0140631
691.488	0.0139083
691.566	0.0141296
691.644	0.0140878
691.722	0.0139408
691.800	0.0140063
691.878	0.0140163
691.956	0.0139510
692.035	0.0138165
692.113	0.0137968
692.191	0.0138397
692.269	0.0138535
692.347	0.0138461
692.425	0.0138269
692.503	0.0139132
692.581	0.0138007
692.660	0.0139735
692.738	0.0139559
692.816	0.0138811
692.894	0.0140641
692.972	0.0139355
693.050	0.0139007
693.128	0.0139563
693.206	0.0139516
693.285	0.0139069
693.363	0.0140001
693.441	0.0139976
693.519	0.0139545
693.597	0.0140148
693.675	0.0139162
693.753	0.0140502
693.831	0.0139645
693.910	0.0141236
693.988	0.0139636
694.066	0.0140498
694.144	0.0140028
694.222	0.0140646
694.300	0.0138088
694.378	0.0139098
694.456	0.0140293
694.535	0.0138744
694.613	0.0138737
694.691	0.0138936
694.769	0.0139085
694.847	0.0139017
694.925	0.0138586
695.003	0.0138383
695.081	0.0137724
695.160	0.0138486
695.238	0.0137862
695.316	0.0137830
695.394	0.0137332
695.472	0.0138329
695.550	0.0137561
695.628	0.0139568
695.706	0.0138809
695.785	0.0138581
695.863	0.0137806
695.941	0.0138928
696.019	0.0141718
696.097	0.0140137
696.175	0.0139307
696.253	0.0139799
696.331	0.0139792
696.410	0.0140479
696.488	0.0140678
696.566	0.0141813
696.644	0.0141776
696.722	0.0141327
696.800	0.0141045
696.878	0.0141692
696.956	0.0140268
697.035	0.0141181
697.113	0.0139289
697.191	0.0140249
697.269	0.0139411
697.347	0.0140057
697.425	0.0138564
697.503	0.0139508
697.581	0.0139229
697.660	0.0138338
697.738	0.0138754
697.816	0.0138384
697.894	0.0140018
697.972	0.0139124
698.050	0.0139125
698.128	0.0139200
698.206	0.0138853
698.285	0.0138917
698.363	0.0140469
698.441	0.0140445
698.519	0.0140007
698.597	0.0142003
698.675	0.0141631
698.753	0.0143468
698.831	0.0141245
698.910	0.0142208
698.988	0.0141622
699.066	0.0141035
699.144	0.0139265
699.222	0.0140529
699.300	0.0137799
699.378	0.0138026
699.456	0.0137867
699.535	0.0139117
699.613	0.0138732
699.691	0.0138125
699.769	0.0137888
699.847	0.0139257
699.925	0.0137820
700.003	0.0138031
700.081	0.0138098
700.160	0.0139319
700.238	0.0138380
700.316	0.0140898
700.394	0.0139548
700.472	0.0138569
700.550	0.0139928
700.628	0.0138919
700.706	0.0139249
700.785	0.0137801
700.863	0.0138703
700.941	0.0138367
701.019	0.0137939
701.097	0.0137321
701.175	0.0136545
701.253	0.0137704
701.331	0.0136835
701.410	0.0136669
701.488	0.0138202
701.566	0.0138538
701.644	0.0139067
701.722	0.0138394
701.800	0.0138884
701.878	0.0139137
701.956	0.0139262
702.035	0.0138924
702.113	0.0138535
702.191	0.0141168
702.269	0.0139281
702.347	0.0138437
702.425	0.0138779
702.503	0.0138557
702.581	0.0139071
702.660	0.0138436
702.738	0.0139914
702.816	0.0138722
702.894	0.0138549
702.972	0.0139633
703.050	0.0140650
703.128	0.0139539
703.206	0.0138382
703.285	0.0139619
703.363	0.0141068
703.441	0.0139787
703.519	0.0139412
703.597	0.0142003
703.675	0.0140746
703.753	0.0140201
703.831	0.0139935
703.910	0.0139671
703.988	0.0140865
704.066	0.0140995
704.144	0.0140363
704.222	0.0141055
704.300	0.0142358
704.378	0.0141196
704.456	0.0141521
704.535	0.0141768
704.613	0.0141090
704.691	0.0142264
704.769	0.0142718
704.847	0.0141560
704.925	0.0142754
705.003	0.0141863
705.081	0.0141798
705.160	0.0142106
705.238	0.0140680
705.316	0.0142188
705.394	0.0139663
705.472	0.0140156
705.550	0.0140169
705.628	0.0139656
705.706	0.0139964
705.785	0.0139812
705.863	0.0140793
705.941	0.0141354
706.019	0.0140331
706.097	0.0141299
706.175	0.0143279
706.253	0.0142422
706.331	0.0140491
706.410	0.0141975
706.488	0.0141560
706.566	0.0142263
706.644	0.0142425
706.722	0.0139727
706.800	0.0141436
706.878	0.0140285
706.956	0.0139984
707.035	0.0139848
707.113	0.0139494
707.191	0.0139089
707.269	0.0138229
707.347	0.0138293
707.425	0.0138165
707.503	0.0138146
707.581	0.0138777
707.660	0.0138473
707.738	0.0138675
707.816	0.0138358
707.894	0.0138759
707.972	0.0137590
708.050	0.0139014
708.128	0.0139974
708.206	0.0138318
708.285	0.0139270
708.363	0.0139818
708.441	0.0141395
708.519	0.0138946
708.597	0.0137224
708.675	0.0137932
708.753	0.0138891
708.831	0.0137119
708.910	0.0137189
708.988	0.0138106
709.066	0.0139723
709.144	0.0138942
709.222	0.0138446
709.300	0.0139780
709.378	0.0139123
709.456	0.0140025
709.535	0.0139320
709.613	0.0140195
709.691	0.0141206
709.769	0.0139376
709.847	0.0140204
709.925	0.0139128
710.003	0.0140810
710.081	0.0138747
710.160	0.0139361
710.238	0.0139866
710.316	0.0139500
710.394	0.0139780
710.472	0.0139504
710.550	0.0139808
710.628	0.0139799
710.706	0.0139898
710.785	0.0138988
710.863	0.0140118
710.941	0.0139297
711.019	0.0140087
711.097	0.0141381
711.175	0.0140952
711.253	0.0141911
711.331	0.0142108
711.410	0.0142260
711.488	0.0142287
711.566	0.0142390
711.644	0.0141364
711.722	0.0141915
711.800	0.0139986
711.878	0.0140323
711.956	0.0140540
712.035	0.0140990
712.113	0.0140441
712.191	0.0140780
712.269	0.0139918
712.347	0.0140501
712.425	0.0139270
712.503	0.0140414
712.581	0.0141106
712.660	0.0140735
712.738	0.0140588
712.816	0.0142342
712.894	0.0142795
712.972	0.0141811
713.050	0.0141118
713.128	0.0142976
713.206	0.0141051
713.285	0.0141011
713.363	0.0141293
713.441	0.0140858
713.519	0.0140439
713.597	0.0140063
713.675	0.0138665
713.753	0.0139347
713.831	0.0139953
713.910	0.0137899
713.988	0.0139041
714.066	0.0137433
714.144	0.0138291
714.222	0.0139195
714.300	0.0140518
714.378	0.0139428
714.456	0.0138469
714.535	0.0138963
714.613	0.0139739
714.691	0.0140123
714.769	0.0140018
714.847	0.0139275
714.925	0.0140304
715.003	0.0140748
715.081	0.0138795
715.160	0.0139480
715.238	0.0138729
715.316	0.0138541
715.394	0.0138760
715.472	0.0138919
715.550	0.0139538
715.628	0.0141288
715.706	0.0138161
715.785	0.0139200
715.863	0.0140993
715.941	0.0141897
716.019	0.0140231
716.097	0.0140091
716.175	0.0140824
716.253	0.0140253
716.331	0.0141142
716.410	0.0141692
716.488	0.0141241
716.566	0.0138366
716.644	0.0140580
716.722	0.0140984
716.800	0.0140159
716.878	0.0140432
716.956	0.0140265
717.035	0.0138144
717.113	0.0140222
717.191	0.0141534
717.269	0.0140739
717.347	0.0140884
717.425	0.0140849
717.503	0.0142217
717.581	0.0141600
717.660	0.0141344
717.738	0.0141470
717.816	0.0140092
717.894	0.0139756
717.972	0.0139571
718.050	0.0139582
718.128	0.0139028
718.206	0.0138039
718.285	0.0139239
718.363	0.0139338
718.441	0.0139181
718.519	0.0136967
718.597	0.0138435
718.675	0.0138504
718.753	0.0138912
718.831	0.0136797
718.910	0.0137658
718.988	0.0138504
719.066	0.0138570
719.144	0.0138427
719.222	0.0138937
719.300	0.0138449
719.378	0.0138863
719.456	0.0139113
719.535	0.0140004
719.613	0.0140186
719.691	0.0140511
719.769	0.0139153
719.847	0.0138542
719.925	0.0137958
720.003	0.0139070
720.081	0.0139325
720.160	0.0138885
720.238	0.0137016
720.316	0.0137068
720.394	0.0137328
720.472	0.0136511
720.550	0.0137432
720.628	0.0138583
720.706	0.0137390
720.785	0.0137673
720.863	0.0135827
720.941	0.0137665
721.019	0.0139268
721.097	0.0137199
721.175	0.0137327
721.253	0.0138418
721.331	0.0138730
721.410	0.0137241
721.488	0.0138749
721.566	0.0138739
721.644	0.0137112
721.722	0.0136012
721.800	0.0136615
721.878	0.0137195
721.956	0.0138769
722.035	0.0138105
722.113	0.0137943
722.191	0.0137773
722.269	0.0137477
722.347	0.0138566
722.425	0.0139157
722.503	0.0138322
722.581	0.0137843
722.660	0.0140433
722.738	0.0140064
722.816	0.0140076
722.894	0.0139380
722.972	0.0140189
723.050	0.0139531
723.128	0.0139478
723.206	0.0139127
723.285	0.0140454
723.363	0.0139189
723.441	0.0140515
723.519	0.0139596
723.597	0.0139949
723.675	0.0140768
723.753	0.0140843
723.831	0.0140533
723.910	0.0140289
723.988	0.0140484
724.066	0.0140816
724.144	0.0141533
724.222	0.0139880
724.300	0.0140944
724.378	0.0139838
724.456	0.0138383
724.535	0.0138682
724.613	0.0139690
724.691	0.0138870
724.769	0.0138578
724.847	0.0139231
724.925	0.0138494
725.003	0.0138268
725.081	0.0137615
725.160	0.0140562
725.238	0.0139189
725.316	0.0138261
725.394	0.0138335
725.472	0.0139157
725.550	0.0139320
725.628	0.0138201
725.706	0.0137848
725.785	0.0138937
725.863	0.0139336
725.941	0.0137593
726.019	0.0138319
726.097	0.0138885
726.175	0.0138663
726.253	0.0140073
726.331	0.0139755
726.410	0.0140269
726.488	0.0140902
726.566	0.0139461
726.644	0.0139658
726.722	0.0140298
726.800	0.0138774
726.878	0.0139274
726.956	0.0139012
727.035	0.0138817
727.113	0.0137832
727.191	0.0137555
727.269	0.0138327
727.347	0.0137298
727.425	0.0136918
727.503	0.0138605
727.581	0.0138735
727.660	0.0137961
727.738	0.0138037
727.816	0.0138500
727.894	0.0139398
727.972	0.0137806
728.050	0.0138930
728.128	0.0137815
728.206	0.0139514
728.285	0.0137787
728.363	0.0137575
728.441	0.0138380
728.519	0.0138615
728.597	0.0137290
728.675	0.0137495
728.753	0.0137906
728.831	0.0139501
728.910	0.0138020
728.988	0.0137521
729.066	0.0138062
729.144	0.0139029
729.222	0.0138651
729.300	0.0139127
729.378	0.0140918
729.456	0.0140666
729.535	0.0141005
729.613	0.0140333
729.691	0.0140818
729.769	0.0141637
729.847	0.0141515
729.925	0.0141161
730.003	0.0142529
730.081	0.0142390
730.160	0.0142973
730.238	0.0142902
730.316	0.0142109
730.394	0.0142384
730.472	0.0142142
730.550	0.0142249
730.628	0.0142906
730.706	0.0143581
730.785	0.0142936
730.863	0.0143453
730.941	0.0142283
731.019	0.0143695
731.097	0.0142109
731.175	0.0141994
731.253	0.0141403
731.331	0.0141016
731.410	0.0141790
731.488	0.0140199
731.566	0.0141451
731.644	0.0140593
731.722	0.0139915
731.800	0.0140945
731.878	0.0140631
731.956	0.0140964
732.035	0.0140474
732.113	0.0142505
732.191	0.0140636
732.269	0.0140833
732.347	0.0140952
732.425	0.0140118
732.503	0.0139855
732.581	0.0140475
732.660	0.0140471
732.738	0.0140699
732.816	0.0141643
732.894	0.0142133
732.972	0.0141038
733.050	0.0140743
733.128	0.0140715
733.206	0.0141159
733.285	0.0141436
733.363	0.0140836
733.441	0.0140704
733.519	0.0141588
733.597	0.0140743
733.675	0.0141158
733.753	0.0140452
733.831	0.0138079
733.910	0.0140789
733.988	0.0139755
734.066	0.0138483
734.144	0.0138574
734.222	0.0139953
734.300	0.0139008
734.378	0.0139027
734.456	0.0139240
734.535	0.0138002
734.613	0.0139907
734.691	0.0139010
734.769	0.0139545
734.847	0.0139259
734.925	0.0140186
735.003	0.0139828
735.081	0.0140006
735.160	0.0140385
735.238	0.0139644
735.316	0.0139287
735.394	0.0138866
735.472	0.0140307
735.550	0.0139021
735.628	0.0137727
735.706	0.0137283
735.785	0.0137811
735.863	0.0139862
735.941	0.0137955
736.019	0.0139426
736.097	0.0140118
736.175	0.0140237
736.253	0.0140405
736.331	0.0141717
736.410	0.0141076
736.488	0.0142436
736.566	0.0142176
736.644	0.0141777
736.722	0.0141747
736.800	0.0142967
736.878	0.0143867
736.956	0.0144684
737.035	0.0142101
737.113	0.0142865
737.191	0.0143357
737.269	0.0143163
737.347	0.0143986
737.425	0.0143733
737.503	0.0144115
737.581	0.0143074
737.660	0.0143838
737.738	0.0142129
737.816	0.0142953
737.894	0.0143816
737.972	0.0142471
738.050	0.0142052
738.128	0.0141623
738.206	0.0141497
738.285	0.0141713
738.363	0.0139830
738.441	0.0138981
738.519	0.0139709
738.597	0.0140236
738.675	0.0140198
738.753	0.0140796
738.831	0.0140157
738.910	0.0141048
738.988	0.0140243
739.066	0.0139138
739.144	0.0141235
739.222	0.0140410
739.300	0.0139670
739.378	0.0138977
739.456	0.0138026
739.535	0.0138985
739.613	0.0139850
739.691	0.0140300
739.769	0.0140022
739.847	0.0139182
739.925	0.0139969
740.003	0.0139827
740.081	0.0139289
740.160	0.0140343
740.238	0.0140201
740.316	0.0139624
740.394	0.0139067
740.472	0.0138914
740.550	0.0139223
740.628	0.0138484
740.706	0.0140004
740.785	0.0139228
740.863	0.0140163
740.941	0.0138725
741.019	0.0137132
741.097	0.0139181
741.175	0.0138151
741.253	0.0137246
741.331	0.0138213
741.410	0.0138335
741.488	0.0138802
741.566	0.0137694
741.644	0.0138584
741.722	0.0139515
741.800	0.0140024
741.878	0.0139152
741.956	0.0139602
742.035	0.0139146
742.113	0.0139355
742.191	0.0137910
742.269	0.0138007
742.347	0.0139738
742.425	0.0138226
742.503	0.0138127
742.581	0.0137643
742.660	0.0138386
742.738	0.0138594
742.816	0.0138535
742.894	0.0137199
742.972	0.0138399
743.050	0.0140131
743.128	0.0139153
743.206	0.0139101
743.285	0.0140092
743.363	0.0140445
743.441	0.0140462
743.519	0.0141550
743.597	0.0142178
743.675	0.0140854
743.753	0.0141797
743.831	0.0142839
743.910	0.0142534
743.988	0.0142174
744.066	0.0142090
744.144	0.0142899
744.222	0.0143678
744.300	0.0142949
744.378	0.0143600
744.456	0.0142438
744.535	0.0142002
744.613	0.0142770
744.691	0.0141074
744.769	0.0141312
744.847	0.0143280
744.925	0.0141478
745.003	0.0140958
745.081	0.0139765
745.160	0.0139908
745.238	0.0139365
745.316	0.0139684
745.394	0.0138422
745.472	0.0138247
745.550	0.0138596
745.628	0.0138215
745.706	0.0139249
