05/03/2022	20:41:58	Ver.	4.1	UNKNOWN
Optical Delay	660.003261	Delta X		0.078125	Sweeps	1	Scan Rate	0/0
Coordinates	Axis 1	NaN	Axis 2	NaN	Axis 3	NaN	Axis 4	NaN	Axis 5	NaN	Axis 6	0.000000
TX Power	0.000000	RX Power	0.000000

660.003	0.0142276
660.081	0.0141969
660.160	0.0141953
660.238	0.0143238
660.316	0.0143715
660.394	0.0142634
660.472	0.0143149
660.550	0.0142384
660.628	0.0143269
660.706	0.0142991
660.785	0.0140950
660.863	0.0141782
660.941	0.0142555
661.019	0.0142976
661.097	0.0141404
661.175	0.0143458
661.253	0.0142991
661.331	0.0142331
661.410	0.0141313
661.488	0.0142890
661.566	0.0142102
661.644	0.0142313
661.722	0.0140759
661.800	0.0142797
661.878	0.0142162
661.956	0.0141924
662.035	0.0143024
662.113	0.0141826
662.191	0.0143120
662.269	0.0142022
662.347	0.0142632
662.425	0.0143916
662.503	0.0143589
662.581	0.0142146
662.660	0.0142931
662.738	0.0141302
662.816	0.0141892
662.894	0.0142051
662.972	0.0141314
663.050	0.0142043
663.128	0.0142593
663.206	0.0142133
663.285	0.0141607
663.363	0.0142222
663.441	0.0143198
663.519	0.0142242
663.597	0.0143659
663.675	0.0141867
663.753	0.0142052
663.831	0.0143107
663.910	0.0142717
663.988	0.0142027
664.066	0.0144539
664.144	0.0141386
664.222	0.0142542
664.300	0.0142764
664.378	0.0142241
664.456	0.0142535
664.535	0.0142350
664.613	0.0143474
664.691	0.0143621
664.769	0.0141519
664.847	0.0141858
664.925	0.0143519
665.003	0.0143270
665.081	0.0143562
665.160	0.0141744
665.238	0.0142065
665.316	0.0142746
665.394	0.0142367
665.472	0.0144025
665.550	0.0143924
665.628	0.0142679
665.706	0.0142456
665.785	0.0142783
665.863	0.0143262
665.941	0.0142154
666.019	0.0142381
666.097	0.0145292
666.175	0.0143724
666.253	0.0144041
666.331	0.0143143
666.410	0.0142943
666.488	0.0142598
666.566	0.0142920
666.644	0.0143764
666.722	0.0143180
666.800	0.0144355
666.878	0.0143999
666.956	0.0142869
667.035	0.0143472
667.113	0.0142501
667.191	0.0143517
667.269	0.0143205
667.347	0.0142075
667.425	0.0143464
667.503	0.0143418
667.581	0.0143961
667.660	0.0143436
667.738	0.0143020
667.816	0.0143084
667.894	0.0143980
667.972	0.0142260
668.050	0.0143311
668.128	0.0144155
668.206	0.0143599
668.285	0.0143721
668.363	0.0144764
668.441	0.0144509
668.519	0.0143047
668.597	0.0145005
668.675	0.0143766
668.753	0.0143096
668.831	0.0143755
668.910	0.0142779
668.988	0.0143640
669.066	0.0143033
669.144	0.0142812
669.222	0.0143173
669.300	0.0142638
669.378	0.0143394
669.456	0.0143192
669.535	0.0144587
669.613	0.0143352
669.691	0.0142441
669.769	0.0141925
669.847	0.0144830
669.925	0.0144479
670.003	0.0143892
670.081	0.0143563
670.160	0.0143468
670.238	0.0143035
670.316	0.0143617
670.394	0.0143555
670.472	0.0144390
670.550	0.0144165
670.628	0.0142445
670.706	0.0143170
670.785	0.0143809
670.863	0.0143274
670.941	0.0143718
671.019	0.0144016
671.097	0.0144405
671.175	0.0144253
671.253	0.0143591
671.331	0.0143615
671.410	0.0143340
671.488	0.0143235
671.566	0.0144337
671.644	0.0143088
671.722	0.0143200
671.800	0.0142656
671.878	0.0142874
671.956	0.0143817
672.035	0.0144414
672.113	0.0143719
672.191	0.0144061
672.269	0.0142418
672.347	0.0143092
672.425	0.0144070
672.503	0.0143658
672.581	0.0144321
672.660	0.0144331
672.738	0.0143838
672.816	0.0143730
672.894	0.0142858
672.972	0.0143363
673.050	0.0144482
673.128	0.0143925
673.206	0.0144066
673.285	0.0144135
673.363	0.0143577
673.441	0.0144246
673.519	0.0143547
673.597	0.0143650
673.675	0.0143766
673.753	0.0144811
673.831	0.0142175
673.910	0.0143778
673.988	0.0144570
674.066	0.0144556
674.144	0.0143451
674.222	0.0144286
674.300	0.0143558
674.378	0.0144508
674.456	0.0144367
674.535	0.0143624
674.613	0.0144273
674.691	0.0144503
674.769	0.0144114
674.847	0.0144175
674.925	0.0144817
675.003	0.0144509
675.081	0.0143856
675.160	0.0146082
675.238	0.0145600
675.316	0.0143544
675.394	0.0143990
675.472	0.0144110
675.550	0.0143929
675.628	0.0143521
675.706	0.0144108
675.785	0.0142763
675.863	0.0143377
675.941	0.0144440
676.019	0.0143941
676.097	0.0143464
676.175	0.0145146
676.253	0.0142339
676.331	0.0142892
676.410	0.0142815
676.488	0.0143177
676.566	0.0144188
676.644	0.0144577
676.722	0.0144865
676.800	0.0143818
676.878	0.0142810
676.956	0.0144666
677.035	0.0144082
677.113	0.0144810
677.191	0.0144347
677.269	0.0145256
677.347	0.0143922
677.425	0.0145350
677.503	0.0146201
677.581	0.0144028
677.660	0.0145731
677.738	0.0146089
677.816	0.0144740
677.894	0.0144562
677.972	0.0145524
678.050	0.0145535
678.128	0.0144723
678.206	0.0144615
678.285	0.0143969
678.363	0.0144734
678.441	0.0145200
678.519	0.0144930
678.597	0.0143165
678.675	0.0142545
678.753	0.0143590
678.831	0.0143153
678.910	0.0143517
678.988	0.0144277
679.066	0.0143250
679.144	0.0142678
679.222	0.0143225
679.300	0.0143275
679.378	0.0142461
679.456	0.0142896
679.535	0.0143462
679.613	0.0142686
679.691	0.0144506
679.769	0.0141729
679.847	0.0143645
679.925	0.0143987
680.003	0.0143312
680.081	0.0142796
680.160	0.0144172
680.238	0.0144275
680.316	0.0142836
680.394	0.0143970
680.472	0.0143609
680.550	0.0143456
680.628	0.0144233
680.706	0.0142319
680.785	0.0144891
680.863	0.0144386
680.941	0.0144234
681.019	0.0144656
681.097	0.0144689
681.175	0.0144112
681.253	0.0143491
681.331	0.0144119
681.410	0.0144977
681.488	0.0143795
681.566	0.0144258
681.644	0.0144087
681.722	0.0143818
681.800	0.0143396
681.878	0.0144711
681.956	0.0144667
682.035	0.0143086
682.113	0.0144442
682.191	0.0144058
682.269	0.0144005
682.347	0.0145746
682.425	0.0144526
682.503	0.0144785
682.581	0.0143398
682.660	0.0143575
682.738	0.0145037
682.816	0.0144240
682.894	0.0143408
682.972	0.0141464
683.050	0.0142050
683.128	0.0142545
683.206	0.0143149
683.285	0.0142999
683.363	0.0142326
683.441	0.0141766
683.519	0.0140167
683.597	0.0141621
683.675	0.0141592
683.753	0.0141808
683.831	0.0142272
683.910	0.0143261
683.988	0.0141710
684.066	0.0143072
684.144	0.0142863
684.222	0.0140762
684.300	0.0142599
684.378	0.0141716
684.456	0.0141710
684.535	0.0142260
684.613	0.0141570
684.691	0.0142317
684.769	0.0142905
684.847	0.0142070
684.925	0.0143482
685.003	0.0144168
685.081	0.0142543
685.160	0.0141392
685.238	0.0143409
685.316	0.0142812
685.394	0.0142399
685.472	0.0142735
685.550	0.0143515
685.628	0.0142941
685.706	0.0141910
685.785	0.0143105
685.863	0.0143684
685.941	0.0143613
686.019	0.0143005
686.097	0.0142953
686.175	0.0143488
686.253	0.0144154
686.331	0.0144254
686.410	0.0143766
686.488	0.0143969
686.566	0.0141566
686.644	0.0144257
686.722	0.0142869
686.800	0.0143122
686.878	0.0143864
686.956	0.0143735
687.035	0.0143530
687.113	0.0143276
687.191	0.0143109
687.269	0.0143441
687.347	0.0142420
687.425	0.0141570
687.503	0.0143039
687.581	0.0142571
687.660	0.0142628
687.738	0.0141496
687.816	0.0141326
687.894	0.0143225
687.972	0.0141705
688.050	0.0142517
688.128	0.0141164
688.206	0.0142310
688.285	0.0142479
688.363	0.0142278
688.441	0.0142744
688.519	0.0141011
688.597	0.0140575
688.675	0.0140632
688.753	0.0140549
688.831	0.0141209
688.910	0.0142061
688.988	0.0141209
689.066	0.0140625
689.144	0.0141282
689.222	0.0142160
689.300	0.0141716
689.378	0.0143295
689.456	0.0141358
689.535	0.0142089
689.613	0.0142704
689.691	0.0143804
689.769	0.0144412
689.847	0.0143412
689.925	0.0144450
690.003	0.0143201
690.081	0.0144070
690.160	0.0143903
690.238	0.0142333
690.316	0.0142573
690.394	0.0143072
690.472	0.0142133
690.550	0.0141169
690.628	0.0143525
690.706	0.0142323
690.785	0.0142256
690.863	0.0140942
690.941	0.0140679
691.019	0.0142614
691.097	0.0142567
691.175	0.0141483
691.253	0.0141708
691.331	0.0142828
691.410	0.0142475
691.488	0.0143145
691.566	0.0142858
691.644	0.0143098
691.722	0.0143109
691.800	0.0142683
691.878	0.0143369
691.956	0.0143845
692.035	0.0141259
692.113	0.0143204
692.191	0.0141937
692.269	0.0141951
692.347	0.0143564
692.425	0.0142200
692.503	0.0143147
692.581	0.0143302
692.660	0.0142799
692.738	0.0143029
692.816	0.0141663
692.894	0.0142724
692.972	0.0143175
693.050	0.0144892
693.128	0.0142793
693.206	0.0142538
693.285	0.0142574
693.363	0.0142638
693.441	0.0142736
693.519	0.0142287
693.597	0.0142024
693.675	0.0141451
693.753	0.0141397
693.831	0.0141887
693.910	0.0140319
693.988	0.0140294
694.066	0.0140478
694.144	0.0141035
694.222	0.0140708
694.300	0.0139956
694.378	0.0139122
694.456	0.0140087
694.535	0.0139963
694.613	0.0139724
694.691	0.0142236
694.769	0.0141744
694.847	0.0142856
694.925	0.0140970
695.003	0.0141751
695.081	0.0142597
695.160	0.0144084
695.238	0.0143372
695.316	0.0144039
695.394	0.0143531
695.472	0.0144512
695.550	0.0143838
695.628	0.0143523
695.706	0.0142429
695.785	0.0144135
695.863	0.0144632
695.941	0.0141744
696.019	0.0142331
696.097	0.0141192
696.175	0.0142561
696.253	0.0142108
696.331	0.0141559
696.410	0.0140855
696.488	0.0141687
696.566	0.0141986
696.644	0.0141906
696.722	0.0141408
696.800	0.0143274
696.878	0.0142711
696.956	0.0142938
697.035	0.0144024
697.113	0.0142914
697.191	0.0144526
697.269	0.0146464
697.347	0.0146062
697.425	0.0143797
697.503	0.0145416
697.581	0.0145908
697.660	0.0144666
697.738	0.0145529
697.816	0.0144485
697.894	0.0144467
697.972	0.0143446
698.050	0.0144627
698.128	0.0144653
698.206	0.0143718
698.285	0.0143353
698.363	0.0142899
698.441	0.0142104
698.519	0.0142953
698.597	0.0142784
698.675	0.0144400
698.753	0.0143917
698.831	0.0142379
698.910	0.0141505
698.988	0.0143604
699.066	0.0144901
699.144	0.0143976
699.222	0.0143301
699.300	0.0143753
699.378	0.0143662
699.456	0.0143300
699.535	0.0144563
699.613	0.0143150
699.691	0.0144806
699.769	0.0143995
699.847	0.0142729
699.925	0.0142620
700.003	0.0142233
700.081	0.0141599
700.160	0.0143414
700.238	0.0143457
700.316	0.0141698
700.394	0.0142019
700.472	0.0142562
700.550	0.0142695
700.628	0.0143665
700.706	0.0144244
700.785	0.0144261
700.863	0.0142919
700.941	0.0144363
701.019	0.0144023
701.097	0.0144256
701.175	0.0144699
701.253	0.0143094
701.331	0.0143291
701.410	0.0143344
701.488	0.0141540
701.566	0.0143546
701.644	0.0144006
701.722	0.0143977
701.800	0.0143534
701.878	0.0142560
701.956	0.0142702
702.035	0.0142900
702.113	0.0143443
702.191	0.0144886
702.269	0.0142506
702.347	0.0143545
702.425	0.0143462
702.503	0.0144382
702.581	0.0144369
702.660	0.0144749
702.738	0.0143716
702.816	0.0145045
702.894	0.0145261
702.972	0.0143344
703.050	0.0144877
703.128	0.0145422
703.206	0.0145029
703.285	0.0144650
703.363	0.0144604
703.441	0.0145380
703.519	0.0146246
703.597	0.0146067
703.675	0.0145250
703.753	0.0144998
703.831	0.0143993
703.910	0.0145289
703.988	0.0142245
704.066	0.0143953
704.144	0.0142168
704.222	0.0141663
704.300	0.0143346
704.378	0.0143157
704.456	0.0142213
704.535	0.0142110
704.613	0.0142543
704.691	0.0142187
704.769	0.0142278
704.847	0.0144154
704.925	0.0143078
705.003	0.0144685
705.081	0.0144702
705.160	0.0145474
705.238	0.0144078
705.316	0.0144019
705.394	0.0144424
705.472	0.0143884
705.550	0.0144736
705.628	0.0144541
705.706	0.0143672
705.785	0.0142700
705.863	0.0142500
705.941	0.0142169
706.019	0.0143087
706.097	0.0140405
706.175	0.0141944
706.253	0.0142590
706.331	0.0141422
706.410	0.0141195
706.488	0.0143030
706.566	0.0142793
706.644	0.0141831
706.722	0.0143067
706.800	0.0142928
706.878	0.0141951
706.956	0.0142333
707.035	0.0143188
707.113	0.0143311
707.191	0.0143794
707.269	0.0142084
707.347	0.0144189
707.425	0.0142738
707.503	0.0142011
707.581	0.0142519
707.660	0.0142916
707.738	0.0144168
707.816	0.0143186
707.894	0.0143524
707.972	0.0143693
708.050	0.0144127
708.128	0.0143460
708.206	0.0144606
708.285	0.0145729
708.363	0.0145479
708.441	0.0143833
708.519	0.0145443
708.597	0.0144726
708.675	0.0145731
708.753	0.0144206
708.831	0.0143414
708.910	0.0144746
708.988	0.0144740
709.066	0.0143307
709.144	0.0144437
709.222	0.0143728
709.300	0.0143225
709.378	0.0142028
709.456	0.0144201
709.535	0.0143522
709.613	0.0144506
709.691	0.0144858
709.769	0.0142311
709.847	0.0143024
709.925	0.0144015
710.003	0.0144537
710.081	0.0143600
710.160	0.0142426
710.238	0.0144227
710.316	0.0144049
710.394	0.0144029
710.472	0.0144040
710.550	0.0143126
710.628	0.0142251
710.706	0.0143571
710.785	0.0142384
710.863	0.0141862
710.941	0.0142300
711.019	0.0143181
711.097	0.0141238
711.175	0.0141979
711.253	0.0143113
711.331	0.0141410
711.410	0.0141171
711.488	0.0141985
711.566	0.0141966
711.644	0.0141833
711.722	0.0143439
711.800	0.0143754
711.878	0.0142039
711.956	0.0144310
712.035	0.0142343
712.113	0.0143822
712.191	0.0141351
712.269	0.0140936
712.347	0.0140261
712.425	0.0140398
712.503	0.0139600
712.581	0.0139288
712.660	0.0139444
712.738	0.0140567
712.816	0.0138452
712.894	0.0139702
712.972	0.0139782
713.050	0.0138720
713.128	0.0138787
713.206	0.0139908
713.285	0.0140472
713.363	0.0140582
713.441	0.0140007
713.519	0.0139181
713.597	0.0141151
713.675	0.0140498
713.753	0.0139759
713.831	0.0138614
713.910	0.0140206
713.988	0.0139917
714.066	0.0140008
714.144	0.0138971
714.222	0.0138715
714.300	0.0139912
714.378	0.0140118
714.456	0.0139603
714.535	0.0140196
714.613	0.0139925
714.691	0.0140687
714.769	0.0140952
714.847	0.0140701
714.925	0.0141794
715.003	0.0141112
715.081	0.0142300
715.160	0.0140805
715.238	0.0140784
715.316	0.0141669
715.394	0.0141215
715.472	0.0141310
715.550	0.0141473
715.628	0.0140152
715.706	0.0140809
715.785	0.0142659
715.863	0.0142999
715.941	0.0142627
716.019	0.0140900
716.097	0.0143385
716.175	0.0143422
716.253	0.0142982
716.331	0.0142314
716.410	0.0142425
716.488	0.0143259
716.566	0.0143053
716.644	0.0142271
716.722	0.0142930
716.800	0.0141372
716.878	0.0141616
716.956	0.0142236
717.035	0.0143122
717.113	0.0142692
717.191	0.0141109
717.269	0.0140228
717.347	0.0141826
717.425	0.0142381
717.503	0.0141111
717.581	0.0140556
717.660	0.0142127
717.738	0.0141125
717.816	0.0142529
717.894	0.0142096
717.972	0.0142769
718.050	0.0143233
718.128	0.0142418
718.206	0.0143818
718.285	0.0144165
718.363	0.0143932
718.441	0.0144316
718.519	0.0143991
718.597	0.0144224
718.675	0.0143548
718.753	0.0142955
718.831	0.0142299
718.910	0.0143553
718.988	0.0142463
719.066	0.0142290
719.144	0.0142332
719.222	0.0141662
719.300	0.0141173
719.378	0.0141425
719.456	0.0141673
719.535	0.0142705
719.613	0.0141200
719.691	0.0141035
719.769	0.0141235
719.847	0.0142477
719.925	0.0142347
720.003	0.0141342
720.081	0.0141873
720.160	0.0142610
720.238	0.0141680
720.316	0.0142919
720.394	0.0140907
720.472	0.0141614
720.550	0.0143367
720.628	0.0139663
720.706	0.0140182
720.785	0.0142159
720.863	0.0141163
720.941	0.0141805
721.019	0.0140707
721.097	0.0140687
721.175	0.0143412
721.253	0.0143189
721.331	0.0142395
721.410	0.0142291
721.488	0.0142262
721.566	0.0143400
721.644	0.0144083
721.722	0.0144183
721.800	0.0143489
721.878	0.0144648
721.956	0.0144456
722.035	0.0144060
722.113	0.0144676
722.191	0.0144401
722.269	0.0143665
722.347	0.0144414
722.425	0.0145301
722.503	0.0145440
722.581	0.0143919
722.660	0.0143636
722.738	0.0144044
722.816	0.0145079
722.894	0.0144729
722.972	0.0143951
723.050	0.0144632
723.128	0.0143446
723.206	0.0143119
723.285	0.0143102
723.363	0.0143865
723.441	0.0144556
723.519	0.0142459
723.597	0.0142770
723.675	0.0142184
723.753	0.0143261
723.831	0.0144336
723.910	0.0143208
723.988	0.0142625
724.066	0.0143079
724.144	0.0142828
724.222	0.0143655
724.300	0.0143472
724.378	0.0143076
724.456	0.0142671
724.535	0.0143871
724.613	0.0144209
724.691	0.0144496
724.769	0.0145155
724.847	0.0144638
724.925	0.0143741
725.003	0.0142632
725.081	0.0143542
725.160	0.0145017
725.238	0.0143526
725.316	0.0143307
725.394	0.0143356
725.472	0.0143484
725.550	0.0144854
725.628	0.0144610
725.706	0.0142342
725.785	0.0144073
725.863	0.0143555
725.941	0.0143227
726.019	0.0142727
726.097	0.0142191
726.175	0.0142332
726.253	0.0142722
726.331	0.0143109
726.410	0.0143620
726.488	0.0141856
726.566	0.0142682
726.644	0.0143806
726.722	0.0143044
726.800	0.0142487
726.878	0.0141965
726.956	0.0143405
727.035	0.0143072
727.113	0.0143646
727.191	0.0143185
727.269	0.0143364
727.347	0.0142638
727.425	0.0143809
727.503	0.0142027
727.581	0.0142276
727.660	0.0142092
727.738	0.0141676
727.816	0.0142964
727.894	0.0143085
727.972	0.0143407
728.050	0.0144139
728.128	0.0142635
728.206	0.0142207
728.285	0.0144579
728.363	0.0144288
728.441	0.0144915
728.519	0.0145570
728.597	0.0145013
728.675	0.0145734
728.753	0.0145650
728.831	0.0145802
728.910	0.0146544
728.988	0.0145742
729.066	0.0146700
729.144	0.0145235
729.222	0.0147377
729.300	0.0145844
729.378	0.0146876
729.456	0.0145882
729.535	0.0146490
729.613	0.0146333
729.691	0.0146062
729.769	0.0145748
729.847	0.0145086
729.925	0.0146043
730.003	0.0144732
730.081	0.0144847
730.160	0.0144780
730.238	0.0145278
730.316	0.0144312
730.394	0.0142469
730.472	0.0143895
730.550	0.0145316
730.628	0.0143884
730.706	0.0142998
730.785	0.0143918
730.863	0.0144349
730.941	0.0144078
731.019	0.0144057
731.097	0.0143564
731.175	0.0142308
731.253	0.0143764
731.331	0.0145185
731.410	0.0144051
731.488	0.0143822
731.566	0.0144980
731.644	0.0144218
731.722	0.0144057
731.800	0.0143767
731.878	0.0144207
731.956	0.0143372
732.035	0.0143638
732.113	0.0142039
732.191	0.0143087
732.269	0.0143151
732.347	0.0143259
732.425	0.0142873
732.503	0.0142519
732.581	0.0143816
732.660	0.0143909
732.738	0.0142317
732.816	0.0142613
732.894	0.0143138
732.972	0.0142174
733.050	0.0140987
733.128	0.0141109
733.206	0.0139725
733.285	0.0140597
733.363	0.0142961
733.441	0.0142846
733.519	0.0142094
733.597	0.0140034
733.675	0.0141891
733.753	0.0142409
733.831	0.0142133
733.910	0.0142570
733.988	0.0141730
734.066	0.0142232
734.144	0.0141585
734.222	0.0141705
734.300	0.0141900
734.378	0.0141406
734.456	0.0140627
734.535	0.0142838
734.613	0.0141982
734.691	0.0142426
734.769	0.0142584
734.847	0.0141314
734.925	0.0141087
735.003	0.0141373
735.081	0.0141313
735.160	0.0143102
735.238	0.0144050
735.316	0.0143084
735.394	0.0142921
735.472	0.0143819
735.550	0.0144778
735.628	0.0143815
735.706	0.0143028
735.785	0.0144205
735.863	0.0146473
735.941	0.0144730
736.019	0.0146401
736.097	0.0145530
736.175	0.0146381
736.253	0.0146368
736.331	0.0145405
736.410	0.0143803
736.488	0.0144727
736.566	0.0146866
736.644	0.0144357
736.722	0.0145044
736.800	0.0146011
736.878	0.0144494
736.956	0.0144669
737.035	0.0142823
737.113	0.0143855
737.191	0.0142139
737.269	0.0143816
737.347	0.0143268
737.425	0.0142577
737.503	0.0143044
737.581	0.0143208
737.660	0.0142535
737.738	0.0143304
737.816	0.0143755
737.894	0.0142863
737.972	0.0142223
738.050	0.0142080
738.128	0.0141711
738.206	0.0142439
738.285	0.0143086
738.363	0.0142641
738.441	0.0142217
738.519	0.0141854
738.597	0.0144221
738.675	0.0142730
738.753	0.0140881
738.831	0.0142306
738.910	0.0142358
738.988	0.0141511
739.066	0.0141402
739.144	0.0143414
739.222	0.0142494
739.300	0.0141817
739.378	0.0143353
739.456	0.0142413
739.535	0.0143140
739.613	0.0143511
739.691	0.0143360
739.769	0.0142378
739.847	0.0141811
739.925	0.0141615
740.003	0.0141277
740.081	0.0140948
740.160	0.0141159
740.238	0.0141026
740.316	0.0141763
740.394	0.0142213
740.472	0.0141614
740.550	0.0141624
740.628	0.0142351
740.706	0.0142260
740.785	0.0142265
740.863	0.0141302
740.941	0.0143063
741.019	0.0142117
741.097	0.0141994
741.175	0.0142301
741.253	0.0141996
741.331	0.0141277
741.410	0.0142757
741.488	0.0141004
741.566	0.0140700
741.644	0.0140762
741.722	0.0141320
741.800	0.0142351
741.878	0.0142882
741.956	0.0142211
742.035	0.0143238
742.113	0.0143031
742.191	0.0141763
742.269	0.0143948
742.347	0.0144273
742.425	0.0145240
742.503	0.0143647
742.581	0.0144638
742.660	0.0145398
742.738	0.0145730
742.816	0.0145842
742.894	0.0144739
742.972	0.0145792
743.050	0.0146911
743.128	0.0146251
743.206	0.0146301
743.285	0.0146354
743.363	0.0145658
743.441	0.0146541
743.519	0.0145975
743.597	0.0144773
743.675	0.0144962
743.753	0.0145689
743.831	0.0145906
743.910	0.0144641
743.988	0.0146497
744.066	0.0144389
744.144	0.0144228
744.222	0.0144161
744.300	0.0143677
744.378	0.0143028
744.456	0.0143267
744.535	0.0141788
744.613	0.0142470
744.691	0.0142989
744.769	0.0142303
744.847	0.0141633
744.925	0.0143876
745.003	0.0142457
745.081	0.0140918
745.160	0.0142386
745.238	0.0140938
745.316	0.0142069
745.394	0.0142111
745.472	0.0142820
745.550	0.0141477
745.628	0.0141381
745.706	0.0141914
