05/03/2022	20:43:48	Ver.	4.1	UNKNOWN
Optical Delay	660.003261	Delta X		0.078125	Sweeps	1	Scan Rate	0/0
Coordinates	Axis 1	NaN	Axis 2	NaN	Axis 3	NaN	Axis 4	NaN	Axis 5	NaN	Axis 6	0.000000
TX Power	0.000000	RX Power	0.000000

660.003	0.0139601
660.081	0.0140776
660.160	0.0141315
660.238	0.0139465
660.316	0.0140153
660.394	0.0138743
660.472	0.0138416
660.550	0.0139935
660.628	0.0140403
660.706	0.0140176
660.785	0.0140236
660.863	0.0139922
660.941	0.0139204
661.019	0.0139755
661.097	0.0139941
661.175	0.0140322
661.253	0.0139092
661.331	0.0140104
661.410	0.0140618
661.488	0.0140289
661.566	0.0139613
661.644	0.0140851
661.722	0.0140346
661.800	0.0139845
661.878	0.0139437
661.956	0.0139717
662.035	0.0140376
662.113	0.0140070
662.191	0.0140852
662.269	0.0141219
662.347	0.0139829
662.425	0.0140065
662.503	0.0140197
662.581	0.0139693
662.660	0.0141467
662.738	0.0139958
662.816	0.0140112
662.894	0.0138992
662.972	0.0139816
663.050	0.0139722
663.128	0.0139510
663.206	0.0139429
663.285	0.0140733
663.363	0.0140698
663.441	0.0140929
663.519	0.0139309
663.597	0.0141260
663.675	0.0140835
663.753	0.0140356
663.831	0.0139827
663.910	0.0139954
663.988	0.0140360
664.066	0.0139211
664.144	0.0140301
664.222	0.0140671
664.300	0.0140902
664.378	0.0140700
664.456	0.0140157
664.535	0.0139360
664.613	0.0139931
664.691	0.0140060
664.769	0.0139860
664.847	0.0139525
664.925	0.0140683
665.003	0.0140743
665.081	0.0141305
665.160	0.0140687
665.238	0.0140974
665.316	0.0140901
665.394	0.0140894
665.472	0.0142603
665.550	0.0142068
665.628	0.0141000
665.706	0.0140881
665.785	0.0141175
665.863	0.0141863
665.941	0.0141599
666.019	0.0141785
666.097	0.0141073
666.175	0.0140379
666.253	0.0141228
666.331	0.0140166
666.410	0.0138908
666.488	0.0141799
666.566	0.0141508
666.644	0.0139629
666.722	0.0141888
666.800	0.0141692
666.878	0.0142460
666.956	0.0140083
667.035	0.0140310
667.113	0.0140945
667.191	0.0140615
667.269	0.0140134
667.347	0.0140794
667.425	0.0140282
667.503	0.0141624
667.581	0.0141628
667.660	0.0141740
667.738	0.0139847
667.816	0.0139120
667.894	0.0140190
667.972	0.0141331
668.050	0.0139810
668.128	0.0140916
668.206	0.0139747
668.285	0.0140372
668.363	0.0141167
668.441	0.0142300
668.519	0.0142111
668.597	0.0140590
668.675	0.0141477
668.753	0.0140904
668.831	0.0139431
668.910	0.0140595
668.988	0.0142268
669.066	0.0140652
669.144	0.0140662
669.222	0.0139053
669.300	0.0139561
669.378	0.0140453
669.456	0.0141009
669.535	0.0140807
669.613	0.0140160
669.691	0.0139333
669.769	0.0140767
669.847	0.0140329
669.925	0.0140472
670.003	0.0142732
670.081	0.0140403
670.160	0.0139752
670.238	0.0141801
670.316	0.0140306
670.394	0.0140973
670.472	0.0141211
670.550	0.0139610
670.628	0.0140353
670.706	0.0141427
670.785	0.0141634
670.863	0.0140392
670.941	0.0139777
671.019	0.0139847
671.097	0.0140746
671.175	0.0140459
671.253	0.0139904
671.331	0.0139994
671.410	0.0139796
671.488	0.0140269
671.566	0.0140587
671.644	0.0139196
671.722	0.0139717
671.800	0.0139317
671.878	0.0140148
671.956	0.0140551
672.035	0.0140672
672.113	0.0140732
672.191	0.0140594
672.269	0.0140953
672.347	0.0139130
672.425	0.0137844
672.503	0.0139162
672.581	0.0139635
672.660	0.0141001
672.738	0.0139873
672.816	0.0138374
672.894	0.0139704
672.972	0.0139771
673.050	0.0139063
673.128	0.0139160
673.206	0.0140403
673.285	0.0139194
673.363	0.0137739
673.441	0.0138780
673.519	0.0138941
673.597	0.0138115
673.675	0.0138697
673.753	0.0138399
673.831	0.0139176
673.910	0.0138261
673.988	0.0139105
674.066	0.0137854
674.144	0.0139213
674.222	0.0140907
674.300	0.0138493
674.378	0.0138909
674.456	0.0138855
674.535	0.0137174
674.613	0.0140078
674.691	0.0139448
674.769	0.0139908
674.847	0.0139729
674.925	0.0139556
675.003	0.0140118
675.081	0.0140735
675.160	0.0140556
675.238	0.0139455
675.316	0.0139925
675.394	0.0140719
675.472	0.0140176
675.550	0.0140534
675.628	0.0139951
675.706	0.0139794
675.785	0.0140341
675.863	0.0139713
675.941	0.0139268
676.019	0.0138792
676.097	0.0140765
676.175	0.0138905
676.253	0.0137289
676.331	0.0139017
676.410	0.0138288
676.488	0.0138243
676.566	0.0138017
676.644	0.0138362
676.722	0.0138802
676.800	0.0138148
676.878	0.0138062
676.956	0.0138302
677.035	0.0139162
677.113	0.0138377
677.191	0.0138393
677.269	0.0138332
677.347	0.0137193
677.425	0.0138428
677.503	0.0138419
677.581	0.0138447
677.660	0.0138921
677.738	0.0138299
677.816	0.0138068
677.894	0.0138432
677.972	0.0138204
678.050	0.0139893
678.128	0.0139307
678.206	0.0137582
678.285	0.0138717
678.363	0.0140478
678.441	0.0139272
678.519	0.0139411
678.597	0.0140386
678.675	0.0138306
678.753	0.0140132
678.831	0.0140826
678.910	0.0139030
678.988	0.0139339
679.066	0.0139833
679.144	0.0140327
679.222	0.0139608
679.300	0.0139993
679.378	0.0140351
679.456	0.0138699
679.535	0.0140692
679.613	0.0139809
679.691	0.0138964
679.769	0.0139939
679.847	0.0140707
679.925	0.0141429
680.003	0.0139378
680.081	0.0139571
680.160	0.0140379
680.238	0.0140342
680.316	0.0138284
680.394	0.0139671
680.472	0.0140533
680.550	0.0139595
680.628	0.0140569
680.706	0.0139976
680.785	0.0139391
680.863	0.0139397
680.941	0.0139647
681.019	0.0140933
681.097	0.0139200
681.175	0.0138364
681.253	0.0139286
681.331	0.0138545
681.410	0.0138167
681.488	0.0138585
681.566	0.0139213
681.644	0.0137769
681.722	0.0138449
681.800	0.0140154
681.878	0.0139581
681.956	0.0138549
682.035	0.0139330
682.113	0.0139291
682.191	0.0139001
682.269	0.0139603
682.347	0.0139076
682.425	0.0139198
682.503	0.0140445
682.581	0.0140079
682.660	0.0139556
682.738	0.0140475
682.816	0.0140583
682.894	0.0140746
682.972	0.0140368
683.050	0.0140805
683.128	0.0140389
683.206	0.0141390
683.285	0.0140299
683.363	0.0141183
683.441	0.0141582
683.519	0.0139314
683.597	0.0140372
683.675	0.0140888
683.753	0.0139808
683.831	0.0140331
683.910	0.0140449
683.988	0.0139954
684.066	0.0140900
684.144	0.0140909
684.222	0.0139484
684.300	0.0139754
684.378	0.0140678
684.456	0.0141148
684.535	0.0139025
684.613	0.0139480
684.691	0.0140347
684.769	0.0139267
684.847	0.0140280
684.925	0.0139438
685.003	0.0140453
685.081	0.0139452
685.160	0.0139570
685.238	0.0140145
685.316	0.0139607
685.394	0.0139777
685.472	0.0140049
685.550	0.0139888
685.628	0.0139520
685.706	0.0139020
685.785	0.0139075
685.863	0.0137907
685.941	0.0138198
686.019	0.0138094
686.097	0.0139074
686.175	0.0138488
686.253	0.0140051
686.331	0.0137209
686.410	0.0138594
686.488	0.0139818
686.566	0.0139603
686.644	0.0139774
686.722	0.0140295
686.800	0.0141193
686.878	0.0139590
686.956	0.0138400
687.035	0.0140086
687.113	0.0140443
687.191	0.0141759
687.269	0.0140368
687.347	0.0141218
687.425	0.0141179
687.503	0.0141118
687.581	0.0141553
687.660	0.0142485
687.738	0.0141055
687.816	0.0139526
687.894	0.0140148
687.972	0.0141090
688.050	0.0141283
688.128	0.0139953
688.206	0.0140118
688.285	0.0140804
688.363	0.0140380
688.441	0.0140192
688.519	0.0140197
688.597	0.0139633
688.675	0.0140103
688.753	0.0141402
688.831	0.0141292
688.910	0.0141736
688.988	0.0141071
689.066	0.0140997
689.144	0.0140435
689.222	0.0140943
689.300	0.0142054
689.378	0.0142340
689.456	0.0142117
689.535	0.0142022
689.613	0.0142429
689.691	0.0140893
689.769	0.0140895
689.847	0.0140903
689.925	0.0140564
690.003	0.0141083
690.081	0.0140857
690.160	0.0141010
690.238	0.0140134
690.316	0.0141473
690.394	0.0139964
690.472	0.0141111
690.550	0.0140708
690.628	0.0140496
690.706	0.0141856
690.785	0.0140284
690.863	0.0141766
690.941	0.0141841
691.019	0.0140883
691.097	0.0141245
691.175	0.0140443
691.253	0.0140541
691.331	0.0142092
691.410	0.0140895
691.488	0.0140698
691.566	0.0139834
691.644	0.0139935
691.722	0.0140233
691.800	0.0139186
691.878	0.0139722
691.956	0.0139923
692.035	0.0139731
692.113	0.0139532
692.191	0.0140983
692.269	0.0138811
692.347	0.0139160
692.425	0.0140662
692.503	0.0139906
692.581	0.0140374
692.660	0.0139697
692.738	0.0140141
692.816	0.0141785
692.894	0.0142347
692.972	0.0140621
693.050	0.0139223
693.128	0.0140559
693.206	0.0139331
693.285	0.0140266
693.363	0.0140034
693.441	0.0138881
693.519	0.0141142
693.597	0.0139494
693.675	0.0138895
693.753	0.0139107
693.831	0.0138699
693.910	0.0140303
693.988	0.0139558
694.066	0.0139609
694.144	0.0139054
694.222	0.0139946
694.300	0.0139444
694.378	0.0140807
694.456	0.0139478
694.535	0.0139553
694.613	0.0140156
694.691	0.0139792
694.769	0.0140775
694.847	0.0138705
694.925	0.0139668
695.003	0.0139510
695.081	0.0141441
695.160	0.0140643
695.238	0.0141709
695.316	0.0140393
695.394	0.0140212
695.472	0.0141315
695.550	0.0140620
695.628	0.0137971
695.706	0.0138789
695.785	0.0139507
695.863	0.0139569
695.941	0.0138442
696.019	0.0136793
696.097	0.0137280
696.175	0.0139491
696.253	0.0137154
696.331	0.0137571
696.410	0.0136283
696.488	0.0138208
696.566	0.0138986
696.644	0.0137206
696.722	0.0138063
696.800	0.0136861
696.878	0.0137268
696.956	0.0138048
697.035	0.0137872
697.113	0.0138283
697.191	0.0138454
697.269	0.0138968
697.347	0.0138524
697.425	0.0136868
697.503	0.0137482
697.581	0.0138781
697.660	0.0138426
697.738	0.0137045
697.816	0.0137379
697.894	0.0135799
697.972	0.0136505
698.050	0.0138266
698.128	0.0137823
698.206	0.0137190
698.285	0.0138334
698.363	0.0137701
698.441	0.0137154
698.519	0.0138026
698.597	0.0138931
698.675	0.0136791
698.753	0.0136760
698.831	0.0139160
698.910	0.0138241
698.988	0.0138108
699.066	0.0138116
699.144	0.0138685
699.222	0.0139048
699.300	0.0138953
699.378	0.0138456
699.456	0.0138678
699.535	0.0138464
699.613	0.0138269
699.691	0.0138572
699.769	0.0138890
699.847	0.0138599
699.925	0.0139709
700.003	0.0139057
700.081	0.0138862
700.160	0.0137333
700.238	0.0139114
700.316	0.0139271
700.394	0.0137679
700.472	0.0139763
700.550	0.0141920
700.628	0.0139898
700.706	0.0139684
700.785	0.0140012
700.863	0.0139610
700.941	0.0140398
701.019	0.0140166
701.097	0.0140660
701.175	0.0140953
701.253	0.0140957
701.331	0.0143152
701.410	0.0142684
701.488	0.0141961
701.566	0.0140049
701.644	0.0141332
701.722	0.0141603
701.800	0.0140796
701.878	0.0139815
701.956	0.0140466
702.035	0.0139273
702.113	0.0140294
702.191	0.0138939
702.269	0.0141121
702.347	0.0140302
702.425	0.0140177
702.503	0.0140620
702.581	0.0141335
702.660	0.0139708
702.738	0.0142873
702.816	0.0141603
702.894	0.0139993
702.972	0.0140659
703.050	0.0141610
703.128	0.0141232
703.206	0.0141945
703.285	0.0140533
703.363	0.0139702
703.441	0.0139161
703.519	0.0139716
703.597	0.0138645
703.675	0.0139099
703.753	0.0138177
703.831	0.0138424
703.910	0.0137679
703.988	0.0137477
704.066	0.0137280
704.144	0.0138468
704.222	0.0138594
704.300	0.0137274
704.378	0.0137527
704.456	0.0137924
704.535	0.0139762
704.613	0.0137862
704.691	0.0139703
704.769	0.0138801
704.847	0.0139801
704.925	0.0139188
705.003	0.0137128
705.081	0.0138006
705.160	0.0139182
705.238	0.0138380
705.316	0.0138525
705.394	0.0138583
705.472	0.0139771
705.550	0.0138357
705.628	0.0139533
705.706	0.0138355
705.785	0.0138674
705.863	0.0139700
705.941	0.0138890
706.019	0.0138395
706.097	0.0140213
706.175	0.0141024
706.253	0.0140113
706.331	0.0139992
706.410	0.0138821
706.488	0.0139095
706.566	0.0139445
706.644	0.0139552
706.722	0.0138950
706.800	0.0140054
706.878	0.0138210
706.956	0.0139394
707.035	0.0138353
707.113	0.0139125
707.191	0.0139573
707.269	0.0138592
707.347	0.0139307
707.425	0.0139183
707.503	0.0138578
707.581	0.0139115
707.660	0.0139912
707.738	0.0139704
707.816	0.0140565
707.894	0.0140211
707.972	0.0139042
708.050	0.0139399
708.128	0.0138932
708.206	0.0140392
708.285	0.0140638
708.363	0.0138902
708.441	0.0140672
708.519	0.0140334
708.597	0.0139778
708.675	0.0139964
708.753	0.0140758
708.831	0.0140436
708.910	0.0139569
708.988	0.0140205
709.066	0.0140360
709.144	0.0139603
709.222	0.0140706
709.300	0.0139557
709.378	0.0140582
709.456	0.0140556
709.535	0.0140102
709.613	0.0141814
709.691	0.0140324
709.769	0.0140880
709.847	0.0140137
709.925	0.0138370
710.003	0.0139761
710.081	0.0139076
710.160	0.0138913
710.238	0.0139220
710.316	0.0138743
710.394	0.0139358
710.472	0.0139588
710.550	0.0139302
710.628	0.0137746
710.706	0.0138815
710.785	0.0139833
710.863	0.0139352
710.941	0.0138802
711.019	0.0140152
711.097	0.0139758
711.175	0.0139228
711.253	0.0140026
711.331	0.0139922
711.410	0.0141147
711.488	0.0137711
711.566	0.0140089
711.644	0.0139473
711.722	0.0138589
711.800	0.0139855
711.878	0.0138994
711.956	0.0139218
712.035	0.0140156
712.113	0.0139085
712.191	0.0140279
712.269	0.0139819
712.347	0.0140128
712.425	0.0139816
712.503	0.0140010
712.581	0.0141529
712.660	0.0140206
712.738	0.0140725
712.816	0.0141070
712.894	0.0140726
712.972	0.0140205
713.050	0.0139983
713.128	0.0140575
713.206	0.0140518
713.285	0.0140320
713.363	0.0140799
713.441	0.0140733
713.519	0.0140273
713.597	0.0142371
713.675	0.0140293
713.753	0.0140712
713.831	0.0139526
713.910	0.0140588
713.988	0.0140617
714.066	0.0140848
714.144	0.0140585
714.222	0.0141856
714.300	0.0140605
714.378	0.0141340
714.456	0.0139989
714.535	0.0140155
714.613	0.0139828
714.691	0.0139877
714.769	0.0140629
714.847	0.0139622
714.925	0.0140052
715.003	0.0140220
715.081	0.0138171
715.160	0.0138533
715.238	0.0138052
715.316	0.0138760
715.394	0.0137284
715.472	0.0138570
715.550	0.0139074
715.628	0.0139086
715.706	0.0138165
715.785	0.0139791
715.863	0.0139447
715.941	0.0139257
716.019	0.0139438
716.097	0.0139026
716.175	0.0139604
716.253	0.0139454
716.331	0.0140239
716.410	0.0141935
716.488	0.0139231
716.566	0.0139706
716.644	0.0139502
716.722	0.0138423
716.800	0.0138206
716.878	0.0138677
716.956	0.0137814
717.035	0.0138108
717.113	0.0138272
717.191	0.0138186
717.269	0.0138036
717.347	0.0138193
717.425	0.0138408
717.503	0.0137887
717.581	0.0137040
717.660	0.0138173
717.738	0.0138718
717.816	0.0138305
717.894	0.0139091
717.972	0.0138986
718.050	0.0138731
718.128	0.0138699
718.206	0.0137553
718.285	0.0138193
718.363	0.0136935
718.441	0.0137862
718.519	0.0138393
718.597	0.0138486
718.675	0.0137762
718.753	0.0137772
718.831	0.0138911
718.910	0.0137511
718.988	0.0139169
719.066	0.0139233
719.144	0.0139449
719.222	0.0138269
719.300	0.0139977
719.378	0.0141021
719.456	0.0139880
719.535	0.0139754
719.613	0.0139606
719.691	0.0140871
719.769	0.0140722
719.847	0.0140905
719.925	0.0140717
720.003	0.0141319
720.081	0.0140635
720.160	0.0139912
720.238	0.0141358
720.316	0.0141329
720.394	0.0140234
720.472	0.0141573
720.550	0.0141368
720.628	0.0142255
720.706	0.0142258
720.785	0.0140720
720.863	0.0142741
720.941	0.0140970
721.019	0.0140782
721.097	0.0141432
721.175	0.0141325
721.253	0.0142474
721.331	0.0141267
721.410	0.0140001
721.488	0.0141983
721.566	0.0140046
721.644	0.0140231
721.722	0.0139598
721.800	0.0140195
721.878	0.0142471
721.956	0.0139627
722.035	0.0140100
722.113	0.0140572
722.191	0.0140585
722.269	0.0141167
722.347	0.0141108
722.425	0.0140455
722.503	0.0142162
722.581	0.0142224
722.660	0.0142125
722.738	0.0141359
722.816	0.0140676
722.894	0.0141207
722.972	0.0139378
723.050	0.0140834
723.128	0.0140681
723.206	0.0139183
723.285	0.0138735
723.363	0.0141025
723.441	0.0141761
723.519	0.0138535
723.597	0.0138473
723.675	0.0140101
723.753	0.0140048
723.831	0.0140260
723.910	0.0139913
723.988	0.0138100
724.066	0.0139553
724.144	0.0139408
724.222	0.0139917
724.300	0.0139353
724.378	0.0139606
724.456	0.0141267
724.535	0.0140292
724.613	0.0140004
724.691	0.0139429
724.769	0.0139034
724.847	0.0141287
724.925	0.0139692
725.003	0.0139662
725.081	0.0140448
725.160	0.0137448
725.238	0.0139557
725.316	0.0141466
725.394	0.0139124
725.472	0.0138339
725.550	0.0138887
725.628	0.0138892
725.706	0.0139315
725.785	0.0138684
725.863	0.0137968
725.941	0.0139740
726.019	0.0141171
726.097	0.0140559
726.175	0.0140603
726.253	0.0139954
726.331	0.0140022
726.410	0.0140761
726.488	0.0139645
726.566	0.0140938
726.644	0.0139561
726.722	0.0141323
726.800	0.0141601
726.878	0.0141355
726.956	0.0141367
727.035	0.0141477
727.113	0.0141356
727.191	0.0141823
727.269	0.0141905
727.347	0.0141434
727.425	0.0142795
727.503	0.0140158
727.581	0.0142359
727.660	0.0142605
727.738	0.0141142
727.816	0.0140723
727.894	0.0141250
727.972	0.0140626
728.050	0.0140704
728.128	0.0140614
728.206	0.0140028
728.285	0.0139622
728.363	0.0139724
728.441	0.0138535
728.519	0.0139938
728.597	0.0141549
728.675	0.0139454
728.753	0.0140138
728.831	0.0141576
728.910	0.0139973
728.988	0.0139668
729.066	0.0139077
729.144	0.0139221
729.222	0.0139391
729.300	0.0141294
729.378	0.0140305
729.456	0.0139336
729.535	0.0139336
729.613	0.0140710
729.691	0.0139235
729.769	0.0140942
729.847	0.0140350
729.925	0.0138609
730.003	0.0140001
730.081	0.0140010
730.160	0.0140417
730.238	0.0139562
730.316	0.0139296
730.394	0.0140798
730.472	0.0141265
730.550	0.0139974
730.628	0.0140029
730.706	0.0139801
730.785	0.0138385
730.863	0.0139680
730.941	0.0140120
731.019	0.0139209
731.097	0.0139151
731.175	0.0138661
731.253	0.0137554
731.331	0.0139562
731.410	0.0137131
731.488	0.0139193
731.566	0.0139202
731.644	0.0138557
731.722	0.0138132
731.800	0.0139022
731.878	0.0140600
731.956	0.0137540
732.035	0.0138146
732.113	0.0140923
732.191	0.0137846
732.269	0.0139339
732.347	0.0139535
732.425	0.0138012
732.503	0.0136694
732.581	0.0136986
732.660	0.0138158
732.738	0.0139620
732.816	0.0138425
732.894	0.0139134
732.972	0.0139468
733.050	0.0138133
733.128	0.0138931
733.206	0.0140789
733.285	0.0137762
733.363	0.0138750
733.441	0.0140347
733.519	0.0140023
733.597	0.0140073
733.675	0.0139241
733.753	0.0140774
733.831	0.0140994
733.910	0.0139899
733.988	0.0139870
734.066	0.0141502
734.144	0.0139874
734.222	0.0140192
734.300	0.0140583
734.378	0.0140595
734.456	0.0139520
734.535	0.0139336
734.613	0.0139975
734.691	0.0139575
734.769	0.0140170
734.847	0.0139905
734.925	0.0139954
735.003	0.0139468
735.081	0.0138550
735.160	0.0138760
735.238	0.0138222
735.316	0.0138795
735.394	0.0138902
735.472	0.0138542
735.550	0.0138769
735.628	0.0137666
735.706	0.0139081
735.785	0.0139089
735.863	0.0139178
735.941	0.0139304
736.019	0.0138802
736.097	0.0137622
736.175	0.0139571
736.253	0.0138978
736.331	0.0138964
736.410	0.0138748
736.488	0.0139306
736.566	0.0138255
736.644	0.0139005
736.722	0.0138330
736.800	0.0138286
736.878	0.0140095
736.956	0.0138525
737.035	0.0136253
737.113	0.0139257
737.191	0.0139610
737.269	0.0139335
737.347	0.0139107
737.425	0.0138459
737.503	0.0140240
737.581	0.0141041
737.660	0.0139326
737.738	0.0138613
737.816	0.0138801
737.894	0.0138408
737.972	0.0139184
738.050	0.0139890
738.128	0.0139426
738.206	0.0140063
738.285	0.0140347
738.363	0.0138558
738.441	0.0140220
738.519	0.0139515
738.597	0.0138911
738.675	0.0140468
738.753	0.0139538
738.831	0.0140301
738.910	0.0140408
738.988	0.0140039
739.066	0.0141117
739.144	0.0140397
739.222	0.0140099
739.300	0.0139939
739.378	0.0138610
739.456	0.0139404
739.535	0.0139189
739.613	0.0138075
739.691	0.0139368
739.769	0.0139767
739.847	0.0139268
739.925	0.0139269
740.003	0.0139124
740.081	0.0139192
740.160	0.0140199
740.238	0.0140342
740.316	0.0140977
740.394	0.0140256
740.472	0.0141200
740.550	0.0140992
740.628	0.0141754
740.706	0.0140957
740.785	0.0140530
740.863	0.0141996
740.941	0.0142628
741.019	0.0141438
741.097	0.0141748
741.175	0.0142135
741.253	0.0142110
741.331	0.0141912
741.410	0.0142029
741.488	0.0141950
741.566	0.0142734
741.644	0.0142536
741.722	0.0141591
741.800	0.0141947
741.878	0.0142098
741.956	0.0141133
742.035	0.0140154
742.113	0.0142178
742.191	0.0141303
742.269	0.0140276
742.347	0.0139472
742.425	0.0140755
742.503	0.0140657
742.581	0.0139714
742.660	0.0138512
742.738	0.0139931
742.816	0.0140247
742.894	0.0139717
742.972	0.0139225
743.050	0.0139294
743.128	0.0140899
743.206	0.0140500
743.285	0.0139160
743.363	0.0139712
743.441	0.0140188
743.519	0.0141299
743.597	0.0141280
743.675	0.0139594
743.753	0.0139671
743.831	0.0139751
743.910	0.0140257
743.988	0.0140001
744.066	0.0140123
744.144	0.0140453
744.222	0.0140189
744.300	0.0140173
744.378	0.0140881
744.456	0.0139437
744.535	0.0138405
744.613	0.0140851
744.691	0.0140229
744.769	0.0139056
744.847	0.0140639
744.925	0.0139417
745.003	0.0140326
745.081	0.0140517
745.160	0.0139335
745.238	0.0139468
745.316	0.0140502
745.394	0.0139972
745.472	0.0139878
745.550	0.0139276
745.628	0.0140649
745.706	0.0141140
